>compound Chloridazon
#instrument LTQ Orbitrap XL Thermo Scientific
>formula C10H8Cl1N3O1
#smiles ClC(=C(N)C=N1)C(=O)N1-c(ccc2)cc2
#inchi InChI=1S/C10H8ClN3O/c11-9-8(12)6-13-14(10(9)15)7-4-2-1-3-5-7/h1-6H,12H2
>charge 1
>ionization [M+H]+
>parentmass 222.0429

>collision 35
77.0386 52544.0
92.0496 50760.4
94.0652 72596.0
104.0495 563931.4
128.9851 55601.9
130.0651 5225.4
146.0115 35191.8
159.0554 22016.4
177.022 10673.3
186.0662 91628.1
193.029 78169.9
195.0328 10310.3
205.0163 71523.5
222.0428 161570.0

>collision 75
53.0385 5576.3
55.029 9081.7
63.9949 5106.4
65.0386 50760.3
66.0214 2554.1
67.0289 2420.8
75.9949 3896.9
77.0386 108388.9
83.0241 4457.7
87.9949 21542.0
92.0495 236871.9
93.0573 13786.9
94.0652 64304.1
95.0493 12352.1
100.9902 23968.4
101.9742 3832.1
104.0495 195449.6
105.0447 31150.8
116.9976 5240.8
119.0604 5236.2
125.0152 2840.9
128.9851 72170.1
130.0652 16181.9
131.0604 6429.7
132.0445 8571.2
132.0682 2068.4
146.0116 66862.7
149.0152 5106.2
150.0106 14066.7
158.0599 3025.4
158.0716 2526.7
159.0554 6356.7
159.0796 2618.5
160.0631 2311.0
178.0057 2562.2
186.0662 8835.5
193.029 26799.1
195.0322 3584.5
205.0163 2362.0
222.0428 123679.1

>collision 75
53.0386 11335.1
55.0291 21226.1
63.9949 11794.9
65.0386 109653.1
66.0214 4430.6
67.0293 4232.1
75.9948 9261.2
77.0387 196338.7
83.024 9810.7
87.9949 43406.1
92.0496 426364.8
93.0574 33369.6
94.0653 103339.3
95.0492 25838.4
100.9902 52316.6
101.9743 14723.6
104.0496 357242.9
105.0448 59899.7
116.9976 8012.6
119.0012 4563.9
119.0603 15054.1
125.0151 2560.9
128.9851 129221.3
130.0652 26496.3
131.0605 18755.4
132.0445 16565.3
132.0684 3637.1
140.0268 6008.0
142.0528 6051.3
146.0117 124728.3
149.0156 12135.8
150.0108 30797.3
158.0606 7200.3
158.0713 3998.9
159.0554 14111.3
160.0631 6587.2
177.0219 4105.0
186.0663 14652.4
193.0291 53257.3
195.032 5791.0
205.0164 10151.4
222.0432 316719.1

>collision 30
104.0495 3786.2
222.0431 2302847.9

>collision 30
77.0383 5263.0
104.0496 8816.4
222.0431 3864896.6

>collision 15
77.0383 3298.6
222.043 2393351.7

>collision 60
55.029 17965.9
63.995 6788.7
65.0386 43021.7
67.0291 4999.4
75.995 7144.5
77.0386 116870.1
83.0239 8303.8
87.9948 13507.5
92.0495 338091.8
93.0574 16020.0
94.0652 118557.1
95.0492 13436.8
100.9902 23340.0
101.9742 6730.3
104.0495 472996.9
105.0448 27747.7
116.9977 5100.1
119.0602 11011.2
128.985 139242.5
130.0649 12870.3
131.0605 9532.3
132.0444 10753.6
140.0261 3620.0
142.0526 3268.0
146.0116 99200.6
149.0152 10230.4
150.0108 9382.7
159.0556 18111.4
159.0791 3249.2
160.0627 3858.3
177.0211 7597.3
178.0057 6676.0
186.0662 41568.1
193.0289 66151.5
195.0324 13141.4
205.0165 23735.3
222.0428 1417472.6

>collision 45
65.0386 7444.0
77.0384 31187.2
92.0495 75685.6
94.0652 45544.6
100.9903 3529.9
104.0496 199790.6
105.0446 5717.0
128.985 36852.2
146.0117 22825.8
159.0554 3949.0
159.0784 3880.1
186.0663 33251.9
193.0292 18765.4
195.0322 5989.4
205.0161 10399.0
222.0431 3375664.2

>collision 15
77.0383 10431.9
222.043 4276215.4

>collision 90
53.0385 6086.7
55.029 4873.6
63.9948 6651.4
65.0386 88403.1
66.0212 3540.5
73.9792 3210.0
75.9949 5793.3
77.0386 122456.1
81.0335 1444.4
87.9949 28662.4
92.0495 158410.1
93.0573 21087.9
94.0651 31140.5
95.0491 14481.6
100.9901 40454.9
101.9741 4019.9
104.0495 79443.4
105.0447 41248.4
114.0337 2329.6
116.9976 6430.4
119.0604 4382.8
122.9995 1946.3
125.0152 2391.0
128.985 40097.6
130.0651 17946.1
131.0604 6828.3
132.0444 5208.1
132.0684 2389.5
142.0525 2441.2
146.0115 47628.1
149.0154 3292.2
150.0105 13287.5
158.0607 1375.6
159.0553 4149.9
160.063 1564.2
186.0658 1963.8
193.029 7949.3
222.0421 6645.7

>collision 90
53.0385 10138.6
55.029 17535.9
63.9949 13070.6
65.0386 177703.2
66.0212 13312.8
67.0291 3947.8
73.9793 4039.5
75.9949 12098.2
77.0386 244860.5
81.0334 2605.6
83.0241 3904.3
87.9949 56705.6
92.0495 306616.1
93.0574 49416.7
94.0652 76079.2
95.0491 36315.1
100.9901 77810.6
101.9741 9457.7
104.0495 172051.0
105.0447 67265.3
114.0337 4590.9
116.9977 10469.9
117.0576 3422.5
119.0603 8893.7
122.9994 5673.8
128.9851 79212.3
130.0652 31941.3
131.0606 14694.6
132.0443 15805.6
132.0685 5492.4
140.0264 3106.7
142.0531 6212.5
146.0117 106971.7
149.0152 9449.7
150.0105 20999.2
158.06 5076.9
159.0552 3081.4
159.0795 2760.1
186.0658 5743.0
193.0293 17344.8

>collision 60
53.0385 3094.9
55.0291 7221.9
63.9948 5085.5
65.0386 20349.8
75.9949 2947.6
77.0386 56637.5
83.0237 3237.4
87.9949 9709.1
92.0495 169345.3
93.0572 4024.0
94.0652 58221.8
95.0492 6253.6
100.9901 12508.0
101.974 3910.5
104.0495 251815.1
105.0447 16055.3
117.0573 1898.2
119.0007 2388.4
119.0604 7773.1
128.985 63219.9
130.0651 6132.0
131.0605 4571.8
132.0444 4570.3
146.0116 44068.5
149.0151 5746.4
150.0108 4601.3
158.0603 2736.3
159.0555 11043.0
159.0787 2845.9
177.0215 5147.3
186.0661 23116.8
193.0289 37184.6
195.0321 4207.4
205.0165 8021.4
222.043 780578.6

>collision 45
65.0386 2561.2
77.0385 13774.7
92.0495 40573.2
94.0652 18140.0
104.0495 109005.0
105.0445 4003.9
119.0602 2444.7
128.9852 15683.8
146.0116 11615.9
159.0551 3740.3
186.0663 12983.8
193.0286 8148.2
195.0317 3142.7
205.0164 7387.9
222.0431 1834333.3

>collision 35
77.0385 8842.6
92.0495 7659.1
94.0651 15614.0
104.0495 129307.5
105.0447 1915.4
128.9849 9200.9
130.0649 1113.4
146.0116 4734.3
149.0154 4490.2
158.0601 1175.2
159.0554 3189.6
186.0661 19959.7
193.0288 17683.9
195.0318 3549.5
205.0163 15624.4
222.0427 12775.7

