>compound Atenolol
#instrument LTQ Orbitrap XL Thermo Scientific
>formula C14H22N2O3
#smiles CC(C)NCC(O)COc1ccc(cc1)CC(N)=O
#inchi InChI=1S/C14H22N2O3/c1-10(2)16-8-12(17)9-19-13-5-3-11(4-6-13)7-14(15)18/h3-6,10,12,16-17H,7-9H2,1-2H3,(H2,15,18)
>charge 1
>ionization [M+H]+
>parentmass 267.1703

>collision 30
56.0495 8100.7
72.0808 11432.9
74.0601 27999.6
98.0964 23823.9
116.107 68042.2
145.0648 18168.7
162.0913 13223.6
164.0707 5650.4
173.06 6969.2
178.0862 14080.6
190.0862 129442.4
204.138 3695.7
207.1121 5798.5
208.0967 32518.4
225.1234 172244.2
249.1596 27977.2
250.1439 5327.5
267.1706 2761361.8

>collision 35
74.06 37555.8
98.0964 37084.6
116.107 214660.3
133.0649 1956.3
145.0647 104409.2
152.0704 2682.9
162.0913 91667.3
163.0754 2925.9
164.0705 17604.1
173.0596 41439.9
178.0861 28538.0
180.1018 50174.6
190.0863 884885.4
204.1382 24672.7
207.1127 34926.2
208.0968 334762.1
222.1487 5621.1
225.1234 959625.1
232.1331 22831.2
249.1596 69180.1
250.1436 90354.9

>collision 90
56.0494 67227.3
58.0651 15491.0
72.0808 23403.9
74.06 79734.2
77.0387 19322.8
79.0543 31035.9
84.0812 5329.0
89.0385 63925.5
91.0542 97883.5
93.0698 34260.8
98.0967 6553.0
103.0542 11047.0
105.0443 3888.9
105.0698 51586.9
106.0651 56830.8
107.0491 104363.2
115.0543 46256.8
116.0492 18801.3
116.1068 6118.2
117.0334 15848.5
117.0697 57540.4
119.0491 37758.2
121.0645 28139.2
131.0485 6108.2
133.0648 150700.8
134.0601 47202.5
145.0647 268661.3
147.0445 9597.7
155.0599 11186.0
162.0663 16368.3
164.0703 4677.9
267.1714 4879.9

>collision 45
56.0495 62799.5
58.0651 11795.4
72.0808 104095.1
74.06 254705.2
91.054 5720.9
98.0964 138481.6
107.049 7210.7
116.107 218175.8
119.0492 9848.5
121.0648 19109.8
133.0647 36220.7
145.0648 289160.2
147.0441 16504.8
147.0808 6801.5
152.0706 18808.5
162.0914 71938.4
163.0754 13803.7
164.0705 66375.5
173.0596 48822.8
178.0862 150854.1
180.1025 12327.8
190.0862 508404.9
204.1377 12352.4
208.0966 129073.3
225.1231 191735.1
249.16 20694.2
250.1444 7933.3
267.1703 664304.6

>collision 35
74.06 58946.4
98.0964 62544.5
116.1069 311634.0
145.0648 178029.7
152.0695 4672.9
162.0913 154019.7
164.0705 27076.2
173.0596 67461.1
178.0862 42689.5
180.1019 84468.1
190.0863 1358129.3
204.1382 46501.2
207.1126 57848.9
208.0968 507305.7
222.1493 8264.9
225.1234 1444491.9
232.1331 47235.2
249.1594 113668.4
250.1436 136898.8

>collision 60
56.0494 89270.0
58.0651 13917.0
72.0807 103993.3
74.06 224461.5
84.0805 4847.3
91.0541 21634.9
93.0699 22839.8
98.0963 88168.8
100.112 8745.2
105.07 11823.3
106.065 6154.0
107.0491 27993.6
116.1069 112816.0
117.0577 4489.4
117.0697 12208.7
119.049 37648.6
121.0647 70126.9
122.0597 12250.0
133.0648 144725.5
134.0598 13714.7
145.0647 546751.4
147.044 39668.9
152.0703 17345.9
162.0663 27304.6
162.091 44831.5
163.0752 20918.7
164.0705 78944.1
173.0596 42650.6
178.086 115292.8
190.086 157085.2
208.0966 29330.9

>collision 45
56.0494 56601.2
58.0651 9996.4
72.0808 82341.4
74.0601 195162.5
84.0808 3180.7
91.0543 4027.3
98.0964 100691.4
107.0491 6769.0
116.107 191783.5
119.049 9849.5
121.0648 15126.3
122.0602 2256.2
133.0648 27735.6
145.0648 237678.4
147.044 13045.0
152.0705 13822.8
161.0596 3241.7
162.0913 55477.3
163.0751 13934.6
164.0706 61594.9
173.0597 40090.5
178.0862 123687.1
180.1017 9109.0
190.0862 419492.8
204.138 8592.3
207.1126 6065.4
208.0968 117702.4
225.1233 165423.0
232.1329 4203.2
249.1596 18915.0
250.1437 6104.3
267.1704 547967.0

>collision 15
267.1703 3074187.0

>collision 90
56.0494 47137.4
58.0651 6175.7
72.0807 17683.4
74.06 58106.7
77.0385 12083.7
79.0542 22524.1
84.0806 3514.7
89.0385 43952.7
91.0542 72704.1
93.0698 25826.7
98.0964 6391.3
100.112 5724.1
103.0542 8005.8
105.0446 3262.3
105.0698 36049.2
106.0651 41412.0
107.0491 86095.1
115.0542 40179.4
116.0494 13107.8
116.1069 2326.4
117.0334 11964.7
117.0574 4261.6
117.0698 46925.6
119.0491 25148.2
121.0647 21848.8
122.0599 7766.9
131.0491 6196.1
133.0647 106636.2
134.0599 35031.7
144.0806 3221.2
145.0647 205739.8
147.0439 10583.0
155.0603 5573.2
162.066 13793.1
162.0914 2631.2
190.087 3674.9

>collision 75
56.0494 69669.2
58.0651 9716.3
72.0807 41533.0
74.06 109023.4
77.0385 6787.4
79.0541 12672.8
84.0807 5162.0
89.0384 12421.5
91.0542 44541.9
93.0698 31258.0
98.0963 20806.7
100.1121 11129.0
103.0543 3567.6
105.0698 26154.0
106.065 26278.6
107.049 50095.2
115.0541 10538.6
116.0494 8215.5
116.1069 28730.1
117.0333 6960.3
117.0697 33906.7
119.049 40741.5
121.0647 54630.4
122.0599 8136.0
131.0491 3504.9
133.0647 167111.2
134.0599 45281.7
144.0808 2602.5
145.0647 384059.7
147.0439 26761.9
147.0802 4380.2
152.0706 6337.2
155.0602 4557.4
162.066 33252.8
162.0909 8893.0
163.0754 6406.6
164.0705 16290.4
173.0593 8080.0
178.0859 13842.2
190.0861 13927.7

>collision 75
56.0494 79858.8
58.0651 12544.1
72.0807 51593.7
74.06 141104.3
77.0388 7043.4
79.0542 13074.7
84.0808 5043.1
89.0385 14191.2
91.0541 51987.3
93.0697 41832.8
98.0964 28213.9
100.1119 7976.4
105.0699 23368.6
106.065 30130.9
107.0491 59563.4
116.0497 10580.0
116.1068 34037.7
117.0334 10613.7
117.0699 38493.7
119.0492 50358.7
121.0648 61993.9
122.06 13943.5
131.0491 5297.4
133.0648 204738.6
134.0601 54219.5
136.0763 6167.9
145.0647 445962.7
147.0439 27043.5
152.0698 4226.3
155.0611 4116.5
162.0661 43386.2
162.0913 10018.3
163.0759 8029.0
164.0709 24014.5
173.0589 7856.3
178.0859 19049.6
190.087 12705.7

>collision 60
56.0494 76299.8
58.0651 9446.6
72.0808 78476.7
74.06 171447.7
84.0807 4853.0
91.0542 18399.9
93.0698 13262.4
98.0964 69666.0
100.112 7989.9
105.0698 9406.3
106.0651 5986.6
107.0491 27992.0
116.1069 81617.0
117.0698 13734.7
119.0491 25384.0
121.0647 59519.0
122.06 9894.8
131.0492 4865.1
133.0647 131841.4
134.06 13078.8
136.0753 4871.4
144.0808 2121.4
145.0648 449796.9
147.0439 31462.1
147.0805 4530.3
152.0705 13727.1
161.0594 6052.6
162.0662 22568.0
162.0913 31972.2
163.0753 12983.8
164.0705 62944.8
173.0596 32130.5
178.0861 90585.2
190.0862 133301.0
204.1377 2660.0
208.0967 20000.1
225.1239 11104.0
267.1699 19521.3

>collision 30
56.0495 10153.3
72.0807 15658.1
74.0599 41402.2
98.0963 28510.3
116.1068 73578.1
145.0651 21958.8
162.0915 18023.3
178.0859 13793.3
190.086 154239.2
207.1123 9348.1
208.0969 42436.8
225.1229 200381.2
249.1594 32435.9
250.1437 6034.8
267.1705 3449871.3

>collision 15
267.1704 3669137.0

