>compound Trimethoprim
#instrument LTQ Orbitrap XL Thermo Scientific
>formula C14H18N4O3
#smiles c1(Cc2c(nc(N)nc2)N)cc(c(OC)c(c1)OC)OC
#inchi InChI=1S/C14H18N4O3/c1-19-10-5-8(6-11(20-2)12(10)21-3)4-9-7-17-14(16)18-13(9)15/h5-7H,4H2,1-3H3,(H4,15,16,17,18)
>charge 1
>ionization [M+H]+
>parentmass 291.1452

>collision 35
110.0585 8362.1
123.0667 1409770.1
181.0861 231176.3
201.077 8995.7
202.1221 11859.7
230.1166 2209551.9
232.096 30554.5
245.1034 137398.4
246.1121 23752.5
247.119 96578.3
258.1113 861424.9
259.1183 26098.4
260.1266 64258.9
261.0985 979049.9
275.1141 544049.7
276.1218 525999.2

>collision 30
123.0666 83081.6
181.0857 10175.8
230.1167 44235.8
245.1032 20027.0
247.1215 7578.0
258.1113 50930.3
261.098 55839.4
275.1135 41097.8
276.1222 44698.6
291.1456 4696330.2

>collision 45
81.0448 8690.6
123.0666 549662.6
124.0749 7409.7
181.086 43194.8
201.079 9029.5
201.1144 11813.0
202.1216 14790.5
217.1097 22797.4
229.1089 48269.2
230.1164 703100.3
232.0971 11388.6
233.1026 28982.0
245.1034 413552.2
246.1115 44293.4
247.1187 103830.5
257.1033 70911.1
258.1112 194465.7
259.119 14978.9
260.1261 14845.4
261.0984 780074.5
275.114 558254.7
276.1214 97983.5
291.1451 1580743.0

>collision 60
81.0448 43230.3
110.0588 61385.2
111.0665 39564.8
123.0666 507736.6
124.0744 30953.6
151.0394 19217.5
161.0821 9625.1
174.0662 20407.6
181.0861 30519.1
187.098 46732.0
201.0787 17992.0
201.1135 109257.0
202.1212 51571.6
215.0933 14532.4
217.1083 31742.9
229.1087 199184.4
230.1164 531728.7
231.0874 15611.5
232.0963 41823.6
233.1034 200402.2
245.1034 382529.1
246.1112 45745.3
247.0836 16442.4
247.119 102651.4
257.1035 395214.6
258.1109 28095.8
259.0819 25707.4
261.0984 922654.2
275.1139 619911.3
276.1218 9222.3
291.1456 109212.1

>collision 45
81.0447 7738.3
110.0586 6678.8
123.0666 357650.8
124.0747 5286.3
181.0859 30443.6
187.0984 4445.7
201.0785 8989.9
201.114 9779.4
202.1214 15484.2
216.1016 4062.3
217.1087 13668.7
229.1083 29331.0
230.1163 506467.2
232.0974 5167.9
233.1037 15457.6
245.1033 303638.6
246.1112 29767.0
247.1189 70594.8
257.1033 50196.9
258.1111 132247.5
260.1269 6987.2
261.0983 556084.1
275.1139 394132.9
276.1219 54855.0
291.1457 1226674.5

>collision 75
60.0557 4700.1
68.0367 3616.9
72.0318 3634.3
81.0448 75164.5
83.0479 4343.2
86.0586 3200.9
106.04 3848.6
109.0508 5809.5
110.0588 77451.0
111.0666 53399.9
113.0462 3583.1
120.057 3453.4
123.0441 33671.4
123.0667 355520.3
124.0745 30730.6
135.0445 2436.6
135.0667 8341.5
137.0598 18937.7
142.0655 3468.3
146.06 5542.4
146.0714 3549.0
148.0517 4779.8
148.0738 3377.5
149.0236 2603.1
149.0711 21209.2
149.0822 8261.0
151.0391 28989.8
156.0448 6715.2
158.0602 2208.7
159.0919 4281.7
161.0822 24126.3
162.0902 11453.9
163.0984 3708.8
165.0547 10150.8
170.0598 6858.3
170.0712 3797.0
173.0711 3465.9
173.0822 7768.6
174.0553 9561.8
174.0663 40975.9
175.0621 3013.4
175.0978 9707.9
176.0694 3498.3
181.0862 7150.6
184.0865 5629.7
186.0549 5138.6
186.0906 3307.4
187.0873 5889.5
187.0979 63087.8
188.1053 4057.0
189.0777 4594.6
190.0852 14557.0
191.0929 26943.2
198.0663 2888.2
199.098 18220.4
200.1062 7049.2
201.0776 9022.7
201.1136 114564.6
202.05 4417.7
202.1213 13556.0
203.0928 18423.1
205.1089 3210.1
212.0821 5372.9
213.0767 3123.6
213.1136 3679.4
214.085 5965.4
215.0693 4905.6
215.093 19730.4
216.0769 8066.0
216.1007 8555.6
217.0611 2904.7
217.1084 16564.3
218.0798 6351.7
219.076 4306.1
227.0924 4082.2
228.1009 3664.6
229.1086 176405.6
230.1163 62029.4
231.0878 33071.0
232.0956 91341.2
233.1034 178949.7
242.0553 4453.2
243.0882 6973.6
244.0715 4226.6
245.1034 158564.0
246.111 4316.7
247.0826 45851.7
247.1192 25210.4
255.0878 4436.2
257.1035 202374.2
258.1112 2381.5
259.0827 42267.6
259.1192 4003.9
261.0983 228725.4
273.0981 3930.6
275.114 144393.3

>collision 35
106.0399 1671.3
110.0586 2416.7
123.0666 616489.6
181.086 106439.9
187.0972 1659.2
201.0784 4816.9
201.1129 1721.7
228.1005 1969.3
229.1089 5017.6
230.1165 950102.5
232.0969 10372.0
243.0879 1475.1
244.0717 1781.4
245.1033 57320.9
246.1113 11342.3
247.119 40836.4
257.1032 5733.0
258.1113 392126.5
259.1189 14951.8
260.1269 27234.9
261.0984 435450.3
275.114 212898.9
276.1218 240216.6

>collision 75
60.0557 5356.2
72.0317 7521.1
81.0448 115156.8
83.0479 5408.1
86.0587 5173.7
106.0402 5372.9
110.0587 116671.3
111.0667 69051.1
113.0461 5374.6
120.057 5510.0
123.0442 53240.5
123.0666 490051.1
124.0743 41067.5
135.0666 7622.6
137.0598 35497.9
142.0654 4388.4
145.0764 6708.2
146.0713 6508.2
148.0524 6404.5
149.071 33753.7
149.0826 13696.2
151.039 45410.1
156.045 6865.0
161.0823 32117.1
162.0903 15110.3
173.0815 6008.9
174.0658 56254.7
175.061 5387.2
175.0979 13854.8
181.0861 13017.9
184.0864 9281.5
186.0559 11176.8
187.0975 96897.9
188.1047 4839.7
189.0762 7890.5
190.0852 29688.1
191.0927 40884.3
199.0983 29291.2
200.1053 10919.3
201.0776 16557.4
201.1136 136237.0
202.1217 17722.0
203.0927 21477.5
212.0828 6298.6
213.0779 7457.8
214.0843 8464.3
215.0929 31353.0
216.0776 12138.7
216.0997 13534.6
217.0608 8498.1
217.1078 17413.4
219.0761 12324.1
229.1085 257589.5
230.116 83766.2
231.0873 42163.0
232.0955 139708.6
233.1034 257455.0
244.0726 5393.8
245.1034 202672.8
246.1101 6741.6
247.0829 65089.8
247.1194 38731.5
257.1035 298366.9
259.0823 62893.2
261.0983 320182.4
275.1139 205274.2

>collision 90
54.0338 2529.8
60.0556 4690.9
68.037 9286.7
72.0319 3606.3
81.0448 131070.2
83.0479 6562.7
91.0543 8010.0
95.0493 4789.8
104.0494 2198.8
106.04 6786.1
107.0492 5532.8
109.051 8893.4
110.0588 61364.5
111.0666 37913.0
115.0543 6685.9
119.0492 5474.6
120.057 1934.1
121.0762 6789.9
123.0442 44965.5
123.0666 276343.1
124.0744 28088.7
128.0496 6451.1
130.0651 2752.4
132.0446 3582.7
135.0441 7232.2
135.0666 20864.1
137.0598 18965.9
142.0652 13022.2
145.0763 7415.3
146.0601 8799.4
146.0713 18842.6
147.0666 4947.7
148.0521 3412.0
148.0745 9190.7
149.0234 3642.2
149.071 38022.8
149.0822 12732.3
151.039 13007.4
156.0443 7149.1
157.076 4245.6
158.0601 8659.0
159.0918 8079.9
161.0823 69431.9
162.0901 29239.5
163.0979 6158.3
165.0547 3844.6
165.0771 6873.2
170.0602 13418.5
170.0714 9664.1
172.0745 3980.1
173.0712 6555.2
173.0823 9132.6
174.0553 9993.0
174.0663 43931.7
174.0901 3302.0
175.0614 11474.0
175.098 12564.0
176.0695 9034.8
184.087 11765.6
186.0552 4516.4
186.0901 10738.8
187.0865 6505.3
187.0979 67614.6
188.1057 3648.1
189.0771 14272.6
190.0851 26723.7
191.0928 15733.6
198.0663 3919.6
199.0979 26425.4
200.1057 3600.0
201.0774 8523.4
201.1136 65404.6
202.0501 2155.2
203.0929 24045.2
205.1083 2453.7
211.0978 6708.8
212.082 8587.6
213.0772 7436.2
213.1134 2593.3
214.0614 3639.5
214.0852 5442.1
215.0692 7336.9
215.0929 23857.6
216.0767 3953.1
216.1003 3111.0
217.0607 5249.8
217.1084 5234.3
218.0799 2457.7
227.0927 4727.4
229.1085 91298.1
230.1168 7774.2
231.0878 71766.0
232.0956 72841.1
233.1034 73828.5
242.0557 3882.3
243.0877 8289.6
245.1034 57422.3
247.0827 26270.0
247.1187 3111.3
255.0877 3970.5
257.1034 42228.6
259.0828 15710.2
261.0983 21027.6
273.0979 2079.9
275.1139 20618.5

>collision 15
261.0972 4536.5
291.1455 3631948.8

>collision 60
81.0448 33917.0
110.0587 51297.0
111.0666 28756.4
120.057 4712.6
123.0666 377586.3
124.0745 17875.4
137.0596 3281.9
149.0818 5172.0
151.039 11118.9
161.0824 5804.8
174.0664 5094.3
181.086 18789.8
187.0979 34342.6
191.0928 7399.0
198.0653 2692.0
200.1057 11469.7
201.0784 17227.3
201.1135 64742.8
202.1214 46319.8
203.0925 3855.7
213.1125 4249.9
215.0926 15551.9
216.1005 11420.2
217.1086 23164.1
229.1085 140267.4
230.1163 374439.3
231.0875 6490.7
232.0955 30862.0
233.1034 125831.0
244.0719 7375.4
245.1034 269303.4
246.1111 28401.6
247.0826 9961.9
247.119 72779.5
257.1034 245894.5
258.1111 16941.2
259.0827 17777.0
259.1194 10067.3
261.0984 653746.9
275.114 425546.6
291.1458 77445.6

>collision 30
123.0666 54952.8
230.1163 29576.0
245.1027 20798.5
247.1196 7465.1
258.111 31801.6
261.0981 36430.4
275.1139 27121.2
276.1215 34368.2
291.1455 3272238.1

>collision 15
230.1167 9696.8
291.1456 5009653.4

>collision 90
54.0338 9201.3
60.0556 6431.1
68.037 14963.8
72.0315 6428.8
81.0448 189324.0
83.0481 8838.0
91.0543 12854.1
95.0488 7005.2
104.0494 5758.2
106.0398 15154.7
107.0491 12747.4
109.0508 16632.5
110.0587 99507.3
111.0667 44948.1
115.0541 10751.7
119.049 8797.4
121.076 15732.0
123.044 67826.9
123.0666 429808.5
124.0744 48138.2
128.0499 10194.1
130.065 7421.9
132.0442 5884.3
135.0441 11940.8
135.0666 31624.7
137.0599 29093.2
142.0653 20982.7
145.0762 13731.3
146.0598 7923.9
146.0715 30644.8
147.066 9044.0
148.0512 7136.5
148.0739 18278.6
149.0233 10942.9
149.0709 74044.5
149.0826 27109.3
151.0392 21625.1
157.0754 13993.2
158.0595 14008.0
159.0923 17968.3
161.0822 113679.1
162.0899 48217.6
163.0977 10048.2
165.0765 10037.2
172.0744 9454.6
173.0816 27330.9
174.0662 69957.4
174.0899 6513.3
175.0611 24077.9
175.0977 20642.7
176.07 12611.8
184.0869 20203.4
186.0901 17437.6
187.0976 93734.9
189.0766 19566.4
190.0848 45479.5
191.0923 19527.6
199.098 44220.6
201.0772 13616.8
201.1135 108072.9
203.0929 38593.7
211.0978 8722.8
212.0822 10744.3
214.0623 6352.1
215.0694 5869.0
215.0926 39000.1
217.0605 9184.4
217.1105 8140.6
228.1 8444.6
229.1086 124022.1
231.0877 102264.9
232.0956 115006.8
233.1034 123720.3
243.0884 9207.2
245.1033 91397.6
247.0825 43993.6
257.1036 74598.9
259.0824 31722.9
261.0983 39031.9
275.113 27394.8

