>compound L-Asparagine
#instrument LTQ Orbitrap XL, Thermo Scientfic
>formula C4H8N2O3
#smiles NC(=O)C[C@@H](N)C(O)=O
#inchi InChI=1S/C4H8N2O3/c5-2(4(8)9)1-3(6)7/h2H,1,5H2,(H2,6,7)(H,8,9)/t2-/m1/s1
>charge 1

>ms1peaks
100.111848 104854.96875
102.033553 63729.753906
102.054776 636446.125
110.019746 49169.238281
111.019815 28511.505859
116.034066 232795.453125
120.065375 138092.546875
130.008048 29832.880859
132.616743 29970.826172
132.911179 41726.433594
132.980379 58682.078125
133.010798 51226.351563
133.033691 138047.4375
133.043546 27728.771484
133.044705 24110.955078
133.046154 25717.666016
133.047024 36103.414063
133.048184 48367.28125
133.049053 27929.402344
133.049923 25875.611328
133.050792 50831.949219
133.051952 39979.90625
133.052822 56897.238281
133.053691 67946.226563
133.054561 39414.320313
133.055431 127844.703125
133.05804 447827.09375
133.060649 37116172.0
133.062389 340843.53125
133.063258 451773.1875
133.064418 99145.492188
133.065288 113826.734375
133.066158 81779.03125
133.067317 67365.710938
133.067897 68462.609375
133.069637 44603.03125
133.070797 46131.601563
133.071377 23550.945313
133.072536 52778.695313
133.073696 50732.292969
133.076016 33977.851563
133.077176 33535.511719
133.087325 146824.6875
133.110238 55656.6875
133.140702 65727.859375
133.210081 46878.847656
133.506787 30529.935547
134.057434 102091.40625
134.063591 1446398.125
135.064276 104104.171875
137.132002 32103.248047
139.981695 37161.984375
141.958171 216221.4375
149.022904 174530.765625
155.142526 36977.28125
156.076374 60327.089844
158.002552 608548.8125
158.096003 21150.107422
158.960868 44225.46875
163.132278 111020.109375
167.012526 19146.396484
170.095866 60834.121094
171.13813 25116.128906
171.149125 1162276.25
172.152025 46634.34375
174.127584 459191.0625
175.130548 23265.214844
179.0632 79687.125
182.984796 356596.03125
186.955501 25775.681641
187.12606 204900.859375
190.992536 22362.263672
199.028604 23417.337891
199.179842 106744.734375
200.075399 62902.351563
203.023543 71259.609375
223.063237 87379.742188
232.984426 44176.054688
241.029941 28232.353516
265.114529 1543071.375
266.116166 39983.570313
277.199902 19818.785156
289.070615 41367.449219
298.095716 29952.15625
319.031576 45774.667969
391.282894 535121.4375
392.286254 84734.429688
399.143313 125284.5625
421.122488 29206.144531
426.355027 20821.755859
436.339497 24521.960938
451.085243 39040.441406
523.336586 333595.84375
524.337539 59819.410156
100.112037 109349.96875
106.049643 180167.90625
110.019964 52245.128906
112.050382 294384.40625
116.034066 256725.71875
129.127757 23243.029297
132.616743 29810.009766
132.912047 37329.652344
132.980669 46593.148438
133.011087 33735.8125
133.033981 124920.625
133.037169 19637.40625
133.041807 22884.919922
133.044125 28862.234375
133.046444 20177.882813
133.048184 28310.769531
133.049923 77467.4375
133.051082 47116.46875
133.052242 34374.160156
133.053401 78988.5625
133.055141 116529.320313
133.056011 187077.546875
133.05833 609603.375
133.060649 35243040.0
133.062678 639935.5
133.064708 140530.484375
133.065578 181822.203125
133.066737 73760.28125
133.067897 76656.539063
133.069637 37881.449219
133.071087 75156.476563
133.072536 27304.453125
133.074276 19842.445313
133.077466 22315.416016
133.078336 19415.480469
133.080655 27036.037109
133.087615 126629.515625
133.110238 37801.4375
133.140992 52502.261719
133.2095 42072.164063
133.506787 28936.125
134.044535 706944.25
134.057141 74821.59375
134.061245 27494.380859
134.063591 1266064.75
134.065643 22441.419922
135.064276 82126.171875
137.132002 52487.726563
139.981695 44886.132813
141.958171 172525.390625
147.076346 178339.8125
149.023248 168662.546875
155.142891 65817.085938
158.002927 495264.9375
158.096003 44663.207031
158.961247 93977.375
163.132671 201595.8125
170.096285 74857.039063
171.13813 33252.480469
171.146165 23135.410156
171.149125 1367695.125
171.152086 22076.515625
172.152452 65918.132813
174.127584 525166.125
175.130548 17869.734375
178.107101 17950.066406
179.0632 74002.9375
182.985263 323241.3125
186.955984 82525.640625
187.12606 199283.265625
190.992536 23667.085938
199.180373 160096.75
203.023543 37612.832031
220.111375 21585.181641
223.063237 373623.65625
223.092816 25199.158203
224.06272 18652.859375
231.977441 19899.951172
232.985098 48794.371094
233.173966 37144.636719
265.108006 21785.173828
265.114529 1796823.375
265.120237 21911.628906
266.116986 60391.386719
279.158552 30509.697266
282.220291 25156.576172
289.070615 35472.460938
318.024368 26426.412109
319.032652 40333.195313
365.226078 19808.228516
391.27266 18846.173828
391.284356 1293988.125
392.286254 255641.15625
393.289058 20441.683594
409.252866 18844.107422
421.124121 23888.177734
426.35669 43812.203125
436.339497 37766.398438
451.085243 60228.410156
523.336586 654388.625
524.339807 111142.539063

>collision 35
70.019188 548.86438
74.032028 1527.907715
86.922165 365088.8125
87.92691 11156.836914
97.962799 487.84137
114.838531 5013.414551
115.960831 26659.722656

>collision 35
70.015991 482.142975
73.954369 1795.992432
87.000549 314344.875
87.93927 9297.193359
97.949005 1142.095947
114.856674 5166.375488
116.02655 23916.242188

>collision 35
83.021347 1.954985
87.052338 24.631329
88.095673 1.956926
111.056107 3.688506
116.020187 11.600782
133.09816 2882.664795
141.0914 4.128997
144.034561 2.82072
170.961166 1.950912
178.167999 5.138783
193.851181 3.475463
204.005051 3.477697
219.287735 18.046162
222.291748 10.241604
224.068237 7.579335
230.320435 2.181857
234.181381 4.996989
247.202042 6.190842
249.209412 3.246505
265.140747 2.61467
267.117004 2.170553

>collision 35
73.957397 4.321977
74.875031 10.813259
86.999329 941.068237
87.975967 3068.064209
89.007126 77.280083
98.984741 10.550154
105.860016 6.146277
113.14003 3.618866
115.102859 5.824144
115.816528 74.421524
116.942535 294.192688

>collision 35
87.088341 31.49567
116.161484 3.09884
116.903656 5.730244
132.979523 2820.045166
134.062592 1.8101
163.231384 5.594926
167.092316 2.661804
171.277664 2.554108
175.981659 3.859345
177.258148 2.012344
192.224564 4.831593
194.861801 5.150716
196.003418 2.882668
203.034409 2.232591
204.02005 2.445555
219.261444 7.618946
220.035217 3.191818
220.902786 2.246358
223.871979 4.984807
235.208115 2.748104
241.653809 3.208548
247.053513 12.750179
248.249649 8.5502
248.87915 2.807718
265.280212 3.196626

