>compound Creatine
#instrument LTQ Orbitrap XL, Thermo Scientfic
>formula C4H9N3O2
#smiles OC(=O)CN(C)C(N)=N
#inchi InChI=1S/C4H9N3O2/c1-7(4(5)6)2-3(8)9/h2H2,1H3,(H3,5,6)(H,8,9)
>charge 1

>ms1peaks
100.111848 39491.601563
102.033553 55060.984375
110.019746 57036.890625
116.034066 158199.75
131.637095 61219.375
131.917969 43277.140625
131.927986 79745.9375
131.997279 116670.203125
132.026788 98493.125
132.047422 38762.5625
132.050001 385447.875
132.052581 45527.289063
132.053727 43754.074219
132.05602 64198.464844
132.057167 39240.226563
132.059173 69084.546875
132.060033 79652.859375
132.06118 37174.242188
132.061753 43195.128906
132.063473 50363.785156
132.065766 85184.226563
132.066913 109000.117188
132.06806 76067.429688
132.069207 110765.195313
132.070353 142531.90625
132.072073 517754.53125
132.07408 1059458.25
132.076374 73881192.0
132.078381 1026008.625
132.080388 512203.28125
132.081248 320179.46875
132.082108 122152.742188
132.082682 93667.328125
132.083255 90196.179688
132.084115 117869.648438
132.084975 94298.765625
132.085549 68650.4375
132.086409 81479.851563
132.087556 74935.351563
132.08813 66469.21875
132.088703 65700.015625
132.090997 47672.648438
132.092431 57055.792969
132.093291 94608.34375
132.094438 44608.34375
132.096445 53191.957031
132.0996 50194.40625
132.102755 385504.1875
132.109925 38540.792969
132.125988 86997.21875
132.152383 46546.496094
132.15554 123600.085938
132.225012 95860.992188
132.235064 45441.949219
132.517855 60845.898438
133.073406 343337.0625
133.074856 37340.523438
133.077176 44226.59375
133.079496 2663827.25
134.043949 2473156.25
134.079718 86867.601563
141.957852 116946.421875
149.022904 121763.367188
158.002177 165004.03125
163.132278 57524.292969
171.148702 563191.6875
174.12715 292769.25
179.0632 50115.898438
182.984328 157750.296875
187.125577 81547.085938
223.062608 62498.539063
263.145883 3370005.75
264.148537 88555.335938
391.282894 408062.1875
392.286254 72416.75
522.352026 47393.03125
525.282239 81421.9375
102.033359 49556.9375
105.0001 490440.5
120.065375 114755.9375
121.956376 54480.453125
121.982837 45317.28125
122.003198 155007.796875
122.015162 53369.445313
122.016689 43404.574219
122.017708 44666.519531
122.018726 62321.550781
122.020254 86113.96875
122.021272 64661.257813
122.022545 162872.015625
122.023309 79627.835938
122.024582 595176.5
122.026619 36299848.0
122.028656 670178.6875
122.030947 167605.296875
122.031711 94927.476563
122.033239 101614.742188
122.034257 57685.714844
122.035276 47710.375
122.036294 41688.402344
122.038332 48983.003906
122.050046 155272.015625
122.070678 48087.859375
122.097177 62034.996094
122.158614 50980.945313
123.023377 42930.488281
123.025697 152392.4375
123.029821 1008837.25
124.022485 1439664.5
124.030312 53668.960938
131.637095 71271.757813
131.9277 91669.992188
131.996706 122770.164063
132.026788 96212.632813
132.049714 331744.375
132.053441 47499.40625
132.05516 61878.527344
132.056307 44928.316406
132.060893 58225.9375
132.063187 115492.71875
132.064906 98125.398438
132.066053 92801.601563
132.0672 127544.78125
132.068633 182351.3125
132.070067 157658.734375
132.0715 340566.84375
132.07236 171565.296875
132.073794 1261125.5
132.076087 80505000.0
132.078381 1405166.25
132.080961 375999.46875
132.081821 199296.15625
132.083542 214160.078125
132.084689 129235.265625
132.085549 100319.734375
132.086696 91336.1875
132.087843 71942.34375
132.089277 95654.34375
132.09071 44664.886719
132.091857 58759.515625
132.096445 69277.632813
132.102468 325466.71875
132.125701 100904.132813
132.15554 129320.203125
132.224725 105412.195313
132.517567 71049.046875
133.073116 314581.40625
133.079206 2673492.5
133.081525 45161.058594
134.079718 109668.1875
141.957852 70332.726563
149.022561 107984.546875
158.001802 111790.015625
171.148702 542469.8125
174.12715 294125.03125
182.983861 81502.25
187.125093 63088.046875
223.061979 87009.304688
263.139433 59205.078125
263.145883 5772111.5
263.152333 67485.203125
264.147726 209401.234375
302.216077 46526.464844
391.282894 626669.125
392.284786 120049.554688
512.300207 69665.460938
522.349771 71394.515625
525.282239 73478.710938

>collision 35
86.026489 12.425878
86.882813 7.468251
89.972397 2059.544678
90.973907 2758.44458
114.049973 25.634403
114.982712 80.975357
116.054504 54.338379

>collision 35
90.108292 369.789978
131.972305 35748.699219
244.992249 88.890892

>collision 35
85.912109 1144.238159
87.074135 1275.840332
89.873199 621834.125
114.165863 10797.194336
115.08345 6133.355469

>collision 35
90.028458 244.189362
132.017578 24150.142578
217.143753 22.4799
244.609024 27.499847
245.254105 38.53429

>collision 35
86.154999 1738.293213
87.121933 2208.469482
89.951523 733869.9375
114.08226 14236.578125
115.04747 8862.675781

