>compound L-Phenylalanine
#instrument LTQ Orbitrap XL, Thermo Scientfic
>formula C9H11NO2
#smiles OC(=O)C([H])(N)Cc(c1)cccc1
#inchi InChI=1S/C9H11NO2/c10-8(9(11)12)6-7-4-2-1-3-5-7/h1-5,8H,6,10H2,(H,11,12)
>charge 1

>ms1peaks
100.112037 123323.484375
102.033748 153921.28125
103.05404 149419.921875
107.049072 56103.71875
110.019964 258261.75
111.020036 66744.554688
120.076558 41211.519531
120.078795 66201.007813
120.080783 6912783.0
120.082274 47965.898438
120.08302 65040.402344
120.084511 45321.425781
121.083942 476118.9375
131.04884 103598.773438
137.132609 32978.554688
138.091257 27838.195313
149.023248 119411.625
149.059678 214892.703125
154.990433 45669.457031
155.142891 31110.865234
158.002927 121582.648438
158.096379 42918.28125
158.961625 87188.09375
163.133459 85189.789063
165.467218 50286.796875
165.881689 54702.933594
165.974544 77565.492188
166.017768 55236.359375
166.048884 147497.484375
166.0505 28532.525391
166.052925 31001.224609
166.054138 28068.779297
166.05818 37088.816406
166.061817 39041.800781
166.065455 41338.71875
166.067476 53862.945313
166.069093 50184.296875
166.070306 58989.035156
166.072731 51138.535156
166.074348 78005.53125
166.076774 193478.5625
166.078391 122077.679688
166.079604 266521.5
166.082838 526700.0
166.084051 180307.78125
166.086072 55047952.0
166.088902 387125.75
166.090115 466941.3125
166.092541 355969.15625
166.094967 184682.453125
166.09618 122700.429688
166.097393 83432.210938
166.09901 46342.539063
166.100628 31809.464844
166.101436 31635.511719
166.103054 61743.144531
166.104671 64229.675781
166.106289 36573.355469
166.107906 37275.089844
166.110332 44989.804688
166.111546 31461.8125
166.114376 36984.449219
166.118016 32335.652344
166.119229 32521.519531
166.123678 156683.6875
166.154419 50923.542969
166.197713 80203.546875
166.291238 63765.972656
166.708811 45775.324219
167.083077 47183.035156
167.085933 50324.691406
167.089196 5557565.5
167.092868 41859.625
167.095724 30918.984375
168.089498 85780.65625
168.091556 74116.054688
171.148702 1208511.25
172.152025 71425.015625
174.127584 573771.1875
175.130548 37839.398438
179.0632 98872.257813
182.984796 178030.953125
186.955984 76297.007813
187.12606 252249.296875
190.085898 46204.746094
190.992536 88934.84375
195.12211 63892.210938
199.179842 180823.296875
217.104082 104475.21875
233.173966 32342.347656
279.157671 36575.109375
282.220291 32435.894531
299.181639 30387.068359
328.211336 48176.199219
360.200177 28811.322266
391.284356 1540724.875
392.286254 234410.34375
413.263556 99495.921875
436.341219 132494.375
437.343196 32541.019531
556.363265 537080.8125
557.366039 138787.078125
100.111848 206357.390625
102.033553 165153.953125
103.05404 185416.5
107.048863 41620.097656
110.019746 378607.6875
111.019815 36719.082031
120.076558 42695.839844
120.078546 99664.914063
120.079292 102604.804688
120.080535 7298460.0
120.082026 107186.101563
120.082772 104746.8125
120.08476 38750.039063
121.083942 534731.5
123.055085 604976.6875
131.04884 71130.492188
149.022904 49911.050781
149.059678 179390.453125
158.002927 52469.214844
163.133065 106869.617188
165.467218 56622.007813
165.875232 66194.335938
165.97414 98257.773438
166.015748 65371.652344
166.042821 36928.964844
166.048479 218065.125
166.051713 36608.378906
166.054946 37189.203125
166.057371 39402.75
166.061413 41948.195313
166.066264 42486.367188
166.067881 88772.242188
166.069497 65455.449219
166.071114 36555.054688
166.071923 79576.21875
166.073136 66728.078125
166.074348 60543.667969
166.075157 57418.113281
166.075965 67557.789063
166.079604 312433.96875
166.082434 766458.8125
166.086072 67452400.0
166.088498 953142.6875
166.089711 793707.0625
166.092945 318840.65625
166.094563 73700.078125
166.09618 115213.703125
166.097393 37980.164063
166.099415 98240.171875
166.101032 45320.195313
166.102649 48728.25
166.103458 64505.433594
166.105076 81467.15625
166.106693 42798.824219
166.109928 43933.503906
166.118825 35860.835938
166.119634 44803.835938
166.123273 213102.1875
166.156442 67209.328125
166.197713 102780.507813
166.297314 74874.578125
166.708405 57386.566406
167.085525 73765.945313
167.089196 6325578.5
167.091644 78022.15625
167.09246 73872.53125
168.089498 106614.476563
168.091556 80516.195313
171.148702 1227341.625
172.151599 54129.867188
174.12715 560353.0625
179.0632 91472.71875
182.984796 222475.203125
187.12606 243640.65625
190.992536 92730.5625
195.12211 177892.21875
199.179842 173504.8125
217.104082 152635.953125
240.179785 106661.429688
360.200177 74514.382813
391.282894 827042.1875
392.284786 75737.664063
396.541304 38750.921875
413.263556 51092.445313
436.339497 79338.34375
556.360786 270125.1875
557.363553 67766.882813

>collision 35
74.20504 5.421755
78.934021 90.907379
79.895172 23.389585
90.97789 240.729019
93.058563 2117.141113
94.068619 71.97081
103.022263 1988.870483
104.154922 5.033186
108.028839 9.211476
120.025894 287.066559

>collision 35
119.947098 1385391.375
120.639587 851.58313
130.962784 9286.222656
148.169449 11452.808594
149.05336 58047.960938

>collision 35
120.053085 3000.379395
121.036804 21065.974609
132.01622 49.004993
138.851151 12.433121
148.980011 188.382172
149.978592 1120.301147

>collision 35
71.617027 6.96665
73.940849 8.757041
76.086723 5.298276
78.958878 37.206051
79.992661 31.404783
87.994995 8.084702
91.018173 210.602264
92.9953 2108.734375
93.868484 29.03548
103.026581 1709.162964
120.016846 135.184143

>collision 35
120.024796 1125758.375
120.878326 819.428711
131.075439 6699.223145
147.974655 6994.617188
148.912247 49839.628906

>collision 35
85.039253 9.40808
103.186905 8.387278
120.117477 2383.646729
120.986328 15989.515625
132.039261 86.523468
149.151047 189.659775
150.154419 897.048584

