>compound L-Valine
#instrument LTQ Orbitrap XL, Thermo Scientfic
>formula C5H11NO2
#smiles CC(C)[C@H](N)C(O)=O
#inchi InChI=1S/C5H11NO2/c1-3(2)4(6)5(7)8/h3-4H,6H2,1-2H3,(H,7,8)/t4-/m0/s1
>charge 1

>ms1peaks
117.714878 64228.363281
117.961568 92773.59375
118.019184 121071.484375
118.021848 43332.460938
118.030325 45972.007813
118.031051 58806.332031
118.032989 4506247.0
118.034927 42599.972656
118.044616 76743.875
118.063756 240043.4375
118.065453 44560.632813
118.067633 42957.757813
118.06836 54691.039063
118.070541 43175.0625
118.073449 70789.046875
118.074903 68996.101563
118.075631 52048.402344
118.076115 51806.867188
118.077327 63803.066406
118.078054 69368.882813
118.079023 115073.15625
118.079751 131440.484375
118.080478 116077.578125
118.081205 154965.234375
118.082174 332696.5625
118.084113 860400.5625
118.086294 75997064.0
118.088234 1015420.1875
118.08993 335342.65625
118.092354 208430.546875
118.093809 97655.453125
118.094778 71807.84375
118.095748 59202.152344
118.096475 39238.046875
118.097202 101635.703125
118.098899 66596.179688
118.099626 40167.691406
118.101566 50781.757813
118.10302 45261.347656
118.104475 55646.332031
118.107384 38683.507813
118.108597 226569.9375
118.111263 47326.894531
118.127752 90545.851563
118.150551 39193.726563
118.15322 139835.390625
118.210976 108340.851563
118.459228 64542.199219
119.034826 61110.945313
119.082921 137011.59375
119.087339 51900.375
119.089303 4400599.0
119.091266 58721.019531
120.027364 48420.132813
120.08998 159655.75
133.072246 1356096.75
134.044828 604625.4375
135.035224 316756.1875
135.583435 44818.253906
135.888709 64171.441406
135.959649 86865.703125
135.991096 49843.035156
136.014763 165649.53125
136.020456 40486.71875
136.026748 46284.664063
136.028546 46761.929688
136.029445 39070.65625
136.030344 41295.183594
136.031543 46218.589844
136.032742 45358.425781
136.033641 74945.5
136.03454 101469.398438
136.035439 94196.617188
136.036338 124078.625
136.037537 249308.96875
136.038436 159859.578125
136.039935 595341.375
136.042632 58034532.0
136.04503 710549.8125
136.047128 231241.03125
136.048327 192015.625
136.050125 160479.9375
136.051924 69943.5
136.053123 52750.796875
136.054322 40375.910156
136.05612 70553.554688
136.057919 49007.140625
136.07021 156621.25
136.093898 67001.710938
136.125391 93656.601563
136.196816 76123.703125
136.503864 51352.511719
137.039232 78707.695313
137.041656 232741.0625
137.045596 2132875.25
138.038246 1988526.375
138.046211 115785.820313
139.049463 109109.679688
141.958171 44842.925781
145.097007 60751.050781
148.042615 120417.382813
149.022904 66612.960938
155.053504 48113.222656
163.132671 47425.449219
171.149125 1452735.75
172.976261 53167.648438
174.127584 302151.6875
182.984796 55828.289063
187.125577 99967.15625
194.117473 905086.375
199.179842 87459.679688
222.111688 208070.75
224.127985 323214.59375
269.062817 3486385.75
270.065138 104379.0625
271.057054 125743.140625
279.157671 44723.390625
280.21078 111465.65625
285.056123 43345.691406
307.038376 52885.539063
350.251546 68663.835938
391.284356 1579226.0
392.286254 251495.609375
394.277967 53856.980469
420.091122 50413.722656
436.341219 99826.9375
508.363166 1675543.0
509.364873 276341.84375
526.318429 347459.03125
527.321092 81608.101563
110.03457 129823.703125
117.714878 66477.59375
117.960116 100103.671875
118.019184 143426.71875
118.021848 62693.222656
118.044132 103408.507813
118.063756 500835.28125
118.065453 47669.148438
118.066907 51799.503906
118.067876 81252.742188
118.069572 53596.074219
118.070299 51854.460938
118.071753 52596.933594
118.074176 88325.09375
118.075873 54462.53125
118.0766 80039.28125
118.077569 65128.582031
118.078539 87362.265625
118.079508 237612.5
118.080478 199635.828125
118.081205 82844.367188
118.081932 431336.90625
118.082659 274681.46875
118.084113 1006025.9375
118.086052 86084680.0
118.087264 1802027.75
118.088476 847167.0625
118.08993 448057.9375
118.091385 195002.4375
118.092354 247691.421875
118.094293 49500.140625
118.095263 79346.875
118.09599 86545.59375
118.09696 52973.148438
118.097687 50991.671875
118.098414 93014.390625
118.099626 52855.832031
118.100839 52898.65625
118.102293 65225.386719
118.10399 62205.457031
118.104717 63008.089844
118.105687 50023.292969
118.108354 503880.25
118.128237 104293.101563
118.150309 65249.785156
118.152977 150180.6875
118.21219 114431.046875
118.219959 47577.378906
118.458984 72424.914063
119.089303 4265325.0
119.091512 54889.609375
120.089731 139187.640625
128.044836 161643.03125
135.029593 64585.800781
136.061516 2286026.0
136.063015 47051.292969
151.51401 75874.0
151.872551 96568.132813
151.958493 134308.109375
151.962739 67770.570313
151.994943 98407.039063
152.023971 483511.84375
152.02645 52761.972656
152.028574 52833.34375
152.02999 72725.570313
152.032115 52496.316406
152.033177 49281.972656
152.036364 49632.175781
152.03778 51811.71875
152.039197 86381.9375
152.041321 64236.292969
152.042738 87385.328125
152.044154 58010.929688
152.045571 93377.703125
152.046987 242274.34375
152.048049 187900.171875
152.049466 103576.25
152.050528 409496.0
152.051591 308310.59375
152.053716 852900.625
152.054424 795418.875
152.056549 93492152.0
152.05832 1215565.625
152.059737 878795.4375
152.062216 404972.8125
152.063987 207007.765625
152.065404 236277.234375
152.067529 76611.5
152.068237 56496.582031
152.069654 86718.65625
152.071071 99653.867188
152.072488 67494.453125
152.074613 92500.382813
152.07603 54930.730469
152.080281 65548.84375
152.082406 67527.414063
152.083823 69842.890625
152.08524 54369.980469
152.089137 479995.40625
152.117838 103091.320313
152.150091 52543.09375
152.154345 152506.96875
152.240881 106444.484375
152.601651 78852.890625
153.040204 1170577.875
153.053436 1080824.0
153.059516 4348002.0
153.061305 66571.703125
154.059797 79011.539063
167.055748 73599.570313
171.148702 1070701.875
174.12715 230845.015625
182.984328 66477.984375
187.125577 107315.085938
194.116962 122184.273438
199.179842 76653.171875
222.111688 57814.386719
224.127351 77702.421875
230.087079 53571.761719
269.135358 3513026.0
270.138085 120894.476563
287.109806 55514.902344
303.014527 73652.382813
303.089263 60666.488281
303.098233 140477.296875
303.100227 117794.304688
303.106207 19209634.0
303.111191 194444.40625
303.115178 127583.265625
303.122156 63484.644531
303.197929 69839.773438
304.10242 231449.3125
304.10843 1284399.25
391.282894 388437.03125
391.288742 47605.671875
392.286254 96613.367188
436.339497 54282.078125
454.153607 1631634.625
455.157064 111691.8125
508.361001 510764.40625
509.362702 116448.546875
542.331901 77008.132813
605.202491 49830.144531
756.253297 887877.25
757.255995 196984.546875

>collision 35
135.063477 350.90564
152.067688 226670.5
152.823975 165.108337

>collision 35
71.974854 1024418.9375

>collision 35
55.034279 1121.85791
71.976875 1030074.5
72.752121 526.56427
89.963058 2056.477783

>collision 35
108.944733 3363.579102
109.952789 10832.285156
134.957687 61858.945313
135.994247 616.676941
151.982071 1871.221802
153.070023 529.136658

>collision 35
71.972755 1950.654907
72.953499 7326.84082
90.048737 4.657649
91.050644 33.456291

>collision 35
56.050495 1820.50708
72.891708 273.921265
90.006973 259838.90625
102.143936 303.507904
118.009033 505708.1875
119.035492 593.662842

