>compound L-Leucine
#instrument LTQ Orbitrap XL, Thermo Scientfic
>formula C6H13NO2
#smiles CC(C)C[C@H](N)C(O)=O
#inchi InChI=1S/C6H13NO2/c1-4(2)3-5(7)6(8)9/h4-5H,3,7H2,1-2H3,(H,8,9)/t5-/m0/s1
>charge 1

>ms1peaks
100.111848 108603.289063
102.033553 104267.515625
110.019746 207913.3125
111.019815 51648.175781
113.963374 30870.171875
130.008048 31908.669922
131.662203 37799.21875
131.955182 51473.019531
132.022203 74668.8125
132.052581 48518.441406
132.0715 24234.443359
132.075227 225722.59375
132.076661 23138.595703
132.079241 23679.158203
132.080675 23523.599609
132.081821 34750.636719
132.082968 24857.691406
132.085262 32544.814453
132.086409 24830.962891
132.087269 29746.824219
132.08813 29447.591797
132.089277 57295.835938
132.090424 51300.070313
132.091284 65397.488281
132.092144 45537.203125
132.093291 76194.0
132.094438 86781.6875
132.096159 154044.359375
132.097019 193130.484375
132.099313 560843.4375
132.101607 43841412.0
132.103902 507230.6875
132.106483 225908.046875
132.108204 82651.539063
132.109351 71293.914063
132.110498 69645.78125
132.112219 70249.382813
132.113366 62381.855469
132.116235 29188.4375
132.117382 31765.275391
132.118529 22713.773438
132.119677 25472.041016
132.120824 37448.675781
132.121972 32784.632813
132.124267 29665.308594
132.127709 227742.171875
132.131151 22764.345703
132.150375 49273.71875
132.180796 76551.328125
132.24799 55369.984375
132.542927 36016.632813
133.098056 25250.681641
133.102407 27853.181641
133.104727 2476619.0
133.107048 25354.839844
134.104941 45448.292969
137.131699 32691.287109
139.981382 28332.625
141.958171 37628.191406
143.039018 28309.40625
149.022904 141891.171875
151.096028 167225.671875
158.002552 905425.25
158.095628 26310.396484
158.960868 23994.134766
163.132278 116942.210938
168.122433 27806.488281
170.095866 28906.800781
171.137707 28097.884766
171.148702 1303291.75
172.152025 51928.929688
173.077717 181961.1875
174.127584 529907.75
179.062747 52350.148438
182.984796 226052.90625
187.12606 295436.71875
190.992038 66214.40625
196.153246 51266.582031
199.028604 121651.828125
199.179842 154976.015625
233.173293 30002.9375
282.190741 380236.84375
282.220291 37300.996094
294.225799 84097.289063
391.282894 824629.25
392.286254 118199.992188
408.292817 26814.613281
413.263556 38733.660156
436.339497 135129.234375
437.343196 30088.617188
522.376832 472280.84375
523.379555 86340.710938
100.111848 119071.835938
102.033553 170742.84375
110.019746 246308.0625
111.019815 59670.933594
113.963374 24080.859375
131.662488 41429.140625
131.956899 42088.894531
132.02249 63491.746094
132.053441 43387.535156
132.075227 212349.890625
132.083542 24023.111328
132.084402 37187.996094
132.085262 35285.734375
132.086409 34971.601563
132.088416 42901.058594
132.089277 52772.507813
132.090997 66263.625
132.091857 25263.28125
132.092718 34296.078125
132.094151 105165.96875
132.095012 89196.296875
132.095585 55060.355469
132.097019 246602.375
132.097879 154961.859375
132.099026 337776.46875
132.099887 366351.0625
132.101607 44315476.0
132.103041 787904.25
132.104189 356737.125
132.105049 184547.984375
132.106483 267854.96875
132.107343 57707.363281
132.109064 115447.59375
132.111072 33841.40625
132.111932 49336.980469
132.112793 35326.429688
132.113653 31218.71875
132.114514 65551.453125
132.115661 29512.888672
132.117095 28172.074219
132.118816 42044.921875
132.123693 22533.476563
132.127996 216195.4375
132.150088 47810.863281
132.181083 68658.125
132.246841 52866.230469
132.542927 36992.367188
133.098346 34965.644531
133.104727 2533304.5
133.106177 56275.671875
133.107338 26226.552734
134.105235 50260.996094
137.131699 37903.648438
139.981695 23337.71875
141.958171 53473.800781
149.022904 182944.5
151.096028 330390.03125
155.142526 36314.238281
158.002552 135335.3125
158.096003 33623.664063
158.960868 71533.9375
163.132278 179335.8125
167.03332 27460.25
168.122433 105821.4375
170.095866 56411.554688
171.137707 23992.769531
171.149125 1517991.875
172.152025 77813.984375
173.078147 418526.8125
174.127584 601923.6875
175.13011 28314.289063
179.0632 98908.617188
182.984796 204408.859375
186.184385 25730.439453
186.955501 65444.09375
187.12606 242428.515625
190.992536 81865.28125
196.153765 46237.941406
199.179842 186566.609375
223.062608 44124.609375
233.173966 45188.550781
279.158552 42759.765625
282.190741 689682.625
282.220291 27547.732422
283.193551 27939.3125
294.226753 120217.273438
364.266877 45000.84375
391.282894 1606136.75
392.286254 228325.859375
393.289058 23105.314453
413.263556 133485.90625
436.339497 128664.109375
437.343196 34133.671875
522.376832 754360.875
523.379555 149743.21875

>collision 35
55.065796 11.12224
57.011372 77.374481
66.836151 3.179446
71.917892 943.563538
72.890182 113.242722
82.963699 24.502213
88.912048 5303.260742
92.094421 9.490314
92.910065 17.516792
101.02887 61.14373
109.039948 41.013111
115.108139 4.68587
125.166534 4.300166
126.160477 11.084062
127.492218 2.785998
129.136169 24.884037
130.018845 31.669594
135.216049 4.867039
153.130951 16.793842
154.073746 7.130718
156.244568 11.888609
171.40535 12.904108

>collision 35
86.028397 325.246613
87.003036 1570.891235
87.978485 37.465267
114.864502 5.530617

>collision 35
85.96785 686876.8125

>collision 35
85.940613 407.228119
87.024902 2715.971191
88.010712 28.534286
90.234955 3.477139
116.157578 6.205731

>collision 35
113.236801 3.423988
121.05616 31.358753
148.98233 4522.740234
167.021515 1179.405151
258.513702 30.681276
260.093018 102.635681
260.80481 346.92691
277.18161 2.768162
279.050537 1577.939819
279.674286 5.070308
308.298065 8.102056
345.197815 4.630602
356.174377 3.032187
362.053955 4.075583

>collision 35
86.040771 986495.625

