>compound D-2-Aminobutyrate
#instrument LTQ Orbitrap XL, Thermo Scientfic
>formula C4H9NO2
#smiles CCC(N)C(O)=O
#inchi InChI=1S/C4H9NO2/c1-2-3(5)4(6)7/h3H,2,5H2,1H3,(H,6,7)
>charge 1

>ms1peaks
100.021282 37263.203125
100.111848 113231.367188
102.033748 74239.648438
102.054971 191848.734375
103.762922 29891.373047
103.967462 39768.484375
104.014934 53301.015625
104.035976 40931.953125
104.051812 180227.328125
104.05482 19035.982422
104.056825 29007.150391
104.058028 34471.125
104.059632 31637.126953
104.060233 35736.9375
104.061236 57603.3125
104.062038 33386.804688
104.063241 53452.675781
104.065045 127455.171875
104.06685 208233.9375
104.068655 556534.125
104.070259 34665304.0
104.072064 578947.0625
104.073869 209441.0
104.075674 113597.015625
104.076476 48635.648438
104.077077 44062.265625
104.07808 39212.28125
104.079083 45985.042969
104.079685 29894.398438
104.080487 44785.332031
104.081289 19098.921875
104.082292 32358.345703
104.082894 24710.941406
104.084097 25920.9375
104.08871 182823.84375
104.104559 48834.472656
104.125829 65015.910156
104.173209 39165.1875
104.378963 27539.978516
104.999897 202830.515625
105.066993 25791.195313
105.073503 1043595.875
105.075538 24870.464844
106.073989 27054.861328
110.019528 38077.933594
121.636727 24137.246094
121.896108 28963.015625
121.956376 45993.996094
121.983092 31638.916016
122.003198 136285.640625
122.009561 22451.804688
122.011343 26020.582031
122.013889 31223.521484
122.015416 41551.816406
122.016435 24644.701172
122.017199 23071.980469
122.017962 38618.675781
122.018726 29579.533203
122.01949 65736.046875
122.020254 102486.046875
122.02229 162382.21875
122.024582 444285.03125
122.026873 27882480.0
122.029165 447094.59375
122.031202 166621.046875
122.033493 86843.835938
122.034767 36466.464844
122.035276 32196.271484
122.035785 29133.916016
122.036804 33549.539063
122.037822 30616.224609
122.038841 23120.199219
122.039859 34064.347656
122.041897 27344.689453
122.050046 133311.265625
122.070424 34049.902344
122.097177 52042.648438
122.157594 33635.128906
122.418644 24914.753906
123.023377 23985.441406
123.025697 73740.796875
123.027243 17879.851563
123.029821 613583.125
124.022485 1080746.625
124.030312 35941.941406
133.060359 182214.875
134.044242 29478.589844
137.132002 39532.351563
141.958171 113452.875
149.022904 195821.484375
155.142161 32705.693359
156.076374 35667.554688
158.002552 329638.84375
158.095628 22575.037109
158.960868 25291.958984
163.132278 30260.603516
170.095866 17399.265625
171.149125 1350469.5
171.152932 17365.244141
172.152025 38605.191406
174.12715 396386.6875
179.062747 33972.925781
182.984328 193981.15625
186.183905 18715.556641
186.955501 25488.460938
187.125577 251330.28125
188.128987 24105.978516
199.179842 105121.21875
216.971817 29366.900391
223.062608 74042.921875
233.173293 18913.607422
254.158888 22304.302734
266.194902 109369.828125
279.157671 51763.722656
296.964457 19975.292969
336.236491 46912.59375
380.262808 39767.558594
391.271198 18807.6875
391.282894 1283153.0
392.286254 188543.421875
399.141807 50334.03125
436.339497 66709.632813
494.347027 830601.25
495.349218 161782.578125
512.300207 48860.855469
103.763122 74962.625
103.959653 53620.042969
103.966861 97004.117188
104.014934 149523.78125
104.017338 51817.128906
104.035976 109950.515625
104.041789 45133.710938
104.051812 355321.03125
104.054218 56304.175781
104.05482 46180.621094
104.057426 95588.171875
104.058228 73844.515625
104.058629 54415.023438
104.059431 53379.789063
104.060233 55021.496094
104.061436 93307.640625
104.062238 73629.8125
104.062639 85887.890625
104.063441 175208.34375
104.064043 118983.523438
104.065246 304732.8125
104.06685 417630.34375
104.068655 1100852.875
104.07046 82626144.0
104.071663 838549.1875
104.072064 1246172.375
104.073067 339763.28125
104.073869 423606.75
104.074671 146762.546875
104.075473 276642.875
104.076275 105165.578125
104.077077 178455.53125
104.07788 116119.1875
104.078481 71096.71875
104.079284 93467.25
104.080286 55195.875
104.081089 63051.265625
104.081891 75203.617188
104.082292 58388.480469
104.083094 87203.414063
104.083696 61333.417969
104.086303 73195.5625
104.088911 352088.0
104.090315 42270.96875
104.10496 116932.09375
104.123421 46955.226563
104.125829 167721.609375
104.174213 110406.546875
104.181243 59633.6875
104.379164 62445.820313
105.066993 90973.734375
105.073503 2879426.5
105.075334 64794.257813
106.04758 70505.304688
106.049231 5544959.0
106.051087 83061.265625
106.074195 109242.921875
107.052629 76471.132813
171.148702 280962.25
174.126716 48253.765625
207.128719 74814.539063
207.133787 7784138.5
207.137166 71049.164063
207.138292 73095.59375
208.136888 435231.625
266.195722 52398.546875
274.21156 251182.28125
366.093792 94473.101563
368.074498 63193.015625
370.052496 44084.609375
391.282894 394333.875
392.286254 72751.648438
411.164251 45903.609375
470.127423 41509.257813
494.347027 1986471.625
495.349218 347997.71875

>collision 35
57.954628 490145.09375
75.770386 553.397339

>collision 35
69.001312 802.533997
86.032806 281601.375
86.949432 711872.1875

>collision 35
86.044754 22.208818
86.974472 109.207527
104.002426 8374.071289
123.058472 14.724609
136.351486 5.997527
137.125595 4.604316
161.217453 8.13544
176.212662 9.758411
179.10112 38.838818
191.004929 36.031479
192.077774 4.234491
193.206116 7.038758
207.239914 6.178699

