>compound Guanosine
#instrument LTQ Orbitrap XL, Thermo Scientfic
>formula C10H13N5O5
#smiles OC[C@@H](O1)[C@@H](O)[C@@H](O)[C@@H]1n(c3)c(N=2)c(n3)C(=O)NC(N)2
#inchi InChI=1S/C10H13N5O5/c11-10-13-7-4(8(19)14-10)12-2-15(7)9-6(18)5(17)3(1-16)20-9/h2-3,5-6,9,16-18H,1H2,(H3,11,13,14,19)/t3-,5-,6-,9-/m1/s1
>charge 1

>ms1peaks
100.111848 167590.046875
102.033553 77639.21875
102.091202 183405.140625
110.019746 71004.617188
111.020036 22692.34375
116.034066 48143.28125
118.086052 24898.710938
123.031625 24510.267578
123.051218 33361.109375
123.053022 47273.074219
123.055343 5342010.5
123.05689 49435.582031
123.057664 51943.101563
123.059726 35414.28125
123.079067 23705.628906
124.058494 245478.453125
132.076661 39535.210938
133.071956 30895.455078
134.044828 1662796.5
136.061516 165497.34375
137.132305 50158.527344
139.049773 39239.324219
141.95849 164044.71875
149.023248 74218.328125
152.023971 34120.027344
152.050883 42377.203125
152.053362 94747.359375
152.056549 8156162.5
152.058674 80913.960938
152.059737 75075.257813
152.06257 50477.066406
152.065404 22869.513672
152.089137 32440.896484
153.053436 86775.296875
153.059874 336614.0
155.142891 86096.421875
158.002552 136012.84375
158.096379 45158.070313
163.132671 151435.46875
170.096285 55486.351563
171.13813 40229.410156
171.149125 1214603.25
172.152452 64796.15625
172.97669 187252.84375
174.127584 620323.3125
175.130548 27839.257813
179.063653 67233.898438
182.0287 42626.429688
182.984796 470677.84375
187.12606 240437.28125
190.028984 35775.453125
194.117473 913218.6875
195.120566 52612.351563
199.180373 159784.828125
222.112313 73731.96875
224.127985 165639.40625
233.174638 25651.857422
282.714373 38880.480469
283.63244 30801.082031
283.849105 42635.246094
283.94307 41474.5
284.016287 134123.0
284.038891 28532.972656
284.049742 22713.042969
284.055167 25770.005859
284.05788 45426.140625
284.060593 33313.328125
284.063306 45349.507813
284.066019 26520.876953
284.068732 26048.646484
284.071445 35541.855469
284.075062 69436.710938
284.077775 115540.851563
284.085011 206201.078125
284.088628 106411.890625
284.091342 268790.71875
284.099482 44853280.0
284.104909 343558.8125
284.107622 299779.59375
284.112145 102718.648438
284.114859 218861.90625
284.118477 77578.96875
284.122095 106800.398438
284.125714 45166.683594
284.127523 22503.197266
284.131141 32455.904297
284.136569 60357.363281
284.141997 37921.230469
284.145616 23749.498047
284.158282 29933.058594
284.161902 31577.400391
284.182713 141395.546875
284.255117 42041.289063
284.349284 53544.109375
284.567679 38742.898438
284.599416 22660.388672
285.093398 28060.066406
285.101581 5384400.0
285.107037 44029.082031
285.109765 34283.804688
285.117039 24200.015625
285.493883 39664.183594
286.101679 181954.90625
372.54444 287868.21875
373.044759 27482.214844
384.02171 40507.894531
391.282894 609645.0625
392.286254 82646.382813
407.524101 24602.439453
436.339497 37834.652344
567.177077 25229.554688
567.189834 3016424.5
568.181101 27066.201172
568.193892 453980.40625
569.195488 43461.839844
674.374164 25792.380859
744.079379 148612.296875
745.084845 30899.785156
850.281477 105104.328125
1133.377063 52691.230469
1134.37951 23147.423828
100.111848 47849.746094
102.033553 39058.125
102.054582 56052.070313
102.091007 55401.789063
110.03457 44754.761719
123.043741 73201.84375
128.044836 64003.046875
134.080891 44109.011719
135.022777 46116.757813
135.023962 35670.511719
135.043524 68175.953125
136.033941 37124.007813
136.05642 51153.289063
136.057319 76494.351563
136.058818 93671.875
136.061516 9843138.0
136.064214 92089.84375
136.066013 43652.011719
136.066612 51573.179688
136.0891 35438.4375
137.045293 849419.625
137.058324 66092.90625
137.064689 343705.40625
139.038624 252452.953125
141.958171 53467.195313
149.023248 63997.46875
151.514362 45552.269531
151.874319 43512.609375
151.958493 73354.359375
151.995297 47376.332031
152.023971 218393.703125
152.02999 35874.589844
152.031407 37896.03125
152.034947 38877.328125
152.03601 37800.90625
152.038488 43943.679688
152.039197 39782.765625
152.040259 50138.957031
152.042029 41470.800781
152.044154 54336.015625
152.046279 73256.953125
152.047341 118136.648438
152.050174 285313.625
152.051591 360580.9375
152.053362 493814.6875
152.056549 54426592.0
152.059737 501892.53125
152.060799 234717.46875
152.061862 268245.84375
152.06257 308965.0
152.064695 64103.492188
152.066112 111241.929688
152.067529 705477.5625
152.070362 52509.308594
152.073196 42190.804688
152.073905 39502.941406
152.077447 45276.820313
152.079572 36977.542969
152.080989 45086.386719
152.082406 34399.953125
152.083115 32517.876953
152.089137 225377.96875
152.117129 53177.914063
152.154345 90083.710938
152.239107 57093.382813
152.601651 50022.777344
153.040204 608693.375
153.053436 684859.75
153.059516 2642087.0
153.073109 84276.070313
154.056186 31863.740234
154.060159 45486.296875
158.002177 75245.140625
163.132278 66784.289063
165.054298 68263.929688
167.055748 138761.921875
171.148702 772417.125
172.97669 64170.21875
174.12715 368192.625
181.044183 32224.041016
181.049244 1420901.375
182.05236 53076.824219
182.076953 32738.587891
182.08113 3539113.75
182.085306 35989.914063
182.984796 259873.34375
183.083955 184529.875
187.125577 130672.664063
190.988548 35284.65625
193.068373 52622.085938
194.117473 775494.3125
195.121081 39129.871094
196.060395 378002.21875
197.270009 51807.742188
197.804905 47358.542969
197.930028 79566.992188
197.985266 54441.351563
198.027369 216971.34375
198.038423 40913.042969
198.042634 36632.773438
198.048951 41356.800781
198.050004 35397.0625
198.05211 48676.78125
198.054216 53568.515625
198.057375 69033.21875
198.060534 87672.59375
198.062113 103358.015625
198.066325 286182.15625
198.068431 356772.4375
198.071064 525238.0
198.075803 63601084.0
198.080542 498412.15625
198.082122 241308.671875
198.083701 279100.46875
198.084754 324447.40625
198.087914 60781.476563
198.09002 104730.945313
198.092127 42450.882813
198.09318 59606.054688
198.095287 56873.203125
198.09634 48337.382813
198.098447 44145.875
198.100553 48200.917969
198.101606 45881.371094
198.103713 34863.0
198.106873 51807.597656
198.11214 42782.292969
198.114247 36005.097656
198.124255 224749.609375
198.165874 60241.859375
198.221212 88283.304688
198.347257 63483.804688
198.886544 53470.140625
199.0721 81036.375
199.073161 79977.609375
199.078467 5573965.0
199.083773 41111.570313
199.17878 54823.199219
200.079141 276121.375
210.075326 182716.65625
222.111063 32743.896484
224.127351 74061.046875
242.561791 32796.710938
268.103376 50098.273438
269.087828 1804291.0
270.090289 60523.253906
283.849105 32336.267578
284.015383 90177.570313
284.066923 36151.09375
284.072349 36272.472656
284.075967 46125.859375
284.083202 118541.960938
284.086819 146640.53125
284.091342 238733.546875
284.098577 32764858.0
284.105813 211283.3125
284.107622 207747.515625
284.109431 102375.703125
284.113954 125498.875
284.120286 33816.296875
284.123 51160.511719
284.182713 96258.335938
284.349284 32067.767578
285.095216 220792.203125
285.101581 3318865.0
286.101679 99032.90625
286.104422 53570.027344
287.109806 231041.125
303.10521 1999030.0
304.10843 82474.367188
306.201714 40917.175781
307.083094 3994951.5
307.089193 32932.945313
307.583792 663133.6875
308.079586 132231.546875
308.084693 42000.398438
330.057635 142346.65625
333.127873 40691.773438
348.069074 778481.4375
349.07212 36488.375
349.125097 3821180.0
350.120341 35087.671875
350.126528 264891.25
391.282894 411481.5
392.284786 67144.664063
395.142987 182618.515625
396.146347 33427.675781
419.151054 33607.277344
420.135037 435081.0625
421.13718 35646.160156
435.147156 2114291.5
436.148462 142080.234375
466.155661 1332755.125
467.157219 135458.15625
481.165725 3596959.0
482.168074 408916.03125
483.171552 53424.410156
499.116803 56759.132813
526.334395 39162.648438
542.329516 34078.902344
552.178084 330160.03125
553.17939 57355.550781
567.189834 1558387.75
568.191334 176824.703125
588.349282 110988.976563
613.157071 1141890.5
614.159174 114266.4375
615.152208 57269.757813
631.158257 51950.882813
764.255221 105149.265625
850.281477 35732.117188
896.25112 128132.398438
1047.350261 37416.179688
1179.341253 41242.007813

>collision 35
135.127609 1006.192078
152.066681 506861.40625
152.924622 314.647217

>collision 35
135.178726 639.608276
152.083878 718532.0

>collision 35
115.899902 2.142255
130.05574 4.616067
134.108276 10.523045
135.100098 4.169611
152.049469 454.444244
153.02829 169.334427
172.197495 2.816971
182.029572 3.264476
200.173035 3.040949
212.241455 10.850708
213.32547 6.565445
270.194824 3.039411
275.253479 5.978247
275.982727 6.232487
284.367188 3.003056

>collision 35
89.086243 8.603989
89.78318 8.927589
106.932373 22.004114
108.358185 22.482189
109.016739 228.301575
110.017303 623.393433
111.03685 69.82415
120.043625 6.663674
128.961166 5.51743
134.903473 3433.979492
136.010468 45.325806
152.096802 70.656944
153.195114 31.448414

