>compound MLS002153368-01!MELPHALAN
>formula C13H18Cl2N2O2
>ionization [M+H]+
>parentmass 305.080872
#inchi InChI=1S/C13H18Cl2N2O2/c14-5-7-17(8-6-15)11-3-1-10(2-4-11)9-12(16)13(18)19/h1-4,12H,5-9,16H2,(H,18,19)/t12-/m0/s1
#inchikey SGDBTWWWUNNDEQ
#Ion_Source LC-ESI
#Instrument qTof
#Compound_Source NIH Pharmacologically Active Library
#PI Dorrestein
#Data_Collector VP/LMS
#Scan -1
#Precursor_MZ 305.086
#ExactMass 304.075
#Charge 1
#CAS_Number N/A
#Pubmed_ID N/A
#Smiles N[C@@H](Cc1ccc(cc1)N(CCCl)CCCl)C(=O)O
#INCHI_AUX N/A
#Library_Class 1
#SpectrumID CCMSLIB00000085466
#IonMode Positive
#UpdateWorkflowName UPDATE-SINGLE-ANNOTATED-GOLD
#LibraryQualityString Gold
#TaskID d252d724072548979f1f6f1ced849daf
##Scan# 1553
#SpectrumFile p4-B04_GB4_01_18340.mzXML
#LibraryName Pharm_Active_Library.mgf
#MQScore -1
#Organism Pharm_Active_Library
#TIC_Query 0
#RT_Query -1
#MZErrorPPM -1
#SharedPeaks 0
#MassDiff 0
#LibMZ -1
#SpecMZ 305.086
#SpecCharge 0
#internalFilename spec-00000.mgf

>collision 10
44.948853 140.0
45.228165 220.0
45.33263 128.0
45.355412 152.0
45.407703 244.0
45.480152 156.0
45.524456 292.0
45.564754 140.0
45.681709 100.0
45.719383 192.0
45.81094 216.0
45.825363 232.0
45.841927 132.0
45.871578 128.0
45.902588 72.0
45.933609 84.0
46.128056 132.0
46.192963 188.0
46.202431 148.0
46.44762 204.0
46.467968 164.0
46.478821 164.0
46.511395 152.0
46.633945 176.0
46.664902 124.0
46.683937 188.0
46.751953 72.0
46.78326 88.0
46.818661 100.0
46.884052 124.0
47.166573 152.0
47.308834 232.0
47.522629 60.0
47.552818 156.0
47.797432 164.0
47.848358 168.0
47.870388 132.0
47.975101 248.0
48.024483 192.0
48.326588 192.0
48.402016 176.0
48.439411 168.0
48.762699 68.0
48.937973 48.0
49.073254 84.0
49.232193 220.0
49.364948 200.0
49.479683 192.0
49.616978 132.0
49.932915 92.0
50.006073 104.0
50.020149 196.0
50.117321 176.0
50.234337 160.0
50.306305 148.0
50.337364 168.0
50.391037 136.0
50.42495 224.0
50.450394 152.0
50.562134 176.0
50.676834 184.0
50.708008 232.0
50.756207 80.0
50.774643 112.0
50.90662 164.0
51.067211 128.0
51.091393 144.0
51.215233 264.0
51.229481 120.0
51.242096 120.0
51.372032 144.0
51.719261 84.0
51.816635 180.0
51.91267 216.0
52.168236 124.0
52.230068 144.0
52.286179 96.0
52.366802 184.0
52.404259 188.0
52.557091 168.0
52.660233 232.0
52.866318 192.0
53.014027 204.0
53.202583 164.0
53.249046 144.0
53.777554 180.0
53.800907 244.0
53.889996 176.0
53.901684 144.0
54.099129 160.0
54.273731 180.0
54.296936 172.0
54.367352 152.0
54.420197 152.0
54.542126 176.0
54.655365 180.0
54.783451 192.0
54.865978 120.0
54.899891 76.0
54.986931 140.0
55.0135 208.0
55.31654 152.0
55.479488 208.0
55.547703 148.0
55.580341 192.0
55.590729 196.0
55.782318 216.0
55.855183 180.0
55.910229 28.0
56.041267 204.0
56.224678 188.0
56.628342 128.0
56.655304 140.0
56.691971 152.0
56.722736 184.0
56.812534 240.0
56.859226 176.0
56.955315 168.0
57.039459 164.0
57.04998 240.0
57.105618 144.0
57.120659 136.0
57.14172 172.0
57.263649 112.0
57.39777 60.0
57.467152 176.0
57.483749 188.0
57.545635 136.0
57.557713 224.0
57.572933 200.0
57.599998 124.0
57.729404 232.0
57.769302 84.0
57.8601 180.0
57.914616 52.0
57.943398 140.0
57.982792 180.0
58.140514 148.0
58.334927 144.0
58.369896 192.0
58.528141 252.0
58.686604 112.0
58.704899 196.0
58.717102 120.0
58.889561 80.0
58.901779 160.0
59.092873 164.0
59.111233 212.0
59.143372 108.0
59.180111 44.0
59.219925 60.0
59.654163 188.0
59.960461 128.0
60.029831 124.0
60.164066 108.0
60.187225 132.0
60.249001 224.0
60.414413 140.0
60.427444 104.0
60.68544 164.0
60.770744 100.0
60.814194 192.0
60.955517 208.0
61.076778 188.0
61.134342 176.0
61.190376 116.0
61.291615 144.0
61.558353 204.0
61.644268 88.0
61.7537 208.0
61.783421 148.0
61.794373 144.0
61.880924 148.0
61.902374 148.0
61.930561 116.0
61.958759 252.0
62.026142 88.0
62.044952 136.0
62.059063 168.0
62.200253 108.0
62.346317 72.0
62.357319 256.0
62.560226 176.0
62.676773 160.0
62.709866 132.0
62.881775 108.0
62.925976 192.0
63.052341 120.0
63.101315 200.0
63.208897 196.0
63.609867 88.0
63.663849 196.0
63.844456 164.0
63.992992 116.0
64.142738 180.0
64.332565 88.0
64.423592 144.0
64.439568 180.0
64.453949 160.0
64.521072 120.0
64.580238 208.0
64.620232 128.0
64.633034 108.0
64.661835 220.0
64.935799 140.0
65.314606 132.0
65.548286 156.0
65.575684 208.0
65.698235 220.0
65.774078 32.0
65.785378 52.0
65.82412 40.0
65.866112 36.0
65.921043 152.0
66.013184 168.0
66.085968 124.0
66.137756 132.0
66.158798 148.0
66.17337 120.0
66.225189 148.0
66.265686 40.0
66.341858 224.0
66.35807 152.0
66.487831 140.0
66.647369 180.0
66.711975 124.0
66.731491 104.0
66.981079 176.0
67.040756 104.0
67.190765 144.0
67.218498 168.0
67.273987 156.0
67.342567 136.0
67.432426 128.0
67.443871 144.0
67.559967 176.0
67.730209 172.0
67.794106 76.0
67.915428 136.0
67.982689 164.0
68.074615 140.0
68.301422 156.0
68.38369 168.0
68.492355 192.0
68.609352 152.0
68.970863 140.0
69.389679 124.0
69.401283 80.0
69.472603 180.0
69.502464 144.0
69.527351 160.0
69.568848 208.0
69.95285 212.0
69.9645 168.0
70.147743 148.0
70.342911 32.0
70.523308 108.0
70.785957 208.0
70.863007 192.0
70.918304 192.0
70.976982 112.0
71.238792 224.0
71.63916 152.0
71.72847 132.0
71.819519 132.0
71.897133 140.0
72.035583 68.0
72.091331 136.0
72.229973 36.0
72.372124 156.0
72.392448 48.0
72.426315 160.0
72.451729 184.0
72.622932 76.0
72.682304 140.0
72.745102 176.0
73.015259 208.0
73.144562 56.0
73.270576 68.0
73.294434 148.0
73.627075 148.0
73.726158 148.0
73.767174 184.0
73.780853 136.0
73.922813 196.0
74.156219 164.0
74.172859 172.0
74.186577 40.0
74.53154 144.0
74.644981 112.0
74.808434 164.0
74.928978 188.0
74.956543 172.0
74.975502 148.0
75.077209 160.0
75.583344 184.0
75.676811 88.0
75.908432 160.0
75.931541 224.0
75.971436 144.0
76.025223 60.0
76.082497 148.0
76.124908 216.0
76.214493 200.0
76.318779 232.0
76.379646 168.0
76.548462 140.0
76.569359 36.0
76.614647 168.0
76.769768 84.0
76.80291 200.0
76.85524 200.0
77.059517 108.0
77.125923 192.0
77.293816 208.0
77.346313 84.0
77.468887 172.0
77.556503 108.0
77.963676 184.0
78.081459 160.0
78.23278 188.0
78.312019 132.0
78.349007 56.0
78.375435 188.0
78.537621 184.0
78.639961 128.0
78.807716 96.0
79.310936 212.0
79.377663 140.0
79.400719 160.0
79.48587 204.0
79.631439 152.0
79.773582 184.0
80.022408 324.0
80.400536 168.0
80.464798 168.0
80.598755 132.0
80.663086 148.0
80.698021 156.0
80.772163 152.0
80.988747 240.0
81.024574 216.0
81.094452 120.0
81.121338 188.0
81.279167 124.0
81.324028 180.0
81.354546 120.0
81.447922 160.0
81.647606 156.0
81.767952 68.0
81.802155 224.0
82.151741 252.0
82.207672 116.0
82.458694 236.0
82.563553 104.0
82.597916 180.0
82.697433 172.0
82.728203 152.0
83.128754 104.0
83.174126 176.0
83.223145 164.0
83.235855 168.0
83.295784 116.0
83.373909 48.0
83.42588 148.0
83.468437 100.0
83.635803 128.0
83.677673 184.0
83.7323 168.0
83.766014 204.0
83.89447 120.0
83.930931 160.0
84.116432 188.0
84.279556 212.0
84.409332 132.0
84.498955 64.0
84.641716 100.0
84.676514 80.0
84.848755 188.0
84.907433 56.0
84.966125 76.0
85.193764 116.0
85.357338 164.0
85.440102 72.0
85.531242 160.0
85.640747 124.0
85.747032 204.0
86.05751 180.0
86.081406 212.0
86.112907 124.0
86.164627 164.0
86.343925 180.0
86.379066 168.0
86.421616 148.0
86.473434 228.0
86.524719 96.0
86.732735 132.0
86.775368 236.0
86.8106 160.0
87.04998 160.0
87.081551 200.0
87.118698 152.0
87.155861 36.0
87.1763 124.0
87.220825 188.0
87.22805 180.0
87.380829 156.0
87.397575 68.0
87.695526 160.0
87.78688 204.0
87.893204 144.0
87.984657 176.0
88.083626 120.0
88.109779 136.0
88.235672 244.0
88.420174 68.0
88.517517 188.0
88.811752 176.0
88.883034 164.0
88.903679 120.0
88.937462 128.0
89.256828 144.0
89.277512 212.0
89.330177 180.0
89.403557 200.0
89.691711 272.0
89.70491 112.0
90.042801 192.0
90.23349 160.0
90.375343 180.0
90.413185 168.0
90.507835 184.0
90.587379 52.0
90.721924 128.0
90.837593 168.0
90.985619 132.0
91.055984 340.0
91.354286 192.0
91.377113 128.0
91.391624 128.0
91.664619 28.0
91.68177 80.0
92.007935 232.0
92.058243 148.0
92.172188 180.0
92.369102 64.0
92.439896 120.0
92.65242 148.0
92.7099 44.0
92.895882 164.0
92.922737 156.0
93.018692 160.0
93.061882 352.0
93.089729 148.0
93.158867 144.0
93.414536 140.0
93.4366 164.0
93.517502 144.0
93.553085 140.0
93.761108 124.0
93.8787 56.0
93.996368 148.0
94.18943 208.0
94.521957 224.0
94.599373 196.0
94.696182 124.0
94.913223 156.0
95.192642 144.0
95.210121 136.0
95.283936 160.0
95.39859 200.0
95.571678 96.0
95.606705 112.0
95.768295 228.0
95.840378 140.0
95.869606 88.0
96.019714 56.0
96.111397 104.0
96.152382 152.0
96.17775 144.0
96.265602 48.0
96.382805 140.0
96.529411 124.0
96.75441 172.0
96.903297 188.0
96.987518 184.0
97.052216 156.0
97.162041 180.0
97.232681 152.0
97.283714 48.0
97.442787 232.0
97.484047 136.0
97.603958 248.0
97.617722 76.0
97.804619 212.0
97.819839 196.0
97.836113 48.0
97.849892 104.0
97.908966 144.0
98.025192 180.0
98.050812 152.0
98.247986 156.0
98.279556 172.0
98.613289 144.0
98.658752 200.0
98.793221 184.0
98.915909 92.0
99.308228 168.0
99.492767 40.0
99.656792 200.0
99.673508 112.0
99.864349 64.0
99.999641 132.0
100.152954 180.0
100.272491 212.0
100.354225 132.0
100.370171 120.0
100.386124 200.0
100.431999 96.0
100.453934 156.0
100.471893 324.0
100.553703 104.0
100.6036 128.0
100.851288 172.0
101.049263 248.0
101.141312 168.0
101.159325 148.0
101.267456 160.0
101.480141 204.0
101.51796 140.0
101.632294 172.0
101.782837 172.0
102.007851 152.0
102.050064 328.0
102.12648 104.0
102.390137 124.0
102.692444 60.0
102.716904 156.0
102.821564 140.0
102.9851 184.0
103.054375 856.0
103.071968 224.0
103.10228 32.0
103.209412 52.0
103.37326 140.0
103.401588 64.0
103.73999 112.0
103.825005 264.0
104.047791 840.0
104.065376 288.0
104.115204 188.0
104.129425 148.0
104.180206 132.0
104.615387 164.0
104.678497 120.0
104.776268 136.0
104.85981 76.0
104.880188 180.0
104.982124 76.0
105.029037 156.0
105.07132 784.0
105.103905 200.0
105.224937 84.0
105.249435 180.0
105.451675 192.0
105.692986 140.0
105.766655 156.0
105.846497 208.0
105.912033 112.0
105.979637 164.0
106.040932 180.0
106.065918 5556.0
106.10466 124.0
106.172005 128.0
106.324135 128.0
106.387764 104.0
106.434982 148.0
106.545891 220.0
106.794617 92.0
106.932465 228.0
106.981865 156.0
107.053276 188.0
107.068115 400.0
107.086105 192.0
107.130135 80.0
107.22332 140.0
107.342415 60.0
107.660202 168.0
107.67466 84.0
107.846146 128.0
107.862679 168.0
107.887482 196.0
107.910225 156.0
108.000221 96.0
108.366364 204.0
108.678627 68.0
108.786545 88.0
108.817688 84.0
108.979683 124.0
109.025398 148.0
109.252037 188.0
109.533058 148.0
109.591385 196.0
109.605972 160.0
109.822777 140.0
109.883278 204.0
110.05024 84.0
110.144218 204.0
110.236145 80.0
110.273758 100.0
110.372009 176.0
110.694252 36.0
110.713097 104.0
110.803162 124.0
110.84507 156.0
110.897461 188.0
110.977119 172.0
110.995987 116.0
111.021156 76.0
111.035835 192.0
111.075684 212.0
111.981583 56.0
112.01207 236.0
112.06163 164.0
112.131172 180.0
112.173325 152.0
112.190186 108.0
112.249222 120.0
112.299835 124.0
112.316711 176.0
112.470741 248.0
112.777 120.0
113.011734 196.0
113.056168 180.0
113.183174 140.0
113.222282 232.0
113.240356 132.0
113.26577 116.0
113.372688 148.0
113.411972 96.0
113.513733 136.0
113.609177 284.0
113.628265 60.0
113.685555 220.0
113.827782 160.0
113.853264 104.0
113.885124 44.0
114.212448 152.0
114.465698 216.0
114.518936 112.0
114.640373 140.0
114.706444 88.0
115.020004 104.0
115.055542 452.0
115.145973 68.0
115.291245 172.0
115.346809 172.0
115.374603 84.0
115.398117 160.0
115.447296 184.0
115.466545 196.0
115.490074 232.0
115.526436 128.0
115.652679 152.0
115.853966 124.0
115.898956 148.0
116.059418 216.0
116.096161 196.0
116.12619 124.0
116.230721 176.0
116.282806 208.0
116.366524 208.0
116.776955 164.0
116.93412 168.0
116.993019 204.0
117.057358 1656.0
117.160103 116.0
117.211815 176.0
117.304482 172.0
117.386414 200.0
117.517982 140.0
117.567612 156.0
117.61628 124.0
117.634521 140.0
117.785675 140.0
117.807274 148.0
117.902344 136.0
117.954216 112.0
117.995293 168.0
118.033821 200.0
118.066879 3696.0
118.166145 28.0
118.479599 260.0
118.499557 100.0
118.581902 180.0
118.646935 56.0
118.798737 88.0
118.822594 176.0
118.837784 204.0
118.915901 212.0
119.046158 80.0
119.074066 5048.0
119.100052 128.0
119.103584 228.0
119.155418 176.0
119.369942 164.0
119.487068 212.0
119.580963 180.0
119.787811 200.0
119.811775 164.0
119.935982 176.0
120.055893 148.0
120.080009 2112.0
120.180222 152.0
120.206406 116.0
120.228233 80.0
120.243507 152.0
120.426903 120.0
120.49025 176.0
120.531761 212.0
120.590767 168.0
120.614807 164.0
120.710999 40.0
120.735054 56.0
120.892563 120.0
121.010765 136.0
121.063278 780.0
121.082275 176.0
121.234184 156.0
121.343781 208.0
121.598228 172.0
121.802422 132.0
121.817802 220.0
121.855148 168.0
122.070549 172.0
122.112335 148.0
122.156326 168.0
122.332367 152.0
122.435844 216.0
122.534966 212.0
122.556999 72.0
122.808311 184.0
122.918617 84.0
123.031174 104.0
123.309547 144.0
123.373589 148.0
123.539444 184.0
123.634583 128.0
123.730148 160.0
123.822762 172.0
123.87149 112.0
124.055412 92.0
124.314911 156.0
124.449135 184.0
124.512489 128.0
124.763565 168.0
124.834717 140.0
124.859177 120.0
124.997932 192.0
125.348923 168.0
125.817299 140.0
126.099991 252.0
126.449875 116.0
126.494644 100.0
126.77684 192.0
126.873222 236.0
127.053703 160.0
127.10199 196.0
127.205223 228.0
127.506195 152.0
127.575874 136.0
127.933556 148.0
128.051773 144.0
128.203842 40.0
128.235382 80.0
128.352615 152.0
128.458603 196.0
128.600769 172.0
128.92598 196.0
128.968918 164.0
129.069138 700.0
129.470184 200.0
129.527802 192.0
129.627487 96.0
129.779358 124.0
129.922226 176.0
130.037949 128.0
130.06601 5480.0
130.137833 28.0
130.183243 44.0
130.20369 160.0
130.258194 52.0
130.289993 104.0
130.437012 196.0
130.459854 188.0
130.515427 196.0
130.651459 168.0
130.678772 60.0
130.865402 188.0
130.951935 200.0
130.989517 156.0
131.073776 3016.0
131.198013 128.0
131.387299 156.0
131.681763 44.0
131.734283 96.0
131.802826 28.0
131.958252 152.0
131.983398 132.0
132.047424 184.0
132.08165 11580.0
132.136642 48.0
132.168671 188.0
132.230453 88.0
132.285385 240.0
132.32106 196.0
132.358658 188.0
132.383835 44.0
132.49379 104.0
132.632767 104.0
132.855988 184.0
132.876648 88.0
132.96843 64.0
133.030396 68.0
133.085312 1400.0
133.200317 64.0
133.313629 140.0
133.363464 140.0
133.595703 64.0
133.623306 68.0
133.682617 180.0
133.715347 84.0
133.747574 72.0
133.798218 52.0
133.906433 192.0
133.985306 200.0
134.059784 7172.0
134.094421 524.0
134.13916 28.0
134.169128 148.0
134.208313 128.0
134.255325 124.0
134.337463 144.0
134.392838 148.0
134.413605 32.0
134.455139 192.0
134.593643 208.0
134.611237 84.0
134.649063 68.0
134.741455 40.0
134.7715 116.0
134.806152 72.0
134.833878 64.0
134.873169 88.0
135.018829 136.0
135.037338 168.0
135.066696 1876.0
135.096558 172.0
135.250198 56.0
135.284912 180.0
135.523453 48.0
135.6996 172.0
135.720474 172.0
135.825668 100.0
135.92691 164.0
136.001175 132.0
136.054565 160.0
136.076187 260.0
136.172989 36.0
136.426254 160.0
136.468094 116.0
136.749573 108.0
136.870621 172.0
136.96611 152.0
137.082596 192.0
137.327377 40.0
137.441696 88.0
137.486023 152.0
137.647095 104.0
137.729874 144.0
137.934464 64.0
138.025635 172.0
138.247864 88.0
138.472595 184.0
138.526474 148.0
138.671738 144.0
138.781921 132.0
138.84758 152.0
139.014145 144.0
139.608459 48.0
139.71196 160.0
139.977905 232.0
140.003601 172.0
140.022659 180.0
140.076828 140.0
140.128662 132.0
140.663971 128.0
140.732437 168.0
141.00882 316.0
141.051361 220.0
141.072372 168.0
141.096283 160.0
141.167206 200.0
141.271271 128.0
141.306992 164.0
141.342255 132.0
141.607391 120.0
141.640549 128.0
141.759003 148.0
141.799301 140.0
142.024536 148.0
142.041855 184.0
142.068649 276.0
142.665665 204.0
142.791687 104.0
142.824982 140.0
142.901108 168.0
143.073486 1940.0
143.165314 172.0
143.189133 212.0
143.246292 140.0
143.85675 36.0
143.951355 192.0
144.028671 56.0
144.050171 140.0
144.080933 2224.0
144.167252 124.0
144.248505 60.0
144.329788 108.0
144.564209 32.0
144.614471 68.0
144.750931 132.0
144.859467 136.0
144.971298 68.0
145.085251 1640.0
145.208649 128.0
145.290192 76.0
145.400574 184.0
145.434174 40.0
145.522995 60.0
145.681488 176.0
145.86412 196.0
146.018005 160.0
146.05777 152.0
146.096786 1860.0
146.143082 32.0
146.224899 56.0
146.260223 160.0
146.347672 68.0
146.453629 36.0
146.602997 100.0
146.672897 124.0
146.791031 112.0
146.822922 140.0
146.84166 84.0
146.89473 232.0
146.928497 156.0
147.041656 164.0
147.070648 132.0
147.093491 920.0
147.126389 72.0
147.152954 60.0
147.235046 232.0
147.283356 48.0
147.358246 128.0
147.613235 80.0
147.653137 124.0
147.679749 96.0
147.982224 88.0
148.051971 212.0
148.073792 752.0
148.255936 184.0
148.281647 164.0
148.369858 168.0
148.539612 84.0
148.614807 240.0
148.634232 132.0
148.784698 44.0
148.825974 108.0
148.927963 148.0
149.105209 172.0
149.360611 208.0
149.428726 108.0
149.578461 156.0
150.018082 160.0
150.37175 176.0
150.706299 180.0
150.801605 236.0
150.81871 172.0
150.855377 144.0
150.994751 160.0
151.178223 164.0
151.38385 136.0
151.436722 156.0
151.601868 160.0
151.717072 220.0
151.959869 212.0
152.029388 340.0
152.12674 156.0
152.310913 56.0
152.436203 152.0
153.028992 156.0
153.282684 200.0
153.879578 152.0
154.036331 276.0
154.066284 212.0
154.391052 192.0
154.445465 152.0
154.584015 144.0
154.66568 132.0
154.861282 124.0
155.051132 1812.0
155.151199 60.0
155.285095 52.0
155.307419 124.0
155.361984 188.0
155.565475 56.0
155.707001 40.0
155.846115 120.0
156.055801 480.0
156.081833 576.0
156.144409 96.0
156.211563 56.0
156.243912 80.0
156.388229 48.0
156.525146 140.0
156.584915 104.0
156.704483 180.0
156.729401 136.0
156.911346 152.0
157.044907 1004.0
157.08844 564.0
157.183212 84.0
157.260574 208.0
157.322968 64.0
157.380402 108.0
157.447815 232.0
157.487778 104.0
157.577698 176.0
157.637665 196.0
157.907669 124.0
157.937683 112.0
158.059052 1692.0
158.096054 2732.0
158.210434 60.0
158.405746 96.0
158.548569 40.0
158.578644 84.0
158.638794 92.0
158.816833 52.0
158.947281 204.0
158.969864 176.0
159.060211 120.0
159.093704 760.0
159.145569 172.0
159.203323 168.0
159.331421 212.0
159.37413 184.0
159.51738 44.0
160.107758 880.0
160.200165 192.0
160.534531 68.0
160.567322 72.0
160.632904 96.0
160.658127 92.0
160.839813 240.0
160.945831 68.0
161.058914 176.0
161.084122 180.0
161.106079 184.0
161.195908 152.0
161.28183 208.0
161.428467 212.0
161.595398 160.0
161.620697 228.0
161.954865 152.0
162.046066 56.0
162.091797 4060.0
162.194443 108.0
162.329941 92.0
162.454224 72.0
162.984665 124.0
163.033112 208.0
163.096725 788.0
163.226303 196.0
163.328033 144.0
163.383987 284.0
163.409439 168.0
163.433334 192.0
163.585037 48.0
163.607941 212.0
163.648682 36.0
163.691956 188.0
163.916122 44.0
164.117477 56.0
164.153183 168.0
164.31897 132.0
164.398071 120.0
164.640228 144.0
164.73764 68.0
164.975296 124.0
164.995758 232.0
165.062225 192.0
165.215683 140.0
165.474167 48.0
165.530487 108.0
165.686737 44.0
165.717468 124.0
165.814789 160.0
166.012253 124.0
166.052017 168.0
166.125092 160.0
166.325241 68.0
166.540924 164.0
166.653961 208.0
166.797867 104.0
166.869858 292.0
166.952133 96.0
167.053818 160.0
167.078171 336.0
167.263443 188.0
167.399887 108.0
167.442657 132.0
167.564743 128.0
167.582779 152.0
167.840332 160.0
167.874039 64.0
167.996674 176.0
168.057922 16516.0
168.12088 64.0
168.1604 36.0
168.22493 56.0
168.276566 40.0
168.379852 68.0
168.397934 60.0
168.462509 72.0
168.581345 52.0
168.629807 64.0
168.645172 156.0
168.671814 32.0
168.852798 196.0
168.995071 36.0
169.062317 1608.0
169.497375 188.0
169.577332 80.0
169.707321 260.0
169.878494 120.0
169.971893 32.0
170.016006 124.0
170.055054 4728.0
170.090027 136.0
170.15097 40.0
170.195114 124.0
170.252243 116.0
170.296387 84.0
170.345749 36.0
170.374481 124.0
170.527618 372.0
170.553619 36.0
170.746017 192.0
171.059616 360.0
171.100861 284.0
171.131134 36.0
171.420258 292.0
171.506912 160.0
171.704407 136.0
171.866135 180.0
171.991394 132.0
172.072006 292.0
172.107224 164.0
172.181992 180.0
173.081543 120.0
173.099884 96.0
173.230835 160.0
173.401138 164.0
173.424728 144.0
173.592514 84.0
173.721024 32.0
174.05098 360.0
174.372192 160.0
174.398483 196.0
174.452911 124.0
174.711395 76.0
175.050919 104.0
175.124664 200.0
175.177338 68.0
175.256378 112.0
175.316986 144.0
175.345963 204.0
175.409225 164.0
175.638626 76.0
175.796921 108.0
176.071228 2740.0
176.113724 136.0
176.277527 112.0
176.409668 204.0
176.504852 120.0
176.652954 92.0
176.708511 160.0
177.076996 572.0
177.251984 216.0
177.283096 112.0
177.362595 152.0
177.773682 228.0
177.829407 80.0
177.871872 184.0
178.042465 272.0
178.069626 184.0
178.156006 184.0
178.384537 148.0
178.762207 156.0
178.895279 220.0
179.051132 1336.0
179.244186 132.0
179.577408 140.0
179.785507 200.0
179.940323 196.0
180.057175 864.0
180.399078 44.0
180.629776 84.0
180.859894 164.0
181.065826 2680.0
181.119614 72.0
181.269638 68.0
181.308517 204.0
181.382202 88.0
181.59816 88.0
182.073761 2100.0
183.062897 656.0
183.217575 108.0
183.325348 100.0
183.570648 176.0
183.597626 60.0
183.762161 84.0
183.972656 132.0
184.071793 808.0
184.345383 224.0
184.388626 36.0
184.569748 132.0
185.048645 156.0
185.067596 328.0
185.165085 48.0
185.661026 196.0
185.836182 160.0
186.011017 136.0
186.04631 132.0
186.081604 136.0
186.293427 152.0
186.355911 128.0
186.624985 52.0
186.644028 100.0
187.267212 184.0
187.357101 220.0
187.463348 60.0
187.768677 192.0
187.869598 160.0
188.000565 104.0
188.070999 208.0
188.656082 144.0
188.811935 132.0
188.954163 272.0
188.981522 120.0
189.011627 120.0
189.080658 288.0
189.197739 184.0
189.562012 212.0
190.019897 168.0
190.09761 188.0
190.173569 144.0
190.632202 172.0
191.209717 60.0
191.485016 208.0
191.647552 172.0
191.832199 184.0
192.011414 192.0
192.057144 744.0
192.143814 52.0
192.414017 172.0
192.47226 176.0
192.687683 128.0
192.729126 52.0
192.912704 140.0
193.005524 172.0
193.065521 1280.0
193.141037 172.0
193.326401 188.0
193.531235 100.0
193.589386 100.0
193.617081 204.0
193.666931 136.0
193.697403 168.0
193.783279 112.0
193.88858 188.0
193.963409 192.0
194.008621 244.0
194.03595 124.0
194.073486 31200.0
194.150253 132.0
194.168839 84.0
194.230286 156.0
194.257339 32.0
194.375473 48.0
194.410431 128.0
194.451553 200.0
194.476532 52.0
194.507065 84.0
194.531067 44.0
194.577332 192.0
194.673645 120.0
194.770859 36.0
194.809738 68.0
194.843079 32.0
195.011139 92.0
195.033768 116.0
195.074966 3988.0
195.19606 52.0
195.262802 52.0
195.285049 60.0
195.337906 40.0
195.38797 76.0
195.563278 92.0
195.652359 64.0
195.713608 172.0
195.772079 72.0
195.924637 228.0
195.95871 96.0
195.989349 44.0
196.070206 6548.0
196.11171 44.0
196.163864 192.0
196.256927 116.0
196.385208 96.0
196.455688 104.0
196.510132 56.0
196.550919 100.0
196.572922 84.0
196.602814 140.0
196.692123 112.0
196.731201 36.0
196.758377 108.0
196.778671 80.0
196.879196 104.0
196.991409 220.0
197.021637 152.0
197.060059 1388.0
197.164139 88.0
197.186493 76.0
197.245193 52.0
197.292709 52.0
197.40271 108.0
197.488205 92.0
197.527603 40.0
197.611526 84.0
197.871811 40.0
198.028625 64.0
198.069809 240.0
198.093933 216.0
198.123856 92.0
198.157486 76.0
198.269562 56.0
198.370468 32.0
198.426529 68.0
198.600388 136.0
198.628433 76.0
198.903427 164.0
199.055511 324.0
199.083649 300.0
199.285355 108.0
199.383698 112.0
199.425858 44.0
199.518616 48.0
200.059784 176.0
200.202347 140.0
201.070633 100.0
201.090393 144.0
201.65242 124.0
202.110535 184.0
202.249207 188.0
202.506851 84.0
202.676834 60.0
203.488007 200.0
203.581696 132.0
203.666901 164.0
203.87146 184.0
204.005051 104.0
204.103622 144.0
204.423141 184.0
204.798935 184.0
205.329041 172.0
205.580078 84.0
205.600067 152.0
205.725647 132.0
205.762756 56.0
206.025497 120.0
206.06633 300.0
206.39418 140.0
206.817581 72.0
206.860504 224.0
206.954987 56.0
207.006531 56.0
207.047668 516.0
207.076477 168.0
207.227081 152.0
208.05098 156.0
208.090027 560.0
208.271271 168.0
208.409164 132.0
209.093124 568.0
209.12233 72.0
209.159744 52.0
209.617661 84.0
209.689713 80.0
209.854019 224.0
210.065018 632.0
210.086502 176.0
210.67363 116.0
210.823883 144.0
210.916367 52.0
210.945267 144.0
211.062302 156.0
211.098495 100.0
211.312546 184.0
212.064667 228.0
212.761597 44.0
212.892258 132.0
212.979385 104.0
213.519974 220.0
213.60141 172.0
215.034943 128.0
215.735962 140.0
216.033218 172.0
216.061768 196.0
216.367844 180.0
217.047226 164.0
217.217682 44.0
218.050293 1052.0
218.154404 172.0
218.295532 56.0
218.474945 72.0
218.675034 220.0
218.707413 44.0
218.783951 48.0
218.863434 56.0
218.934113 132.0
219.018005 176.0
219.055099 388.0
219.125565 52.0
219.496933 172.0
219.833221 44.0
220.046692 976.0
220.146118 112.0
220.403107 72.0
221.051086 768.0
221.441452 196.0
221.968948 56.0
222.044418 160.0
222.069778 144.0
222.45433 80.0
222.681168 124.0
223.054413 180.0
223.101852 1552.0
223.141754 104.0
223.251907 80.0
223.346939 72.0
223.477829 100.0
223.718887 68.0
223.966049 112.0
224.100266 284.0
224.481628 56.0
224.705322 176.0
225.055252 368.0
225.099716 148.0
225.574341 276.0
226.065506 152.0
226.094772 200.0
226.142654 188.0
227.041428 96.0
227.062424 152.0
227.344421 172.0
228.182449 152.0
228.525314 120.0
229.419769 176.0
229.893295 48.0
230.050049 2244.0
230.18309 84.0
231.051727 192.0
231.089859 72.0
231.371323 52.0
231.450043 188.0
231.586304 72.0
231.828674 132.0
231.858978 76.0
232.046173 1880.0
232.095428 168.0
233.042679 544.0
233.062149 136.0
233.127487 124.0
234.061172 168.0
234.344604 140.0
235.268677 124.0
235.754318 188.0
235.861282 132.0
236.681168 112.0
236.920059 68.0
237.444199 196.0
237.662003 108.0
237.959717 152.0
238.061035 308.0
238.567993 108.0
238.850891 112.0
239.073547 436.0
239.121643 152.0
239.990341 168.0
240.021164 164.0
240.055084 196.0
240.076401 148.0
241.057205 132.0
241.076859 212.0
241.596298 184.0
241.890274 152.0
242.049652 1060.0
242.131775 64.0
242.172043 72.0
242.810486 56.0
242.884933 228.0
243.054916 644.0
243.102097 152.0
243.437363 136.0
243.645462 104.0
243.69516 40.0
243.940674 128.0
244.064529 2452.0
244.183197 104.0
244.229858 172.0
244.288956 44.0
244.388504 168.0
244.631256 96.0
244.864777 68.0
244.96756 132.0
245.058777 1056.0
245.166962 108.0
245.360214 144.0
245.406982 116.0
245.428802 140.0
245.771469 396.0
245.828674 184.0
245.909348 156.0
245.946671 156.0
246.0448 28164.0
246.188629 72.0
246.212051 92.0
246.246399 60.0
246.290131 120.0
246.334579 72.0
246.372665 132.0
246.398483 64.0
246.452576 64.0
246.511948 52.0
246.533813 76.0
246.613556 156.0
246.646332 40.0
246.777618 60.0
246.802643 76.0
246.843292 124.0
246.908951 48.0
247.004379 188.0
247.047318 2856.0
247.106018 88.0
247.309418 48.0
247.343857 56.0
247.41272 56.0
247.597458 64.0
247.641296 56.0
247.757202 28.0
247.797928 136.0
247.829254 56.0
247.854324 224.0
248.001617 56.0
248.041534 12800.0
248.082901 176.0
248.109558 64.0
248.142685 44.0
248.207428 60.0
248.246155 28.0
248.28064 84.0
248.387283 100.0
248.439224 116.0
248.46257 44.0
248.683517 68.0
248.755493 140.0
248.794128 80.0
248.820343 164.0
248.864288 212.0
248.939697 168.0
249.04451 908.0
249.218475 68.0
249.363754 76.0
249.42662 64.0
249.486343 68.0
249.580658 96.0
249.719025 96.0
249.803955 96.0
249.888901 108.0
249.945526 92.0
250.026108 184.0
250.053619 92.0
250.191025 52.0
250.424561 96.0
250.707581 84.0
250.798965 156.0
250.849396 52.0
251.666489 80.0
251.764374 132.0
251.947571 120.0
252.07489 292.0
252.18457 44.0
252.573471 128.0
253.084167 180.0
253.326828 36.0
254.081848 192.0
254.173325 96.0
254.582825 116.0
254.801987 76.0
254.878235 96.0
255.056198 68.0
256.552307 248.0
256.861633 28.0
257.809845 56.0
258.369415 48.0
259.07486 1236.0
259.147369 48.0
260.035522 168.0
260.066162 264.0
260.310852 132.0
260.980042 100.0
261.071381 508.0
261.224457 104.0
262.026062 160.0
262.058594 148.0
262.093719 56.0
262.493408 132.0
262.609497 92.0
263.087067 148.0
263.17746 84.0
264.111389 92.0
264.486725 152.0
264.723053 72.0
265.422974 112.0
266.055634 100.0
269.096375 160.0
269.259644 128.0
270.044525 1344.0
270.112732 120.0
271.043457 144.0
272.039978 256.0
272.154419 152.0
272.568268 132.0
272.791748 188.0
273.051514 120.0
275.804535 64.0
279.818451 20.0
280.478027 40.0
286.981689 72.0
287.352692 100.0
288.053589 3208.0
288.126617 168.0
288.277863 52.0
288.683502 84.0
289.054565 448.0
289.177429 40.0
289.350067 92.0
290.053833 2664.0
290.129242 136.0
290.230957 56.0
290.424255 72.0
290.600647 80.0
290.712616 48.0
291.050751 380.0
291.123383 80.0
292.360779 88.0
292.656921 68.0
292.81015 92.0
293.570129 52.0
293.911224 48.0
294.197906 68.0
294.320831 116.0
299.833435 88.0
301.856354 48.0
303.296539 48.0
304.302551 124.0
305.080872 124.0
306.62619 84.0
307.075409 372.0
308.053253 152.0
316.139984 60.0
323.239227 128.0
325.964417 36.0
326.88858 40.0
330.971039 96.0
332.181488 168.0
338.647705 92.0
348.10733 104.0
358.895264 52.0
369.541687 104.0
371.06601 100.0
373.881531 76.0
377.56189 60.0
380.200104 88.0
384.633148 52.0
401.975525 112.0
409.951508 112.0
426.804382 108.0
427.565399 136.0
427.660065 72.0
429.431702 92.0
434.577759 84.0
439.729401 44.0
453.546326 152.0
453.749786 32.0
470.983032 112.0
486.660858 84.0
492.389801 64.0
502.24295 72.0
514.006042 100.0
514.281372 112.0
527.046997 48.0
538.716553 76.0
548.092896 72.0
557.40918 68.0
558.970337 88.0
562.283203 92.0
589.046692 88.0
597.467041 72.0
609.80896 100.0
615.819763 72.0
628.70813 108.0
632.992188 72.0
634.359924 64.0
651.512817 116.0
651.959961 92.0
652.681763 32.0
658.603516 72.0
659.0224 112.0
672.585144 52.0
682.781555 44.0
692.378906 44.0
693.363831 76.0
697.752014 136.0
701.858704 108.0
722.444641 164.0
724.012878 80.0
732.493591 96.0
739.99469 64.0
754.816162 88.0
766.645813 208.0
769.939209 188.0
775.588074 52.0
781.992065 224.0
785.323853 232.0
800.089172 68.0
816.475708 84.0
839.134216 276.0
849.42218 152.0
852.301697 64.0
854.935852 80.0
878.548889 200.0
880.762512 136.0
906.541931 44.0
907.788818 168.0
914.421143 84.0
914.463257 28.0
920.944702 244.0
921.168152 168.0
945.170898 144.0
947.270813 152.0
947.834473 152.0
951.287354 172.0
957.429626 136.0
959.894592 156.0
970.040161 224.0
970.84613 184.0
973.502136 128.0
976.18042 168.0
976.777466 192.0
984.424683 164.0
984.936768 140.0
986.561462 144.0
993.086121 184.0
997.368225 196.0
999.059753 196.0
999.424683 172.0
1001.029785 152.0
1011.016418 164.0
1015.32428 132.0
1015.603394 112.0
1019.895569 144.0
1021.809631 240.0
1028.558105 52.0
1031.272705 176.0
1032.097412 196.0
1037.699707 164.0
1039.418701 192.0
1041.132568 180.0
1046.076904 164.0
1046.939697 192.0
1049.207764 188.0
1050.994263 124.0
1052.407715 132.0
1059.748779 176.0
1065.562012 160.0
1068.194824 100.0
1068.728271 216.0
1078.327271 96.0
1078.732544 292.0
1078.974365 164.0
1080.439331 156.0
1081.977295 92.0
1082.219482 104.0
1095.834839 200.0
1100.425171 196.0
1105.713379 148.0
1108.044189 156.0
1109.097778 260.0
1116.986084 48.0
1120.667603 208.0
1120.927368 132.0
1121.307251 220.0
1123.927979 184.0
1125.903931 180.0
1127.273315 228.0
1129.10498 140.0
1130.556763 184.0
1137.688232 80.0
1140.603638 32.0
1141.747314 176.0
1142.291382 180.0
1146.991455 84.0
1153.093018 264.0
1157.645874 124.0
1162.709839 212.0
1164.896118 136.0
1165.962891 176.0
1166.248291 132.0
1166.928101 232.0
1168.519653 196.0
1170.690918 188.0
1176.186035 152.0
1180.667969 144.0
1181.700806 72.0
1186.39209 28.0
1192.398071 144.0
1192.494263 60.0
1192.755493 44.0
1193.092285 76.0
1193.298584 80.0
1194.137451 116.0
1200.887085 144.0
1201.569946 192.0
1204.434814 164.0
1206.010132 136.0
1206.535522 128.0
1207.676392 112.0
1209.399292 152.0
1210.922485 108.0
1213.001099 128.0
1214.03418 40.0
1215.588013 152.0
1220.568481 148.0
1224.124268 200.0
1230.008423 160.0
1235.941772 192.0
1237.152588 76.0
1238.546021 184.0
1238.959351 48.0
1239.800049 180.0
1244.513916 140.0
1247.900391 172.0
1251.918213 132.0
1253.305908 128.0
1254.00354 140.0
1256.549194 164.0
1258.828979 40.0
1261.492554 148.0
1264.413696 140.0
1266.52356 68.0
1267.536621 52.0
1267.947632 164.0
1268.486328 216.0
1270.16687 160.0
1272.600952 224.0
1275.421265 160.0
1275.705566 140.0
1276.558838 176.0
1278.408325 88.0
1281.498657 176.0
1282.966797 108.0
1284.428589 220.0
1284.942139 192.0
1285.727051 164.0
1286.091064 196.0
1287.547607 128.0
1287.868896 172.0
1289.133423 132.0
1289.405029 140.0
1290.970581 144.0
1293.245728 208.0
1294.276489 156.0
1295.221924 148.0
1296.626221 56.0
1297.163696 108.0
1297.385986 128.0
1299.666626 156.0
1302.567017 136.0
1302.940552 244.0
1305.182983 208.0
1308.168701 216.0
1309.061401 64.0
1316.777832 100.0
1317.008911 168.0
1317.753052 276.0
1317.969727 180.0
1319.024902 152.0
1319.646606 92.0
1323.633301 44.0
1325.676147 184.0
1326.560303 88.0
1327.974243 144.0
1328.365967 192.0
1330.920532 152.0
1332.932495 208.0
1335.878052 200.0
1336.648193 148.0
1338.358765 164.0
1339.298218 96.0
1339.691528 112.0
1339.808105 128.0
1340.128662 224.0
1341.965332 180.0
1342.862305 120.0
1342.964355 196.0
1346.584473 168.0
1347.241821 140.0
1348.1698 132.0
1348.907959 152.0
1349.565918 140.0
1351.818848 152.0
1354.073608 112.0
1355.421509 136.0
1357.994629 144.0
1359.485229 116.0
1359.601318 160.0
1360.827148 136.0
1361.708374 180.0
1365.066772 240.0
1365.566895 160.0
1365.86853 180.0
1366.949951 252.0
1367.442993 152.0
1367.943481 208.0
1368.208496 100.0
1369.232056 172.0
1370.012817 196.0
1372.754639 108.0
1377.7948 216.0
1378.298096 176.0
1378.970581 156.0
1379.820679 240.0
1381.617798 156.0
1383.638184 152.0
1384.511841 180.0
1385.756226 200.0
1386.778931 140.0
1389.81189 180.0
1391.311157 92.0
1391.674927 80.0
1395.346191 148.0
1398.082397 152.0
1398.491699 220.0
1399.787109 208.0
1400.680786 148.0
1402.439331 112.0
1407.228394 192.0
1409.394409 92.0
1410.298706 156.0
1411.771484 136.0
1411.85376 188.0
1411.99585 180.0
1413.185181 84.0
1413.753906 212.0
1414.809326 100.0
1415.752686 112.0
1415.979248 140.0
1416.561646 144.0
1417.850342 44.0
1418.105103 160.0
1418.577393 148.0
1419.064575 132.0
1422.63562 156.0
1427.399048 152.0
1428.542236 128.0
1428.955933 212.0
1430.385742 196.0
1431.733521 212.0
1432.524292 160.0
1436.964722 152.0
1438.319214 288.0
1438.572144 148.0
1439.349731 236.0
1439.802856 132.0
1442.061768 96.0
1445.078979 176.0
1445.669189 216.0
1448.137207 140.0
1448.235718 204.0
1450.152588 80.0
1450.383179 188.0
1450.690674 80.0
1451.373047 88.0
1451.501953 64.0
1453.838379 152.0
1455.781738 160.0
1459.794067 28.0
1460.9729 132.0
1461.315308 164.0
1461.703369 160.0
1463.179932 164.0
1467.217651 184.0
1467.278564 64.0
1468.063965 144.0
1468.186035 52.0
1469.200439 188.0
1470.673218 160.0
1470.795288 104.0
1473.08606 188.0
1473.322876 188.0
1475.615601 172.0
1476.3573 128.0
1476.877319 144.0
1477.78772 156.0
1478.001953 48.0
1480.497314 172.0
1482.657715 160.0
1483.907104 188.0
1486.24646 160.0
1487.911987 152.0
1488.004028 48.0
1488.364868 196.0
1488.756592 120.0
1489.440063 180.0
1491.153442 172.0
1492.760132 80.0
1492.829346 108.0
1493.306152 112.0
1494.121582 208.0
1494.752441 132.0
1495.737549 204.0
1496.838501 116.0
1497.169556 132.0
1497.70874 144.0
1498.317261 152.0
1500.166748 132.0
1501.469849 160.0
1501.832397 124.0
1502.619141 196.0
1502.750366 156.0
1503.421631 176.0
1503.969604 192.0
1504.239746 216.0
1504.533081 112.0
1504.733887 132.0
