>compound MLS000069353-01!Thalidomide50-35-1
>formula C13H10N2O4
>ionization [M+H]+
>parentmass 259.07133325209054
#inchi InChI=1S/C13H10N2O4/c16-10-6-5-9(11(17)14-10)15-12(18)7-3-1-2-4-8(7)13(15)19/h1-4,9H,5-6H2,(H,14,16,17)
#inchikey UEJJHQNACJXSKW
#Ion_Source LC-ESI
#Instrument qTof
#Compound_Source NIH Pharmacologically Active Library
#PI Dorrestein
#Data_Collector VP/LMS
#Scan -1
#Precursor_MZ 259.074
#ExactMass 258.064
#Charge 1
#CAS_Number N/A
#Pubmed_ID N/A
#Smiles O=C1N(C2CCC(=O)NC2=O)C(=O)c3ccccc13
#INCHI_AUX N/A
#Library_Class 1
#SpectrumID CCMSLIB00000085656
#IonMode Positive
#UpdateWorkflowName UPDATE-SINGLE-ANNOTATED-GOLD
#LibraryQualityString Gold
#TaskID d252d724072548979f1f6f1ced849daf
##Scan# 1464
#SpectrumFile p4-D10_GD10_01_18370.mzXML
#LibraryName Pharm_Active_Library.mgf
#MQScore -1
#Organism Pharm_Active_Library
#TIC_Query 0
#RT_Query -1
#MZErrorPPM -1
#SharedPeaks 0
#MassDiff 0
#LibMZ -1
#SpecMZ 259.074
#SpecCharge 0
#internalFilename spec-00000.mgf

>collision 10
45.106209 104.0
45.565872 92.0
45.637108 56.0
46.580444 176.0
46.878407 204.0
46.983398 72.0
47.084408 112.0
47.177322 180.0
47.662506 196.0
48.978218 204.0
49.315887 104.0
51.333443 148.0
51.493282 80.0
51.550426 188.0
54.387901 156.0
56.547554 128.0
57.566864 108.0
57.933292 188.0
59.279812 28.0
59.511433 84.0
59.678909 180.0
60.029991 148.0
61.43993 180.0
65.061264 216.0
65.622757 168.0
66.873367 60.0
68.249191 188.0
68.50811 176.0
68.703766 156.0
69.521149 188.0
70.654205 224.0
70.773041 152.0
70.845055 208.0
71.235924 72.0
71.323303 204.0
72.857719 164.0
73.930229 164.0
74.278038 80.0
74.430786 160.0
74.991615 144.0
75.397202 124.0
75.668777 184.0
77.539658 188.0
78.282791 168.0
80.730026 160.0
81.838982 128.0
82.172417 128.0
82.459541 96.0
86.051079 64.0
86.405937 208.0
86.429985 72.0
86.889488 136.0
86.971138 184.0
87.99688 192.0
89.137589 132.0
89.427208 180.0
90.009743 144.0
90.342384 32.0
90.96965 168.0
91.053261 116.0
91.873589 236.0
92.150421 196.0
92.441063 132.0
94.041977 244.0
94.165543 116.0
96.99276 136.0
99.80014 128.0
99.861786 228.0
100.89872 72.0
101.615715 140.0
103.052551 372.0
103.840752 180.0
103.978714 172.0
104.025482 460.0
104.562004 76.0
104.957214 188.0
105.02655 100.0
105.6455 132.0
105.84198 68.0
106.028397 112.0
106.050941 176.0
106.921776 64.0
107.107079 144.0
109.291229 192.0
109.89756 168.0
110.524399 212.0
112.440933 76.0
113.668358 196.0
114.161194 120.0
114.57412 180.0
115.054749 328.0
115.548088 216.0
116.505966 188.0
117.123352 124.0
117.740204 196.0
117.755318 64.0
118.341354 76.0
119.768143 64.0
119.857468 136.0
120.330772 172.0
121.067665 152.0
123.276375 220.0
126.9608 208.0
127.236794 72.0
127.367043 168.0
128.019272 180.0
128.138657 104.0
129.233688 76.0
130.028687 3552.0
130.064072 948.0
130.10173 48.0
130.378845 68.0
131.033005 580.0
131.044952 476.0
131.050156 432.0
131.102539 176.0
132.052277 196.0
132.331451 164.0
132.379547 40.0
133.025742 612.0
133.253464 160.0
133.648941 72.0
133.975876 172.0
134.940567 320.0
135.058502 112.0
136.041016 152.0
136.194275 48.0
138.323196 116.0
140.049057 292.0
140.143295 68.0
140.586609 160.0
142.063049 180.0
142.5569 64.0
143.04924 156.0
144.043411 700.0
145.050964 128.0
145.089401 52.0
146.064377 196.0
147.04277 164.0
147.079086 184.0
147.141586 68.0
148.039948 636.0
148.545212 124.0
149.042908 212.0
150.799973 176.0
151.051819 200.0
152.700119 120.0
153.074188 168.0
153.261398 28.0
154.201614 108.0
154.847366 208.0
157.029541 140.0
157.503784 96.0
158.02272 252.0
158.060089 908.0
158.153885 44.0
158.782776 36.0
159.042465 840.0
159.07634 120.0
159.76239 216.0
160.038986 716.0
160.071976 132.0
161.199554 100.0
161.32341 92.0
161.348694 136.0
161.783829 152.0
162.001617 84.0
166.05455 188.0
167.076904 180.0
168.045624 188.0
169.084412 156.0
170.056335 156.0
170.074814 168.0
171.078918 396.0
172.037231 136.0
172.084702 176.0
172.35849 124.0
173.097275 352.0
174.05249 480.0
175.04985 136.0
179.203232 104.0
181.547516 220.0
183.092789 116.0
183.540131 144.0
184.117752 256.0
184.485077 144.0
184.549973 100.0
185.020737 156.0
185.114075 188.0
185.215714 180.0
185.581573 256.0
185.97493 96.0
186.054077 6732.0
186.121521 96.0
186.270889 56.0
186.308929 216.0
186.327942 76.0
186.648666 56.0
186.722092 48.0
186.830902 56.0
186.898911 32.0
187.057693 860.0
187.446228 48.0
187.557968 72.0
188.057938 244.0
189.596909 148.0
190.994415 128.0
195.109299 212.0
197.448776 108.0
197.910507 76.0
198.112152 152.0
198.148575 112.0
198.905746 68.0
199.110718 108.0
199.431015 28.0
199.729065 76.0
202.016769 120.0
204.001846 168.0
208.055664 260.0
212.912476 108.0
213.124374 464.0
215.129684 316.0
231.072083 212.0
236.075821 164.0
240.012558 136.0
257.175446 184.0
261.193542 84.0
283.119324 156.0
294.084106 124.0
305.142426 100.0
332.889038 52.0
338.14975 52.0
437.839478 68.0
526.833313 84.0
570.346619 156.0
674.160583 160.0
721.243042 56.0
982.411865 60.0
999.164062 172.0
1020.204956 180.0
1055.663208 220.0
1091.970581 148.0
1133.986572 188.0
1154.040771 200.0
1157.491699 132.0
1180.499268 176.0
1199.979614 80.0
1201.938477 144.0
1208.634155 64.0
1223.41748 132.0
1231.198975 64.0
1239.271484 232.0
1240.378784 56.0
1252.112671 124.0
1272.463867 152.0
1278.989868 128.0
1279.587769 92.0
1293.294067 68.0
1313.160767 228.0
1344.007202 96.0
1353.341187 172.0
1363.949463 172.0
1364.434692 124.0
1367.178345 168.0
1393.086914 168.0
1409.029785 156.0
1414.863281 228.0
1428.950439 232.0
1439.925903 168.0
1444.612305 196.0
1469.317993 160.0
1491.372437 156.0
1491.618408 208.0
