>compound MLS001148632-01!2438-72-4
>formula C12H17NO3
>ionization [M+H]+
>parentmass 224.1281198560905
#inchi InChI=1S/C12H17NO3/c1-2-3-8-16-11-6-4-10(5-7-11)9-12(14)13-15/h4-7,15H,2-3,8-9H2,1H3,(H,13,14)
#inchikey MXJWRABVEGLYDG
#Ion_Source LC-ESI
#Instrument qTof
#Compound_Source NIH Pharmacologically Active Library
#PI Dorrestein
#Data_Collector VP/LMS
#Scan -1
#Precursor_MZ 224.124
#ExactMass 223.121
#Charge 1
#CAS_Number N/A
#Pubmed_ID N/A
#Smiles CCCCOc1ccc(CC(=O)NO)cc1
#INCHI_AUX N/A
#Library_Class 1
#SpectrumID CCMSLIB00000085307
#IonMode Positive
#UpdateWorkflowName UPDATE-SINGLE-ANNOTATED-GOLD
#LibraryQualityString Gold
#TaskID d252d724072548979f1f6f1ced849daf
##Scan# 1763
#SpectrumFile p3-H03_GH3_01_18308.mzXML
#LibraryName Pharm_Active_Library.mgf
#MQScore -1
#Organism Pharm_Active_Library
#TIC_Query 0
#RT_Query -1
#MZErrorPPM -1
#SharedPeaks 0
#MassDiff 0
#LibMZ -1
#SpecMZ 224.124
#SpecCharge 0
#internalFilename spec-00000.mgf

>collision 10
47.143757 152.0
50.449703 156.0
52.618629 184.0
55.60231 112.0
57.646709 192.0
58.178375 120.0
59.172451 64.0
59.214561 20.0
62.729057 180.0
62.747974 164.0
64.320198 244.0
65.608429 72.0
66.002403 196.0
66.400795 40.0
67.072945 240.0
67.108215 224.0
67.444527 64.0
68.826248 228.0
69.702553 192.0
70.382202 168.0
72.673203 172.0
74.484657 152.0
75.492973 160.0
76.267998 208.0
76.724098 160.0
79.138298 188.0
79.512344 36.0
80.027885 176.0
84.091652 100.0
84.709709 168.0
85.971077 228.0
88.390732 108.0
90.468719 144.0
90.597504 188.0
91.564384 180.0
92.448334 152.0
92.51342 160.0
93.2827 176.0
93.324997 136.0
94.062897 188.0
95.047882 192.0
98.659996 152.0
98.958748 140.0
100.16227 200.0
101.132729 88.0
101.52343 80.0
101.601662 96.0
101.95105 188.0
102.224556 40.0
104.049255 192.0
106.994019 224.0
107.049103 8328.0
107.080505 176.0
107.102043 184.0
107.255646 60.0
107.278328 68.0
107.30925 92.0
107.418556 44.0
107.536171 40.0
107.620819 92.0
108.052513 692.0
108.913139 160.0
109.060669 172.0
109.249908 128.0
110.872368 76.0
112.889244 68.0
118.073669 92.0
120.567429 68.0
121.770264 64.0
122.057655 756.0
133.051361 180.0
138.957443 152.0
140.977829 120.0
144.954514 84.0
148.950058 188.0
149.049683 204.0
150.057388 176.0
154.441101 228.0
163.105347 172.0
166.956085 196.0
174.978607 216.0
177.062607 112.0
195.088104 192.0
196.11528 200.0
203.051971 180.0
209.112137 192.0
225.10762 136.0
247.011383 180.0
267.029022 128.0
278.799835 136.0
895.706055 76.0
943.744324 156.0
996.012634 168.0
1050.463623 160.0
1075.055298 144.0
1076.86377 204.0
1096.330078 20.0
1105.384033 260.0
1119.657471 144.0
1126.080322 136.0
1146.220459 204.0
1200.163452 160.0
1201.536011 196.0
1202.253662 172.0
1211.893433 160.0
1217.616577 140.0
1265.274536 236.0
1279.338745 184.0
1293.953247 156.0
1294.219727 92.0
1300.11792 68.0
1307.73645 204.0
1308.974731 28.0
1330.355225 228.0
1351.177246 176.0
1351.696777 136.0
1354.237183 236.0
1371.19519 120.0
1390.996582 160.0
1400.954224 136.0
1405.032349 140.0
1415.040039 92.0
1417.609253 140.0
1419.715942 160.0
1421.553955 220.0
1440.309082 44.0
1443.377563 160.0
1454.036621 132.0
1465.847412 220.0
1476.252563 236.0
1487.807495 156.0
1499.669556 36.0
