>compound MLS000862184-01!SB 204741
>formula C14H14N4OS
>ionization [M+H]+
>parentmass 287.0961085200905
#inchi InChI=1S/C14H14N4OS/c1-9-7-13(20-17-9)16-14(19)15-11-3-4-12-10(8-11)5-6-18(12)2/h3-8H,1-2H3,(H2,15,16,19)
#inchikey USFUFHFQWXDVMH
#Ion_Source LC-ESI
#Instrument qTof
#Compound_Source NIH Pharmacologically Active Library
#PI Dorrestein
#Data_Collector VP/LMS
#Scan -1
#Precursor_MZ 287.1
#ExactMass 286.089
#Charge 1
#CAS_Number N/A
#Pubmed_ID N/A
#Smiles Cc1cc(NC(=O)Nc2ccc3n(C)ccc3c2)sn1
#INCHI_AUX N/A
#Library_Class 1
#SpectrumID CCMSLIB00000085819
#IonMode Positive
#UpdateWorkflowName UPDATE-SINGLE-ANNOTATED-GOLD
#LibraryQualityString Gold
#TaskID d252d724072548979f1f6f1ced849daf
##Scan# 1683
#SpectrumFile p4-F10_GF10_01_18394.mzXML
#LibraryName Pharm_Active_Library.mgf
#MQScore -1
#Organism Pharm_Active_Library
#TIC_Query 0
#RT_Query -1
#MZErrorPPM -1
#SharedPeaks 0
#MassDiff 0
#LibMZ -1
#SpecMZ 287.1
#SpecCharge 0
#internalFilename spec-00000.mgf

>collision 10
44.974129 172.0
45.082031 156.0
45.170277 196.0
45.265305 80.0
45.440903 152.0
45.452976 144.0
45.530842 36.0
45.638348 168.0
45.647762 100.0
45.666588 80.0
45.755405 184.0
45.767525 168.0
45.795048 128.0
45.8214 128.0
45.859135 200.0
45.913063 172.0
45.965679 136.0
46.075047 140.0
46.184547 144.0
46.21431 184.0
46.241375 192.0
46.341587 52.0
46.379536 116.0
46.399868 172.0
46.419899 136.0
46.60754 60.0
46.739441 208.0
46.773464 200.0
46.921959 144.0
46.986061 144.0
47.007893 184.0
47.027 120.0
47.037918 152.0
47.070686 124.0
47.126694 180.0
47.225124 60.0
47.253849 116.0
47.300381 72.0
47.364742 172.0
47.394882 152.0
47.470276 192.0
47.497707 144.0
47.625366 172.0
47.691189 164.0
47.720406 180.0
47.79034 148.0
47.915634 108.0
47.956978 164.0
48.137711 92.0
48.180531 100.0
48.295269 76.0
48.335392 208.0
48.354767 120.0
48.410145 192.0
48.426765 236.0
48.511292 200.0
48.522385 48.0
48.572308 72.0
48.588955 144.0
48.6889 192.0
48.81815 140.0
48.844578 120.0
48.997711 156.0
49.029762 44.0
49.173416 172.0
49.185982 172.0
49.22847 132.0
49.469757 216.0
49.480957 212.0
49.514568 164.0
49.528572 112.0
49.53978 264.0
49.595833 112.0
49.622471 36.0
49.654724 160.0
49.677166 124.0
49.716454 144.0
49.938442 132.0
50.025684 108.0
50.04258 120.0
50.337288 156.0
50.385311 160.0
50.396618 228.0
50.436188 172.0
50.492744 120.0
50.528111 148.0
50.644192 108.0
50.717873 160.0
50.727798 124.0
50.778843 156.0
50.795864 104.0
50.97192 172.0
51.220905 216.0
51.279327 216.0
51.36985 132.0
51.426239 144.0
51.440647 168.0
51.46764 196.0
51.516201 200.0
51.670605 168.0
51.706379 140.0
51.865368 184.0
51.886871 132.0
51.912682 100.0
51.932758 140.0
52.01387 236.0
52.11652 136.0
52.189827 136.0
52.206196 136.0
52.321991 168.0
52.384125 176.0
52.407177 224.0
52.417263 108.0
52.454739 112.0
52.464828 216.0
52.529724 140.0
52.713093 204.0
52.740368 156.0
52.885197 188.0
52.995262 160.0
53.014099 68.0
53.066284 140.0
53.140255 80.0
53.164074 136.0
53.26511 180.0
53.307247 184.0
53.318871 60.0
53.401745 148.0
53.420658 212.0
53.50111 156.0
53.537102 260.0
53.604115 112.0
53.646381 140.0
53.666794 128.0
53.748478 196.0
53.773254 168.0
53.912037 212.0
53.936882 148.0
53.967587 128.0
53.979282 108.0
54.018642 176.0
54.046574 208.0
54.200325 140.0
54.25309 200.0
54.26997 156.0
54.649643 176.0
54.712933 180.0
54.852886 144.0
54.920719 128.0
54.960552 168.0
54.987114 232.0
55.024017 240.0
55.143677 216.0
55.190983 68.0
55.210205 140.0
55.223518 164.0
55.367085 192.0
55.622967 188.0
55.740932 132.0
55.831615 148.0
55.846489 156.0
55.927567 196.0
56.005756 104.0
56.080257 136.0
56.090694 40.0
56.341324 144.0
56.368301 172.0
56.402676 224.0
56.443043 240.0
56.48941 164.0
56.538788 196.0
56.685551 136.0
56.769066 180.0
56.808498 96.0
56.871525 188.0
56.976643 256.0
57.039761 152.0
57.065319 144.0
57.125477 148.0
57.233841 168.0
57.314064 172.0
57.35437 164.0
57.375713 176.0
57.567104 156.0
57.603355 172.0
57.715195 172.0
57.760567 148.0
57.778721 164.0
57.808987 160.0
57.837742 48.0
58.034691 84.0
58.046822 152.0
58.187939 144.0
58.365711 240.0
58.586407 68.0
58.665657 136.0
58.719025 336.0
58.787678 160.0
58.917469 180.0
59.220356 148.0
59.275509 132.0
59.382828 124.0
59.44688 80.0
59.493313 148.0
59.543983 188.0
59.617729 176.0
59.682293 108.0
59.773048 204.0
59.794594 104.0
59.80537 108.0
59.848476 224.0
60.013348 164.0
60.058071 196.0
60.498486 160.0
60.605354 188.0
60.659599 112.0
60.864395 128.0
60.886173 172.0
60.926525 152.0
61.133331 100.0
61.152199 160.0
61.212723 92.0
61.254776 132.0
61.38258 172.0
61.4715 76.0
61.4925 272.0
61.616714 136.0
61.723003 32.0
61.780872 240.0
61.915489 160.0
61.993824 200.0
62.065933 188.0
62.127102 144.0
62.147499 124.0
62.200859 136.0
62.214989 88.0
62.227547 156.0
62.307648 204.0
62.398083 196.0
62.527798 164.0
62.583267 204.0
62.639595 152.0
62.675831 140.0
62.719959 132.0
63.026855 172.0
63.13205 164.0
63.144703 284.0
63.2523 224.0
63.288712 164.0
63.307716 96.0
63.374249 164.0
63.396431 160.0
63.497898 136.0
63.575638 108.0
63.607147 216.0
63.682014 112.0
63.901394 144.0
63.915714 132.0
63.99371 120.0
64.020782 160.0
64.036705 148.0
64.084496 148.0
64.148247 80.0
64.314148 148.0
64.37162 228.0
64.484787 192.0
64.567467 236.0
64.625786 204.0
64.800629 220.0
64.901581 156.0
64.95742 200.0
65.053711 148.0
65.072975 200.0
65.093849 180.0
65.310822 164.0
65.407372 104.0
65.584557 260.0
65.644211 164.0
65.679695 180.0
65.789429 156.0
65.833916 148.0
65.854019 148.0
65.916016 196.0
66.112709 160.0
66.1726 152.0
66.232521 116.0
66.250343 88.0
66.425583 160.0
66.563377 164.0
66.615356 76.0
66.629974 168.0
66.70636 212.0
66.740501 172.0
66.898323 136.0
66.987885 92.0
67.165573 164.0
67.237366 80.0
67.332062 148.0
67.45134 160.0
67.516739 160.0
67.552727 60.0
67.696762 228.0
67.747536 112.0
67.806526 148.0
67.913101 240.0
67.932785 64.0
67.978729 176.0
68.072304 180.0
68.172508 172.0
68.348465 132.0
68.470291 84.0
68.504883 172.0
68.526299 252.0
68.569145 164.0
68.654877 156.0
68.720856 196.0
68.758812 168.0
68.817909 160.0
68.889259 76.0
68.928917 156.0
68.950401 164.0
69.079376 156.0
69.152184 132.0
69.163765 220.0
69.19191 164.0
69.231651 148.0
69.282997 148.0
69.3526 156.0
69.374153 256.0
69.400681 188.0
69.549294 172.0
69.875381 140.0
70.005547 140.0
70.103836 256.0
70.207199 268.0
70.250496 188.0
70.26725 204.0
70.278931 148.0
70.397453 116.0
70.497688 112.0
70.544487 84.0
70.559532 220.0
70.6465 52.0
70.753609 176.0
70.7799 176.0
70.83902 100.0
70.852417 148.0
70.937889 184.0
70.983162 100.0
71.246681 176.0
71.450111 152.0
71.471985 116.0
71.567223 204.0
71.589821 188.0
71.62014 72.0
71.665627 180.0
71.709442 124.0
71.805542 148.0
71.87471 156.0
71.927032 160.0
71.977684 176.0
72.084106 176.0
72.158478 128.0
72.180458 176.0
72.342888 104.0
72.62249 156.0
72.634361 96.0
72.659813 216.0
72.785416 164.0
72.858452 188.0
72.87204 176.0
73.023338 112.0
73.043755 188.0
73.166283 392.0
73.208847 144.0
73.411652 108.0
73.430412 212.0
73.450874 140.0
73.671097 152.0
73.753983 176.0
73.818085 124.0
73.874535 40.0
73.907036 212.0
74.021729 208.0
74.044739 160.0
74.107376 148.0
74.184502 164.0
74.249657 232.0
74.354317 196.0
74.407532 132.0
74.436722 64.0
74.668724 64.0
74.706566 128.0
74.740913 104.0
74.811546 136.0
74.91832 164.0
75.157982 184.0
75.244278 164.0
75.448151 112.0
75.683456 132.0
75.749268 180.0
75.929535 200.0
75.983315 188.0
76.179489 160.0
76.19339 156.0
76.219452 204.0
76.26638 184.0
76.309837 184.0
76.424637 76.0
76.492516 132.0
76.549973 140.0
76.610931 136.0
76.682373 204.0
76.69632 208.0
76.711746 160.0
76.928329 136.0
76.950798 132.0
76.991188 200.0
77.07679 124.0
77.127472 180.0
77.199158 108.0
77.220146 144.0
77.351379 160.0
77.424919 136.0
77.510757 156.0
77.640488 204.0
77.763298 248.0
77.865135 136.0
77.91256 144.0
77.949463 120.0
77.968788 128.0
78.067245 168.0
78.084831 176.0
78.109459 160.0
78.220314 128.0
78.269615 368.0
78.30484 176.0
78.341827 44.0
78.37178 212.0
78.491646 240.0
78.726349 136.0
78.746979 176.0
78.782875 76.0
78.848251 188.0
78.899811 216.0
78.913658 116.0
78.968483 136.0
79.00209 116.0
79.079948 184.0
79.271225 56.0
79.288948 216.0
79.375816 148.0
79.487572 128.0
79.517738 144.0
79.599403 80.0
79.746864 64.0
79.76091 200.0
79.898018 224.0
79.928268 196.0
79.956741 144.0
79.99234 224.0
80.035065 132.0
80.127686 128.0
80.286339 176.0
80.496918 140.0
80.514778 120.0
80.743546 148.0
80.790054 184.0
80.850891 236.0
80.88311 128.0
80.988754 256.0
81.004875 188.0
81.08551 140.0
81.144669 160.0
81.23613 208.0
81.365349 72.0
81.424606 200.0
81.534203 208.0
81.768677 168.0
81.897644 148.0
81.946289 128.0
82.012962 192.0
82.0382 332.0
82.132637 236.0
82.321487 100.0
82.485901 164.0
82.547379 280.0
82.636009 68.0
82.721069 136.0
82.835159 216.0
82.894951 220.0
83.117996 168.0
83.130699 156.0
83.283203 176.0
83.42495 180.0
83.457672 176.0
83.655991 52.0
83.710609 204.0
83.74704 72.0
83.79258 104.0
83.832664 140.0
83.850891 144.0
83.969398 104.0
84.022301 104.0
84.142761 120.0
84.263306 252.0
84.358337 180.0
84.495499 180.0
84.576019 148.0
84.616295 180.0
84.649254 204.0
84.687714 104.0
84.806816 208.0
84.852646 160.0
84.911324 64.0
84.935173 100.0
84.960854 76.0
84.977364 188.0
85.06546 136.0
85.171967 152.0
85.230759 148.0
85.296921 116.0
85.315964 156.0
85.361275 72.0
85.398056 184.0
85.486366 204.0
85.520477 220.0
85.986183 216.0
86.013496 144.0
86.189934 128.0
86.379379 152.0
86.436737 176.0
86.466347 244.0
86.570023 188.0
86.731216 144.0
86.796104 220.0
86.81279 180.0
86.888847 156.0
86.96122 136.0
87.005768 200.0
87.080048 176.0
87.132057 352.0
87.185951 132.0
87.258446 132.0
87.281242 244.0
87.368172 160.0
87.383057 184.0
87.448341 196.0
87.465805 220.0
87.489143 76.0
87.51149 180.0
87.550545 152.0
87.578529 148.0
87.699646 36.0
87.764893 180.0
87.8992 196.0
87.938393 256.0
87.970123 128.0
88.021645 816.0
88.059753 160.0
88.074699 92.0
88.091515 184.0
88.203522 200.0
88.402855 148.0
88.429962 240.0
88.546043 80.0
88.570396 144.0
88.592072 116.0
88.665955 116.0
88.767189 128.0
88.827209 168.0
88.8619 148.0
88.883492 104.0
88.999878 172.0
89.061852 100.0
89.100288 304.0
89.127602 168.0
89.144516 164.0
89.347588 164.0
89.492516 136.0
89.549011 180.0
89.645096 36.0
89.703529 204.0
89.733688 92.0
89.792152 196.0
89.850624 168.0
89.890251 168.0
89.961975 92.0
90.333458 160.0
90.438339 196.0
90.474304 144.0
90.538689 236.0
90.6353 160.0
90.730072 56.0
90.758507 148.0
90.786522 212.0
90.910271 220.0
90.931145 144.0
90.946327 204.0
91.098244 52.0
91.153343 164.0
91.166649 276.0
91.183754 208.0
91.214165 152.0
91.392937 136.0
91.461456 72.0
91.539513 208.0
91.747292 172.0
91.806313 136.0
92.056808 168.0
92.214882 172.0
92.247795 164.0
92.442474 100.0
92.635857 176.0
92.817932 244.0
92.835197 104.0
92.85054 168.0
93.004036 152.0
93.249893 116.0
93.338326 176.0
93.382561 180.0
93.419106 156.0
93.465279 184.0
93.557671 156.0
93.796547 144.0
93.889687 208.0
93.913315 172.0
93.960464 160.0
93.979759 212.0
94.042763 132.0
94.066177 208.0
94.093636 148.0
94.147751 172.0
94.178612 204.0
94.310005 164.0
94.412476 76.0
94.453094 336.0
94.518875 248.0
94.580803 44.0
94.642761 172.0
94.78804 196.0
94.826797 216.0
94.933434 176.0
94.976097 188.0
94.989677 160.0
95.012955 144.0
95.028763 164.0
95.135391 232.0
95.185707 164.0
95.201241 164.0
95.240089 192.0
95.282822 180.0
95.296425 176.0
95.374161 216.0
95.449982 268.0
95.745789 104.0
95.773056 212.0
95.831505 168.0
95.90361 152.0
95.969894 180.0
96.079117 100.0
96.12204 92.0
96.153267 120.0
96.262451 224.0
96.381752 140.0
96.397186 196.0
96.508804 184.0
96.544006 268.0
96.575302 224.0
96.612465 156.0
96.663338 172.0
96.743591 208.0
96.919861 184.0
96.980614 160.0
97.161247 176.0
97.333755 128.0
97.373032 336.0
97.433929 124.0
97.483047 232.0
97.512527 200.0
97.572403 192.0
97.697372 144.0
97.785919 184.0
97.880417 116.0
97.939499 52.0
98.002586 1300.0
98.093201 344.0
98.28846 216.0
98.406891 64.0
98.436508 204.0
98.48391 168.0
98.823944 100.0
98.851646 76.0
98.899147 136.0
98.962502 236.0
99.010025 200.0
99.089256 80.0
99.146729 144.0
99.335091 180.0
99.382706 48.0
99.523636 68.0
99.577255 160.0
99.618973 96.0
99.666656 176.0
99.714348 80.0
99.805801 144.0
99.917183 100.0
99.985184 2904.0
100.036591 128.0
100.058487 184.0
100.092339 128.0
100.128189 196.0
100.170013 108.0
100.217827 208.0
100.247719 168.0
100.291565 44.0
100.323463 188.0
100.367325 96.0
100.40123 176.0
100.435135 104.0
100.463066 156.0
100.522919 160.0
100.616524 112.0
100.756538 64.0
100.780518 160.0
100.830475 184.0
100.888443 148.0
100.932426 52.0
100.98748 160.0
101.014435 148.0
101.200562 224.0
101.218582 208.0
101.426941 144.0
101.442978 228.0
101.585365 188.0
101.693718 192.0
101.864403 104.0
101.980247 184.0
102.036987 160.0
102.103867 148.0
102.121696 212.0
102.15992 44.0
102.304817 300.0
102.494141 136.0
102.512276 148.0
102.56871 148.0
102.820839 168.0
102.859192 156.0
102.905624 176.0
102.935913 212.0
103.02478 168.0
103.049896 140.0
103.192535 196.0
103.297699 168.0
103.350304 240.0
103.475792 224.0
103.540596 136.0
103.575027 156.0
103.894669 260.0
103.95417 116.0
104.049568 164.0
104.232376 228.0
104.25473 152.0
104.319771 168.0
104.517059 100.0
104.796013 228.0
104.916267 160.0
104.967239 132.0
105.056923 204.0
105.105949 140.0
105.17942 124.0
105.297852 180.0
105.379562 124.0
105.418388 204.0
105.442909 264.0
105.487885 124.0
105.635117 368.0
105.909416 196.0
105.960632 160.0
106.009644 144.0
106.063499 1388.0
106.114349 164.0
106.161514 124.0
106.216896 64.0
106.249718 148.0
106.264076 184.0
106.422127 72.0
106.475517 200.0
106.53714 244.0
106.559738 32.0
106.652214 144.0
106.744736 128.0
106.779701 72.0
106.909981 172.0
107.026649 152.0
107.063713 152.0
107.144051 260.0
107.290382 168.0
107.317184 128.0
107.376984 120.0
107.471878 60.0
107.695839 188.0
107.905632 104.0
108.007889 152.0
108.035927 184.0
108.15181 168.0
108.254166 164.0
108.326447 180.0
108.510201 176.0
108.686508 216.0
108.725937 128.0
108.775749 164.0
108.935654 160.0
109.22876 172.0
109.289101 116.0
109.509773 164.0
109.526436 220.0
109.547264 144.0
109.661873 220.0
109.730667 76.0
109.745262 64.0
109.822922 168.0
109.855797 196.0
109.912132 144.0
110.152229 232.0
110.344505 176.0
110.415604 144.0
110.453247 140.0
110.469986 132.0
110.490906 124.0
110.698128 196.0
111.012474 156.0
111.155121 164.0
111.266365 172.0
111.285133 64.0
111.40918 180.0
111.510414 220.0
111.592026 108.0
111.707703 168.0
111.732948 132.0
111.810806 160.0
111.83606 180.0
111.909744 68.0
112.007103 88.0
112.263756 200.0
112.308052 180.0
112.445198 144.0
112.508522 160.0
112.607773 180.0
112.650017 196.0
112.772575 204.0
112.852913 168.0
113.014626 220.0
113.053871 72.0
113.178764 212.0
113.231712 212.0
113.3228 188.0
113.44149 148.0
113.638725 116.0
113.655792 180.0
113.703979 176.0
113.814903 72.0
113.910477 40.0
113.997002 320.0
114.020966 180.0
114.042221 60.0
114.069855 172.0
114.133636 180.0
114.325089 168.0
114.420876 208.0
114.557686 168.0
114.610443 156.0
114.670113 184.0
114.689301 164.0
114.865173 208.0
114.896149 156.0
114.911087 120.0
114.952759 212.0
114.968704 160.0
114.988007 196.0
115.032211 96084.0
115.102539 104.0
115.1194 88.0
115.168198 64.0
115.206749 132.0
115.22776 200.0
115.25071 88.0
115.264549 88.0
115.276863 112.0
115.305328 136.0
115.345512 48.0
115.38282 948.0
115.410896 60.0
115.425865 136.0
115.440002 72.0
115.510559 48.0
115.534943 120.0
115.603905 68.0
115.656921 44.0
115.681068 144.0
115.721146 52.0
115.758263 72.0
115.795563 48.0
115.836258 252.0
115.89579 112.0
115.916992 56.0
115.935364 44.0
116.034363 4760.0
116.096863 60.0
116.151917 56.0
116.199112 60.0
116.235588 52.0
116.329933 180.0
116.368675 196.0
116.407814 88.0
116.483475 72.0
116.501831 48.0
116.525459 68.0
116.570587 76.0
116.609711 244.0
116.636261 144.0
116.660675 128.0
116.712463 68.0
116.733963 228.0
116.75547 80.0
116.79985 120.0
116.832787 172.0
116.850967 244.0
116.942657 152.0
116.959877 192.0
116.983551 104.0
117.002083 160.0
117.026543 3476.0
117.056496 408.0
117.086906 104.0
117.134735 188.0
117.179535 84.0
117.194618 148.0
117.289444 124.0
117.349808 180.0
117.502945 68.0
117.578476 76.0
117.619484 116.0
117.718803 128.0
117.79361 132.0
117.991058 168.0
118.030869 264.0
118.063957 3272.0
118.109299 236.0
118.161919 52.0
118.29319 84.0
118.428192 132.0
118.456352 188.0
118.60804 56.0
118.806915 124.0
119.018082 116.0
119.065857 136.0
119.289658 136.0
119.417953 88.0
119.47451 44.0
119.574608 52.0
119.631203 152.0
119.6987 44.0
119.863792 224.0
120.001579 76.0
120.07914 628.0
120.232811 100.0
120.289558 144.0
120.639091 176.0
120.704681 28.0
120.783417 92.0
120.96286 144.0
121.024162 172.0
121.08329 184.0
121.214729 136.0
121.833481 84.0
122.054031 220.0
122.165443 148.0
122.183044 164.0
122.216049 216.0
122.231453 104.0
122.289597 152.0
122.493454 116.0
122.51989 72.0
122.59922 60.0
122.80426 184.0
122.848373 176.0
123.135338 48.0
123.347458 104.0
123.863052 132.0
123.894066 144.0
123.980484 32.0
124.000427 208.0
124.097969 168.0
124.326454 164.0
124.377502 88.0
124.475189 188.0
124.601799 64.0
124.766266 80.0
124.850761 216.0
124.884125 160.0
124.915268 168.0
125.153404 56.0
125.329048 136.0
125.480942 144.0
125.608055 168.0
125.677223 124.0
125.77095 28.0
125.996506 100.0
126.099297 48.0
126.177048 164.0
126.211075 56.0
126.260269 108.0
126.434776 216.0
126.669884 168.0
126.737099 184.0
126.837944 220.0
126.885025 44.0
127.196861 128.0
127.64621 180.0
127.754173 212.0
127.823921 56.0
127.972488 76.0
128.046371 148.0
128.130142 188.0
128.378098 88.0
128.470581 76.0
128.608231 224.0
128.624023 176.0
128.795639 168.0
129.078156 156.0
129.177673 136.0
129.589722 108.0
130.06337 772.0
130.115921 180.0
130.800201 104.0
130.929977 160.0
131.027939 100.0
131.069519 2020.0
131.20343 36.0
131.315155 68.0
131.358505 164.0
131.397278 108.0
131.431503 80.0
131.506821 128.0
131.696335 148.0
131.714615 120.0
131.776291 164.0
131.793533 68.0
132.067215 18236.0
132.09906 132.0
132.12381 140.0
132.139832 32.0
132.155838 276.0
132.197037 48.0
132.283173 84.0
132.348648 104.0
132.377884 216.0
132.469498 220.0
132.514923 92.0
132.538239 148.0
132.602402 56.0
132.648254 52.0
132.746841 140.0
132.854645 168.0
132.930359 56.0
132.953308 40.0
133.00029 68.0
133.07045 1960.0
133.1875 76.0
133.25412 80.0
133.541489 120.0
133.592987 228.0
133.720947 48.0
133.748566 412.0
133.776199 168.0
133.939697 112.0
133.978851 52.0
134.05867 140.0
134.114822 92.0
134.167831 84.0
134.223175 160.0
134.260071 204.0
134.276215 116.0
134.756378 184.0
134.823395 148.0
134.971344 120.0
135.056915 128.0
135.436523 36.0
135.617264 48.0
135.649704 168.0
135.858429 152.0
136.557632 132.0
137.284271 160.0
137.445236 192.0
137.797821 144.0
138.132126 112.0
138.713577 80.0
138.862946 104.0
138.980255 192.0
139.297195 156.0
139.482849 52.0
139.91571 140.0
139.998123 28.0
140.210144 192.0
140.460556 60.0
140.627625 176.0
140.677185 104.0
140.698441 44.0
140.736755 172.0
140.820389 136.0
140.89682 32.0
140.913361 176.0
140.944077 64.0
140.979935 132.0
141.010788 36904.0
141.057526 168.0
141.095352 100.0
141.137665 188.0
141.185196 60.0
141.217728 64.0
141.249069 40.0
141.329117 72.0
141.376831 132.0
141.395767 132.0
141.426529 56.0
141.492813 96.0
141.533066 84.0
141.566223 28.0
141.66571 100.0
141.682281 56.0
141.812622 44.0
141.867142 52.0
142.011826 2000.0
142.040253 64.0
142.135162 84.0
142.238113 84.0
142.38205 80.0
142.405518 68.0
142.477066 88.0
142.553101 52.0
142.603012 132.0
142.729004 92.0
142.857452 64.0
142.88501 136.0
142.899139 76.0
142.924057 48.0
143.00647 672.0
143.062576 248.0
143.090073 172.0
143.209137 124.0
143.278137 96.0
143.393219 44.0
143.414658 216.0
143.536255 144.0
143.552948 52.0
143.81778 48.0
143.891785 128.0
144.011185 212.0
144.047012 168.0
144.524628 156.0
144.546707 132.0
144.568253 48.0
144.677231 196.0
144.695114 36.0
144.742401 144.0
144.771744 156.0
144.793289 88.0
144.989746 144.0
145.07486 10636.0
145.138382 72.0
145.188736 64.0
145.224716 76.0
145.254761 92.0
145.28949 48.0
145.371338 108.0
145.401123 92.0
145.411469 48.0
145.415298 84.0
145.611145 48.0
146.002899 120.0
146.080261 2084.0
146.140015 52.0
146.180923 68.0
146.442917 112.0
146.780746 124.0
146.850693 160.0
146.88205 124.0
146.947189 228.0
146.980957 96.0
147.01474 124.0
147.09079 22748.0
147.189911 64.0
147.199661 80.0
147.229111 176.0
147.309128 152.0
147.444626 108.0
147.509338 172.0
147.543747 48.0
147.582428 56.0
147.612213 76.0
147.717865 44.0
147.785599 44.0
147.804962 108.0
147.824326 228.0
147.947769 160.0
147.984085 180.0
148.09346 1788.0
148.143936 100.0
148.17543 60.0
148.28447 84.0
148.626419 76.0
148.706497 132.0
148.85498 124.0
148.891022 72.0
148.922592 52.0
148.951752 108.0
148.98819 88.0
149.070801 60.0
149.09935 296.0
149.223938 64.0
149.245819 108.0
149.384445 64.0
149.819077 60.0
149.854324 76.0
149.873825 88.0
150.200516 76.0
150.569077 60.0
150.960098 52.0
151.334503 108.0
152.944992 108.0
154.937881 100.0
155.771439 52.0
155.838516 72.0
155.905609 60.0
155.990128 88.0
156.968613 180.0
157.905136 128.0
158.045517 1144.0
158.673904 44.0
158.771698 116.0
159.044907 152.0
160.353134 76.0
160.7901 80.0
162.64476 28.0
165.828079 120.0
165.912674 72.0
166.97319 120.0
167.081223 176.0
167.686371 96.0
171.363663 96.0
172.065262 116.0
173.069397 524.0
173.36792 156.0
174.070435 324.0
175.072937 140.0
176.009094 120.0
176.159637 56.0
178.186356 116.0
179.805405 60.0
184.117249 148.0
185.112457 152.0
185.253296 60.0
188.887543 64.0
190.021729 128.0
190.326401 56.0
196.100235 148.0
198.033737 140.0
198.549454 100.0
199.02652 132.0
199.647552 160.0
201.553223 104.0
205.060944 180.0
205.64566 72.0
207.307327 120.0
209.133972 204.0
210.119537 164.0
213.026199 92.0
213.095932 52.0
213.470901 60.0
213.604691 36.0
217.543991 96.0
217.731918 60.0
220.900574 132.0
225.136185 224.0
230.985352 36.0
232.958832 68.0
234.751587 36.0
235.020035 164.0
238.911179 144.0
247.236649 100.0
251.198837 124.0
252.895706 156.0
265.056885 104.0
267.828186 96.0
270.234222 44.0
271.036438 48.0
275.854889 136.0
277.583221 72.0
279.094116 188.0
282.248566 120.0
286.171082 180.0
286.228333 108.0
287.09082 136.0
287.1922 44.0
288.11377 124.0
289.09436 92.0
290.090179 68.0
291.206543 128.0
300.104492 100.0
307.057587 156.0
310.057373 120.0
312.512024 40.0
315.630188 36.0
351.910614 40.0
360.989288 36.0
369.418091 60.0
371.01123 128.0
403.230164 32.0
454.903107 128.0
462.371033 60.0
473.595947 76.0
505.528931 56.0
518.721619 44.0
520.259521 96.0
528.390198 60.0
555.592712 28.0
586.356628 72.0
589.44043 68.0
590.368591 72.0
592.270752 64.0
616.56488 64.0
673.191406 84.0
706.108521 76.0
743.367004 92.0
745.289307 136.0
761.168823 44.0
765.243347 192.0
787.956421 196.0
788.191101 148.0
792.830322 188.0
804.056091 112.0
808.639832 92.0
814.457336 124.0
826.269409 100.0
840.980896 144.0
855.333191 160.0
857.820618 180.0
867.460449 244.0
867.577698 32.0
873.31488 64.0
881.415405 204.0
883.79248 168.0
885.136169 200.0
913.728027 168.0
918.028809 144.0
927.497131 188.0
928.412659 216.0
929.225525 40.0
931.174133 196.0
931.605408 160.0
931.951721 136.0
935.789734 132.0
937.915894 220.0
942.676514 176.0
948.668762 124.0
949.318726 148.0
950.760376 144.0
953.880676 124.0
957.837463 96.0
961.753052 172.0
961.944458 132.0
962.413635 92.0
966.394287 264.0
966.895508 192.0
976.108154 84.0
976.182739 144.0
977.744263 60.0
978.285828 152.0
978.447693 180.0
978.57843 224.0
982.529907 188.0
983.322449 132.0
986.264343 140.0
986.370605 180.0
987.277222 136.0
991.490662 200.0
992.970276 160.0
993.497192 128.0
994.576538 196.0
997.849548 136.0
998.780334 112.0
1003.037109 180.0
1010.369019 156.0
1010.938477 180.0
1011.932312 132.0
1018.032471 164.0
1019.493652 252.0
1022.457275 164.0
1023.074707 60.0
1023.896179 48.0
1025.113037 272.0
1026.100952 64.0
1031.124878 204.0
1032.352295 164.0
1033.26062 80.0
1034.873535 148.0
1036.462158 192.0
1037.712036 160.0
1037.974854 136.0
1041.125854 160.0
1044.526001 140.0
1045.175781 64.0
1049.667847 132.0
1050.033203 196.0
1050.59436 144.0
1050.988037 196.0
1051.42041 168.0
1053.021484 156.0
1053.415527 144.0
1053.835571 168.0
1055.833008 132.0
1057.178711 212.0
1058.858765 240.0
1058.959106 188.0
1059.943848 140.0
1060.397461 156.0
1061.240234 116.0
1061.337524 148.0
1061.609863 156.0
1061.895264 212.0
1062.044434 80.0
1062.842407 176.0
1064.043213 192.0
1064.828979 156.0
1065.114746 248.0
1066.596313 148.0
1069.490967 128.0
1069.666626 188.0
1070.174438 176.0
1071.281616 144.0
1075.768433 144.0
1076.134033 164.0
1077.642822 224.0
1078.969604 124.0
1079.531982 200.0
1079.59082 216.0
1079.747803 128.0
1080.015991 164.0
1082.882812 136.0
1083.734497 300.0
1084.474976 104.0
1085.307617 192.0
1085.576538 252.0
1086.816284 112.0
1087.662964 80.0
1087.833618 140.0
1089.981323 188.0
1091.039551 176.0
1091.105225 184.0
1091.828613 168.0
1092.381104 180.0
1092.611328 128.0
1093.947388 32.0
1094.085571 132.0
1097.87439 148.0
1098.797974 132.0
1100.183838 104.0
1100.315918 132.0
1101.986938 164.0
1102.429688 224.0
1103.513794 212.0
1103.937012 196.0
1104.188232 64.0
1104.618286 156.0
1105.266602 200.0
1106.107178 180.0
1106.550659 268.0
1106.994385 52.0
1108.769897 180.0
1109.890137 144.0
1110.294678 132.0
1111.216797 136.0
1111.833862 172.0
1112.271973 132.0
1112.59729 56.0
1112.716797 124.0
1115.613403 228.0
1116.644165 168.0
1118.247559 156.0
1118.453979 28.0
1119.57251 204.0
1120.971558 148.0
1121.777954 224.0
1122.344727 124.0
1123.271729 224.0
1124.973511 100.0
1126.562866 156.0
1127.805786 112.0
1128.206909 96.0
1129.470825 80.0
1129.664795 124.0
1131.317749 160.0
1132.047607 76.0
1133.635376 196.0
1134.996094 136.0
1135.68689 108.0
1135.9552 156.0
1136.290649 196.0
1137.183228 184.0
1140.474487 72.0
1141.099609 72.0
1141.328247 124.0
1141.583862 112.0
1142.552368 232.0
1142.713867 84.0
1143.258911 132.0
1143.353149 52.0
1144.147461 148.0
1145.871582 224.0
1146.006348 104.0
1148.993286 136.0
1149.053955 164.0
1149.600586 172.0
1149.661255 120.0
1153.05835 180.0
1153.964233 212.0
1156.264282 176.0
1157.455688 156.0
1158.044922 164.0
1158.668213 232.0
1159.094971 160.0
1159.637207 168.0
1163.435913 156.0
1163.836548 212.0
1165.161011 96.0
1165.208618 172.0
1165.650269 184.0
1165.779297 164.0
1166.166748 68.0
1166.47937 184.0
1166.799194 140.0
1167.669312 124.0
1167.785034 208.0
1167.859863 156.0
1168.662598 188.0
1169.29541 108.0
1170.19397 124.0
1171.161011 168.0
1171.603882 232.0
1172.53064 196.0
1172.639648 228.0
1172.782715 132.0
1173.096313 152.0
1173.423584 144.0
1173.894043 116.0
1176.917114 104.0
1177.251709 128.0
1177.968872 132.0
1178.344604 212.0
1178.699951 116.0
1178.945923 120.0
1179.041626 168.0
1180.16272 192.0
1180.531982 184.0
1180.668701 152.0
1180.79187 140.0
1181.297974 176.0
1181.475952 88.0
1181.872681 76.0
1182.043823 116.0
1182.515991 172.0
1184.227783 240.0
1185.412964 180.0
1186.605713 160.0
1188.375244 168.0
1190.764282 144.0
1191.169556 48.0
1191.327515 96.0
1191.458008 112.0
1193.004395 160.0
1193.960205 144.0
1194.15271 152.0
1195.707642 152.0
1195.921021 156.0
1197.208618 132.0
1198.386475 212.0
1199.937256 152.0
1201.088989 184.0
1201.43396 176.0
1201.882446 144.0
1203.055786 212.0
1205.196777 64.0
1205.61145 172.0
1205.894775 88.0
1206.945679 216.0
1208.813354 140.0
1208.87561 168.0
1209.727051 48.0
1210.945679 148.0
1211.2323 152.0
1212.359131 212.0
1212.643188 152.0
1212.816528 212.0
1212.86499 128.0
1212.948242 220.0
1213.579102 200.0
1214.092285 108.0
1214.647217 184.0
1214.794067 152.0
1214.855225 120.0
1215.2854 168.0
1215.611572 160.0
1217.812378 208.0
1218.083374 184.0
1218.743286 152.0
1220.557617 204.0
1221.350464 184.0
1222.317505 156.0
1223.027344 112.0
1223.841919 144.0
1224.176147 144.0
1224.914429 148.0
1225.032959 52.0
1225.346436 152.0
1225.82019 220.0
1226.517212 196.0
1227.130737 160.0
1227.646729 184.0
1229.195435 108.0
1231.373535 136.0
1231.855591 64.0
1232.190918 224.0
1233.721436 124.0
1235.518799 144.0
1235.693726 208.0
1236.764404 188.0
1237.156494 172.0
1238.578003 48.0
1239.124512 288.0
1239.173584 136.0
1239.650024 136.0
1239.92334 124.0
1240.589233 156.0
1240.750488 44.0
1241.472778 196.0
1242.096924 156.0
1242.433716 168.0
1243.998657 52.0
1244.391846 156.0
1244.630615 128.0
1245.339966 60.0
1247.328491 236.0
1248.27771 216.0
1248.987671 176.0
1249.297485 208.0
1249.466431 132.0
1249.719727 224.0
1250.064453 164.0
1250.586182 120.0
1251.386475 192.0
1251.458252 160.0
1251.993408 184.0
1252.352661 176.0
1252.838745 68.0
1253.162842 192.0
1254.156494 160.0
1255.898071 144.0
1255.989746 156.0
1256.730591 160.0
1257.873901 196.0
1258.262207 108.0
1260.239868 140.0
1260.487183 104.0
1260.854614 104.0
1261.434082 180.0
1262.063477 132.0
1265.261597 200.0
1265.431519 100.0
1266.32373 148.0
1266.940063 228.0
1268.137695 180.0
1268.293579 164.0
1269.69043 172.0
1270.463501 120.0
1271.563477 200.0
1271.733765 148.0
1272.053223 124.0
1273.942261 128.0
1274.22644 180.0
1275.356323 128.0
1275.846802 120.0
1276.394287 148.0
1276.472534 168.0
1278.663696 168.0
1279.11853 148.0
1280.842529 240.0
1282.666748 144.0
1283.500977 188.0
1283.935913 140.0
1284.898926 60.0
1285.28418 192.0
1286.411865 164.0
1286.840332 176.0
1287.397217 156.0
1287.675781 128.0
1287.940063 48.0
1288.175781 164.0
1288.83313 84.0
1289.004639 136.0
1289.597778 160.0
1290.705933 188.0
1290.977661 124.0
1291.549438 224.0
1291.800171 184.0
1292.130859 248.0
1293.539185 120.0
1294.119141 176.0
1294.606079 100.0
1295.862305 176.0
1299.595215 208.0
1299.73877 160.0
1299.803345 128.0
1300.442017 232.0
1301.375366 52.0
1301.5979 136.0
1302.150879 140.0
1302.244263 128.0
1302.532837 184.0
1303.336304 232.0
1303.659668 204.0
1303.882446 132.0
1304.069336 148.0
1304.364014 168.0
1305.003906 148.0
1305.60791 156.0
1305.989136 252.0
1306.370361 204.0
1306.866821 128.0
1307.356079 76.0
1307.464111 160.0
1307.989502 140.0
1308.471802 260.0
1308.702271 172.0
1308.925537 224.0
1310.387695 152.0
1310.625488 252.0
1310.820068 256.0
1311.021851 184.0
1311.129883 196.0
1311.66333 148.0
1312.081421 68.0
1312.232788 148.0
1312.701538 136.0
1313.27124 188.0
1314.086548 200.0
1314.519409 180.0
1315.010254 148.0
1315.21228 196.0
1315.327759 184.0
1315.551636 84.0
1318.925415 188.0
1319.272095 132.0
1320.848633 128.0
1320.906494 184.0
1321.268188 168.0
1321.572021 200.0
1323.405884 192.0
1323.562622 204.0
1323.721924 60.0
1323.779907 196.0
1323.895752 220.0
1324.55481 208.0
1324.692505 144.0
1324.859131 156.0
1324.989502 152.0
1325.214111 188.0
1326.373657 152.0
1326.656372 136.0
1327.294434 136.0
1328.092285 108.0
1329.115234 192.0
1329.869995 204.0
1329.993408 180.0
1330.058716 148.0
1330.348999 132.0
1331.227661 48.0
1331.648804 208.0
1331.801392 148.0
1332.535156 232.0
1332.92749 156.0
1334.213989 168.0
1334.548462 92.0
1335.894043 220.0
1336.38147 60.0
1336.978149 224.0
1338.048218 124.0
1338.397705 164.0
1339.337158 60.0
1339.400024 196.0
1339.497437 120.0
1340.298828 108.0
1341.282837 160.0
1342.004517 136.0
1342.412842 172.0
1343.565308 176.0
1343.922852 32.0
1344.557739 116.0
1347.230347 184.0
1348.691772 156.0
1349.14502 144.0
1349.240112 140.0
1349.912842 100.0
1350.636841 164.0
1350.797852 212.0
1352.622681 212.0
1352.795654 144.0
1353.461914 148.0
1354.120483 164.0
1354.18689 116.0
1354.545776 168.0
1355.373779 180.0
1355.850098 208.0
1356.018677 204.0
1356.157959 136.0
1356.85437 188.0
1356.979004 144.0
1357.206299 120.0
1357.631592 180.0
1357.719604 124.0
1358.152344 200.0
1358.284424 124.0
1358.504395 148.0
1358.687866 176.0
1358.929932 164.0
1359.186768 184.0
1359.465698 160.0
1359.809937 184.0
1359.927979 56.0
1360.478638 200.0
1360.842773 204.0
1361.249512 64.0
1361.822388 152.0
1362.40271 152.0
1362.468872 156.0
1363.233032 176.0
1363.945923 36.0
1364.041504 148.0
1365.806396 136.0
1366.556763 164.0
1367.667969 52.0
1368.212769 208.0
1368.448364 132.0
1368.787109 76.0
1369.111084 204.0
1369.16272 180.0
1369.95813 156.0
1370.245483 88.0
1370.311768 68.0
1371.151855 168.0
1371.953735 136.0
1372.080688 120.0
1373.496582 164.0
1373.850708 112.0
1374.396729 100.0
1376.463623 132.0
1376.589111 236.0
1377.445923 208.0
1377.512329 224.0
1377.711792 152.0
1377.822632 132.0
1378.096069 88.0
1378.199463 232.0
1379.396729 156.0
1380.158325 224.0
1381.60791 184.0
1381.866943 148.0
1382.140747 248.0
1383.421143 136.0
1385.287354 140.0
1385.487427 176.0
1385.5354 172.0
1385.642944 160.0
1386.25061 52.0
1386.538208 280.0
1386.710083 168.0
1387.006592 196.0
1387.191895 168.0
1388.052002 104.0
1388.838135 168.0
1389.186768 148.0
1389.25354 180.0
1389.899048 232.0
1390.708008 176.0
1391.546875 128.0
1391.79187 204.0
1392.022095 216.0
1392.504761 136.0
1392.686157 136.0
1393.693481 128.0
1393.953491 108.0
1395.365845 216.0
1395.849121 160.0
1396.250732 164.0
1398.36377 164.0
1398.832642 180.0
1399.726074 180.0
1399.934692 124.0
1400.277222 188.0
1400.500732 120.0
1401.394653 48.0
1401.722534 216.0
1402.214355 132.0
1402.341064 132.0
1402.83313 132.0
1402.989624 172.0
1403.081421 208.0
1403.362427 112.0
1404.99585 208.0
1405.137573 184.0
1405.346436 160.0
1405.630005 136.0
1406.219604 168.0
1406.891479 144.0
1407.526123 124.0
1408.116089 148.0
1408.83313 156.0
1408.982666 156.0
1410.723877 168.0
1410.873413 120.0
1411.44165 140.0
1412.41394 208.0
1412.48877 96.0
1412.877808 172.0
1413.409058 144.0
1413.790649 196.0
1415.385254 148.0
1415.931885 172.0
1416.800781 152.0
1417.040527 168.0
1417.206787 148.0
1417.894897 172.0
1418.202148 228.0
1419.859131 144.0
1420.309204 140.0
1420.594238 180.0
1420.789307 176.0
1421.096924 180.0
1421.899902 136.0
1421.959961 176.0
1422.149536 156.0
1422.613037 176.0
1423.251221 144.0
1423.634155 160.0
1424.527954 128.0
1424.956177 88.0
1425.031372 216.0
1425.628784 240.0
1426.94043 228.0
1427.068237 196.0
1427.589722 200.0
1428.188843 152.0
1428.467163 132.0
1428.820679 108.0
1430.009644 216.0
1430.416138 176.0
1431.553101 152.0
1432.056763 152.0
1433.963989 188.0
1434.355957 80.0
1434.69519 192.0
1436.678589 148.0
1436.791748 236.0
1438.723877 220.0
1439.033325 116.0
1439.781006 196.0
1441.359863 200.0
1441.972046 88.0
1442.138306 160.0
1442.644775 208.0
1442.969849 120.0
1443.453735 132.0
1444.089111 220.0
1444.641235 172.0
1445.791382 204.0
1446.010864 116.0
1446.063843 224.0
1446.298462 128.0
1447.343262 164.0
1447.441772 172.0
1448.018066 196.0
1448.115723 56.0
1448.395996 156.0
1448.486938 140.0
1450.237305 148.0
1450.350952 212.0
1450.47229 128.0
1450.722412 204.0
1450.775513 164.0
1452.254272 224.0
1452.557617 160.0
1452.807983 144.0
1453.126587 176.0
1453.460449 184.0
1453.627441 28.0
1454.120728 144.0
1455.753052 228.0
1457.029175 188.0
1457.089966 64.0
1457.424194 124.0
1458.153809 52.0
1458.807495 240.0
1458.898682 148.0
1459.780762 112.0
1461.005371 192.0
1461.284424 224.0
1462.123901 68.0
1462.2229 168.0
1462.413086 192.0
1462.481689 224.0
1463.905396 152.0
1464.133789 120.0
1464.598511 148.0
1464.842163 200.0
1465.497437 176.0
1465.855591 132.0
1465.96228 208.0
1467.502075 192.0
1467.944336 164.0
1468.661255 156.0
1469.057861 212.0
1469.447021 184.0
1469.614868 176.0
1469.736938 188.0
1470.637451 92.0
1471.92627 184.0
1472.263794 196.0
1472.630371 148.0
1473.195679 184.0
1473.501221 184.0
1474.150757 216.0
1474.204224 64.0
1474.314087 204.0
1475.373657 224.0
1475.610718 200.0
1475.720703 180.0
1475.824829 132.0
1476.138306 80.0
1476.428955 132.0
1476.696655 216.0
1476.864868 176.0
1477.515137 96.0
1478.80957 232.0
1479.122192 168.0
1479.196045 136.0
1479.566284 120.0
1479.820312 212.0
1479.895508 172.0
1480.094604 108.0
1480.232422 132.0
1480.400879 204.0
1480.599976 148.0
1480.967651 144.0
1483.442749 196.0
1483.83374 156.0
1483.887451 140.0
1485.467285 104.0
1485.528687 136.0
1485.896851 220.0
1485.989014 68.0
1486.288208 128.0
1486.387939 248.0
1486.579834 68.0
1486.664185 124.0
1486.817749 180.0
1487.216797 168.0
1488.529663 132.0
1488.706299 136.0
1489.735596 128.0
1489.958374 204.0
1490.219604 176.0
1490.557739 144.0
1491.026489 172.0
1491.579834 224.0
1492.071899 124.0
1492.83313 168.0
1493.01001 80.0
1494.94104 232.0
1495.017944 192.0
1495.918579 208.0
1496.372803 188.0
1497.774414 124.0
1498.259766 148.0
1498.99939 180.0
1499.307739 180.0
1499.454102 136.0
1499.870361 172.0
1500.078491 152.0
1500.240356 160.0
1500.656738 132.0
1500.918823 164.0
1501.350708 156.0
1502.006348 360.0
1502.330322 180.0
1502.39209 92.0
1502.49231 176.0
1503.086426 84.0
1503.564941 108.0
1503.896851 132.0
1504.143799 144.0
1504.22876 192.0
1504.931274 92.0
