>compound MLS001146912-01!
>formula C16H21NO3
>ionization [M+H]+
>parentmass 276.1594199840905
#inchi InChI=1S/C16H21NO3/c1-19-14-7-6-11(12-9-16(18)17-10-12)8-15(14)20-13-4-2-3-5-13/h6-8,12-13H,2-5,9-10H2,1H3,(H,17,18)
#inchikey HJORMJIFDVBMOB
#Ion_Source LC-ESI
#Instrument qTof
#Compound_Source NIH Pharmacologically Active Library
#PI Dorrestein
#Data_Collector VP/LMS
#Scan -1
#Precursor_MZ 276.166
#ExactMass 275.152
#Charge 1
#CAS_Number N/A
#Pubmed_ID N/A
#Smiles COc1ccc(cc1OC2CCCC2)C3CNC(=O)C3
#INCHI_AUX N/A
#Library_Class 1
#SpectrumID CCMSLIB00000085524
#IonMode Positive
#UpdateWorkflowName UPDATE-SINGLE-ANNOTATED-GOLD
#LibraryQualityString Gold
#TaskID d252d724072548979f1f6f1ced849daf
##Scan# 1813
#SpectrumFile p4-C03_GC3_01_18351.mzXML
#LibraryName Pharm_Active_Library.mgf
#MQScore -1
#Organism Pharm_Active_Library
#TIC_Query 0
#RT_Query -1
#MZErrorPPM -1
#SharedPeaks 0
#MassDiff 0
#LibMZ -1
#SpecMZ 276.166
#SpecCharge 0
#internalFilename spec-00000.mgf

>collision 10
44.93977 148.0
45.002499 128.0
45.018524 136.0
45.071957 220.0
45.08799 132.0
45.245827 128.0
45.387848 116.0
45.43187 180.0
45.53706 148.0
45.661797 140.0
45.700806 112.0
45.801773 164.0
45.82737 232.0
45.92308 144.0
45.941963 224.0
46.090477 156.0
46.132374 152.0
46.155357 200.0
46.247349 192.0
46.260887 200.0
46.503517 204.0
46.52116 172.0
46.552387 144.0
46.610798 136.0
46.812119 212.0
46.872055 240.0
46.933392 112.0
46.998062 272.0
47.278992 132.0
47.358402 152.0
47.378948 212.0
47.537994 156.0
47.594276 160.0
47.621742 272.0
47.744057 136.0
47.768814 128.0
47.810093 112.0
47.883057 168.0
47.900963 180.0
47.964348 148.0
47.978134 140.0
48.110569 212.0
48.198959 208.0
48.301266 156.0
48.367683 120.0
48.569984 236.0
48.683792 176.0
48.735188 192.0
48.803291 200.0
48.819324 212.0
48.957748 144.0
48.988392 116.0
49.000927 72.0
49.118027 148.0
49.159882 172.0
49.222698 140.0
49.240852 180.0
49.254822 412.0
49.300926 88.0
49.331676 132.0
49.375019 148.0
49.506569 172.0
49.522572 232.0
49.589226 124.0
49.733692 124.0
49.754745 68.0
49.846043 104.0
50.054222 156.0
50.083797 116.0
50.250141 144.0
50.308002 120.0
50.368725 164.0
50.399803 88.0
50.440788 108.0
50.470478 232.0
50.654457 232.0
50.750828 152.0
50.837353 116.0
51.080303 108.0
51.094532 192.0
51.155724 196.0
51.184196 148.0
51.293896 132.0
51.486511 164.0
51.542221 224.0
51.585098 184.0
51.66518 196.0
51.703812 84.0
51.847023 188.0
51.864223 144.0
51.908665 156.0
52.0737 128.0
52.142662 172.0
52.187225 152.0
52.28545 140.0
52.300873 172.0
52.352703 148.0
52.44532 168.0
52.465088 112.0
52.554504 124.0
52.568935 356.0
52.613678 228.0
52.623787 180.0
52.73357 176.0
52.746578 196.0
52.795738 184.0
52.843472 260.0
52.875305 124.0
53.002739 160.0
53.031723 168.0
53.224667 152.0
53.329262 140.0
53.512554 148.0
53.535851 164.0
53.581005 64.0
53.660759 232.0
53.782238 156.0
53.808517 104.0
53.904915 80.0
54.105293 108.0
54.247395 168.0
54.323647 132.0
54.346214 168.0
54.502762 28.0
54.558609 128.0
54.608604 148.0
54.690998 212.0
55.027103 116.0
55.08765 208.0
55.097992 184.0
55.158581 136.0
55.180756 168.0
55.282814 108.0
55.317688 348.0
55.583626 212.0
55.61034 172.0
55.634087 192.0
55.720222 244.0
55.730625 80.0
55.763317 116.0
55.825756 148.0
55.875496 224.0
55.886742 124.0
55.923946 128.0
55.959671 144.0
56.014774 156.0
56.099712 184.0
56.138237 124.0
56.16383 296.0
56.28574 192.0
56.34296 136.0
56.377327 144.0
56.402737 44.0
56.414692 196.0
56.434128 128.0
56.523872 180.0
56.705074 68.0
56.787537 128.0
56.843044 168.0
56.853546 132.0
57.017242 172.0
57.033314 236.0
57.11948 140.0
57.218803 124.0
57.250423 116.0
57.380005 144.0
57.482571 84.0
57.505207 156.0
57.542946 112.0
57.632053 212.0
57.694019 168.0
57.76963 92.0
57.825619 232.0
57.858917 52.0
57.919491 156.0
58.122639 188.0
58.201569 116.0
58.341343 180.0
58.36871 212.0
58.391518 128.0
58.466064 236.0
58.502594 180.0
58.555771 208.0
58.597015 152.0
58.674744 152.0
58.702187 180.0
58.74947 180.0
58.784561 68.0
58.876156 156.0
58.891922 148.0
59.022854 180.0
59.062614 152.0
59.280014 148.0
59.330593 152.0
59.477856 188.0
59.589958 132.0
59.605324 172.0
59.617802 168.0
59.639133 208.0
59.720623 172.0
59.74062 220.0
59.769852 200.0
59.812943 184.0
60.097187 216.0
60.214958 152.0
60.328159 76.0
60.365269 132.0
60.509163 60.0
60.526196 228.0
60.629982 200.0
60.684235 84.0
60.710598 220.0
60.786606 220.0
60.803677 180.0
61.047577 136.0
61.06002 136.0
61.172047 176.0
61.210968 152.0
61.245232 108.0
61.268597 212.0
61.365223 92.0
61.503269 228.0
61.572762 204.0
61.585255 144.0
61.614933 64.0
61.696198 172.0
61.735287 48.0
61.796291 272.0
61.827587 184.0
61.863586 168.0
61.891766 196.0
61.905861 72.0
61.951279 184.0
62.299538 52.0
62.352962 208.0
62.423702 88.0
62.656651 148.0
62.673981 140.0
62.700768 132.0
62.920021 176.0
63.071671 248.0
63.085896 132.0
63.112774 204.0
63.187111 204.0
63.20768 240.0
63.339081 32.0
63.48489 40.0
63.556938 248.0
63.691212 212.0
63.770657 120.0
63.804035 148.0
64.114418 180.0
64.12558 132.0
64.221237 216.0
64.299416 120.0
64.35807 188.0
64.452721 164.0
64.755066 128.0
64.783897 156.0
65.021202 112.0
65.241257 192.0
65.257332 176.0
65.292709 184.0
65.308792 196.0
65.419823 128.0
65.635712 56.0
65.687317 204.0
65.769608 132.0
65.960411 160.0
66.007095 216.0
66.048103 168.0
66.160797 148.0
66.353584 172.0
66.416824 60.0
66.486595 84.0
66.504448 100.0
66.515808 204.0
66.541779 152.0
66.60511 164.0
66.718307 164.0
66.805054 52.0
66.910835 212.0
66.927116 152.0
67.119385 156.0
67.137321 60.0
67.31356 152.0
67.450798 176.0
67.46714 308.0
67.504745 216.0
67.591446 100.0
67.732239 104.0
67.748619 128.0
67.787941 196.0
67.858421 192.0
67.90593 148.0
68.239319 132.0
68.336357 156.0
68.364059 172.0
68.51252 176.0
68.560303 60.0
68.620117 220.0
68.664162 156.0
68.708359 156.0
68.806068 76.0
69.00164 212.0
69.017967 332.0
69.029121 188.0
69.060547 184.0
69.075432 144.0
69.227699 52.0
69.279037 212.0
69.293953 132.0
69.30555 124.0
69.346977 164.0
69.358582 196.0
69.470741 188.0
69.597473 372.0
69.662239 136.0
69.679962 108.0
69.700455 76.0
69.728706 196.0
69.778572 76.0
69.831779 188.0
69.865051 180.0
70.15815 172.0
70.224846 132.0
70.293243 188.0
70.324951 116.0
70.533737 176.0
70.545441 164.0
70.597267 140.0
70.697639 124.0
70.816505 48.0
70.846657 116.0
70.865089 160.0
70.885193 188.0
70.927094 224.0
71.052864 192.0
71.175385 160.0
71.254326 184.0
71.358521 120.0
71.511604 224.0
71.680008 96.0
71.767654 204.0
72.059647 164.0
72.090057 184.0
72.144142 148.0
72.159363 32.0
72.262985 176.0
72.303139 152.0
72.416573 176.0
72.448753 208.0
72.49575 212.0
72.525009 140.0
72.798149 144.0
72.844009 136.0
72.859299 200.0
72.881386 180.0
72.910271 200.0
72.959564 128.0
73.046288 180.0
73.209679 36.0
73.327232 80.0
73.402237 184.0
73.475578 284.0
73.547249 152.0
73.673615 76.0
73.76931 160.0
73.97287 156.0
74.073898 112.0
74.092743 188.0
74.205856 156.0
74.241867 440.0
74.288177 128.0
74.337242 220.0
74.454666 120.0
74.597275 176.0
74.609306 296.0
74.662605 180.0
74.758949 156.0
74.783043 184.0
74.862236 188.0
74.98455 220.0
75.006958 176.0
75.082817 132.0
75.098343 236.0
75.255371 248.0
75.286453 164.0
75.409119 160.0
75.479996 168.0
75.583778 128.0
75.695847 248.0
75.780312 144.0
76.039536 64.0
76.058632 76.0
76.119392 68.0
76.360954 172.0
76.472298 216.0
76.658646 176.0
76.730103 220.0
76.91153 160.0
77.100151 144.0
77.226028 208.0
77.26976 196.0
77.366013 200.0
77.471085 76.0
77.502625 180.0
77.64286 120.0
77.770935 136.0
77.790245 96.0
77.869255 140.0
77.885063 156.0
77.939522 148.0
78.044022 168.0
78.331841 144.0
78.442856 100.0
78.562767 196.0
78.675713 152.0
78.96727 160.0
79.078728 152.0
79.23101 144.0
79.415367 160.0
79.507622 112.0
79.637222 184.0
79.699402 136.0
79.845161 104.0
80.037354 140.0
80.151344 276.0
80.270775 156.0
80.299309 256.0
80.368881 108.0
80.41349 148.0
80.467041 140.0
80.597427 140.0
80.849564 176.0
80.878197 52.0
81.089546 160.0
81.53463 132.0
81.566978 180.0
81.644287 52.0
81.790024 192.0
81.849434 112.0
81.921471 188.0
81.955704 184.0
81.973724 172.0
82.053024 196.0
82.074661 184.0
82.112534 128.0
82.148605 224.0
82.249657 160.0
82.625526 48.0
82.70153 68.0
82.75946 152.0
82.783821 132.0
82.81427 164.0
82.86702 216.0
82.917122 204.0
83.024017 212.0
83.323509 108.0
83.348946 164.0
83.37439 172.0
83.610802 172.0
83.623543 196.0
83.727318 196.0
83.752815 148.0
83.792618 160.0
83.838448 136.0
83.900421 220.0
83.920471 180.0
83.936882 164.0
83.991592 136.0
84.057274 104.0
84.080994 184.0
84.139404 208.0
84.157661 148.0
84.20697 128.0
84.232536 244.0
84.26725 148.0
84.292831 196.0
84.327553 44.0
84.404327 116.0
84.462852 200.0
84.534203 168.0
84.548843 240.0
84.582733 132.0
84.737442 156.0
84.797913 140.0
84.900581 100.0
84.951019 172.0
84.995972 212.0
85.016151 160.0
85.225571 84.0
85.344955 144.0
85.676239 176.0
85.719749 156.0
85.867935 196.0
85.944252 216.0
85.969398 156.0
86.035851 216.0
86.11525 224.0
86.194687 224.0
86.522057 132.0
86.536865 96.0
86.594231 192.0
86.660957 164.0
86.775482 248.0
86.821228 216.0
86.861176 212.0
86.889 204.0
86.968796 192.0
87.048622 156.0
87.093193 160.0
87.147064 92.0
87.548851 152.0
87.738907 124.0
87.804169 60.0
87.880646 156.0
87.897438 172.0
88.271027 184.0
88.418808 156.0
88.482452 180.0
88.508667 152.0
88.924835 36.0
89.039169 204.0
89.157707 176.0
89.373962 192.0
89.61496 196.0
89.786499 76.0
89.852516 188.0
89.948753 192.0
90.150841 144.0
90.165962 160.0
90.22197 248.0
90.254807 152.0
90.392891 196.0
90.479958 180.0
90.616318 128.0
90.665581 188.0
90.709175 144.0
90.858986 192.0
90.879852 36.0
90.942474 228.0
91.014618 144.0
91.056503 528.0
91.126678 112.0
91.17038 136.0
91.343399 44.0
91.569893 116.0
91.758545 164.0
91.800491 60.0
91.974106 124.0
92.027557 36.0
92.289314 176.0
92.505493 156.0
92.555275 148.0
92.666359 188.0
92.696854 188.0
92.760269 176.0
92.865723 128.0
92.996193 152.0
93.034584 184.0
93.072983 184.0
93.120987 140.0
93.136353 52.0
93.41507 172.0
93.497803 224.0
93.699982 132.0
93.71981 124.0
94.044327 200.0
94.05867 72.0
94.081833 132.0
94.133965 180.0
94.154343 168.0
94.197701 124.0
94.240196 136.0
94.274979 236.0
94.36776 160.0
94.448982 192.0
94.557327 192.0
94.710281 160.0
94.730034 184.0
94.907951 88.0
94.983589 196.0
95.051491 240.0
95.068954 216.0
95.107704 188.0
95.134949 76.0
95.276443 148.0
95.445801 200.0
95.467186 88.0
95.636452 180.0
95.681221 152.0
95.729897 124.0
95.794167 72.0
96.03392 208.0
96.127563 160.0
96.281784 176.0
96.30912 148.0
96.445892 180.0
96.567116 60.0
96.731476 128.0
96.766441 144.0
97.078262 132.0
97.301941 164.0
97.41584 168.0
97.484215 180.0
97.502686 160.0
97.547501 164.0
97.580917 152.0
97.622215 216.0
97.637947 116.0
97.726463 136.0
97.742203 144.0
97.838646 160.0
97.988319 152.0
98.232765 164.0
98.24855 156.0
98.276169 188.0
98.311691 96.0
98.363007 184.0
98.38472 164.0
98.515053 168.0
98.718628 128.0
98.744339 236.0
98.764114 172.0
98.779938 132.0
98.805656 164.0
98.920433 140.0
98.965973 184.0
99.33062 184.0
99.72773 172.0
99.823158 200.0
99.86293 80.0
99.900726 180.0
99.918633 156.0
99.962402 72.0
100.01017 188.0
100.049118 148.0
100.067894 352.0
100.205322 128.0
100.224907 100.0
100.86586 60.0
100.881851 92.0
100.899841 92.0
101.063843 220.0
101.183929 188.0
101.304085 112.0
101.432335 196.0
101.462402 60.0
101.687065 180.0
101.861748 220.0
101.974266 148.0
101.996376 172.0
102.04631 1436.0
102.09288 216.0
102.129082 148.0
102.23571 104.0
102.298103 84.0
102.650681 112.0
102.684967 220.0
102.711189 40.0
102.72934 132.0
102.779778 172.0
102.954712 352.0
103.0019 168.0
103.055466 36308.0
103.10862 192.0
103.141541 104.0
103.160095 64.0
103.230225 64.0
103.256516 56.0
103.273979 220.0
103.288879 80.0
103.328545 92.0
103.353615 172.0
103.388252 56.0
103.438614 92.0
103.477081 220.0
103.491249 140.0
103.527702 68.0
103.564156 204.0
103.606689 92.0
103.645187 140.0
103.75666 56.0
103.774902 64.0
103.795181 80.0
103.81546 248.0
103.874275 192.0
103.997162 164.0
104.026871 160.0
104.058022 4068.0
104.093468 136.0
104.117836 36.0
104.144234 140.0
104.16378 112.0
104.182831 68.0
104.281403 196.0
104.369812 208.0
104.388115 192.0
104.422684 36.0
104.449127 92.0
104.497948 164.0
104.514221 56.0
104.544167 140.0
104.569168 132.0
104.703537 56.0
104.734085 80.0
104.754456 84.0
104.785011 104.0
104.833916 168.0
104.85022 136.0
104.901176 136.0
104.943985 132.0
105.042686 504.0
105.069427 3668.0
105.250038 108.0
105.411407 180.0
105.451996 260.0
105.482758 136.0
105.593353 88.0
105.673126 192.0
105.716095 124.0
105.767265 116.0
105.853249 56.0
105.890114 56.0
106.008934 104.0
106.042534 364.0
106.067421 3084.0
106.222153 68.0
106.279594 80.0
106.333748 196.0
106.390427 148.0
106.456123 184.0
106.515686 204.0
106.636909 96.0
106.733528 180.0
106.776718 52.0
106.875458 64.0
106.918671 172.0
106.945427 156.0
107.025711 148.0
107.049606 1484.0
107.071777 340.0
107.233772 140.0
107.479172 120.0
107.739311 252.0
107.76947 220.0
107.881905 108.0
107.90464 48.0
107.960472 220.0
107.981148 56.0
108.052437 224.0
108.130112 120.0
108.163223 180.0
108.208771 152.0
108.283318 80.0
108.299881 88.0
108.345459 76.0
108.404366 148.0
108.565163 156.0
108.841148 156.0
108.944992 116.0
109.03051 1112.0
109.05928 188.0
109.146591 124.0
109.487862 244.0
109.562851 168.0
109.623268 156.0
109.883904 40.0
109.95694 192.0
110.000771 172.0
110.036293 368.0
110.054657 172.0
110.126053 140.0
110.247223 212.0
110.280663 120.0
110.46257 140.0
110.592827 128.0
110.613235 256.0
110.629982 132.0
110.673943 52.0
110.92115 136.0
111.030182 196.0
111.045341 156.0
111.164436 108.0
111.235794 124.0
111.599236 132.0
111.6455 196.0
111.704391 132.0
111.927475 136.0
112.152893 52.0
112.283607 224.0
112.496712 160.0
112.566391 180.0
112.796669 48.0
112.864326 44.0
113.016617 100.0
113.040916 156.0
113.056816 152.0
113.190178 192.0
113.3554 156.0
113.631042 120.0
113.732903 172.0
113.824188 60.0
114.049377 160.0
114.477005 176.0
114.551544 184.0
114.592018 180.0
114.632507 164.0
114.798775 180.0
114.922493 184.0
115.012123 36.0
115.053825 676.0
115.163719 188.0
115.520378 140.0
115.824638 192.0
116.047272 308.0
116.051147 304.0
116.059029 540.0
116.214447 144.0
116.281326 148.0
116.313522 80.0
116.8228 132.0
116.956207 196.0
117.030869 176.0
117.065491 348.0
117.246964 176.0
117.356895 172.0
117.684853 156.0
117.881409 144.0
117.933281 164.0
117.972191 56.0
118.065842 292.0
118.236069 144.0
118.387604 144.0
118.439583 172.0
118.617264 228.0
118.751694 136.0
118.787819 272.0
118.927437 180.0
119.04953 312.0
119.070671 300.0
119.085938 200.0
119.196732 172.0
119.255402 208.0
119.459801 184.0
119.520714 140.0
119.542473 144.0
119.70356 120.0
119.882179 96.0
120.056114 716.0
120.342979 252.0
120.453804 244.0
120.5849 156.0
120.678894 164.0
120.761993 304.0
120.786057 124.0
120.916359 140.0
121.030174 228.0
121.06575 3700.0
121.142853 44.0
121.164764 60.0
121.232185 88.0
121.353241 80.0
121.429993 132.0
121.500183 188.0
121.53968 96.0
121.555038 64.0
121.70649 84.0
121.756996 232.0
121.825089 124.0
122.036613 1320.0
122.067688 516.0
122.388107 56.0
122.584145 84.0
122.650261 148.0
122.692146 56.0
122.776169 188.0
122.886223 216.0
122.9767 48.0
123.041313 416.0
123.070564 252.0
123.288094 36.0
123.303566 164.0
123.557854 40.0
123.717194 172.0
123.739326 224.0
123.925369 124.0
123.967468 120.0
124.05249 2852.0
124.18251 76.0
124.311188 132.0
124.586502 176.0
124.606491 180.0
124.70871 148.0
124.764282 172.0
124.782066 60.0
124.922173 64.0
124.942192 128.0
124.959991 208.0
125.056969 820.0
125.084099 260.0
125.256073 140.0
125.353218 160.0
125.420959 36.0
125.46331 204.0
125.643951 164.0
125.753288 168.0
125.882774 84.0
125.985512 104.0
126.014557 116.0
126.030197 92.0
126.13076 60.0
126.157585 212.0
126.206772 268.0
126.226891 124.0
126.309639 224.0
126.703629 176.0
126.811188 164.0
126.99279 96.0
127.053635 168.0
127.097275 136.0
127.196976 244.0
127.233406 140.0
127.417046 112.0
127.869011 64.0
128.272186 164.0
128.301498 144.0
128.822784 168.0
128.990005 144.0
129.008087 120.0
129.07225 232.0
129.177689 148.0
129.313446 180.0
129.431152 144.0
129.45607 148.0
129.555725 132.0
129.714355 216.0
129.766495 144.0
130.043396 816.0
130.065475 704.0
130.147659 168.0
130.206711 76.0
130.345276 176.0
130.363449 168.0
130.411179 152.0
130.552139 96.0
130.60672 124.0
130.793304 164.0
130.811508 208.0
130.908539 200.0
130.95723 168.0
130.991287 156.0
131.049881 41336.0
131.108246 184.0
131.134415 104.0
131.155457 48.0
131.195312 200.0
131.225113 36.0
131.25206 172.0
131.279709 128.0
131.30365 88.0
131.321487 44.0
131.336929 88.0
131.369797 152.0
131.384918 64.0
131.405792 180.0
131.424652 100.0
131.441895 168.0
131.460205 40.0
131.480728 84.0
131.502151 68.0
131.528915 176.0
131.586609 140.0
131.61441 68.0
131.668808 36.0
131.699463 124.0
131.725906 40.0
131.741898 48.0
131.835571 40.0
131.871521 148.0
132.014984 116.0
132.054199 3936.0
132.097717 204.0
132.129181 108.0
132.184296 72.0
132.198486 120.0
132.222519 40.0
132.238083 68.0
132.524323 108.0
132.540359 164.0
132.586197 252.0
132.667786 80.0
132.700806 136.0
132.750565 120.0
132.804001 60.0
132.833817 132.0
132.8797 92.0
132.940506 56.0
132.966888 180.0
132.981598 148.0
133.010498 52.0
133.063721 2116.0
133.134476 200.0
133.152847 44.0
133.176926 120.0
133.251633 56.0
133.643051 212.0
133.6931 180.0
133.750641 208.0
133.782867 52.0
133.822006 72.0
133.979538 188.0
133.999344 36.0
134.038101 192.0
134.060486 3772.0
134.133011 64.0
134.156052 104.0
134.183716 148.0
134.227524 64.0
134.278259 96.0
134.310562 112.0
134.384369 184.0
134.44899 32.0
134.492844 48.0
134.615875 68.0
134.715668 128.0
134.767639 140.0
134.816162 108.0
134.957169 208.0
134.9776 148.0
135.04451 3348.0
135.062027 628.0
135.299576 120.0
135.783859 120.0
135.825607 44.0
135.906799 36.0
136.051895 2924.0
136.079956 372.0
136.18306 36.0
136.394485 112.0
136.506088 216.0
136.655762 260.0
136.68985 120.0
136.897018 88.0
136.957581 184.0
137.012482 196.0
137.060181 9376.0
137.113266 136.0
137.146301 76.0
137.185928 60.0
137.230225 64.0
137.248886 48.0
137.283859 68.0
137.33284 96.0
137.388809 40.0
137.442474 48.0
137.636215 60.0
138.064438 1204.0
138.318863 60.0
138.513214 56.0
138.569427 120.0
138.700668 160.0
138.73349 88.0
138.986771 132.0
139.061218 376.0
139.092392 112.0
139.11586 108.0
139.32016 192.0
139.639832 172.0
139.658646 144.0
139.776276 136.0
140.051834 160.0
140.308578 208.0
140.421753 184.0
140.860779 44.0
141.033112 592.0
141.475601 100.0
141.985031 156.0
142.03009 148.0
142.241272 168.0
142.359985 176.0
142.440735 48.0
143.251877 204.0
143.387695 40.0
144.051544 320.0
144.991302 132.0
145.064941 1168.0
145.180695 112.0
145.403809 52.0
145.439804 164.0
145.568146 156.0
145.692886 112.0
145.737595 200.0
145.778442 96.0
145.831314 136.0
145.975555 132.0
146.062057 368.0
146.305176 204.0
146.33165 96.0
146.485779 44.0
146.69783 252.0
146.714706 116.0
147.043808 1980.0
147.06842 780.0
147.177933 164.0
147.685425 108.0
147.762833 144.0
147.876572 108.0
148.007294 120.0
148.05278 4012.0
148.138077 192.0
148.159866 68.0
148.268906 220.0
148.383926 160.0
148.472549 192.0
148.496796 148.0
148.540466 40.0
148.872971 104.0
149.059631 4152.0
149.145065 52.0
149.197021 96.0
149.239883 100.0
149.400391 48.0
149.687592 96.0
149.794754 140.0
149.940948 144.0
150.067535 4980.0
150.098694 180.0
150.162796 44.0
150.228653 132.0
150.282333 164.0
150.338455 60.0
150.438522 48.0
150.563049 48.0
150.758484 44.0
150.800018 88.0
150.836685 56.0
150.875793 92.0
150.895355 84.0
150.929596 64.0
151.038956 288.0
151.066238 1188.0
151.09346 176.0
151.166855 104.0
151.188889 36.0
151.458191 60.0
151.833191 128.0
152.065933 488.0
152.117798 220.0
152.260208 156.0
152.606674 84.0
152.924011 144.0
153.341537 196.0
154.105209 60.0
154.40184 92.0
154.441406 220.0
154.495819 204.0
155.06575 216.0
155.673126 188.0
155.842041 160.0
155.861923 68.0
155.891739 112.0
155.946411 144.0
156.03093 176.0
156.152771 192.0
156.379166 180.0
157.068497 140.0
157.21904 52.0
157.508667 128.0
157.688553 136.0
157.721054 164.0
158.036758 612.0
158.061111 696.0
158.163773 152.0
158.194992 152.0
158.213837 96.0
158.356567 68.0
158.945251 140.0
158.98082 120.0
159.044678 4180.0
159.111328 32.0
159.166565 44.0
159.277069 44.0
159.605515 156.0
159.666641 40.0
159.784866 224.0
159.804993 36.0
159.855316 100.0
160.013885 36.0
160.051117 3084.0
160.10202 88.0
160.187653 44.0
160.2733 40.0
160.301025 104.0
160.3741 56.0
160.444687 40.0
160.896271 156.0
160.941711 100.0
160.992218 148.0
161.056992 784.0
161.081528 176.0
161.209457 56.0
161.295395 76.0
161.502731 52.0
161.99379 168.0
162.029251 144.0
162.066269 348.0
162.188904 188.0
162.254807 132.0
162.363846 140.0
162.767319 80.0
162.800339 88.0
162.967987 68.0
163.040894 312.0
163.075592 12776.0
163.113235 176.0
163.148422 68.0
163.212601 100.0
163.334061 52.0
163.424255 104.0
163.48671 96.0
163.512161 64.0
163.776947 140.0
163.942535 48.0
164.046387 108.0
164.078598 1692.0
164.12352 64.0
164.319916 72.0
164.365845 92.0
164.552155 52.0
164.682388 68.0
164.863785 40.0
164.90979 116.0
165.040161 136.0
165.086716 1028.0
165.160355 184.0
165.239655 80.0
165.352249 84.0
165.736359 36.0
165.846558 148.0
165.960327 136.0
166.086044 3792.0
166.285141 116.0
166.367279 44.0
166.88623 176.0
166.91452 64.0
167.022537 48.0
167.091309 344.0
167.130585 92.0
167.924011 112.0
168.052979 124.0
168.089432 156.0
168.313675 40.0
168.983093 148.0
169.073669 144.0
169.115082 180.0
169.423218 64.0
170.006592 188.0
171.051407 336.0
171.423843 156.0
171.577621 40.0
172.054367 188.0
172.19603 240.0
172.423325 200.0
173.001373 168.0
173.024933 40.0
173.057739 280.0
173.900452 164.0
174.066238 268.0
174.157761 88.0
174.244446 156.0
175.06308 460.0
175.457687 84.0
175.615891 92.0
175.956299 144.0
175.985336 176.0
176.047638 9312.0
176.101532 48.0
176.188705 104.0
176.211945 60.0
176.297028 68.0
176.318176 108.0
176.402756 44.0
176.587845 120.0
176.722748 156.0
177.050873 1368.0
177.109253 40.0
177.24025 84.0
177.273514 76.0
177.451096 68.0
177.634079 64.0
177.665909 44.0
177.883514 32.0
178.054428 248.0
178.098587 176.0
178.141098 104.0
178.178284 112.0
178.369614 72.0
178.502548 108.0
179.069122 408.0
179.11467 116.0
179.346481 120.0
179.7892 76.0
179.853256 164.0
180.065445 228.0
180.074371 108.0
180.084778 208.0
180.095352 256.0
181.077805 180.0
181.592377 112.0
182.110382 60.0
182.357559 208.0
182.612976 76.0
182.820129 196.0
183.342575 56.0
183.361435 124.0
183.64183 72.0
185.093033 116.0
185.250107 104.0
185.374741 128.0
186.104935 184.0
186.204865 184.0
186.998734 144.0
188.031662 84.0
188.179428 120.0
188.487717 148.0
188.711838 144.0
188.892334 116.0
188.911484 164.0
189.092651 148.0
189.598724 104.0
189.927719 232.0
189.957901 160.0
190.084793 208.0
190.26799 204.0
190.899948 144.0
190.946686 148.0
190.976944 136.0
191.03392 208.0
191.070312 14300.0
191.12825 72.0
191.227325 64.0
191.320908 56.0
191.41452 76.0
191.433792 48.0
191.453064 52.0
191.505402 80.0
191.665176 44.0
191.786438 76.0
192.073425 1740.0
192.575531 112.0
192.724701 32.0
192.84906 212.0
193.071426 768.0
193.310913 100.0
193.382858 56.0
193.413315 112.0
193.543427 76.0
194.008865 52.0
194.075821 228.0
196.654175 108.0
197.100998 196.0
198.932632 136.0
199.609726 128.0
200.085236 60.0
200.710709 72.0
200.958908 176.0
201.066101 408.0
201.597061 64.0
202.077377 156.0
202.964264 56.0
204.245071 48.0
205.085022 196.0
206.080383 612.0
206.220978 116.0
206.309601 116.0
207.08461 192.0
207.606033 116.0
207.709869 88.0
207.870544 124.0
207.919327 120.0
208.097031 9680.0
208.143234 180.0
208.180557 208.0
208.226517 148.0
208.249481 36.0
208.286819 84.0
208.395157 136.0
208.453461 148.0
208.508057 60.0
208.608658 84.0
208.74379 56.0
208.766785 40.0
209.099792 1092.0
209.313538 64.0
210.059967 80.0
210.094589 156.0
210.412048 128.0
210.561386 72.0
210.634399 68.0
211.203827 96.0
214.082855 160.0
214.607361 76.0
217.118286 180.0
220.044037 44.0
221.013474 148.0
224.101379 148.0
225.581619 120.0
226.096069 140.0
229.997238 140.0
230.794769 100.0
230.930862 112.0
231.000427 116.0
231.548264 44.0
232.090683 48.0
233.104507 124.0
234.9496 84.0
235.154037 132.0
240.108887 108.0
240.803299 44.0
242.328323 68.0
244.891098 88.0
245.127869 156.0
245.960556 112.0
246.419617 120.0
247.085541 128.0
249.04158 152.0
249.468918 144.0
252.204971 116.0
253.461349 88.0
259.430878 64.0
259.7323 72.0
259.770813 32.0
260.438446 92.0
261.515564 96.0
265.544495 104.0
266.355927 180.0
270.470917 72.0
274.152618 152.0
275.128937 164.0
275.617737 48.0
275.753235 56.0
276.156708 1028.0
276.629761 56.0
277.160553 400.0
278.157867 172.0
279.869995 48.0
291.108063 100.0
316.517029 40.0
324.387146 80.0
324.986053 64.0
329.479218 68.0
331.643127 84.0
357.307953 100.0
362.871063 48.0
367.644714 68.0
368.977783 56.0
373.706665 60.0
374.453461 56.0
374.877228 92.0
380.369171 40.0
381.382965 40.0
384.053986 36.0
387.356873 40.0
404.972198 44.0
406.407318 60.0
428.03302 44.0
429.269196 108.0
433.539459 48.0
436.224823 56.0
436.886017 48.0
439.135315 116.0
482.208649 76.0
483.69574 116.0
485.448212 56.0
554.352905 132.0
575.650146 44.0
576.323669 48.0
576.586487 72.0
581.221924 52.0
582.278015 48.0
609.340698 116.0
636.264832 72.0
640.685364 48.0
652.146667 184.0
656.448486 180.0
656.565796 80.0
668.11615 40.0
669.27417 100.0
682.281128 160.0
687.886353 116.0
696.710205 164.0
704.09491 204.0
731.560852 80.0
738.067383 196.0
746.858215 208.0
747.641663 144.0
782.647888 156.0
797.03418 180.0
798.895142 64.0
806.100647 132.0
818.26709 108.0
823.039307 144.0
823.776001 140.0
824.730286 132.0
839.115967 148.0
846.592896 220.0
850.570129 140.0
863.177551 104.0
866.525513 112.0
869.005554 116.0
869.281311 164.0
870.261536 132.0
877.462952 176.0
879.775513 148.0
881.122009 212.0
883.711548 176.0
884.789673 120.0
886.073853 184.0
887.336182 164.0
889.667664 196.0
891.170227 64.0
892.31134 280.0
892.465942 188.0
902.602417 172.0
905.037659 124.0
908.243835 156.0
911.185303 160.0
911.293396 256.0
921.125122 204.0
923.458252 176.0
925.085876 184.0
932.254944 208.0
947.049622 220.0
948.8573 220.0
950.249512 148.0
951.618164 132.0
953.043091 168.0
955.213257 160.0
955.397827 132.0
955.510437 108.0
958.198914 52.0
960.165283 172.0
961.442261 144.0
961.775574 52.0
963.041321 72.0
966.571289 164.0
967.239685 172.0
968.8125 176.0
969.463074 184.0
973.780945 180.0
976.38501 176.0
978.127136 164.0
979.135742 128.0
983.506348 232.0
984.043213 152.0
985.435242 176.0
985.629639 144.0
987.899109 184.0
990.014648 140.0
990.785034 116.0
991.693665 112.0
994.710693 44.0
996.154907 176.0
999.50592 248.0
999.587708 208.0
1000.851501 160.0
1001.999207 184.0
1002.465454 156.0
1006.755066 164.0
1009.2005 60.0
1011.389343 188.0
1011.85144 248.0
1012.376953 100.0
1019.939514 184.0
1022.019348 96.0
1023.171082 212.0
1023.731384 48.0
1023.954285 128.0
1024.024292 160.0
1024.654907 188.0
1025.011719 52.0
1028.781128 48.0
1029.074707 172.0
1033.350464 172.0
1034.163208 176.0
1051.342285 124.0
1051.387451 240.0
1051.684326 168.0
1053.631958 164.0
1053.718384 88.0
1055.353638 160.0
1056.10376 80.0
1056.453125 160.0
1056.795898 136.0
1057.488403 144.0
1057.792603 256.0
1059.39856 132.0
1059.832642 188.0
1062.043213 180.0
1062.776245 144.0
1064.392456 192.0
1066.315308 184.0
1066.65979 68.0
1066.91333 184.0
1067.173462 88.0
1069.3396 64.0
1070.276978 196.0
1070.706787 152.0
1072.381104 172.0
1072.961304 144.0
1073.098267 156.0
1076.164673 152.0
1079.229004 172.0
1079.372925 172.0
1082.265015 192.0
1082.323853 188.0
1084.249756 220.0
1084.374268 52.0
1084.741333 60.0
1085.626465 160.0
1087.437134 176.0
1088.599121 192.0
1089.223145 212.0
1091.332642 88.0
1092.851929 220.0
1093.75354 120.0
1094.124634 184.0
1094.668701 76.0
1094.872803 112.0
1095.762085 144.0
1096.790039 204.0
1099.692139 80.0
1100.352295 212.0
1100.840942 204.0
1101.032349 188.0
1101.910889 184.0
1103.252441 124.0
1108.024048 136.0
1109.210205 160.0
1110.622559 144.0
1112.12207 44.0
1113.370239 136.0
1113.635864 116.0
1115.104248 164.0
1115.576172 104.0
1116.021606 144.0
1116.134521 60.0
1116.413818 136.0
1117.138794 164.0
1117.870728 156.0
1118.403076 144.0
1122.373657 108.0
1122.980469 196.0
1124.942139 116.0
1125.269287 132.0
1125.50293 72.0
1126.224243 188.0
1126.324463 144.0
1126.812134 84.0
1126.932373 220.0
1127.199585 124.0
1127.553833 184.0
1127.807739 168.0
1129.974365 224.0
1134.36084 144.0
1135.480591 248.0
1138.413208 232.0
1141.558105 168.0
1143.387939 136.0
1143.542725 200.0
1145.084473 192.0
1149.371948 144.0
1149.614868 172.0
1153.775513 140.0
1154.248779 176.0
1155.351196 136.0
1155.682739 180.0
1157.449341 148.0
1159.311401 184.0
1160.600098 156.0
1160.756104 192.0
1163.992798 120.0
1164.549683 52.0
1165.453125 116.0
1166.739502 192.0
1166.805664 124.0
1168.451416 36.0
1168.628296 212.0
1169.444946 176.0
1170.302734 196.0
1171.038086 160.0
1172.312134 212.0
1172.632446 176.0
1173.505005 108.0
1175.6604 116.0
1177.414917 64.0
1181.413452 112.0
1182.775146 116.0
1182.870972 236.0
1183.309204 152.0
1183.439209 248.0
1183.713135 40.0
1186.39209 140.0
1187.365723 148.0
1188.374023 232.0
1189.677979 160.0
1190.103638 192.0
1191.930786 208.0
1192.569824 172.0
1192.672974 244.0
1193.02356 120.0
1193.188477 80.0
1193.621704 236.0
1194.330078 128.0
1196.091553 244.0
1197.702759 196.0
1197.771606 172.0
1198.412354 196.0
1199.060059 136.0
1200.57666 236.0
1201.397461 96.0
1201.58374 216.0
1201.790771 176.0
1201.859741 160.0
1202.460083 36.0
1203.260864 160.0
1204.047974 120.0
1205.526367 120.0
1205.630005 168.0
1206.155273 52.0
1206.74292 212.0
1206.888062 112.0
1207.939331 136.0
1208.132935 176.0
1208.804077 176.0
1209.461548 188.0
1211.005615 156.0
1211.310425 168.0
1211.989258 72.0
1214.138184 36.0
1214.519653 240.0
1215.296631 168.0
1216.191895 136.0
1217.108154 124.0
1217.18457 212.0
1220.005371 156.0
1220.651978 108.0
1222.96167 40.0
1223.518555 268.0
1224.138184 148.0
1224.388916 176.0
1225.68457 180.0
1227.734009 244.0
1228.208252 216.0
1229.282715 180.0
1229.443237 208.0
1229.764282 140.0
1230.811401 212.0
1232.802124 152.0
1232.865112 92.0
1233.899536 124.0
1235.382202 96.0
1235.927856 128.0
1236.788574 180.0
1237.054565 160.0
1238.744507 220.0
1239.225586 76.0
1239.540894 64.0
1240.956787 148.0
1241.908325 236.0
1241.980591 60.0
1242.934692 220.0
1243.032959 424.0
1244.022583 172.0
1244.471924 192.0
1244.640381 132.0
1246.136475 212.0
1247.506836 160.0
1248.245117 184.0
1248.88501 124.0
1249.103149 172.0
1250.580688 176.0
1251.467651 116.0
1251.650757 208.0
1252.284546 80.0
1254.377197 200.0
1254.969482 144.0
1255.921509 208.0
1257.007935 52.0
1257.064331 184.0
1257.212524 212.0
1257.438354 220.0
1257.650146 136.0
1257.911255 180.0
1258.257202 124.0
1260.842407 208.0
1261.033325 88.0
1261.125122 48.0
1261.414917 108.0
1261.817871 204.0
1261.994629 140.0
1262.616943 164.0
1262.878662 172.0
1263.494019 116.0
1264.711182 128.0
1265.072144 148.0
1265.62439 160.0
1266.615845 148.0
1266.87793 196.0
1267.132935 160.0
1267.990356 88.0
1268.45105 164.0
1268.755859 216.0
1269.30896 136.0
1269.443604 184.0
1271.58606 132.0
1272.111206 160.0
1272.52124 136.0
1273.027222 164.0
1273.226074 188.0
1273.758789 192.0
1274.710815 180.0
1277.049683 128.0
1277.099487 56.0
1279.255493 188.0
1280.17395 80.0
1280.914673 144.0
1281.135498 60.0
1281.320679 112.0
1281.463257 156.0
1281.819458 88.0
1282.368164 204.0
1282.731689 212.0
1283.601562 128.0
1284.015137 144.0
1284.065063 148.0
1284.157715 196.0
1285.427612 212.0
1285.984253 160.0
1286.333984 140.0
1286.462524 176.0
1286.812256 148.0
1286.955078 156.0
1287.997803 104.0
1288.083496 156.0
1288.647827 184.0
1289.012207 124.0
1289.569702 52.0
1290.098633 188.0
1290.734863 128.0
1291.278442 224.0
1291.751099 144.0
1292.158203 172.0
1294.248169 188.0
1295.931396 212.0
1296.93457 152.0
1297.400513 188.0
1297.916748 196.0
1299.810425 216.0
1301.633667 184.0
1302.100464 180.0
1302.696533 168.0
1305.650635 164.0
1306.744019 140.0
1307.333984 256.0
1308.269775 216.0
1309.630615 180.0
1310.920288 120.0
1312.484375 172.0
1314.283691 172.0
1316.193237 52.0
1316.417114 184.0
1318.87439 172.0
1319.00354 188.0
1319.328857 128.0
1320.319458 164.0
1322.583984 180.0
1322.772217 172.0
1323.090698 200.0
1326.444702 188.0
1326.647705 176.0
1327.532227 120.0
1328.424316 48.0
1329.026489 156.0
1329.699951 180.0
1330.238403 140.0
1330.877319 144.0
1331.400146 148.0
1332.039307 168.0
1332.101074 212.0
1333.543335 204.0
1333.601562 200.0
1333.797729 232.0
1334.430176 40.0
1334.546509 156.0
1335.193726 44.0
1335.579224 160.0
1335.797363 156.0
1337.158081 152.0
1338.264526 152.0
1338.737793 184.0
1341.141968 172.0
1341.273193 164.0
1341.593994 200.0
1342.009521 176.0
1343.584839 120.0
1344.073608 64.0
1344.438477 244.0
1344.730469 176.0
1346.760132 160.0
1347.855957 212.0
1348.287109 96.0
1348.396729 44.0
1348.579468 84.0
1349.237427 148.0
1349.310425 124.0
1350.897461 236.0
1352.843994 212.0
1354.059448 160.0
1355.356445 212.0
1355.436646 128.0
1355.656494 160.0
1356.741211 208.0
1357.83374 176.0
1358.039062 208.0
1360.504639 180.0
1362.377319 184.0
1362.597656 160.0
1363.736694 116.0
1364.111572 132.0
1364.170288 144.0
1364.98645 200.0
1365.059937 240.0
1365.302612 152.0
1365.846924 144.0
1366.501587 100.0
1368.061768 180.0
1368.74646 192.0
1371.317505 140.0
1371.47229 220.0
1371.936646 160.0
1372.932129 168.0
1373.618042 140.0
1374.709961 140.0
1375.706299 196.0
1377.655884 152.0
1377.759277 192.0
1378.431641 148.0
1379.348145 188.0
1379.895142 200.0
1380.198242 196.0
1381.330444 192.0
1381.625732 152.0
1382.824463 204.0
1383.187134 176.0
1384.385498 148.0
1384.586426 180.0
1386.786865 172.0
1389.256104 116.0
1389.322876 76.0
1389.975708 168.0
1390.228027 176.0
1390.354126 212.0
1391.326538 176.0
1391.833008 152.0
1392.507202 64.0
1392.841431 196.0
1392.923096 136.0
1393.703125 76.0
1394.52063 112.0
1395.093018 108.0
1395.457275 204.0
1396.200806 108.0
1396.394165 144.0
1396.974365 220.0
1397.465332 192.0
1399.31665 172.0
1399.558838 264.0
1399.78772 60.0
1400.234497 232.0
1400.912354 100.0
1401.359375 148.0
1401.471069 172.0
1403.386597 84.0
1403.625244 152.0
1403.938354 152.0
1405.892944 148.0
1407.034912 152.0
1408.386475 152.0
1409.200806 144.0
1409.768677 140.0
1409.955444 136.0
1410.575806 80.0
1412.333008 144.0
1414.772461 140.0
1414.892212 112.0
1415.588623 352.0
1415.663452 48.0
1415.970459 164.0
1416.487305 196.0
1416.614624 100.0
1416.921753 180.0
1416.981689 140.0
1417.101562 352.0
1417.274902 164.0
1417.498779 108.0
1417.948364 144.0
1418.143188 76.0
1418.976318 216.0
1419.732666 224.0
1419.845093 180.0
1420.032593 184.0
1421.510498 164.0
1422.088379 188.0
1424.258301 168.0
1424.829224 180.0
1425.054565 184.0
1425.74585 196.0
1426.926025 188.0
1427.166626 144.0
1427.42981 168.0
1428.249512 152.0
1429.97998 156.0
1430.190796 128.0
1430.855713 188.0
1430.981201 144.0
1431.101685 204.0
1431.53833 204.0
1432.088135 64.0
1432.344238 140.0
1432.886597 72.0
1433.245972 200.0
1433.700439 120.0
1435.049683 124.0
1435.170288 124.0
1435.675537 216.0
1435.781128 148.0
1435.99231 156.0
1436.557983 268.0
1436.859741 88.0
1437.999146 184.0
1438.331299 160.0
1439.848877 120.0
1440.075439 104.0
1441.541016 148.0
1441.699707 184.0
1441.971802 56.0
1442.243896 120.0
1442.908691 144.0
1443.030029 168.0
1443.672852 32.0
1444.792236 84.0
1445.178101 180.0
1445.442871 244.0
1445.624512 148.0
1446.562988 136.0
1446.828003 140.0
1447.198975 236.0
1448.016724 224.0
1448.221313 152.0
1448.365112 200.0
1448.789429 140.0
1448.948486 152.0
1449.456055 172.0
1449.546997 224.0
1450.085083 180.0
1450.67627 64.0
1451.351074 124.0
1451.457153 96.0
1452.617554 168.0
1452.822388 128.0
1454.112305 164.0
1455.554688 160.0
1457.537231 224.0
1457.620728 196.0
1457.917114 164.0
1458.099487 200.0
1459.716431 220.0
1460.70752 176.0
1461.959717 192.0
1462.092163 208.0
1462.45752 280.0
1462.845581 204.0
1462.929443 128.0
1463.393799 36.0
1463.477661 176.0
1463.550171 232.0
1463.850708 156.0
1464.178223 216.0
1464.437134 48.0
1464.817993 128.0
1464.924561 180.0
1465.214111 240.0
1467.935181 136.0
1468.140991 64.0
1469.033447 60.0
1469.781128 88.0
1470.933472 152.0
1471.002197 192.0
1471.338013 180.0
1472.177979 164.0
1473.13269 152.0
1473.400024 124.0
1473.595215 132.0
1474.209961 216.0
1474.271118 80.0
1474.508057 164.0
1474.592041 120.0
1474.798462 164.0
1475.180664 52.0
1475.838135 128.0
1476.189819 112.0
1476.96228 192.0
1477.467163 168.0
1477.750244 112.0
1478.515381 152.0
1480.191895 164.0
1480.306763 136.0
1480.567139 176.0
1480.659058 128.0
1481.080322 192.0
1481.356079 216.0
1482.214111 144.0
1482.352051 156.0
1482.428711 124.0
1482.681519 176.0
1482.827148 168.0
1483.877319 48.0
1484.130371 120.0
1484.406372 116.0
1485.142578 184.0
1485.587524 200.0
1485.748657 176.0
1487.191162 156.0
1487.851318 204.0
1489.241211 168.0
1489.671387 152.0
1490.908447 160.0
1491.085205 180.0
1492.330444 152.0
1492.8302 236.0
1493.714722 120.0
1494.137817 136.0
1495.692261 200.0
1496.115601 156.0
1496.292725 104.0
1497.817505 160.0
1498.341309 120.0
1499.481689 152.0
1500.01062 168.0
1500.12915 180.0
1500.298706 192.0
1500.637939 196.0
1501.509277 252.0
1502.134033 216.0
1504.086304 144.0
1504.418213 156.0
1504.64209 44.0
