>compound MLS001140973-01!4-[[[2-(6-oxobenzo[c]chromen-3-yl)oxyacetyl]amino]methyl]cyclohexane-1-carboxylic acid
>formula C23H23NO6
>ionization [M+H]+
>parentmass 410.16
#inchi InChI=1S/C23H23NO6/c25-21(24-12-14-5-7-15(8-6-14)22(26)27)13-29-16-9-10-18-17-3-1-2-4-19(17)23(28)30-20(18)11-16/h1-4,9-11,14-15H,5-8,12-13H2,(H,24,25)(H,26,27)/t14-,15-
#inchikey XHVFBECDJUGMAD
#Ion_Source LC-ESI
#Instrument qTof
#Compound_Source NIH Natural Product Library
#PI Dorrestein
#Data_Collector VVP/LMS
#Scan -1
#Precursor_MZ 410.16
#ExactMass 409.153
#Charge 1
#CAS_Number N/A
#Pubmed_ID N/A
#Smiles OC(=O)[C@H]1CC[C@H](CNC(=O)COc2ccc3c(c2)oc(=O)c4ccccc43)CC1
#INCHI_AUX N/A
#Library_Class 1
#SpectrumID CCMSLIB00000080002
#IonMode Positive
#UpdateWorkflowName UPDATE-SINGLE-ANNOTATED-GOLD
#LibraryQualityString Gold
#TaskID b1d8e8f6646f4e71acdff9ca3d919d08
##Scan# 1982
#SpectrumFile p2-G02_GG2_01_18050.mzXML
#LibraryName NIH_Natural_Products_Library.mgf
#MQScore -1
#Organism NIH_Natural_Products_Library
#TIC_Query 0
#RT_Query -1
#MZErrorPPM -1
#SharedPeaks 0
#MassDiff 0
#LibMZ -1
#SpecMZ 410.16
#SpecCharge 0
#internalFilename spec-00000.mgf

>collision 10
94.971596 100.0
95.08503 4124.0
95.117126 188.0
95.217155 116.0
95.307449 160.0
95.338547 36.0
95.534927 48.0
95.778259 52.0
95.862038 96.0
95.986794 152.0
96.087334 240.0
96.181892 32.0
96.217033 96.0
96.301003 52.0
96.316628 208.0
96.396729 80.0
96.514015 64.0
96.672462 136.0
96.729225 60.0
96.793831 164.0
96.903519 176.0
97.054443 112.0
97.091705 52.0
97.231003 236.0
97.283997 116.0
97.736038 152.0
97.980186 156.0
98.11026 188.0
98.163498 228.0
98.455566 152.0
99.185654 148.0
99.211426 132.0
99.441528 132.0
100.241013 144.0
100.574074 112.0
100.653931 120.0
100.721832 60.0
100.851715 180.0
101.215828 116.0
101.55452 160.0
101.576584 172.0
101.751175 180.0
102.028427 128.0
102.340279 220.0
102.616318 152.0
103.007835 132.0
103.05632 268.0
103.294884 220.0
103.349503 48.0
103.404144 64.0
104.07515 140.0
104.135162 200.0
104.20311 140.0
104.546761 148.0
104.709633 208.0
104.787041 108.0
104.840019 156.0
105.067795 328.0
105.260254 104.0
105.50544 96.0
106.055824 180.0
106.209885 184.0
106.248634 180.0
106.50341 144.0
106.71714 144.0
107.066963 184.0
107.085495 236.0
107.128754 172.0
107.184387 116.0
107.409111 36.0
107.448303 112.0
107.615486 140.0
108.039169 160.0
108.384933 84.0
108.569435 160.0
108.76239 188.0
108.928505 136.0
108.947205 164.0
108.992912 152.0
109.088875 140.0
109.381828 140.0
110.064026 244.0
110.095703 132.0
110.278755 136.0
110.845909 192.0
111.064064 144.0
111.104828 172.0
111.12059 40.0
111.666763 152.0
111.774055 192.0
111.801414 48.0
111.872978 144.0
111.910873 160.0
111.988792 80.0
112.009857 48.0
112.038506 708.0
112.110298 768.0
112.583549 56.0
112.78849 168.0
112.865189 72.0
112.913239 204.0
113.038055 192.0
113.11425 172.0
113.251884 160.0
113.858482 148.0
113.909454 116.0
114.007195 148.0
114.922852 124.0
115.055954 324.0
115.095741 76.0
115.228165 44.0
115.349983 156.0
115.367081 232.0
115.925728 152.0
115.998596 80.0
116.058632 328.0
116.118675 192.0
116.438461 152.0
117.251717 180.0
117.447922 176.0
117.560112 240.0
117.8862 136.0
118.35994 156.0
118.461731 232.0
118.891045 184.0
120.209831 172.0
120.460915 32.0
120.517723 180.0
120.672905 180.0
121.437172 208.0
121.516144 124.0
121.812523 68.0
121.902603 160.0
122.071869 236.0
122.911148 36.0
123.067863 236.0
123.518715 220.0
123.604996 124.0
123.702377 120.0
123.928276 192.0
123.946007 96.0
123.985893 88.0
124.052391 156.0
124.083832 196.0
124.112206 332.0
124.260857 236.0
124.602768 176.0
124.789467 228.0
124.87619 232.0
125.067337 128.0
125.115295 156.0
125.132103 52.0
125.466293 48.0
125.856743 64.0
126.098015 52.0
126.601395 220.0
126.634682 148.0
126.991364 164.0
127.085579 228.0
127.399902 168.0
127.678627 188.0
127.782097 140.0
127.887863 152.0
127.910378 220.0
128.020706 132.0
128.369995 136.0
128.451187 96.0
128.778488 116.0
128.871109 156.0
129.029373 168.0
129.073547 340.0
129.40036 40.0
129.985168 240.0
130.06459 144.0
130.091843 140.0
130.182663 156.0
130.418945 56.0
130.789703 128.0
131.051453 164.0
131.080093 132.0
131.322876 160.0
131.51683 196.0
131.573898 44.0
131.969162 152.0
132.053726 180.0
132.22995 156.0
132.330658 204.0
132.490982 92.0
132.564301 204.0
132.681198 184.0
132.944992 156.0
133.016144 116.0
133.055161 172.0
133.321609 212.0
133.404358 116.0
133.540024 48.0
134.011948 180.0
134.034988 144.0
134.175598 140.0
134.385468 176.0
134.490936 224.0
134.720245 184.0
135.078552 140.0
135.101685 220.0
135.824448 128.0
135.854599 204.0
135.931168 132.0
136.658463 200.0
136.684067 208.0
136.71431 84.0
136.942474 136.0
137.037979 192.0
137.149841 160.0
137.840668 144.0
138.034683 152.0
138.093353 360.0
139.055023 2176.0
139.180542 120.0
139.300308 64.0
139.330856 52.0
139.420151 228.0
139.874084 136.0
139.977676 128.0
140.029495 192.0
140.05629 360.0
140.083664 144.0
140.108368 1308.0
140.293396 60.0
141.069916 1244.0
141.105545 76.0
141.126831 48.0
141.197769 184.0
141.607224 152.0
142.039841 208.0
142.076035 144.0
142.245056 44.0
142.425522 152.0
142.760635 80.0
143.049744 948.0
143.286682 52.0
143.30574 80.0
143.410599 232.0
143.677673 96.0
143.856659 172.0
143.940231 52.0
144.051712 136.0
144.42778 136.0
144.647919 156.0
144.700592 224.0
145.064636 204.0
145.210999 148.0
145.345352 180.0
145.462952 168.0
145.804016 200.0
145.859299 128.0
146.054077 192.0
146.171967 96.0
146.229721 184.0
146.378983 116.0
146.531754 260.0
146.607834 76.0
146.651215 116.0
148.037994 104.0
148.103378 76.0
148.292191 156.0
148.644028 96.0
148.814606 188.0
148.860077 176.0
148.954788 184.0
149.090851 156.0
149.200241 160.0
149.273178 164.0
149.326691 208.0
150.088928 148.0
150.574554 124.0
150.613632 52.0
150.882446 148.0
150.941132 244.0
151.012054 172.0
151.052475 172.0
151.070755 160.0
151.141708 168.0
151.266525 188.0
151.68541 176.0
152.063156 568.0
152.104019 492.0
152.264481 76.0
152.429077 256.0
152.461014 232.0
152.82988 116.0
152.898788 112.0
153.016937 224.0
153.070236 3612.0
153.115952 904.0
153.147446 68.0
153.174545 96.0
153.218887 192.0
153.396332 128.0
153.425903 152.0
153.470291 164.0
153.561539 156.0
153.892212 116.0
153.98111 232.0
154.030518 96.0
154.075058 920.0
154.117844 484.0
154.212967 248.0
154.388901 172.0
154.636307 68.0
154.799698 156.0
155.048828 288.0
155.171371 140.0
155.578247 128.0
156.058167 336.0
156.139816 72.0
156.336349 124.0
156.4384 36.0
156.909256 204.0
157.028381 176.0
157.067352 444.0
157.368332 92.0
157.428268 32.0
157.613129 200.0
157.923126 184.0
158.003174 112.0
158.073227 164.0
158.423752 92.0
158.759628 168.0
158.789719 148.0
159.334442 168.0
159.922867 124.0
160.081482 132.0
160.562836 140.0
160.651108 152.0
160.946411 172.0
161.307693 92.0
161.469208 168.0
162.213928 100.0
162.317886 284.0
162.399048 132.0
162.665466 152.0
163.252396 80.0
163.382111 116.0
163.524612 240.0
163.654449 156.0
163.896423 108.0
164.102875 128.0
164.312012 112.0
164.32988 72.0
164.692688 168.0
164.743469 108.0
164.825226 128.0
164.968353 124.0
165.723358 176.0
165.877121 60.0
166.213104 144.0
166.346558 172.0
166.590515 160.0
166.675308 76.0
166.767822 104.0
166.793274 196.0
166.986374 184.0
167.049545 6968.0
167.130432 88.0
167.215363 148.0
167.24881 36.0
167.283478 60.0
167.416168 32.0
167.444504 72.0
167.477982 92.0
167.965149 64.0
168.054108 1052.0
168.354889 96.0
168.482193 180.0
168.59256 208.0
168.835571 156.0
168.902817 208.0
168.970078 104.0
169.019241 176.0
169.06488 3804.0
169.337662 152.0
169.495697 60.0
169.518295 160.0
169.887192 80.0
169.985794 216.0
170.037689 272.0
170.069733 676.0
170.117493 320.0
170.177872 56.0
170.224609 56.0
170.333694 100.0
170.694962 192.0
170.806793 88.0
171.044434 1264.0
171.07222 184.0
171.129501 172.0
171.46553 52.0
171.739304 84.0
171.807129 72.0
171.987183 160.0
172.044617 128.0
172.203903 144.0
172.227554 68.0
172.470413 52.0
172.50177 156.0
172.907196 72.0
173.053802 152.0
173.247604 112.0
174.031799 40.0
174.281326 244.0
174.962524 92.0
175.370834 144.0
175.96965 248.0
176.077927 44.0
176.506042 48.0
176.640915 196.0
176.839371 172.0
176.987625 144.0
177.445999 48.0
178.05899 148.0
178.335297 192.0
178.548004 120.0
178.662384 140.0
179.04834 296.0
179.144226 56.0
179.328094 192.0
179.773483 136.0
180.056473 128.0
180.101303 1412.0
180.735474 228.0
181.068192 896.0
181.103806 464.0
181.960373 172.0
182.006012 200.0
182.065338 168.0
182.116119 140.0
182.277313 168.0
182.960495 208.0
183.045197 268.0
183.555954 160.0
184.052078 888.0
184.103867 204.0
184.409058 168.0
185.006866 132.0
185.053177 364.0
185.199127 152.0
185.258011 168.0
185.326447 88.0
185.467377 60.0
185.540558 100.0
186.020737 188.0
186.118484 188.0
186.477066 56.0
187.631256 88.0
187.674881 152.0
187.71579 48.0
188.045883 156.0
189.555511 124.0
190.331802 228.0
190.779648 200.0
190.848373 180.0
191.145447 80.0
191.638336 116.0
192.104263 148.0
192.399551 236.0
192.634277 176.0
192.880219 156.0
193.242493 120.0
193.37532 228.0
193.397476 80.0
193.488815 32.0
193.585739 160.0
193.965302 180.0
194.128891 192.0
194.173264 172.0
194.250931 216.0
194.739456 80.0
195.003403 140.0
195.043823 3728.0
195.287003 156.0
195.430756 196.0
195.740646 76.0
196.047974 956.0
196.088058 192.0
196.618774 240.0
196.660645 128.0
196.856079 144.0
196.923096 180.0
197.060471 8056.0
197.127045 56.0
197.159988 76.0
197.283569 88.0
197.356262 72.0
197.459732 52.0
197.535248 44.0
197.703125 120.0
197.845886 124.0
198.002686 64.0
198.06514 796.0
198.111923 132.0
198.266037 116.0
198.47908 204.0
198.526764 88.0
198.717499 224.0
198.905533 56.0
199.036026 276.0
199.041306 156.0
199.124542 156.0
199.250946 32.0
199.703537 212.0
200.044006 144.0
200.370697 176.0
200.587692 100.0
200.680725 152.0
200.91481 140.0
201.284561 272.0
201.779022 44.0
201.801636 192.0
202.220322 184.0
203.078812 44.0
204.078445 140.0
204.522232 112.0
204.966522 224.0
205.023514 104.0
205.513992 172.0
205.753738 180.0
205.819397 224.0
206.073608 124.0
207.035965 128.0
207.533356 212.0
207.582092 208.0
207.688217 256.0
208.072754 52.0
208.860153 140.0
209.058487 160.0
210.145004 164.0
210.618454 56.0
210.83226 84.0
210.927643 184.0
211.041794 472.0
211.26059 208.0
211.407761 172.0
211.517746 240.0
211.549591 220.0
211.621964 132.0
211.933823 192.0
212.007233 160.0
212.047806 8196.0
212.123169 124.0
212.160843 144.0
212.213028 160.0
212.244934 88.0
212.297134 64.0
212.425995 84.0
212.555313 136.0
212.627853 200.0
213.008224 48.0
213.054565 14948.0
213.170929 36.0
213.197083 36.0
213.339508 68.0
213.41449 120.0
213.45871 56.0
213.496521 156.0
213.520889 84.0
213.696503 80.0
213.886398 76.0
214.058929 1832.0
214.119324 52.0
214.244568 96.0
214.266998 92.0
214.576813 88.0
214.658463 96.0
214.681793 68.0
214.740112 76.0
214.807205 64.0
215.054581 244.0
215.076309 180.0
215.110687 68.0
215.239151 40.0
215.46405 48.0
215.554626 44.0
215.610153 128.0
215.82428 160.0
215.958084 204.0
216.02829 152.0
216.069244 112.0
216.168716 48.0
216.892136 72.0
217.452347 32.0
217.525742 200.0
218.848709 156.0
219.12558 68.0
220.536163 80.0
221.189865 80.0
221.240189 100.0
221.660767 188.0
222.422989 172.0
222.604477 120.0
222.809036 168.0
223.050873 4060.0
223.169052 156.0
223.531555 180.0
224.054199 948.0
224.166733 284.0
224.311874 220.0
224.410263 228.0
224.44902 148.0
224.493759 60.0
224.705536 140.0
224.82489 184.0
224.953247 152.0
224.995041 248.0
225.055496 27144.0
225.176376 44.0
225.218994 40.0
225.242722 68.0
225.275757 88.0
225.383316 48.0
225.413193 48.0
225.49054 100.0
225.512543 116.0
225.557373 220.0
225.637375 76.0
225.673248 60.0
225.70314 60.0
225.798843 100.0
225.879608 36.0
225.963364 40.0
226.005508 240.0
226.057007 4560.0
226.178833 56.0
226.265656 56.0
226.301575 32.0
226.334518 88.0
226.547165 88.0
226.690979 36.0
226.726944 100.0
226.792877 136.0
226.823853 72.0
226.903793 104.0
227.060226 480.0
227.176712 52.0
227.209702 96.0
227.257706 96.0
227.335724 56.0
227.476791 188.0
227.563858 76.0
227.590881 112.0
227.654999 68.0
227.692978 136.0
227.729019 160.0
227.759064 124.0
227.861206 108.0
228.045853 404.0
228.083588 132.0
228.438416 44.0
228.781479 56.0
228.802551 108.0
228.847717 84.0
229.305603 100.0
230.455353 124.0
230.96022 120.0
231.662491 164.0
231.793243 156.0
232.080734 96.0
233.118881 152.0
233.200943 108.0
233.662476 88.0
233.967499 132.0
234.332977 164.0
235.040283 144.0
235.473862 260.0
235.513565 52.0
235.550217 80.0
237.05246 156.0
237.309952 108.0
237.509277 60.0
237.717911 96.0
237.966537 132.0
238.325912 84.0
238.562561 52.0
239.085449 136.0
239.245514 120.0
239.319397 144.0
239.356354 80.0
239.46106 60.0
240.595825 184.0
240.910828 44.0
241.235306 48.0
241.906586 92.0
242.665619 68.0
243.062637 108.0
244.815903 120.0
245.030823 68.0
249.047531 160.0
249.446594 32.0
249.764191 108.0
252.062531 80.0
252.084656 160.0
252.166824 120.0
252.223709 188.0
252.274292 88.0
252.514603 204.0
252.856308 180.0
252.989243 84.0
253.049133 5464.0
253.102631 168.0
253.277405 72.0
253.362946 88.0
253.385117 36.0
253.518204 36.0
253.581589 88.0
253.606949 68.0
253.664001 44.0
253.695694 40.0
253.892288 52.0
254.052414 1520.0
254.180969 76.0
254.307907 40.0
254.53331 64.0
255.060623 244.0
255.20694 72.0
256.062988 160.0
256.391113 88.0
256.83432 100.0
262.430511 172.0
262.946655 44.0
263.082214 108.0
263.550537 48.0
264.637329 92.0
265.272308 192.0
265.953522 152.0
267.591919 160.0
268.135925 80.0
269.091705 88.0
269.326843 132.0
270.076111 12660.0
270.147308 32.0
270.206207 108.0
270.243347 68.0
270.274933 92.0
270.324005 64.0
270.359985 36.0
270.549835 68.0
270.715912 128.0
270.752869 84.0
270.900269 100.0
271.079834 3288.0
271.175507 164.0
271.342682 76.0
271.831421 72.0
272.083649 432.0
272.300873 168.0
272.402679 108.0
272.474976 44.0
272.596527 84.0
272.695129 64.0
272.717865 48.0
272.874725 108.0
272.887726 68.0
272.900726 148.0
272.951569 84.0
272.987732 92.0
273.069946 212.0
273.918335 80.0
275.657898 40.0
277.064117 108.0
278.145203 96.0
280.057129 128.0
281.194092 92.0
282.074463 1100.0
283.077393 372.0
283.149963 100.0
284.090179 232.0
284.904266 112.0
290.718689 48.0
291.231354 88.0
293.951569 220.0
305.30304 100.0
307.148987 156.0
309.515015 56.0
310.166656 164.0
325.429657 52.0
327.022186 168.0
332.512329 36.0
332.544983 112.0
335.131409 304.0
336.162292 120.0
337.152191 104.0
338.070129 128.0
338.64859 40.0
340.001465 76.0
343.249786 108.0
345.554626 44.0
346.143158 124.0
353.293152 64.0
363.906433 120.0
364.016571 48.0
364.153839 2772.0
364.791626 44.0
365.158417 632.0
365.468597 120.0
366.147949 160.0
366.176666 72.0
366.839661 56.0
367.205719 176.0
367.591034 76.0
368.568573 44.0
382.071381 148.0
385.757446 100.0
394.89502 52.0
395.706238 40.0
401.8349 100.0
403.872284 56.0
412.24292 188.0
423.873322 20.0
431.082367 152.0
431.752625 80.0
432.240784 76.0
434.328827 56.0
449.073395 92.0
468.900146 72.0
479.771576 100.0
485.10495 128.0
506.571991 40.0
507.289001 56.0
551.835022 120.0
553.219849 32.0
562.862976 84.0
564.871582 48.0
569.578613 48.0
577.715881 56.0
591.507751 76.0
595.119568 84.0
616.393311 88.0
632.642639 108.0
653.552979 84.0
670.657959 36.0
684.110596 140.0
719.476501 60.0
721.629578 56.0
796.68634 28.0
839.434387 176.0
843.82843 44.0
858.268494 200.0
863.354736 136.0
871.185425 76.0
877.594604 128.0
891.826111 132.0
896.915283 148.0
934.136597 176.0
935.986816 176.0
950.056458 140.0
967.16272 184.0
967.224609 196.0
970.768494 44.0
976.202148 116.0
978.796997 84.0
1002.576721 104.0
1023.622009 172.0
1041.111206 80.0
1042.280396 80.0
1043.276611 156.0
1061.587891 152.0
1064.982056 160.0
1073.709961 164.0
1077.502441 200.0
1088.596436 160.0
1089.025024 164.0
1095.411987 172.0
1109.275757 208.0
1113.841064 204.0
1129.539062 48.0
1148.380005 96.0
1153.139893 112.0
1158.939331 240.0
1166.248169 208.0
1173.429932 176.0
1173.838989 196.0
1176.895996 96.0
1177.039307 176.0
1186.474487 188.0
1187.688232 188.0
1190.275513 104.0
1195.947144 172.0
1208.506958 212.0
1222.008789 108.0
1227.434814 112.0
1233.781372 120.0
1239.983154 184.0
1242.037476 160.0
1250.420288 208.0
1250.799805 176.0
1257.276978 148.0
1260.730347 216.0
1265.165161 128.0
1271.970459 136.0
1276.19751 148.0
1276.254395 200.0
1276.574341 180.0
1277.449097 172.0
1284.900757 140.0
1285.421631 116.0
1287.806152 208.0
1292.338379 160.0
1295.072998 36.0
1295.459839 44.0
1300.378662 60.0
1301.900635 160.0
1306.119507 184.0
1309.876953 192.0
1315.313965 188.0
1326.547729 172.0
1333.014526 184.0
1351.638184 128.0
1354.412842 140.0
1354.947632 144.0
1355.672974 180.0
1361.593262 164.0
1364.260498 60.0
1374.64563 164.0
1384.077637 136.0
1384.884888 64.0
1385.958984 180.0
1388.160522 144.0
1395.942749 196.0
1402.047119 188.0
1402.225952 136.0
1409.180786 232.0
1410.720215 96.0
1411.467896 140.0
1413.435181 100.0
1420.485107 164.0
1424.411011 180.0
1440.078003 160.0
1441.536133 136.0
1441.604126 172.0
1451.581177 108.0
1453.674927 188.0
1454.11499 100.0
1454.486938 76.0
1454.540039 152.0
1455.724487 164.0
1455.823242 100.0
1456.719482 204.0
1458.999268 220.0
1461.311279 220.0
1464.142944 140.0
1477.600098 184.0
1480.37854 164.0
1484.999878 128.0
1491.856812 160.0
1492.387329 236.0
1500.749023 128.0
1501.242432 168.0
1502.414917 128.0
1503.78833 196.0
