>compound MLS001048889-01!7-(2-chloroethyl)-1,3-dimethylpurine-2,6-dione
>formula C9H11ClN4O2
>ionization [M+H]+
>parentmass 243.064987
#inchi InChI=1S/C9H11ClN4O2/c1-12-7-6(8(15)13(2)9(12)16)14(4-3-10)5-11-7/h5H,3-4H2,1-2H3
#inchikey QCIARNIKNKKHFH
#Ion_Source LC-ESI
#Instrument qTof
#Compound_Source NIH Natural Product Library
#PI Dorrestein
#Data_Collector VVP/LMS
#Scan -1
#Precursor_MZ 243.065
#ExactMass 242.057
#Charge 1
#CAS_Number N/A
#Pubmed_ID N/A
#Smiles Cn1c(=O)n(C)c2ncn(CCCl)c2c1=O
#INCHI_AUX N/A
#Library_Class 1
#SpectrumID CCMSLIB00000080471
#IonMode Positive
#UpdateWorkflowName UPDATE-SINGLE-ANNOTATED-GOLD
#LibraryQualityString Gold
#TaskID b1d8e8f6646f4e71acdff9ca3d919d08
##Scan# 1512
#SpectrumFile p2-D09_GD9_01_18021.mzXML
#LibraryName NIH_Natural_Products_Library.mgf
#MQScore -1
#Organism NIH_Natural_Products_Library
#TIC_Query 0
#RT_Query -1
#MZErrorPPM -1
#SharedPeaks 0
#MassDiff 0
#LibMZ -1
#SpecMZ 243.065
#SpecCharge 0
#internalFilename spec-00000.mgf

>collision 10
95.047676 76.0
96.056602 1432.0
96.197899 148.0
97.039734 672.0
97.494514 96.0
97.998253 172.0
98.075111 36.0
98.120453 176.0
98.262451 148.0
100.468582 232.0
100.532433 148.0
101.450493 144.0
102.072891 196.0
102.459328 204.0
102.586288 40.0
102.858612 228.0
103.004555 160.0
103.323395 200.0
103.442795 140.0
103.58049 56.0
103.848045 164.0
104.018898 156.0
104.380112 132.0
104.447227 144.0
105.431992 196.0
105.609863 160.0
106.600075 76.0
106.803612 156.0
107.087646 168.0
108.810173 132.0
109.02597 352.0
109.063606 172.0
109.184196 184.0
109.81942 172.0
110.036438 160.0
110.074074 176.0
111.43129 220.0
111.847672 192.0
112.051941 128.0
112.132011 172.0
112.598267 164.0
112.737701 144.0
113.184036 168.0
113.412834 128.0
113.894485 144.0
114.66256 84.0
115.508072 160.0
115.555138 124.0
116.026306 156.0
116.857452 288.0
116.945686 36.0
118.112991 164.0
120.028496 204.0
120.279381 120.0
121.042381 168.0
121.062088 220.0
122.039642 272.0
122.067818 308.0
122.595444 124.0
122.985809 144.0
123.014511 40.0
123.044312 288.0
123.07412 184.0
123.12822 20.0
123.690918 204.0
123.710838 180.0
123.763977 168.0
123.888 152.0
123.934525 64.0
123.983276 188.0
124.007774 220.0
124.050781 14132.0
124.1185 40.0
124.435783 92.0
124.466866 32.0
125.01815 60.0
125.052727 1160.0
125.557266 108.0
125.800476 72.0
125.970184 144.0
126.051834 188.0
126.070724 56.0
126.417351 44.0
126.506874 88.0
126.777885 240.0
128.213913 56.0
129.071732 184.0
129.343201 160.0
130.016083 984.0
130.079895 136.0
130.257019 44.0
130.586594 192.0
130.632095 56.0
131.019089 132.0
131.039597 124.0
131.117065 92.0
131.278931 40.0
131.529892 64.0
132.010971 112.0
133.056778 148.0
133.212936 92.0
133.428955 164.0
134.041199 152.0
134.232529 128.0
135.045425 200.0
135.401855 60.0
136.048767 132.0
137.078384 328.0
138.994232 172.0
139.193756 200.0
139.412216 148.0
141.052612 56.0
142.058777 320.0
143.064209 108.0
143.185638 40.0
146.113129 200.0
148.929321 140.0
149.048355 156.0
149.301178 60.0
149.398468 176.0
149.773331 100.0
150.065155 176.0
151.108643 196.0
151.186951 64.0
151.801819 148.0
152.322128 156.0
153.000854 156.0
155.28157 144.0
155.683624 124.0
155.832657 204.0
156.031479 120.0
157.016586 296.0
158.009201 108.0
158.046722 188.0
159.055862 208.0
160.044678 228.0
163.749542 76.0
164.987091 184.0
165.99588 140.0
167.927231 224.0
168.619156 200.0
168.926849 136.0
170.048782 136.0
171.01796 180.0
171.21611 124.0
171.862579 128.0
172.019165 168.0
174.100677 92.0
175.057892 192.0
178.601685 72.0
178.665527 168.0
180.070267 108.0
180.511215 220.0
180.885773 108.0
180.909866 100.0
180.958054 192.0
180.987503 200.0
181.011597 160.0
181.072372 10588.0
181.12944 84.0
181.247314 92.0
181.432251 104.0
181.464767 92.0
181.633362 164.0
181.670929 96.0
181.711166 88.0
181.783615 152.0
181.877548 48.0
181.992981 44.0
182.035934 96.0
182.074203 648.0
182.167542 88.0
182.401321 180.0
183.069031 276.0
183.085831 320.0
183.267883 64.0
183.329865 96.0
183.496506 136.0
184.079788 172.0
185.961304 136.0
186.044312 1256.0
186.569763 132.0
187.032196 108.0
188.039505 644.0
192.05748 156.0
193.07338 240.0
194.085754 236.0
199.965088 144.0
201.06987 136.0
201.326767 144.0
207.091629 316.0
211.077545 112.0
231.034805 172.0
233.427841 108.0
240.730347 124.0
243.064987 796.0
244.069199 160.0
245.064102 532.0
245.141525 184.0
246.064774 196.0
247.706573 44.0
248.631516 144.0
250.867828 140.0
265.010925 60.0
310.990814 40.0
313.713379 72.0
336.406189 96.0
390.066193 84.0
405.887695 84.0
722.310486 52.0
780.405884 160.0
803.774231 160.0
904.455872 180.0
1021.780945 140.0
1043.275146 64.0
1082.195801 88.0
1087.223389 140.0
1089.705322 140.0
1094.816162 188.0
1095.033569 160.0
1101.444458 216.0
1103.572388 184.0
1113.717896 100.0
1127.743774 180.0
1130.056763 172.0
1136.368042 160.0
1136.448486 212.0
1142.898682 88.0
1143.033203 224.0
1145.753296 200.0
1158.114746 172.0
1177.98999 172.0
1217.761719 124.0
1223.533081 192.0
1229.450684 132.0
1246.818237 144.0
1254.736816 148.0
1255.202148 152.0
1256.055542 120.0
1267.494141 148.0
1270.592407 64.0
1284.285645 128.0
1292.422241 168.0
1301.884155 156.0
1303.557861 244.0
1306.656738 152.0
1312.274292 164.0
1338.015381 144.0
1342.649536 188.0
1348.687378 224.0
1364.932861 160.0
1365.256348 116.0
1374.707642 112.0
1374.840454 192.0
1381.837769 180.0
1388.355957 120.0
1388.519165 180.0
1390.974121 136.0
1391.071411 104.0
1391.219971 116.0
1400.909424 152.0
1404.890137 132.0
1405.352661 140.0
1408.883911 76.0
1411.275513 280.0
1415.166016 188.0
1418.852051 168.0
1422.362671 224.0
1444.115112 172.0
1456.317627 136.0
1471.455811 176.0
1480.776855 156.0
1482.508179 216.0
1494.794556 172.0
