>compound Rofecoxib (Vioxx)
>formula C17H14O4S
>ionization [M+H]+
>parentmass 315.069916
#inchi InChI=1S/C17H14O4S/c1-22(19,20)14-9-7-12(8-10-14)15-11-21-17(18)16(15)13-5-3-2-4-6-13/h2-10H,11H2,1H3
#inchikey RZJQGNCSTQAWON
#Ion_Source LC-ESI
#Instrument qTof
#Compound_Source Commercial
#PI Dorrestein
#Data_Collector Garg_Neha
#Scan -1
#Precursor_MZ 315.069
#ExactMass 314.061
#Charge 1
#CAS_Number N/A
#Pubmed_ID N/A
#Smiles C1=C(C=CC(=C1)C2=C(C(OC2)=O)C3=CC=CC=C3)S(C)(=O)=O
#INCHI_AUX N/A
#Library_Class 1
#SpectrumID CCMSLIB00000078553
#IonMode Positive
#UpdateWorkflowName UPDATE-SINGLE-ANNOTATED-GOLD
#LibraryQualityString Gold
#TaskID 77f51c88eb8b467eb4a01dd2d0cb90d2
##Scan# 1325
#SpectrumFile Plate9_1_20_GC4_01_15750.mzXML
#LibraryName FDALibrary_2_04302014.mgf
#MQScore -1
#Organism FDALibrary_2_04302014
#TIC_Query 0
#RT_Query -1
#MZErrorPPM -1
#SharedPeaks 0
#MassDiff 0
#LibMZ -1
#SpecMZ 315.069
#SpecCharge 0
#internalFilename spec-00000.mgf

>collision 10
52.341908 160.0
54.746269 152.0
55.021999 208.0
55.393192 164.0
56.354263 192.0
61.005032 152.0
63.5145 148.0
64.565712 160.0
67.66301 216.0
68.212578 140.0
70.67215 156.0
71.544884 196.0
73.840782 168.0
75.135979 224.0
78.654282 144.0
81.87986 184.0
83.49604 140.0
83.945854 172.0
86.381317 144.0
89.613045 160.0
92.842735 168.0
93.023094 208.0
100.510559 152.0
102.199707 180.0
104.026718 152.0
105.036034 160.0
105.947754 188.0
106.197838 148.0
107.061028 168.0
109.569466 200.0
109.681992 248.0
112.100624 220.0
112.140663 152.0
115.055298 224.0
115.104401 196.0
116.91153 196.0
119.056091 140.0
121.0252 172.0
124.251953 152.0
127.134865 196.0
128.000336 176.0
130.03949 168.0
131.048279 460.0
132.046738 152.0
133.845901 148.0
134.053223 148.0
140.573761 184.0
140.751038 196.0
148.83046 192.0
149.323761 144.0
151.055557 200.0
151.410461 184.0
152.062485 316.0
152.148529 168.0
153.065628 184.0
154.746735 156.0
156.039734 152.0
156.759079 148.0
159.046707 484.0
159.137863 160.0
161.413162 148.0
161.802811 236.0
163.053345 156.0
165.068741 348.0
166.075958 216.0
166.101974 220.0
167.083298 168.0
169.720322 144.0
175.06424 144.0
176.059967 216.0
177.071732 136.0
177.423767 184.0
178.077545 2772.0
179.082138 856.0
180.077179 176.0
181.109177 144.0
182.09082 144.0
183.013199 208.0
183.527832 156.0
183.700439 240.0
187.861832 180.0
189.070175 1436.0
189.515869 148.0
190.078552 1772.0
190.143845 156.0
191.084961 6532.0
192.033981 144.0
192.093033 6676.0
193.096268 1036.0
194.072861 592.0
194.100815 184.0
197.161957 224.0
198.458008 140.0
200.704605 204.0
202.697388 140.0
204.095581 220.0
205.066269 188.0
205.789246 140.0
206.00058 140.0
206.07225 4584.0
206.152008 168.0
206.2892 160.0
206.578018 212.0
207.077774 2516.0
208.082047 376.0
208.309464 152.0
209.097473 196.0
210.463699 216.0
214.665421 184.0
216.995834 168.0
217.054474 152.0
218.072128 2564.0
218.107956 172.0
218.743805 196.0
219.076859 600.0
220.09407 144.0
220.968948 164.0
221.815918 168.0
222.067139 1060.0
223.068665 328.0
224.078186 196.0
224.163864 224.0
225.456009 176.0
225.925446 144.0
228.066498 156.0
233.180542 168.0
234.425247 176.0
235.06868 180.0
235.135818 152.0
235.167572 148.0
236.083298 3288.0
237.019287 128.0
237.083954 1116.0
238.093246 144.0
238.753983 152.0
239.11702 156.0
239.264771 172.0
240.843628 240.0
244.362152 152.0
246.676147 148.0
247.001358 140.0
247.392517 148.0
248.640015 320.0
250.052261 192.0
255.366501 148.0
260.130707 144.0
264.246124 152.0
268.155853 196.0
268.499329 248.0
268.680847 160.0
268.716736 180.0
268.778717 144.0
269.064117 13988.0
269.34024 232.0
269.560425 104.0
270.066284 1740.0
270.472443 128.0
271.07132 1096.0
271.313507 184.0
271.976135 152.0
272.063202 208.0
275.053772 244.0
277.150513 228.0
278.49408 168.0
279.481415 156.0
287.074707 272.0
288.073914 140.0
290.043793 148.0
294.849701 188.0
294.924866 188.0
295.735504 212.0
296.99173 120.0
297.058716 16012.0
297.122894 276.0
297.157501 212.0
298.013824 140.0
298.059906 2936.0
299.057251 816.0
299.629883 100.0
300.05249 472.0
300.139709 148.0
300.719269 152.0
302.74173 144.0
305.556763 208.0
310.089111 156.0
314.046906 168.0
314.72229 152.0
314.756317 104.0
314.85968 124.0
314.915558 132.0
314.973022 152.0
315.069916 40932.0
315.205688 124.0
315.322601 132.0
315.651367 96.0
315.722443 204.0
316.071869 6704.0
316.219574 124.0
317.070038 1880.0
317.110138 216.0
318.069214 140.0
318.263428 120.0
320.630066 160.0
333.081451 340.0
356.088043 124.0
1355.562012 172.0
1860.987793 176.0
1913.208618 208.0
1919.351074 188.0
1921.723511 168.0
1930.493408 164.0
