>compound MLS001142758-01!methyl 1-[1-[(2S)-3-methyl-2-[(4-methylphenyl)sulfonylamino]butanoyl]piperidine-4-carbonyl]piperidine-4-carboxylate
>formula C25H37N3O6S
>ionization [M+H]+
>parentmass 508.248
#inchi InChI=1S/C25H37N3O6S/c1-17(2)22(26-35(32,33)21-7-5-18(3)6-8-21)24(30)28-13-9-19(10-14-28)23(29)27-15-11-20(12-16-27)25(31)34-4/h5-8,17,19-20,22,26H,9-16H2,1-4H3/t22-/m0/s1
#inchikey QEIGNBWTKVBBBG
#Ion_Source LC-ESI
#Instrument qTof
#Compound_Source NIH Natural Product Library
#PI Dorrestein
#Data_Collector VVP/LMS
#Scan -1
#Precursor_MZ 508.248
#ExactMass 507.24
#Charge 1
#CAS_Number N/A
#Pubmed_ID N/A
#Smiles COC(=O)C1CCN(CC1)C(=O)C2CCN(CC2)C(=O)[C@@H](NS(=O)(=O)c3ccc(C)cc3)C(C)C
#INCHI_AUX N/A
#Library_Class 1
#SpectrumID CCMSLIB00000079817
#IonMode Positive
#UpdateWorkflowName UPDATE-SINGLE-ANNOTATED-GOLD
#LibraryQualityString Gold
#TaskID b1d8e8f6646f4e71acdff9ca3d919d08
##Scan# 2058
#SpectrumFile p1-E11_GE11_01_17931.mzXML
#LibraryName NIH_Natural_Products_Library.mgf
#MQScore -1
#Organism NIH_Natural_Products_Library
#TIC_Query 0
#RT_Query -1
#MZErrorPPM -1
#SharedPeaks 0
#MassDiff 0
#LibMZ -1
#SpecMZ 508.248
#SpecCharge 0
#internalFilename spec-00000.mgf

>collision 10
94.967369 168.0
95.068253 560.0
95.176956 224.0
95.21579 56.0
95.401779 172.0
95.429543 172.0
95.581253 124.0
95.764244 156.0
95.832428 188.0
95.869453 144.0
95.998108 168.0
96.011765 84.0
96.074181 152.0
96.697502 176.0
96.775803 40.0
96.916824 204.0
97.165825 172.0
97.218796 124.0
97.354256 124.0
97.625443 176.0
97.715919 140.0
97.839912 176.0
98.001404 172.0
98.161064 112.0
98.309708 272.0
98.387962 192.0
98.462997 156.0
98.652679 176.0
98.694199 132.0
98.761436 164.0
98.97715 64.0
99.03656 92.0
99.062309 140.0
99.101929 48.0
99.173271 184.0
99.262482 148.0
99.339836 240.0
99.443016 132.0
99.497307 240.0
99.663437 136.0
99.814507 136.0
99.94976 192.0
100.069183 160.0
100.415916 216.0
100.513664 56.0
100.561562 120.0
100.779228 88.0
100.859161 140.0
100.875153 160.0
101.091156 132.0
101.261322 156.0
101.40934 144.0
101.742493 104.0
101.816856 44.0
101.907486 152.0
102.039902 148.0
102.094193 164.0
102.172638 176.0
102.258919 132.0
102.410164 216.0
102.53508 132.0
102.557251 76.0
102.573372 192.0
102.647972 136.0
102.76899 88.0
102.827515 172.0
103.055695 76.0
103.108238 152.0
103.221443 140.0
103.330666 124.0
103.373154 124.0
103.425774 192.0
103.512825 204.0
103.595863 124.0
103.755966 108.0
103.804626 128.0
103.830986 168.0
104.042007 148.0
104.094803 164.0
104.15979 100.0
104.17643 204.0
104.190262 224.0
104.334549 132.0
104.440292 60.0
104.513527 188.0
104.55423 128.0
104.583008 140.0
104.601036 228.0
104.625465 148.0
104.658043 72.0
104.698769 112.0
104.719131 152.0
104.765984 188.0
104.823036 228.0
104.968506 120.0
105.020782 156.0
105.098305 132.0
105.169731 200.0
105.308571 220.0
105.480202 212.0
105.525177 132.0
105.631523 168.0
105.668343 144.0
105.9058 196.0
106.077919 144.0
106.133278 268.0
106.262489 144.0
106.334312 164.0
106.391785 212.0
106.539642 236.0
106.613617 144.0
106.683495 152.0
106.788361 140.0
106.872704 136.0
107.054092 176.0
107.077736 216.0
107.150658 216.0
107.202164 200.0
107.653938 104.0
107.676651 224.0
107.720024 176.0
107.932899 80.0
108.003212 168.0
108.048721 196.0
108.306213 196.0
108.323059 92.0
108.367554 124.0
108.481537 100.0
108.543739 104.0
108.759491 188.0
108.884064 236.0
108.906914 144.0
109.058739 164.0
109.073135 276.0
109.102242 196.0
109.125107 256.0
109.168777 196.0
109.307861 176.0
109.328957 224.0
109.703865 136.0
109.937469 40.0
110.059082 420.0
110.321777 152.0
110.472343 160.0
110.725609 108.0
110.777031 196.0
111.052391 164.0
111.132278 144.0
111.161652 64.0
111.195229 184.0
111.233009 232.0
111.289696 172.0
111.335892 204.0
111.461929 96.0
111.514465 48.0
111.531281 112.0
111.556503 140.0
111.60276 196.0
111.651123 168.0
111.689796 196.0
111.768921 92.0
111.816635 140.0
111.867844 100.0
111.907837 136.0
111.994179 96.0
112.023666 176.0
112.042343 176.0
112.076218 33272.0
112.110268 40.0
112.135345 48.0
112.157951 44.0
112.22599 136.0
112.243263 104.0
112.302544 156.0
112.386292 60.0
112.426384 60.0
112.509605 56.0
112.603714 176.0
112.660751 172.0
112.726242 200.0
112.850174 76.0
112.895363 92.0
113.013817 52.0
113.078835 3068.0
113.106934 136.0
113.12175 64.0
113.164085 156.0
113.189499 156.0
113.246674 40.0
113.286919 100.0
113.445854 220.0
113.570961 188.0
113.613388 184.0
113.647331 156.0
113.700386 160.0
113.723732 156.0
113.749199 84.0
113.784843 192.0
113.804031 92.0
113.871086 148.0
113.916954 124.0
113.938065 124.0
113.97644 100.0
114.021065 132.0
114.075531 224.0
114.107002 168.0
114.18264 128.0
114.210289 184.0
114.323051 124.0
114.352844 76.0
114.423088 172.0
114.57856 164.0
114.64035 164.0
114.941017 132.0
115.193695 96.0
115.30191 152.0
115.35321 124.0
115.385277 168.0
115.417343 140.0
115.436592 104.0
115.669792 160.0
115.922516 152.0
116.021111 36.0
116.068275 248.0
116.125549 164.0
116.345978 184.0
116.465302 88.0
116.577019 112.0
116.658691 124.0
116.772652 132.0
116.910339 112.0
117.020111 116.0
117.091652 144.0
117.12133 152.0
117.198883 176.0
117.274307 204.0
117.336823 216.0
117.388565 188.0
117.522301 152.0
117.582726 352.0
117.677704 156.0
117.958542 204.0
118.090439 212.0
118.254875 168.0
118.321976 128.0
118.354454 176.0
118.501732 36.0
118.620926 140.0
118.690308 152.0
118.892044 208.0
118.926765 32.0
118.976974 156.0
119.060997 484.0
119.256912 92.0
119.2743 140.0
119.59404 268.0
119.657166 176.0
119.811569 160.0
119.859726 120.0
119.977417 104.0
120.043556 72.0
120.084259 204.0
120.276268 232.0
120.474983 200.0
120.499008 88.0
120.623573 64.0
120.831329 184.0
120.958252 128.0
121.006409 100.0
121.067719 160.0
121.186005 188.0
121.692657 96.0
121.927696 172.0
121.954071 172.0
122.018608 212.0
122.0979 220.0
122.231163 116.0
122.253166 152.0
122.308189 156.0
122.323601 132.0
122.380836 128.0
122.592407 160.0
122.649597 176.0
122.85247 272.0
122.960587 72.0
123.021263 188.0
123.044464 144.0
123.088036 144.0
123.367004 132.0
123.473137 196.0
123.535072 212.0
123.563828 160.0
123.59259 48.0
123.725388 136.0
123.838318 60.0
123.971245 148.0
124.141937 116.0
124.319405 88.0
124.532532 284.0
124.627037 184.0
124.941536 124.0
125.081734 164.0
125.237595 36.0
125.422531 104.0
125.442596 48.0
126.089874 148.0
126.183762 164.0
126.26873 164.0
126.63578 140.0
126.777481 144.0
126.837433 164.0
126.86396 140.0
126.960747 32.0
127.059441 136.0
127.077385 148.0
127.104309 68.0
127.710876 160.0
127.80986 204.0
127.956154 160.0
128.050735 152.0
128.077759 164.0
128.12056 112.0
128.25351 176.0
128.287323 92.0
128.327896 112.0
128.370743 160.0
128.756638 56.0
129.824799 144.0
129.920059 236.0
129.994934 104.0
130.017578 180.0
130.065292 156.0
130.08345 76.0
130.12886 116.0
130.147018 168.0
130.253754 136.0
130.296921 124.0
130.333267 148.0
130.37645 172.0
130.483276 188.0
130.706177 120.0
131.157104 152.0
131.268814 124.0
131.287048 156.0
131.380569 160.0
131.435333 224.0
131.517487 128.0
131.70015 172.0
131.926361 180.0
131.978943 44.0
131.997238 220.0
132.045258 44.0
132.079575 312.0
132.219131 212.0
132.363358 136.0
132.464127 200.0
132.936432 180.0
132.968552 128.0
132.993805 156.0
133.051193 144.0
133.099396 120.0
133.131546 152.0
133.262482 164.0
133.464737 108.0
133.486588 216.0
133.687866 156.0
133.713181 200.0
133.883545 104.0
133.91449 156.0
134.187698 196.0
134.358368 212.0
134.972733 180.0
135.028229 180.0
135.058304 164.0
135.114014 224.0
135.637161 164.0
135.695114 108.0
135.82962 152.0
136.184753 212.0
136.259079 40.0
136.454315 176.0
136.512436 136.0
136.582214 436.0
136.938324 160.0
136.95929 152.0
136.991898 128.0
137.038483 52.0
137.092087 92.0
137.134033 160.0
137.285568 116.0
137.325211 108.0
137.37886 152.0
137.887878 76.0
137.971222 196.0
138.030487 136.0
138.051529 156.0
138.084274 144.0
138.128906 172.0
138.407211 128.0
138.430618 184.0
138.884995 164.0
139.020264 2096.0
139.134018 168.0
139.448792 228.0
139.500488 52.0
139.56398 80.0
139.730957 136.0
139.841553 188.0
139.992233 88.0
140.019989 396.0
140.197174 100.0
140.473038 136.0
140.600449 108.0
140.754028 128.0
140.871979 116.0
140.93576 132.0
141.030289 340.0
141.266754 200.0
141.354294 92.0
141.489197 160.0
141.524704 172.0
141.726044 160.0
141.839798 124.0
142.055954 128.0
142.085556 1200.0
142.212189 124.0
142.352249 148.0
143.077438 220.0
143.09288 196.0
143.194107 208.0
143.246521 124.0
143.487213 204.0
143.508789 152.0
143.575424 208.0
143.663681 176.0
143.759125 52.0
143.780594 132.0
143.814011 68.0
143.830719 200.0
143.849808 140.0
143.873688 148.0
143.895172 164.0
143.966812 136.0
143.995468 168.0
144.019348 204.0
144.043915 440.0
144.102112 49420.0
144.144043 164.0
144.152374 252.0
144.168869 92.0
144.224838 172.0
144.248734 72.0
144.275024 68.0
144.315674 48.0
144.353928 240.0
144.393387 80.0
144.494385 316.0
144.517181 80.0
144.580002 64.0
144.589172 96.0
144.639694 160.0
144.669754 76.0
144.71524 60.0
144.742538 80.0
144.916428 56.0
144.976334 220.0
144.999634 216.0
145.104782 4560.0
145.206482 56.0
145.27124 56.0
145.355392 104.0
145.391205 112.0
145.451218 72.0
145.482422 56.0
145.516022 40.0
145.66011 120.0
145.703354 84.0
145.744202 48.0
145.852341 132.0
145.942474 204.0
146.059692 640.0
146.106842 916.0
146.148804 88.0
146.1698 60.0
146.193863 244.0
146.220581 144.0
146.24057 188.0
146.278442 92.0
146.298416 120.0
146.355148 64.0
146.386444 172.0
146.441833 156.0
146.494827 52.0
146.559875 60.0
146.598434 84.0
146.632172 96.0
146.788864 36.0
146.829865 68.0
147.056427 256.0
147.11853 320.0
147.218399 60.0
147.397156 220.0
147.670334 204.0
147.692093 144.0
148.040604 188.0
148.215012 48.0
148.278015 32.0
148.721863 60.0
148.8311 104.0
148.865097 188.0
148.884521 176.0
149.048416 128.0
149.431442 132.0
149.555542 104.0
150.128082 104.0
150.586884 260.0
150.640625 88.0
151.024384 200.0
151.111786 192.0
151.626678 92.0
151.967529 220.0
152.109863 168.0
152.154053 120.0
152.203156 108.0
152.348053 152.0
152.429138 100.0
152.59874 104.0
152.657745 252.0
152.9767 168.0
153.384033 116.0
153.647903 92.0
153.726852 168.0
153.791016 160.0
153.855209 164.0
154.030533 244.0
154.072525 132.0
154.112061 140.0
154.178772 100.0
154.243042 124.0
154.324615 128.0
154.383484 252.0
154.42601 116.0
154.445786 100.0
154.480423 84.0
154.55217 168.0
154.673431 132.0
154.70314 156.0
154.723938 208.0
154.757599 128.0
154.777405 120.0
154.80217 104.0
154.826935 124.0
154.881424 160.0
154.903717 112.0
154.921051 212.0
154.95929 200.0
154.984619 208.0
155.016403 50060.0
155.094513 36.0
155.124252 92.0
155.163422 148.0
155.179901 72.0
155.212357 68.0
155.228394 152.0
155.262787 152.0
155.307755 124.0
155.33255 56.0
155.359848 48.0
155.384644 84.0
155.402954 120.0
155.424026 488.0
155.477646 148.0
155.531265 136.0
155.5728 64.0
155.595596 60.0
155.661133 92.0
155.726974 252.0
155.794281 168.0
155.876495 88.0
155.898636 268.0
156.018021 4828.0
156.107452 56.0
156.134796 56.0
156.157181 68.0
156.244247 60.0
156.264145 76.0
156.386078 44.0
156.405991 44.0
156.446686 92.0
156.537949 96.0
156.580978 256.0
156.615143 160.0
156.819458 188.0
156.839401 64.0
156.929138 68.0
156.972153 192.0
157.012238 2252.0
157.034286 436.0
157.091248 104.0
157.121841 76.0
157.161102 68.0
157.207626 136.0
157.304764 92.0
157.330811 72.0
157.493118 68.0
157.598038 112.0
157.810501 56.0
157.858002 52.0
158.013535 312.0
158.053116 140.0
158.18074 40.0
158.383575 136.0
159.241364 184.0
159.263962 88.0
159.615799 104.0
159.648499 148.0
159.794388 128.0
159.895035 60.0
160.112167 468.0
160.381134 120.0
160.729156 84.0
160.870483 124.0
161.057846 180.0
161.368164 96.0
161.702072 56.0
161.848892 136.0
162.122528 160.0
162.502823 132.0
162.73378 48.0
162.797256 20.0
163.216537 108.0
163.330978 120.0
163.442917 56.0
163.730576 108.0
163.863937 124.0
163.908218 76.0
163.972595 240.0
164.196945 104.0
164.692093 232.0
164.906708 136.0
165.139374 148.0
165.164948 128.0
165.20076 96.0
165.262161 44.0
165.423386 84.0
166.123444 128.0
166.151184 108.0
166.61586 120.0
166.659531 48.0
166.88829 168.0
167.081177 140.0
167.768784 56.0
168.04216 120.0
168.202148 148.0
168.43454 60.0
168.742065 160.0
168.959305 100.0
169.219147 140.0
169.313919 176.0
169.345001 160.0
169.448624 48.0
169.469345 100.0
169.728546 92.0
170.045029 96.0
170.079071 708.0
170.121536 312.0
170.515106 116.0
170.567093 260.0
170.764694 140.0
170.842728 152.0
170.936401 160.0
171.040497 172.0
171.086212 336.0
172.041122 204.0
172.072815 136.0
172.098923 220.0
172.132874 100.0
172.35228 140.0
172.535233 144.0
172.631973 176.0
172.885727 128.0
173.068954 136.0
173.100388 152.0
173.27063 212.0
174.053665 428.0
174.343262 96.0
175.038284 80.0
175.076736 224.0
175.320145 64.0
176.035034 184.0
176.216095 204.0
176.301849 40.0
176.513321 116.0
176.965775 44.0
177.052948 192.0
177.668106 160.0
177.691971 156.0
177.875092 140.0
178.116714 128.0
179.114197 172.0
181.305069 176.0
181.358673 144.0
181.809235 160.0
182.169022 172.0
182.370544 136.0
183.595535 60.0
184.008377 108.0
184.036682 396.0
185.122375 196.0
185.187378 80.0
185.374298 164.0
185.479996 164.0
185.52066 88.0
185.775574 148.0
186.323944 152.0
187.134415 48.0
187.979401 140.0
188.094025 140.0
189.546234 188.0
190.061737 124.0
190.317001 152.0
190.459808 172.0
190.543411 104.0
190.88028 144.0
190.96553 164.0
191.009552 140.0
191.273697 136.0
191.571106 164.0
191.631714 196.0
192.083817 92.0
193.011765 212.0
193.127914 208.0
193.520874 104.0
193.961349 132.0
194.119385 60.0
194.446732 168.0
194.466156 164.0
194.774353 108.0
194.885483 184.0
194.977188 136.0
195.018875 184.0
195.95108 100.0
196.614731 64.0
196.849213 404.0
196.952545 76.0
197.657059 124.0
198.103653 204.0
198.152634 148.0
198.906998 204.0
199.08107 104.0
199.446304 160.0
199.496902 132.0
199.778122 56.0
199.949753 192.0
200.200302 84.0
200.780838 136.0
201.125046 48.0
201.344299 116.0
201.80304 128.0
201.876556 160.0
202.049545 128.0
202.50766 68.0
203.0672 276.0
203.258911 136.0
203.420685 152.0
203.514374 160.0
203.940491 168.0
203.977448 128.0
204.065567 160.0
204.108215 144.0
205.016281 156.0
205.073288 36.0
205.743622 208.0
206.895721 120.0
207.162048 240.0
207.959183 164.0
208.079742 112.0
208.573837 176.0
208.821106 72.0
208.845078 60.0
208.959183 152.0
208.990829 84.0
209.042633 172.0
209.131836 168.0
209.175018 180.0
209.195175 52.0
209.327606 148.0
209.970245 168.0
210.05101 152.0
210.091125 132.0
210.109665 180.0
210.198135 124.0
210.328018 96.0
210.431931 280.0
210.598145 208.0
210.983749 164.0
211.006866 144.0
211.061813 68.0
211.481277 212.0
211.585495 120.0
211.753433 40.0
212.124313 152.0
212.219986 124.0
212.257675 100.0
213.061646 156.0
213.616882 76.0
213.637253 64.0
216.155136 140.0
216.240005 168.0
216.661667 148.0
216.690964 168.0
216.715729 124.0
216.825745 144.0
216.954727 200.0
217.08223 316.0
217.122223 192.0
217.668625 100.0
218.083771 204.0
218.752548 32.0
218.852646 160.0
219.099152 648.0
219.176636 60.0
219.586395 84.0
220.103668 240.0
220.386383 208.0
221.116791 108.0
221.18486 140.0
221.258865 108.0
221.623169 80.0
221.955139 192.0
222.201309 112.0
222.367477 56.0
222.441681 176.0
222.581223 148.0
223.121872 124.0
223.152786 176.0
224.008789 128.0
224.285904 128.0
224.67952 104.0
224.852585 140.0
224.936157 168.0
225.210861 216.0
225.566437 112.0
225.788284 180.0
225.985123 72.0
226.089142 21888.0
226.146057 128.0
226.167664 52.0
226.189316 220.0
226.432892 68.0
226.622849 52.0
226.7547 72.0
226.780014 108.0
226.808655 76.0
226.941528 184.0
227.09259 3016.0
227.12648 76.0
227.156479 60.0
227.201248 52.0
227.267487 72.0
227.291489 76.0
227.327499 144.0
227.394836 64.0
227.573639 88.0
227.70166 132.0
227.792862 80.0
227.89801 108.0
227.955109 84.0
227.976135 60.0
228.024216 88.0
228.084137 1140.0
228.144455 208.0
228.30983 212.0
228.348923 56.0
228.595612 152.0
228.778625 84.0
228.812317 104.0
228.851456 200.0
228.902649 64.0
228.926743 128.0
229.094116 140.0
229.463074 44.0
229.698303 84.0
229.758621 56.0
230.105698 232.0
230.199295 88.0
230.434891 128.0
230.722 112.0
231.175705 40.0
231.417847 112.0
231.6147 92.0
231.814651 208.0
231.944977 144.0
232.339188 160.0
232.473022 180.0
233.274506 172.0
233.441727 204.0
233.636398 100.0
234.242172 104.0
235.022629 132.0
235.169113 196.0
235.32785 48.0
235.676041 84.0
236.165161 76.0
236.648666 96.0
236.774216 32.0
237.105087 40.0
237.159653 352.0
237.380981 64.0
237.878021 136.0
238.056091 112.0
238.085037 616.0
238.142914 3664.0
238.513855 60.0
238.68602 68.0
238.805954 60.0
238.989258 48.0
239.085922 176.0
239.144501 592.0
239.218277 44.0
239.658676 100.0
240.087143 160.0
240.151917 164.0
244.028992 168.0
244.766403 292.0
244.928345 196.0
245.118286 272.0
245.954193 80.0
246.088425 132.0
246.300781 48.0
246.638245 168.0
246.757034 168.0
246.900864 148.0
247.611282 76.0
248.997498 204.0
249.308517 156.0
250.091629 100.0
250.52301 196.0
253.156708 752.0
254.06366 140.0
254.085861 32.0
254.112915 164.0
254.15654 132.0
254.301651 96.0
254.349258 40.0
254.495285 68.0
254.727127 208.0
254.822433 44.0
254.911392 128.0
254.94812 116.0
254.968597 168.0
255.026871 316.0
255.096054 116.0
255.170059 35456.0
255.248077 48.0
255.284912 80.0
255.320679 48.0
255.347351 48.0
255.43129 88.0
255.502777 96.0
255.525055 204.0
255.550049 84.0
255.584442 72.0
255.623688 72.0
255.664383 76.0
255.692749 20.0
255.751419 88.0
255.816116 52.0
255.923538 220.0
256.039093 140.0
256.085297 132.0
256.113983 116.0
256.173035 8284.0
256.24057 156.0
256.298737 48.0
256.321045 96.0
256.362457 64.0
256.407074 60.0
256.534576 56.0
256.572845 152.0
256.601532 44.0
256.66095 164.0
256.80957 220.0
256.94278 60.0
257.105499 28.0
257.175812 516.0
257.402405 108.0
257.472656 72.0
257.533325 48.0
257.57486 84.0
257.61319 92.0
257.789978 136.0
257.852814 48.0
257.884796 80.0
257.970215 104.0
258.00946 84.0
258.050568 144.0
258.063477 124.0
258.078033 132.0
258.083893 184.0
258.137329 60.0
258.17572 116.0
258.694031 60.0
259.076355 124.0
259.145599 100.0
259.200073 108.0
259.228912 52.0
260.743622 80.0
260.936493 100.0
260.997589 88.0
261.715118 40.0
263.111145 152.0
264.650085 56.0
265.239685 104.0
266.018188 100.0
266.087158 220.0
266.141571 128.0
266.966919 64.0
267.59491 76.0
268.002045 120.0
269.195892 80.0
269.548676 40.0
269.976898 56.0
271.266907 160.0
271.352142 160.0
271.496429 108.0
271.594818 92.0
272.116577 128.0
273.132019 56.0
274.093689 160.0
274.515289 68.0
277.637024 160.0
278.609558 92.0
279.098114 96.0
280.55304 128.0
280.763092 164.0
281.148438 1564.0
281.630859 48.0
282.051849 164.0
282.108673 104.0
282.152557 500.0
282.279205 68.0
283.119141 152.0
283.156769 224.0
283.33017 68.0
284.057587 156.0
284.349518 88.0
284.517334 108.0
284.735596 112.0
285.954468 44.0
286.114227 92.0
287.209381 124.0
287.459045 96.0
288.678497 44.0
290.141998 408.0
290.181885 216.0
291.862549 36.0
292.563416 60.0
292.856262 60.0
293.330536 104.0
294.049561 128.0
294.281677 68.0
294.32608 144.0
295.016205 36.0
296.21048 156.0
297.750488 68.0
297.977203 148.0
300.659576 92.0
301.982758 36.0
302.273376 100.0
304.141357 72.0
307.196503 208.0
308.177521 124.0
309.211517 588.0
309.338593 36.0
309.674744 84.0
310.22879 128.0
311.024628 108.0
315.618561 132.0
316.158997 164.0
317.114197 260.0
317.159607 140.0
317.942352 56.0
318.911926 68.0
319.114563 192.0
322.21524 152.0
322.937317 104.0
323.202026 128.0
324.541626 76.0
325.36322 80.0
325.657684 104.0
327.131927 156.0
328.100983 140.0
329.515717 60.0
330.169952 40.0
330.937103 40.0
331.665253 96.0
332.626465 128.0
334.21463 164.0
334.287384 116.0
335.700806 56.0
336.242065 224.0
337.153961 456.0
337.205475 148.0
338.157318 96.0
339.159363 116.0
341.086395 116.0
342.131104 100.0
351.120422 152.0
351.187561 156.0
356.312195 108.0
356.409882 36.0
365.153473 144.0
367.767456 160.0
378.096375 176.0
379.582275 140.0
385.088959 60.0
386.238098 100.0
388.145325 180.0
388.423767 80.0
393.216125 48.0
409.164459 164.0
409.177216 132.0
409.186096 160.0
410.168304 112.0
411.285614 76.0
416.184082 140.0
416.996521 28.0
418.607513 104.0
425.08667 100.0
426.581665 160.0
435.299316 144.0
437.171936 1124.0
438.176788 136.0
439.178894 136.0
448.275635 104.0
449.228485 80.0
450.157013 104.0
452.596832 80.0
454.546661 156.0
458.906433 48.0
459.657135 32.0
462.238464 300.0
463.060028 52.0
464.242828 104.0
465.500183 48.0
470.222748 236.0
472.253387 72.0
476.224121 144.0
480.009705 84.0
482.90509 72.0
483.101898 60.0
491.696442 128.0
493.184845 48.0
494.613525 92.0
501.712128 88.0
503.666656 72.0
504.019592 32.0
504.207275 132.0
505.339325 120.0
506.068115 52.0
506.32785 160.0
507.268768 148.0
508.24054 728.0
509.233734 284.0
509.244537 36.0
509.258423 292.0
510.222626 144.0
510.263092 104.0
510.537354 56.0
510.80722 88.0
511.27063 148.0
519.12207 84.0
546.193604 100.0
549.81842 92.0
566.439514 48.0
579.885803 60.0
588.303467 72.0
593.150513 104.0
607.65387 92.0
649.249939 64.0
670.548889 112.0
682.980347 64.0
714.789856 124.0
726.072266 92.0
738.589233 132.0
757.543396 60.0
761.739807 136.0
770.117737 104.0
775.218567 140.0
779.463623 192.0
782.500488 196.0
784.372253 112.0
792.195435 176.0
792.329895 36.0
792.940674 144.0
801.950073 176.0
804.595642 104.0
812.070618 124.0
816.494873 108.0
823.739197 152.0
825.510925 176.0
834.025818 96.0
837.119812 280.0
838.369873 76.0
840.624634 108.0
841.559692 184.0
849.720337 172.0
850.839172 92.0
852.768982 76.0
857.337524 40.0
859.010864 160.0
862.239685 128.0
869.701355 196.0
876.476135 40.0
879.029358 156.0
882.709412 188.0
888.104553 88.0
896.040466 212.0
896.797241 88.0
902.695557 152.0
902.934814 140.0
903.29364 80.0
905.574158 140.0
905.939514 176.0
910.570129 164.0
911.693542 128.0
921.503235 168.0
922.911499 104.0
927.736755 192.0
932.459106 180.0
932.586731 212.0
934.819519 152.0
939.717651 112.0
939.760315 164.0
942.324646 204.0
947.684265 184.0
948.290955 176.0
960.082642 148.0
960.150513 220.0
961.557129 72.0
963.384827 148.0
968.295959 172.0
968.679993 168.0
972.468506 176.0
972.747864 172.0
975.493469 180.0
977.956665 20.0
989.567688 44.0
990.970642 208.0
991.766479 100.0
993.440674 156.0
995.58728 80.0
995.863586 136.0
996.209045 76.0
1001.977905 156.0
1003.704834 176.0
1005.395386 148.0
1008.509033 232.0
1009.299255 112.0
1009.760864 176.0
1010.532593 92.0
1014.015381 200.0
1014.186523 168.0
1014.966309 180.0
1015.251648 88.0
1016.10791 168.0
1022.093079 144.0
1022.691284 168.0
1025.321655 192.0
1027.636353 180.0
1028.299927 284.0
1029.340576 164.0
1030.228271 136.0
1030.362427 164.0
1031.646973 120.0
1032.925903 180.0
1033.629639 164.0
1033.872803 144.0
1034.000854 188.0
1034.941895 224.0
1039.422241 188.0
1042.523804 44.0
1042.800171 152.0
1046.106323 220.0
1046.756592 240.0
1048.321899 124.0
1052.992676 216.0
1058.016846 228.0
1059.227783 112.0
1060.724609 72.0
1061.210815 48.0
1063.422852 172.0
1063.916138 188.0
1067.63269 200.0
1068.836182 192.0
1070.046753 220.0
1070.450439 20.0
1073.500122 152.0
1074.047974 224.0
1077.651489 164.0
1081.21521 128.0
1082.779907 136.0
1083.3302 176.0
1085.427368 196.0
1085.919312 220.0
1086.785156 108.0
1088.012451 188.0
1088.071533 168.0
1093.843384 136.0
1097.090942 184.0
1097.315063 220.0
1097.486572 156.0
1103.600586 56.0
1104.486694 84.0
1106.657349 184.0
1107.46521 136.0
1108.969238 148.0
1111.708252 196.0
1111.86084 108.0
1113.560425 136.0
1113.613647 176.0
1113.832764 144.0
1115.567139 176.0
1116.43811 300.0
1116.597778 136.0
1117.64209 156.0
1118.241089 172.0
1119.745728 124.0
1120.338501 192.0
1122.624634 184.0
1125.106689 88.0
1125.16687 80.0
1125.514038 200.0
1130.186157 128.0
1132.087158 176.0
1132.957886 76.0
1133.748535 96.0
1133.862549 228.0
1135.256958 112.0
1135.947754 132.0
1136.531372 116.0
1138.914551 60.0
1139.310913 184.0
1140.480103 44.0
1142.205933 176.0
1143.008789 172.0
1143.230835 60.0
1144.368408 68.0
1146.112915 100.0
1146.995728 116.0
1148.195801 192.0
1150.989624 220.0
1151.387939 64.0
1153.191895 168.0
1154.36145 176.0
1156.966309 160.0
1158.266479 144.0
1158.754272 216.0
1158.849121 192.0
1163.277588 172.0
1164.248535 116.0
1167.911743 260.0
1168.224609 148.0
1169.878296 164.0
1170.443359 124.0
1171.090332 220.0
1174.443726 188.0
1176.93457 132.0
1178.710571 220.0
1178.819824 172.0
1179.605835 88.0
1181.034912 64.0
1185.361694 188.0
1185.409668 200.0
1187.809204 184.0
1189.984619 152.0
1192.354492 168.0
1193.392456 192.0
1194.362061 260.0
1194.829834 80.0
1195.511108 168.0
1196.089233 140.0
1196.213135 64.0
1197.521362 172.0
1198.933716 228.0
1199.87793 196.0
1199.933105 112.0
1201.650391 156.0
1202.871948 104.0
1203.051392 68.0
1209.009399 144.0
1211.10022 220.0
1211.162598 44.0
1211.231812 168.0
1212.104736 184.0
1213.560303 84.0
1214.364746 184.0
1214.607544 184.0
1216.015991 156.0
1218.147705 140.0
1218.572144 184.0
1219.321899 264.0
1219.481689 48.0
1219.905762 168.0
1220.169922 124.0
1220.443481 56.0
1220.906982 148.0
1221.539917 132.0
1223.293457 84.0
1223.620605 132.0
1224.379639 156.0
1224.93689 144.0
1225.891357 180.0
1226.2677 84.0
1228.645386 212.0
1228.812866 184.0
1229.294312 32.0
1229.63623 168.0
1231.046509 180.0
1231.228027 124.0
1231.276978 180.0
1231.48645 180.0
1232.967529 116.0
1234.199951 76.0
1234.627075 124.0
1234.939209 48.0
1236.807251 160.0
1237.325317 180.0
1241.059692 84.0
1242.034424 184.0
1242.455322 140.0
1242.574585 164.0
1242.657593 120.0
1244.897827 140.0
1245.333252 148.0
1246.197388 112.0
1247.279541 164.0
1247.546753 220.0
1247.856079 156.0
1250.064697 204.0
1250.289795 188.0
1252.000488 196.0
1254.931885 204.0
1255.220947 224.0
1255.53833 148.0
1256.166016 108.0
1257.697266 132.0
1258.071289 132.0
1258.35376 156.0
1258.452515 172.0
1258.996216 176.0
1259.639038 196.0
1260.988525 136.0
1262.253906 164.0
1262.494385 144.0
1262.968262 156.0
1263.074341 104.0
1266.28772 96.0
1267.093872 108.0
1267.825073 156.0
1271.434692 120.0
1271.619263 144.0
1272.392944 136.0
1274.587646 76.0
1275.881226 168.0
1277.516846 116.0
1277.965088 160.0
1283.242676 232.0
1285.596558 120.0
1288.41687 192.0
1291.69812 120.0
1293.157715 236.0
1293.966553 168.0
1294.210083 208.0
1295.642456 176.0
1296.760254 160.0
1297.684937 180.0
1297.928711 172.0
1298.244263 176.0
1299.018921 176.0
1299.5354 236.0
1300.331909 152.0
1300.575928 132.0
1302.428467 172.0
1302.888184 140.0
1303.010376 176.0
1304.346924 192.0
1306.274048 232.0
1306.446655 176.0
1307.209351 180.0
1309.066528 44.0
1310.961182 188.0
1311.407959 156.0
1314.848145 224.0
1316.920288 128.0
1317.396973 168.0
1317.700439 132.0
1318.505371 184.0
1318.834961 120.0
1319.521729 156.0
1320.085693 196.0
1321.365845 216.0
1322.43689 148.0
1324.268677 196.0
1324.55835 172.0
1325.942261 92.0
1326.145142 124.0
1326.268433 28.0
1327.493652 192.0
1328.813721 208.0
1330.816895 48.0
1331.012939 188.0
1332.022461 216.0
1332.124146 128.0
1332.371094 196.0
1332.552734 160.0
1332.63269 172.0
1333.010498 148.0
1333.126831 176.0
1333.271729 152.0
1333.39563 164.0
1334.406006 224.0
1334.915039 108.0
1335.0896 180.0
1336.617188 120.0
1337.133789 160.0
1338.662598 148.0
1340.002808 252.0
1340.338013 180.0
1340.789795 80.0
1342.699829 100.0
1342.926025 156.0
1343.122925 184.0
1343.611694 120.0
1344.027588 124.0
1344.377808 244.0
1344.990845 188.0
1345.239014 204.0
1346.494873 188.0
1349.578613 184.0
1350.646362 136.0
1351.677856 164.0
1353.324829 96.0
1354.965332 120.0
1355.44165 164.0
1356.929443 196.0
1357.589355 256.0
1358.278809 176.0
1358.550171 144.0
1359.107788 156.0
1359.870972 144.0
1360.245361 88.0
1360.71521 36.0
1361.81665 192.0
1362.69812 140.0
1363.71228 188.0
1364.947266 80.0
1366.006348 152.0
1366.786133 156.0
1367.058472 144.0
1369.340576 204.0
1369.819336 192.0
1370.438232 96.0
1370.67395 56.0
1372.457764 108.0
1372.738037 184.0
1373.556641 124.0
1373.748413 76.0
1373.932861 112.0
1374.810913 160.0
1374.89209 160.0
1375.098755 168.0
1376.737671 180.0
1377.106934 168.0
1377.557495 164.0
1379.09436 104.0
1379.722778 220.0
1379.796631 228.0
1380.580444 172.0
1380.62915 168.0
1380.787476 56.0
1381.149902 140.0
1381.246094 196.0
1381.571533 168.0
1381.82312 188.0
1382.119019 120.0
1382.799805 144.0
1384.05835 164.0
1386.225708 168.0
1386.79187 212.0
1386.992065 224.0
1387.807495 76.0
1388.682495 72.0
1389.876831 88.0
1390.59668 232.0
1391.420654 212.0
1392.571655 48.0
1393.411011 144.0
1394.391846 96.0
1394.726318 68.0
1396.666992 40.0
1397.574585 212.0
1397.849976 100.0
1400.641724 188.0
1400.701416 152.0
1400.857788 208.0
1400.924805 68.0
1401.30481 168.0
1401.610229 112.0
1402.489624 216.0
1403.660156 224.0
1404.845947 208.0
1405.547241 232.0
1405.845703 164.0
1408.161987 168.0
1408.354248 200.0
1409.534668 176.0
1409.654175 248.0
1409.713989 152.0
1410.558472 148.0
1410.850098 188.0
1411.246338 212.0
1411.530396 176.0
1413.070557 240.0
1413.13855 188.0
1413.550049 232.0
1414.560425 60.0
1415.386353 216.0
1415.481323 204.0
1416.020508 180.0
1416.402466 172.0
1417.219116 108.0
1418.918091 208.0
1419.962646 252.0
1422.701416 220.0
1422.761475 176.0
1423.880371 208.0
1424.391113 140.0
1425.224976 148.0
1425.720947 180.0
1427.141602 148.0
1427.464966 168.0
1427.645386 196.0
1428.450195 88.0
1428.600586 172.0
1429.646484 140.0
1429.985107 72.0
1430.369019 96.0
1430.963745 56.0
1431.174561 120.0
1431.30249 144.0
1432.00293 252.0
1432.409668 204.0
1432.620483 116.0
1433.456787 48.0
1433.622681 196.0
1434.376343 152.0
1435.748535 204.0
1437.03833 124.0
1437.958984 132.0
1438.89502 276.0
1443.428345 164.0
1443.912354 168.0
1444.139282 172.0
1446.348633 168.0
1446.439453 76.0
1446.825562 108.0
1447.961304 72.0
1448.112793 156.0
1448.499023 216.0
1450.567749 260.0
1450.628418 176.0
1450.984741 152.0
1451.545776 200.0
1451.773315 176.0
1451.849121 108.0
1452.440674 176.0
1452.728882 188.0
1453.411743 100.0
1454.572876 136.0
1454.90686 188.0
1455.294067 216.0
1455.362427 156.0
1456.326904 84.0
1456.547119 148.0
1456.721802 304.0
1457.284058 152.0
1457.793091 168.0
1458.01355 192.0
1458.925659 148.0
1459.092896 168.0
1460.408325 176.0
1460.940796 196.0
1461.435303 72.0
1461.709229 140.0
1462.69104 116.0
1463.155396 168.0
1464.145264 212.0
1464.427002 68.0
1468.153809 148.0
1469.130127 216.0
1469.213989 188.0
1469.450562 144.0
1471.022583 124.0
1471.65625 144.0
1471.820312 200.0
1472.183105 148.0
1472.450439 72.0
1473.244751 200.0
1473.351807 176.0
1473.580933 180.0
1475.499268 172.0
1476.172119 156.0
1476.822144 140.0
1477.51062 96.0
1477.564209 180.0
1479.523315 156.0
1479.638184 188.0
1480.526367 120.0
1482.050781 128.0
1482.855347 72.0
1485.54187 164.0
1485.999268 156.0
1486.843384 188.0
1487.703003 180.0
1488.998291 140.0
1489.161987 72.0
1489.607422 120.0
1490.298828 116.0
1494.935547 108.0
1495.41272 184.0
1495.912964 88.0
1495.98999 84.0
1496.505737 52.0
1496.990845 120.0
1497.191162 208.0
1497.822632 104.0
1498.85498 244.0
1499.972534 188.0
1500.234619 204.0
1500.542969 232.0
1500.620117 220.0
1501.05957 144.0
1502.123901 156.0
1502.177856 152.0
1502.66394 120.0
1503.481812 132.0
1503.89856 156.0
1504.261353 184.0
