>compound MLS001140513-01!(2R)-2-[[(2R)-2-[[1-[(2-methylpropan-2-yl)oxycarbonyl]-4-phenylpiperidine-4-carbonyl]amino]propanoyl]amino]-2-phenylacetic acid
>formula C28H35N3O6
>ionization [M+Na]+
>parentmass 532.241028
#inchi InChI=1S/C28H35N3O6/c1-19(23(32)30-22(24(33)34)20-11-7-5-8-12-20)29-25(35)28(21-13-9-6-10-14-21)15-17-31(18-16-28)26(36)37-27(2,3)4/h5-14,19,22H,15-18H2,1-4H3,(H,29,35)(H,30,32)(H,33,34)/t19-,22-/m1/s1
#inchikey NFDIIJYBVFLLLH
#Ion_Source LC-ESI
#Instrument qTof
#Compound_Source NIH Natural Product Library
#PI Dorrestein
#Data_Collector VVP/LMS
#Scan -1
#Precursor_MZ 532.242
#ExactMass 509.253
#Charge 1
#CAS_Number N/A
#Pubmed_ID N/A
#Smiles C[C@@H](NC(=O)C1(CCN(CC1)C(=O)OC(C)(C)C)c2ccccc2)C(=O)N[C@@H](C(=O)O)c3ccccc3
#INCHI_AUX N/A
#Library_Class 1
#SpectrumID CCMSLIB00000079453
#IonMode Positive
#UpdateWorkflowName UPDATE-SINGLE-ANNOTATED-GOLD
#LibraryQualityString Gold
#TaskID b1d8e8f6646f4e71acdff9ca3d919d08
##Scan# 2251
#SpectrumFile p1-E06_GE6_01_17926.mzXML
#LibraryName NIH_Natural_Products_Library.mgf
#MQScore -1
#Organism NIH_Natural_Products_Library
#TIC_Query 0
#RT_Query -1
#MZErrorPPM -1
#SharedPeaks 0
#MassDiff 0
#LibMZ -1
#SpecMZ 532.242
#SpecCharge 0
#internalFilename spec-00000.mgf

>collision 10
95.005226 160.0
95.135246 224.0
95.664001 172.0
96.159088 152.0
96.524391 72.0
96.624146 136.0
96.945259 40.0
97.477051 144.0
97.709053 192.0
98.780243 228.0
99.559166 148.0
99.573067 84.0
100.534622 76.0
100.768242 104.0
100.934135 44.0
101.833931 136.0
102.127373 124.0
102.693336 228.0
102.729645 148.0
102.808334 132.0
102.9133 128.0
103.159767 104.0
103.175941 72.0
103.473335 156.0
103.684296 116.0
105.034027 152.0
105.191147 132.0
105.542542 132.0
105.726639 120.0
105.798279 72.0
106.058426 164.0
106.66394 164.0
108.165611 92.0
109.286263 220.0
109.790352 140.0
110.940338 156.0
111.022102 164.0
111.056999 336.0
111.835167 176.0
112.003609 204.0
112.03701 2276.0
113.014816 124.0
113.031746 212.0
113.055023 156.0
113.864853 156.0
113.956192 148.0
114.613647 72.0
114.711685 248.0
114.886543 196.0
115.715752 64.0
115.944946 128.0
116.672585 204.0
116.975906 144.0
117.18911 84.0
118.975517 148.0
119.249214 256.0
119.671227 140.0
120.032921 140.0
120.137611 164.0
120.618011 140.0
121.011787 80.0
121.441559 164.0
122.617531 140.0
122.857872 108.0
123.133781 96.0
123.158081 92.0
123.474129 124.0
123.562607 32.0
123.728592 92.0
124.58239 292.0
124.669044 184.0
125.020409 100.0
125.254181 40.0
125.526077 140.0
125.700066 140.0
126.030533 120.0
126.775665 120.0
127.349998 140.0
127.927879 148.0
128.042709 180.0
128.712189 164.0
128.838943 136.0
129.027985 428.0
129.171234 40.0
129.21196 136.0
129.442825 144.0
129.76004 164.0
129.868881 220.0
130.029968 152.0
130.045853 128.0
131.082077 160.0
131.787933 120.0
132.288788 192.0
132.760773 96.0
134.333969 192.0
134.613525 160.0
134.899734 160.0
135.096283 188.0
135.914124 164.0
136.188049 268.0
136.804245 172.0
137.069763 128.0
137.417175 200.0
138.907364 144.0
139.16658 44.0
139.942413 184.0
140.362915 192.0
141.305573 136.0
141.608566 160.0
141.670151 104.0
142.498108 72.0
142.63356 152.0
143.492935 196.0
143.738617 152.0
144.151718 140.0
144.917389 100.0
145.274612 140.0
146.014404 152.0
146.182953 124.0
146.58493 184.0
147.033478 156.0
147.110718 208.0
148.022186 208.0
148.361389 60.0
148.914627 140.0
149.262146 136.0
149.488358 160.0
149.651443 160.0
149.780518 180.0
150.163177 148.0
150.214401 36.0
150.455994 196.0
151.000885 216.0
152.067627 148.0
152.074387 176.0
152.324448 168.0
153.106583 104.0
153.476212 148.0
153.555115 168.0
153.8759 112.0
154.073471 148.0
154.24646 204.0
154.90715 64.0
154.929443 104.0
155.810135 108.0
156.895187 44.0
157.025253 1848.0
157.102173 52.0
157.216934 96.0
157.40416 120.0
157.486572 144.0
158.025467 380.0
158.094086 144.0
158.28183 188.0
158.745407 56.0
158.833191 196.0
158.983719 148.0
159.159439 244.0
159.483505 228.0
159.586578 128.0
159.933731 164.0
160.112274 2668.0
160.316544 52.0
161.012817 196.0
161.114365 692.0
161.460129 72.0
161.538544 68.0
161.740967 172.0
162.115677 152.0
162.245071 96.0
162.963303 160.0
163.428589 64.0
163.476929 172.0
164.167282 216.0
164.603638 144.0
164.713455 60.0
164.733887 48.0
165.401276 204.0
165.531845 144.0
167.34462 132.0
167.424438 184.0
168.030182 188.0
168.585312 124.0
169.794281 100.0
170.001831 92.0
170.092667 200.0
170.128998 120.0
170.36792 132.0
170.668365 152.0
170.97374 208.0
171.163773 196.0
171.278366 112.0
172.721817 248.0
172.818604 136.0
173.34491 176.0
173.785416 192.0
174.024628 308.0
174.052414 5956.0
174.126663 120.0
174.187073 104.0
174.246826 188.0
174.360489 160.0
174.38414 116.0
174.455109 68.0
174.505051 128.0
174.941772 156.0
175.056183 572.0
175.824753 96.0
176.025375 112.0
176.112534 96.0
176.263107 140.0
176.281601 88.0
177.024933 188.0
178.016693 172.0
178.234512 148.0
178.343475 96.0
178.532227 216.0
179.865662 152.0
180.73024 72.0
180.997894 140.0
182.121567 152.0
182.605347 144.0
183.092468 48.0
183.477783 68.0
183.922882 184.0
184.749741 104.0
185.012253 60.0
185.050156 120.0
185.079941 152.0
186.126556 48.0
186.172729 92.0
186.216171 172.0
187.010071 168.0
187.04213 144.0
187.12558 148.0
187.721115 124.0
188.010284 144.0
188.107727 1244.0
188.444443 124.0
188.881836 80.0
189.111862 184.0
189.147263 28.0
190.114746 160.0
190.455185 72.0
190.570557 140.0
190.977402 160.0
191.205765 92.0
192.031372 176.0
192.131577 148.0
192.379944 112.0
192.578751 44.0
192.694778 120.0
193.007095 132.0
193.031555 152.0
194.050919 92.0
194.564163 160.0
194.794662 132.0
195.050308 372.0
195.562088 240.0
195.935226 52.0
196.604416 120.0
197.020447 228.0
198.259964 168.0
198.450577 140.0
198.559937 136.0
198.674942 200.0
198.79277 128.0
199.537109 108.0
199.568039 64.0
200.036102 504.0
200.296906 52.0
200.356064 180.0
200.939636 100.0
201.001709 148.0
201.044037 224.0
201.93396 96.0
202.052765 176.0
202.701141 152.0
203.947006 112.0
204.396332 164.0
204.515869 116.0
205.079819 128.0
205.102615 148.0
206.014023 632.0
206.56459 80.0
206.839279 128.0
207.007355 144.0
207.225891 176.0
207.985825 144.0
208.017395 144.0
208.384995 80.0
208.655151 100.0
208.709778 176.0
209.1035 1268.0
209.63089 188.0
209.852829 148.0
210.031555 160.0
210.088699 4908.0
210.230698 40.0
210.30574 92.0
210.325943 68.0
210.383667 84.0
210.640671 96.0
210.733124 128.0
210.80246 44.0
211.022141 164.0
211.056839 140.0
211.089081 536.0
211.134903 52.0
211.375015 60.0
211.458939 168.0
211.490768 120.0
211.61235 228.0
211.670258 96.0
211.794785 180.0
212.032364 156.0
212.091843 96.0
212.345474 108.0
212.473114 112.0
212.864944 48.0
213.120544 180.0
213.882477 196.0
214.051331 160.0
214.237732 112.0
214.651596 180.0
215.039597 36.0
215.717239 108.0
215.883896 108.0
216.085709 88.0
216.454498 204.0
217.06311 172.0
217.410141 84.0
218.053452 220.0
218.529663 196.0
219.047974 208.0
219.09787 92.0
219.834991 116.0
220.224686 132.0
221.635788 164.0
222.445435 216.0
222.944397 108.0
224.022491 224.0
224.051254 60.0
224.107864 148.0
224.188324 112.0
224.212158 188.0
224.805603 164.0
225.029465 156.0
225.119049 92.0
225.647919 120.0
225.86322 192.0
226.060684 144.0
226.533737 164.0
226.899338 220.0
227.070251 128.0
227.119263 340.0
227.886749 156.0
228.096985 388.0
228.178284 120.0
229.111145 176.0
229.210648 92.0
230.338974 76.0
231.21579 116.0
231.23999 128.0
232.02475 324.0
232.05484 104.0
234.191132 64.0
234.23378 56.0
235.020309 88.0
235.072189 180.0
235.768448 140.0
236.055222 280.0
236.080261 172.0
236.217896 164.0
236.496338 152.0
237.032272 124.0
237.053711 208.0
237.134903 188.0
237.516663 148.0
238.019958 156.0
238.082809 120.0
238.1409 148.0
238.38858 128.0
238.775925 156.0
239.074341 40.0
239.631668 84.0
239.773407 260.0
239.970688 136.0
240.421036 80.0
240.529053 144.0
240.572266 84.0
241.066116 536.0
241.106293 188.0
242.052109 168.0
242.406342 112.0
242.5737 52.0
242.710114 48.0
243.038895 76.0
243.074295 188.0
243.131989 180.0
243.818314 52.0
244.782669 160.0
245.024307 192.0
245.037964 112.0
245.04245 188.0
245.089005 3876.0
245.159592 48.0
245.209457 164.0
245.318542 68.0
245.415192 120.0
245.55864 88.0
245.62413 60.0
245.667816 44.0
245.7146 152.0
245.842529 128.0
245.879974 156.0
246.092972 776.0
246.448303 60.0
246.475983 56.0
246.685822 172.0
247.089233 128.0
247.408997 136.0
247.608841 72.0
247.662094 104.0
247.884521 52.0
247.928391 152.0
248.060028 176.0
248.985611 68.0
250.03418 128.0
250.183594 180.0
250.249695 228.0
250.369354 212.0
251.510666 136.0
252.430023 200.0
252.679886 188.0
252.762161 104.0
253.034348 212.0
253.078674 152.0
253.123978 104.0
253.550659 36.0
253.759872 64.0
254.067505 172.0
254.1595 172.0
254.264221 76.0
254.912064 152.0
254.99469 56.0
255.204483 172.0
255.360306 44.0
255.723007 72.0
256.035004 156.0
256.570312 212.0
256.946625 152.0
257.770386 72.0
257.87265 56.0
258.086823 80.0
259.080292 260.0
259.151276 360.0
260.073029 144.0
260.153259 148.0
260.696075 144.0
261.088043 240.0
262.09903 112.0
262.540649 160.0
262.721283 132.0
263.227997 120.0
264.11676 156.0
264.560059 164.0
265.41864 104.0
266.077271 208.0
266.814728 128.0
267.113892 140.0
267.65741 136.0
268.080872 136.0
268.419891 192.0
268.837433 116.0
269.091461 192.0
269.180176 212.0
270.105072 196.0
270.471558 120.0
271.067596 124.0
271.274078 120.0
271.405212 108.0
272.00885 96.0
272.061859 140.0
273.09317 112.0
273.441895 180.0
274.397156 148.0
275.958801 152.0
276.081146 144.0
276.315979 116.0
276.944946 196.0
277.08075 96.0
277.451935 128.0
277.690674 128.0
277.846588 144.0
278.311218 132.0
279.102509 164.0
279.571045 128.0
279.917236 112.0
280.097076 120.0
280.137054 372.0
281.124359 2312.0
281.464447 144.0
282.129852 548.0
282.480408 156.0
282.587463 100.0
282.902069 68.0
282.948914 100.0
283.079498 112.0
283.555206 64.0
283.589752 216.0
283.977661 52.0
284.149841 108.0
284.520538 176.0
284.561523 100.0
286.054169 168.0
286.084473 112.0
286.225861 100.0
286.953644 108.0
287.0784 208.0
287.111572 224.0
287.24704 68.0
287.328003 116.0
287.449463 108.0
287.493317 88.0
288.422089 108.0
288.719635 128.0
288.922577 224.0
289.077911 136.0
289.12558 164.0
289.206818 124.0
290.735321 116.0
291.101715 176.0
291.934479 48.0
292.141968 116.0
292.18277 200.0
292.257629 104.0
293.085022 144.0
293.122498 100.0
293.275848 188.0
294.815063 112.0
295.091919 180.0
295.841156 148.0
295.95755 56.0
296.121918 160.0
296.145905 164.0
296.238373 72.0
296.622162 92.0
296.841583 52.0
296.893036 76.0
297.126282 108.0
297.181152 76.0
297.527802 196.0
297.726959 80.0
298.036102 152.0
298.152649 9440.0
298.297302 236.0
298.369476 64.0
298.476074 96.0
298.785614 64.0
298.823456 60.0
298.872711 68.0
298.998932 48.0
299.057465 156.0
299.136719 7520.0
299.219238 36.0
299.298431 60.0
299.353424 88.0
299.415497 96.0
299.484406 68.0
299.66095 64.0
299.73587 124.0
299.809753 64.0
299.976624 56.0
300.008148 144.0
300.063232 156.0
300.138519 2508.0
300.220032 44.0
300.2771 40.0
300.363342 112.0
300.960358 56.0
301.070862 48.0
301.13913 440.0
301.222839 120.0
301.395569 40.0
301.862213 64.0
301.907166 140.0
302.090485 108.0
302.145813 216.0
302.249634 52.0
302.304993 44.0
304.089752 128.0
304.471649 52.0
305.104034 48.0
307.015594 80.0
307.102783 108.0
307.137665 140.0
308.35968 160.0
309.146545 48.0
309.335541 228.0
309.836304 64.0
310.902222 180.0
311.309448 140.0
311.400757 152.0
311.745056 200.0
311.811829 280.0
311.98053 68.0
312.06842 160.0
312.180939 180.0
312.874084 160.0
313.448181 64.0
313.631439 104.0
313.828857 84.0
313.984009 72.0
314.019287 28.0
314.125092 168.0
315.025238 84.0
315.152435 184.0
316.142517 136.0
316.97113 100.0
317.045532 120.0
317.112396 144.0
318.226746 164.0
318.60318 144.0
319.097168 192.0
319.150513 176.0
320.695404 132.0
324.44162 156.0
325.446198 104.0
327.161102 184.0
327.369934 140.0
327.513977 168.0
327.694092 80.0
328.122986 112.0
328.559357 184.0
328.591827 112.0
328.620697 44.0
329.180145 140.0
330.192017 112.0
332.106842 172.0
332.986267 128.0
333.113403 120.0
334.495605 172.0
335.126984 176.0
335.318329 152.0
335.733948 100.0
336.022095 172.0
336.609741 176.0
337.311218 176.0
338.328156 160.0
340.326263 84.0
341.094055 76.0
342.119141 144.0
342.149078 320.0
342.41864 208.0
342.750183 128.0
343.121643 280.0
343.653503 88.0
344.126221 160.0
346.459595 136.0
346.515167 124.0
346.945038 104.0
347.642365 68.0
347.998688 128.0
348.07666 136.0
348.132355 128.0
349.12085 92.0
349.87616 140.0
350.923065 184.0
352.580414 52.0
353.522797 72.0
353.567719 156.0
354.755035 20.0
356.153473 188.0
359.007446 92.0
359.097961 136.0
359.53183 108.0
360.876556 164.0
361.125854 296.0
361.546082 120.0
361.648254 76.0
362.019287 168.0
362.110168 276.0
362.136841 288.0
362.488983 124.0
363.125885 160.0
363.152435 132.0
363.573547 208.0
364.131622 140.0
364.504364 164.0
365.376801 164.0
365.89978 184.0
365.934052 112.0
366.078735 140.0
366.145447 132.0
366.41391 132.0
368.351837 44.0
368.550507 96.0
370.187622 356.0
370.957733 124.0
372.365906 208.0
372.996002 156.0
373.322815 104.0
373.715149 152.0
376.09671 172.0
376.363098 204.0
378.025208 100.0
378.412262 48.0
379.131409 296.0
379.171509 164.0
380.08667 112.0
380.142517 244.0
380.867004 168.0
381.15448 204.0
384.121185 136.0
384.398071 112.0
385.495361 140.0
386.019165 152.0
386.148438 168.0
386.179962 240.0
386.895599 68.0
387.13443 112.0
387.175323 188.0
387.604492 204.0
387.736969 164.0
388.14151 148.0
388.19754 1512.0
389.201172 240.0
389.44046 192.0
390.193665 160.0
390.208221 152.0
390.265717 60.0
392.979431 104.0
393.374084 140.0
393.725464 108.0
396.847015 60.0
397.143158 156.0
397.414734 32.0
397.49408 156.0
397.704437 76.0
397.732208 52.0
397.779846 208.0
399.158447 168.0
399.198212 192.0
400.033722 96.0
400.710724 216.0
400.969727 184.0
401.121185 88.0
401.527863 200.0
401.65152 164.0
401.942749 100.0
402.533508 56.0
403.136719 120.0
404.162994 1608.0
404.496521 80.0
405.161469 628.0
405.397675 80.0
406.16391 260.0
406.564636 32.0
406.624847 32.0
407.126678 228.0
407.178864 168.0
408.159393 116.0
408.650085 124.0
409.467255 256.0
410.202026 228.0
410.218231 240.0
411.144348 140.0
411.207855 108.0
413.678558 40.0
414.172577 168.0
414.983063 80.0
415.477844 92.0
416.931458 152.0
418.123016 48.0
419.128845 168.0
419.495636 112.0
420.360291 168.0
420.666382 136.0
421.524078 168.0
421.560852 52.0
422.17337 536.0
423.182861 188.0
423.565552 36.0
423.606537 196.0
424.164032 136.0
424.389282 188.0
424.77478 60.0
424.803497 68.0
425.353363 88.0
425.587341 144.0
425.948761 120.0
426.182922 176.0
426.495239 108.0
426.540466 152.0
426.663788 120.0
426.852905 72.0
427.033844 96.0
427.292999 80.0
427.544006 40.0
427.881531 56.0
427.939148 100.0
428.037964 40.0
428.079163 108.0
428.107971 168.0
428.404541 72.0
428.536377 80.0
428.764526 140.0
428.833069 88.0
428.886658 148.0
428.927856 52.0
429.006195 76.0
430.045654 152.0
430.136444 196.0
430.235535 156.0
430.289185 96.0
430.450226 64.0
430.524536 56.0
430.863251 100.0
430.94754 200.0
431.090485 148.0
431.177277 200.0
431.297119 148.0
431.483154 80.0
431.520355 160.0
431.553436 92.0
431.627869 140.0
431.706421 148.0
431.747437 48.0
431.771332 144.0
431.805695 80.0
431.871857 184.0
431.910889 64.0
431.983551 116.0
432.101013 324.0
432.189117 37812.0
432.275818 328.0
432.323456 132.0
432.369171 80.0
432.43454 60.0
432.50647 60.0
432.546295 36.0
432.61499 108.0
432.665527 80.0
432.736481 168.0
432.769592 112.0
432.81955 124.0
432.862396 196.0
432.902344 52.0
432.963196 104.0
433.00174 136.0
433.030731 48.0
433.066925 80.0
433.190704 9744.0
433.286438 264.0
433.380829 92.0
433.438934 60.0
433.447418 48.0
433.501282 72.0
433.547241 100.0
433.576416 84.0
433.592255 60.0
433.60379 116.0
433.652191 80.0
433.701935 52.0
433.747223 152.0
433.789001 116.0
433.826294 48.0
433.898621 36.0
433.938232 136.0
434.000427 72.0
434.062622 128.0
434.112366 40.0
434.189636 1144.0
434.389069 56.0
434.460785 44.0
434.601837 112.0
434.718018 56.0
434.789978 88.0
434.902618 92.0
434.946289 76.0
435.194214 200.0
435.455261 68.0
435.527588 100.0
435.556671 92.0
435.589905 72.0
435.726776 84.0
435.810089 40.0
435.873566 144.0
435.930023 60.0
435.962067 124.0
436.067719 152.0
436.110718 104.0
436.159149 264.0
436.204895 48.0
436.283875 80.0
436.347229 116.0
436.404419 52.0
436.470947 44.0
436.513245 48.0
436.566589 80.0
436.732941 72.0
436.795349 116.0
437.009918 124.0
437.740082 116.0
437.79422 40.0
437.848358 88.0
438.019135 36.0
438.606659 56.0
439.273804 64.0
439.661835 88.0
441.184662 116.0
444.507721 48.0
444.944214 40.0
445.200348 104.0
446.477875 32.0
448.152771 632.0
448.380768 32.0
449.055328 68.0
449.14502 136.0
449.245148 60.0
450.166138 352.0
450.612946 128.0
452.109802 176.0
452.3172 72.0
453.710876 92.0
454.164612 108.0
455.811798 88.0
456.700317 48.0
458.420258 96.0
458.991455 52.0
459.737946 96.0
459.844635 76.0
460.835327 132.0
466.166138 704.0
467.15625 120.0
467.636475 80.0
470.149048 176.0
470.364838 68.0
470.973663 96.0
472.127625 152.0
473.967346 92.0
475.780273 48.0
475.923523 72.0
476.11026 92.0
476.177094 1752.0
476.262268 120.0
476.757538 172.0
476.853149 80.0
477.176056 680.0
477.300903 80.0
477.714081 124.0
477.809784 124.0
477.870697 64.0
478.185181 304.0
478.423401 80.0
479.120178 84.0
479.18988 88.0
479.438263 32.0
479.826202 140.0
479.965729 80.0
480.070374 36.0
481.466827 128.0
483.420929 72.0
484.147614 116.0
484.191406 216.0
491.740112 68.0
497.494385 40.0
510.307495 96.0
518.754211 64.0
521.563965 72.0
526.260742 64.0
529.773071 48.0
531.354736 164.0
531.9375 56.0
532.241028 104.0
533.234497 212.0
533.260986 140.0
533.329285 140.0
538.397217 36.0
553.304626 136.0
566.907715 84.0
574.462646 60.0
585.120728 84.0
585.510742 84.0
590.549377 48.0
614.506226 84.0
624.44812 148.0
649.507263 92.0
655.343323 64.0
667.597595 136.0
673.963623 52.0
679.238953 104.0
679.84082 144.0
685.019226 128.0
707.707397 52.0
708.968079 108.0
720.589172 76.0
731.949341 100.0
742.785278 132.0
754.897888 40.0
763.298645 72.0
772.757996 104.0
773.029114 100.0
790.457581 96.0
794.508423 32.0
823.405457 60.0
838.603638 84.0
857.387329 104.0
872.018616 84.0
951.354614 112.0
955.896606 120.0
997.072632 196.0
1034.611572 164.0
1044.287964 60.0
1088.888184 72.0
1112.931885 20.0
1167.532959 76.0
1188.483521 212.0
1201.107422 60.0
1205.878418 104.0
1218.017578 104.0
1219.719971 172.0
1230.175537 168.0
1259.414673 52.0
1273.779419 224.0
1273.935669 132.0
1279.148071 196.0
1286.304688 216.0
1289.490234 220.0
1290.812744 168.0
1295.235718 120.0
1307.124512 128.0
1324.950928 156.0
1328.815186 104.0
1330.259277 180.0
1337.375366 176.0
1341.549194 176.0
1357.517334 60.0
1373.624268 60.0
1374.907959 176.0
1385.607422 184.0
1391.450684 184.0
1403.840088 108.0
1424.324463 168.0
1427.924683 172.0
1430.806519 152.0
1463.742432 108.0
1464.702026 124.0
1486.521729 180.0
1489.907715 240.0
1491.267822 128.0
1493.120605 212.0
1494.66687 180.0
1500.967651 64.0
1501.607666 32.0
