>compound MLS001157879-01!N-[2-(1H-indol-3-yl)ethyl]-2-(3,4,7-trimethyl-2-oxochromen-5-yl)oxyacetamide
>formula C24H24N2O4
>ionization [M+H]+
>parentmass 405.181671
#inchi InChI=1S/C24H24N2O4/c1-14-10-20(23-15(2)16(3)24(28)30-21(23)11-14)29-13-22(27)25-9-8-17-12-26-19-7-5-4-6-18(17)19/h4-7,10-12,26H,8-9,13H2,1-3H3,(H,25,27)
#inchikey MPBSDEOKEAJHRH
#Ion_Source LC-ESI
#Instrument qTof
#Compound_Source NIH Natural Product Library
#PI Dorrestein
#Data_Collector VVP/LMS
#Scan -1
#Precursor_MZ 405.181
#ExactMass 404.174
#Charge 1
#CAS_Number N/A
#Pubmed_ID N/A
#Smiles Cc1cc(OCC(=O)NCCc2c[nH]c3ccccc23)c4c(C)c(C)c(=O)oc4c1
#INCHI_AUX N/A
#Library_Class 1
#SpectrumID CCMSLIB00000080156
#IonMode Positive
#UpdateWorkflowName UPDATE-SINGLE-ANNOTATED-GOLD
#LibraryQualityString Gold
#TaskID b1d8e8f6646f4e71acdff9ca3d919d08
##Scan# 2252
#SpectrumFile p2-H04_GH4_01_18064.mzXML
#LibraryName NIH_Natural_Products_Library.mgf
#MQScore -1
#Organism NIH_Natural_Products_Library
#TIC_Query 0
#RT_Query -1
#MZErrorPPM -1
#SharedPeaks 0
#MassDiff 0
#LibMZ -1
#SpecMZ 405.181
#SpecCharge 0
#internalFilename spec-00000.mgf

>collision 10
94.964447 184.0
94.991608 176.0
95.059517 160.0
95.325554 148.0
95.339157 200.0
95.399612 160.0
95.41497 140.0
95.457748 200.0
95.508308 44.0
95.623108 112.0
95.660095 104.0
95.674553 140.0
95.726288 132.0
95.759399 128.0
95.858757 156.0
95.887993 64.0
95.90358 188.0
96.081039 92.0
96.123962 156.0
96.171776 160.0
96.217651 220.0
96.293808 124.0
96.319206 188.0
96.485313 192.0
96.502907 168.0
96.60656 140.0
96.630043 44.0
96.72789 180.0
96.761169 184.0
96.802292 160.0
97.000175 172.0
97.029587 88.0
97.080566 140.0
97.137444 192.0
97.17276 40.0
97.204155 172.0
97.380844 200.0
97.398521 212.0
97.422096 212.0
97.435844 160.0
97.481041 192.0
97.535172 128.0
97.56752 140.0
97.657982 56.0
97.721771 216.0
97.770126 236.0
97.787941 156.0
97.860672 200.0
97.880363 124.0
97.955208 124.0
98.010376 240.0
98.05938 184.0
98.124695 60.0
98.168076 156.0
98.192871 132.0
98.276566 136.0
98.304192 188.0
98.464104 136.0
98.533241 188.0
98.572754 96.0
98.638565 216.0
98.707176 184.0
98.764526 52.0
98.822845 268.0
99.062592 160.0
99.101082 136.0
99.140709 136.0
99.158546 212.0
99.178368 232.0
99.210083 148.0
99.303284 112.0
99.356842 112.0
99.398506 388.0
99.444153 196.0
99.482948 324.0
99.565262 300.0
99.606979 144.0
99.702347 152.0
99.759987 172.0
99.805717 76.0
99.826721 220.0
99.871346 164.0
100.107155 116.0
100.120132 440.0
100.167938 348.0
100.187408 124.0
100.226715 120.0
100.528816 144.0
100.568733 196.0
100.664566 176.0
100.696518 144.0
100.760445 172.0
100.784416 236.0
100.970329 264.0
100.994331 60.0
101.022438 164.0
101.120384 108.0
101.138397 104.0
101.168427 172.0
101.299706 140.0
101.322632 156.0
101.352692 112.0
101.402794 196.0
101.456909 148.0
101.555168 136.0
101.621376 188.0
101.655487 164.0
101.767891 168.0
101.781952 140.0
102.045296 232.0
102.077339 156.0
102.119576 264.0
102.17791 200.0
102.268463 188.0
102.294632 156.0
102.381218 92.0
102.521645 68.0
102.554482 188.0
102.60891 44.0
102.651482 192.0
102.69297 176.0
102.788429 104.0
102.899445 188.0
102.931747 156.0
102.949921 116.0
102.970123 52.0
102.990318 104.0
103.008499 144.0
103.054024 2556.0
103.136116 208.0
103.168861 124.0
103.350174 136.0
103.392349 152.0
103.481735 204.0
103.514137 164.0
103.593124 100.0
103.609329 48.0
103.639725 144.0
103.702545 112.0
103.752121 176.0
103.816078 156.0
103.840416 116.0
103.856644 76.0
103.976357 44.0
104.00071 184.0
104.056648 512.0
104.165184 156.0
104.21801 72.0
104.321663 132.0
104.374207 176.0
104.427437 204.0
104.436287 108.0
104.440018 136.0
104.567787 96.0
104.611794 144.0
104.672745 108.0
104.756233 204.0
104.897766 232.0
104.918152 156.0
104.967293 160.0
104.999718 148.0
105.020111 112.0
105.047478 140.0
105.068924 1296.0
105.120804 204.0
105.150696 192.0
105.23439 184.0
105.352844 160.0
105.390663 212.0
105.418289 136.0
105.656563 256.0
105.714752 76.0
105.739311 84.0
105.767967 220.0
105.819145 204.0
105.8601 188.0
105.895416 164.0
105.93998 148.0
105.974808 164.0
106.017395 128.0
106.068192 368.0
106.083435 200.0
106.251602 152.0
106.309052 156.0
106.348045 76.0
106.362411 268.0
106.405525 196.0
106.469521 216.0
106.487663 192.0
106.506149 176.0
106.62532 124.0
106.644844 168.0
106.686012 196.0
106.70768 124.0
106.89473 96.0
107.049118 192.0
107.081657 416.0
107.125328 128.0
107.184967 156.0
107.226295 56.0
107.267517 172.0
107.308746 92.0
107.339676 120.0
107.411865 156.0
107.448997 180.0
107.490265 164.0
107.61618 112.0
107.632584 144.0
107.709114 344.0
107.77729 104.0
107.824821 144.0
107.975746 204.0
107.992287 176.0
108.008835 268.0
108.029526 132.0
108.236351 172.0
108.273773 200.0
108.335907 152.0
108.390907 220.0
108.404823 220.0
108.497559 124.0
108.587868 152.0
108.680077 120.0
108.833679 192.0
108.899239 216.0
109.026871 112.0
109.061432 212.0
109.126648 136.0
109.235733 212.0
109.472061 56.0
109.549133 156.0
109.563713 180.0
109.644981 132.0
109.732529 156.0
109.751915 216.0
109.843063 120.0
109.936951 140.0
109.955734 112.0
109.970345 112.0
110.173126 180.0
110.258568 124.0
110.436287 84.0
110.488579 128.0
110.532806 116.0
110.616951 212.0
110.637169 52.0
110.666481 144.0
110.727211 108.0
110.873871 152.0
110.892731 148.0
110.93885 112.0
110.987068 212.0
111.037399 164.0
111.087738 60.0
111.117111 48.0
111.238503 180.0
111.350121 116.0
111.484573 200.0
111.59388 176.0
111.684311 144.0
111.871597 296.0
112.005051 192.0
112.082214 92.0
112.210785 132.0
112.229759 156.0
112.30146 148.0
112.324669 124.0
112.343651 304.0
112.439369 232.0
112.588501 244.0
112.684143 144.0
112.713135 112.0
112.732155 232.0
112.922432 184.0
112.975311 52.0
113.018333 228.0
113.040901 172.0
113.229317 44.0
113.244148 168.0
113.282272 152.0
113.364746 208.0
113.451813 212.0
113.685127 72.0
113.73819 156.0
113.852844 184.0
113.911644 184.0
114.071663 164.0
114.129372 184.0
114.188644 136.0
114.239693 140.0
114.265221 136.0
114.322258 212.0
114.367371 172.0
114.411133 200.0
114.479042 228.0
114.531326 136.0
114.594498 232.0
114.671951 132.0
114.750824 244.0
114.776413 84.0
114.825462 160.0
114.851059 256.0
114.910789 76.0
114.94706 124.0
114.98587 152.0
115.020195 144.0
115.053795 11136.0
115.111435 120.0
115.13279 124.0
115.254555 184.0
115.307976 176.0
115.344315 260.0
115.449081 184.0
115.504303 176.0
115.511581 144.0
115.516045 208.0
115.535492 140.0
115.577431 228.0
115.592407 36.0
115.641632 56.0
115.752037 168.0
115.795792 72.0
115.887901 136.0
116.011856 220.0
116.056343 908.0
116.131645 156.0
116.149132 160.0
116.152611 136.0
116.164276 224.0
116.19236 40.0
116.23098 168.0
116.316826 64.0
116.346886 136.0
116.381233 220.0
116.404854 252.0
116.464989 164.0
116.60511 224.0
116.66964 188.0
116.762077 144.0
116.821823 40.0
116.851944 156.0
116.901436 196.0
116.933205 168.0
116.97892 132.0
116.993988 36.0
117.014969 188.0
117.06926 13556.0
117.129654 180.0
117.202003 172.0
117.256599 48.0
117.302048 56.0
117.37751 168.0
117.405113 284.0
117.437897 36.0
117.455673 188.0
117.470245 136.0
117.498291 64.0
117.595398 196.0
117.613411 152.0
117.755173 60.0
117.809174 144.0
117.832939 52.0
117.917213 160.0
117.936806 124.0
118.01017 116.0
118.027466 32.0
118.070038 1964.0
118.098839 160.0
118.12912 148.0
118.194031 164.0
118.22216 180.0
118.335274 164.0
118.503662 56.0
118.54483 188.0
118.566505 64.0
118.635864 116.0
118.677055 180.0
118.781158 136.0
118.805763 164.0
118.875488 92.0
118.91468 148.0
118.937393 116.0
118.959099 132.0
118.993835 168.0
119.01989 112.0
119.048119 316.0
119.06723 288.0
119.085205 556.0
119.141518 192.0
119.184975 164.0
119.226265 200.0
119.319733 52.0
119.391487 168.0
119.40889 44.0
119.439339 128.0
119.467621 68.0
119.491554 148.0
119.567711 192.0
119.606888 144.0
119.668884 160.0
119.726639 224.0
119.883499 60.0
120.023201 184.0
120.200287 164.0
120.225883 116.0
120.386559 196.0
120.404907 148.0
120.426743 44.0
120.4748 116.0
120.658379 212.0
120.710861 220.0
120.826782 196.0
120.857414 168.0
120.951523 156.0
120.990318 188.0
121.021988 172.0
121.063576 2152.0
121.104797 132.0
121.194618 72.0
121.286659 240.0
121.494987 212.0
121.510345 96.0
121.556427 208.0
121.595932 124.0
121.642021 44.0
121.661781 184.0
121.762787 144.0
121.971519 52.0
122.000099 136.0
122.069641 344.0
122.116646 156.0
122.156235 176.0
122.253052 160.0
122.272858 180.0
122.309502 240.0
122.329559 84.0
122.344696 176.0
122.505882 140.0
122.56575 184.0
122.583374 136.0
122.635101 256.0
122.671539 300.0
122.693581 156.0
122.731064 60.0
122.845749 148.0
122.893806 400.0
122.920769 184.0
123.064247 112.0
123.161415 212.0
123.185715 156.0
123.20118 32.0
123.260834 172.0
123.351448 160.0
123.468636 120.0
123.541634 140.0
123.599159 104.0
123.627922 144.0
123.707603 152.0
123.862617 104.0
123.915787 128.0
124.018181 180.0
124.067657 160.0
124.088661 40.0
124.124138 152.0
124.202553 200.0
124.330452 156.0
124.345985 140.0
124.425896 124.0
124.450317 104.0
124.470306 124.0
124.492516 204.0
124.561363 176.0
124.599129 228.0
124.64579 208.0
124.688019 148.0
124.72802 100.0
124.825851 148.0
124.850311 136.0
124.881447 176.0
124.897018 160.0
125.081711 192.0
125.119553 224.0
125.139587 176.0
125.248711 132.0
125.384628 180.0
125.489395 68.0
125.587524 156.0
125.677261 160.0
125.753395 164.0
125.781647 132.0
125.870903 188.0
125.886589 184.0
125.951355 244.0
126.004974 172.0
126.044914 268.0
126.083183 188.0
126.197189 176.0
126.282166 60.0
126.31572 156.0
126.391785 208.0
126.446678 144.0
126.485786 72.0
126.566383 152.0
126.591011 148.0
126.608925 180.0
126.747818 136.0
126.816635 192.0
126.862946 164.0
126.936111 136.0
126.954056 92.0
127.015862 172.0
127.055008 2364.0
127.090889 68.0
127.167191 148.0
127.212082 60.0
127.227798 212.0
127.245758 112.0
127.297401 40.0
127.318108 164.0
127.340729 184.0
127.490601 144.0
127.6772 148.0
127.776176 176.0
127.929855 84.0
128.052536 1880.0
128.082413 92.0
128.156677 76.0
128.181473 96.0
128.213013 100.0
128.237808 188.0
128.253586 140.0
128.27388 204.0
128.300629 120.0
128.429459 60.0
128.587402 208.0
128.740601 140.0
128.822235 44.0
128.851608 48.0
128.908936 108.0
128.94426 104.0
129.023376 132.0
129.068161 2180.0
129.097061 224.0
129.140961 188.0
129.256332 56.0
129.346863 52.0
129.443649 208.0
129.57106 180.0
129.599228 172.0
129.734238 220.0
129.924744 108.0
129.963318 132.0
129.983734 168.0
130.036957 132.0
130.064575 4864.0
130.203934 36.0
130.233459 88.0
130.267532 144.0
130.289276 176.0
130.576675 128.0
130.606232 176.0
130.642639 112.0
130.708618 88.0
130.797226 120.0
130.838348 80.0
130.854294 144.0
130.894211 92.0
130.936264 144.0
131.043121 220.0
131.072235 2988.0
131.109421 104.0
131.161835 40.0
131.180695 252.0
131.21199 36.0
131.284958 208.0
131.353195 152.0
131.38681 116.0
131.732315 308.0
131.780304 172.0
131.823715 176.0
131.844284 100.0
131.931137 152.0
132.045425 244.0
132.0793 1928.0
132.125595 156.0
132.194183 56.0
132.221634 188.0
132.239944 168.0
132.269714 208.0
132.288025 136.0
132.31778 152.0
132.391052 196.0
132.427704 144.0
132.442795 136.0
132.523911 64.0
132.574326 152.0
132.803604 156.0
132.881592 56.0
132.918304 232.0
133.06279 320.0
133.098755 512.0
133.146194 140.0
133.168549 72.0
133.212189 124.0
133.285706 132.0
133.317657 200.0
133.504578 132.0
133.537857 100.0
133.674332 216.0
133.784805 172.0
133.83316 44.0
133.85849 132.0
133.902237 244.0
133.996689 180.0
134.03125 196.0
134.056595 196.0
134.10582 204.0
134.123444 216.0
134.155716 172.0
134.204132 108.0
134.273819 128.0
134.437103 164.0
134.480957 140.0
134.517883 60.0
134.603317 184.0
134.741898 36.0
134.774246 188.0
134.79274 236.0
135.030853 220.0
135.079422 348.0
135.11644 180.0
135.144211 124.0
135.23909 116.0
135.262238 132.0
135.329376 168.0
135.388611 240.0
135.405792 180.0
135.422012 96.0
135.470657 144.0
135.49382 152.0
135.54248 28.0
135.567963 180.0
135.720963 120.0
135.744141 168.0
135.792847 136.0
135.846207 156.0
135.864761 168.0
136.050644 204.0
136.156494 316.0
136.165314 216.0
136.405853 128.0
136.448242 168.0
136.496521 60.0
136.60817 116.0
136.836243 124.0
136.89212 36.0
137.024887 160.0
137.059753 532.0
137.345627 240.0
137.395584 156.0
137.437592 156.0
137.484253 112.0
137.528595 164.0
137.600296 224.0
137.729416 140.0
137.850906 144.0
137.890625 132.0
138.080002 164.0
138.105728 152.0
138.136139 144.0
138.164215 148.0
138.239578 152.0
138.309311 128.0
138.409973 204.0
138.428711 196.0
138.459152 148.0
138.505417 212.0
138.512268 160.0
138.55394 180.0
138.630173 132.0
138.708023 260.0
138.824753 136.0
138.898483 328.0
139.014816 180.0
139.049973 156.0
139.066406 104.0
139.108658 188.0
139.134476 156.0
139.169693 152.0
139.196701 160.0
139.302185 196.0
139.350555 92.0
139.392838 160.0
139.485321 192.0
139.663208 188.0
139.722031 168.0
139.737579 164.0
139.769089 100.0
139.940903 272.0
140.004486 96.0
140.025681 128.0
140.052917 236.0
140.115204 172.0
140.155258 188.0
140.218872 180.0
140.454666 200.0
140.53009 156.0
140.558472 164.0
140.588425 156.0
140.796906 168.0
140.823868 192.0
140.863403 204.0
140.913483 124.0
140.950455 164.0
141.05246 228.0
141.078079 208.0
141.224258 152.0
141.293289 244.0
141.316956 144.0
141.338257 120.0
141.357178 144.0
141.444748 104.0
141.615234 120.0
141.719467 124.0
141.75975 184.0
141.781082 164.0
141.83577 208.0
141.996826 140.0
142.037155 136.0
142.065048 3092.0
142.096085 224.0
142.136795 152.0
142.169312 240.0
142.200882 144.0
142.250717 160.0
142.283279 188.0
142.390808 156.0
142.431198 136.0
142.447815 156.0
142.661697 136.0
142.678345 92.0
142.699738 124.0
142.740158 400.0
142.773453 112.0
142.799606 184.0
142.873352 116.0
142.897141 72.0
142.938354 188.0
142.980438 192.0
143.003098 188.0
143.072937 30468.0
143.107635 192.0
143.14946 200.0
143.167709 72.0
143.202789 384.0
143.269638 88.0
143.289993 132.0
143.320969 60.0
143.342072 152.0
143.368057 84.0
143.387695 84.0
143.46196 276.0
143.490189 116.0
143.5298 92.0
143.552185 40.0
143.599884 76.0
143.635666 188.0
143.677536 116.0
143.69516 160.0
143.723938 144.0
143.761032 324.0
143.784363 212.0
143.809845 112.0
143.836105 240.0
143.857971 208.0
143.884323 164.0
143.913055 384.0
143.93898 120.0
143.953888 336.0
143.970306 212.0
143.991608 156.0
144.01091 432.0
144.034073 528.0
144.081223 177852.0
144.170425 216.0
144.204742 168.0
144.223801 360.0
144.246689 84.0
144.277649 92.0
144.324585 348.0
144.344299 136.0
144.370575 52.0
144.412186 48.0
144.439789 84.0
144.474152 1804.0
144.498383 120.0
144.522552 228.0
144.538254 116.0
144.548264 240.0
144.579285 68.0
144.605774 92.0
144.655411 120.0
144.681656 148.0
144.716553 72.0
144.735992 152.0
144.764969 84.0
144.782135 84.0
144.802948 56.0
144.830383 168.0
144.862274 64.0
144.88092 128.0
144.906006 96.0
144.943436 72.0
144.979797 88.0
145.023697 220.0
145.084366 20256.0
145.143829 140.0
145.176819 196.0
145.194702 76.0
145.223404 272.0
145.25766 68.0
145.303101 92.0
145.319885 168.0
145.336273 96.0
145.358276 68.0
145.417999 100.0
145.43399 140.0
145.463882 144.0
145.485489 52.0
145.5047 44.0
145.563477 92.0
145.586334 60.0
145.603149 120.0
145.638702 40.0
145.659897 80.0
145.683533 64.0
145.735275 116.0
145.761703 92.0
145.791748 56.0
145.797302 64.0
145.844894 108.0
145.907349 236.0
145.944382 36.0
145.961227 108.0
145.979309 92.0
146.003418 124.0
146.066635 784.0
146.093811 3108.0
146.138931 208.0
146.146225 184.0
146.192581 136.0
146.220276 76.0
146.236252 132.0
146.273056 312.0
146.292374 200.0
146.32695 104.0
146.343246 132.0
146.366745 76.0
146.388809 180.0
146.430847 56.0
146.466537 112.0
146.490723 56.0
146.528946 60.0
146.579163 96.0
146.601547 60.0
146.651688 204.0
146.693146 60.0
146.813705 80.0
146.869171 40.0
146.996872 56.0
147.079407 512.0
147.118713 204.0
147.172638 156.0
147.199814 52.0
147.245697 92.0
147.284348 44.0
147.354874 116.0
147.400314 52.0
147.446228 40.0
147.499405 48.0
147.576767 40.0
147.850113 52.0
147.893677 52.0
147.917892 60.0
148.08606 184.0
148.243591 100.0
148.397568 48.0
148.488342 100.0
148.540649 52.0
148.606155 28.0
148.766342 92.0
148.797897 188.0
149.06546 192.0
149.095612 1148.0
149.281448 208.0
149.308197 60.0
149.330078 124.0
149.422516 48.0
149.646439 56.0
149.687836 228.0
150.097733 336.0
150.922546 176.0
151.033813 120.0
151.079071 128.0
151.152481 96.0
151.311569 84.0
151.39238 64.0
151.679047 104.0
151.850677 64.0
151.899734 100.0
152.056763 96.0
152.297394 188.0
152.371078 112.0
152.430054 88.0
152.594742 72.0
152.675888 28.0
153.067169 152.0
153.237122 84.0
153.38649 132.0
153.690811 84.0
153.708084 152.0
153.989517 76.0
154.06723 356.0
154.132797 92.0
154.345383 128.0
154.553162 108.0
154.639771 32.0
155.061615 2848.0
155.093704 288.0
155.145111 56.0
155.168503 200.0
155.212051 76.0
155.251724 28.0
155.661194 56.0
155.827606 136.0
155.847488 176.0
155.892212 32.0
156.036392 100.0
156.080399 3372.0
156.148285 56.0
156.178711 136.0
156.247787 144.0
156.314972 88.0
156.397095 164.0
156.552902 124.0
156.765701 164.0
156.813049 176.0
156.887833 124.0
157.029968 112.0
157.085815 1228.0
157.149704 36.0
157.229568 164.0
157.24704 120.0
157.339401 44.0
157.379349 60.0
157.449265 244.0
157.496719 40.0
157.694107 72.0
157.836609 124.0
158.03566 104.0
158.060333 332.0
158.082458 1284.0
158.126801 96.0
158.16008 108.0
158.324585 76.0
158.464859 40.0
158.535034 96.0
158.863495 148.0
158.918686 32.0
159.021576 84.0
159.08107 3788.0
159.167175 60.0
160.047455 108.0
160.07959 124.0
160.664764 68.0
160.682419 56.0
161.059631 4640.0
161.096161 772.0
161.153519 96.0
161.177307 108.0
161.247253 200.0
161.298615 48.0
161.328949 104.0
161.361816 48.0
161.396027 144.0
161.445267 76.0
161.511032 88.0
161.57933 212.0
161.794449 84.0
161.921051 96.0
162.065552 1272.0
162.101578 144.0
162.169357 104.0
162.26062 32.0
162.382339 40.0
162.760468 140.0
162.930634 100.0
163.070862 176.0
163.113159 136.0
163.283966 120.0
163.56131 160.0
163.642761 184.0
163.968826 128.0
164.075897 152.0
164.731766 60.0
164.900406 160.0
164.949692 128.0
165.079361 96.0
165.22261 68.0
165.253311 200.0
166.067947 124.0
166.296295 108.0
166.864014 144.0
167.071243 216.0
167.080963 224.0
167.443008 56.0
167.563751 160.0
167.649109 192.0
168.082336 112.0
168.46962 76.0
168.999634 100.0
169.077271 128.0
169.533066 140.0
169.880508 192.0
169.997269 40.0
170.02063 148.0
170.058395 372.0
170.077728 188.0
170.116653 156.0
170.516678 152.0
170.888947 128.0
170.995239 148.0
171.084381 304.0
171.975235 108.0
172.075546 296.0
172.327789 44.0
172.623413 208.0
172.835037 40.0
173.077576 408.0
173.106476 1432.0
173.141327 116.0
173.196335 56.0
173.537018 40.0
173.962036 76.0
174.067123 336.0
174.095291 512.0
174.106689 432.0
174.574234 48.0
174.924164 176.0
174.966293 88.0
175.075272 2820.0
175.567062 84.0
175.717422 224.0
175.772827 84.0
175.973434 116.0
176.083099 14164.0
176.137482 68.0
176.174149 36.0
176.192642 36.0
176.230957 88.0
176.27092 64.0
176.353836 68.0
176.390854 60.0
176.417282 80.0
176.444733 84.0
176.521805 68.0
176.54155 44.0
176.708206 52.0
176.77948 64.0
177.044373 188.0
177.087585 2856.0
177.139725 48.0
177.187408 68.0
177.224503 200.0
177.264252 72.0
177.303711 108.0
177.916748 60.0
178.06279 64.0
178.089752 372.0
178.137161 76.0
178.214203 36.0
178.254059 136.0
178.501282 60.0
178.623627 76.0
178.879089 36.0
179.004227 116.0
179.081451 108.0
179.182678 96.0
179.281281 56.0
180.095016 128.0
181.049835 172.0
181.341873 116.0
181.800491 156.0
182.04747 164.0
182.088593 276.0
182.956284 204.0
183.091492 440.0
183.640732 180.0
184.074432 880.0
184.180573 200.0
184.415649 156.0
184.688736 108.0
184.737427 168.0
184.902481 128.0
185.082031 1228.0
186.057236 152.0
186.080917 364.0
186.755615 204.0
187.086288 316.0
187.291824 48.0
187.695175 88.0
188.107834 144.0
188.317413 120.0
188.907837 144.0
189.052856 360.0
189.089676 3932.0
189.192444 72.0
189.222565 148.0
189.430695 92.0
189.477264 96.0
190.050308 152.0
190.094345 900.0
190.176544 56.0
190.214966 56.0
190.256149 44.0
190.676422 132.0
190.840149 100.0
191.069641 196.0
191.09874 152.0
191.309067 104.0
191.339355 52.0
192.301407 92.0
193.133087 116.0
193.794739 56.0
194.08577 220.0
195.405106 76.0
195.485794 184.0
195.786453 36.0
196.112442 92.0
196.212799 184.0
196.823837 180.0
197.075226 160.0
197.265274 100.0
197.614853 216.0
199.07901 252.0
199.134247 108.0
199.575455 100.0
200.104416 148.0
200.68483 80.0
201.101715 480.0
201.480743 100.0
201.692688 132.0
201.851013 36.0
202.058502 280.0
202.105591 144.0
202.165024 72.0
202.84761 44.0
203.071991 316.0
203.395081 152.0
203.679047 108.0
203.894974 120.0
203.937607 108.0
204.01152 152.0
204.0784 2608.0
204.128098 196.0
204.247543 64.0
204.275986 248.0
204.34996 152.0
204.577637 56.0
204.637436 72.0
204.919403 48.0
204.939346 112.0
205.007736 172.0
205.043839 136.0
205.086151 16856.0
205.184464 80.0
205.255737 120.0
205.281403 132.0
205.386932 172.0
205.411591 68.0
205.494049 44.0
205.521011 108.0
205.549545 128.0
205.610825 136.0
205.652298 52.0
205.692261 52.0
205.715088 56.0
205.755066 88.0
205.77504 72.0
205.797882 36.0
205.817871 40.0
205.909256 68.0
205.994949 68.0
206.016083 180.0
206.0896 1656.0
206.140656 52.0
206.23497 84.0
206.308456 68.0
206.344803 124.0
206.377914 44.0
206.400787 68.0
206.452271 52.0
206.49231 104.0
206.535202 140.0
206.566666 68.0
206.598145 76.0
207.089951 308.0
207.227997 100.0
207.253784 56.0
207.399948 64.0
207.575958 92.0
207.658005 156.0
207.701019 52.0
208.145874 88.0
208.269363 36.0
209.471756 36.0
209.693619 60.0
211.310745 140.0
211.918762 52.0
213.62587 48.0
214.117798 124.0
214.138184 92.0
214.42662 88.0
215.08873 124.0
215.930222 80.0
216.088196 108.0
216.120377 92.0
216.275482 108.0
216.656158 76.0
216.922836 76.0
217.086334 3836.0
217.172089 64.0
217.197342 144.0
217.254227 60.0
217.295288 48.0
217.647507 92.0
218.090042 932.0
218.126404 48.0
218.235168 36.0
218.258698 132.0
218.935516 40.0
219.078934 180.0
219.406982 48.0
219.678299 112.0
219.713699 96.0
219.781555 72.0
219.873032 104.0
219.899597 104.0
220.150543 72.0
220.809601 32.0
225.050232 196.0
225.08606 236.0
225.115921 92.0
225.136826 36.0
225.833206 28.0
226.099487 192.0
227.067001 164.0
227.541306 144.0
228.073029 140.0
228.145172 96.0
229.084106 140.0
229.584457 52.0
230.086151 316.0
231.542831 48.0
233.217636 60.0
234.996109 104.0
235.91539 40.0
237.458679 48.0
238.121613 56.0
240.088242 116.0
240.316513 60.0
241.530624 64.0
241.778152 124.0
242.04747 72.0
242.077255 188.0
243.076614 228.0
244.09639 168.0
244.272797 64.0
245.08252 1072.0
245.241196 108.0
245.269241 76.0
245.418884 140.0
245.52803 60.0
246.08374 188.0
246.582611 92.0
246.811508 112.0
247.208771 64.0
248.013687 64.0
248.801056 124.0
248.863846 48.0
249.083694 44.0
254.58577 48.0
256.107697 152.0
258.186981 156.0
260.832184 168.0
261.510864 76.0
262.107941 1688.0
262.690216 88.0
263.111481 192.0
263.497314 92.0
263.629791 60.0
264.114197 112.0
265.037445 80.0
265.565857 136.0
268.101807 116.0
268.581085 76.0
268.894318 132.0
270.105042 160.0
271.583832 68.0
272.259918 92.0
272.880981 116.0
272.913849 88.0
274.108002 168.0
274.151581 48.0
274.2966 116.0
277.304504 88.0
282.539215 96.0
283.202026 184.0
285.457336 92.0
285.918213 84.0
288.124207 460.0
289.083771 204.0
289.125092 168.0
290.110046 100.0
290.360962 84.0
290.500031 96.0
291.576385 176.0
294.417725 84.0
295.108002 104.0
297.09787 140.0
300.714417 164.0
302.096039 104.0
302.667664 76.0
305.138092 184.0
307.130035 180.0
308.292664 48.0
312.370392 52.0
314.968323 96.0
319.616211 136.0
322.637207 68.0
323.60675 120.0
326.074799 148.0
326.114319 140.0
327.132294 124.0
328.10498 176.0
331.216431 128.0
332.115356 96.0
339.295715 84.0
339.530396 92.0
340.093323 168.0
342.102448 192.0
342.201874 160.0
342.427399 96.0
343.296234 116.0
343.598694 112.0
344.881042 80.0
347.164459 160.0
350.99469 64.0
355.112183 152.0
355.960327 76.0
356.118073 112.0
356.922302 40.0
359.180389 148.0
359.589478 64.0
364.189819 164.0
365.95816 96.0
368.402863 64.0
370.156128 120.0
372.129303 120.0
374.244019 84.0
376.136932 156.0
376.546204 96.0
388.154907 172.0
396.374207 68.0
397.917175 100.0
399.331848 72.0
405.181671 132.0
405.227966 104.0
406.177063 240.0
407.197601 144.0
409.276672 52.0
411.631561 120.0
418.846741 64.0
425.738464 32.0
431.494904 60.0
436.599365 68.0
450.583313 96.0
457.968811 48.0
475.598602 56.0
477.627808 32.0
481.970032 80.0
485.94574 76.0
490.378418 52.0
490.872192 52.0
496.515076 44.0
506.257263 64.0
511.9021 124.0
526.048401 56.0
528.685669 72.0
530.426086 108.0
541.896851 96.0
553.120422 72.0
558.046326 68.0
559.203552 72.0
563.301086 96.0
566.399475 96.0
566.641052 72.0
570.000366 148.0
574.809875 48.0
590.800232 80.0
595.463318 84.0
600.354431 96.0
649.18866 48.0
680.787354 80.0
681.389893 204.0
688.343384 160.0
699.084595 188.0
704.774292 76.0
713.322876 224.0
715.764893 176.0
722.463196 228.0
727.361084 160.0
737.276855 212.0
741.877625 28.0
743.787109 176.0
749.710022 80.0
765.18988 176.0
782.541748 76.0
787.583069 180.0
802.093689 196.0
802.640564 96.0
805.716614 136.0
806.796021 124.0
807.378418 176.0
807.593384 244.0
808.023254 228.0
810.695862 156.0
814.321106 96.0
816.566101 140.0
820.284241 208.0
828.427429 124.0
829.90033 92.0
832.717957 212.0
834.390137 64.0
835.258484 224.0
835.643921 220.0
839.249512 156.0
839.347534 164.0
847.991333 104.0
853.563354 44.0
855.29126 172.0
858.793091 148.0
860.164307 52.0
860.602173 168.0
862.360535 208.0
864.547852 88.0
864.740967 132.0
872.101868 76.0
873.30719 72.0
879.960327 200.0
882.098877 280.0
882.625061 144.0
892.218262 52.0
893.467163 264.0
893.50885 40.0
896.974731 164.0
899.241272 152.0
901.409119 172.0
904.082214 124.0
916.910217 124.0
922.269836 208.0
923.333923 128.0
925.112854 132.0
925.421631 176.0
927.141968 164.0
929.270325 92.0
929.773987 168.0
929.840759 140.0
931.291809 132.0
931.668457 236.0
933.005432 120.0
933.637817 128.0
933.741211 276.0
935.085754 108.0
937.875305 148.0
938.015503 48.0
939.723083 180.0
940.08313 52.0
943.118469 196.0
943.375244 112.0
946.820068 172.0
947.812439 212.0
949.768127 164.0
950.9646 184.0
951.541626 72.0
952.898926 196.0
954.078918 44.0
960.705322 168.0
962.637207 96.0
964.719421 36.0
966.259277 208.0
971.488037 200.0
972.102295 136.0
974.238159 100.0
976.805542 176.0
979.750061 148.0
981.152283 128.0
983.07959 124.0
985.258728 208.0
985.678894 192.0
987.390259 160.0
988.309814 164.0
993.259033 148.0
993.779724 128.0
995.41803 208.0
995.512207 196.0
995.694336 32.0
995.914124 40.0
998.132568 240.0
1002.413025 216.0
1002.709229 180.0
1005.010925 216.0
1005.162354 156.0
1006.090149 132.0
1006.955261 192.0
1008.408386 172.0
1012.102844 188.0
1014.402649 160.0
1017.485779 156.0
1020.796143 144.0
1022.933899 188.0
1025.258667 152.0
1027.107666 208.0
1028.830566 148.0
1029.315796 184.0
1033.835327 92.0
1035.205322 56.0
1038.65332 64.0
1039.128052 128.0
1039.904541 232.0
1040.636353 124.0
1042.473389 44.0
1043.212646 208.0
1050.682983 180.0
1051.360474 128.0
1052.010864 192.0
1054.706055 180.0
1062.282227 164.0
1064.287598 144.0
1064.469482 44.0
1064.534424 160.0
1064.820068 140.0
1066.093506 240.0
1066.281982 136.0
1067.907349 200.0
1071.793823 40.0
1072.002319 224.0
1073.036133 132.0
1076.046387 268.0
1076.222656 124.0
1076.751587 92.0
1078.090942 148.0
1080.0 188.0
1082.310181 116.0
1085.022583 220.0
1085.494751 132.0
1086.255493 164.0
1087.41687 188.0
1087.521851 168.0
1088.49353 244.0
1088.802124 192.0
1088.913818 156.0
1090.168579 120.0
1090.589233 160.0
1092.075195 140.0
1092.989624 56.0
1094.661621 128.0
1095.260986 200.0
1096.947876 52.0
1097.112671 148.0
1097.640137 152.0
1098.33252 36.0
1098.51062 148.0
1101.877563 180.0
1103.119995 132.0
1103.900146 84.0
1104.131592 68.0
1104.316772 152.0
1107.944214 160.0
1109.037598 124.0
1112.818848 120.0
1113.396606 152.0
1113.901367 136.0
1119.754639 116.0
1120.360718 176.0
1120.833862 168.0
1122.160156 100.0
1124.701904 276.0
1125.643188 212.0
1125.923706 84.0
1126.845459 180.0
1128.409424 168.0
1128.462891 152.0
1128.543213 84.0
1129.740356 244.0
1130.275513 180.0
1131.339722 196.0
1138.03064 176.0
1138.084351 196.0
1138.440308 36.0
1139.118652 200.0
1139.609131 180.0
1139.703125 172.0
1140.738159 168.0
1142.412598 172.0
1142.661499 120.0
1142.896973 156.0
1145.522583 184.0
1148.900024 220.0
1149.554443 136.0
1150.614136 112.0
1151.701416 192.0
1154.77002 104.0
1155.696777 148.0
1156.969116 68.0
1158.018677 116.0
1159.238159 160.0
1159.387207 32.0
1159.448242 160.0
1161.672241 172.0
1162.843262 148.0
1163.470581 212.0
1165.093628 92.0
1165.222778 60.0
1165.379028 112.0
1169.432007 244.0
1170.786865 68.0
1171.99939 92.0
1172.401367 248.0
1174.644531 148.0
1175.217651 212.0
1176.466553 164.0
1177.593262 172.0
1178.17395 180.0
1178.460815 164.0
1180.429443 184.0
1181.640137 164.0
1184.131714 228.0
1184.255005 168.0
1184.378296 208.0
1185.563599 192.0
1185.878906 212.0
1186.413574 132.0
1187.442139 88.0
1187.503784 156.0
1190.619629 196.0
1190.743286 176.0
1192.63269 136.0
1192.797729 108.0
1193.72583 208.0
1194.014648 140.0
1195.019043 132.0
1195.98938 152.0
1197.600464 36.0
1197.669434 156.0
1198.323853 132.0
1200.73645 140.0
1200.943359 260.0
1201.523193 156.0
1202.074829 92.0
1203.317261 148.0
1203.604492 120.0
1204.293457 188.0
1204.353149 172.0
1204.470459 152.0
1205.085327 196.0
1205.465454 152.0
1206.488281 128.0
1206.702637 108.0
1207.665527 220.0
1207.891968 176.0
1208.05127 156.0
1209.629028 148.0
1209.878174 156.0
1209.961304 196.0
1210.279785 64.0
1210.937622 156.0
1211.088989 128.0
1211.581787 140.0
1212.170776 160.0
1212.517334 168.0
1212.947021 140.0
1213.584839 164.0
1213.771973 172.0
1216.193237 124.0
1216.248779 72.0
1217.970703 80.0
1218.325073 164.0
1218.422241 184.0
1220.152832 196.0
1222.385498 144.0
1223.887329 176.0
1223.98645 120.0
1224.857056 164.0
1225.156616 76.0
1226.752441 72.0
1227.449707 188.0
1227.526367 232.0
1227.75647 148.0
1227.930786 152.0
1228.223755 208.0
1228.558594 136.0
1228.635376 120.0
1228.73999 44.0
1228.788818 128.0
1229.144653 224.0
1229.654175 116.0
1229.800659 196.0
1229.898438 196.0
1229.982178 128.0
1230.128784 60.0
1230.470825 236.0
1231.155151 68.0
1233.999023 216.0
1234.411621 216.0
1235.376343 180.0
1235.936523 200.0
1235.999512 204.0
1236.447388 144.0
1237.042358 68.0
1237.196289 132.0
1237.30127 172.0
1237.385376 216.0
1238.162598 172.0
1239.02417 116.0
1239.900024 196.0
1241.617676 216.0
1243.055786 200.0
1244.024292 160.0
1244.312134 132.0
1244.466675 140.0
1245.168823 64.0
1245.232056 100.0
1245.702637 224.0
1245.822144 160.0
1246.960449 216.0
1247.935913 236.0
1248.415649 168.0
1248.957275 204.0
1249.175293 120.0
1249.31604 132.0
1249.639648 128.0
1250.554443 108.0
1251.173828 124.0
1251.349854 164.0
1252.857056 96.0
1253.371338 168.0
1253.794189 196.0
1253.899902 220.0
1254.54834 156.0
1255.133545 144.0
1255.590332 268.0
1255.803467 160.0
1257.567383 220.0
1258.767578 136.0
1260.43457 132.0
1260.738403 160.0
1261.190796 156.0
1263.934692 140.0
1264.189453 216.0
1264.359375 216.0
1264.656616 124.0
1267.092529 40.0
1267.191772 120.0
1267.269653 260.0
1267.48938 156.0
1268.098755 120.0
1268.999023 140.0
1270.942505 152.0
1271.559937 252.0
1272.092163 84.0
1273.157227 48.0
1273.817749 148.0
1274.94043 120.0
1275.224731 196.0
1275.78186 256.0
1276.312378 124.0
1276.646606 152.0
1276.987915 188.0
1277.201294 48.0
1277.578369 140.0
1277.628174 124.0
1278.702637 204.0
1279.129639 100.0
1279.91272 144.0
1280.154907 184.0
1280.240356 208.0
1280.510986 60.0
1281.223267 140.0
1282.092529 120.0
1282.791016 132.0
1283.154663 160.0
1283.839111 172.0
1284.994751 180.0
1285.622681 224.0
1285.908081 44.0
1286.721924 144.0
1287.878662 144.0
1288.264404 208.0
1289.279053 196.0
1289.572021 172.0
1289.900879 176.0
1290.056152 156.0
1290.481201 216.0
1291.259399 220.0
1291.552612 204.0
1291.982422 204.0
1292.940674 196.0
1293.491821 184.0
1293.613403 176.0
1294.222046 204.0
1294.422485 176.0
1294.572876 148.0
1294.780518 120.0
1294.880859 96.0
1295.439575 84.0
1295.640137 184.0
1295.869385 56.0
1296.105835 148.0
1296.994507 136.0
1297.489136 192.0
1298.363892 176.0
1299.360962 108.0
1299.432739 168.0
1299.913452 240.0
1300.623901 224.0
1301.061768 200.0
1301.196777 156.0
1301.215576 124.0
1301.535645 144.0
1301.708008 196.0
1302.088623 196.0
1302.260986 156.0
1303.942261 44.0
1304.330322 112.0
1304.797607 148.0
1305.207397 208.0
1305.344116 152.0
1305.689209 40.0
1306.696289 172.0
1306.789795 176.0
1307.919678 176.0
1308.013306 136.0
1308.157227 160.0
1308.632324 104.0
1309.251587 128.0
1310.663574 272.0
1310.829224 100.0
1310.886963 76.0
1311.081543 160.0
1311.867188 208.0
1312.242065 136.0
1313.179443 184.0
1313.22998 200.0
1314.268799 112.0
1314.405884 124.0
1314.78833 192.0
1315.741089 200.0
1315.950439 216.0
1316.015503 52.0
1318.124634 184.0
1318.355835 236.0
1318.457031 128.0
1318.991943 392.0
1319.252075 132.0
1320.112549 68.0
1320.908081 132.0
1321.617065 116.0
1321.863159 196.0
1322.326294 144.0
1322.57959 180.0
1322.775024 124.0
1323.136963 60.0
1323.26001 136.0
1323.882812 160.0
1324.324585 208.0
1324.491211 164.0
1324.824341 212.0
1325.215576 124.0
1326.02002 132.0
1326.781128 152.0
1326.969604 104.0
1327.143555 136.0
1327.578613 220.0
1327.709229 164.0
1328.303955 120.0
1329.123779 184.0
1329.664673 84.0
1330.267578 184.0
1330.37207 248.0
1330.437378 136.0
1330.99646 108.0
1331.347046 204.0
1333.103027 240.0
1333.226562 200.0
1333.321045 184.0
1334.295044 152.0
1334.375122 52.0
1334.731323 168.0
1335.153076 160.0
1335.476929 140.0
1336.447998 52.0
1336.789917 396.0
1337.233887 112.0
1337.605103 156.0
1338.289429 208.0
1338.762695 140.0
1338.988525 172.0
1340.57666 116.0
1341.043091 144.0
1341.407471 152.0
1342.074463 184.0
1342.187622 168.0
1342.486572 168.0
1343.245117 224.0
1343.609863 76.0
1343.908936 164.0
1344.536499 192.0
1344.791992 108.0
1345.78479 108.0
1345.908936 196.0
1346.106079 140.0
1346.792603 80.0
1347.515747 244.0
1347.596191 100.0
1347.661865 168.0
1347.917603 148.0
1349.138184 104.0
1349.306396 148.0
1349.430664 144.0
1350.000977 168.0
1351.3396 128.0
1351.815186 120.0
1351.903076 164.0
1352.10791 144.0
1352.290894 140.0
1353.118042 204.0
1353.37439 204.0
1353.945557 152.0
1354.824463 128.0
1354.970947 44.0
1355.073608 132.0
1356.07019 68.0
1356.817871 152.0
1357.015747 184.0
1357.32373 188.0
1357.375122 168.0
1358.071777 68.0
1358.981445 208.0
1360.36853 168.0
1360.449219 172.0
1360.720947 96.0
1361.05127 144.0
1361.20752 72.0
1362.028076 204.0
1362.383057 212.0
1362.688843 220.0
1363.754761 192.0
1364.070801 76.0
1364.379517 164.0
1364.695679 232.0
1366.093018 48.0
1366.424072 152.0
1368.543823 148.0
1369.331787 228.0
1369.722168 144.0
1369.935791 132.0
1370.893555 60.0
1371.04834 112.0
1371.144165 144.0
1371.28418 152.0
1371.53479 104.0
1372.227661 388.0
1372.389893 140.0
1372.670166 180.0
1372.743896 152.0
1373.385498 108.0
1373.606812 156.0
1373.754272 136.0
1374.027222 212.0
1374.410889 136.0
1374.499512 68.0
1374.809448 156.0
1375.281738 108.0
1375.570312 180.0
1376.042114 180.0
1376.101196 48.0
1376.588501 148.0
1376.758301 124.0
1376.920776 188.0
1377.164551 64.0
1378.014038 156.0
1378.509155 152.0
1378.885986 124.0
1379.669556 176.0
1379.758301 80.0
1381.50354 140.0
1381.792114 140.0
1381.879761 232.0
1382.080688 172.0
1382.672607 116.0
1383.116089 228.0
1383.671997 188.0
1384.582764 40.0
1385.449341 44.0
1385.753052 152.0
1386.202026 184.0
1386.931396 192.0
1387.413208 192.0
1387.665283 132.0
1388.414185 68.0
1388.67749 164.0
1389.200439 76.0
1389.742065 152.0
1390.083374 92.0
1390.135254 60.0
1391.567871 192.0
1392.236206 200.0
1392.696655 180.0
1393.714355 164.0
1394.032471 164.0
1394.464966 152.0
1394.628418 52.0
1395.334717 192.0
1395.907227 132.0
1396.561646 180.0
1396.673218 176.0
1396.978149 156.0
1397.097168 224.0
1397.558472 284.0
1398.086792 152.0
1398.674805 184.0
1398.734375 184.0
1398.950195 116.0
1399.032104 164.0
1399.44165 84.0
1400.417114 128.0
1400.87146 60.0
1400.990723 204.0
1401.057739 144.0
1401.124756 200.0
1401.206787 116.0
1401.58667 120.0
1402.421387 120.0
1402.529297 172.0
1402.727051 156.0
1402.846313 132.0
1403.010254 112.0
1403.423218 216.0
1403.733521 88.0
1403.934814 156.0
1404.113892 228.0
1404.68811 96.0
1404.800049 220.0
1404.874634 228.0
1405.016357 108.0
1405.247681 184.0
1405.479004 160.0
1405.68042 152.0
1405.979004 216.0
1406.13562 188.0
1406.874634 88.0
1407.92749 212.0
1408.009644 228.0
1408.86853 204.0
1409.017944 72.0
1409.070312 268.0
1409.331787 192.0
1410.385498 48.0
1410.490112 152.0
1411.2677 148.0
1411.759155 208.0
1412.352051 212.0
1412.486694 184.0
1412.539062 120.0
1413.608887 136.0
1414.334839 216.0
1415.075928 160.0
1415.233154 160.0
1415.315552 160.0
1415.412964 208.0
1415.652588 148.0
1416.146851 152.0
1416.371582 192.0
1416.93335 128.0
1417.008301 120.0
1417.375366 176.0
1417.712646 100.0
1418.072388 136.0
1418.634521 124.0
1418.74646 176.0
1419.03186 120.0
1419.149658 192.0
1419.294312 132.0
1420.089233 184.0
1420.239258 172.0
1421.589722 184.0
1421.762329 176.0
1423.03833 152.0
1423.241089 220.0
1423.301147 240.0
1423.947021 128.0
1424.46521 184.0
1424.901001 200.0
1425.532104 68.0
1426.185913 224.0
1426.809937 192.0
1427.787354 168.0
1428.343994 152.0
1428.765259 224.0
1429.449951 176.0
1430.142334 216.0
1430.194946 152.0
1430.247681 192.0
1430.481079 204.0
1430.819824 44.0
1431.71582 168.0
1431.791138 140.0
1432.047241 180.0
1432.212891 192.0
1432.363525 212.0
1432.577148 196.0
1432.7854 160.0
1433.003906 104.0
1433.252563 132.0
1434.449585 120.0
1434.925781 144.0
1435.340454 136.0
1435.507446 192.0
1435.634521 212.0
1436.305786 124.0
1436.577393 148.0
1437.030518 188.0
1437.279053 132.0
1437.437378 192.0
1437.837402 184.0
1438.055664 188.0
1438.146851 160.0
1438.214844 128.0
1438.328003 164.0
1438.728149 168.0
1438.999878 152.0
1439.256592 56.0
1439.732422 140.0
1439.81543 140.0
1440.880493 148.0
1441.352295 116.0
1442.074463 116.0
1442.134888 36.0
1443.714966 264.0
1443.851074 136.0
1444.380615 120.0
1444.439087 92.0
1444.925293 132.0
1445.061401 168.0
1446.128418 200.0
1446.431152 228.0
1446.635498 136.0
1446.908081 168.0
1447.687988 184.0
1447.740967 108.0
1447.953003 164.0
1448.634766 160.0
1448.703857 136.0
1449.081665 56.0
1449.369629 148.0
1449.733398 260.0
1450.059204 84.0
1450.271484 344.0
1450.695923 132.0
1450.817261 148.0
1451.112915 124.0
1451.181152 144.0
1451.431396 160.0
1451.529907 160.0
1451.984985 140.0
1452.075928 172.0
1453.183472 212.0
1453.335205 188.0
1453.69519 144.0
1454.329346 160.0
1454.481201 108.0
1454.579834 156.0
1454.982178 368.0
1455.080811 96.0
1455.247925 148.0
1455.870605 172.0
1455.934692 180.0
1456.500977 136.0
1456.622681 160.0
1456.903564 160.0
1457.116211 140.0
1457.617798 232.0
1457.670898 168.0
1458.14209 156.0
1458.294067 120.0
1458.408081 252.0
1458.590576 140.0
1458.681763 176.0
1458.970581 104.0
1459.092285 208.0
1459.153076 136.0
1459.229126 148.0
1459.396362 56.0
1459.99707 172.0
1460.07312 132.0
1461.107666 160.0
1461.320679 180.0
1461.599365 140.0
1462.117676 220.0
1462.357788 164.0
1462.720947 72.0
1462.835083 156.0
1463.215698 156.0
1463.489868 180.0
1463.926758 200.0
1464.236084 172.0
1464.457031 68.0
1464.601685 132.0
1464.898804 148.0
1465.005371 188.0
1465.234009 200.0
1465.523438 136.0
1465.934937 168.0
1466.224609 164.0
1467.024902 48.0
1467.177368 176.0
1467.299316 176.0
1467.37561 216.0
1467.985596 116.0
1468.138062 192.0
1468.961792 204.0
1469.045776 172.0
1469.647583 172.0
1470.593872 192.0
1470.655762 192.0
1470.945801 152.0
1471.09082 176.0
1471.350464 172.0
1471.655762 176.0
1472.314697 212.0
1473.091553 88.0
1473.442993 168.0
1473.695068 208.0
1474.130615 108.0
1475.124268 56.0
1475.605835 100.0
1475.789307 168.0
1476.057007 152.0
1476.416382 228.0
1476.936523 160.0
1477.097168 96.0
1477.25769 180.0
1477.816284 160.0
1477.895142 128.0
1478.734497 84.0
1479.323853 140.0
1479.477051 132.0
1479.852173 168.0
1479.974609 216.0
1480.334595 124.0
1480.533691 132.0
1480.697388 196.0
1480.755737 76.0
1481.092773 104.0
1481.146362 240.0
1481.26123 148.0
1482.104004 192.0
1482.241943 140.0
1482.655762 200.0
1482.770752 132.0
1483.02356 156.0
1483.299561 156.0
1483.620483 124.0
1483.943481 188.0
1484.431641 152.0
1484.840698 152.0
1485.331543 120.0
1485.983643 132.0
1486.321289 148.0
1486.712646 72.0
1486.774048 76.0
1487.280518 116.0
1487.3573 44.0
1487.549194 188.0
1487.864014 52.0
1489.837646 92.0
1490.175659 104.0
1490.298584 168.0
1490.69812 128.0
1491.366821 132.0
1491.428223 204.0
1491.849121 188.0
1494.150513 172.0
1494.227417 116.0
1494.550537 180.0
1494.866089 148.0
1495.004517 64.0
1496.120605 140.0
1496.628784 148.0
1496.936768 48.0
1497.429688 160.0
1497.699219 84.0
1497.899536 160.0
1498.446411 212.0
1498.762329 188.0
1498.870239 184.0
1499.116821 116.0
1499.702515 132.0
1499.933838 168.0
1500.041748 44.0
1500.126465 184.0
1500.350098 132.0
1501.383301 60.0
1501.455688 184.0
1502.424561 72.0
1503.365845 180.0
1503.715698 188.0
1503.991089 180.0
1504.114502 132.0
1504.353882 192.0
