>compound MLS001140588-01!N-[3-(3,4-dimethoxyphenyl)-4-oxochromen-2-yl]furan-2-carboxamide
>formula C22H17NO6
>ionization [M+H]+
>parentmass 392.111572
#inchi InChI=1S/C22H17NO6/c1-26-16-10-9-13(12-18(16)27-2)19-20(24)14-6-3-4-7-15(14)29-22(19)23-21(25)17-8-5-11-28-17/h3-12H,1-2H3,(H,23,25)
#inchikey NAPKGJSMGPEKOJ
#Ion_Source LC-ESI
#Instrument qTof
#Compound_Source NIH Natural Product Library
#PI Dorrestein
#Data_Collector VVP/LMS
#Scan -1
#Precursor_MZ 392.113
#ExactMass 391.106
#Charge 1
#CAS_Number N/A
#Pubmed_ID N/A
#Smiles COc1ccc(cc1OC)c2c(NC(=O)c3ccco3)oc4ccccc4c2=O
#INCHI_AUX N/A
#Library_Class 1
#SpectrumID CCMSLIB00000079915
#IonMode Positive
#UpdateWorkflowName UPDATE-SINGLE-ANNOTATED-GOLD
#LibraryQualityString Gold
#TaskID b1d8e8f6646f4e71acdff9ca3d919d08
##Scan# 1943
#SpectrumFile p1-G12_GG12_01_17956.mzXML
#LibraryName NIH_Natural_Products_Library.mgf
#MQScore -1
#Organism NIH_Natural_Products_Library
#TIC_Query 0
#RT_Query -1
#MZErrorPPM -1
#SharedPeaks 0
#MassDiff 0
#LibMZ -1
#SpecMZ 392.113
#SpecCharge 0
#internalFilename spec-00000.mgf

>collision 10
94.954453 336.0
94.959175 236.0
94.968201 132.0
94.975136 208.0
94.989243 264.0
95.013092 36720.0
95.067551 168.0
95.090843 32.0
95.122665 132.0
95.136497 108.0
95.162666 60.0
95.1782 64.0
95.205185 76.0
95.243416 148.0
95.272438 108.0
95.331108 52.0
95.353035 40.0
95.38166 88.0
95.467743 92.0
95.522202 140.0
95.53582 116.0
95.563057 88.0
95.582512 72.0
95.660362 72.0
95.929184 48.0
95.954529 84.0
95.968178 212.0
96.015121 2540.0
96.069595 56.0
96.219864 80.0
96.352669 72.0
96.417152 84.0
96.467972 76.0
96.501205 144.0
96.577477 72.0
96.598991 120.0
96.636162 160.0
96.703606 112.0
96.748596 128.0
96.763382 40.0
96.804497 108.0
96.857376 88.0
97.016106 384.0
97.196548 100.0
97.337875 128.0
98.050018 84.0
98.124924 108.0
98.507774 116.0
98.549263 76.0
98.733101 52.0
99.224174 156.0
99.394745 40.0
99.478104 188.0
99.764168 176.0
99.833755 180.0
99.947144 188.0
100.32357 76.0
100.437233 164.0
100.493088 136.0
100.511047 48.0
100.538986 164.0
100.794594 164.0
100.934517 196.0
100.968513 140.0
100.990509 176.0
101.012512 60.0
101.104553 128.0
101.198639 108.0
101.406975 100.0
101.948845 44.0
102.230385 156.0
102.401512 148.0
102.937958 176.0
103.024803 132.0
103.071274 132.0
103.617569 140.0
103.887207 224.0
104.0252 160.0
104.144997 128.0
104.329918 88.0
104.423454 200.0
104.965164 180.0
104.987595 80.0
105.028381 148.0
105.299843 208.0
105.430595 152.0
106.225021 120.0
106.576088 232.0
106.950371 128.0
107.04834 324.0
107.242859 108.0
108.021309 100.0
108.05751 304.0
108.481026 112.0
108.537003 140.0
108.738235 336.0
108.806732 192.0
109.928635 96.0
109.955765 104.0
109.970367 208.0
110.07058 144.0
110.71257 160.0
111.524513 164.0
112.044281 216.0
112.607491 84.0
112.708893 68.0
113.023949 176.0
113.212349 228.0
113.646896 236.0
113.731789 144.0
113.980263 240.0
114.422668 176.0
114.611359 64.0
114.669769 96.0
115.055855 224.0
115.361351 164.0
115.380592 160.0
116.048584 168.0
116.08503 140.0
116.458466 156.0
116.580925 196.0
116.735703 84.0
116.761505 164.0
116.978828 44.0
117.108025 88.0
117.552132 180.0
118.042496 176.0
118.079262 244.0
118.215553 156.0
118.462555 248.0
118.885178 152.0
119.045822 156.0
119.889893 136.0
120.017456 108.0
120.26284 176.0
120.389465 192.0
120.430962 184.0
120.734756 192.0
120.769753 204.0
120.890259 192.0
120.984192 104.0
121.027977 12420.0
121.058975 188.0
121.207596 100.0
121.45533 76.0
122.029968 1028.0
122.074677 256.0
122.56115 192.0
122.642693 188.0
122.702209 48.0
122.722054 52.0
122.772766 172.0
122.889679 108.0
123.040565 308.0
123.072876 152.0
123.351242 132.0
123.758316 184.0
124.352425 140.0
124.441216 128.0
124.943504 164.0
124.967972 172.0
125.219521 152.0
126.541489 144.0
126.823753 88.0
127.131012 196.0
127.46785 204.0
128.046005 128.0
128.176666 80.0
128.260056 108.0
129.059235 112.0
129.23114 208.0
129.323929 80.0
130.251312 160.0
130.819809 96.0
131.056656 188.0
131.321106 96.0
131.638321 140.0
131.793655 220.0
131.827927 156.0
132.555634 136.0
133.025894 692.0
133.053345 160.0
133.07402 96.0
133.283035 44.0
133.345078 168.0
133.494507 128.0
134.034103 400.0
134.17836 180.0
134.429779 208.0
134.799255 132.0
135.042465 884.0
135.109085 168.0
135.398422 140.0
136.015167 164.0
136.05098 1540.0
136.231125 116.0
136.305481 32.0
136.393784 48.0
137.059052 1480.0
137.112991 72.0
137.222549 116.0
137.301834 168.0
137.747635 148.0
138.067963 1808.0
138.097107 84.0
138.168427 188.0
138.273727 104.0
138.336929 68.0
138.367355 196.0
138.608612 204.0
138.866486 172.0
139.049484 160.0
139.073227 276.0
139.413498 176.0
139.479309 124.0
139.752121 160.0
139.996918 160.0
140.069931 128.0
140.206589 160.0
140.484818 140.0
140.994843 88.0
141.071838 144.0
141.399185 124.0
141.654968 248.0
142.02002 80.0
143.067947 160.0
143.094131 40.0
143.594955 144.0
143.642258 96.0
146.034012 360.0
146.078461 136.0
146.302261 132.0
146.661179 76.0
147.044678 212.0
147.186829 168.0
147.609985 56.0
147.677689 176.0
147.87851 232.0
148.05014 552.0
148.316925 108.0
148.40419 184.0
148.620056 124.0
148.717133 96.0
149.026688 512.0
149.053238 152.0
149.096008 124.0
149.76265 40.0
150.028259 148.0
150.250183 60.0
150.626129 128.0
150.674988 128.0
151.042648 184.0
151.073975 1416.0
151.291275 156.0
151.572937 56.0
151.933365 168.0
152.06395 216.0
153.019653 52.0
153.060181 200.0
153.120605 184.0
153.403976 128.0
153.867767 140.0
154.361938 140.0
154.963409 176.0
155.046295 224.0
155.082489 152.0
155.342728 108.0
155.871552 152.0
156.172363 124.0
156.528244 116.0
157.066574 160.0
158.641968 164.0
159.337128 108.0
159.9608 184.0
160.0392 256.0
161.009705 72.0
161.037125 168.0
161.067032 176.0
162.049347 148.0
162.148178 76.0
162.985611 92.0
163.038986 224.0
163.059311 144.0
163.896545 152.0
164.045715 2100.0
164.227966 52.0
164.276428 220.0
165.070114 412.0
165.224213 40.0
165.892609 68.0
165.928497 192.0
166.060013 112.0
166.285065 152.0
166.382599 184.0
167.077805 124.0
167.274643 72.0
167.965225 48.0
168.057541 324.0
168.194885 104.0
168.644318 192.0
169.00119 72.0
169.065399 192.0
169.58905 208.0
169.723862 128.0
169.946915 92.0
170.801636 128.0
171.044144 160.0
171.283188 156.0
172.399872 172.0
172.423386 76.0
172.616837 204.0
173.051193 136.0
174.552063 144.0
174.820389 112.0
175.042252 200.0
176.06691 192.0
176.146576 96.0
176.394974 124.0
177.056137 236.0
177.082932 248.0
177.247177 88.0
177.300186 220.0
177.347885 60.0
177.819992 168.0
178.07753 176.0
178.194412 152.0
178.667648 128.0
179.066757 328.0
179.501328 84.0
180.059067 684.0
180.318222 32.0
180.454559 160.0
181.060257 620.0
181.418365 172.0
182.000549 188.0
182.065002 200.0
182.325592 180.0
182.642853 196.0
182.707413 44.0
182.734329 148.0
182.755844 116.0
182.84465 88.0
183.046555 212.0
183.081635 288.0
183.221619 112.0
184.058289 176.0
184.090149 108.0
184.19278 52.0
184.260315 32.0
184.622513 132.0
185.050049 96.0
186.015182 124.0
186.056015 184.0
186.759705 88.0
187.042465 144.0
187.808365 240.0
188.20134 156.0
188.310577 152.0
188.534592 140.0
188.715012 180.0
188.898239 228.0
189.60466 220.0
189.93367 140.0
190.025467 1772.0
190.53212 116.0
190.878433 152.0
191.0242 140.0
191.046204 152.0
191.06546 160.0
191.461838 192.0
191.668442 156.0
191.759384 224.0
192.052521 164.0
192.471115 44.0
192.747345 156.0
193.052872 84.0
193.851456 112.0
194.016312 232.0
194.068741 176.0
194.367218 100.0
195.044861 160.0
195.080765 676.0
195.186646 64.0
195.801666 128.0
196.01059 36.0
196.049622 640.0
196.079697 156.0
196.375793 136.0
197.057709 616.0
197.094925 120.0
197.118408 76.0
197.484634 36.0
197.820419 168.0
197.842804 156.0
198.056671 216.0
198.720032 204.0
199.031586 184.0
199.075485 232.0
199.537323 256.0
199.911423 180.0
200.045319 200.0
200.075211 128.0
201.064117 176.0
201.095093 192.0
204.073074 340.0
204.171936 72.0
204.243042 52.0
204.410889 168.0
204.946213 104.0
205.050232 120.0
205.069626 156.0
205.274017 160.0
205.961838 172.0
206.066025 144.0
206.862579 168.0
207.040085 112.0
207.148926 208.0
207.616119 160.0
207.980499 52.0
208.043945 432.0
208.575089 184.0
208.931671 116.0
209.058716 484.0
209.084167 56.0
209.173401 100.0
209.325989 128.0
209.357666 120.0
209.7668 88.0
209.801392 116.0
209.945557 72.0
210.000351 216.0
210.060822 192.0
210.41301 224.0
211.070709 852.0
211.326309 128.0
212.037643 192.0
212.070068 292.0
212.079697 348.0
213.048492 368.0
213.080399 144.0
213.711319 156.0
214.059082 320.0
215.052124 196.0
215.109741 196.0
215.896179 208.0
215.940048 120.0
216.449249 60.0
217.081055 328.0
218.056885 156.0
218.098022 172.0
218.559738 144.0
218.886475 196.0
220.082397 200.0
221.062057 156.0
222.052017 352.0
222.838181 52.0
223.035934 124.0
223.066345 468.0
223.114578 212.0
223.313812 136.0
224.046814 804.0
224.082764 128.0
225.049484 164.0
225.073502 340.0
226.061859 204.0
226.705353 164.0
226.771286 144.0
226.968353 136.0
227.062119 172.0
227.887619 56.0
228.07695 196.0
228.272369 104.0
229.045853 148.0
229.069946 112.0
229.091034 172.0
229.560745 128.0
229.995667 136.0
230.09227 140.0
230.430527 84.0
231.083588 120.0
231.719391 144.0
232.374283 180.0
232.720291 132.0
233.422195 116.0
233.951599 148.0
234.051605 160.0
234.362747 176.0
235.029922 84.0
235.059128 88.0
236.035461 176.0
236.067734 600.0
237.051636 340.0
237.735596 52.0
238.055176 844.0
238.143921 64.0
238.386627 60.0
238.488037 96.0
238.789352 104.0
239.068192 852.0
239.15242 44.0
239.469543 48.0
239.589676 124.0
240.036591 192.0
240.073746 336.0
240.181549 100.0
240.400604 84.0
240.517883 56.0
240.835922 44.0
241.060318 120.0
241.095444 200.0
241.49556 128.0
241.658234 124.0
243.02771 140.0
243.061844 204.0
243.104996 1080.0
244.101395 360.0
244.307739 152.0
245.114136 108.0
245.915619 100.0
246.034241 40.0
246.09668 140.0
246.49025 92.0
247.006104 188.0
247.057785 200.0
248.036316 148.0
248.067657 104.0
248.327911 208.0
248.748367 60.0
249.053284 232.0
249.081223 172.0
249.757034 80.0
250.050461 216.0
250.805557 172.0
251.056305 696.0
251.08757 380.0
251.120865 152.0
251.142944 92.0
251.635223 72.0
251.736267 72.0
251.780487 188.0
251.998444 200.0
252.044632 772.0
252.535843 76.0
253.053085 852.0
253.077881 324.0
253.793076 52.0
254.01825 212.0
254.07785 484.0
255.063889 584.0
255.603622 112.0
256.062347 156.0
256.495361 104.0
256.807831 40.0
256.849304 128.0
257.082214 100.0
257.337585 48.0
257.423065 160.0
257.580292 152.0
258.238739 132.0
258.984497 120.0
260.062256 152.0
260.086426 180.0
260.174194 80.0
261.12854 144.0
262.058868 120.0
262.097534 180.0
262.287659 128.0
262.316681 120.0
262.674622 172.0
263.054749 436.0
263.226501 148.0
264.06311 240.0
264.365967 248.0
265.046692 644.0
265.067017 900.0
265.154602 44.0
265.268036 44.0
265.63446 160.0
265.696106 44.0
265.803162 60.0
266.053802 1252.0
266.234924 108.0
266.267395 84.0
266.572784 64.0
266.631256 164.0
266.732025 100.0
267.016846 220.0
267.064026 2428.0
267.136719 64.0
267.678772 80.0
267.835114 104.0
268.065491 732.0
268.128357 52.0
268.190277 108.0
268.643524 40.0
268.868652 60.0
268.98291 88.0
269.049225 600.0
269.319214 52.0
269.60672 228.0
269.675354 52.0
269.871521 44.0
269.979431 148.0
270.048096 108.0
271.094299 488.0
271.328461 152.0
271.548157 156.0
271.915619 108.0
272.08902 428.0
272.276764 88.0
272.565857 104.0
272.644714 160.0
273.065521 132.0
273.131317 276.0
273.559113 60.0
273.713837 176.0
274.056396 212.0
274.078339 252.0
274.745453 64.0
274.857635 76.0
274.940155 132.0
275.006165 124.0
275.064545 180.0
275.198792 68.0
276.069977 88.0
276.136108 160.0
276.837738 292.0
277.079712 160.0
277.11264 60.0
277.149109 44.0
278.036438 116.0
278.386383 120.0
279.05188 500.0
279.094177 348.0
279.91272 36.0
280.019287 68.0
280.059113 2820.0
280.150787 136.0
280.209167 232.0
280.502441 92.0
280.632446 116.0
280.685822 96.0
280.968292 156.0
281.063751 1132.0
281.152832 84.0
281.179535 68.0
281.930969 152.0
282.073242 1892.0
282.522797 84.0
282.91098 52.0
283.065857 784.0
283.795471 100.0
283.953064 84.0
284.066376 2456.0
284.513458 148.0
284.536957 52.0
284.641022 108.0
284.802246 64.0
285.070679 536.0
285.689667 48.0
286.076538 104.0
286.110352 140.0
286.389832 48.0
286.45047 164.0
287.057129 184.0
287.107697 112.0
287.175171 88.0
287.299988 136.0
287.431549 160.0
287.775848 116.0
287.954803 148.0
288.073914 184.0
288.238586 160.0
288.552917 48.0
289.06366 172.0
289.439423 184.0
289.74762 152.0
290.032288 100.0
290.133972 80.0
291.019501 76.0
291.052948 264.0
291.34552 132.0
291.92334 148.0
292.032166 140.0
292.061279 560.0
292.379211 40.0
293.069916 136.0
293.714813 60.0
294.040131 444.0
294.077576 200.0
294.195953 192.0
295.046265 196.0
295.275696 28.0
295.522003 120.0
296.047424 328.0
296.089661 652.0
296.761902 132.0
297.097748 744.0
297.135742 176.0
297.410248 52.0
297.451447 140.0
297.575043 48.0
297.633423 72.0
298.108978 1316.0
298.155548 156.0
298.282745 48.0
298.348053 100.0
298.458069 40.0
298.626587 84.0
299.027863 208.0
299.091064 10872.0
299.18985 52.0
299.201233 36.0
299.33551 44.0
299.424805 56.0
299.524933 52.0
299.580048 36.0
299.621399 80.0
299.704102 64.0
299.77301 76.0
299.832153 48.0
299.879852 96.0
299.969452 44.0
300.028839 208.0
300.095673 2212.0
300.31427 44.0
300.397064 40.0
300.47641 64.0
300.528168 148.0
300.73175 64.0
300.925079 28.0
301.018311 148.0
301.093018 444.0
301.533051 104.0
301.560699 44.0
301.599762 120.0
301.740448 52.0
301.985962 136.0
302.05365 284.0
302.083771 72.0
302.097473 240.0
302.418457 44.0
303.007141 52.0
303.041809 184.0
303.100708 64.0
303.154205 56.0
303.443848 44.0
304.057831 164.0
304.090302 280.0
304.453613 132.0
304.596008 32.0
304.867004 116.0
305.079254 328.0
305.325897 92.0
305.785156 44.0
306.004456 56.0
306.039276 108.0
306.080688 112.0
306.290009 76.0
306.363159 184.0
306.418915 72.0
307.103149 340.0
307.670929 156.0
307.744263 36.0
307.873474 216.0
308.05365 4808.0
308.155731 164.0
308.475067 88.0
308.582794 52.0
308.70517 68.0
308.757629 56.0
308.862579 148.0
309.061218 2448.0
309.17746 168.0
309.205444 76.0
309.320953 36.0
309.548523 28.0
309.580048 48.0
309.700226 64.0
310.021454 112.0
310.064087 576.0
310.23526 36.0
310.473694 36.0
312.096039 196.0
312.271851 100.0
312.672943 132.0
313.07428 176.0
314.078552 140.0
314.241028 88.0
315.03891 124.0
315.095428 132.0
316.060669 192.0
316.088989 104.0
317.110657 100.0
317.626587 88.0
318.045288 116.0
318.070129 128.0
318.126587 200.0
318.489136 104.0
319.093262 156.0
319.19281 152.0
319.690826 52.0
319.840302 116.0
320.082397 136.0
320.135803 172.0
320.791382 120.0
321.110657 120.0
321.155121 44.0
321.569 104.0
321.718903 92.0
321.975983 224.0
322.297485 216.0
323.731934 104.0
323.885925 60.0
323.918152 172.0
324.085876 8148.0
324.179718 80.0
324.210022 44.0
324.294403 260.0
324.323059 56.0
324.395477 40.0
324.45929 124.0
324.889648 196.0
324.954224 52.0
325.090363 1780.0
325.191071 72.0
325.244904 60.0
325.305939 44.0
325.370544 44.0
325.442352 40.0
325.629089 48.0
325.880554 44.0
326.095367 436.0
326.603119 104.0
326.768616 96.0
326.9953 168.0
327.193298 60.0
328.046997 140.0
330.000214 164.0
330.074646 328.0
331.075104 332.0
331.669098 88.0
332.093353 104.0
332.303741 76.0
332.485168 44.0
333.044312 84.0
333.076996 104.0
333.527557 88.0
334.083923 192.0
336.124237 100.0
339.130402 116.0
339.599731 140.0
340.047333 108.0
341.803955 192.0
342.075531 152.0
342.790833 96.0
343.093079 164.0
343.222107 84.0
344.044861 140.0
344.078094 152.0
345.057159 224.0
345.085144 200.0
345.574951 60.0
346.108521 128.0
347.07132 108.0
348.039764 88.0
348.078522 172.0
348.370331 76.0
349.103516 200.0
349.426147 68.0
349.675446 112.0
350.114777 120.0
351.83371 176.0
356.196411 152.0
357.316681 52.0
358.073303 224.0
358.857117 60.0
359.050537 136.0
359.089325 172.0
359.11731 120.0
359.777649 100.0
360.094299 108.0
360.941345 120.0
361.103973 156.0
361.584473 48.0
363.486847 84.0
364.117035 156.0
365.111847 100.0
369.522369 204.0
374.10965 636.0
374.821045 64.0
375.099335 232.0
375.164093 112.0
375.518829 36.0
375.804291 40.0
376.077179 220.0
376.105225 172.0
379.765656 68.0
380.867981 152.0
385.04718 140.0
385.836517 120.0
387.38623 164.0
390.738892 48.0
391.108795 72.0
392.111572 4528.0
392.988586 88.0
393.115814 984.0
393.18985 84.0
393.691223 92.0
393.849182 32.0
394.104126 160.0
394.477478 36.0
395.106262 160.0
395.30014 96.0
395.577209 60.0
396.024628 92.0
405.980499 96.0
416.177734 100.0
416.604156 96.0
417.437378 92.0
433.157227 84.0
461.859955 116.0
464.725952 56.0
481.867737 128.0
491.589325 72.0
493.108551 60.0
498.506439 40.0
514.154053 156.0
533.508728 80.0
535.565674 108.0
541.241455 112.0
564.328857 80.0
577.865234 108.0
608.287659 128.0
619.501526 84.0
620.646362 52.0
629.373901 80.0
631.307739 56.0
633.034241 84.0
647.351074 44.0
661.705078 92.0
681.376099 44.0
732.358093 64.0
738.846619 124.0
761.205139 164.0
765.692627 72.0
770.320312 116.0
773.887451 124.0
781.619446 212.0
781.67511 152.0
789.49054 140.0
795.783264 56.0
805.345398 268.0
806.091125 76.0
815.35675 200.0
816.601868 152.0
828.618042 124.0
835.248596 180.0
843.771851 168.0
849.133972 140.0
850.538086 44.0
851.670349 204.0
853.727783 172.0
859.092163 316.0
860.778931 76.0
863.051941 148.0
863.742004 188.0
865.638306 44.0
867.184937 172.0
872.614868 188.0
873.349976 180.0
873.74408 144.0
875.038879 196.0
876.764771 56.0
878.852295 208.0
880.859558 176.0
881.084045 188.0
882.632568 92.0
885.561951 144.0
886.326172 64.0
888.330078 264.0
890.585693 172.0
891.78595 180.0
895.385437 204.0
897.328003 204.0
899.1474 156.0
901.703552 188.0
903.22821 116.0
907.738037 76.0
911.934448 164.0
912.8302 232.0
913.72644 200.0
916.54425 196.0
919.945801 156.0
922.198853 140.0
926.422485 176.0
927.883057 148.0
929.265869 160.0
934.752686 88.0
940.951477 120.0
942.172913 132.0
943.676392 196.0
947.814087 128.0
952.501221 128.0
966.910645 132.0
966.984924 212.0
972.768677 184.0
975.507507 176.0
976.869385 144.0
977.622253 168.0
981.964539 208.0
982.313843 144.0
983.137451 216.0
983.692932 172.0
985.429077 48.0
987.316833 144.0
987.635803 80.0
989.031189 168.0
989.688477 108.0
991.668091 144.0
991.881226 148.0
993.499084 256.0
994.132812 56.0
994.339905 96.0
995.15509 140.0
995.652039 124.0
997.813599 236.0
1010.357727 200.0
1011.19928 188.0
1011.781677 168.0
1011.958923 164.0
1014.195129 188.0
1014.816406 140.0
1015.507629 196.0
1018.859253 188.0
1018.916443 164.0
1020.365479 224.0
1025.64917 140.0
1032.58313 136.0
1036.090942 88.0
1037.013672 148.0
1037.815063 32.0
1040.984863 204.0
1042.706543 200.0
1042.764404 180.0
1043.915161 184.0
1044.880005 108.0
1045.047241 176.0
1045.800171 160.0
1046.366699 180.0
1048.189453 164.0
1048.672852 176.0
1052.724365 200.0
1054.055054 212.0
1054.5979 192.0
1057.586182 236.0
1058.065186 40.0
1061.771606 144.0
1062.057007 52.0
1068.358032 168.0
1069.24939 56.0
1069.307983 124.0
1069.822266 164.0
1070.037109 80.0
1070.922729 156.0
1071.026855 232.0
1071.333008 144.0
1071.737061 168.0
1072.629883 88.0
1073.568726 156.0
1075.466187 268.0
1075.526001 228.0
1075.70874 116.0
1077.060425 48.0
1077.197632 124.0
1081.762085 244.0
1081.834106 200.0
1082.12207 220.0
1084.906494 172.0
1085.299805 164.0
1086.067139 148.0
1088.718628 108.0
1089.270386 64.0
1089.907715 132.0
1090.762085 172.0
1090.96582 140.0
1095.539551 168.0
1097.760742 164.0
1099.482544 232.0
1099.614502 208.0
1103.908691 164.0
1104.212891 140.0
1104.947144 132.0
1105.410278 188.0
1105.469849 116.0
1109.44397 68.0
1110.902832 120.0
1113.471558 184.0
1115.21228 168.0
1118.418335 76.0
1122.56897 88.0
1123.449341 180.0
1124.363525 196.0
1124.610474 156.0
1128.224243 180.0
1130.317749 172.0
1134.014404 48.0
1135.610107 236.0
1136.542603 148.0
1137.717163 156.0
1137.898438 96.0
1143.087402 184.0
1143.148071 164.0
1145.706543 148.0
1145.895264 232.0
1148.50415 168.0
1150.852539 252.0
1152.135864 192.0
1152.554688 56.0
1152.77771 80.0
1153.196777 148.0
1153.3927 136.0
1153.696899 128.0
1154.521851 140.0
1155.813843 108.0
1155.881592 128.0
1156.761353 176.0
1158.488159 84.0
1158.549194 132.0
1161.653931 204.0
1163.05188 180.0
1163.153687 176.0
1165.007446 136.0
1165.714111 180.0
1165.863647 152.0
1166.393799 156.0
1167.515625 168.0
1170.182983 212.0
1170.264648 192.0
1174.333008 132.0
1174.6604 128.0
1175.902222 204.0
1178.251221 96.0
1179.153198 164.0
1180.924072 88.0
1186.614624 188.0
1186.690063 132.0
1189.262573 72.0
1190.512085 180.0
1194.209595 224.0
1194.869873 140.0
1195.798828 76.0
1197.320435 116.0
1198.622437 160.0
1201.745972 176.0
1201.918457 212.0
1202.291016 204.0
1203.761475 64.0
1204.514282 216.0
1204.583374 48.0
1204.645508 112.0
1204.949463 120.0
1205.778687 176.0
1206.407715 148.0
1210.718384 164.0
1212.152344 204.0
1214.967285 176.0
1215.015869 168.0
1215.598755 116.0
1219.870117 164.0
1221.462524 140.0
1222.875 184.0
1225.242554 172.0
1226.915161 204.0
1230.403442 168.0
1232.743286 212.0
1232.869141 136.0
1232.973999 144.0
1236.071899 148.0
1238.725342 192.0
1243.395142 100.0
1243.654785 192.0
1245.185425 44.0
1246.463989 32.0
1247.405762 184.0
1248.411133 188.0
1248.565063 164.0
1251.725586 152.0
1252.197388 144.0
1252.260864 96.0
1252.944092 188.0
1253.321411 188.0
1255.104614 240.0
1256.19397 160.0
1256.582031 248.0
1257.322876 176.0
1257.640503 176.0
1258.057007 132.0
1259.638794 252.0
1264.142578 148.0
1264.581299 72.0
1265.919434 224.0
1266.443481 116.0
1268.661377 148.0
1269.774658 248.0
1269.987427 188.0
1272.002563 180.0
1272.523682 224.0
1273.671265 184.0
1274.571777 192.0
1277.033325 148.0
1277.616577 132.0
1277.701904 168.0
1278.50769 200.0
1280.121948 112.0
1280.549316 60.0
1285.275635 32.0
1287.360107 44.0
1288.038574 236.0
1288.438599 220.0
1288.781616 232.0
1290.775879 148.0
1293.508789 192.0
1295.556885 176.0
1295.986816 204.0
1298.811401 176.0
1301.057495 208.0
1303.140259 148.0
1303.901978 172.0
1304.922607 108.0
1306.591187 136.0
1307.838501 208.0
1310.588013 160.0
1311.545654 124.0
1312.619873 172.0
1312.965942 88.0
1317.002686 208.0
1320.780762 144.0
1324.204346 196.0
1324.972168 136.0
1325.030151 196.0
1327.03772 136.0
1327.103027 52.0
1327.175537 148.0
1328.734863 172.0
1330.251709 228.0
1330.338745 196.0
1331.362549 136.0
1331.761963 56.0
1333.556641 176.0
1334.428955 192.0
1334.697998 156.0
1339.734497 204.0
1339.836426 152.0
1341.950073 156.0
1342.854248 172.0
1343.970459 164.0
1344.30603 188.0
1344.459351 144.0
1345.780518 160.0
1346.123779 80.0
1346.700684 136.0
1347.745361 160.0
1348.59314 152.0
1350.421021 168.0
1351.686646 168.0
1352.374512 168.0
1356.755005 56.0
1359.402832 144.0
1360.379028 84.0
1362.420532 188.0
1362.685059 196.0
1367.295654 156.0
1369.813721 240.0
1370.03479 40.0
1370.447266 236.0
1370.793579 196.0
1374.760986 168.0
1378.741455 232.0
1380.323486 148.0
1380.560181 180.0
1380.781982 140.0
1381.247925 136.0
1382.320801 108.0
1382.505737 208.0
1383.194092 176.0
1383.919556 188.0
1385.66748 144.0
1386.504883 156.0
1387.164551 120.0
1388.551025 208.0
1388.884888 168.0
1389.55249 160.0
1390.858521 176.0
1391.22229 184.0
1391.86084 196.0
1394.996094 176.0
1395.367798 188.0
1395.605713 92.0
1397.420898 176.0
1403.349243 112.0
1404.676758 224.0
1407.751709 152.0
1409.335327 128.0
1410.471191 40.0
1411.17395 208.0
1413.14856 204.0
1414.076416 216.0
1416.195312 36.0
1417.169189 212.0
1417.37146 156.0
1417.588745 68.0
1418.248291 172.0
1418.855469 96.0
1419.200439 176.0
1419.492798 96.0
1421.593262 160.0
1421.825928 100.0
1422.478882 208.0
1422.576538 176.0
1423.792847 192.0
1423.905518 140.0
1425.331055 196.0
1426.106934 176.0
1428.437866 132.0
1429.438477 208.0
1431.568848 228.0
1431.990601 180.0
1432.286255 244.0
1432.540527 60.0
1433.105469 76.0
1433.226074 172.0
1434.733398 164.0
1434.869141 188.0
1435.110474 100.0
1435.51001 188.0
1436.09082 80.0
1436.78479 176.0
1437.109131 160.0
1438.097778 180.0
1438.331787 84.0
1439.154663 176.0
1439.705933 200.0
1440.582031 180.0
1441.488647 168.0
1444.142334 160.0
1446.730225 104.0
1448.676392 176.0
1457.135376 164.0
1457.325317 116.0
1459.712036 28.0
1459.848877 104.0
1460.023804 100.0
1460.404053 32.0
1462.907471 152.0
1463.021729 160.0
1464.049683 120.0
1464.15625 32.0
1468.164917 240.0
1468.622559 248.0
1468.935303 88.0
1470.133179 152.0
1471.255127 164.0
1471.339111 172.0
1471.837891 176.0
1472.064453 176.0
1473.233032 128.0
1473.897827 180.0
1476.19104 96.0
1476.741577 84.0
1478.753906 236.0
1478.899292 168.0
1480.124146 264.0
1480.277344 212.0
1481.042847 156.0
1483.012329 132.0
1486.977661 244.0
1488.282715 172.0
1488.781738 40.0
1489.173462 212.0
1491.407104 196.0
1491.640015 196.0
1492.500977 204.0
1492.685547 152.0
1493.400757 140.0
1496.001587 108.0
1496.964111 176.0
1497.094971 192.0
1497.387573 140.0
1500.408203 208.0
1500.947998 168.0
1502.266846 188.0
1502.714233 188.0
1503.593262 248.0
1504.118774 116.0
1504.265503 180.0
