>compound MLS001077282-01!
>formula C18H19ClN4
>ionization [M+H]+
>parentmass 327.135162
#inchi InChI=1S/C18H19ClN4/c1-22-8-10-23(11-9-22)18-14-4-2-3-5-15(14)20-16-7-6-13(19)12-17(16)21-18/h2-7,12,20H,8-11H2,1H3
#inchikey QZUDBNBUXVUHMW
#Ion_Source LC-ESI
#Instrument qTof
#Compound_Source NIH Pharmacologically Active Library
#PI Dorrestein
#Data_Collector VP/LMS
#Scan -1
#Precursor_MZ 327.139
#ExactMass 326.13
#Charge 1
#CAS_Number N/A
#Pubmed_ID N/A
#Smiles CN1CCN(CC1)C2=Nc3cc(Cl)ccc3Nc4ccccc24
#INCHI_AUX N/A
#Library_Class 1
#SpectrumID CCMSLIB00000084755
#IonMode Positive
#UpdateWorkflowName UPDATE-SINGLE-ANNOTATED-GOLD
#LibraryQualityString Gold
#TaskID d252d724072548979f1f6f1ced849daf
##Scan# 1497
#SpectrumFile p3-A04_GA4_01_18226.mzXML
#LibraryName Pharm_Active_Library.mgf
#MQScore -1
#Organism Pharm_Active_Library
#TIC_Query 0
#RT_Query -1
#MZErrorPPM -1
#SharedPeaks 0
#MassDiff 0
#LibMZ -1
#SpecMZ 327.139
#SpecCharge 0
#internalFilename spec-00000.mgf

>collision 10
44.961704 116.0
44.976383 248.0
45.21965 188.0
45.254456 168.0
45.301331 160.0
45.324108 180.0
45.346889 140.0
45.541443 260.0
45.607281 124.0
45.651649 96.0
45.704109 184.0
45.814514 100.0
45.947983 140.0
45.972271 140.0
46.178978 168.0
46.227684 172.0
46.280476 120.0
46.51366 120.0
46.588352 132.0
46.630474 64.0
46.853642 196.0
47.413883 144.0
47.58535 152.0
47.633308 200.0
47.787395 196.0
47.901661 96.0
48.010548 132.0
48.083668 120.0
48.246666 84.0
48.288147 228.0
48.630375 204.0
48.677578 128.0
48.91811 116.0
49.096458 96.0
49.224846 108.0
49.240318 152.0
49.251331 108.0
49.336624 116.0
49.451328 176.0
49.613819 160.0
49.721748 140.0
49.80888 216.0
49.832764 160.0
49.863678 192.0
49.97477 196.0
50.009548 180.0
50.12262 156.0
50.618435 164.0
50.770069 148.0
50.823971 120.0
51.131374 252.0
51.430233 200.0
51.481632 192.0
51.574501 144.0
51.724693 72.0
51.959717 148.0
52.075993 112.0
52.126274 212.0
52.173706 44.0
52.23698 72.0
52.285904 108.0
52.331966 144.0
52.727222 208.0
52.90369 148.0
52.944233 132.0
53.282207 44.0
53.350513 128.0
53.586285 164.0
53.676655 56.0
53.774399 172.0
53.805054 148.0
54.002327 192.0
54.39502 84.0
54.530155 80.0
54.596313 156.0
54.834816 72.0
55.129986 192.0
55.267506 120.0
55.375576 120.0
55.562351 244.0
55.666252 152.0
55.755386 164.0
55.813362 172.0
55.868393 116.0
55.951733 120.0
56.907108 104.0
57.063366 92.0
57.122017 260.0
57.870575 144.0
57.970547 120.0
58.009956 224.0
58.034523 196.0
58.047859 80.0
58.296818 184.0
58.42606 204.0
58.505196 76.0
58.538692 216.0
58.578293 180.0
58.901684 92.0
58.942936 220.0
59.092781 164.0
59.199928 108.0
59.324036 176.0
59.3409 100.0
59.359299 204.0
59.486645 216.0
59.82946 228.0
59.897221 160.0
59.920326 168.0
59.985054 176.0
60.275208 180.0
60.354038 120.0
60.483994 148.0
60.538181 152.0
60.887119 44.0
60.98811 100.0
61.000546 64.0
61.023865 120.0
61.137417 92.0
61.148312 200.0
61.492756 172.0
61.528656 152.0
61.700512 156.0
61.723965 52.0
61.783398 184.0
61.883564 176.0
61.949341 116.0
61.990078 76.0
62.065319 128.0
62.123348 180.0
62.486256 176.0
62.539204 204.0
62.623211 132.0
62.645264 52.0
62.717747 136.0
62.81078 48.0
62.837597 208.0
62.941772 180.0
63.00811 152.0
63.03339 144.0
63.204166 144.0
63.223267 224.0
63.948456 180.0
64.311859 168.0
64.3358 140.0
64.537109 60.0
64.564293 132.0
64.657082 300.0
64.868507 68.0
65.205582 140.0
65.218437 136.0
65.358353 124.0
65.369621 184.0
65.457397 128.0
65.62896 164.0
65.668381 184.0
65.853271 116.0
65.873436 156.0
66.011864 152.0
66.129753 164.0
66.217018 200.0
66.377617 104.0
66.515518 172.0
66.677948 164.0
66.752724 172.0
66.804771 252.0
66.921951 180.0
67.021309 44.0
67.045753 120.0
67.380257 100.0
67.40313 228.0
67.718872 72.0
67.769653 80.0
67.799149 144.0
67.867996 56.0
67.943443 192.0
67.977898 116.0
68.196327 184.0
68.388763 152.0
68.499084 60.0
68.579826 168.0
68.591026 116.0
68.741447 264.0
68.776108 172.0
68.835541 232.0
68.896652 204.0
69.055344 176.0
69.48101 136.0
69.525864 216.0
69.760056 120.0
69.909752 136.0
69.973 128.0
70.02462 116.0
70.141258 120.0
71.024139 124.0
71.210449 220.0
71.302856 128.0
71.434006 152.0
71.445778 168.0
71.555168 140.0
71.689926 160.0
72.411308 92.0
72.687637 128.0
73.015503 132.0
73.114182 132.0
73.151627 136.0
73.284462 112.0
73.379906 176.0
73.470299 224.0
73.528313 152.0
73.54026 128.0
73.577812 180.0
73.839256 296.0
73.852936 172.0
73.87175 208.0
74.078888 200.0
74.270874 180.0
74.282883 68.0
74.2966 172.0
74.693428 176.0
74.817329 208.0
75.277687 76.0
75.305321 156.0
75.50235 124.0
75.546104 160.0
75.756783 184.0
75.898903 116.0
76.053307 84.0
76.119278 120.0
76.192223 80.0
76.367798 84.0
76.632401 164.0
76.836388 132.0
77.024918 164.0
77.22068 184.0
77.292404 112.0
77.420197 88.0
77.67083 124.0
77.723457 120.0
77.913078 128.0
77.981613 100.0
78.087097 100.0
78.143394 124.0
78.197945 168.0
78.735672 128.0
78.788658 100.0
78.813393 40.0
78.988419 224.0
79.052116 120.0
79.282326 128.0
79.401108 76.0
79.425941 124.0
79.711777 208.0
79.807762 196.0
79.991005 140.0
80.085381 168.0
80.452713 124.0
80.633118 132.0
80.664131 200.0
80.763641 168.0
80.802994 212.0
80.874573 192.0
80.933655 160.0
81.042915 232.0
81.055458 228.0
81.455536 200.0
81.50045 144.0
81.669441 168.0
81.809792 188.0
81.921448 60.0
82.11792 156.0
82.182861 156.0
82.536888 180.0
82.594757 184.0
82.806526 160.0
82.842751 220.0
82.893646 220.0
83.031258 104.0
83.229057 188.0
83.374382 56.0
83.39801 132.0
83.669052 192.0
83.966064 168.0
84.082825 164.0
84.110207 176.0
84.152191 160.0
84.179581 132.0
84.314766 152.0
84.404343 260.0
84.439087 164.0
84.464691 232.0
84.561668 176.0
84.600922 232.0
84.790039 208.0
84.845596 144.0
84.920776 104.0
84.995987 136.0
85.12265 108.0
85.313728 236.0
85.348663 208.0
85.50425 152.0
85.803429 112.0
86.002655 152.0
86.14669 184.0
86.259407 156.0
86.387001 108.0
86.409203 92.0
86.559128 156.0
86.603577 200.0
86.661003 100.0
86.729568 116.0
86.831543 188.0
87.024536 192.0
87.247482 92.0
87.388824 160.0
87.522842 200.0
87.591209 180.0
87.807961 120.0
87.862053 140.0
87.893768 128.0
87.931091 148.0
87.96096 124.0
88.205658 168.0
88.305756 188.0
88.392685 56.0
88.566795 164.0
88.754196 124.0
88.926788 120.0
89.172829 52.0
89.195381 172.0
89.272469 124.0
89.374046 132.0
89.590561 172.0
89.659508 236.0
90.033813 204.0
90.404343 252.0
90.972954 152.0
91.469101 132.0
91.583344 156.0
91.726631 204.0
91.863548 48.0
91.932236 112.0
92.421417 232.0
92.547745 180.0
92.670326 112.0
92.862732 228.0
92.896545 68.0
92.954109 192.0
93.080795 204.0
93.142258 196.0
93.30175 144.0
93.365204 40.0
93.424835 64.0
93.526443 164.0
93.750229 232.0
93.956543 36.0
94.188194 76.0
94.292526 228.0
94.335052 104.0
94.468483 144.0
94.501373 188.0
94.55555 132.0
94.687439 164.0
94.708511 196.0
94.73175 144.0
95.135109 132.0
95.166176 180.0
95.183647 252.0
95.218605 120.0
95.661926 204.0
95.790451 112.0
95.883972 80.0
96.141403 196.0
96.387451 152.0
96.755157 28.0
96.943192 128.0
97.003952 192.0
97.039238 152.0
97.235397 156.0
97.858566 224.0
98.008224 168.0
98.055519 120.0
98.083115 148.0
98.181694 148.0
98.349396 136.0
98.69709 156.0
98.869194 168.0
98.916695 152.0
98.950348 136.0
98.997498 344.0
99.094925 184.0
99.182121 156.0
99.211861 172.0
99.265388 104.0
99.330841 148.0
99.700134 112.0
99.747841 76.0
99.761749 116.0
99.805489 140.0
100.127869 156.0
100.179657 36.0
100.263336 100.0
100.361015 140.0
100.438789 132.0
100.526573 60.0
100.584457 132.0
100.884094 188.0
100.91008 132.0
100.952072 112.0
101.108116 244.0
101.15815 132.0
101.260269 172.0
101.633133 152.0
101.719429 252.0
101.797729 204.0
101.851959 52.0
102.091125 156.0
102.51387 152.0
102.663048 220.0
102.737679 116.0
102.850677 128.0
102.89711 60.0
103.125374 152.0
103.37709 148.0
103.568481 112.0
103.617096 184.0
103.63533 92.0
103.809654 196.0
103.833992 108.0
103.911072 52.0
104.036903 208.0
104.095779 236.0
104.166862 144.0
104.215622 188.0
104.376198 144.0
104.443314 136.0
104.55928 120.0
104.591743 160.0
104.665138 164.0
104.726234 136.0
104.805679 84.0
105.045418 156.0
105.064613 84.0
105.203384 120.0
105.311607 104.0
105.50573 120.0
105.524132 176.0
105.589561 148.0
105.831032 192.0
105.964157 220.0
106.066628 160.0
106.10186 148.0
106.169136 152.0
106.247078 160.0
106.265549 140.0
106.378418 180.0
106.453415 188.0
106.598183 168.0
106.75441 120.0
106.822281 196.0
107.0075 76.0
107.042503 144.0
107.071335 120.0
107.178452 208.0
107.479492 156.0
107.584755 48.0
107.601273 140.0
107.7603 128.0
107.876389 228.0
107.913239 128.0
107.979416 112.0
108.016647 96.0
108.033195 68.0
108.062157 192.0
108.155281 160.0
108.217384 212.0
108.244301 156.0
108.8228 172.0
108.914177 168.0
109.074173 136.0
109.165649 188.0
109.211403 108.0
109.419495 164.0
109.444481 128.0
109.567368 124.0
109.604866 132.0
109.900948 192.0
109.925987 188.0
110.065842 148.0
110.170273 168.0
110.360458 168.0
110.523605 136.0
110.554993 176.0
110.621971 180.0
110.653374 144.0
110.682686 176.0
110.707817 208.0
110.799973 228.0
111.148018 200.0
111.208878 104.0
111.515526 160.0
111.530235 180.0
111.692146 140.0
111.784714 64.0
111.866798 156.0
111.925751 156.0
112.083725 136.0
112.199646 196.0
112.488655 100.0
112.568886 128.0
112.663933 124.0
112.902779 136.0
113.000076 140.0
113.042397 180.0
113.141876 96.0
113.205399 260.0
113.268936 224.0
113.313423 164.0
113.441895 232.0
113.487213 160.0
113.559319 104.0
113.678116 144.0
113.816093 148.0
114.107178 176.0
114.490189 76.0
114.541306 144.0
114.558342 128.0
114.590302 152.0
114.607346 148.0
114.837578 196.0
115.266411 192.0
115.324379 160.0
115.39492 48.0
115.700859 116.0
115.732979 112.0
115.825066 132.0
115.885048 172.0
115.917191 172.0
116.051796 20.0
116.219528 92.0
116.318245 144.0
116.829681 84.0
116.932968 168.0
117.232315 204.0
117.345818 136.0
117.385368 148.0
117.432816 140.0
117.754402 156.0
117.946693 124.0
118.050468 180.0
118.385895 128.0
118.691429 92.0
118.908363 200.0
118.982162 84.0
119.016907 156.0
119.075539 140.0
119.397186 152.0
119.498825 160.0
119.553818 168.0
119.680069 212.0
119.775894 96.0
119.822884 252.0
119.860863 164.0
119.88047 136.0
119.965477 140.0
120.105034 176.0
120.303604 188.0
120.42588 152.0
120.539772 212.0
120.600677 136.0
120.618164 136.0
120.769035 144.0
121.145531 148.0
121.23317 160.0
121.551132 92.0
121.663071 136.0
121.917862 160.0
121.953026 176.0
122.205917 88.0
122.236717 184.0
122.321564 172.0
122.578033 104.0
122.74115 128.0
123.127327 168.0
123.144997 172.0
123.343857 212.0
123.737625 80.0
123.777481 156.0
123.890434 40.0
123.967979 140.0
123.994507 252.0
124.567024 160.0
124.709236 108.0
124.744186 160.0
124.783829 244.0
124.818169 164.0
124.916023 180.0
124.969414 176.0
125.002792 284.0
125.154152 232.0
125.189781 164.0
125.359085 112.0
125.457153 108.0
125.570869 124.0
125.631096 132.0
126.007545 308.0
126.048607 208.0
126.167061 188.0
126.379532 92.0
126.460091 132.0
126.498146 112.0
126.520531 156.0
126.630249 164.0
126.7938 192.0
127.053902 112.0
127.074097 108.0
127.179565 176.0
127.242416 196.0
127.321007 148.0
127.590691 184.0
127.736816 176.0
127.777313 96.0
127.813309 144.0
128.072205 164.0
128.317825 108.0
128.33812 196.0
128.604324 92.0
128.651718 200.0
128.685593 128.0
128.714935 180.0
128.798492 60.0
128.825607 192.0
129.216705 172.0
129.41507 156.0
129.43399 128.0
129.458908 156.0
129.612946 140.0
129.689987 116.0
129.816956 260.0
130.059708 164.0
130.393585 120.0
130.443588 128.0
130.504959 76.0
130.689194 180.0
130.784775 192.0
130.887222 100.0
130.909988 108.0
131.076279 96.0
131.137817 92.0
131.156052 68.0
131.392227 124.0
131.596329 88.0
131.671692 148.0
131.758255 120.0
131.768265 144.0
131.838455 128.0
131.897873 108.0
132.06987 432.0
132.263855 216.0
132.307358 132.0
132.418839 152.0
132.584503 212.0
132.639511 200.0
132.74498 140.0
132.767914 204.0
132.820663 72.0
132.839005 192.0
132.880798 272.0
133.077957 132.0
133.243042 148.0
133.317612 184.0
133.511978 140.0
133.603989 128.0
133.792694 120.0
133.921646 172.0
133.972321 120.0
134.18895 180.0
134.4496 160.0
134.487656 188.0
134.544235 200.0
134.655075 120.0
134.703583 96.0
134.770584 176.0
134.876892 156.0
134.960114 204.0
135.00174 136.0
135.661606 184.0
135.953857 104.0
135.979385 272.0
136.004913 128.0
136.165115 108.0
136.18602 220.0
136.276611 184.0
136.344574 220.0
136.457901 44.0
136.616043 212.0
136.937256 168.0
136.962875 52.0
137.000153 108.0
137.030441 52.0
137.123642 144.0
137.209412 156.0
137.333481 172.0
137.44313 180.0
137.625183 140.0
137.655548 144.0
137.905518 212.0
137.977982 144.0
138.049164 172.0
138.167419 224.0
138.23761 108.0
138.333572 164.0
138.455322 164.0
138.509186 156.0
138.551346 172.0
138.579468 196.0
138.69899 204.0
138.966324 84.0
139.034378 180.0
139.363113 232.0
139.534698 124.0
139.689896 176.0
140.017441 180.0
140.036987 184.0
140.83075 148.0
140.85437 104.0
140.870911 52.0
141.239655 152.0
141.623108 164.0
141.710754 120.0
142.042648 44.0
142.061615 112.0
142.142288 236.0
142.184998 164.0
142.239594 132.0
142.287079 204.0
142.334564 156.0
142.420059 140.0
142.645782 88.0
142.688583 100.0
142.714737 140.0
142.769424 48.0
142.859802 156.0
143.240677 212.0
143.350266 88.0
143.48851 152.0
143.693619 184.0
144.116211 108.0
144.147278 136.0
144.292542 160.0
144.48201 160.0
144.508331 156.0
144.580109 168.0
144.611221 108.0
144.675858 168.0
144.95369 188.0
145.40213 168.0
145.747925 192.0
145.798386 200.0
145.815216 136.0
145.906555 164.0
146.021973 204.0
146.168716 60.0
146.260178 88.0
146.679291 144.0
146.90596 104.0
146.954208 160.0
146.978745 192.0
147.029022 160.0
147.045914 188.0
147.289764 72.0
147.310837 188.0
147.425064 244.0
147.465652 196.0
147.616043 136.0
147.70311 180.0
147.986252 172.0
148.180008 200.0
148.347214 144.0
148.478149 128.0
148.893143 80.0
148.912582 160.0
149.133682 152.0
149.367096 144.0
149.403595 192.0
149.479019 112.0
149.81987 108.0
149.863724 148.0
149.905151 120.0
150.068466 188.0
150.246506 172.0
150.380707 116.0
150.676178 132.0
150.835022 152.0
150.876572 132.0
151.013504 180.0
151.069763 132.0
151.101578 112.0
151.383057 48.0
151.409988 108.0
151.525116 164.0
151.576569 96.0
151.777573 160.0
151.826614 76.0
152.008148 124.0
152.032883 192.0
152.067032 68.0
152.260986 180.0
152.425583 100.0
152.695999 160.0
152.838669 148.0
152.9888 132.0
153.031128 396.0
153.060211 172.0
153.185806 168.0
153.29422 136.0
153.521011 208.0
153.750427 212.0
153.912628 136.0
153.951752 204.0
154.207321 168.0
154.400162 188.0
154.848114 96.0
154.959595 180.0
155.073578 156.0
155.121918 200.0
155.294235 152.0
155.324005 164.0
155.907471 120.0
156.039566 140.0
156.059097 304.0
156.238159 156.0
156.29538 172.0
156.444717 108.0
156.601578 140.0
156.636459 56.0
156.693756 64.0
156.770996 180.0
156.976486 268.0
157.073074 224.0
157.187439 132.0
157.209885 88.0
157.669403 176.0
157.68689 32.0
157.999451 216.0
158.087021 52.0
158.91893 76.0
158.951538 172.0
159.25531 132.0
159.292984 168.0
159.320618 124.0
159.584503 188.0
159.60463 132.0
159.717789 252.0
160.034882 88.0
160.100342 88.0
160.193542 156.0
160.339676 120.0
160.374664 132.0
160.702789 108.0
160.871887 120.0
160.995605 80.0
161.076416 44.0
161.135574 180.0
161.220428 136.0
161.326584 92.0
161.430252 148.0
161.528885 176.0
162.136551 116.0
162.281036 136.0
162.39769 180.0
162.433197 64.0
162.651413 140.0
162.686951 144.0
162.948532 212.0
163.268814 120.0
163.436691 212.0
163.714157 112.0
163.731979 204.0
164.012238 136.0
164.049454 1204.0
164.216217 116.0
164.277435 168.0
164.314438 140.0
164.343765 188.0
164.369278 48.0
164.458603 236.0
164.481567 204.0
164.517319 132.0
164.762466 140.0
164.81868 196.0
165.010025 144.0
165.054062 884.0
165.079407 152.0
165.184265 112.0
165.271255 96.0
165.424805 188.0
165.504181 148.0
165.847458 200.0
166.064362 704.0
166.398987 100.0
166.427231 108.0
166.504257 168.0
166.547928 276.0
166.666092 56.0
166.802307 160.0
166.83316 128.0
167.05629 312.0
167.311646 148.0
167.620728 140.0
167.842407 204.0
168.033264 156.0
168.451477 196.0
168.495392 184.0
168.526398 40.0
168.624176 152.0
168.727982 192.0
168.95816 224.0
169.009903 232.0
169.040955 196.0
169.066833 132.0
169.090118 92.0
169.175766 140.0
169.688492 104.0
169.745529 176.0
169.802582 196.0
169.851868 128.0
169.895966 148.0
170.02829 116.0
170.0802 160.0
170.280121 140.0
170.415207 136.0
170.498352 168.0
170.904007 136.0
171.151276 188.0
171.216385 156.0
171.354431 40.0
171.375275 360.0
171.42218 124.0
171.956787 152.0
172.014221 164.0
172.403381 192.0
172.596817 96.0
172.732803 220.0
172.753479 208.0
172.798203 176.0
172.881943 152.0
172.923813 336.0
173.251114 188.0
173.353867 184.0
173.494843 76.0
173.610199 184.0
173.701996 36.0
173.936035 212.0
174.421478 204.0
174.666016 128.0
174.738327 140.0
174.855453 192.0
174.892303 212.0
174.923889 156.0
175.013397 136.0
175.511383 136.0
175.603683 80.0
175.648529 180.0
175.8992 180.0
176.004807 108.0
176.414307 96.0
176.644379 236.0
176.840179 76.0
177.057266 160.0
177.083755 200.0
177.213562 140.0
177.346054 188.0
177.414978 240.0
177.542252 220.0
177.696091 48.0
177.857971 108.0
177.972122 144.0
178.061142 152.0
178.135223 176.0
178.34935 124.0
178.540771 152.0
178.74295 136.0
178.782867 188.0
178.833435 88.0
179.011795 176.0
179.176941 148.0
179.214233 160.0
179.248871 108.0
179.390137 120.0
179.536774 136.0
179.635468 236.0
179.670135 188.0
179.779541 132.0
179.974396 144.0
180.145325 168.0
180.369781 244.0
180.412552 200.0
180.572983 160.0
180.669281 32.0
180.744202 128.0
181.049362 188.0
181.070786 156.0
181.151138 132.0
181.236862 88.0
181.285095 92.0
181.590729 372.0
181.671188 120.0
181.869766 164.0
181.969086 76.0
182.022781 72.0
182.146317 148.0
182.291397 224.0
182.385468 100.0
182.670486 176.0
182.780792 56.0
182.969208 140.0
183.01767 176.0
183.069687 228.0
183.090363 176.0
183.266266 200.0
183.494553 148.0
183.599716 136.0
183.683319 120.0
183.769653 64.0
183.947769 100.0
184.128937 160.0
184.150269 84.0
184.196198 168.0
184.358292 188.0
184.585373 164.0
184.634048 156.0
184.923523 112.0
185.116638 60.0
185.383926 128.0
185.443542 164.0
185.760788 196.0
185.904587 212.0
185.934433 104.0
187.04335 164.0
187.277512 184.0
187.381989 240.0
187.500931 156.0
187.558167 256.0
187.78447 200.0
187.920853 132.0
188.065491 212.0
188.395889 164.0
188.483322 144.0
188.75119 92.0
189.057571 116.0
189.08493 160.0
189.235489 148.0
189.26561 140.0
189.375153 208.0
189.605286 156.0
189.958984 44.0
189.983612 172.0
190.068008 200.0
190.150009 232.0
190.189468 76.0
190.444824 200.0
190.475037 152.0
190.507996 184.0
190.529984 76.0
190.595917 76.0
190.727829 128.0
190.89003 164.0
190.941925 180.0
190.986298 172.0
191.061249 1456.0
191.136368 188.0
191.181625 116.0
191.261444 148.0
191.299973 224.0
191.407349 236.0
191.447052 292.0
191.511993 128.0
191.57225 196.0
191.688324 140.0
191.72139 184.0
191.748947 236.0
191.815094 208.0
191.838959 232.0
191.86998 184.0
191.897797 180.0
191.949432 176.0
191.990784 216.0
192.069031 51220.0
192.130692 168.0
192.148911 224.0
192.174484 168.0
192.208328 108.0
192.257629 120.0
192.282211 180.0
192.318405 152.0
192.364029 180.0
192.416214 88.0
192.457886 116.0
192.488266 144.0
192.513123 60.0
192.532455 68.0
192.551788 36.0
192.608551 144.0
192.637405 56.0
192.685974 96.0
192.761444 76.0
192.777969 32.0
192.800415 144.0
192.858459 128.0
192.93309 108.0
193.070908 6216.0
193.117401 200.0
193.136398 100.0
193.171967 152.0
193.231308 72.0
193.255142 108.0
193.332886 96.0
193.469788 44.0
193.493134 128.0
193.514084 76.0
193.563919 56.0
193.671692 48.0
193.749481 212.0
193.78273 56.0
194.034943 164.0
194.078415 1092.0
194.14183 112.0
194.162491 96.0
194.209641 52.0
194.25679 52.0
194.363602 152.0
194.386429 44.0
194.422821 100.0
194.457764 232.0
194.522934 92.0
194.533096 84.0
194.54718 56.0
194.557968 120.0
194.631454 84.0
194.691116 156.0
194.75087 104.0
194.858154 92.0
195.059326 204.0
195.090729 340.0
195.145477 112.0
195.20665 64.0
195.287292 92.0
195.404129 76.0
195.462555 128.0
196.036194 124.0
196.061264 188.0
196.097504 36.0
196.186691 48.0
196.259186 180.0
196.398621 80.0
196.493469 76.0
196.775345 40.0
196.846085 144.0
196.91217 140.0
197.138458 248.0
197.39563 120.0
197.420807 84.0
197.986084 144.0
198.294266 116.0
198.339111 64.0
198.80748 180.0
198.852386 48.0
198.992737 108.0
199.051697 204.0
199.106293 244.0
199.186508 136.0
199.464691 84.0
199.647446 56.0
199.717758 116.0
199.737442 52.0
199.824646 72.0
199.987869 164.0
200.025909 1116.0
200.056412 192.0
200.083572 64.0
200.145508 144.0
200.307449 80.0
200.421539 256.0
200.579361 112.0
200.661118 124.0
201.02951 204.0
201.301605 96.0
201.547363 52.0
201.649094 144.0
201.764984 208.0
201.804565 44.0
202.025146 344.0
202.110031 192.0
202.175125 144.0
202.262863 44.0
202.418564 228.0
202.475204 164.0
202.563004 68.0
202.784012 48.0
203.022003 292.0
203.033325 124.0
203.689133 188.0
203.922989 196.0
203.953384 152.0
204.023193 176.0
204.399887 256.0
204.459641 60.0
204.718704 112.0
204.989319 92.0
205.02066 80.0
205.074661 444.0
205.194534 116.0
205.277222 76.0
205.522537 176.0
205.63382 216.0
205.777435 260.0
205.956467 124.0
206.010727 44.0
206.03569 152.0
206.043182 112.0
206.05191 192.0
206.086441 920.0
206.165024 48.0
206.339386 52.0
206.620255 164.0
206.668289 72.0
206.805649 44.0
206.977417 212.0
207.087402 616.0
207.289642 80.0
207.318298 68.0
207.794281 60.0
207.939743 92.0
207.966446 164.0
208.006638 216.0
208.100067 572.0
208.207611 60.0
208.596985 116.0
208.716248 188.0
208.986618 172.0
209.04129 76.0
209.077469 556.0
209.096405 216.0
209.375214 48.0
209.435699 48.0
209.55957 36.0
209.602798 196.0
209.68924 68.0
209.816071 76.0
210.069168 136.0
210.098694 164.0
210.13707 160.0
210.797409 164.0
210.976608 164.0
211.072021 124.0
211.184799 132.0
211.233978 88.0
211.33812 188.0
211.482819 152.0
211.508865 44.0
211.650726 104.0
212.186737 120.0
212.20993 140.0
212.256317 148.0
212.278534 132.0
212.421631 156.0
212.497055 160.0
212.523163 168.0
212.819214 132.0
212.865677 124.0
213.034134 176.0
213.161972 232.0
213.50209 52.0
213.598068 44.0
213.699875 164.0
213.825012 160.0
214.038239 284.0
214.060806 140.0
214.223907 160.0
214.366669 184.0
214.605682 168.0
214.658173 84.0
214.879852 140.0
215.010757 176.0
215.037064 700.0
215.197968 128.0
215.285568 92.0
215.519257 124.0
215.589386 48.0
215.902191 124.0
215.992859 220.0
216.041565 544.0
216.060699 144.0
216.101089 156.0
216.171326 132.0
216.370346 148.0
216.806778 164.0
217.030029 184.0
217.072906 216.0
217.231918 84.0
217.4021 76.0
217.516556 144.0
217.801376 116.0
217.930634 208.0
218.030548 128.0
218.085327 1196.0
218.574005 168.0
218.93959 180.0
219.06189 468.0
219.090378 572.0
219.172302 48.0
219.219437 92.0
219.248917 72.0
219.390396 264.0
219.526016 160.0
219.623337 84.0
219.717743 160.0
219.838715 132.0
219.985214 224.0
220.085159 768.0
220.642105 44.0
220.814987 60.0
221.053238 108.0
221.089935 416.0
221.121292 164.0
221.189377 76.0
221.325562 80.0
221.583237 220.0
221.683975 32.0
221.73732 152.0
221.772888 156.0
222.633255 148.0
222.75206 164.0
222.820389 224.0
223.539932 140.0
223.566711 76.0
224.266586 140.0
224.41716 244.0
224.496155 232.0
225.146713 180.0
225.176575 112.0
225.355804 108.0
225.741394 120.0
225.789246 168.0
225.995651 140.0
226.028793 2472.0
226.398956 156.0
226.463364 216.0
226.780228 128.0
226.840179 72.0
226.939117 128.0
226.975098 64.0
227.036758 14712.0
227.083054 88.0
227.181686 128.0
227.218033 120.0
227.277664 76.0
227.335907 56.0
227.417755 72.0
227.458679 104.0
227.521149 36.0
227.569183 32.0
227.665268 128.0
227.702271 112.0
227.833466 36.0
227.875534 52.0
227.902573 112.0
227.959656 56.0
228.039795 4088.0
228.497879 116.0
228.527954 56.0
228.681427 76.0
228.735611 200.0
228.766617 120.0
228.787231 196.0
228.958405 96.0
229.034256 3388.0
229.091675 180.0
229.172287 180.0
229.202408 44.0
229.313919 56.0
229.384399 124.0
229.416397 168.0
229.564133 192.0
229.666672 56.0
229.69986 104.0
229.811478 52.0
229.850693 128.0
229.877853 72.0
229.987854 276.0
230.037842 776.0
230.108093 164.0
230.143478 132.0
230.180893 216.0
230.337891 140.0
230.47113 92.0
230.539185 96.0
230.617767 236.0
230.641937 156.0
230.726578 236.0
230.79007 128.0
230.926163 124.0
230.968506 60.0
230.996307 188.0
231.044708 232.0
231.092529 120.0
231.573853 152.0
231.598083 48.0
231.676834 96.0
231.78894 48.0
231.858627 112.0
232.055664 116.0
232.08902 64.0
232.334686 100.0
232.711014 136.0
232.765656 104.0
233.097641 344.0
233.57103 72.0
233.847916 204.0
233.899658 80.0
233.957489 176.0
234.102173 1924.0
234.179779 60.0
234.298569 88.0
234.365601 84.0
234.393021 48.0
234.466156 168.0
234.743561 152.0
234.899109 108.0
235.109558 1528.0
235.179825 164.0
235.265305 172.0
235.393539 40.0
235.512634 40.0
235.589005 68.0
235.686768 64.0
236.111725 256.0
236.393112 152.0
236.472687 88.0
236.546143 88.0
236.751282 176.0
236.837036 104.0
236.971817 124.0
237.100525 76.0
237.164886 192.0
237.545105 108.0
237.750671 100.0
237.953247 160.0
238.03923 152.0
238.589203 112.0
238.767532 160.0
238.94902 128.0
238.97699 136.0
239.03653 148.0
239.109863 88.0
239.152115 140.0
239.273727 144.0
239.438446 100.0
239.481567 148.0
240.044983 400.0
240.224411 160.0
240.283035 104.0
240.702789 120.0
240.792343 40.0
241.050339 496.0
241.09819 28.0
241.47847 160.0
241.561981 92.0
241.695007 96.0
241.803314 120.0
241.837357 168.0
242.04715 408.0
242.088135 56.0
242.552856 128.0
242.574554 132.0
243.063766 560.0
243.253891 180.0
243.319077 108.0
243.452591 128.0
243.53334 76.0
243.626526 104.0
243.862686 36.0
244.063461 548.0
244.091919 184.0
244.205994 168.0
244.326889 140.0
244.382004 80.0
244.609177 240.0
245.0327 132.0
245.064987 176.0
245.36618 36.0
246.061447 308.0
246.100403 320.0
246.280487 44.0
246.442932 80.0
247.055695 140.0
247.11055 284.0
247.246567 160.0
247.268463 120.0
247.69429 116.0
247.819595 40.0
247.938675 180.0
248.716492 96.0
249.039886 80.0
249.152969 136.0
249.611847 176.0
249.706192 180.0
249.93898 132.0
250.071152 180.0
250.105774 172.0
250.190765 124.0
250.31041 156.0
250.34819 60.0
250.748932 176.0
251.009949 184.0
251.394791 200.0
251.492615 144.0
252.039062 236.0
252.060501 156.0
252.108475 208.0
252.181168 140.0
252.288635 60.0
252.33606 36.0
252.456207 76.0
252.598541 132.0
252.987762 160.0
253.052765 1700.0
253.13974 228.0
253.301254 100.0
253.491348 48.0
254.052612 1528.0
254.284164 132.0
254.395264 52.0
255.051758 1848.0
255.268982 164.0
255.351669 184.0
255.46936 48.0
255.682541 120.0
255.73027 48.0
255.809845 44.0
255.902176 92.0
255.997696 252.0
256.058075 856.0
256.102783 144.0
256.319427 40.0
256.561646 44.0
256.690674 144.0
256.973053 200.0
257.043182 464.0
257.054108 320.0
257.094299 148.0
257.145386 140.0
257.400757 160.0
257.672241 116.0
257.796875 176.0
258.065552 200.0
258.099976 192.0
258.183685 96.0
258.365997 56.0
258.919739 152.0
259.070282 140.0
259.11438 192.0
259.464447 124.0
260.01297 160.0
260.07074 140.0
260.119171 748.0
260.30188 156.0
260.443176 156.0
260.764465 160.0
261.044159 220.0
261.129852 444.0
261.295044 196.0
261.584686 204.0
261.649048 164.0
261.990417 140.0
262.038757 140.0
262.667358 216.0
263.161133 44.0
263.348419 64.0
264.046539 140.0
264.302094 136.0
264.739075 160.0
265.043152 152.0
265.260712 140.0
265.357971 196.0
265.419556 40.0
265.649841 76.0
265.896423 48.0
266.038971 100.0
266.065216 140.0
266.376953 156.0
266.675903 112.0
266.926208 188.0
266.96524 96.0
267.054169 268.0
267.189667 160.0
267.316559 108.0
267.582611 172.0
267.72348 76.0
267.827698 124.0
268.065125 512.0
268.238251 116.0
268.303436 148.0
268.45343 200.0
268.521912 200.0
268.711121 60.0
268.946075 200.0
269.061951 380.0
269.187531 120.0
269.236633 204.0
269.272552 80.0
269.489655 120.0
269.59845 96.0
269.685608 212.0
269.716919 184.0
269.763947 156.0
269.805176 132.0
269.841827 132.0
269.870575 360.0
269.915253 364.0
269.939941 164.0
269.971497 112.0
270.010773 160.0
270.079865 74872.0
270.147919 156.0
270.236877 52.0
270.279205 128.0
270.300903 276.0
270.340912 192.0
270.379517 72.0
270.38681 44.0
270.447693 104.0
270.496185 152.0
270.572876 108.0
270.608521 124.0
270.656433 72.0
270.678741 116.0
270.718475 44.0
270.778931 144.0
270.82785 76.0
270.866302 120.0
270.904053 208.0
270.951477 60.0
271.006287 52.0
271.083069 9328.0
271.169342 180.0
271.222351 56.0
271.264771 96.0
271.317657 68.0
271.359222 224.0
271.486664 116.0
271.535278 64.0
271.573425 128.0
271.602936 48.0
271.650574 44.0
271.694794 76.0
271.721039 92.0
271.775665 180.0
271.797791 140.0
271.830597 272.0
271.868683 40.0
271.905823 64.0
271.937592 160.0
272.019653 60.0
272.077179 21416.0
272.138733 60.0
272.193512 80.0
272.200714 60.0
272.21286 80.0
272.256927 92.0
272.295471 48.0
272.371002 76.0
272.439117 228.0
272.508636 196.0
272.575531 64.0
272.620636 160.0
272.665131 100.0
272.744965 64.0
272.769562 144.0
272.870636 108.0
272.882599 60.0
272.949432 68.0
272.985474 100.0
273.024323 144.0
273.07959 2092.0
273.132904 96.0
273.15564 136.0
273.186218 124.0
273.21582 48.0
273.330994 56.0
273.408508 64.0
273.456024 76.0
273.614044 68.0
273.666718 76.0
273.720154 160.0
273.763519 100.0
273.81488 60.0
273.87088 48.0
273.946136 104.0
274.012543 92.0
274.048462 84.0
274.075531 132.0
274.223419 44.0
274.26297 52.0
274.322296 60.0
274.35199 84.0
274.434387 72.0
274.572906 76.0
274.595978 40.0
274.61908 116.0
274.711426 68.0
274.744415 92.0
274.790588 56.0
274.826904 48.0
274.882996 148.0
274.922577 44.0
274.958893 108.0
275.026245 176.0
275.13382 124.0
275.470673 92.0
275.612732 116.0
276.006073 56.0
276.128418 56.0
276.151581 72.0
277.900635 96.0
278.149536 56.0
278.272369 184.0
278.940094 112.0
279.068298 284.0
279.27594 52.0
279.389038 72.0
279.465546 180.0
279.775055 216.0
279.918213 200.0
280.063721 336.0
281.068665 460.0
281.213989 176.0
281.872925 48.0
282.029999 96.0
282.067688 440.0
282.123596 56.0
282.534943 32.0
282.655396 92.0
283.030273 36.0
283.058044 144.0
283.085327 216.0
283.958527 112.0
284.092224 560.0
284.455109 80.0
284.505463 68.0
284.800964 108.0
285.091827 156.0
285.608551 44.0
285.715271 32.0
285.907074 56.0
285.940735 40.0
286.092194 132.0
286.580536 124.0
286.937775 204.0
288.149384 128.0
288.575226 68.0
288.65976 112.0
289.09613 52.0
289.519287 56.0
289.668335 60.0
292.074951 88.0
292.517303 152.0
293.542786 96.0
294.082092 148.0
294.317383 160.0
294.614502 152.0
294.925446 108.0
295.007507 112.0
295.069031 92.0
295.499969 148.0
295.588928 120.0
295.886688 64.0
295.917511 152.0
296.003113 152.0
296.036194 120.0
296.094879 9852.0
296.15155 200.0
296.244568 64.0
296.523804 84.0
296.633484 48.0
296.664337 76.0
297.096191 1796.0
297.185638 52.0
297.439575 240.0
297.673035 40.0
298.023407 128.0
298.092438 3076.0
298.274261 56.0
298.329285 64.0
298.398041 56.0
298.566528 32.0
298.618103 60.0
298.717865 164.0
298.903625 60.0
298.938049 56.0
299.055054 84.0
299.095367 368.0
299.203064 140.0
299.728485 124.0
299.819641 92.0
300.598969 76.0
301.016663 52.0
301.26532 56.0
301.984314 80.0
302.129578 56.0
304.354645 48.0
305.536316 124.0
309.469635 28.0
310.135254 144.0
311.096344 124.0
313.470398 96.0
318.970306 48.0
319.68161 136.0
320.639587 64.0
323.325195 36.0
325.117065 372.0
325.443726 140.0
325.598114 96.0
326.982239 188.0
327.135162 2860.0
327.39267 52.0
327.46109 60.0
327.579956 32.0
328.132538 292.0
328.20343 108.0
328.722839 56.0
328.878021 60.0
329.011597 108.0
329.130219 664.0
329.293243 48.0
329.481079 36.0
329.701477 200.0
329.929199 112.0
330.120819 180.0
330.435516 80.0
333.238068 60.0
334.052399 252.0
335.261169 124.0
335.705933 160.0
340.448578 104.0
343.658386 136.0
345.272614 100.0
348.140961 72.0
349.259644 108.0
353.105011 104.0
359.774597 84.0
367.642914 52.0
372.881958 80.0
375.187622 168.0
379.835754 116.0
385.684235 88.0
387.531342 48.0
390.45575 44.0
401.473358 104.0
403.182007 64.0
404.726074 76.0
409.436371 76.0
413.449219 56.0
413.971436 64.0
423.747192 104.0
424.882812 128.0
441.597595 72.0
442.677307 112.0
443.552948 28.0
447.590271 116.0
448.799561 88.0
449.276123 68.0
455.201599 76.0
458.903412 100.0
467.082947 68.0
476.90686 60.0
477.354645 104.0
479.810303 80.0
492.417206 108.0
492.514374 104.0
503.962616 56.0
515.420349 52.0
524.218994 80.0
524.633728 40.0
530.957336 68.0
539.212036 108.0
539.346069 100.0
557.668884 48.0
563.790955 84.0
571.358521 48.0
574.812805 64.0
589.894897 80.0
595.674683 76.0
600.945374 60.0
601.103149 68.0
622.576538 96.0
622.631165 48.0
631.297424 124.0
648.601807 64.0
652.83606 120.0
675.428894 28.0
703.876343 44.0
709.553589 52.0
718.947083 84.0
720.853455 76.0
726.158752 44.0
729.52002 36.0
732.30188 48.0
748.521545 128.0
749.229553 48.0
755.387268 48.0
781.710754 60.0
805.031006 104.0
808.847229 72.0
833.795288 56.0
838.946838 108.0
842.744324 52.0
854.03125 48.0
854.537354 44.0
872.733215 136.0
873.738953 96.0
874.091919 84.0
876.618103 84.0
893.040833 44.0
911.543884 108.0
971.197205 44.0
972.034729 120.0
987.028015 48.0
994.50177 176.0
995.89563 48.0
997.59845 52.0
1022.749207 72.0
1034.404663 68.0
1034.788818 92.0
1044.131714 88.0
1044.453247 160.0
1049.47644 128.0
1062.035034 104.0
1078.893921 64.0
1083.979492 144.0
1118.880859 216.0
1143.837402 212.0
1150.970215 192.0
1186.27417 160.0
1192.795288 144.0
1205.663208 232.0
1215.857422 192.0
1228.897705 44.0
1242.021484 52.0
1246.802734 48.0
1265.70813 124.0
1271.506836 36.0
1283.436401 52.0
1287.046875 180.0
1288.8396 44.0
1303.17688 140.0
1309.341553 132.0
1310.479736 136.0
1316.177734 188.0
1322.525024 136.0
1325.603027 200.0
1329.809204 56.0
1331.319336 40.0
1337.572021 192.0
1339.479736 184.0
1344.831665 80.0
1348.447021 160.0
1353.831543 168.0
1355.428467 176.0
1356.520386 164.0
1360.687256 152.0
1362.214844 160.0
1381.55835 132.0
1384.778198 36.0
1386.467407 140.0
1389.782104 68.0
1391.073364 180.0
1391.994019 152.0
1394.75769 136.0
1395.129395 48.0
1399.623169 156.0
1402.826782 184.0
1404.564209 256.0
1410.029541 188.0
1412.68396 140.0
1416.396729 164.0
1416.756348 128.0
1420.939575 60.0
1428.120972 208.0
1429.151611 44.0
1436.391479 96.0
1440.233521 144.0
1445.926636 72.0
1453.512329 176.0
1454.278809 52.0
1455.015137 140.0
1457.384766 108.0
1458.380249 200.0
1461.277588 192.0
1465.708862 276.0
1466.166138 204.0
1475.027344 144.0
1475.707764 48.0
1482.144775 64.0
1482.290283 192.0
1482.420654 124.0
1482.803833 216.0
1485.180542 136.0
1486.170166 180.0
1488.196533 128.0
1489.886108 172.0
1491.32312 144.0
1495.099243 256.0
1499.150024 120.0
1501.208252 144.0
1503.036377 232.0
