>compound MLS000876747-01!N-[(1S)-1-(4-methoxy-6-oxopyran-2-yl)-2-phenylethyl]acetamide
>formula C16H17NO4
>ionization [M+H]+
>parentmass 288.124
#inchi InChI=1S/C16H17NO4/c1-11(18)17-14(8-12-6-4-3-5-7-12)15-9-13(20-2)10-16(19)21-15/h3-7,9-10,14H,8H2,1-2H3,(H,17,18)/t14-/m0/s1
#inchikey VFMQMACUYWGDOJ
#Ion_Source LC-ESI
#Instrument qTof
#Compound_Source NIH Natural Product Library
#PI Dorrestein
#Data_Collector VVP/LMS
#Scan -1
#Precursor_MZ 288.124
#ExactMass 287.116
#Charge 1
#CAS_Number N/A
#Pubmed_ID N/A
#Smiles COc1cc(oc(=O)c1)[C@H](Cc2ccccc2)NC(=O)C
#INCHI_AUX N/A
#Library_Class 1
#SpectrumID CCMSLIB00000080046
#IonMode Positive
#UpdateWorkflowName UPDATE-SINGLE-ANNOTATED-GOLD
#LibraryQualityString Gold
#TaskID b1d8e8f6646f4e71acdff9ca3d919d08
##Scan# 1702
#SpectrumFile p2-D03_GD3_01_18015.mzXML
#LibraryName NIH_Natural_Products_Library.mgf
#MQScore -1
#Organism NIH_Natural_Products_Library
#TIC_Query 0
#RT_Query -1
#MZErrorPPM -1
#SharedPeaks 0
#MassDiff 0
#LibMZ -1
#SpecMZ 288.124
#SpecCharge 0
#internalFilename spec-00000.mgf

>collision 10
95.011765 192.0
95.423485 156.0
95.754288 144.0
95.894562 48.0
96.043839 184.0
97.053802 168.0
97.193062 224.0
97.875122 184.0
100.172508 172.0
101.028893 168.0
102.140205 116.0
102.782867 196.0
103.056442 228.0
103.374931 172.0
105.073563 192.0
106.072372 216.0
106.662682 228.0
107.016518 188.0
107.044716 52.0
107.523613 260.0
107.897484 216.0
108.019493 192.0
108.041481 204.0
108.0588 164.0
108.3172 204.0
108.429451 120.0
109.025436 92.0
109.058319 196.0
109.755714 196.0
110.038696 216.0
110.058266 372.0
110.516006 176.0
111.044487 368.0
111.732872 64.0
111.970726 168.0
112.041054 956.0
112.21727 72.0
112.286858 48.0
112.464081 236.0
112.548523 84.0
113.045265 172.0
113.216736 148.0
113.649162 84.0
114.005898 96.0
114.233398 152.0
114.305733 160.0
115.053841 200.0
115.085869 140.0
115.759415 148.0
115.853653 196.0
116.072266 176.0
118.064178 144.0
119.848511 164.0
120.081718 676.0
121.080536 152.0
121.984512 96.0
122.024178 360.0
122.055962 132.0
122.29557 164.0
122.755096 164.0
122.999985 160.0
123.038315 132.0
123.174423 64.0
123.441841 108.0
123.6166 148.0
123.877853 36.0
124.601051 100.0
124.625496 164.0
125.023605 2860.0
125.052452 184.0
125.183807 44.0
125.493523 168.0
126.032829 240.0
126.056831 452.0
126.116348 180.0
126.427223 136.0
126.669022 232.0
126.964432 100.0
127.040054 544.0
127.067009 352.0
127.18026 52.0
128.039108 220.0
128.064758 300.0
129.045517 152.0
129.077164 164.0
130.974442 36.0
131.057037 204.0
131.345978 172.0
132.805283 144.0
133.066605 132.0
133.236832 200.0
133.673676 96.0
134.037506 140.0
136.035751 116.0
137.000809 176.0
137.025665 216.0
137.047409 132.0
137.931885 156.0
138.03241 160.0
138.709015 124.0
139.050034 292.0
139.342621 92.0
139.490677 112.0
139.728195 128.0
139.838791 52.0
140.034271 1572.0
140.069534 204.0
140.087143 240.0
140.201477 80.0
140.397141 76.0
141.039322 152.0
141.071884 416.0
141.685333 60.0
141.941315 136.0
142.081238 432.0
143.065094 208.0
143.083267 192.0
144.057129 160.0
144.079849 140.0
144.183762 164.0
145.31398 124.0
146.07312 140.0
147.044434 220.0
147.0755 32.0
147.203445 52.0
148.049683 208.0
148.520004 260.0
148.833069 172.0
149.017654 164.0
149.080826 136.0
149.24855 152.0
150.056885 148.0
151.041031 160.0
151.065247 200.0
152.063065 728.0
152.097107 208.0
152.765472 40.0
152.91803 160.0
153.015808 500.0
153.07019 1128.0
153.561066 136.0
153.9263 56.0
153.995453 108.0
154.019333 356.0
154.051117 1212.0
154.190628 76.0
154.724915 76.0
154.945328 148.0
155.002319 148.0
155.058426 5480.0
155.123749 144.0
155.396545 80.0
155.468506 44.0
155.624893 84.0
155.676727 96.0
155.796249 100.0
156.060898 672.0
156.106934 108.0
156.759125 52.0
156.883743 84.0
156.980988 72.0
157.063293 220.0
157.083237 180.0
157.103195 144.0
157.610016 76.0
157.704971 40.0
158.075836 152.0
160.055603 60.0
161.02948 196.0
161.06955 268.0
162.05098 60.0
162.26387 248.0
163.044525 276.0
163.582336 96.0
163.824249 56.0
165.044189 136.0
165.073395 184.0
166.074097 188.0
167.077972 556.0
167.38945 32.0
168.078629 484.0
169.067123 300.0
169.860199 108.0
170.036636 64.0
170.073517 1064.0
170.111908 236.0
170.166428 160.0
170.189789 92.0
170.327438 48.0
170.628876 52.0
171.04924 168.0
171.073837 200.0
172.079681 120.0
173.099762 156.0
175.037842 160.0
178.028412 184.0
179.047577 304.0
180.047028 164.0
181.07666 136.0
182.015549 156.0
182.4048 176.0
183.721603 156.0
184.79686 88.0
184.896973 48.0
185.026901 180.0
185.05127 140.0
185.0979 1960.0
186.101212 340.0
187.005753 124.0
187.071548 140.0
187.103745 172.0
188.04689 208.0
188.09874 152.0
188.986923 152.0
189.059235 604.0
190.055038 188.0
191.038376 148.0
193.650253 60.0
196.06073 240.0
197.074677 160.0
198.059387 168.0
198.10141 64.0
199.293732 84.0
200.109955 716.0
201.096268 332.0
202.123108 180.0
203.072723 216.0
203.884537 52.0
204.09314 44.0
211.075607 160.0
212.07991 132.0
213.061157 456.0
213.415283 56.0
213.770142 68.0
214.052505 192.0
215.099136 152.0
216.040085 136.0
216.983078 180.0
217.05011 1144.0
217.792984 48.0
218.05423 296.0
219.068649 200.0
227.032455 160.0
227.290436 220.0
228.101807 144.0
229.086685 408.0
231.064163 292.0
231.08989 96.0
231.716599 80.0
232.065125 120.0
233.078888 144.0
241.033371 176.0
242.049988 168.0
245.046387 476.0
246.049728 40.0
246.113068 424.0
259.061981 144.0
260.090271 152.0
261.227753 92.0
269.046631 256.0
286.445953 28.0
287.053741 468.0
287.551849 112.0
288.061127 164.0
288.321869 76.0
289.329834 56.0
303.636414 84.0
305.860016 68.0
351.02475 72.0
357.776337 80.0
371.161865 56.0
469.256531 104.0
509.763702 88.0
682.945862 80.0
836.871521 180.0
844.916748 180.0
852.018372 148.0
929.565857 152.0
992.1073 196.0
1020.002502 120.0
1028.793091 104.0
1055.791992 176.0
1076.149902 200.0
1099.663452 80.0
1133.124756 168.0
1139.36377 184.0
1172.151489 152.0
1175.083252 140.0
1183.120117 40.0
1190.614258 156.0
1194.050415 144.0
1201.993164 144.0
1206.074463 48.0
1226.243774 20.0
1230.038086 132.0
1230.247437 160.0
1231.371704 156.0
1233.195068 252.0
1242.620361 184.0
1244.950684 148.0
1256.973633 128.0
1264.881836 156.0
1267.20459 196.0
1268.217896 212.0
1268.274658 168.0
1270.607544 180.0
1277.263672 36.0
1282.19043 160.0
1286.377197 148.0
1294.133789 132.0
1297.665894 224.0
1311.921753 224.0
1315.904053 160.0
1332.801392 144.0
1334.44397 212.0
1340.047974 140.0
1343.102295 148.0
1352.476685 200.0
1353.604004 128.0
1384.969482 224.0
1385.680542 164.0
1392.824219 152.0
1395.239258 116.0
1397.2323 116.0
1397.924194 124.0
1408.518188 84.0
1412.591919 184.0
1417.540649 228.0
1420.727051 140.0
1425.509644 164.0
1429.833618 232.0
1458.194214 152.0
1459.676514 176.0
1464.707031 172.0
1479.145996 68.0
1484.738892 252.0
1492.963501 204.0
1503.563721 124.0
