>compound MLS000859932-01!8-Cyclopentyl-1,3-dimethylxanthine
>formula C12H16N4O2
>ionization [M+H]+
>parentmass 249.136246
#inchi InChI=1S/C12H16N4O2/c1-15-10-8(11(17)16(2)12(15)18)13-9(14-10)7-5-3-4-6-7/h7H,3-6H2,1-2H3,(H,13,14)
#inchikey SCVHFRLUNIOSGI
#Ion_Source LC-ESI
#Instrument qTof
#Compound_Source NIH Pharmacologically Active Library
#PI Dorrestein
#Data_Collector VP/LMS
#Scan -1
#Precursor_MZ 249.14
#ExactMass 248.127
#Charge 1
#CAS_Number N/A
#Pubmed_ID N/A
#Smiles Cn1c(=O)n(C)c2[nH]c(nc2c1=O)C3CCCC3
#INCHI_AUX N/A
#Library_Class 1
#SpectrumID CCMSLIB00000086044
#IonMode Positive
#UpdateWorkflowName UPDATE-SINGLE-ANNOTATED-GOLD
#LibraryQualityString Gold
#TaskID d252d724072548979f1f6f1ced849daf
##Scan# 1503
#SpectrumFile p5-C03_GC3_01_18448.mzXML
#LibraryName Pharm_Active_Library.mgf
#MQScore -1
#Organism Pharm_Active_Library
#TIC_Query 0
#RT_Query -1
#MZErrorPPM -1
#SharedPeaks 0
#MassDiff 0
#LibMZ -1
#SpecMZ 249.14
#SpecCharge 0
#internalFilename spec-00000.mgf

>collision 10
44.931068 128.0
45.166172 200.0
45.186241 252.0
45.21434 168.0
45.227722 160.0
45.282616 124.0
45.351307 164.0
45.419327 232.0
45.4314 144.0
45.442135 196.0
45.518639 140.0
45.591179 172.0
45.624783 148.0
45.7472 36.0
46.034378 168.0
46.181683 240.0
46.260162 136.0
46.372585 156.0
46.398342 152.0
46.43224 128.0
46.585617 92.0
46.854973 48.0
46.883713 192.0
46.908119 116.0
47.03088 156.0
47.104614 180.0
47.141502 176.0
47.285095 152.0
47.46455 52.0
47.493347 52.0
47.60355 200.0
47.791451 320.0
47.861649 168.0
47.897453 172.0
48.035294 264.0
48.111191 168.0
48.203728 164.0
48.292206 200.0
48.423687 216.0
48.553963 80.0
48.683022 188.0
48.702465 52.0
48.75248 256.0
48.813137 176.0
48.845631 132.0
49.058685 236.0
49.209354 184.0
49.238678 152.0
49.445587 184.0
49.551594 244.0
49.599651 184.0
49.659943 156.0
49.749744 40.0
49.811531 232.0
49.945065 156.0
50.00275 196.0
50.014008 236.0
50.122448 240.0
50.135128 164.0
50.202797 176.0
50.439983 160.0
50.619659 132.0
50.635239 176.0
50.710323 184.0
50.761555 204.0
50.772705 180.0
50.909805 236.0
50.944447 72.0
51.099407 192.0
51.166294 176.0
51.21756 80.0
51.256023 160.0
51.265999 172.0
51.2831 244.0
51.40004 80.0
51.445709 96.0
51.488544 184.0
51.504253 372.0
51.53997 136.0
51.652908 136.0
51.69297 88.0
51.7402 188.0
51.936516 128.0
52.123146 160.0
52.300034 172.0
52.334583 180.0
52.445507 128.0
52.500294 140.0
52.514713 200.0
52.634491 132.0
52.794891 192.0
52.886036 148.0
53.123669 196.0
53.880672 172.0
54.086857 220.0
54.143955 36.0
54.199623 204.0
54.239189 68.0
54.275841 176.0
54.306637 196.0
54.391739 200.0
54.85656 88.0
55.052792 212.0
55.136997 188.0
55.255287 160.0
55.335205 84.0
55.350014 140.0
55.469723 184.0
55.515976 220.0
55.642097 152.0
55.685158 224.0
55.829315 184.0
55.981102 112.0
56.159939 172.0
56.304707 44.0
56.478077 184.0
56.741631 164.0
56.864632 176.0
57.131859 128.0
57.263046 40.0
57.293171 260.0
57.339882 200.0
57.742981 164.0
57.791386 180.0
57.971573 132.0
58.0686 188.0
58.226437 188.0
58.494034 172.0
58.521435 156.0
58.730209 136.0
58.757664 200.0
58.869087 212.0
58.899632 212.0
59.015774 164.0
59.058594 204.0
59.177956 156.0
59.308167 232.0
59.38636 204.0
59.582844 140.0
59.628941 148.0
59.735031 176.0
59.893578 152.0
60.019947 68.0
60.041534 128.0
60.435436 148.0
60.529854 160.0
60.756138 164.0
60.874096 212.0
61.236443 116.0
61.322132 212.0
61.345512 140.0
61.451561 196.0
61.52179 212.0
61.944 192.0
61.994137 52.0
62.006676 200.0
62.22942 88.0
62.289093 172.0
62.471439 140.0
63.168674 180.0
63.312702 140.0
63.42836 128.0
63.50288 232.0
63.764843 184.0
63.822071 196.0
63.842743 188.0
63.877731 204.0
64.1054 84.0
64.137276 176.0
64.167564 176.0
64.69796 88.0
65.058655 168.0
65.082741 156.0
65.224113 68.0
65.264297 60.0
65.475098 148.0
65.599167 136.0
65.660431 60.0
65.849258 168.0
66.122482 180.0
66.171043 112.0
66.250397 144.0
66.440071 80.0
67.325516 28.0
67.637794 192.0
67.732765 228.0
67.916336 232.0
67.972115 104.0
68.124802 288.0
68.254639 140.0
68.332039 136.0
68.620163 180.0
68.661385 180.0
68.833 148.0
68.87925 164.0
69.21331 144.0
69.327606 52.0
69.601311 196.0
69.646149 188.0
69.724236 180.0
69.809013 200.0
69.852257 172.0
69.872223 248.0
69.943771 192.0
69.962082 200.0
69.983727 240.0
70.307106 200.0
70.393913 188.0
70.761757 212.0
70.793571 40.0
70.894081 224.0
71.011436 168.0
71.056725 168.0
71.101578 148.0
71.120491 148.0
71.165817 132.0
71.394341 44.0
71.926743 248.0
71.960503 164.0
72.261337 160.0
72.395058 208.0
72.442482 264.0
72.567886 124.0
72.759598 156.0
72.771484 188.0
72.790161 160.0
73.036583 172.0
73.176125 44.0
73.491432 232.0
73.508492 96.0
73.737328 72.0
74.28009 48.0
74.372749 184.0
74.800743 76.0
74.955742 148.0
74.995377 136.0
75.335304 32.0
75.380226 204.0
75.459732 164.0
75.599838 120.0
75.80764 196.0
75.967148 168.0
76.067795 164.0
76.237999 220.0
76.323174 176.0
76.394485 168.0
76.55809 188.0
76.735817 200.0
76.898041 60.0
77.118011 236.0
77.233505 164.0
77.464554 196.0
77.671394 216.0
77.727531 240.0
77.759125 184.0
77.971626 148.0
78.423943 212.0
78.566772 212.0
78.582649 212.0
79.256287 124.0
79.316536 176.0
79.401642 160.0
79.497437 168.0
79.520508 200.0
79.570213 232.0
79.650124 176.0
79.70697 180.0
79.810066 212.0
79.874084 36.0
79.913223 160.0
80.126869 184.0
80.15181 212.0
80.164284 192.0
80.394325 164.0
80.481789 228.0
80.530006 128.0
80.553223 172.0
80.703339 132.0
80.723007 160.0
80.86792 216.0
80.943108 200.0
81.003998 124.0
81.60878 168.0
81.911118 188.0
82.082329 164.0
82.607887 156.0
83.229515 192.0
83.40876 192.0
83.423912 176.0
83.54393 136.0
83.857117 216.0
84.499878 136.0
84.647873 140.0
84.959717 144.0
85.115715 120.0
85.271866 120.0
85.376656 124.0
85.39872 156.0
85.483345 160.0
85.529358 64.0
85.584587 160.0
85.604843 88.0
85.621414 164.0
85.905258 168.0
86.095367 128.0
86.230232 40.0
86.381844 196.0
86.489166 184.0
86.524338 176.0
86.616928 116.0
86.631744 196.0
86.69474 204.0
86.735512 36.0
86.869026 156.0
86.887573 124.0
86.982216 128.0
87.277603 140.0
87.322227 156.0
87.508308 252.0
87.597702 168.0
87.756111 116.0
87.78035 180.0
87.829659 188.0
87.94265 116.0
87.99305 220.0
88.117165 184.0
88.216805 124.0
88.445435 184.0
88.75267 212.0
89.199478 116.0
89.227676 160.0
89.257759 132.0
89.509895 228.0
89.607841 316.0
89.65683 204.0
89.690758 236.0
89.743538 132.0
90.022804 140.0
90.06057 56.0
90.073792 160.0
90.366814 184.0
90.85939 288.0
90.99604 188.0
91.036598 188.0
91.197395 180.0
91.383751 176.0
91.410393 84.0
91.446548 64.0
91.465584 156.0
91.526505 108.0
91.640785 176.0
91.797081 104.0
92.05278 196.0
92.216194 184.0
92.469528 212.0
92.482925 176.0
92.572906 108.0
92.630363 128.0
92.743416 92.0
92.823929 108.0
92.998505 160.0
93.047066 256.0
93.0755 168.0
93.250107 84.0
93.288551 152.0
93.450096 116.0
93.528992 240.0
93.846855 152.0
93.871918 132.0
93.893135 136.0
94.043617 232.0
94.217407 44.0
94.331421 168.0
94.370087 172.0
94.416496 132.0
94.457108 132.0
94.902527 212.0
95.025055 2536.0
95.068825 272.0
95.088745 36.0
95.199402 52.0
95.372314 68.0
95.539543 32.0
95.61348 76.0
95.704742 172.0
95.759491 52.0
95.90757 232.0
96.026497 172.0
96.058418 940.0
96.083336 1776.0
96.323174 160.0
96.346619 40.0
96.37397 252.0
96.511147 108.0
96.718155 68.0
96.807533 232.0
97.038483 304.0
97.064049 164.0
97.085526 172.0
97.102173 212.0
97.339622 116.0
97.553772 184.0
97.608818 136.0
98.211441 88.0
98.300217 140.0
98.389038 96.0
98.489746 172.0
98.566795 180.0
98.839661 192.0
98.853516 128.0
98.910904 168.0
98.984154 44.0
99.225876 120.0
99.243721 168.0
99.323051 220.0
99.434158 132.0
99.517525 116.0
99.555252 164.0
99.787735 204.0
99.87722 124.0
99.936897 172.0
100.189743 184.0
100.564949 192.0
100.582581 156.0
100.730339 188.0
100.878212 164.0
101.042191 132.0
101.296432 164.0
101.426674 240.0
101.482803 220.0
101.687988 196.0
101.811882 148.0
101.840004 152.0
101.854065 160.0
102.121384 124.0
102.294426 92.0
102.322609 60.0
102.556274 136.0
102.735741 112.0
102.990074 96.0
103.050682 184.0
103.222481 164.0
103.275063 76.0
103.416695 196.0
103.495644 172.0
103.556396 156.0
103.621216 196.0
104.047112 148.0
104.128326 40.0
104.151733 92.0
104.242088 160.0
104.323387 156.0
104.543053 152.0
104.557297 180.0
104.579681 136.0
104.644821 40.0
104.66111 164.0
104.720169 96.0
104.968788 104.0
105.303467 44.0
105.413788 208.0
105.524162 108.0
105.554832 132.0
105.61618 104.0
105.7062 196.0
105.820816 208.0
106.065926 656.0
106.119949 48.0
106.401016 156.0
106.836693 136.0
106.892242 148.0
106.925171 128.0
107.023613 180.0
107.061707 552.0
107.153732 188.0
107.312424 116.0
107.339233 48.0
107.541405 116.0
107.56617 172.0
107.851212 216.0
107.890488 140.0
107.940109 180.0
107.979401 224.0
108.027725 188.0
108.059975 288.0
108.081757 492.0
108.177826 160.0
108.410004 192.0
108.439018 160.0
108.584145 76.0
108.716911 140.0
108.893379 156.0
109.024376 144.0
109.04084 172.0
109.062904 464.0
109.136505 196.0
109.15522 208.0
109.190575 72.0
109.298744 176.0
109.361176 108.0
109.49234 204.0
109.561073 200.0
109.740303 140.0
109.761154 152.0
110.044342 180.0
110.069977 44.0
110.097206 504.0
110.193207 172.0
110.331139 192.0
110.40641 248.0
110.653313 212.0
110.946609 120.0
111.122772 120.0
111.269684 224.0
111.488129 168.0
111.620567 140.0
112.161621 60.0
112.573021 48.0
112.773712 184.0
113.215881 160.0
113.323906 204.0
113.419273 168.0
113.741676 104.0
113.894554 164.0
114.172974 60.0
114.2304 176.0
114.270821 232.0
114.428314 204.0
114.530525 144.0
114.869438 40.0
114.901443 144.0
114.973175 116.0
115.057228 112.0
115.159729 180.0
115.30928 176.0
115.348465 168.0
115.426857 176.0
115.606537 148.0
115.981331 172.0
116.060654 208.0
116.097107 208.0
116.307358 40.0
116.395378 216.0
116.509209 156.0
116.554329 192.0
116.59301 160.0
116.640289 172.0
116.754242 76.0
116.881157 160.0
117.057663 168.0
117.352852 144.0
117.389511 156.0
117.42186 120.0
117.637627 124.0
117.689438 180.0
118.068604 348.0
118.11084 92.0
118.513504 176.0
118.595848 144.0
118.871269 120.0
118.97419 172.0
119.045776 212.0
119.062302 152.0
119.10791 184.0
119.131805 84.0
119.212196 236.0
119.349136 168.0
119.577553 72.0
119.81707 196.0
120.082832 128.0
120.181168 156.0
120.224808 160.0
120.253181 196.0
120.840996 164.0
120.865059 184.0
120.937279 132.0
121.040947 748.0
121.070824 124.0
121.235123 56.0
121.465332 176.0
121.504822 152.0
121.957169 76.0
122.034912 320.0
122.075447 140.0
122.10228 280.0
122.445602 164.0
122.500664 100.0
122.520493 60.0
122.584389 120.0
122.630661 168.0
122.740891 236.0
122.756325 216.0
123.045662 696.0
123.092255 628.0
123.191116 128.0
123.562508 128.0
123.589058 216.0
123.653236 184.0
123.682007 136.0
123.954407 208.0
124.003159 76.0
124.050522 4816.0
124.231544 152.0
124.273697 96.0
124.393532 128.0
124.458618 152.0
125.055588 156.0
125.236252 180.0
125.292656 136.0
125.615173 104.0
125.72673 68.0
125.994667 116.0
126.038338 132.0
126.061699 156.0
126.126511 68.0
126.155571 152.0
126.643364 188.0
126.923492 168.0
127.046844 208.0
127.098442 148.0
127.145569 136.0
127.43251 152.0
127.473427 200.0
127.707237 152.0
127.734222 156.0
127.866974 144.0
128.105637 172.0
128.220551 208.0
128.405426 124.0
128.500153 84.0
128.706406 204.0
128.845581 176.0
128.888504 44.0
128.922394 152.0
128.940475 192.0
128.99472 172.0
129.16658 136.0
129.293274 152.0
129.329483 188.0
129.420044 180.0
129.89595 120.0
129.991241 184.0
130.293213 156.0
130.338654 120.0
130.57962 232.0
130.672882 124.0
130.791214 152.0
130.883835 176.0
131.178452 144.0
131.267365 140.0
131.411057 116.0
131.458969 76.0
131.497772 192.0
131.700974 120.0
131.755798 92.0
131.77179 252.0
132.066193 136.0
132.116989 192.0
132.274887 176.0
132.316101 208.0
132.368759 164.0
132.446625 152.0
132.758316 188.0
132.96019 228.0
133.075821 176.0
133.256393 64.0
133.385086 168.0
133.647263 200.0
133.787643 180.0
133.973267 212.0
134.067734 460.0
134.110138 200.0
134.209259 184.0
134.767822 144.0
135.04335 1104.0
135.092926 1160.0
135.170135 88.0
135.260391 64.0
135.283539 36.0
135.517456 140.0
135.626373 60.0
135.742279 100.0
135.888412 128.0
136.052017 1736.0
136.076279 832.0
136.159607 168.0
136.450439 164.0
136.53183 76.0
136.606262 184.0
136.696991 44.0
136.818024 192.0
136.962387 60.0
137.055374 140.0
137.079865 200.0
137.108215 2100.0
137.2164 36.0
137.263031 148.0
137.715332 196.0
137.785843 44.0
137.858276 72.0
137.900345 64.0
138.035934 180.0
138.1008 380.0
138.131821 52.0
138.24646 88.0
138.473541 68.0
138.562561 108.0
138.588333 128.0
138.698471 188.0
138.937073 184.0
139.339355 184.0
139.402542 200.0
139.470688 160.0
139.491852 200.0
139.981216 32.0
140.561081 220.0
140.688522 164.0
140.760422 176.0
141.153961 120.0
141.239105 136.0
141.532547 40.0
141.69426 176.0
141.786011 204.0
142.003098 148.0
142.063812 224.0
142.336365 124.0
142.376724 204.0
142.642517 152.0
142.65184 132.0
142.88063 132.0
143.060074 220.0
143.211502 160.0
143.397354 144.0
143.473618 220.0
143.496384 68.0
143.552307 100.0
143.805176 164.0
143.829056 156.0
143.905441 188.0
144.060669 148.0
144.321167 100.0
144.517303 132.0
144.873016 48.0
144.943497 144.0
145.173615 280.0
145.663223 228.0
145.730484 104.0
145.792953 196.0
146.069046 256.0
146.093506 164.0
146.247513 204.0
146.302872 360.0
146.384735 68.0
146.546112 212.0
146.951157 224.0
146.98494 180.0
147.09285 280.0
147.175613 232.0
147.202179 228.0
147.219086 180.0
147.373672 140.0
147.736313 204.0
148.049316 816.0
148.092133 160.0
148.126053 160.0
148.220535 136.0
148.239914 108.0
148.39505 148.0
148.458084 132.0
148.516296 136.0
148.933762 116.0
148.992065 148.0
149.057831 1000.0
149.099365 204.0
149.135437 108.0
149.22052 208.0
149.312912 76.0
149.367233 144.0
149.735001 156.0
149.987335 212.0
150.0672 304.0
150.167755 196.0
150.338531 164.0
150.544006 160.0
150.746338 68.0
150.778107 176.0
150.959 204.0
151.04216 180.0
151.08284 192.0
151.281113 184.0
151.47052 132.0
151.517059 196.0
151.855331 204.0
151.933823 148.0
152.061417 184.0
152.242752 212.0
152.375717 140.0
152.41011 168.0
152.56987 120.0
153.093948 180.0
153.19986 64.0
153.24173 44.0
153.266373 172.0
153.966934 116.0
154.063065 288.0
154.184341 132.0
154.270844 116.0
154.40683 180.0
154.708694 64.0
154.859741 220.0
154.94397 128.0
155.008392 156.0
155.164536 232.0
155.782455 164.0
155.861954 128.0
155.95639 192.0
156.078201 116.0
156.115723 184.0
156.219971 132.0
156.411575 144.0
156.481277 172.0
157.019501 136.0
157.061905 184.0
157.566147 236.0
157.853577 112.0
158.183823 168.0
158.21637 196.0
158.309006 152.0
158.401688 264.0
158.53447 176.0
158.928146 96.0
159.354965 212.0
159.432861 212.0
159.67421 224.0
159.923279 164.0
160.507736 220.0
160.563217 60.0
160.638885 152.0
160.855896 176.0
160.936676 148.0
161.06926 432.0
161.54068 124.0
161.900085 216.0
161.950729 112.0
162.036865 164.0
162.062775 268.0
162.099136 160.0
162.21933 132.0
162.30806 196.0
162.528732 92.0
162.582016 116.0
162.615005 140.0
162.681 96.0
162.698776 328.0
162.833344 144.0
162.890396 104.0
162.952744 28.0
162.998474 120.0
163.034042 152.0
163.087845 30176.0
163.250122 164.0
163.270462 84.0
163.29335 88.0
163.326416 84.0
163.401154 64.0
163.433273 52.0
163.462906 88.0
163.516373 176.0
163.537598 64.0
163.560516 48.0
163.585022 108.0
163.647064 88.0
163.664886 80.0
163.810043 52.0
163.889023 44.0
163.909409 148.0
163.939987 84.0
163.98143 148.0
164.060165 160.0
164.089844 3688.0
164.119431 11892.0
164.192795 24.0
164.227844 44.0
164.252441 64.0
164.273987 60.0
164.293686 164.0
164.32756 208.0
164.373489 56.0
164.414948 120.0
164.525452 96.0
164.595551 48.0
164.631302 100.0
164.753906 44.0
164.779449 224.0
164.797333 72.0
164.833115 120.0
164.876556 72.0
164.94812 168.0
164.974899 84.0
165.102463 1064.0
165.120285 1140.0
165.178253 100.0
165.203827 56.0
165.231964 108.0
165.339432 124.0
165.440353 168.0
165.513504 196.0
165.664612 44.0
165.695343 56.0
165.751724 124.0
165.785034 76.0
165.959335 44.0
166.020874 124.0
166.101501 180.0
166.129669 172.0
166.169647 60.0
166.205566 92.0
166.562408 120.0
166.631775 88.0
167.055939 320.0
167.073959 172.0
167.099686 36.0
167.395676 32.0
168.065857 80.0
168.321381 40.0
168.719269 136.0
169.068451 140.0
170.079224 112.0
170.175278 120.0
170.364853 148.0
170.385635 84.0
170.549347 204.0
170.663727 144.0
170.832779 192.0
170.89682 52.0
171.316971 72.0
172.036697 160.0
172.286011 120.0
172.632401 200.0
172.865219 168.0
172.928024 144.0
173.221283 144.0
173.284149 28.0
173.404694 164.0
173.535751 244.0
173.700974 68.0
173.766556 88.0
173.866257 44.0
174.076279 104.0
174.099915 128.0
174.131424 140.0
174.675491 40.0
174.735992 108.0
174.85704 104.0
175.014984 192.0
175.086075 160.0
175.465515 144.0
175.6633 76.0
175.977341 64.0
176.04599 120.0
176.082336 520.0
176.123001 192.0
176.149002 216.0
176.275803 120.0
176.344513 128.0
176.468765 88.0
176.55867 188.0
176.833801 136.0
176.897324 140.0
176.923798 176.0
176.979324 144.0
177.089828 10300.0
177.120331 312.0
177.191284 40.0
177.249573 68.0
177.371475 64.0
177.425293 80.0
177.480179 88.0
177.583588 144.0
177.848907 76.0
177.973679 104.0
178.06662 120.0
178.094101 632.0
178.167557 36.0
178.255234 48.0
178.318054 88.0
178.336853 164.0
178.547653 100.0
178.858948 60.0
179.010696 80.0
179.06929 168.0
179.183823 72.0
179.341049 92.0
179.405014 112.0
179.449081 136.0
179.527664 128.0
179.559662 184.0
179.65036 108.0
180.029358 88.0
180.066742 92.0
180.144196 244.0
180.216339 104.0
180.390045 48.0
180.836731 216.0
180.978607 72.0
181.073166 2596.0
181.158035 68.0
181.235733 84.0
181.302719 40.0
181.409927 144.0
181.686142 68.0
181.750534 36.0
181.773743 68.0
181.914246 140.0
181.933029 60.0
182.078842 424.0
182.102203 160.0
182.343994 220.0
182.503708 232.0
182.57251 40.0
182.868912 160.0
183.062271 140.0
183.676758 120.0
183.768478 128.0
183.873718 176.0
184.008682 168.0
184.278763 60.0
184.308472 148.0
184.424683 164.0
185.765015 144.0
186.318802 148.0
186.63678 156.0
186.723801 84.0
186.821716 128.0
187.437027 156.0
187.50766 204.0
187.802322 64.0
187.900528 100.0
187.930542 120.0
188.047882 184.0
188.5905 284.0
189.625961 124.0
189.806885 124.0
189.858978 172.0
190.020813 168.0
190.096771 244.0
190.123566 116.0
190.24585 108.0
190.355682 196.0
190.803528 104.0
191.078552 224.0
191.105621 188.0
191.136322 124.0
191.20134 160.0
191.268417 192.0
191.295944 144.0
191.317505 144.0
191.441864 164.0
191.465973 128.0
191.582336 172.0
191.63652 216.0
191.731125 168.0
191.766953 180.0
191.835861 220.0
191.860199 84.0
191.884262 136.0
191.913055 100.0
191.93512 148.0
191.99379 260.0
192.043213 192.0
192.069321 96.0
192.114655 76916.0
192.197525 116.0
192.221085 196.0
192.30101 44.0
192.326385 172.0
192.35405 136.0
192.377655 248.0
192.410645 116.0
192.440033 92.0
192.469193 100.0
192.5233 124.0
192.568878 84.0
192.624054 120.0
192.655777 68.0
192.68605 100.0
192.703674 132.0
192.744064 52.0
192.816605 132.0
192.840576 128.0
192.903885 128.0
192.951141 48.0
192.987091 60.0
193.023026 148.0
193.074066 776.0
193.116745 5576.0
193.17514 80.0
193.200043 56.0
193.244308 68.0
193.338379 136.0
193.357758 52.0
193.38266 144.0
193.427139 60.0
193.479553 72.0
193.501694 56.0
193.60968 88.0
193.684464 80.0
193.788574 48.0
193.850693 92.0
193.906113 44.0
194.011444 156.0
194.053024 52.0
194.07724 420.0
194.118301 468.0
194.175034 32.0
194.201706 52.0
194.222183 124.0
194.25824 100.0
194.28598 220.0
194.313721 116.0
194.343826 104.0
194.424637 132.0
194.500824 104.0
194.56073 188.0
194.586517 96.0
194.636276 112.0
194.658661 124.0
194.730103 76.0
194.774536 40.0
194.874557 96.0
194.893997 40.0
194.960693 56.0
195.044067 108.0
195.238678 80.0
195.258148 56.0
195.352722 80.0
195.542038 104.0
195.629837 116.0
196.168625 64.0
196.425171 72.0
196.963882 52.0
197.005783 212.0
197.033722 52.0
197.383087 56.0
197.816727 72.0
198.410614 44.0
198.929596 152.0
199.634796 248.0
200.583603 56.0
200.984055 224.0
202.204819 44.0
202.275589 40.0
202.53891 120.0
203.244812 100.0
203.312912 160.0
203.486053 96.0
203.508774 120.0
203.784271 144.0
204.187912 80.0
204.261871 72.0
204.480942 48.0
204.594803 52.0
204.839706 84.0
205.067795 156.0
205.304276 44.0
206.309311 136.0
206.675385 56.0
207.087479 180.0
207.127701 104.0
207.580521 248.0
207.614929 156.0
207.723923 204.0
208.104202 156.0
208.821121 28.0
209.223969 48.0
210.126785 728.0
210.740967 68.0
211.721558 200.0
212.13588 160.0
212.547958 216.0
213.468521 148.0
213.829239 200.0
213.867081 68.0
214.79657 168.0
215.432922 100.0
216.178482 172.0
216.380447 128.0
217.004471 160.0
217.115707 148.0
217.209763 188.0
217.470901 180.0
217.649963 96.0
218.034775 48.0
220.052521 148.0
220.097305 560.0
220.60791 116.0
221.098907 164.0
221.196564 40.0
222.385147 176.0
226.125565 72.0
226.43692 192.0
227.177277 180.0
227.405319 80.0
228.508118 44.0
229.505051 96.0
230.915268 184.0
231.635635 180.0
232.108414 40.0
232.172089 100.0
232.63327 184.0
233.018951 180.0
233.70607 96.0
234.110916 356.0
234.534393 172.0
234.900299 96.0
237.126205 120.0
239.156357 124.0
239.661392 164.0
239.880188 136.0
240.151535 224.0
241.287888 188.0
243.528259 64.0
243.751938 92.0
244.311569 104.0
244.345779 84.0
245.635468 208.0
245.991196 136.0
246.419037 112.0
246.628403 160.0
246.815979 100.0
247.11937 188.0
247.776825 268.0
247.974243 192.0
248.102753 184.0
248.441437 136.0
248.592041 192.0
248.620285 100.0
248.689331 164.0
248.880814 112.0
248.980957 176.0
249.025269 92.0
249.136246 28884.0
249.193436 112.0
249.255722 168.0
249.325378 84.0
249.374008 92.0
249.399155 84.0
249.449173 92.0
249.512314 52.0
249.662796 56.0
249.886566 40.0
250.136902 3052.0
250.201294 60.0
250.254807 40.0
250.276855 44.0
250.40596 40.0
250.448761 156.0
250.802948 124.0
250.910126 44.0
251.148865 180.0
251.187622 96.0
251.263336 56.0
251.310654 40.0
251.702042 88.0
251.749405 68.0
251.774673 60.0
251.872589 72.0
252.027374 132.0
252.058975 124.0
252.0811 88.0
252.128494 52.0
252.7388 80.0
252.824234 92.0
254.901291 84.0
261.33786 64.0
262.381348 108.0
264.228638 136.0
264.610535 92.0
265.226013 48.0
267.148346 176.0
269.75708 152.0
280.64212 56.0
280.998993 108.0
290.662445 60.0
292.402344 148.0
310.781128 96.0
312.889862 136.0
314.59964 68.0
320.283844 120.0
328.229156 48.0
331.362793 88.0
332.004364 44.0
338.53476 64.0
342.206604 56.0
345.269257 100.0
348.951324 52.0
352.888397 32.0
354.40799 88.0
354.441711 52.0
357.009277 32.0
357.874725 108.0
364.889221 60.0
369.159668 48.0
375.874237 64.0
377.41153 92.0
380.445068 116.0
381.42395 76.0
382.431335 44.0
385.199738 80.0
385.676453 52.0
391.829468 76.0
398.424377 48.0
400.36142 96.0
402.894165 60.0
405.354767 80.0
408.538605 60.0
413.667542 68.0
422.449127 68.0
425.276398 84.0
433.23468 92.0
435.67395 112.0
443.942322 88.0
445.843994 60.0
448.664062 76.0
449.75238 56.0
468.851715 92.0
489.140198 96.0
542.48291 136.0
543.266602 44.0
560.467102 120.0
563.108826 124.0
606.362732 76.0
628.527466 48.0
642.65686 64.0
689.824097 104.0
758.09845 208.0
761.768921 44.0
790.332336 132.0
793.009094 164.0
803.569519 44.0
805.906921 140.0
821.662048 104.0
822.957581 52.0
828.092651 108.0
843.547546 200.0
848.479736 132.0
853.920532 164.0
855.631226 124.0
863.596375 124.0
876.364258 216.0
877.590149 112.0
885.058472 80.0
891.29834 160.0
902.778992 184.0
903.245483 100.0
960.03833 156.0
967.675476 152.0
970.153564 192.0
978.123291 228.0
1032.616699 132.0
1034.222534 180.0
1035.496704 200.0
1051.672974 120.0
1062.258667 184.0
1066.258179 244.0
1081.428223 196.0
1085.325928 92.0
1090.209717 236.0
1095.262451 92.0
1097.212891 172.0
1101.95813 240.0
1109.728149 216.0
1115.789551 32.0
1120.861206 164.0
1123.354614 204.0
1127.88855 144.0
1132.378052 184.0
1133.657593 112.0
1140.778687 144.0
1141.329956 176.0
1142.069702 192.0
1142.621216 220.0
1146.755737 180.0
1147.638794 160.0
1149.18335 176.0
1152.525391 192.0
1156.352905 112.0
1159.861328 176.0
1161.617554 184.0
1165.840576 164.0
1168.206543 124.0
1174.118652 160.0
1175.210083 168.0
1182.131714 148.0
1183.055664 148.0
1183.240479 152.0
1193.875854 152.0
1194.77002 92.0
1213.929565 216.0
1215.573608 236.0
1216.774292 156.0
1217.656128 140.0
1220.373169 148.0
1223.052124 168.0
1232.193481 48.0
1234.45105 28.0
1236.024902 52.0
1236.563721 48.0
1245.755981 84.0
1246.058105 144.0
1250.424805 208.0
1251.832764 168.0
1259.15979 88.0
1260.791748 180.0
1265.594727 164.0
1265.785889 180.0
1269.754272 180.0
1272.0177 216.0
1275.142822 180.0
1278.05127 180.0
1278.883789 84.0
1279.538696 120.0
1283.250488 200.0
1285.497314 164.0
1287.753296 160.0
1288.467529 92.0
1288.603271 152.0
1289.196289 116.0
1289.421387 188.0
1291.823975 192.0
1294.912354 252.0
1303.017944 112.0
1305.073486 148.0
1307.25293 252.0
1309.167725 192.0
1309.311768 132.0
1310.658813 156.0
1312.626587 144.0
1313.304565 128.0
1314.220703 168.0
1318.358154 212.0
1319.883423 172.0
1320.035278 240.0
1321.149048 72.0
1325.906128 144.0
1326.50769 148.0
1331.564819 160.0
1332.465576 132.0
1332.92334 148.0
1333.984375 160.0
1334.653198 168.0
1336.457031 68.0
1337.83252 148.0
1338.167358 200.0
1340.826172 116.0
1345.297241 200.0
1345.720703 172.0
1347.721924 160.0
1354.755615 236.0
1360.149536 132.0
1360.479858 172.0
1360.861572 148.0
1361.265381 100.0
1361.970459 188.0
1363.234131 200.0
1363.608887 196.0
1363.770508 32.0
1365.998535 212.0
1366.189697 44.0
1370.253418 176.0
1371.35144 80.0
1373.305176 160.0
1375.755005 112.0
1381.496826 40.0
1381.800171 156.0
1383.309814 140.0
1385.479492 160.0
1386.035156 40.0
1390.091187 132.0
1391.308472 180.0
1392.80835 208.0
1394.814575 128.0
1396.896606 188.0
1397.372681 152.0
1397.655518 180.0
1398.07959 112.0
1401.683716 184.0
1402.45874 64.0
1404.695679 136.0
1404.747925 144.0
1409.765137 208.0
1411.731079 204.0
1415.787109 168.0
1416.071655 164.0
1418.626709 144.0
1421.859375 84.0
1423.345703 172.0
1425.336304 216.0
1425.727051 188.0
1427.012329 156.0
1432.995728 84.0
1434.306885 192.0
1438.146118 188.0
1439.648438 164.0
1440.22998 44.0
1440.773804 172.0
1441.053345 192.0
1441.302734 76.0
1441.363159 44.0
1446.150024 188.0
1446.997925 152.0
1448.224609 184.0
1448.716919 52.0
1449.807983 120.0
1452.96228 136.0
1458.589233 244.0
1459.706787 212.0
1460.657349 136.0
1463.183838 164.0
1463.899536 208.0
1464.067017 148.0
1465.110596 168.0
1466.87085 112.0
1467.557007 52.0
1469.036499 84.0
1470.02063 116.0
1470.196167 224.0
1471.234253 140.0
1473.120361 156.0
1473.723877 92.0
1474.121216 152.0
1475.825806 232.0
1476.169922 196.0
1477.125854 188.0
1479.444458 88.0
1479.842529 216.0
1480.041626 180.0
1482.255249 200.0
1483.006348 152.0
1484.49353 160.0
1487.20166 276.0
1488.275635 192.0
1488.598877 132.0
1490.465454 224.0
1490.934204 96.0
1493.302124 192.0
1494.379028 156.0
1498.343872 132.0
1499.831177 132.0
1504.057983 216.0
1504.783569 160.0
