>compound MLS001056797-01!CGP-20712A methanesulfonate salt
>formula C23H25F3N4O5
>ionization [M+H]+
>parentmass 495.18498101209053
#inchi InChI=1S/C23H25F3N4O5/c1-30-12-20(23(24,25)26)29-22(30)14-2-4-16(5-3-14)35-13-15(31)11-28-8-9-34-17-6-7-19(32)18(10-17)21(27)33/h2-7,10,12,15,28,31-32H,8-9,11,13H2,1H3,(H2,27,33)
#inchikey GKJZEKSHCJELPL
#origInchi InChI=1S/C23H25F3N4O5.CH4O3S/c1-30-12-20(23(24,25)26)29-22(30)14-2-4-16(5-3-14)35-13-15(31)11-28-8-9-34-17-6-7-19(32)18(10-17)21(27)33;1-5(2,3)4/h2-7,10,12,15,28,31-32H,8-9,11,13H2,1H3,(H2,27,33);1H3,(H,2,3,4)
#Ion_Source LC-ESI
#Instrument qTof
#Compound_Source NIH Pharmacologically Active Library
#PI Dorrestein
#Data_Collector VP/LMS
#Scan -1
#Precursor_MZ 495.188
#ExactMass 494.178
#Charge 1
#CAS_Number N/A
#Pubmed_ID N/A
#Smiles Cn1cc(nc1c2ccc(OCC(O)CNCCOc3ccc(O)c(c3)C(=O)N)cc2)C(F)(F)F.CS(=O)(=O)O
#INCHI_AUX N/A
#Library_Class 1
#SpectrumID CCMSLIB00000085136
#IonMode Positive
#UpdateWorkflowName UPDATE-SINGLE-ANNOTATED-GOLD
#LibraryQualityString Gold
#TaskID d252d724072548979f1f6f1ced849daf
##Scan# 1595
#SpectrumFile p3-F04_GF4_01_18285.mzXML
#LibraryName Pharm_Active_Library.mgf
#MQScore -1
#Organism Pharm_Active_Library
#TIC_Query 0
#RT_Query -1
#MZErrorPPM -1
#SharedPeaks 0
#MassDiff 0
#LibMZ -1
#SpecMZ 495.188
#SpecCharge 0
#internalFilename spec-00000.mgf

>collision 10
45.721344 224.0
45.825039 164.0
47.003429 220.0
48.332298 116.0
50.225521 152.0
50.621277 196.0
51.633186 184.0
52.183865 196.0
53.837368 224.0
54.748138 176.0
55.248547 184.0
56.41156 92.0
58.1287 228.0
58.351994 100.0
58.752563 76.0
60.634827 180.0
61.214325 100.0
61.264168 116.0
61.459068 136.0
62.524731 196.0
63.284061 124.0
63.950844 108.0
64.130836 144.0
64.489983 120.0
64.603523 152.0
64.762001 180.0
65.256294 200.0
66.256996 128.0
66.623665 176.0
67.123367 64.0
68.085663 132.0
68.365158 44.0
68.383263 176.0
69.043228 180.0
71.736725 188.0
72.116539 148.0
73.782547 80.0
74.193443 188.0
74.38559 48.0
74.777512 112.0
75.163551 212.0
75.237778 184.0
75.555786 120.0
76.358955 68.0
77.490181 176.0
78.210228 252.0
78.567963 124.0
79.950127 268.0
80.613556 196.0
81.299469 164.0
81.981079 124.0
82.296768 76.0
85.310417 148.0
86.84684 60.0
87.840179 216.0
89.604362 164.0
90.34446 172.0
90.376389 252.0
90.901527 72.0
90.956573 188.0
93.000992 188.0
95.384727 180.0
96.019295 192.0
96.611382 120.0
97.171715 140.0
97.436775 196.0
98.003441 132.0
98.238068 164.0
99.443169 40.0
99.886284 132.0
100.073669 656.0
100.819435 204.0
101.181496 80.0
101.977905 200.0
103.794922 112.0
104.103378 112.0
105.166176 152.0
105.437828 48.0
106.062111 80.0
107.050377 156.0
107.3162 124.0
107.815765 216.0
108.076332 140.0
108.256432 176.0
108.513382 172.0
109.032349 340.0
109.957092 128.0
110.145012 56.0
113.370613 176.0
114.000923 140.0
115.238991 172.0
117.204506 196.0
117.653137 168.0
119.049782 172.0
119.330101 172.0
119.652107 148.0
119.902618 84.0
121.025497 172.0
123.119041 176.0
123.82457 184.0
123.948631 200.0
124.729874 116.0
125.417709 160.0
126.105194 144.0
127.850136 128.0
129.364716 72.0
130.169632 172.0
131.958389 164.0
132.061295 288.0
132.386292 152.0
132.840134 136.0
132.973221 124.0
133.003052 236.0
133.044373 160.0
133.060455 164.0
133.658066 164.0
135.043564 224.0
136.047485 240.0
137.021988 3052.0
137.148331 148.0
137.171646 160.0
137.192627 192.0
137.379196 72.0
137.554214 120.0
138.026566 296.0
138.063599 248.0
138.517685 216.0
138.69342 192.0
138.819031 108.0
139.012405 52.0
140.730804 164.0
141.234192 52.0
141.897293 172.0
141.921005 116.0
142.428879 152.0
142.880569 176.0
143.523666 236.0
143.56897 204.0
143.664383 152.0
144.036804 92.0
144.328369 156.0
144.943893 148.0
145.504837 120.0
146.058334 424.0
146.124939 44.0
147.062378 156.0
147.16861 196.0
147.637421 204.0
147.739014 168.0
149.050735 160.0
150.456146 56.0
150.573364 168.0
150.614883 164.0
151.037918 188.0
151.174789 92.0
151.267792 188.0
152.069351 156.0
152.086533 44.0
152.21666 176.0
152.300156 92.0
154.05162 120.0
154.464462 88.0
154.967041 164.0
155.691391 44.0
156.089005 124.0
156.718781 64.0
157.924591 160.0
159.38118 216.0
160.284561 236.0
161.195541 124.0
162.073624 196.0
162.233292 208.0
163.037415 156.0
163.539001 108.0
164.040817 116.0
164.073593 84.0
164.975174 136.0
165.233475 216.0
166.027573 112.0
166.05835 244.0
167.304657 84.0
167.595703 88.0
167.786423 96.0
168.05983 172.0
168.81929 100.0
170.294006 128.0
170.94838 168.0
172.318161 160.0
172.922241 284.0
174.99614 84.0
175.059341 48.0
175.36496 188.0
176.140732 124.0
177.053268 96.0
178.010651 180.0
178.848145 156.0
179.058487 212.0
179.173035 168.0
179.602234 244.0
180.269714 172.0
180.80191 72.0
181.085709 156.0
182.039993 356.0
183.542068 96.0
183.938675 136.0
184.909058 164.0
185.757187 168.0
186.794907 256.0
188.063492 196.0
188.630157 272.0
188.928253 144.0
189.073273 120.0
189.659424 172.0
190.048859 144.0
190.076294 148.0
190.435944 116.0
190.823425 188.0
192.063324 1520.0
192.096451 324.0
192.156509 200.0
192.833084 52.0
193.064896 488.0
194.064987 172.0
194.214752 52.0
194.397873 188.0
194.433945 180.0
195.061691 128.0
196.98172 180.0
197.048767 116.0
199.062775 72.0
200.53418 60.0
201.067245 640.0
201.482346 160.0
201.753662 104.0
203.061188 124.0
204.072906 164.0
205.06073 100.0
205.62262 80.0
206.079529 116.0
206.23671 124.0
206.385376 112.0
206.654251 156.0
207.063614 176.0
207.533585 112.0
207.688461 76.0
207.826172 176.0
208.259674 128.0
208.615997 64.0
208.811523 188.0
209.04744 156.0
209.963577 80.0
210.0728 556.0
210.725677 152.0
211.08989 152.0
211.408112 176.0
212.013382 260.0
212.819839 120.0
213.062149 384.0
214.073029 280.0
214.994385 128.0
215.077606 192.0
217.323746 132.0
218.081589 512.0
219.023026 76.0
219.085876 176.0
219.161499 60.0
219.715805 84.0
220.471725 120.0
220.607697 248.0
221.078003 124.0
221.151993 152.0
222.031967 96.0
222.916672 144.0
223.066315 2260.0
223.097229 196.0
223.219879 76.0
223.255569 52.0
223.538193 36.0
223.841827 200.0
224.072144 492.0
224.247009 56.0
224.282776 260.0
224.393082 40.0
224.43985 44.0
224.542175 168.0
225.068588 152.0
225.133118 64.0
225.437836 60.0
226.053879 124.0
226.09877 168.0
227.073547 304.0
227.949142 120.0
228.743179 144.0
229.912674 124.0
230.640579 160.0
232.351608 124.0
232.752258 176.0
233.063766 212.0
233.363022 196.0
234.824768 248.0
235.063354 276.0
235.108505 148.0
235.814026 60.0
236.090546 1280.0
236.777802 244.0
236.955475 52.0
237.088516 292.0
237.906235 144.0
238.099686 164.0
238.176468 72.0
238.720474 192.0
239.955246 76.0
240.057007 152.0
240.109436 168.0
240.918182 256.0
241.05722 132.0
241.100479 164.0
241.227219 264.0
241.641632 44.0
241.753036 304.0
242.062622 1032.0
242.112152 196.0
242.548645 160.0
242.592438 160.0
242.651337 84.0
242.688553 192.0
242.751465 192.0
242.803284 168.0
242.916748 172.0
242.970795 168.0
243.072311 17116.0
243.123779 172.0
243.154205 232.0
243.189087 92.0
243.315292 60.0
243.569946 32.0
243.5979 60.0
243.63208 44.0
243.908661 136.0
243.933533 96.0
244.073441 1356.0
244.294266 72.0
244.365814 60.0
244.390717 56.0
244.449844 96.0
244.477844 40.0
244.533875 68.0
244.697067 160.0
244.93866 76.0
245.080551 424.0
245.446671 140.0
245.512161 52.0
245.539032 52.0
245.604111 92.0
245.736755 60.0
245.901382 128.0
245.998917 104.0
246.158157 68.0
246.329941 128.0
246.604919 212.0
246.881927 72.0
246.979126 160.0
247.036453 88.0
247.396347 100.0
248.210983 44.0
249.089783 156.0
249.146332 172.0
249.68071 124.0
251.063293 108.0
251.596558 64.0
253.076263 144.0
253.12059 104.0
254.976471 104.0
255.076141 740.0
255.129059 40.0
255.370728 88.0
256.039124 52.0
256.077332 156.0
256.223877 84.0
256.252533 104.0
256.536194 120.0
257.39447 132.0
258.065491 232.0
259.064056 176.0
259.711609 148.0
259.855957 240.0
261.079132 504.0
261.475555 84.0
262.077759 176.0
262.206665 128.0
264.10199 176.0
264.954071 240.0
265.077637 368.0
267.06839 116.0
267.56134 128.0
268.014069 108.0
268.093292 172.0
268.649872 116.0
268.822784 132.0
269.087769 1184.0
269.642548 84.0
269.877899 44.0
270.09256 496.0
270.146088 32.0
270.646851 132.0
271.102203 132.0
271.882721 160.0
273.012878 132.0
276.093201 96.0
276.463745 192.0
276.629242 228.0
276.861023 108.0
277.073029 180.0
279.976227 76.0
280.47934 152.0
281.006287 120.0
281.089813 844.0
281.146423 160.0
281.416809 48.0
281.673981 124.0
282.086639 300.0
283.097137 264.0
284.691803 124.0
284.987396 148.0
285.08371 2280.0
285.377319 84.0
286.086823 364.0
286.127625 40.0
286.29599 116.0
287.090118 196.0
287.226257 60.0
288.060455 168.0
288.922119 136.0
289.812592 36.0
290.07016 160.0
291.050659 136.0
291.084625 208.0
291.893402 164.0
292.509216 140.0
293.084808 140.0
296.070526 224.0
297.775085 164.0
298.12207 172.0
299.094269 264.0
299.143646 180.0
299.956635 48.0
304.128357 184.0
306.107819 128.0
308.063324 112.0
309.802032 160.0
309.830048 144.0
310.071838 144.0
311.011841 160.0
311.067535 148.0
311.124176 136.0
312.086884 184.0
314.09787 44.0
314.842621 128.0
314.87793 140.0
315.188812 96.0
316.122406 116.0
317.95108 64.0
318.125275 168.0
319.720978 156.0
319.984406 180.0
320.671936 52.0
321.192535 48.0
323.135986 140.0
323.75885 152.0
324.128601 328.0
324.647614 156.0
325.135559 92.0
327.22049 88.0
328.052704 28.0
329.088165 192.0
330.079498 412.0
331.081635 148.0
331.138641 80.0
334.297211 48.0
336.944489 156.0
338.081696 144.0
339.11087 156.0
339.84433 172.0
340.136078 248.0
341.247406 192.0
342.089935 112.0
342.138916 700.0
342.233521 148.0
342.26297 60.0
343.073547 136.0
343.149475 320.0
344.101379 136.0
344.148956 172.0
344.328156 152.0
345.385254 88.0
345.821899 252.0
346.666321 112.0
348.406555 152.0
349.083069 172.0
353.623474 172.0
353.874298 132.0
355.591248 120.0
356.096649 132.0
357.071564 80.0
358.071625 488.0
358.132996 136.0
358.724609 40.0
359.011749 256.0
359.080688 2356.0
359.366547 96.0
360.086151 524.0
361.046783 188.0
361.082397 236.0
361.160248 80.0
361.239685 40.0
361.856567 60.0
361.936096 76.0
361.985321 40.0
362.095154 116.0
362.959198 152.0
363.046417 48.0
364.090088 148.0
365.104828 136.0
366.124786 204.0
370.112183 140.0
371.080048 148.0
372.086273 248.0
373.09671 176.0
374.089264 160.0
374.16626 100.0
377.662567 180.0
379.219116 140.0
380.914825 172.0
382.116119 140.0
382.945312 140.0
383.069946 300.0
386.509674 40.0
387.085114 124.0
388.586365 144.0
389.269379 164.0
392.145325 100.0
394.094818 164.0
398.083801 136.0
398.113831 192.0
398.385681 72.0
398.834717 84.0
400.10376 76.0
401.094574 1976.0
401.142365 216.0
402.093475 680.0
402.559967 92.0
403.09845 116.0
404.523163 176.0
406.234344 48.0
410.116913 124.0
411.821625 80.0
411.946838 168.0
412.117493 164.0
412.844177 60.0
414.119141 384.0
415.148499 160.0
417.167847 136.0
418.149475 276.0
419.135864 144.0
420.282257 44.0
422.13681 28.0
424.307007 40.0
425.578949 144.0
426.885681 104.0
427.058411 68.0
430.355316 100.0
435.177582 260.0
436.176178 184.0
437.345062 80.0
437.853027 68.0
438.145355 200.0
438.232117 120.0
439.716705 88.0
440.138367 3916.0
440.301208 164.0
440.485016 60.0
440.576904 72.0
440.706421 124.0
440.848511 56.0
440.965515 192.0
441.141449 1432.0
441.463043 48.0
441.509064 56.0
441.655426 60.0
441.998505 72.0
442.144165 132.0
442.304016 76.0
443.082977 144.0
443.736786 36.0
443.866791 96.0
443.967438 52.0
443.996796 44.0
444.055511 96.0
444.206512 48.0
445.05011 64.0
445.117279 80.0
445.516296 36.0
449.575439 56.0
450.15802 84.0
451.396179 148.0
452.174622 188.0
452.293152 136.0
454.704926 88.0
455.157959 144.0
455.186951 140.0
456.127869 52.0
456.178986 160.0
458.148102 2060.0
459.163971 580.0
459.236298 48.0
459.816559 148.0
459.927551 76.0
460.024384 128.0
460.072693 76.0
460.146729 3992.0
460.597931 60.0
460.803009 36.0
460.918365 132.0
461.146637 1048.0
461.25174 100.0
461.897461 56.0
462.148132 296.0
462.17981 252.0
463.143097 132.0
463.241608 60.0
463.721558 164.0
463.973694 104.0
464.218872 52.0
464.85376 76.0
467.651642 64.0
468.478424 96.0
470.337036 184.0
472.130127 56.0
473.147034 144.0
474.758942 52.0
475.188416 152.0
477.172729 148.0
477.408112 92.0
478.154785 1780.0
478.474213 52.0
478.530792 88.0
479.161255 616.0
479.990509 96.0
480.175446 164.0
480.260925 48.0
482.256378 36.0
488.879089 84.0
490.513184 76.0
492.269226 204.0
495.180969 616.0
495.24231 192.0
496.184845 284.0
499.253571 104.0
500.192413 120.0
509.467407 76.0
527.44989 88.0
527.733337 76.0
543.807007 84.0
555.547791 60.0
571.888916 76.0
574.667236 76.0
580.431152 84.0
618.199219 52.0
622.755554 52.0
623.769287 140.0
630.01355 100.0
632.033508 84.0
643.302002 76.0
646.192871 96.0
653.931824 48.0
667.546021 76.0
682.922363 44.0
703.928833 68.0
708.281677 56.0
708.382324 84.0
710.110352 112.0
730.435303 68.0
766.177551 80.0
819.735291 148.0
891.975403 116.0
924.279785 96.0
933.944458 92.0
937.347778 84.0
987.770264 116.0
995.912964 56.0
1021.57196 40.0
1082.731689 232.0
1173.519043 52.0
1198.090454 104.0
1198.676147 220.0
1207.236328 192.0
1226.266724 164.0
1236.149048 164.0
1236.197998 64.0
1257.712158 128.0
1287.405273 40.0
1296.053955 196.0
1304.839478 168.0
1330.052612 244.0
1336.586426 188.0
1366.27124 128.0
1369.804932 148.0
1408.080566 64.0
1421.136353 116.0
1426.280762 92.0
1426.528931 56.0
1464.661621 148.0
1472.15918 36.0
1478.627075 136.0
1485.661499 100.0
