>compound MLS001142765-01!
>formula C20H23N3O2
>ionization [M+H]+
>parentmass 338.187347
#inchi InChI=1S/C20H23N3O2/c1-2-15-6-3-4-7-17(15)21-20(25)22-11-14-10-16(13-22)18-8-5-9-19(24)23(18)12-14/h3-9,14,16H,2,10-13H2,1H3,(H,21,25)/t14-,16+/m1/s1
#inchikey ZWULOVMIJRITDI
#Ion_Source LC-ESI
#Instrument qTof
#Compound_Source NIH Natural Product Library
#PI Dorrestein
#Data_Collector VVP/LMS
#Scan -1
#Precursor_MZ 338.187
#ExactMass 337.179
#Charge 1
#CAS_Number N/A
#Pubmed_ID N/A
#Smiles CCc1ccccc1NC(=O)N2C[C@H]3C[C@@H](C2)c4cccc(=O)n4C3
#INCHI_AUX N/A
#Library_Class 1
#SpectrumID CCMSLIB00000080134
#IonMode Positive
#UpdateWorkflowName UPDATE-SINGLE-ANNOTATED-GOLD
#LibraryQualityString Gold
#TaskID b1d8e8f6646f4e71acdff9ca3d919d08
##Scan# 1600
#SpectrumFile p2-E04_GE4_01_18028.mzXML
#LibraryName NIH_Natural_Products_Library.mgf
#MQScore -1
#Organism NIH_Natural_Products_Library
#TIC_Query 0
#RT_Query -1
#MZErrorPPM -1
#SharedPeaks 0
#MassDiff 0
#LibMZ -1
#SpecMZ 338.187
#SpecCharge 0
#internalFilename spec-00000.mgf

>collision 10
94.985588 188.0
94.999168 224.0
95.024384 136.0
95.171898 76.0
95.24958 124.0
95.330727 172.0
95.352554 120.0
95.430496 168.0
95.476982 196.0
95.52755 192.0
95.57814 160.0
95.620949 124.0
95.650146 116.0
95.735809 116.0
95.763077 148.0
95.790344 236.0
95.805931 192.0
95.89521 176.0
95.924805 176.0
96.006691 236.0
96.044472 772.0
96.084663 144.0
96.104225 184.0
96.135445 196.0
96.282631 112.0
96.315063 112.0
96.330696 136.0
96.469437 168.0
96.485077 140.0
96.526138 52.0
96.584808 220.0
96.724495 132.0
96.796173 144.0
97.039139 212.0
97.086205 204.0
97.233337 160.0
97.372734 92.0
97.474884 116.0
97.584961 140.0
97.626251 208.0
97.714767 180.0
97.828911 124.0
97.850571 140.0
97.909637 76.0
97.93206 156.0
97.936424 60.0
97.944473 192.0
98.033752 180.0
98.083023 140.0
98.096825 152.0
98.221054 144.0
98.311806 100.0
98.347336 136.0
98.361153 124.0
98.384842 180.0
98.404579 36.0
98.436172 196.0
98.515984 220.0
98.576424 208.0
98.754021 164.0
98.794334 172.0
98.825569 144.0
98.861191 212.0
98.928482 68.0
98.972038 132.0
99.041359 176.0
99.120598 168.0
99.328773 116.0
99.427979 104.0
99.447823 132.0
99.461716 128.0
99.686142 60.0
99.709991 100.0
99.731308 188.0
99.757698 168.0
99.833252 132.0
99.880981 192.0
99.918777 192.0
99.970512 128.0
100.114464 116.0
100.171608 96.0
100.189537 152.0
100.207466 156.0
100.354958 104.0
100.372902 136.0
100.41478 100.0
100.438713 164.0
100.489792 152.0
100.510536 208.0
100.526497 152.0
100.598351 168.0
100.69619 208.0
100.786087 172.0
100.840942 172.0
100.876518 192.0
101.001999 176.0
101.042007 136.0
101.078018 128.0
101.254189 168.0
101.340324 176.0
101.362366 148.0
101.406326 128.0
101.436516 208.0
101.470596 176.0
101.498672 192.0
101.568863 204.0
101.641487 80.0
101.71534 124.0
101.74144 184.0
101.831802 256.0
101.880013 96.0
101.930237 40.0
101.952347 156.0
101.976463 136.0
102.002594 44.0
102.024704 164.0
102.040787 196.0
102.05687 172.0
102.133293 124.0
102.149384 176.0
102.185593 140.0
102.221817 200.0
102.288231 224.0
102.326477 164.0
102.384872 144.0
102.437241 160.0
102.461418 108.0
102.489624 204.0
102.517838 160.0
102.540001 148.0
102.590393 160.0
102.648865 124.0
102.689201 128.0
102.733574 164.0
102.758842 176.0
102.800156 112.0
102.848373 180.0
102.949547 164.0
103.032356 156.0
103.053841 924.0
103.119247 196.0
103.147545 188.0
103.175842 164.0
103.189995 164.0
103.206169 128.0
103.266838 256.0
103.378113 164.0
103.416565 136.0
103.448952 128.0
103.586655 188.0
103.608932 120.0
103.659592 204.0
103.685936 108.0
103.825821 124.0
103.8461 68.0
103.980583 184.0
104.004364 160.0
104.01857 144.0
104.050446 1236.0
104.078697 128.0
104.101814 212.0
104.209473 216.0
104.246902 256.0
104.296852 80.0
104.359879 124.0
104.483711 176.0
104.500214 196.0
104.575508 120.0
104.624359 204.0
104.656937 200.0
104.767899 216.0
104.838234 36.0
104.923843 40.0
104.960602 136.0
104.995209 136.0
105.034294 172.0
105.065475 604.0
105.131889 60.0
105.149864 228.0
105.197205 92.0
105.225784 132.0
105.268669 120.0
105.334023 132.0
105.505676 168.0
105.659065 60.0
105.734772 144.0
105.765533 132.0
105.783897 176.0
105.900612 168.0
105.99485 216.0
106.023895 184.0
106.065689 1840.0
106.115776 212.0
106.148582 152.0
106.183449 184.0
106.201904 76.0
106.359901 156.0
106.400955 152.0
106.429565 120.0
106.594032 200.0
106.647461 96.0
106.690628 128.0
106.764648 192.0
106.807022 224.0
106.832527 188.0
106.8675 196.0
106.883965 160.0
106.903465 188.0
106.955994 168.0
106.999222 228.0
107.041885 256.0
107.070366 132.0
107.085709 184.0
107.166451 164.0
107.226334 220.0
107.302078 112.0
107.385338 172.0
107.429939 36.0
107.473267 236.0
107.495964 160.0
107.526924 204.0
107.599167 72.0
107.615685 128.0
107.654922 172.0
107.708618 44.0
107.82019 180.0
107.867729 144.0
107.919411 132.0
107.966972 148.0
108.006271 192.0
108.02282 188.0
108.044281 1124.0
108.168907 184.0
108.18837 92.0
108.343689 72.0
108.453514 132.0
108.577911 152.0
108.609314 232.0
108.742851 152.0
108.889221 152.0
108.954063 168.0
108.977539 68.0
109.032578 228.0
109.052208 2420.0
109.117805 64.0
109.205139 108.0
109.252983 176.0
109.321648 148.0
109.336212 128.0
109.412521 224.0
109.481056 196.0
109.538177 236.0
109.580353 164.0
109.673615 200.0
109.746582 180.0
109.779945 200.0
109.906807 108.0
109.930145 116.0
109.96212 248.0
109.996933 156.0
110.060211 848.0
110.095062 132.0
110.122215 208.0
110.159813 196.0
110.182793 164.0
110.239204 140.0
110.281006 216.0
110.331635 108.0
110.349991 168.0
110.421089 44.0
110.533028 284.0
110.588463 112.0
110.68058 92.0
110.751778 120.0
110.812531 164.0
110.83139 160.0
110.955048 352.0
111.032631 68.0
111.14801 216.0
111.217262 256.0
111.251366 212.0
111.278145 164.0
111.294937 132.0
111.324341 128.0
111.399948 144.0
111.450371 152.0
111.480881 192.0
111.661842 224.0
111.681618 48.0
111.736237 104.0
111.788918 188.0
111.82048 160.0
111.843636 124.0
111.883629 104.0
111.929955 152.0
112.003662 224.0
112.033157 196.0
112.047905 172.0
112.205971 180.0
112.317734 100.0
112.385246 148.0
112.43589 148.0
112.484436 116.0
112.551994 80.0
112.585777 268.0
112.771698 188.0
112.816994 140.0
112.83934 216.0
112.893616 168.0
112.909119 80.0
112.959885 44.0
112.985268 144.0
113.076256 128.0
113.112373 132.0
113.177872 120.0
113.194809 212.0
113.218102 132.0
113.247757 192.0
113.336212 200.0
113.366394 184.0
113.421501 128.0
113.457542 180.0
113.56144 124.0
113.633568 244.0
113.740349 188.0
113.775764 80.0
113.796989 140.0
113.911674 80.0
114.003036 124.0
114.029327 224.0
114.04554 160.0
114.102936 256.0
114.117821 36.0
114.15184 132.0
114.223328 144.0
114.253937 60.0
114.315155 160.0
114.383743 164.0
114.417801 56.0
114.64785 172.0
114.704628 156.0
114.749046 176.0
114.799202 184.0
114.858925 152.0
114.989075 52.0
115.055214 800.0
115.110764 60.0
115.140656 240.0
115.159882 208.0
115.185509 80.0
115.226105 144.0
115.260284 208.0
115.29068 144.0
115.317986 32.0
115.332947 72.0
115.48262 180.0
115.556389 148.0
115.714493 208.0
115.897926 140.0
116.048592 512.0
116.10157 192.0
116.189514 80.0
116.223846 68.0
116.337593 172.0
116.361206 192.0
116.44239 104.0
116.498657 196.0
116.535179 140.0
116.614685 168.0
116.722176 236.0
116.806053 68.0
116.827568 136.0
116.864136 100.0
116.942444 228.0
117.017105 168.0
117.057343 4248.0
117.113861 120.0
117.236664 144.0
117.271141 192.0
117.316414 96.0
117.336235 196.0
117.363335 136.0
117.426384 52.0
117.534241 132.0
117.618408 68.0
117.73716 236.0
117.916473 36.0
117.933769 120.0
117.951874 172.0
117.987808 40.0
118.064827 2764.0
118.106445 164.0
118.147842 156.0
118.173805 144.0
118.227905 52.0
118.32531 64.0
118.366447 192.0
118.381607 176.0
118.411926 204.0
118.455246 116.0
118.520241 128.0
118.596092 184.0
118.658951 180.0
118.821617 88.0
118.853615 224.0
119.00827 172.0
119.04763 188.0
119.071419 352.0
119.125542 160.0
119.222229 132.0
119.251572 148.0
119.347221 204.0
119.421158 52.0
119.46579 124.0
119.508179 136.0
119.534706 188.0
119.577812 200.0
119.599579 172.0
119.62352 52.0
119.673592 36.0
119.706261 164.0
119.850021 124.0
119.876167 140.0
119.98951 196.0
120.039467 164.0
120.047165 136.0
120.055832 232.0
120.081245 3028.0
120.107269 128.0
120.124718 144.0
120.149979 208.0
120.310211 180.0
120.336411 128.0
120.353874 48.0
120.399734 136.0
120.538483 148.0
120.567574 208.0
120.598549 60.0
120.69474 32.0
120.7341 148.0
120.766907 164.0
120.795349 188.0
120.856606 156.0
120.906433 192.0
120.931007 164.0
120.968216 184.0
121.02494 176.0
121.053505 168.0
121.086037 504.0
121.125885 68.0
121.152168 120.0
121.178459 88.0
121.340645 224.0
121.402039 124.0
121.419586 176.0
121.559982 164.0
121.704857 56.0
121.771126 228.0
121.876183 160.0
121.939911 188.0
121.979477 204.0
122.060631 1432.0
122.203789 48.0
122.225792 132.0
122.296219 84.0
122.320435 204.0
122.359612 216.0
122.432724 168.0
122.502213 112.0
122.551674 104.0
122.66407 48.0
122.71698 300.0
122.743439 188.0
122.884598 152.0
122.904457 116.0
122.930695 184.0
122.989105 144.0
123.010391 220.0
123.028053 140.0
123.066193 276.0
123.125206 116.0
123.145081 132.0
123.187416 196.0
123.206932 120.0
123.230019 168.0
123.296844 144.0
123.394791 132.0
123.483238 140.0
123.600487 192.0
123.769043 160.0
123.804146 176.0
123.819649 176.0
123.846657 196.0
123.908249 184.0
123.93927 224.0
123.963646 204.0
123.994026 180.0
124.227486 116.0
124.291824 244.0
124.37394 292.0
124.457214 188.0
124.502708 176.0
124.518257 144.0
124.533806 220.0
124.576012 176.0
124.611557 152.0
124.658218 136.0
124.729668 188.0
124.76268 144.0
124.780418 180.0
124.81604 48.0
125.027885 156.0
125.07856 132.0
125.098595 84.0
125.297653 156.0
125.461502 212.0
125.544212 180.0
125.673592 196.0
125.804588 136.0
125.836525 180.0
125.856621 172.0
125.937012 40.0
126.062935 164.0
126.155998 144.0
126.261086 204.0
126.319199 196.0
126.395309 188.0
126.433571 124.0
126.464638 180.0
126.565422 112.0
126.616928 96.0
126.693085 192.0
126.726692 76.0
126.84771 100.0
126.905998 144.0
126.959755 152.0
127.036079 232.0
127.055199 140.0
127.080948 144.0
127.112358 192.0
127.148262 76.0
127.170708 172.0
127.188667 72.0
127.350327 188.0
127.386269 84.0
127.440186 224.0
127.523331 56.0
127.593018 92.0
127.61216 148.0
127.633492 156.0
127.651375 180.0
127.786438 204.0
127.813438 120.0
127.889954 160.0
127.919212 52.0
127.948479 152.0
128.002518 180.0
128.050125 944.0
128.181976 132.0
128.254837 184.0
128.284149 52.0
128.317383 156.0
128.32547 232.0
128.363052 64.0
128.426208 172.0
128.460037 100.0
128.519592 176.0
128.568344 152.0
128.627029 180.0
128.704041 144.0
128.767014 144.0
128.873184 120.0
128.947754 144.0
129.069977 1988.0
129.101486 120.0
129.164825 180.0
129.223633 120.0
129.271149 236.0
129.309631 192.0
129.394455 152.0
129.447723 72.0
129.570572 168.0
129.599487 144.0
129.644806 56.0
129.72641 188.0
129.860184 112.0
129.939575 200.0
130.003113 128.0
130.039215 196.0
130.065323 6456.0
130.143845 160.0
130.218201 156.0
130.25058 164.0
130.318741 44.0
130.355103 180.0
130.371933 264.0
130.45282 184.0
130.475555 168.0
130.577881 56.0
130.600388 116.0
130.662048 88.0
130.768997 160.0
130.895416 212.0
130.901566 276.0
130.973923 172.0
131.047043 252.0
131.071732 3376.0
131.319672 116.0
131.420746 216.0
131.506454 184.0
131.530289 228.0
131.566818 96.0
131.594208 244.0
131.668396 180.0
131.694641 176.0
131.854614 76.0
131.898926 176.0
131.920563 216.0
131.984924 176.0
132.003555 136.0
132.044495 7748.0
132.080902 4372.0
132.10675 188.0
132.15094 48.0
132.179352 100.0
132.2686 68.0
132.300659 140.0
132.340027 184.0
132.463242 148.0
132.529678 48.0
132.586975 40.0
132.619064 144.0
132.635101 168.0
132.726807 196.0
132.965378 168.0
132.997513 156.0
133.01358 188.0
133.052582 13976.0
133.08786 504.0
133.121872 48.0
133.146744 60.0
133.178909 72.0
133.257004 52.0
133.284576 116.0
133.304276 148.0
133.365906 124.0
133.401794 116.0
133.467606 84.0
133.525955 256.0
133.546814 116.0
133.569656 156.0
133.588058 68.0
133.604172 64.0
133.680099 84.0
133.712311 96.0
133.790573 144.0
133.86319 208.0
133.909622 148.0
133.952438 180.0
133.975647 164.0
134.059662 5928.0
134.095688 244.0
134.123734 64.0
134.184525 108.0
134.24678 44.0
134.273346 132.0
134.306747 172.0
134.385193 60.0
134.449799 68.0
134.652954 132.0
134.793884 52.0
134.817429 84.0
134.842407 140.0
134.888565 140.0
134.958847 140.0
134.992676 184.0
135.011185 216.0
135.066299 1404.0
135.113876 160.0
135.139969 112.0
135.219391 100.0
135.242538 92.0
135.305038 112.0
135.321243 148.0
135.390717 100.0
135.417984 148.0
135.448624 112.0
135.482346 100.0
135.50885 164.0
135.596909 156.0
135.643265 84.0
135.684998 164.0
135.710495 140.0
135.763824 40.0
135.787018 164.0
135.803253 120.0
135.865891 124.0
135.909973 224.0
135.944778 144.0
135.967987 160.0
135.998154 100.0
136.040894 176.0
136.064957 168.0
136.071518 132.0
136.100296 132.0
136.146744 160.0
136.207123 164.0
136.293091 184.0
136.371918 100.0
136.414719 184.0
136.462769 32.0
136.48233 144.0
136.499969 176.0
136.560425 152.0
136.616257 136.0
136.741913 160.0
136.801758 160.0
136.879257 188.0
136.98349 184.0
137.063797 148.0
137.157639 188.0
137.281525 216.0
137.35936 108.0
137.476013 80.0
137.525024 196.0
137.562378 156.0
137.648758 140.0
137.742859 136.0
137.781891 196.0
137.814606 236.0
137.88237 140.0
137.959503 92.0
138.15126 224.0
138.181686 184.0
138.30571 56.0
138.387131 128.0
138.402573 160.0
138.483658 164.0
138.514099 192.0
138.624222 160.0
138.710938 160.0
138.806305 184.0
138.861008 172.0
138.898529 228.0
138.931366 144.0
138.961868 240.0
139.048691 88.0
139.097977 132.0
139.12616 136.0
139.295227 196.0
139.328125 156.0
139.351608 168.0
139.393906 40.0
139.581955 84.0
139.763519 64.0
139.965515 176.0
139.981995 172.0
140.052505 188.0
140.095047 136.0
140.177505 136.0
140.196365 116.0
140.21286 64.0
140.328369 112.0
140.368454 44.0
140.402908 104.0
140.422684 216.0
140.441559 160.0
140.460434 116.0
140.493454 80.0
140.519409 160.0
140.701126 212.0
140.736542 168.0
140.753067 56.0
140.786133 72.0
140.807388 116.0
140.864075 152.0
140.892426 60.0
141.027115 184.0
141.059235 792.0
141.185516 188.0
141.211533 96.0
141.237549 156.0
141.268311 212.0
141.329819 80.0
141.367676 164.0
141.386612 116.0
141.423752 156.0
141.457611 132.0
141.483658 156.0
141.524963 164.0
141.789215 148.0
141.860321 132.0
141.951752 236.0
142.02626 180.0
142.065598 4296.0
142.116455 128.0
142.135437 92.0
142.167023 116.0
142.268356 32.0
142.467834 152.0
142.600906 172.0
142.641312 124.0
142.70787 228.0
142.769699 112.0
142.802994 160.0
142.836288 148.0
142.876236 172.0
142.929077 136.0
142.971909 180.0
143.044144 196.0
143.072815 1120.0
143.11235 172.0
143.180145 240.0
143.310043 128.0
143.326721 240.0
143.364853 76.0
143.518692 120.0
143.534103 216.0
143.593719 44.0
143.689224 112.0
143.763107 36.0
143.930206 204.0
144.013794 196.0
144.045898 416.0
144.080566 2864.0
144.145187 128.0
144.187347 300.0
144.209702 108.0
144.252731 64.0
144.405762 196.0
144.468185 208.0
144.494278 36.0
144.54213 168.0
144.664185 160.0
144.700104 156.0
144.718781 164.0
144.728027 132.0
144.800674 196.0
144.819824 68.0
144.856873 120.0
144.87178 180.0
144.896484 48.0
144.925232 172.0
144.946808 172.0
144.994736 156.0
145.051895 2128.0
145.086746 572.0
145.176926 160.0
145.253677 168.0
145.301651 140.0
145.328049 224.0
145.378433 92.0
145.428513 152.0
145.464844 188.0
145.48645 212.0
145.517944 164.0
145.565674 176.0
145.606506 176.0
145.653595 192.0
145.684875 248.0
145.706268 172.0
145.716904 92.0
145.736465 240.0
145.767807 116.0
145.830688 168.0
145.856384 144.0
145.886429 156.0
145.911682 164.0
145.97493 200.0
146.002029 228.0
146.023834 124.0
146.060425 40724.0
146.097275 3672.0
146.143936 140.0
146.163239 184.0
146.219391 156.0
146.245117 184.0
146.277344 40.0
146.315857 92.0
146.3582 136.0
146.376053 148.0
146.43866 104.0
146.457428 76.0
146.483383 176.0
146.51857 164.0
146.563629 64.0
146.636993 228.0
146.672379 168.0
146.694077 52.0
146.784378 176.0
146.821869 64.0
146.837814 52.0
146.843567 32.0
146.870102 84.0
146.925583 176.0
147.002426 80.0
147.064346 3956.0
147.101669 592.0
147.191086 52.0
147.289291 192.0
147.328751 44.0
147.430237 120.0
147.447144 48.0
147.502731 212.0
147.522079 88.0
147.541061 80.0
147.579636 148.0
147.611526 164.0
147.650925 168.0
147.687775 136.0
147.709335 200.0
147.734085 304.0
147.831665 128.0
147.867783 204.0
147.876907 104.0
147.883179 256.0
147.929321 232.0
147.947845 152.0
147.969635 200.0
148.036758 180.0
148.076187 32640.0
148.182678 156.0
148.208969 64.0
148.249115 104.0
148.285492 204.0
148.303925 124.0
148.362106 32.0
148.399384 96.0
148.437881 108.0
148.466766 256.0
148.48819 120.0
148.562286 248.0
148.594925 68.0
148.627609 144.0
148.656097 208.0
148.682281 64.0
148.713837 108.0
148.77594 96.0
148.81337 156.0
148.878922 84.0
148.954224 44.0
148.985794 108.0
149.015732 112.0
149.031952 180.0
149.079193 2624.0
149.16806 84.0
149.206955 148.0
149.272598 88.0
149.306335 168.0
149.3228 156.0
149.343582 212.0
149.369888 184.0
149.420975 152.0
149.4599 132.0
149.531372 204.0
149.541489 76.0
149.548843 168.0
149.591324 160.0
149.696014 168.0
149.771515 128.0
149.830704 120.0
149.848099 64.0
149.886017 76.0
149.981064 124.0
150.049484 116.0
150.080734 596.0
150.117584 164.0
150.144409 156.0
150.222473 200.0
150.311707 244.0
150.670593 148.0
150.755829 188.0
150.83136 180.0
150.872055 152.0
150.908722 72.0
151.096512 180.0
151.180237 64.0
151.216949 168.0
151.442337 216.0
151.557343 156.0
151.726456 156.0
151.80246 164.0
152.052689 160.0
152.21199 144.0
152.276108 200.0
152.312958 136.0
152.335068 180.0
152.401398 140.0
152.418594 156.0
152.450546 116.0
152.566071 128.0
152.693924 140.0
152.757874 172.0
152.949814 136.0
152.999039 108.0
153.040894 72.0
153.114777 144.0
153.341431 124.0
153.464691 196.0
153.491806 160.0
153.721222 136.0
153.800201 108.0
153.970551 88.0
154.064362 984.0
154.212677 188.0
154.274475 44.0
154.299194 160.0
154.38327 48.0
154.401993 84.0
154.449387 196.0
154.553955 60.0
154.712341 156.0
154.806427 160.0
154.907974 120.0
154.957535 76.0
155.071548 1500.0
155.109818 124.0
155.232666 128.0
155.256943 152.0
155.374039 60.0
155.443512 88.0
155.570099 68.0
155.609818 132.0
155.644577 192.0
155.68927 112.0
155.766266 160.0
155.801041 52.0
155.942688 60.0
155.974991 128.0
156.080612 3480.0
156.207169 164.0
156.280884 116.0
156.328171 172.0
156.390381 168.0
156.430206 92.0
156.672989 180.0
156.691696 164.0
156.709137 72.0
156.891068 36.0
157.057388 324.0
157.082214 860.0
157.203583 136.0
157.262741 132.0
157.352615 132.0
157.382568 160.0
157.407547 148.0
157.453537 156.0
157.524933 188.0
157.624573 140.0
157.689835 184.0
157.744827 36.0
157.769821 164.0
157.792328 88.0
157.959885 188.0
158.000565 228.0
158.016083 112.0
158.060928 9380.0
158.130707 192.0
158.15242 244.0
158.227646 76.0
158.320297 144.0
158.33783 156.0
158.458069 28.0
158.505661 200.0
158.523209 60.0
158.575836 72.0
158.661728 156.0
158.756348 56.0
158.78894 100.0
158.816742 148.0
158.905563 156.0
158.927795 172.0
158.962051 168.0
158.992157 180.0
159.067703 6708.0
159.152817 72.0
159.181519 324.0
159.238937 204.0
159.273361 100.0
159.381393 68.0
159.401489 56.0
159.446732 120.0
159.469345 124.0
159.511703 164.0
159.582474 144.0
159.642822 120.0
159.677032 252.0
159.721176 100.0
159.762894 140.0
159.783676 152.0
159.803802 240.0
159.869217 196.0
159.887772 116.0
159.910019 132.0
159.956299 188.0
159.991516 328.0
160.01329 424.0
160.076599 75276.0
160.164444 140.0
160.19342 168.0
160.225967 76.0
160.269684 204.0
160.312134 68.0
160.332382 88.0
160.358719 128.0
160.395004 236.0
160.422501 72.0
160.490845 336.0
160.521667 60.0
160.559494 64.0
160.587234 168.0
160.634598 72.0
160.665283 68.0
160.699997 80.0
160.710129 56.0
160.738602 80.0
160.829453 52.0
160.874893 44.0
160.927444 192.0
160.960373 84.0
161.035339 144.0
161.080322 14040.0
161.132492 148.0
161.165329 52.0
161.195648 176.0
161.223175 72.0
161.321976 304.0
161.342255 144.0
161.380173 32.0
161.456039 204.0
161.545105 56.0
161.58757 44.0
161.612869 44.0
161.6483 44.0
161.69281 196.0
161.73941 80.0
161.769775 76.0
161.860931 48.0
161.887299 136.0
161.929306 68.0
161.982498 200.0
162.089066 2576.0
162.145065 224.0
162.169998 168.0
162.205154 216.0
162.233368 132.0
162.273926 132.0
162.31488 132.0
162.324234 100.0
162.341736 116.0
162.367859 184.0
162.393112 96.0
162.428619 108.0
162.451462 56.0
162.713913 48.0
162.83728 88.0
162.867752 200.0
162.927994 196.0
162.959213 96.0
163.007675 52.0
163.055771 284.0
163.085587 328.0
163.20575 96.0
163.243896 116.0
163.304932 128.0
163.411774 128.0
163.432129 112.0
163.467743 32.0
163.76561 32.0
163.844574 80.0
163.926117 156.0
163.961792 216.0
164.059464 112.0
164.080536 48.0
164.124939 136.0
164.309631 204.0
164.354507 120.0
164.402985 188.0
164.454025 44.0
164.581665 172.0
164.640396 148.0
165.031372 124.0
165.067169 156.0
165.246216 196.0
165.471436 180.0
165.653259 44.0
165.707062 188.0
165.732956 188.0
165.850571 160.0
165.899277 64.0
166.363602 124.0
166.396973 176.0
166.42778 136.0
166.445755 100.0
166.488235 208.0
166.643539 124.0
166.66922 172.0
166.7052 228.0
166.841431 180.0
166.862 52.0
167.016281 108.0
167.136154 224.0
167.355988 148.0
167.559448 92.0
167.610992 64.0
167.72438 176.0
167.750153 36.0
167.791412 96.0
167.832657 108.0
168.005463 148.0
168.059631 212.0
168.082855 136.0
168.22998 164.0
168.291931 224.0
168.570908 88.0
168.914764 76.0
168.95874 132.0
169.073242 160.0
169.091385 128.0
169.220139 156.0
169.284866 104.0
169.320312 148.0
169.354797 92.0
169.466187 68.0
169.608032 212.0
169.634644 60.0
169.918091 200.0
170.059311 756.0
170.085052 208.0
170.192429 156.0
170.267746 48.0
170.343063 148.0
170.391693 172.0
170.511948 144.0
170.823975 52.0
170.9879 96.0
171.068359 280.0
171.095947 440.0
171.339417 48.0
171.370682 156.0
171.455017 144.0
171.482742 108.0
171.691315 124.0
171.949585 108.0
171.983521 164.0
172.035187 96.0
172.075974 11540.0
172.146164 80.0
172.183548 124.0
172.213287 76.0
172.231567 56.0
172.293701 88.0
172.311996 76.0
172.33606 100.0
172.437973 52.0
172.464111 56.0
172.49025 96.0
172.50856 200.0
172.581757 140.0
172.605286 88.0
172.707291 72.0
172.83548 128.0
172.877335 116.0
173.010834 80.0
173.044861 132.0
173.078598 1880.0
173.196747 100.0
173.264862 168.0
173.312027 192.0
173.361801 132.0
173.441406 204.0
173.521698 136.0
173.583481 192.0
173.602982 156.0
173.803482 148.0
173.821701 196.0
173.888947 180.0
173.937943 340.0
173.972931 104.0
174.013138 360.0
174.056366 556.0
174.091873 38672.0
174.158813 160.0
174.177322 52.0
174.222275 72.0
174.231705 60.0
174.242401 152.0
174.26709 56.0
174.295502 44.0
174.311905 68.0
174.355057 52.0
174.374817 64.0
174.393219 64.0
174.453674 72.0
174.479965 60.0
174.534485 60.0
174.574631 60.0
174.631699 216.0
174.664047 76.0
174.703506 144.0
174.753494 180.0
174.798218 60.0
174.82338 64.0
174.858749 156.0
174.898224 60.0
174.998459 216.0
175.045074 196.0
175.094208 4812.0
175.164185 44.0
175.266556 84.0
175.309082 72.0
175.406601 48.0
175.472504 44.0
175.628098 44.0
175.659744 92.0
175.686127 72.0
175.897247 108.0
175.983002 164.0
176.013397 28.0
176.045975 48.0
176.070038 148.0
176.094498 384.0
176.198288 32.0
176.266983 80.0
176.304428 136.0
176.338196 72.0
176.404419 128.0
176.427124 92.0
176.504883 124.0
176.602737 64.0
176.637115 160.0
176.65564 52.0
176.967926 36.0
177.15332 156.0
177.588028 144.0
177.651688 56.0
178.153427 36.0
178.215881 172.0
178.366013 92.0
178.67981 60.0
178.735672 272.0
178.943817 180.0
178.975235 152.0
179.209625 132.0
179.356201 100.0
179.374863 120.0
179.518829 176.0
179.638855 336.0
179.713547 272.0
179.738358 176.0
179.920334 152.0
179.975128 144.0
180.33577 76.0
180.370514 92.0
180.413284 128.0
180.991196 100.0
181.031357 84.0
181.071533 116.0
181.125092 116.0
181.162598 60.0
181.778427 148.0
181.811462 68.0
181.988632 76.0
182.025833 164.0
182.051559 156.0
182.074554 160.0
182.308289 160.0
182.552917 96.0
182.693924 124.0
183.060699 172.0
183.190796 120.0
183.527679 60.0
183.659821 96.0
183.74614 108.0
183.916153 172.0
183.980942 88.0
184.060287 536.0
184.283417 76.0
184.337463 112.0
184.65918 112.0
184.697037 52.0
184.797134 80.0
184.829605 152.0
185.040726 288.0
185.072128 120.0
185.200485 140.0
185.352203 192.0
185.617844 116.0
185.767014 160.0
185.867401 112.0
185.964554 256.0
186.057327 164.0
186.079102 140.0
186.115677 144.0
186.269211 148.0
186.625214 88.0
186.669342 136.0
186.84552 120.0
187.086761 68.0
187.134018 136.0
187.370956 144.0
187.441803 36.0
187.55899 52.0
187.770721 176.0
187.918961 212.0
188.025391 140.0
188.070877 4800.0
188.133377 72.0
188.159134 48.0
188.211014 156.0
188.260162 184.0
188.306595 52.0
188.35849 168.0
188.470505 68.0
188.500549 172.0
188.560684 80.0
188.691879 228.0
188.749176 84.0
188.784851 152.0
188.821411 108.0
188.858688 96.0
188.88974 160.0
188.909302 112.0
188.976334 128.0
189.009155 44.0
189.044739 132.0
189.070526 580.0
189.103287 23664.0
189.196274 84.0
189.217117 140.0
189.250031 144.0
189.300446 64.0
189.362305 108.0
189.418274 184.0
189.458176 132.0
189.507492 208.0
189.534897 92.0
189.556808 96.0
189.647247 60.0
189.686172 84.0
189.758057 76.0
189.81723 40.0
189.840195 96.0
189.869324 56.0
189.951614 56.0
190.009216 168.0
190.059082 116.0
190.105698 3580.0
190.132706 120.0
190.165634 200.0
190.257385 108.0
190.453934 68.0
190.484146 120.0
190.519852 216.0
190.574799 140.0
190.635254 40.0
190.676483 52.0
190.764435 76.0
190.811172 92.0
190.871658 68.0
190.90741 52.0
190.97081 44.0
190.998169 64.0
191.025681 224.0
191.117279 13456.0
191.192413 60.0
191.229294 104.0
191.284348 92.0
191.377197 220.0
191.399979 88.0
191.435776 88.0
191.510132 48.0
191.561737 116.0
191.701004 140.0
191.788422 176.0
191.937286 80.0
192.118408 968.0
192.151718 252.0
192.21312 140.0
192.480881 44.0
192.500214 136.0
192.591339 48.0
192.773682 72.0
192.983765 80.0
193.118958 308.0
193.451309 120.0
193.487305 192.0
193.589752 132.0
193.827972 180.0
193.894485 184.0
194.046936 60.0
194.069122 144.0
194.130127 40.0
194.193909 172.0
194.501892 192.0
194.74321 220.0
195.224258 116.0
196.059418 72.0
196.547424 132.0
196.904755 48.0
196.982956 52.0
197.978653 132.0
198.078949 212.0
198.222382 160.0
198.272812 72.0
198.412964 80.0
198.819687 68.0
199.087021 1200.0
199.320984 132.0
199.544388 60.0
199.71312 196.0
199.744064 144.0
199.769379 64.0
199.805954 128.0
199.949463 140.0
200.068558 1044.0
200.099091 204.0
200.138062 116.0
200.230988 44.0
200.483337 84.0
200.500397 180.0
200.873627 72.0
201.067078 136.0
201.23204 188.0
201.497528 80.0
201.822556 92.0
201.861023 112.0
201.98941 112.0
202.029007 184.0
202.068619 168.0
202.142181 164.0
202.785049 160.0
202.824738 84.0
203.142319 120.0
203.165024 188.0
203.363647 132.0
203.650421 76.0
203.982864 128.0
204.389557 108.0
204.497696 180.0
204.53186 56.0
204.762482 144.0
204.845078 168.0
204.959045 72.0
205.480804 64.0
205.600647 152.0
205.64061 96.0
205.926117 148.0
206.006104 164.0
206.277573 108.0
206.554947 120.0
207.118088 76.0
207.270676 204.0
207.342316 152.0
207.697845 152.0
207.775299 156.0
207.878586 180.0
208.289154 148.0
208.45488 164.0
208.550629 100.0
208.659866 60.0
208.979111 224.0
209.071365 124.0
209.160416 40.0
209.353302 264.0
209.877762 80.0
209.90947 204.0
210.342239 44.0
210.95752 160.0
211.000885 124.0
211.0616 76.0
211.131012 164.0
211.217773 76.0
211.423203 68.0
211.492661 108.0
211.521606 60.0
211.805374 168.0
212.124115 68.0
212.173401 128.0
212.308075 72.0
212.57077 120.0
213.267776 124.0
213.401489 128.0
213.578888 160.0
213.936813 56.0
214.478622 80.0
214.513596 60.0
214.650635 92.0
214.67688 72.0
215.085251 160.0
215.172913 136.0
215.402954 144.0
215.460419 72.0
215.581833 108.0
215.669937 108.0
215.853699 192.0
215.944351 64.0
215.999924 148.0
216.070129 76.0
216.111099 140.0
216.18425 88.0
216.241364 132.0
216.27565 384.0
216.339371 192.0
216.395004 116.0
216.55899 100.0
216.582413 228.0
216.629288 104.0
216.702927 148.0
216.748032 204.0
216.781647 120.0
216.805847 124.0
216.841293 292.0
216.870483 152.0
216.922318 164.0
216.95224 156.0
216.997543 152.0
217.04686 520.0
217.09845 79712.0
217.19136 64.0
217.202728 112.0
217.26857 52.0
217.299286 52.0
217.310028 140.0
217.338333 132.0
217.41304 168.0
217.450653 64.0
217.48761 48.0
217.493088 124.0
217.545959 148.0
217.553986 148.0
217.579086 248.0
217.632126 72.0
217.678482 44.0
217.722153 60.0
217.760223 128.0
217.791046 72.0
217.880402 48.0
217.914261 56.0
217.938629 212.0
217.971237 68.0
218.016129 196.0
218.100143 8996.0
218.169937 48.0
218.2258 60.0
218.252274 48.0
218.425781 40.0
218.46402 40.0
218.502274 76.0
218.556366 72.0
218.640564 68.0
218.761246 84.0
218.870178 84.0
218.912323 128.0
219.000153 116.0
219.023315 80.0
219.104446 928.0
219.1483 64.0
219.200623 44.0
219.31076 108.0
219.350388 52.0
219.438828 104.0
219.462418 108.0
219.48851 104.0
219.526947 104.0
219.567184 40.0
219.594406 100.0
219.651169 52.0
219.682388 164.0
219.726974 156.0
219.808243 132.0
219.842941 140.0
219.926285 100.0
219.999374 100.0
220.096802 196.0
220.823776 72.0
220.852219 104.0
221.309082 40.0
221.448273 48.0
221.652679 136.0
222.49205 28.0
222.685059 180.0
223.547211 120.0
224.020615 48.0
225.022659 52.0
226.311279 140.0
226.910507 76.0
227.015457 200.0
227.051437 176.0
227.195419 140.0
227.867905 84.0
227.937012 72.0
228.025589 84.0
228.204529 84.0
228.989929 56.0
229.336426 48.0
229.372589 56.0
229.93898 92.0
230.021133 64.0
231.760086 72.0
232.193573 68.0
232.928085 72.0
233.207626 104.0
233.511673 72.0
234.498123 68.0
234.601761 56.0
234.662735 112.0
235.034836 208.0
235.107086 3424.0
235.204956 196.0
235.2668 64.0
236.110687 88.0
236.278366 68.0
236.299774 68.0
236.633377 120.0
237.629456 124.0
238.139038 184.0
238.661453 92.0
238.750641 140.0
239.224472 76.0
240.10878 80.0
240.784653 128.0
240.966904 56.0
242.269363 48.0
245.249359 40.0
245.948044 108.0
249.047867 160.0
249.698471 72.0
250.854034 96.0
256.850464 72.0
257.744354 52.0
258.422211 48.0
259.370148 64.0
261.696014 104.0
261.831268 52.0
262.340363 72.0
263.069397 48.0
266.905396 88.0
267.494263 52.0
267.725433 132.0
271.113159 20.0
278.254578 52.0
280.353424 112.0
282.082336 88.0
283.907074 112.0
284.182129 56.0
284.625183 144.0
285.391266 36.0
288.871735 36.0
293.105408 144.0
296.094513 156.0
296.577606 116.0
297.534668 160.0
298.988647 68.0
301.164154 148.0
301.772369 64.0
302.793182 88.0
304.450897 112.0
308.810822 44.0
311.032257 60.0
311.134064 36.0
317.329346 200.0
320.168488 180.0
320.546112 84.0
321.28772 108.0
322.176636 72.0
327.395477 192.0
332.818573 68.0
334.368225 48.0
336.723419 52.0
338.187347 3104.0
338.244446 148.0
338.394531 52.0
338.519043 48.0
338.735107 40.0
339.189056 400.0
340.091827 64.0
340.190918 152.0
341.190155 100.0
341.502716 108.0
341.664581 84.0
341.826447 36.0
342.592285 68.0
342.986572 100.0
343.222504 60.0
343.683563 84.0
347.223724 96.0
347.691193 88.0
348.285217 36.0
353.186737 104.0
353.631989 68.0
354.620758 52.0
354.883179 92.0
370.782257 60.0
374.597656 52.0
374.967529 92.0
375.279785 76.0
377.476837 76.0
385.539368 36.0
385.809052 52.0
390.431915 84.0
391.289734 104.0
391.833221 132.0
393.051544 104.0
396.448334 48.0
398.654755 80.0
398.758087 84.0
401.333679 72.0
401.529053 100.0
405.663422 100.0
413.465363 88.0
413.611053 184.0
415.183075 56.0
418.116241 56.0
418.604767 64.0
423.251648 80.0
424.279999 60.0
426.41037 64.0
430.31546 48.0
432.287079 64.0
434.292236 56.0
438.837494 60.0
443.96402 100.0
454.429352 100.0
458.997498 64.0
459.232056 48.0
471.710144 36.0
473.116058 44.0
476.051422 52.0
481.52124 56.0
482.915466 116.0
484.719116 80.0
489.643646 36.0
491.124542 88.0
513.101135 48.0
515.750977 52.0
521.307312 28.0
522.689697 40.0
527.464661 68.0
529.491577 20.0
537.088989 44.0
539.402344 92.0
547.074951 92.0
547.894592 156.0
549.820312 56.0
553.274536 116.0
557.044861 92.0
569.28241 156.0
575.381775 56.0
589.392151 92.0
590.72168 132.0
600.07019 52.0
602.407837 72.0
606.709351 80.0
627.294495 88.0
639.858704 88.0
646.759399 100.0
649.155701 40.0
650.347961 176.0
661.905212 44.0
662.980957 64.0
679.284119 64.0
681.984192 44.0
687.092529 148.0
697.440002 140.0
698.659973 140.0
725.023621 80.0
734.583374 52.0
748.01123 52.0
751.308105 56.0
762.753052 72.0
763.654785 132.0
768.772827 112.0
773.509338 132.0
774.029724 40.0
775.713989 100.0
782.190857 156.0
784.669861 104.0
787.4599 36.0
793.951904 88.0
794.378174 36.0
799.581055 76.0
804.54126 64.0
806.473145 48.0
808.084778 108.0
809.94519 56.0
818.266602 244.0
820.231262 144.0
826.588379 52.0
826.64563 128.0
826.720032 36.0
827.023315 148.0
830.225952 132.0
836.701538 120.0
839.346069 192.0
856.558777 84.0
862.463806 160.0
872.534668 116.0
874.422852 72.0
874.970276 56.0
880.11145 184.0
881.800964 152.0
884.557251 152.0
889.459351 60.0
892.429688 204.0
896.131714 168.0
898.391174 116.0
904.067322 192.0
904.348633 176.0
912.741333 184.0
915.310669 156.0
922.877075 128.0
929.655151 176.0
936.226685 204.0
939.609558 152.0
939.749878 144.0
941.862122 172.0
944.080627 84.0
947.716614 68.0
950.304016 68.0
954.044128 156.0
954.874207 204.0
956.480103 64.0
958.246765 176.0
958.549377 124.0
963.522339 188.0
963.930115 92.0
964.690308 180.0
972.892212 108.0
973.687012 68.0
976.154114 60.0
977.66571 176.0
980.237549 208.0
981.864624 108.0
983.492981 108.0
983.586609 116.0
988.799255 108.0
991.243347 192.0
994.006897 68.0
998.234375 116.0
998.951355 120.0
1000.411255 20.0
1002.042358 176.0
1002.634644 224.0
1002.830017 168.0
1002.899353 180.0
1004.336914 144.0
1007.802673 188.0
1010.344238 72.0
1010.926331 172.0
1017.124695 156.0
1018.661316 196.0
1019.04248 112.0
1019.09967 80.0
1020.313599 188.0
1020.485229 136.0
1022.533508 188.0
1022.991821 212.0
1025.801025 132.0
1028.837524 64.0
1030.082764 120.0
1030.370239 104.0
1031.232788 40.0
1034.853516 216.0
1036.941772 132.0
1037.473755 180.0
1041.246704 224.0
1041.490723 84.0
1048.703369 128.0
1052.083374 204.0
1052.193115 188.0
1058.872681 100.0
1062.723145 184.0
1063.696655 104.0
1064.715942 208.0
1064.915527 196.0
1066.281616 220.0
1066.879639 152.0
1067.386719 176.0
1068.219238 124.0
1068.804688 172.0
1069.826538 100.0
1070.191162 140.0
1071.669556 184.0
1076.732178 192.0
1078.554443 96.0
1079.162354 216.0
1079.816284 148.0
1080.55542 216.0
1081.137817 64.0
1081.347168 164.0
1082.990601 188.0
1084.530273 176.0
1085.192383 176.0
1088.372559 196.0
1090.627808 204.0
1090.897339 144.0
1091.258911 220.0
1092.172974 148.0
1092.291382 184.0
1092.376465 176.0
1093.594238 40.0
1096.202148 56.0
1097.691895 148.0
1100.245239 180.0
1100.634766 164.0
1103.125488 232.0
1103.958496 164.0
1105.195435 44.0
1105.453491 260.0
1106.049194 108.0
1107.909912 168.0
1108.539307 212.0
1109.029785 160.0
1110.289429 64.0
1110.992554 144.0
1111.191528 208.0
1111.74231 200.0
1111.788696 108.0
1112.279907 160.0
1115.687622 168.0
1117.436646 176.0
1119.486816 48.0
1120.599121 136.0
1121.03894 100.0
1121.998657 176.0
1122.291992 164.0
1122.765503 176.0
1123.025635 180.0
1123.866089 148.0
1124.793701 144.0
1124.887207 164.0
1125.962158 84.0
1126.336182 140.0
1127.598999 60.0
1132.308838 236.0
1137.344116 112.0
1137.391113 160.0
1138.310791 184.0
1139.204102 164.0
1140.299316 124.0
1142.854614 72.0
1144.099731 184.0
1145.07605 220.0
1145.96521 36.0
1147.32666 196.0
1148.338013 172.0
1151.5979 164.0
1152.077515 172.0
1152.253174 224.0
1155.714844 68.0
1155.958374 208.0
1156.506592 152.0
1157.718384 172.0
1157.941895 156.0
1159.066406 132.0
1160.984741 184.0
1161.554443 120.0
1161.859741 136.0
1162.24646 112.0
1164.554565 220.0
1164.778687 88.0
1164.928101 164.0
1166.953369 160.0
1167.102905 104.0
1167.293335 140.0
1168.946289 208.0
1172.085327 144.0
1173.543945 140.0
1173.728027 176.0
1175.623047 140.0
1175.917847 140.0
1176.634521 100.0
1177.748657 164.0
1177.925171 156.0
1178.581055 180.0
1178.642578 60.0
1179.982178 204.0
1180.590698 160.0
1180.980591 212.0
1181.623535 44.0
1181.883545 168.0
1182.082031 160.0
1182.18457 140.0
1182.259888 124.0
1182.307861 88.0
1182.526855 100.0
1183.358276 128.0
1185.245483 128.0
1185.560669 156.0
1185.786865 184.0
1186.143311 160.0
1186.30188 148.0
1188.454346 164.0
1188.564087 136.0
1189.703491 172.0
1191.392822 240.0
1192.14856 112.0
1192.382202 184.0
1192.78772 172.0
1193.021484 144.0
1194.802612 196.0
1195.504395 112.0
1196.240845 128.0
1196.295898 160.0
1197.790161 144.0
1198.430908 204.0
1199.747192 128.0
1200.284912 112.0
1200.374634 116.0
1200.464233 92.0
1200.71936 164.0
1201.995605 84.0
1203.127563 212.0
1203.5625 188.0
1203.907715 188.0
1204.2323 180.0
1204.79187 156.0
1206.657715 76.0
1207.017334 136.0
1210.331665 160.0
1210.724121 188.0
1210.837158 100.0
1211.599121 204.0
1211.772339 176.0
1212.0979 140.0
1212.229614 156.0
1212.659302 228.0
1213.331665 200.0
1213.442627 92.0
1213.671387 224.0
1215.211182 92.0
1217.425415 156.0
1218.133789 208.0
1218.640991 160.0
1218.884155 76.0
1219.74585 160.0
1221.880737 172.0
1222.660034 140.0
1224.727905 136.0
1225.515015 180.0
1225.800781 156.0
1226.26062 156.0
1226.400024 108.0
1226.89502 160.0
1227.334229 128.0
1227.383057 100.0
1227.85022 160.0
1227.899048 156.0
1228.352417 124.0
1228.519775 244.0
1228.645386 144.0
1229.447754 188.0
1229.566406 168.0
1230.438965 108.0
1231.130249 120.0
1231.577148 188.0
1231.800659 196.0
1233.505737 152.0
1234.72229 144.0
1235.001953 168.0
1235.526611 140.0
1235.855469 176.0
1236.422241 104.0
1236.97522 204.0
1237.311157 188.0
1239.104126 260.0
1239.298706 68.0
1240.835083 128.0
1241.44519 136.0
1241.515259 132.0
1241.655518 148.0
1242.230713 156.0
1244.146484 208.0
1244.300903 216.0
1245.663208 120.0
1248.305786 228.0
1248.988037 204.0
1249.930664 64.0
1252.098877 104.0
1252.753906 152.0
1254.60022 156.0
1256.758301 60.0
1258.685303 168.0
1258.939453 204.0
1259.447998 152.0
1260.542969 88.0
1260.988159 112.0
1263.215454 124.0
1263.512573 176.0
1263.859253 216.0
1264.382935 168.0
1264.743896 116.0
1266.039429 172.0
1266.351074 128.0
1267.612061 136.0
1269.369995 144.0
1269.455078 144.0
1269.578491 128.0
1269.979858 200.0
1270.384277 136.0
1270.526123 116.0
1271.09375 204.0
1273.969116 208.0
1274.480591 108.0
1274.644043 196.0
1274.906982 280.0
1275.120117 148.0
1275.219727 204.0
1275.92334 176.0
1276.691284 184.0
1277.310059 128.0
1277.601685 120.0
1278.163818 100.0
1279.039185 128.0
1279.971802 108.0
1280.662476 180.0
1281.588623 136.0
1282.158691 136.0
1283.705566 224.0
1283.919556 140.0
1284.775513 148.0
1285.082275 152.0
1285.724487 104.0
1285.838623 184.0
1285.88855 100.0
1286.109863 192.0
1286.766602 128.0
1287.130737 136.0
1287.812622 116.0
1288.430542 148.0
1288.859253 204.0
1288.966431 240.0
1289.333984 200.0
1289.652344 148.0
1290.403076 144.0
1290.953613 176.0
1291.125244 140.0
1291.425659 80.0
1292.08374 28.0
1292.520142 128.0
1292.77063 200.0
1293.744019 136.0
1294.173584 124.0
1294.273804 244.0
1294.545898 164.0
1295.57019 88.0
1295.66333 164.0
1296.723755 88.0
1296.967407 224.0
1297.806152 172.0
1298.214966 160.0
1298.279419 168.0
1298.516113 208.0
1298.781494 128.0
1299.671021 136.0
1300.309692 148.0
1300.388672 140.0
1300.704468 72.0
1300.905518 136.0
1303.620361 160.0
1305.446167 128.0
1305.928101 144.0
1306.906372 164.0
1307.079102 244.0
1307.294922 156.0
1307.971436 144.0
1310.124512 152.0
1310.297852 140.0
1311.219727 180.0
1311.717041 208.0
1312.661499 80.0
1312.91394 176.0
1313.599121 176.0
1314.140137 148.0
1314.731934 216.0
1314.991699 128.0
1315.071045 192.0
1317.843994 140.0
1318.443848 192.0
1318.747314 68.0
1319.043701 188.0
1319.128052 172.0
1320.518677 344.0
1321.17688 164.0
1322.508301 108.0
1323.319092 136.0
1324.948608 120.0
1325.02832 132.0
1325.209473 216.0
1326.49939 192.0
1327.023193 80.0
1327.267822 192.0
1327.876953 216.0
1328.167114 224.0
1328.914307 144.0
1328.965088 140.0
1329.139282 72.0
1329.233521 164.0
1329.792358 140.0
1329.959351 136.0
1330.017334 148.0
1330.393799 136.0
1330.503662 144.0
1331.011963 184.0
1331.738159 128.0
1331.890625 80.0
1332.057739 132.0
1332.232056 160.0
1332.80603 40.0
1334.441406 192.0
1335.830444 60.0
1336.514282 144.0
1337.300171 156.0
1337.671387 168.0
1338.15918 340.0
1338.676147 180.0
1338.7854 148.0
1339.403809 160.0
1340.300537 112.0
1342.188354 68.0
1342.69873 204.0
1342.873779 160.0
1342.953979 216.0
1343.916992 204.0
1344.9021 52.0
1345.186768 128.0
1346.734741 108.0
1346.910034 68.0
1347.618652 188.0
1347.910889 144.0
1348.17395 72.0
1349.577393 168.0
1349.840698 160.0
1350.432983 192.0
1350.579346 168.0
1350.696289 156.0
1350.849976 144.0
1351.705933 140.0
1352.518311 152.0
1352.759888 164.0
1353.956177 180.0
1354.429321 144.0
1354.753418 132.0
1355.183838 128.0
1356.070557 124.0
1356.268433 84.0
1356.429688 180.0
1356.766968 144.0
1357.104126 136.0
1358.402222 56.0
1358.651611 136.0
1358.805664 184.0
1359.744995 212.0
1360.031128 40.0
1360.119263 220.0
1360.258667 240.0
1360.442261 132.0
1360.508301 100.0
1360.6698 152.0
1361.183716 172.0
1361.418701 200.0
1362.248657 136.0
1363.600708 192.0
1363.725586 80.0
1364.063721 196.0
1364.482788 160.0
1364.768555 124.0
1365.247437 112.0
1367.314697 140.0
1368.396729 140.0
1368.543945 204.0
1368.735352 184.0
1369.106934 204.0
1369.442383 396.0
1369.692749 184.0
1370.370483 204.0
1370.598877 124.0
1371.107422 140.0
1371.468506 220.0
1371.725464 172.0
1373.385498 140.0
1374.979126 172.0
1375.724609 192.0
1376.817383 164.0
1377.223633 104.0
1377.393433 252.0
1377.984497 104.0
1378.346558 160.0
1378.560791 152.0
1379.381226 176.0
1379.565918 220.0
1380.268311 128.0
1381.984375 116.0
1382.07312 208.0
1382.139648 128.0
1382.391235 164.0
1382.443115 216.0
1383.575562 164.0
1385.100952 240.0
1386.397461 168.0
1386.649536 156.0
1387.390747 156.0
1389.311401 116.0
1389.623047 92.0
1389.712036 128.0
1390.268555 188.0
1390.446655 68.0
1390.847412 168.0
1391.132446 200.0
1391.32251 168.0
1391.537842 136.0
1392.23584 112.0
1393.394531 172.0
1394.167236 208.0
1394.568604 176.0
1394.888184 172.0
1395.097168 156.0
1395.237549 48.0
1395.616699 160.0
1395.743164 160.0
1396.354492 96.0
1396.791748 84.0
1397.089355 160.0
1397.46875 136.0
1397.647339 260.0
1397.704468 252.0
1398.674316 148.0
1398.838013 156.0
1399.08374 208.0
1399.180542 108.0
1399.50061 164.0
1400.16333 160.0
1400.424072 116.0
1400.565552 184.0
1401.101929 152.0
1401.2677 196.0
1402.130127 256.0
1402.994751 136.0
1403.285522 228.0
1403.673218 188.0
1403.949097 176.0
1404.993408 100.0
1406.807007 168.0
1408.673584 144.0
1409.876587 176.0
1410.975342 220.0
1411.715454 144.0
1412.381104 116.0
1412.897217 124.0
1413.346191 48.0
1413.413574 236.0
1413.503296 260.0
1414.438843 176.0
1414.551025 148.0
1414.655884 180.0
1415.90625 172.0
1416.138428 252.0
1416.303223 124.0
1416.572876 228.0
1417.344482 152.0
1417.554321 44.0
1418.798462 132.0
1419.113403 132.0
1419.5448 192.0
1419.938232 168.0
1420.91333 120.0
1421.153442 336.0
1421.804443 160.0
1422.12146 180.0
1422.222534 176.0
1422.324097 148.0
1422.797119 188.0
1423.547852 84.0
1423.69812 160.0
1423.87085 120.0
1424.929932 168.0
1425.748901 120.0
1425.920288 100.0
1426.094604 132.0
1427.628296 136.0
1427.936646 152.0
1428.1698 128.0
1428.305176 136.0
1428.658813 196.0
1428.922119 176.0
1429.147827 168.0
1429.659424 140.0
1429.712158 156.0
1429.990601 116.0
1430.050781 156.0
1430.223877 172.0
1430.803467 220.0
1430.96167 120.0
1431.059448 92.0
1431.179932 132.0
1431.669434 104.0
1431.789917 144.0
1432.302002 160.0
1433.010132 124.0
1433.264038 176.0
1433.46228 224.0
1434.306396 148.0
1434.442017 168.0
1435.037598 144.0
1435.218506 128.0
1435.761475 192.0
1436.040527 92.0
1436.425171 164.0
1436.847656 204.0
1438.515381 144.0
1439.089111 44.0
1439.783813 80.0
1440.244507 176.0
1440.39563 76.0
1441.218994 236.0
1441.407959 80.0
1441.748047 60.0
1442.284546 132.0
1442.949829 52.0
1443.055664 160.0
1443.237183 104.0
1443.501831 160.0
1443.955566 124.0
1444.598389 256.0
1444.704346 156.0
1445.006958 164.0
1445.468506 168.0
1446.69458 220.0
1447.239624 192.0
1447.413818 240.0
1447.845459 152.0
1447.996948 72.0
1448.814941 212.0
1448.921021 184.0
1448.996826 148.0
1449.208374 208.0
1449.739258 116.0
1449.837891 168.0
1450.20166 44.0
1451.742065 180.0
1451.85437 220.0
1452.362427 36.0
1452.609741 168.0
1452.8479 116.0
1452.901001 136.0
1453.13623 152.0
1453.667358 56.0
1453.978516 300.0
1454.502197 72.0
1454.805786 164.0
1454.896973 76.0
1455.868774 224.0
1455.952393 36.0
1456.066284 140.0
1456.309326 148.0
1456.461182 172.0
1456.658691 128.0
1457.19043 204.0
1457.623535 200.0
1457.714722 200.0
1458.155518 180.0
1458.497559 108.0
1458.611572 168.0
1458.961182 172.0
1459.082886 172.0
1459.201172 128.0
1459.531372 196.0
1459.622681 120.0
1459.904053 188.0
1460.21582 160.0
1460.284302 136.0
1461.349243 156.0
1461.546997 40.0
1462.117798 180.0
1463.740356 164.0
1464.051392 96.0
1464.196045 172.0
1464.881592 156.0
1465.910156 176.0
1465.993896 224.0
1466.817017 180.0
1467.632812 164.0
1467.785278 160.0
1468.021606 160.0
1468.776733 160.0
1469.18103 152.0
1469.463257 160.0
1469.989746 224.0
1470.363647 116.0
1470.679565 192.0
1471.271973 184.0
1471.462891 204.0
1471.523926 88.0
1472.439453 204.0
1472.951904 172.0
1473.432495 216.0
1473.73877 180.0
1473.799927 180.0
1473.884033 140.0
1474.052124 208.0
1474.655762 172.0
1474.930908 120.0
1475.35144 172.0
1475.511963 132.0
1475.56543 132.0
1475.917114 136.0
1476.047119 220.0
1476.987793 164.0
1477.34729 148.0
1477.400879 172.0
1477.462036 320.0
1477.745117 140.0
1477.967041 236.0
1478.181274 176.0
1478.640381 148.0
1478.765137 104.0
1479.023071 44.0
1479.604858 200.0
1479.681396 52.0
1480.539062 104.0
1480.791748 168.0
1481.38916 68.0
1481.502808 100.0
1481.825806 156.0
1482.492432 124.0
1482.569092 160.0
1482.72998 128.0
1483.251221 48.0
1483.447998 224.0
1483.60376 176.0
1483.672852 136.0
1485.068359 164.0
1485.375244 156.0
1485.80481 124.0
1486.242065 164.0
1486.380249 56.0
1486.549072 140.0
1486.656494 84.0
1486.826172 180.0
1487.615845 180.0
1487.86145 72.0
1487.938232 152.0
1488.491089 52.0
1488.621582 148.0
1488.698364 212.0
1489.266724 216.0
1489.335815 184.0
1489.543213 140.0
1489.658447 124.0
1489.781372 160.0
1490.273071 200.0
1490.372925 172.0
1491.779297 184.0
1491.83313 168.0
1492.094482 184.0
1493.194092 168.0
1493.286377 172.0
1493.386353 196.0
1493.655518 136.0
1493.890259 212.0
1495.348267 184.0
1495.571411 212.0
1496.218018 180.0
1497.488647 168.0
1497.619507 140.0
1497.673462 144.0
1497.824707 112.0
1499.530273 184.0
1499.838501 132.0
1500.250366 212.0
1500.331909 120.0
1500.509155 128.0
1500.640259 164.0
1500.833008 44.0
1501.5177 196.0
1502.105469 72.0
1502.403198 204.0
1502.75354 72.0
1503.077637 124.0
1503.455688 140.0
1503.90332 136.0
1504.064087 260.0
1504.181152 112.0
