>compound MLS001140570-01!1-[2-[(4-oxo-2,3-dihydro-1H-cyclopenta[c]chromen-7-yl)oxy]acetyl]piperidine-4-carboxamide
>formula C20H22N2O5
>ionization [M+H]+
>parentmass 371.161407
#inchi InChI=1S/C20H22N2O5/c21-19(24)12-6-8-22(9-7-12)18(23)11-26-13-4-5-15-14-2-1-3-16(14)20(25)27-17(15)10-13/h4-5,10,12H,1-3,6-9,11H2,(H2,21,24)
#inchikey RQYVLDJZDBTSRL
#Ion_Source LC-ESI
#Instrument qTof
#Compound_Source NIH Natural Product Library
#PI Dorrestein
#Data_Collector VVP/LMS
#Scan -1
#Precursor_MZ 371.161
#ExactMass 370.153
#Charge 1
#CAS_Number N/A
#Pubmed_ID N/A
#Smiles NC(=O)C1CCN(CC1)C(=O)COc2ccc3c4CCCc4c(=O)oc3c2
#INCHI_AUX N/A
#Library_Class 1
#SpectrumID CCMSLIB00000080119
#IonMode Positive
#UpdateWorkflowName UPDATE-SINGLE-ANNOTATED-GOLD
#LibraryQualityString Gold
#TaskID b1d8e8f6646f4e71acdff9ca3d919d08
##Scan# 1688
#SpectrumFile p2-D04_GD4_01_18016.mzXML
#LibraryName NIH_Natural_Products_Library.mgf
#MQScore -1
#Organism NIH_Natural_Products_Library
#TIC_Query 0
#RT_Query -1
#MZErrorPPM -1
#SharedPeaks 0
#MassDiff 0
#LibMZ -1
#SpecMZ 371.161
#SpecCharge 0
#internalFilename spec-00000.mgf

>collision 10
95.015717 132.0
95.062279 228.0
95.075867 180.0
95.960915 40.0
96.029991 180.0
96.080933 2348.0
96.098778 152.0
96.142319 44.0
96.193062 72.0
96.253586 64.0
96.480225 176.0
96.525192 168.0
96.859856 168.0
97.088028 652.0
97.151939 144.0
97.95594 80.0
97.991402 180.0
98.061401 860.0
98.095421 220.0
98.285751 152.0
98.500366 116.0
99.068924 240.0
99.216721 128.0
99.317856 384.0
99.411102 48.0
99.472626 188.0
99.518288 168.0
100.035179 140.0
100.066994 268.0
100.132744 204.0
100.403786 172.0
100.992966 116.0
101.273178 172.0
101.319252 208.0
101.335281 140.0
101.433472 116.0
101.46154 152.0
101.94928 176.0
102.045769 164.0
102.200638 204.0
102.263016 176.0
103.056168 156.0
103.617981 152.0
103.636215 220.0
103.905869 148.0
104.054268 132.0
104.121025 188.0
104.230721 32.0
104.686378 96.0
104.763771 108.0
105.000214 116.0
105.068108 168.0
105.198128 212.0
105.559761 128.0
105.88105 148.0
106.061348 200.0
106.079796 136.0
106.94455 164.0
107.0541 188.0
107.148415 128.0
107.338036 64.0
107.476234 184.0
107.602135 88.0
107.945122 220.0
108.205826 112.0
108.655548 132.0
108.734398 100.0
109.03138 124.0
109.067993 156.0
109.08429 176.0
109.143631 132.0
109.341255 60.0
109.680748 204.0
109.787079 144.0
109.803764 88.0
109.87468 136.0
110.060936 1340.0
110.083405 172.0
110.296501 144.0
111.020912 140.0
111.07 328.0
111.237015 116.0
111.716133 88.0
112.076118 2280.0
112.270073 156.0
112.43251 140.0
112.603516 44.0
112.671112 88.0
113.069939 296.0
113.180824 148.0
113.237999 44.0
113.346039 168.0
113.532585 160.0
113.727768 172.0
114.407982 136.0
114.680634 176.0
114.761642 172.0
114.889603 132.0
114.981354 68.0
115.054626 548.0
115.333763 60.0
115.498405 128.0
115.967308 160.0
116.05719 248.0
116.274002 164.0
116.667076 204.0
116.69072 124.0
117.069168 236.0
117.709869 152.0
118.653221 152.0
118.898331 184.0
119.08989 172.0
119.526344 180.0
119.916161 180.0
120.138565 136.0
120.245483 152.0
120.535248 180.0
121.056541 128.0
121.154007 184.0
122.006592 152.0
122.790474 156.0
123.091713 156.0
123.78714 96.0
123.88459 112.0
123.902313 60.0
124.07547 1928.0
124.343575 124.0
124.385742 132.0
124.556717 96.0
124.587822 84.0
124.65892 44.0
124.816742 112.0
125.085419 1332.0
125.110428 168.0
125.190582 80.0
125.413368 228.0
125.431198 112.0
125.576126 84.0
125.649742 88.0
125.942932 256.0
126.090912 528.0
126.163383 192.0
126.453209 176.0
126.525803 188.0
126.559387 220.0
126.613129 140.0
126.929092 136.0
127.032265 300.0
127.055595 392.0
127.087738 7364.0
127.124252 176.0
127.139961 36.0
127.162399 100.0
127.178116 108.0
127.355492 120.0
127.422882 92.0
127.499275 72.0
127.656639 32.0
128.062531 2688.0
128.090652 776.0
128.192398 64.0
128.226196 172.0
128.431366 48.0
128.580276 76.0
128.839951 148.0
129.03656 136.0
129.070084 4392.0
129.100815 368.0
129.131531 228.0
129.183563 48.0
129.226547 68.0
129.761047 56.0
129.790527 148.0
130.073959 416.0
130.296646 116.0
130.314835 80.0
130.589645 192.0
130.992767 124.0
131.048996 200.0
131.08548 1092.0
131.168228 108.0
131.184174 40.0
131.270813 172.0
131.542313 100.0
131.903229 88.0
132.051849 192.0
132.087143 160.0
132.809967 160.0
133.064972 572.0
133.089935 152.0
133.227737 80.0
133.867142 140.0
133.991516 48.0
134.441147 56.0
134.741318 128.0
134.893829 164.0
135.280151 128.0
136.203033 68.0
136.479584 96.0
137.05217 212.0
137.51857 128.0
137.621277 216.0
137.747391 172.0
138.210281 172.0
138.449051 176.0
138.88028 56.0
138.901794 24.0
139.011673 140.0
139.629501 184.0
139.693008 172.0
139.754181 200.0
140.392532 88.0
140.661499 112.0
140.930725 152.0
141.072998 572.0
141.102005 2972.0
141.129257 232.0
141.200195 260.0
141.597794 180.0
141.635696 196.0
142.075516 156.0
142.099976 224.0
142.392303 108.0
142.625137 64.0
142.644165 124.0
143.081879 224.0
143.713455 220.0
144.058075 660.0
144.980789 160.0
145.009552 204.0
145.065002 780.0
145.110229 108.0
145.242126 164.0
145.49649 128.0
146.063721 168.0
146.130966 176.0
146.61496 104.0
146.636642 96.0
147.015274 112.0
147.045105 572.0
147.078964 448.0
147.237366 200.0
147.708679 40.0
147.76915 152.0
148.057205 108.0
148.255859 56.0
148.449783 148.0
148.818604 140.0
149.074982 156.0
149.516251 160.0
149.893707 136.0
150.135025 120.0
150.632935 196.0
150.713547 116.0
151.205078 176.0
151.709641 180.0
152.067764 140.0
152.173325 176.0
152.701645 136.0
152.947678 220.0
152.97229 196.0
153.043686 48.0
153.080627 156.0
153.686996 240.0
154.680466 100.0
154.762161 160.0
154.799316 128.0
155.06311 344.0
155.091492 216.0
156.058334 356.0
156.522614 136.0
156.654602 104.0
157.023499 156.0
157.065964 4068.0
157.203125 112.0
158.06665 388.0
158.290497 52.0
158.318039 40.0
158.355606 36.0
158.799225 204.0
159.046432 212.0
159.080399 2604.0
159.710953 52.0
159.990265 68.0
160.048645 108.0
160.082901 272.0
160.206848 80.0
160.645477 220.0
161.054169 176.0
161.367752 192.0
162.063766 144.0
162.370483 180.0
162.542984 72.0
162.873016 28.0
162.895889 96.0
163.343262 92.0
163.89061 212.0
163.954315 156.0
164.188858 48.0
164.586945 144.0
164.975281 184.0
165.252426 120.0
165.351273 184.0
165.527924 92.0
165.548401 184.0
166.990692 168.0
167.744324 64.0
168.253326 44.0
168.661469 136.0
168.801071 192.0
169.06662 608.0
169.101639 340.0
169.189163 96.0
169.334167 112.0
169.54921 160.0
169.777344 180.0
170.073105 276.0
170.10614 332.0
170.462662 168.0
170.769424 180.0
170.89949 140.0
171.05304 176.0
171.082016 356.0
171.170197 124.0
172.058228 140.0
173.058899 320.0
173.160126 36.0
173.453583 148.0
173.524353 64.0
174.067261 1068.0
174.598312 156.0
175.072937 320.0
175.770554 76.0
176.046783 144.0
176.077911 148.0
176.658264 68.0
177.4077 100.0
177.449051 120.0
178.142761 136.0
178.69838 32.0
178.762238 80.0
179.079041 156.0
180.362427 148.0
180.415894 136.0
180.785004 112.0
181.031281 128.0
181.05896 200.0
181.36348 208.0
182.050293 124.0
182.283997 212.0
182.824509 124.0
183.042557 112.0
183.082291 180.0
183.57341 200.0
183.630035 180.0
184.240067 76.0
184.31842 192.0
184.677963 116.0
184.769943 200.0
184.815933 152.0
184.834869 196.0
184.917297 176.0
184.999969 188.0
185.060883 7932.0
185.097549 236.0
185.238907 64.0
185.269424 52.0
185.289734 36.0
185.340225 120.0
185.408966 84.0
185.506531 92.0
185.53093 64.0
185.631256 56.0
185.7099 88.0
185.973083 84.0
186.028214 116.0
186.063217 1064.0
186.133255 36.0
186.188751 88.0
186.247314 52.0
186.404892 152.0
186.519028 88.0
186.616898 148.0
186.695755 200.0
186.758301 44.0
186.793671 56.0
186.970764 160.0
187.037323 140.0
187.07634 8440.0
187.211166 60.0
187.27272 28.0
187.301819 152.0
187.34082 64.0
187.389847 68.0
187.442413 96.0
187.485229 140.0
187.665131 136.0
187.695114 204.0
187.733292 124.0
187.90329 184.0
187.94606 132.0
188.078766 1560.0
188.60968 56.0
188.708099 40.0
188.970657 136.0
189.081406 176.0
189.255295 56.0
189.282684 104.0
189.35936 44.0
189.385269 96.0
189.937683 104.0
190.00351 104.0
190.55809 84.0
190.613052 96.0
191.43277 144.0
194.071609 148.0
194.740402 108.0
195.196152 132.0
197.94751 104.0
198.104355 192.0
198.648178 84.0
198.673431 204.0
198.693069 76.0
199.06926 140.0
199.111298 164.0
199.20961 80.0
200.233429 144.0
200.526428 140.0
201.058472 320.0
201.096512 216.0
201.146957 128.0
201.816498 120.0
201.856079 52.0
202.008804 172.0
202.064255 1268.0
203.031281 144.0
203.069687 780.0
203.44838 112.0
203.525024 140.0
203.735199 104.0
204.06926 140.0
204.292374 88.0
205.543121 192.0
207.895309 156.0
207.944092 80.0
208.573105 128.0
208.820374 236.0
209.033249 48.0
209.099792 164.0
209.908936 136.0
210.266647 140.0
211.075516 132.0
211.130447 284.0
211.943863 180.0
212.045288 152.0
212.883698 188.0
213.065216 1540.0
213.090149 488.0
213.834335 64.0
214.067688 140.0
214.43721 152.0
214.740417 244.0
214.763748 148.0
214.889572 152.0
214.985474 192.0
215.004547 148.0
215.071075 14484.0
215.157684 144.0
215.192719 104.0
215.223373 88.0
215.24736 56.0
215.312439 32.0
215.33873 140.0
215.481857 64.0
215.601669 56.0
215.62796 80.0
215.683502 64.0
215.794586 148.0
216.01976 96.0
216.075287 2512.0
216.142639 188.0
216.36647 76.0
216.411926 48.0
216.55542 48.0
216.611069 92.0
216.631577 32.0
216.763412 72.0
217.074112 472.0
217.153305 80.0
217.231613 144.0
217.837204 88.0
218.056366 164.0
218.169281 52.0
221.130753 168.0
221.539368 160.0
221.563065 56.0
221.693436 236.0
222.072922 88.0
223.061661 192.0
223.103287 88.0
225.087555 152.0
225.580505 232.0
226.088974 140.0
226.136856 152.0
226.571045 160.0
227.069153 328.0
227.10968 336.0
227.665833 160.0
227.797989 96.0
228.075195 376.0
228.110489 164.0
228.859589 96.0
229.089554 408.0
229.227066 56.0
229.507401 40.0
229.570724 108.0
230.085297 192.0
230.43399 60.0
230.606232 52.0
230.772491 112.0
233.088181 176.0
233.897156 104.0
233.994568 108.0
237.104126 72.0
239.070633 200.0
239.106476 140.0
240.073807 92.0
240.153992 60.0
240.302063 88.0
241.08342 176.0
241.122757 108.0
241.194534 136.0
242.079361 232.0
242.116516 144.0
242.835526 92.0
243.064819 1756.0
243.54628 216.0
243.987534 116.0
244.068542 224.0
244.102585 224.0
245.074783 140.0
245.204605 124.0
245.67543 80.0
245.834549 140.0
245.928177 184.0
248.152328 152.0
249.087509 152.0
250.122009 160.0
250.392792 300.0
251.919388 148.0
252.140564 140.0
252.289124 64.0
253.121841 164.0
253.29541 176.0
254.779999 152.0
255.101242 544.0
255.431671 36.0
255.72757 128.0
256.097504 1288.0
256.135132 232.0
257.072449 156.0
257.10437 148.0
257.605652 176.0
257.659943 140.0
258.086029 244.0
258.264099 204.0
258.635254 184.0
260.094604 416.0
260.662109 32.0
261.080566 232.0
263.019531 84.0
263.087341 188.0
263.9823 56.0
265.087708 100.0
267.082764 96.0
267.522064 128.0
268.075745 124.0
269.609497 128.0
270.122803 124.0
270.158783 192.0
270.882233 156.0
271.023102 128.0
272.092468 936.0
272.144836 172.0
273.091095 164.0
273.285339 116.0
273.367615 68.0
273.736298 36.0
274.090576 120.0
275.107849 104.0
279.45929 52.0
280.038513 124.0
280.268372 180.0
280.855103 116.0
282.140717 168.0
282.431641 92.0
283.095703 972.0
284.093536 1772.0
285.095276 480.0
285.719025 36.0
286.093323 236.0
286.129608 188.0
286.176758 224.0
288.802185 48.0
290.119385 148.0
291.354645 56.0
291.779449 148.0
294.114807 184.0
294.420166 168.0
295.103577 100.0
296.023987 156.0
297.014435 196.0
297.093353 92.0
297.120789 212.0
297.941284 172.0
298.144073 3260.0
298.260864 72.0
298.394928 92.0
298.508392 92.0
298.704437 84.0
298.859222 56.0
298.979675 48.0
299.058838 120.0
299.148499 596.0
299.647675 56.0
300.151398 244.0
300.368164 100.0
300.582062 84.0
300.847809 120.0
301.034241 108.0
301.096405 124.0
301.338196 36.0
302.704437 128.0
304.750916 48.0
308.128418 280.0
309.8797 124.0
309.988342 60.0
311.542633 168.0
311.640991 100.0
312.646667 112.0
313.047974 132.0
314.408691 52.0
315.136108 144.0
316.1297 152.0
317.539673 196.0
318.115417 152.0
319.123413 152.0
319.603577 84.0
320.433136 120.0
320.928558 56.0
322.434937 128.0
322.720917 124.0
323.157257 172.0
323.715637 168.0
323.996582 172.0
324.116821 168.0
324.711884 128.0
325.153168 148.0
325.346985 132.0
325.48407 160.0
325.666565 108.0
325.821045 156.0
325.896484 128.0
326.078003 124.0
326.139404 5696.0
326.263062 40.0
326.345764 84.0
326.471619 56.0
326.569763 80.0
326.626251 76.0
326.676605 44.0
326.888885 64.0
327.140594 1296.0
327.238037 76.0
327.331635 48.0
327.48291 64.0
327.771088 96.0
327.806366 56.0
328.142151 228.0
328.232483 96.0
328.492157 56.0
328.885437 88.0
329.145386 192.0
329.315094 56.0
329.499329 132.0
330.05954 44.0
331.03653 96.0
334.409149 128.0
336.118927 160.0
336.26059 36.0
340.97406 104.0
341.768372 52.0
349.832794 256.0
350.03009 76.0
350.909424 88.0
353.147522 184.0
353.38562 172.0
354.135925 1492.0
354.182983 48.0
354.928772 84.0
355.139771 104.0
356.142731 116.0
357.257294 128.0
361.823639 52.0
368.112457 60.0
369.62616 120.0
371.085449 72.0
371.161407 884.0
371.284851 196.0
371.634491 80.0
372.16571 272.0
374.259064 116.0
374.355316 132.0
374.440033 96.0
374.779022 88.0
378.560608 120.0
402.642426 64.0
403.569489 80.0
408.59082 128.0
413.643158 76.0
414.663849 120.0
427.001923 56.0
427.112976 216.0
428.108948 148.0
447.859192 72.0
454.390259 144.0
458.987976 52.0
478.393616 84.0
522.542053 104.0
535.671631 68.0
537.866516 48.0
538.619141 20.0
549.374573 148.0
551.854431 88.0
551.891846 124.0
582.77832 64.0
583.907959 84.0
585.59729 116.0
651.028992 76.0
651.2677 64.0
665.274231 76.0
751.241882 160.0
765.915955 112.0
792.409058 88.0
800.176208 168.0
830.608215 184.0
832.599792 28.0
852.315369 92.0
854.466553 44.0
868.298462 216.0
892.610962 40.0
911.698059 132.0
921.918457 36.0
949.833801 96.0
965.37854 232.0
966.331116 124.0
968.918945 144.0
972.031372 192.0
978.302368 76.0
980.438721 180.0
983.681946 192.0
994.635986 136.0
1005.505554 132.0
1011.832764 88.0
1012.149292 80.0
1022.770142 60.0
1026.803101 208.0
1029.860229 120.0
1032.026489 224.0
1040.053345 188.0
1094.621216 184.0
1102.087891 224.0
1102.444702 160.0
1103.211304 156.0
1118.88147 144.0
1120.112549 92.0
1120.40564 216.0
1135.666138 176.0
1137.390503 228.0
1141.582642 68.0
1144.684814 160.0
1168.516602 184.0
1172.356812 124.0
1176.694824 156.0
1177.51416 188.0
1179.611816 40.0
1182.053345 48.0
1194.77356 128.0
1200.497192 164.0
1209.457642 192.0
1209.727661 204.0
1211.209473 212.0
1215.021973 260.0
1221.24585 148.0
1223.549072 124.0
1224.51001 188.0
1241.695435 160.0
1242.586182 152.0
1244.235474 224.0
1249.344482 72.0
1250.160645 128.0
1251.09668 164.0
1253.364502 100.0
1262.979492 168.0
1263.327148 152.0
1265.491577 124.0
1267.36853 128.0
1270.931396 20.0
1277.584717 140.0
1279.228516 180.0
1281.699707 236.0
1283.339111 148.0
1288.070435 72.0
1288.799194 156.0
1291.329712 188.0
1295.144409 128.0
1295.208862 104.0
1299.036621 48.0
1300.155884 212.0
1311.375 208.0
1316.850952 188.0
1317.313232 104.0
1318.006836 112.0
1318.772827 208.0
1322.39624 188.0
1322.692993 220.0
1323.105591 224.0
1325.539185 48.0
1326.619019 140.0
1327.974976 204.0
1334.168701 108.0
1335.89209 84.0
1345.314331 220.0
1346.504395 168.0
1355.78064 160.0
1356.96814 128.0
1357.393433 180.0
1359.66748 192.0
1361.466064 168.0
1361.642212 76.0
1363.11145 128.0
1363.897827 76.0
1370.80835 172.0
1371.921143 164.0
1373.314819 116.0
1374.959961 136.0
1376.827759 188.0
1380.530029 156.0
1388.743042 164.0
1389.165894 232.0
1391.822754 144.0
1396.779541 80.0
1400.143677 156.0
1400.434082 192.0
1402.982422 192.0
1404.719971 80.0
1406.10022 212.0
1407.055664 220.0
1410.506836 180.0
1410.746094 132.0
1416.380493 128.0
1419.498169 200.0
1420.233154 92.0
1423.219849 116.0
1430.180908 160.0
1430.323975 216.0
1430.421875 164.0
1431.9729 156.0
1433.0802 96.0
1433.441895 220.0
1436.185913 160.0
1436.653564 188.0
1437.807983 112.0
1438.472168 136.0
1440.986938 136.0
1441.138062 36.0
1441.410034 188.0
1443.231567 196.0
1449.309326 192.0
1450.718994 176.0
1452.387207 160.0
1454.572388 132.0
1456.364258 180.0
1458.765381 252.0
1462.979614 60.0
1463.459229 184.0
1466.117554 200.0
1475.574707 32.0
1497.643921 152.0
1503.263916 204.0
