>compound MLS001142740-01!7-[2-[(4aS,8aS)-4a-hydroxy-1,3,4,5,6,7,8,8a-octahydroisoquinolin-2-yl]-2-oxoethoxy]-6-chloro-4-methylchromen-2-one
>formula C21H24ClNO5
>ionization [M+H]+
>parentmass 406.142
#inchi InChI=1S/C21H24ClNO5/c1-13-8-20(25)28-17-10-18(16(22)9-15(13)17)27-12-19(24)23-7-6-21(26)5-3-2-4-14(21)11-23/h8-10,14,26H,2-7,11-12H2,1H3/t14-,21-/m0/s1
#inchikey BTQSOPJJNTXHCY
#Ion_Source LC-ESI
#Instrument qTof
#Compound_Source NIH Natural Product Library
#PI Dorrestein
#Data_Collector VVP/LMS
#Scan -1
#Precursor_MZ 406.142
#ExactMass 405.134
#Charge 1
#CAS_Number N/A
#Pubmed_ID N/A
#Smiles Cc1cc(=O)oc2cc(OCC(=O)N3CC[C@@]4(O)CCCC[C@H]4C3)c(Cl)cc12
#INCHI_AUX N/A
#Library_Class 3
#SpectrumID CCMSLIB00000079672
#IonMode Positive
#UpdateWorkflowName UPDATE-SINGLE-ANNOTATED-BRONZE
#LibraryQualityString Bronze
#TaskID b1d8e8f6646f4e71acdff9ca3d919d08
##Scan# 2013
#SpectrumFile p1-F09_GF9_01_17941.mzXML
#LibraryName NIH_Natural_Products_Library.mgf
#MQScore -1
#Organism NIH_Natural_Products_Library
#TIC_Query 0
#RT_Query -1
#MZErrorPPM -1
#SharedPeaks 0
#MassDiff 0
#LibMZ -1
#SpecMZ 406.142
#SpecCharge 0
#internalFilename spec-00000.mgf

>collision 10
95.071732 196.0
96.216248 204.0
97.089699 188.0
101.150841 184.0
103.204918 128.0
105.071632 528.0
106.590683 60.0
107.082832 160.0
107.41214 160.0
108.0811 1264.0
109.05204 156.0
109.068672 232.0
109.087738 596.0
109.160149 40.0
109.549355 52.0
109.903778 164.0
112.071838 136.0
117.384003 124.0
118.263283 92.0
118.577332 140.0
118.592506 72.0
119.095886 172.0
120.096077 164.0
121.098755 324.0
121.39402 112.0
122.09613 1096.0
122.268356 84.0
123.059708 144.0
123.101662 140.0
123.508316 216.0
124.132759 176.0
125.085991 156.0
125.435715 132.0
125.79039 44.0
126.08522 136.0
127.87719 164.0
129.213074 116.0
130.060593 92.0
130.496765 104.0
130.539963 144.0
131.049026 168.0
131.264099 224.0
131.809662 204.0
132.063416 188.0
132.081711 152.0
133.067123 188.0
136.079391 144.0
136.1129 1404.0
136.740311 116.0
136.984802 136.0
137.008087 204.0
137.118027 2700.0
137.231827 60.0
137.264481 48.0
137.647156 84.0
137.726562 140.0
138.026749 252.0
138.124603 732.0
138.243256 24.0
138.913345 44.0
139.004837 192.0
139.030655 148.0
139.126083 140.0
143.797256 212.0
144.265411 128.0
145.847504 148.0
148.164108 132.0
150.090164 640.0
150.12738 944.0
150.193924 48.0
150.32811 88.0
151.094757 136.0
151.135468 472.0
151.288666 132.0
151.362122 160.0
152.185974 148.0
152.896393 64.0
154.123978 176.0
156.455826 76.0
159.035553 128.0
164.107727 368.0
164.393494 144.0
164.66922 128.0
165.004944 272.0
166.012802 132.0
166.669952 168.0
167.026276 260.0
169.016388 160.0
178.123184 212.0
179.090469 164.0
179.129532 2344.0
179.165054 340.0
180.128738 368.0
181.40181 72.0
182.010834 136.0
183.129944 140.0
184.146378 188.0
188.039749 144.0
192.997681 396.0
194.006073 136.0
195.015564 364.0
197.484009 64.0
210.019791 108.0
211.011917 320.0
212.023407 84.0
212.768875 176.0
213.018616 164.0
214.01033 136.0
220.993134 88.0
223.012482 492.0
223.069107 48.0
224.025726 232.0
225.014908 108.0
225.656784 84.0
229.729172 68.0
239.961533 64.0
251.01001 596.0
264.071899 208.0
268.035828 248.0
270.0336 148.0
271.120544 148.0
282.029694 176.0
287.085876 148.0
308.381714 148.0
309.089233 228.0
319.486053 68.0
320.882111 208.0
325.551636 156.0
338.124695 40.0
341.279419 200.0
342.103546 108.0
344.26416 180.0
347.781311 40.0
349.107635 100.0
349.568939 72.0
359.273285 68.0
360.124451 484.0
373.536407 144.0
387.861511 140.0
388.12442 496.0
389.127655 384.0
390.139008 108.0
391.157135 184.0
391.45636 116.0
403.151215 48.0
418.883118 56.0
563.865295 120.0
609.255066 140.0
640.733215 192.0
788.492981 124.0
850.47113 132.0
941.124451 128.0
979.541626 188.0
983.881897 252.0
984.468872 76.0
987.568726 96.0
1053.067871 180.0
1066.889282 116.0
1096.317749 244.0
1117.074829 92.0
1153.52832 140.0
1154.400391 108.0
1169.590942 172.0
1200.469727 160.0
1215.820557 88.0
1241.282104 148.0
1246.786743 204.0
1266.024902 128.0
1279.857666 204.0
1314.133423 68.0
1314.90564 184.0
1325.586914 196.0
1351.714478 180.0
1362.970093 152.0
1369.480713 132.0
1373.232178 160.0
1404.980591 156.0
1431.288086 152.0
1447.076172 20.0
1450.318359 204.0
1490.699585 224.0
1493.821045 152.0
