>compound MLS000069434-01!(RS)-(+/-)-SULPIRIDE15676-16-1
>formula C15H23N3O4S
>ionization [M+H]+
>parentmass 342.146301
#inchi InChI=1S/C15H23N3O4S/c1-3-18-8-4-5-11(18)10-17-15(19)13-9-12(23(16,20)21)6-7-14(13)22-2/h6-7,9,11H,3-5,8,10H2,1-2H3,(H,17,19)(H2,16,20,21)
#inchikey BGRJTUBHPOOWDU
#Ion_Source LC-ESI
#Instrument qTof
#Compound_Source NIH Pharmacologically Active Library
#PI Dorrestein
#Data_Collector VP/LMS
#Scan -1
#Precursor_MZ 342.149
#ExactMass 341.141
#Charge 1
#CAS_Number N/A
#Pubmed_ID N/A
#Smiles CCN1CCCC1CNC(=O)c2cc(ccc2OC)S(=O)(=O)N
#INCHI_AUX N/A
#Library_Class 1
#SpectrumID CCMSLIB00000084987
#IonMode Positive
#UpdateWorkflowName UPDATE-SINGLE-ANNOTATED-GOLD
#LibraryQualityString Gold
#TaskID d252d724072548979f1f6f1ced849daf
##Scan# 1156
#SpectrumFile p3-D06_GD6_01_18263.mzXML
#LibraryName Pharm_Active_Library.mgf
#MQScore -1
#Organism Pharm_Active_Library
#TIC_Query 0
#RT_Query -1
#MZErrorPPM -1
#SharedPeaks 0
#MassDiff 0
#LibMZ -1
#SpecMZ 342.149
#SpecCharge 0
#internalFilename spec-00000.mgf

>collision 10
45.298687 160.0
45.322803 156.0
45.464954 152.0
46.00824 152.0
46.357758 180.0
47.026913 164.0
47.455109 184.0
48.049294 212.0
48.238499 208.0
48.495968 172.0
49.068722 236.0
49.737442 236.0
49.766922 132.0
49.796413 192.0
50.176369 76.0
50.238422 124.0
50.355583 104.0
50.438953 28.0
50.540783 204.0
50.804317 192.0
50.853985 148.0
51.340576 156.0
51.510429 120.0
51.760723 248.0
52.695702 256.0
52.846073 196.0
53.137306 148.0
54.695225 140.0
54.801262 124.0
54.851372 80.0
55.269341 180.0
55.473732 44.0
55.792915 184.0
56.039986 164.0
56.051907 112.0
56.392178 192.0
56.589645 168.0
56.715488 172.0
57.00666 40.0
57.223267 172.0
57.277485 192.0
57.89373 88.0
58.12112 132.0
58.239536 140.0
58.423477 140.0
58.526974 76.0
58.813595 100.0
58.944939 176.0
59.496819 184.0
59.568531 84.0
59.786869 64.0
59.819191 112.0
60.101238 40.0
60.799168 52.0
60.820896 116.0
60.982437 184.0
61.019749 176.0
61.462109 248.0
61.496441 100.0
61.65575 204.0
62.235371 176.0
62.581295 140.0
62.912388 148.0
63.095654 224.0
63.264935 184.0
63.320354 100.0
63.558151 176.0
63.896591 180.0
63.917274 144.0
64.022339 208.0
64.309326 76.0
65.076157 180.0
65.326874 324.0
65.779709 200.0
66.542236 108.0
66.639687 148.0
66.8283 164.0
66.922707 128.0
66.937363 152.0
67.23243 184.0
67.721291 168.0
68.251381 136.0
68.358299 120.0
68.434021 196.0
68.648239 188.0
68.768677 184.0
69.175316 48.0
69.2929 136.0
69.430481 140.0
69.45536 108.0
70.54277 196.0
70.57119 188.0
70.952934 208.0
71.455109 208.0
72.019852 136.0
72.4021 244.0
72.858391 48.0
73.48494 176.0
73.573692 124.0
73.771866 244.0
74.27018 84.0
74.311348 168.0
75.460182 52.0
75.912125 220.0
75.957222 248.0
76.012741 48.0
76.156837 156.0
76.381073 56.0
76.793892 140.0
77.619362 164.0
78.05661 228.0
78.262489 228.0
78.324127 180.0
78.57975 188.0
78.600922 260.0
78.627396 172.0
78.782784 252.0
78.839325 60.0
79.226837 76.0
80.282669 140.0
81.805695 196.0
81.85791 156.0
82.364716 200.0
82.635895 112.0
83.615814 232.0
84.310684 52.0
85.035957 80.0
86.155548 48.0
86.492111 100.0
86.562469 200.0
86.610619 60.0
86.640259 28.0
86.723648 104.0
87.410812 148.0
87.719986 52.0
87.779655 124.0
87.826279 152.0
88.656418 196.0
90.037323 152.0
90.498734 152.0
90.585854 164.0
91.853798 100.0
92.1306 168.0
92.631821 160.0
93.73658 168.0
94.625107 188.0
94.977806 196.0
95.056923 180.0
95.191299 184.0
95.237907 176.0
95.755287 96.0
96.412773 116.0
96.504646 196.0
96.837326 180.0
97.088196 96.0
97.616463 128.0
98.095871 2180.0
98.263176 236.0
99.097855 416.0
99.301086 72.0
99.416161 180.0
99.668358 68.0
99.710091 60.0
100.050232 160.0
100.102005 176.0
100.584496 136.0
101.254318 148.0
101.418617 212.0
101.912308 136.0
102.059036 156.0
102.344765 96.0
102.528076 168.0
102.790245 120.0
102.854828 172.0
103.076988 156.0
104.022835 144.0
104.246254 132.0
105.034187 144.0
105.054588 188.0
105.18927 148.0
105.647034 172.0
106.036674 224.0
106.200111 132.0
106.690903 204.0
106.752586 196.0
106.983032 176.0
107.011856 152.0
107.03801 632.0
108.018982 272.0
108.042786 836.0
108.346069 180.0
108.397873 152.0
109.026672 152.0
109.04953 220.0
109.120209 112.0
109.276199 112.0
110.000648 172.0
110.013985 236.0
110.094643 524.0
110.312714 136.0
110.714447 148.0
110.915588 236.0
111.095932 140.0
111.58107 116.0
111.89666 68.0
111.92614 152.0
112.001961 224.0
112.023026 88.0
112.037766 188.0
112.065788 160.0
112.111877 20928.0
112.155777 92.0
112.240105 76.0
112.26963 32.0
112.345566 40.0
112.414139 40.0
112.45433 104.0
112.613647 84.0
112.653786 104.0
112.780571 96.0
112.806961 124.0
113.011086 32.0
113.06002 64.0
113.115326 2056.0
113.345642 52.0
113.419815 36.0
113.519463 36.0
113.763466 120.0
113.878136 100.0
113.937614 124.0
113.973732 108.0
114.035362 64.0
114.12252 200.0
114.203331 208.0
114.865791 100.0
114.959671 128.0
115.602913 180.0
115.868423 180.0
116.265121 160.0
116.675392 120.0
117.601677 68.0
119.030548 208.0
120.721596 56.0
121.060799 108.0
122.065865 220.0
122.847755 44.0
123.00444 48.0
124.757889 236.0
124.963554 180.0
124.983582 84.0
125.010284 140.0
126.503487 168.0
127.122101 196.0
127.99205 76.0
129.519699 168.0
133.027771 500.0
133.172928 116.0
133.501587 148.0
133.713242 200.0
133.955002 188.0
134.031876 220.0
134.063293 224.0
134.077972 164.0
134.857239 88.0
135.023697 184.0
135.04512 212.0
135.419479 156.0
135.688095 256.0
136.326614 132.0
137.057297 180.0
137.99794 156.0
138.201431 136.0
138.979584 148.0
139.012207 180.0
139.211746 48.0
139.917145 200.0
139.992935 192.0
140.322372 40.0
140.688065 152.0
140.983307 148.0
141.002228 180.0
141.233932 172.0
141.534485 128.0
141.650543 136.0
141.844849 152.0
141.899384 164.0
142.082001 168.0
142.604416 208.0
142.74469 40.0
142.911194 188.0
143.797684 164.0
144.024521 248.0
144.055573 152.0
144.383026 144.0
144.445221 200.0
144.684525 192.0
145.082214 140.0
145.374847 112.0
145.394043 188.0
145.672577 124.0
146.035538 148.0
146.189514 160.0
146.642288 124.0
147.049896 164.0
147.433899 112.0
148.264755 232.0
149.05513 40.0
149.480667 144.0
150.001877 88.0
150.055511 160.0
150.946747 140.0
151.04213 136.0
152.135071 220.0
152.436005 168.0
153.544998 168.0
154.290726 184.0
155.152283 92.0
155.206833 136.0
156.207718 116.0
157.012253 152.0
157.184372 192.0
157.618866 140.0
157.931381 288.0
158.66008 208.0
158.920929 144.0
159.076523 164.0
159.825485 108.0
161.791641 128.0
161.910645 264.0
163.20993 144.0
163.311661 220.0
163.629761 168.0
163.647583 104.0
164.539932 192.0
165.619095 132.0
165.880463 156.0
166.025986 552.0
166.311401 184.0
166.460312 84.0
166.766037 144.0
166.784027 164.0
169.252991 184.0
170.99968 696.0
171.062607 44.0
171.693161 108.0
172.805954 156.0
173.004852 108.0
173.694046 132.0
174.01947 204.0
174.581802 172.0
174.721207 48.0
174.876465 136.0
175.005463 112.0
175.748428 196.0
176.44339 140.0
176.940781 180.0
177.274521 144.0
177.969513 120.0
178.001373 220.0
179.083786 160.0
179.129074 56.0
179.966492 208.0
180.062637 176.0
180.359207 104.0
180.910263 188.0
181.194153 160.0
181.730377 152.0
181.851135 56.0
181.993423 56.0
182.017578 156.0
182.818665 180.0
182.953247 152.0
183.589142 88.0
183.807648 136.0
183.980392 164.0
184.014496 900.0
184.804718 60.0
184.918365 144.0
185.016525 184.0
185.227051 112.0
185.473633 148.0
186.26326 180.0
186.363785 100.0
186.406586 164.0
187.021896 116.0
187.479462 216.0
188.035812 96.0
189.104477 116.0
190.05542 168.0
190.47821 80.0
191.413315 112.0
193.226761 172.0
193.481384 204.0
193.786041 48.0
194.063202 204.0
196.516403 152.0
197.127914 96.0
197.329178 152.0
197.480179 80.0
197.690002 204.0
197.799164 152.0
197.838348 200.0
197.883148 224.0
198.763275 100.0
198.98999 152.0
199.642532 180.0
199.943558 164.0
199.980148 136.0
200.025177 124.0
200.503616 144.0
200.980591 80.0
201.206375 112.0
202.003326 160.0
202.079712 140.0
202.410873 188.0
202.920898 148.0
203.003128 48.0
203.738266 140.0
205.052902 148.0
206.048798 188.0
206.486145 148.0
206.540497 184.0
207.038498 124.0
207.141617 152.0
207.402374 144.0
208.199997 52.0
208.383835 188.0
210.02475 144.0
211.035522 112.0
211.371048 164.0
211.562073 96.0
212.000534 164.0
212.035629 164.0
212.179153 192.0
212.260345 192.0
212.533005 184.0
212.654892 164.0
213.195084 80.0
213.328796 172.0
213.375305 56.0
213.456726 60.0
213.488708 56.0
213.546875 84.0
213.642868 164.0
213.785965 220.0
213.827652 172.0
213.872757 140.0
213.91243 292.0
214.016388 28804.0
214.139954 188.0
214.184311 112.0
214.229141 72.0
214.268799 36.0
214.292099 104.0
214.367859 60.0
214.413223 64.0
214.434891 32.0
214.493195 108.0
214.548584 68.0
214.57016 220.0
214.641876 216.0
214.678406 84.0
214.791519 104.0
214.831467 156.0
214.888596 164.0
214.927734 56.0
215.019623 3968.0
215.066406 80.0
215.126205 64.0
215.394867 84.0
215.505875 68.0
215.754303 56.0
215.792084 52.0
215.856644 40.0
215.886169 80.0
215.941452 200.0
216.011368 1156.0
216.052612 108.0
216.1082 112.0
216.18721 48.0
216.286713 96.0
216.313065 96.0
216.408005 152.0
216.47702 140.0
216.52095 56.0
216.578552 132.0
216.661545 136.0
216.95755 140.0
217.002808 128.0
217.104156 40.0
217.376968 60.0
217.632355 108.0
217.717514 44.0
217.820312 36.0
218.264099 132.0
218.711273 84.0
219.00148 292.0
220.531174 56.0
222.501099 40.0
222.955566 100.0
223.583084 120.0
224.179779 56.0
224.390335 72.0
225.288651 124.0
225.357361 92.0
225.623367 64.0
227.633865 88.0
228.649994 36.0
228.903503 76.0
230.006332 124.0
230.359634 156.0
230.921844 76.0
231.037125 112.0
234.376602 132.0
236.652176 136.0
239.89035 104.0
240.933426 140.0
245.062973 168.0
246.513947 84.0
246.817169 216.0
252.073029 100.0
254.467651 228.0
264.946045 164.0
266.685364 60.0
268.059662 116.0
269.099304 128.0
270.862 120.0
274.295898 168.0
275.457458 56.0
277.167908 156.0
279.096466 92.0
280.051575 120.0
284.599731 124.0
284.757568 176.0
285.092102 388.0
286.101166 188.0
287.487946 48.0
287.525055 68.0
295.459503 88.0
297.08316 572.0
297.979431 56.0
298.082489 160.0
298.134033 92.0
298.519073 84.0
298.54657 72.0
303.241943 132.0
306.756134 196.0
312.387146 200.0
313.112244 208.0
315.257202 128.0
324.141235 220.0
325.130829 192.0
327.484314 52.0
330.23465 180.0
331.367706 192.0
334.9133 136.0
337.200989 60.0
339.485474 180.0
339.764252 88.0
340.1315 436.0
340.443298 40.0
341.156097 120.0
341.582672 72.0
341.693054 56.0
341.785034 96.0
341.843903 160.0
341.983337 136.0
342.086426 212.0
342.146301 7952.0
342.236053 68.0
342.27829 52.0
342.392426 64.0
342.519562 248.0
342.54715 120.0
342.849274 44.0
342.897186 56.0
343.093414 168.0
343.148071 1768.0
344.051727 40.0
344.135681 400.0
344.35083 60.0
344.561401 52.0
344.823761 56.0
345.078827 84.0
345.137207 224.0
345.322906 128.0
346.392609 84.0
354.901215 112.0
362.902374 56.0
366.311401 152.0
366.810577 144.0
385.379089 48.0
400.130676 100.0
431.221069 84.0
448.801147 144.0
459.587769 44.0
470.377289 80.0
472.455902 76.0
478.740997 100.0
478.941345 84.0
483.307037 52.0
498.760742 96.0
521.02887 72.0
530.732361 132.0
547.023132 60.0
566.464966 72.0
589.097839 108.0
638.039307 56.0
658.067688 92.0
661.651672 144.0
665.948914 108.0
726.089661 148.0
782.403259 72.0
797.141785 28.0
879.908997 92.0
885.319397 132.0
907.816528 68.0
945.690125 168.0
945.732971 80.0
951.403198 40.0
991.613403 96.0
994.630432 148.0
1021.35968 140.0
1021.855896 212.0
1047.708862 152.0
1054.923828 176.0
1060.030518 184.0
1075.281006 152.0
1080.901245 156.0
1099.202148 140.0
1113.568237 136.0
1118.987915 244.0
1119.507202 144.0
1127.192139 156.0
1129.144165 104.0
1130.421997 72.0
1137.338623 172.0
1144.336792 224.0
1145.8927 152.0
1148.852295 152.0
1155.013184 216.0
1158.7771 204.0
1163.395752 156.0
1168.302368 156.0
1172.605835 60.0
1173.335205 200.0
1173.901123 40.0
1174.883423 100.0
1176.924072 112.0
1191.032104 224.0
1214.521851 188.0
1217.207642 216.0
1228.273682 160.0
1230.395142 200.0
1233.119385 156.0
1234.321899 64.0
1239.564941 152.0
1244.046753 264.0
1246.111572 208.0
1248.592896 144.0
1269.199463 116.0
1269.859009 104.0
1270.412354 172.0
1271.40564 180.0
1275.638916 148.0
1287.902466 52.0
1290.646729 48.0
1294.217285 236.0
1297.341064 196.0
1299.270264 180.0
1299.858521 132.0
1300.06665 164.0
1301.437744 184.0
1316.263916 92.0
1321.967407 152.0
1327.900879 144.0
1331.115845 152.0
1337.302734 72.0
1337.848755 48.0
1339.807739 160.0
1342.016113 100.0
1343.803101 184.0
1346.197266 140.0
1346.876587 160.0
1350.443481 192.0
1355.663574 228.0
1356.89502 160.0
1364.148315 216.0
1369.52002 160.0
1370.661865 164.0
1375.072021 196.0
1375.728882 168.0
1378.905151 268.0
1385.550171 152.0
1392.025513 220.0
1395.644287 232.0
1404.282837 184.0
1411.676636 120.0
1412.559204 124.0
1413.838623 232.0
1414.4823 164.0
1418.362549 64.0
1418.782349 192.0
1419.314697 136.0
1423.006226 188.0
1424.951538 232.0
1436.138062 140.0
1437.081055 140.0
1438.084839 168.0
1451.119019 172.0
1451.414795 204.0
1458.47522 172.0
1458.672852 68.0
1466.025391 168.0
1466.383545 84.0
1472.189453 188.0
1472.861572 180.0
1476.232056 204.0
1479.453247 180.0
1479.506836 108.0
1480.019897 180.0
1481.865845 256.0
1488.76709 168.0
1495.650757 176.0
1497.983887 188.0
1500.619629 92.0
1501.768677 152.0
1502.509277 192.0
1503.93689 176.0
