>compound Griseofulvin
>formula C17H17ClO6 
>ionization [M+H]+
>parentmass 353.080292
#inchi InChI=1S/C17H17ClO6/c1-8-5-9(19)6-12(23-4)17(8)16(20)13-10(21-2)7-11(22-3)14(18)15(13)24-17/h6-8H,5H2,1-4H3/t8-,17+/m1/s1
#inchikey DDUHZTYCFQRHIY
#Ion_Source LC-ESI
#Instrument qTof
#Compound_Source Commercial
#PI Dorrestein
#Data_Collector Garg_Neha
#Scan -1
#Precursor_MZ 353.081
#ExactMass 352.071
#Charge 1
#CAS_Number N/A
#Pubmed_ID N/A
#Smiles N/A
#INCHI_AUX N/A
#Library_Class 1
#SpectrumID CCMSLIB00000077082
#IonMode Positive
#UpdateWorkflowName UPDATE-SINGLE-ANNOTATED-GOLD
#LibraryQualityString Gold
#TaskID 48f7f52fc6d249b5abbcc6e7b3df5969
##Scan# 1398
#SpectrumFile NCP003106_A2_B11_BB2_01_15705.mzXML
#LibraryName NIH_Clinical_Collection_2.mgf
#MQScore -1
#Organism NIHcollection2_04212014_2_mgf
#TIC_Query 0
#RT_Query -1
#MZErrorPPM -1
#SharedPeaks 0
#MassDiff 0
#LibMZ -1
#SpecMZ 353.081
#SpecCharge 0
#internalFilename spec-00000.mgf

>collision 10
45.234211 176.0
48.827469 164.0
51.661503 144.0
52.337498 148.0
53.91267 176.0
56.505177 148.0
57.495426 148.0
58.31023 148.0
58.967117 156.0
61.361439 176.0
62.157581 152.0
63.425598 244.0
64.455299 196.0
68.9608 152.0
70.581703 180.0
71.69973 188.0
71.797516 148.0
73.379608 144.0
78.708878 156.0
79.677719 172.0
81.681732 160.0
84.301682 160.0
85.239853 108.0
86.566254 220.0
88.840195 156.0
89.195107 160.0
93.013344 152.0
93.04406 184.0
94.000664 176.0
96.084572 148.0
99.043297 356.0
100.008179 172.0
101.775429 192.0
107.047813 448.0
109.03035 156.0
109.777718 168.0
111.366196 148.0
114.935577 176.0
114.993202 148.0
115.471779 192.0
115.889214 216.0
115.955643 176.0
116.180786 148.0
119.045036 148.0
119.399269 180.0
120.227119 184.0
122.035179 236.0
124.733635 180.0
124.980492 164.0
125.058281 172.0
126.598869 168.0
126.988823 196.0
128.974731 276.0
130.134613 152.0
130.668732 148.0
130.969147 148.0
133.066238 192.0
134.030579 148.0
135.038788 168.0
135.559677 172.0
137.06546 164.0
139.07811 232.0
139.513626 148.0
141.067154 156.0
147.04126 156.0
147.079865 196.0
150.030899 1132.0
151.038193 156.0
154.018417 200.0
156.966995 188.0
157.003113 140.0
158.744385 164.0
158.979462 200.0
159.022125 220.0
161.064682 224.0
162.068481 336.0
162.144501 220.0
165.003082 172.0
165.055054 29244.0
165.384918 120.0
166.058548 1592.0
167.0569 668.0
168.007889 176.0
169.045471 256.0
170.065079 232.0
170.868042 196.0
170.978333 416.0
171.672897 152.0
171.842438 208.0
171.990967 604.0
172.181793 208.0
173.038696 136.0
173.092529 120.0
173.178253 188.0
173.990189 324.0
175.008636 204.0
175.432816 164.0
178.060303 152.0
182.013916 168.0
182.983276 288.0
183.460129 196.0
184.718521 184.0
186.038223 156.0
187.018265 340.0
187.310867 152.0
188.022491 168.0
188.932404 164.0
188.989853 156.0
189.030899 144.0
190.062668 104.0
192.003311 148.0
193.012665 204.0
193.089203 148.0
193.390259 176.0
193.642212 204.0
195.01918 220.0
197.033997 456.0
197.295792 152.0
198.051331 160.0
199.510498 144.0
199.988373 2016.0
200.990417 116.0
201.091171 132.0
201.983154 332.0
202.096756 160.0
202.25853 124.0
202.501572 148.0
202.984085 336.0
203.10675 172.0
205.303818 152.0
207.065567 248.0
208.998047 164.0
209.03363 252.0
210.0065 184.0
211.015762 144.0
211.229202 176.0
212.082825 164.0
213.006119 140.0
213.997803 100.0
214.050537 176.0
214.111359 140.0
214.784637 140.0
215.011398 23640.0
215.069061 160.0
215.211578 176.0
215.319885 104.0
216.013733 2168.0
216.082825 180.0
216.869415 156.0
217.007538 5404.0
217.109192 148.0
217.344498 164.0
217.436447 96.0
217.647324 96.0
217.987579 144.0
218.01265 432.0
219.018341 136.0
219.990372 140.0
221.082367 184.0
221.276382 156.0
222.091309 284.0
224.022186 836.0
225.0289 144.0
226.01799 344.0
229.024536 136.0
229.055038 152.0
229.081406 168.0
229.484009 152.0
230.703705 140.0
230.746033 148.0
232.539307 148.0
235.021912 164.0
235.071335 148.0
237.000793 148.0
240.028473 192.0
240.827774 168.0
241.031952 304.0
241.155289 204.0
242.06041 272.0
243.035034 160.0
243.059021 176.0
244.932846 128.0
250.03067 100.0
250.652222 140.0
251.008408 156.0
252.022461 196.0
252.729889 164.0
253.029602 548.0
254.029572 308.0
255.027405 232.0
257.061523 188.0
258.094971 156.0
259.0495 116.0
260.022797 212.0
260.86911 196.0
261.036285 408.0
263.016022 220.0
264.01358 448.0
264.04834 172.0
265.024872 144.0
265.061005 452.0
266.009644 428.0
267.021301 180.0
267.061432 248.0
268.013489 292.0
269.026306 188.0
269.052429 144.0
270.02829 948.0
271.016815 280.0
272.026733 452.0
273.02771 116.0
273.132294 156.0
277.027679 464.0
277.100342 148.0
278.033203 780.0
278.998688 220.0
279.046173 256.0
280.031403 172.0
281.026062 164.0
281.048645 240.0
283.036896 136.0
284.056488 172.0
284.171387 104.0
285.052673 13644.0
286.057678 1724.0
286.261749 164.0
287.050323 4360.0
287.78009 180.0
288.052429 764.0
288.792328 112.0
289.020569 144.0
290.067047 172.0
290.999969 160.0
293.056976 624.0
293.875977 156.0
294.019318 188.0
294.054138 116.0
295.061554 404.0
298.620514 176.0
298.926697 196.0
303.041168 156.0
303.250519 180.0
304.628052 140.0
305.015594 128.0
306.0289 428.0
307.975494 156.0
308.026062 212.0
310.06073 176.0
311.029694 488.0
311.069763 884.0
312.020569 184.0
312.065521 240.0
313.020416 172.0
313.064301 380.0
313.096771 176.0
317.013916 180.0
320.036774 184.0
321.052094 1856.0
322.054138 872.0
322.809326 156.0
323.046478 836.0
323.532074 212.0
324.059021 208.0
325.084045 148.0
325.518402 216.0
331.394287 208.0
335.069489 332.0
336.223785 148.0
346.260284 160.0
348.407959 180.0
349.534515 180.0
350.970642 116.0
351.550201 96.0
352.013092 156.0
352.170258 196.0
352.295135 172.0
352.320801 252.0
352.652222 224.0
352.699799 116.0
352.855347 144.0
352.995422 236.0
353.026825 144.0
353.080292 66840.0
353.192657 172.0
353.461975 152.0
353.647949 144.0
353.880463 192.0
353.955597 220.0
354.009644 192.0
354.081879 9360.0
354.155975 164.0
354.186584 204.0
354.271667 188.0
354.582825 160.0
354.981262 180.0
355.076508 17420.0
355.145752 148.0
355.230743 152.0
355.278076 312.0
355.455902 116.0
355.558563 144.0
355.618317 96.0
356.078735 1928.0
356.176208 120.0
356.3078 112.0
356.37558 300.0
356.442719 144.0
356.630066 108.0
358.424072 292.0
359.411987 140.0
362.577118 152.0
372.670471 148.0
459.292511 180.0
613.239258 168.0
837.881592 140.0
841.191772 168.0
1426.007446 184.0
1473.018066 224.0
1691.391968 180.0
1700.613037 160.0
1752.031494 144.0
1759.579102 228.0
1770.968506 212.0
1904.71814 188.0
1912.909424 156.0
1944.568726 140.0
