>compound MLS001157756-01!N-cyclopropyl-3-(7-hydroxy-4-methyl-2-oxochromen-3-yl)propanamide
>formula C16H17NO4
>ionization [M+H]+
>parentmass 288.124
#inchi InChI=1S/C16H17NO4/c1-9-12-5-4-11(18)8-14(12)21-16(20)13(9)6-7-15(19)17-10-2-3-10/h4-5,8,10,18H,2-3,6-7H2,1H3,(H,17,19)
#inchikey LETKKDJDILSMMC
#Ion_Source LC-ESI
#Instrument qTof
#Compound_Source NIH Natural Product Library
#PI Dorrestein
#Data_Collector VVP/LMS
#Scan -1
#Precursor_MZ 288.124
#ExactMass 287.116
#Charge 1
#CAS_Number N/A
#Pubmed_ID N/A
#Smiles Cc1c(CCC(=O)NC2CC2)c(=O)oc3cc(O)ccc13
#INCHI_AUX N/A
#Library_Class 1
#SpectrumID CCMSLIB00000080388
#IonMode Positive
#UpdateWorkflowName UPDATE-SINGLE-ANNOTATED-GOLD
#LibraryQualityString Gold
#TaskID b1d8e8f6646f4e71acdff9ca3d919d08
##Scan# 1630
#SpectrumFile p2-B08_GB8_01_17996.mzXML
#LibraryName NIH_Natural_Products_Library.mgf
#MQScore -1
#Organism NIH_Natural_Products_Library
#TIC_Query 0
#RT_Query -1
#MZErrorPPM -1
#SharedPeaks 0
#MassDiff 0
#LibMZ -1
#SpecMZ 288.124
#SpecCharge 0
#internalFilename spec-00000.mgf

>collision 10
95.096123 212.0
95.177658 188.0
95.340836 228.0
95.632568 124.0
95.782494 212.0
95.835098 156.0
96.008583 32.0
96.498703 104.0
96.557365 168.0
97.260757 148.0
97.300018 164.0
97.347137 196.0
97.368744 104.0
97.799324 56.0
97.925331 156.0
98.11647 108.0
98.280174 116.0
98.335426 156.0
98.443275 248.0
99.055161 140.0
99.350533 160.0
99.99234 92.0
100.205406 168.0
100.248833 252.0
100.348907 180.0
100.478546 204.0
100.530426 192.0
100.628235 116.0
100.685318 204.0
100.712105 200.0
101.068169 148.0
101.31221 84.0
101.340256 148.0
101.434448 48.0
101.703232 172.0
101.801613 148.0
101.825706 192.0
101.865883 132.0
101.956299 96.0
102.618553 176.0
102.973709 128.0
103.054932 896.0
103.29509 44.0
103.321388 132.0
103.384117 132.0
103.738571 148.0
104.012413 132.0
104.2724 248.0
104.296791 232.0
104.652802 168.0
104.901352 180.0
105.035072 208.0
105.070564 2356.0
105.262474 164.0
105.462685 132.0
105.501526 116.0
105.910782 132.0
106.002975 64.0
106.074348 160.0
106.246971 44.0
106.565193 156.0
106.882195 96.0
106.947693 156.0
107.049309 404.0
107.069168 52.0
107.592903 148.0
107.989655 120.0
108.122063 56.0
108.422356 156.0
108.798653 212.0
108.835167 144.0
108.893311 168.0
109.067841 96.0
109.404831 52.0
110.078285 132.0
110.590485 148.0
111.007393 200.0
111.637383 112.0
112.370399 100.0
112.630058 148.0
112.706116 148.0
113.05291 132.0
113.593185 196.0
114.236839 152.0
114.596634 204.0
114.624336 204.0
114.762878 208.0
115.001808 156.0
115.026619 192.0
115.055359 2196.0
115.146996 84.0
115.161942 88.0
115.208939 88.0
115.512489 128.0
115.955925 200.0
116.06456 324.0
116.146538 208.0
116.290298 116.0
116.477097 88.0
116.563034 160.0
116.773712 164.0
116.91571 160.0
116.991043 200.0
117.036255 192.0
117.070564 280.0
117.389641 64.0
117.495331 168.0
117.557907 132.0
117.819168 152.0
117.847252 184.0
118.041786 132.0
118.069374 164.0
118.242981 216.0
118.556999 184.0
118.956085 196.0
119.053452 304.0
119.087288 460.0
119.153709 204.0
119.468941 224.0
119.910965 128.0
119.963272 208.0
120.685921 196.0
120.727463 60.0
120.823708 156.0
121.181625 164.0
121.399765 120.0
121.432663 164.0
121.702583 160.0
122.012375 132.0
122.179512 192.0
122.366585 184.0
122.452461 184.0
122.481094 100.0
122.633133 160.0
122.668396 120.0
122.829369 68.0
122.950722 216.0
123.043427 100.0
123.359337 168.0
123.688934 156.0
123.837288 228.0
124.638138 132.0
125.011711 140.0
125.296722 92.0
125.385849 244.0
125.432655 152.0
125.452721 168.0
125.606583 196.0
125.700287 144.0
125.874405 160.0
125.892265 160.0
125.946449 184.0
126.051003 136.0
126.09333 148.0
126.375092 200.0
126.643723 196.0
126.740051 56.0
127.031509 212.0
127.05529 1164.0
127.343513 208.0
127.525497 168.0
127.822357 156.0
128.061752 344.0
128.514099 136.0
128.68338 140.0
129.031311 124.0
129.069702 692.0
129.173782 148.0
129.196411 212.0
129.21225 80.0
129.255234 64.0
129.594879 180.0
130.134689 180.0
130.386826 116.0
130.500488 152.0
130.812164 184.0
131.048843 432.0
131.088135 144.0
131.25415 216.0
131.514221 144.0
132.007706 168.0
132.061035 472.0
132.332626 44.0
132.401321 220.0
132.593765 196.0
133.065628 4964.0
133.142075 60.0
133.279907 76.0
133.37413 56.0
133.53508 176.0
133.789642 108.0
133.901016 132.0
134.036926 192.0
134.071899 712.0
134.548965 144.0
134.565125 204.0
135.043991 284.0
135.085114 156.0
135.168396 136.0
135.351257 184.0
135.615356 140.0
135.865799 180.0
135.942368 176.0
136.021271 64.0
136.685974 80.0
136.732513 168.0
136.790695 36.0
137.212357 64.0
137.964096 232.0
138.29158 176.0
138.593674 164.0
138.821045 96.0
139.23407 176.0
139.487823 192.0
139.748871 168.0
140.067917 208.0
140.229263 128.0
140.757706 124.0
141.017578 136.0
141.070038 476.0
141.230362 196.0
141.261124 64.0
141.455154 144.0
142.071289 124.0
142.156708 164.0
142.182816 212.0
142.555649 96.0
142.795776 136.0
143.056717 120.0
143.090836 92.0
143.221817 124.0
143.369522 60.0
143.700974 276.0
143.856094 208.0
144.011307 156.0
144.058197 1616.0
144.128372 128.0
144.305237 72.0
144.376968 132.0
144.410461 96.0
144.735916 168.0
144.764648 268.0
144.975464 148.0
145.009018 168.0
145.064941 420.0
145.095306 152.0
145.17923 156.0
145.368744 136.0
145.435944 52.0
146.072083 180.0
146.325394 164.0
146.366318 168.0
146.911011 276.0
147.022003 120.0
147.045441 840.0
147.081284 1092.0
147.16684 52.0
147.275513 88.0
147.355179 180.0
147.584839 104.0
147.964691 156.0
148.085739 176.0
148.33049 60.0
148.391098 128.0
148.420197 192.0
148.667633 152.0
149.048874 176.0
149.751938 196.0
149.851807 184.0
150.154083 212.0
150.483353 192.0
151.048035 152.0
151.763138 156.0
151.910294 76.0
152.106598 100.0
152.209717 112.0
152.254501 268.0
153.026031 44.0
153.269867 216.0
153.728531 144.0
154.01738 64.0
154.355972 72.0
154.435425 156.0
154.524155 164.0
154.737 184.0
155.063385 732.0
155.135864 216.0
155.553802 276.0
155.587372 160.0
156.61438 88.0
156.970764 192.0
157.065811 312.0
157.330048 84.0
157.444901 204.0
158.071472 236.0
158.708603 180.0
158.768784 212.0
158.906738 208.0
158.977005 76.0
159.083405 200.0
159.295868 64.0
159.331039 52.0
159.413956 76.0
159.446625 212.0
159.640198 180.0
159.745834 156.0
160.05217 960.0
160.130951 52.0
160.39299 120.0
160.430801 184.0
160.541733 148.0
160.834396 112.0
160.948013 92.0
161.001038 80.0
161.02124 168.0
161.061417 10352.0
161.1147 68.0
161.167755 68.0
161.187973 48.0
161.205658 92.0
161.273895 168.0
161.316864 140.0
161.344681 68.0
161.466049 76.0
161.483749 100.0
161.544464 52.0
161.653259 124.0
161.70134 92.0
161.878662 180.0
162.06514 2448.0
162.167358 108.0
162.228195 32.0
162.464035 180.0
162.565521 56.0
162.585831 156.0
162.715286 56.0
163.035538 48.0
163.066833 364.0
163.132767 96.0
163.192932 136.0
163.246338 48.0
163.304825 120.0
163.334305 160.0
163.39386 112.0
164.234497 176.0
164.696487 116.0
164.780792 272.0
165.166794 96.0
165.274246 176.0
165.824829 180.0
165.8479 176.0
166.165878 124.0
167.09079 136.0
167.255478 132.0
167.384201 84.0
169.073761 184.0
169.598251 232.0
169.888672 180.0
169.979477 120.0
169.99765 212.0
170.657425 132.0
171.054291 320.0
172.21579 140.0
172.414917 72.0
172.521515 144.0
172.639175 160.0
172.733337 80.0
172.801346 100.0
173.786484 168.0
174.067352 120.0
174.348434 208.0
174.458832 240.0
174.811264 100.0
174.998154 84.0
175.02449 60.0
175.045547 124.0
175.076447 1720.0
175.169342 136.0
175.393311 88.0
175.427582 132.0
175.656998 40.0
175.968399 220.0
175.992172 64.0
176.084183 180.0
176.105728 108.0
176.449249 100.0
177.08168 168.0
177.654236 160.0
177.696671 164.0
177.975357 68.0
178.025818 144.0
178.129395 100.0
178.820724 136.0
180.070862 164.0
180.223419 120.0
180.536163 192.0
180.61908 212.0
180.685959 88.0
181.789886 196.0
181.921402 200.0
182.052963 80.0
183.212234 160.0
183.532959 124.0
185.102875 144.0
185.333115 200.0
185.620438 196.0
186.524506 148.0
187.387192 200.0
187.463486 144.0
187.621567 124.0
188.380219 148.0
188.400452 196.0
188.481003 144.0
188.715012 200.0
188.798737 200.0
188.889343 168.0
188.933487 240.0
188.97522 140.0
188.999588 124.0
189.056442 59740.0
189.111694 204.0
189.160202 284.0
189.181458 44.0
189.203369 76.0
189.232315 84.0
189.259262 116.0
189.281631 68.0
189.310333 120.0
189.343018 96.0
189.382812 32.0
189.404831 84.0
189.470551 64.0
189.509109 168.0
189.568436 152.0
189.608765 80.0
189.688248 88.0
189.723877 72.0
189.763779 64.0
189.815048 96.0
189.836304 156.0
189.897736 100.0
189.987152 116.0
190.060135 7320.0
190.129837 68.0
190.149689 168.0
190.198975 92.0
190.240921 68.0
190.283554 100.0
190.3078 72.0
190.451065 48.0
190.651627 180.0
190.698349 116.0
191.06012 616.0
191.098282 92.0
191.16037 96.0
191.223663 84.0
191.263763 64.0
191.286972 80.0
191.318771 88.0
191.352356 80.0
191.361664 60.0
191.367691 88.0
191.421875 144.0
191.460434 52.0
191.507248 168.0
191.611298 260.0
191.771759 64.0
191.970139 100.0
192.04747 68.0
192.306839 44.0
192.381363 112.0
192.400681 52.0
192.494568 68.0
192.591217 96.0
192.657516 52.0
192.704483 60.0
192.823303 68.0
194.210434 108.0
195.021179 176.0
195.443893 56.0
196.499863 116.0
197.044296 196.0
197.807739 44.0
198.009338 172.0
198.031754 204.0
198.940247 108.0
199.013245 72.0
200.185623 64.0
200.292831 168.0
200.591522 116.0
201.062546 100.0
201.288376 52.0
201.536942 60.0
201.635849 64.0
201.989288 120.0
202.034546 76.0
202.626236 72.0
202.750916 84.0
202.841614 88.0
202.966354 204.0
203.026505 228.0
203.071609 10404.0
203.145401 60.0
203.173203 64.0
203.195389 224.0
203.451508 36.0
203.479904 80.0
203.502625 64.0
203.579285 80.0
203.728348 108.0
204.074188 1072.0
204.173233 96.0
204.287003 160.0
204.489029 56.0
204.679764 44.0
204.88768 36.0
205.078384 376.0
205.131531 48.0
205.169815 60.0
205.23671 60.0
205.666168 120.0
205.754654 116.0
205.797485 108.0
206.065964 40.0
206.12883 104.0
206.594864 84.0
206.746506 32.0
209.036514 72.0
210.119904 108.0
211.278397 84.0
213.732941 116.0
214.472656 36.0
215.321686 88.0
215.86525 88.0
216.930984 124.0
220.11438 64.0
221.871872 56.0
223.907288 100.0
225.183762 60.0
227.024307 116.0
228.081131 152.0
229.092194 380.0
229.719223 148.0
230.039093 76.0
231.068436 1284.0
231.114441 172.0
231.484283 80.0
231.720551 92.0
232.065979 152.0
232.569641 76.0
233.072693 176.0
233.219635 96.0
233.347321 56.0
233.834015 44.0
235.245285 92.0
239.116592 68.0
242.083374 128.0
242.588409 56.0
246.564377 52.0
246.741348 48.0
258.057434 108.0
258.54364 112.0
263.589233 100.0
266.622437 80.0
267.806702 68.0
280.613251 132.0
283.00885 112.0
285.273438 96.0
286.188507 132.0
310.284851 100.0
311.263763 76.0
316.029297 124.0
325.32782 92.0
328.877075 68.0
330.590149 112.0
342.286377 72.0
344.070892 136.0
346.111786 76.0
362.37207 72.0
370.559784 84.0
395.956848 88.0
405.855621 84.0
421.039062 104.0
430.546417 84.0
437.616455 44.0
438.23288 68.0
459.372528 68.0
466.420807 84.0
480.120026 128.0
500.733246 68.0
507.776825 80.0
518.801575 64.0
538.16394 88.0
560.695679 120.0
560.804077 80.0
579.652588 84.0
603.531494 96.0
609.870178 100.0
726.497681 156.0
736.617981 156.0
739.905884 168.0
758.125854 160.0
842.410156 100.0
845.769714 180.0
848.614075 208.0
884.680969 76.0
888.396606 136.0
928.417053 52.0
975.102844 196.0
1018.016052 20.0
1020.827942 120.0
1037.261597 120.0
1047.620239 76.0
1048.200073 88.0
1048.960571 56.0
1072.757324 80.0
1073.735352 156.0
1107.180664 72.0
1121.831299 104.0
1128.453857 156.0
1141.87854 136.0
1145.49292 152.0
1147.325928 156.0
1153.87439 188.0
1155.517822 188.0
1161.92688 60.0
1162.205078 68.0
1163.385864 164.0
1165.525269 60.0
1168.088257 180.0
1173.277344 168.0
1177.801514 92.0
1183.210571 148.0
1184.765137 168.0
1186.108276 136.0
1188.240967 148.0
1188.734985 92.0
1196.584229 196.0
1198.443848 136.0
1201.449829 160.0
1202.671143 52.0
1204.846313 164.0
1211.127319 148.0
1212.166504 96.0
1212.554565 144.0
1224.587769 168.0
1227.1521 184.0
1228.058716 128.0
1231.485596 180.0
1235.560791 92.0
1236.30249 180.0
1238.500854 132.0
1240.630981 120.0
1247.566772 160.0
1252.372803 288.0
1275.986572 156.0
1293.506958 256.0
1295.977661 144.0
1296.658447 164.0
1298.228394 168.0
1300.18689 168.0
1303.36084 160.0
1313.48291 192.0
1315.15686 220.0
1316.059204 88.0
1316.846313 204.0
1321.417236 152.0
1324.984009 132.0
1325.599854 136.0
1331.868042 84.0
1332.078735 208.0
1341.443848 76.0
1343.361694 120.0
1345.069092 160.0
1347.720093 96.0
1350.527222 216.0
1355.058472 164.0
1362.012817 148.0
1364.298096 120.0
1365.967285 168.0
1366.754517 20.0
1370.738037 276.0
1374.004272 216.0
1378.183105 176.0
1380.134399 200.0
1389.236328 212.0
1389.369873 172.0
1390.171143 168.0
1396.924805 180.0
1400.080566 132.0
1407.201538 88.0
1415.253906 196.0
1416.631958 60.0
1420.229858 204.0
1426.732666 68.0
1427.792847 172.0
1433.046997 184.0
1433.310669 104.0
1434.916016 88.0
1442.381958 228.0
1442.759888 124.0
1442.918701 108.0
1446.640625 120.0
1446.928345 180.0
1449.458008 196.0
1450.079468 200.0
1451.44397 144.0
1453.347778 228.0
1453.590576 104.0
1454.234253 108.0
1461.500488 152.0
1468.363892 160.0
1473.401733 128.0
1474.165771 120.0
1474.830688 220.0
1475.679199 168.0
1478.471069 92.0
1478.777222 132.0
1481.602783 112.0
1481.80957 280.0
1482.629395 64.0
1484.108887 164.0
1485.773193 148.0
1487.177368 164.0
1488.451782 200.0
1489.119873 116.0
1503.802002 164.0
