>compound Triamterene
>formula C12H11N7 
>ionization [M+H]+
>parentmass 254.116608
#inchi InChI=1S/C12H11N7/c13-9-7(6-4-2-1-3-5-6)16-8-10(14)18-12(15)19-11(8)17-9/h1-5H,(H6,13,14,15,17,18,19)
#inchikey FNYLWPVRPXGIIP
#Ion_Source LC-ESI
#Instrument qTof
#Compound_Source Commercial
#PI Dorrestein
#Data_Collector Garg_Neha
#Scan -1
#Precursor_MZ 254.116
#ExactMass 253.108
#Charge 1
#CAS_Number N/A
#Pubmed_ID N/A
#Smiles N/A
#INCHI_AUX N/A
#Library_Class 1
#SpectrumID CCMSLIB00000077034
#IonMode Positive
#UpdateWorkflowName UPDATE-SINGLE-ANNOTATED-GOLD
#LibraryQualityString Gold
#TaskID 48f7f52fc6d249b5abbcc6e7b3df5969
##Scan# 1036
#SpectrumFile NCP003017_A2_B11_BA6_01_15701.mzXML
#LibraryName NIH_Clinical_Collection_2.mgf
#MQScore -1
#Organism NIHcollection2_04212014_2_mgf
#TIC_Query 0
#RT_Query -1
#MZErrorPPM -1
#SharedPeaks 0
#MassDiff 0
#LibMZ -1
#SpecMZ 254.116
#SpecCharge 0
#internalFilename spec-00000.mgf

>collision 10
44.949898 176.0
45.274746 196.0
45.672024 212.0
45.723152 180.0
47.834381 172.0
47.883953 148.0
48.51405 212.0
48.896034 180.0
48.974003 216.0
49.389957 140.0
49.469719 164.0
50.213036 204.0
50.282124 132.0
50.525211 144.0
51.018745 172.0
51.823704 212.0
52.234299 184.0
53.698723 180.0
54.815857 152.0
55.543262 160.0
55.822281 148.0
56.724281 140.0
58.240807 152.0
58.389759 156.0
58.485611 168.0
58.532806 148.0
58.558697 216.0
60.586411 200.0
61.932327 188.0
61.95739 212.0
62.587208 248.0
62.799957 312.0
63.37381 164.0
63.430862 184.0
63.60059 168.0
63.801872 136.0
64.316872 156.0
64.644508 152.0
64.678123 196.0
65.548599 180.0
66.53849 140.0
66.751343 164.0
67.383766 220.0
67.403374 160.0
68.958054 156.0
69.287346 156.0
69.549355 156.0
69.943298 144.0
69.976593 148.0
71.847008 172.0
71.868942 172.0
72.487823 144.0
72.514938 144.0
72.531891 228.0
72.94268 256.0
73.465469 180.0
73.713043 216.0
76.944908 204.0
77.593994 180.0
79.600212 184.0
79.795662 168.0
80.005699 132.0
80.173027 192.0
80.651344 184.0
80.699615 176.0
82.349312 140.0
82.410736 184.0
82.458786 128.0
82.913795 216.0
83.303902 152.0
83.842476 148.0
84.845985 176.0
85.36377 156.0
88.114525 156.0
88.439903 156.0
89.342506 172.0
89.365082 188.0
89.945526 204.0
90.070152 188.0
90.645302 224.0
90.668037 192.0
90.708084 160.0
91.686699 140.0
91.970886 196.0
92.024338 172.0
92.072075 160.0
92.284187 208.0
93.023689 184.0
94.509621 168.0
95.861115 156.0
96.077538 144.0
97.066444 212.0
97.448021 156.0
98.093521 176.0
98.600792 164.0
98.830177 156.0
98.875694 200.0
99.589455 184.0
99.706673 168.0
100.15036 152.0
100.230042 224.0
100.309769 224.0
100.339668 168.0
100.48127 148.0
100.824722 140.0
101.338989 144.0
102.194321 176.0
102.574951 160.0
103.043144 196.0
103.255394 220.0
103.392967 156.0
103.508354 152.0
103.55777 160.0
103.830566 160.0
104.049156 1984.0
104.119934 124.0
104.965317 148.0
105.032623 180.0
105.051331 184.0
106.089836 140.0
106.276474 160.0
106.424255 144.0
106.615295 176.0
106.759201 168.0
106.796219 180.0
107.043182 168.0
108.278137 172.0
108.500923 188.0
109.205879 152.0
113.710732 180.0
113.850853 140.0
113.963432 156.0
114.209763 136.0
115.145714 152.0
116.053093 176.0
116.239655 160.0
116.454338 156.0
116.925186 172.0
117.276253 156.0
118.596901 164.0
118.750313 180.0
118.954803 140.0
119.402405 140.0
119.823135 156.0
120.463905 180.0
121.190247 168.0
121.819901 168.0
127.019005 140.0
127.627625 156.0
128.10025 196.0
128.594055 232.0
128.62114 160.0
129.045853 148.0
129.15892 252.0
130.194702 140.0
130.321915 144.0
131.062943 172.0
131.088745 216.0
132.367966 140.0
133.093872 204.0
133.147675 172.0
133.501587 172.0
134.046249 352.0
134.51767 212.0
134.730118 144.0
135.046387 172.0
135.539917 180.0
135.576996 156.0
136.061783 224.0
136.184845 168.0
136.512543 212.0
136.770798 160.0
136.896515 232.0
137.015305 156.0
137.50032 208.0
137.986191 168.0
138.082062 164.0
138.110123 176.0
138.182648 140.0
139.007431 160.0
139.073135 216.0
139.467743 160.0
140.515671 144.0
140.728088 152.0
140.952484 168.0
141.045273 656.0
141.446777 200.0
141.690689 180.0
142.046783 268.0
142.455887 124.0
143.060944 2912.0
143.919281 176.0
144.063095 440.0
144.165054 164.0
144.318298 180.0
145.072449 152.0
145.269089 196.0
145.321869 216.0
145.432266 176.0
145.554703 168.0
145.907898 200.0
146.061798 184.0
146.121933 164.0
147.760117 164.0
149.057312 144.0
150.062561 156.0
152.196152 200.0
153.046906 284.0
153.1689 224.0
153.956833 160.0
154.051331 152.0
154.171753 180.0
155.050308 140.0
155.253601 184.0
155.904022 172.0
156.402771 128.0
156.456207 144.0
157.496063 160.0
158.071198 452.0
159.03595 176.0
159.645142 184.0
160.018875 156.0
160.245544 196.0
162.112854 148.0
162.422165 204.0
162.500809 176.0
162.650543 180.0
162.83844 196.0
163.659821 144.0
164.141403 152.0
164.159256 176.0
164.245972 188.0
164.284241 140.0
164.989075 248.0
165.050446 168.0
165.536621 168.0
165.687744 140.0
165.774857 144.0
165.805618 204.0
166.036346 148.0
167.903488 140.0
167.924118 188.0
168.055313 5072.0
168.107285 180.0
168.67807 164.0
169.059494 472.0
169.539474 152.0
169.674744 196.0
169.902969 152.0
170.06987 144.0
170.614548 148.0
171.052017 168.0
171.0755 148.0
171.244263 148.0
171.520462 148.0
171.757736 140.0
172.739914 156.0
174.163254 140.0
174.36293 176.0
174.484146 176.0
174.931076 160.0
175.236572 140.0
175.898499 148.0
176.06749 144.0
176.096542 200.0
176.117661 168.0
176.33168 204.0
177.780319 140.0
178.210495 272.0
178.782196 164.0
179.261551 168.0
181.07283 148.0
181.217484 188.0
181.557922 156.0
181.912094 156.0
182.156448 208.0
182.766739 160.0
183.066315 1004.0
184.069778 264.0
184.392853 160.0
185.080994 1332.0
185.741226 188.0
186.012589 168.0
186.083725 188.0
187.296036 168.0
188.933929 144.0
189.092621 152.0
189.180222 148.0
189.541748 192.0
190.277542 136.0
191.820129 148.0
191.908356 172.0
192.347 232.0
192.700211 200.0
192.95752 160.0
193.049194 448.0
193.200882 148.0
194.717102 140.0
195.067062 10036.0
195.815308 148.0
195.904816 144.0
196.067795 1420.0
197.073792 164.0
197.280609 184.0
197.316956 216.0
199.000793 176.0
199.391251 176.0
201.487701 204.0
201.634628 188.0
202.18045 164.0
202.622177 164.0
203.11261 184.0
203.263641 188.0
203.632019 140.0
204.049744 156.0
204.806702 140.0
205.970474 140.0
206.02475 164.0
206.301956 152.0
207.057358 172.0
207.51297 216.0
210.078903 4864.0
211.079346 752.0
211.187515 188.0
211.983673 140.0
212.092896 5988.0
213.091034 356.0
213.205414 160.0
213.53894 216.0
213.91983 96.0
214.084213 144.0
214.317001 160.0
214.7397 172.0
214.815536 172.0
214.914734 164.0
215.139465 228.0
215.200775 204.0
216.057114 188.0
216.516663 156.0
216.930939 216.0
218.286224 316.0
219.033783 188.0
219.269485 200.0
219.537766 224.0
220.060699 1632.0
221.069031 312.0
221.115356 220.0
221.494354 164.0
222.013016 148.0
222.1465 148.0
223.879318 164.0
223.926956 160.0
224.269608 236.0
225.48436 184.0
226.384842 148.0
227.105179 1904.0
228.107132 404.0
228.173157 184.0
228.30246 152.0
229.558228 152.0
229.775391 192.0
230.101349 196.0
230.252319 168.0
230.908157 184.0
232.741547 168.0
234.569992 172.0
235.072433 152.0
235.094589 320.0
235.457886 164.0
235.531189 228.0
235.839798 148.0
236.032394 204.0
236.107758 168.0
236.369858 100.0
236.469864 188.0
236.558624 144.0
236.71167 168.0
236.974442 232.0
237.020233 184.0
237.089218 74564.0
237.198196 116.0
237.236771 120.0
237.321045 292.0
237.457169 112.0
237.507568 216.0
237.550766 136.0
237.651199 112.0
237.967377 104.0
238.091263 8088.0
238.303238 196.0
238.357483 100.0
238.448074 144.0
238.524063 188.0
239.095764 1020.0
239.654419 136.0
239.740646 232.0
239.84053 108.0
240.092087 224.0
240.704071 152.0
241.058334 148.0
241.137619 112.0
241.314896 244.0
241.617981 148.0
242.0513 184.0
244.062012 192.0
245.553665 164.0
245.759552 152.0
246.165344 156.0
246.49646 164.0
247.350266 148.0
247.394104 172.0
247.754242 192.0
248.541199 156.0
248.68869 228.0
249.068619 164.0
249.436264 204.0
250.947372 220.0
251.120819 228.0
251.306931 152.0
252.098999 232.0
252.526306 200.0
252.969986 128.0
253.095627 164.0
253.145905 128.0
253.334671 296.0
253.418335 232.0
253.476746 144.0
253.567947 256.0
253.61116 176.0
253.62381 224.0
253.646042 184.0
253.699188 128.0
253.733414 256.0
253.79422 180.0
253.8172 320.0
253.883301 276.0
253.905029 384.0
253.952118 492.0
253.980774 292.0
254.022614 144.0
254.048889 424.0
254.05864 264.0
254.081207 412.0
254.116608 242036.0
254.209946 416.0
254.232758 400.0
254.258072 212.0
254.383118 144.0
254.411438 204.0
254.454773 408.0
254.513885 220.0
254.602905 248.0
254.637833 4780.0
254.680969 224.0
254.741043 116.0
254.856354 296.0
254.897263 180.0
254.92662 380.0
254.962021 136.0
255.030014 104.0
255.118286 46536.0
255.210815 220.0
255.324478 260.0
255.455475 192.0
255.49498 172.0
255.551758 128.0
255.603027 96.0
255.662064 116.0
255.701019 104.0
255.765244 104.0
255.86203 232.0
256.11795 4052.0
256.156616 204.0
256.179291 272.0
256.263489 492.0
256.323853 156.0
256.349426 176.0
256.503876 132.0
256.579193 204.0
256.618164 220.0
256.775757 100.0
256.814972 220.0
256.86969 152.0
256.924866 240.0
256.96347 164.0
257.018066 100.0
257.069489 348.0
257.131165 292.0
257.236816 96.0
257.267273 120.0
257.308136 140.0
257.476593 188.0
257.629059 120.0
258.034882 104.0
259.125153 116.0
268.066315 176.0
278.02771 156.0
285.810608 140.0
289.859253 144.0
325.926941 156.0
414.214172 188.0
440.665588 156.0
481.272766 180.0
518.417542 148.0
565.467529 144.0
1405.813843 256.0
1406.537842 144.0
1483.728394 204.0
1608.480835 168.0
1636.80603 152.0
1687.135498 180.0
1741.323608 148.0
1794.706787 212.0
1819.666626 188.0
1852.9375 164.0
1900.141235 168.0
1904.872559 184.0
1915.650513 168.0
1943.961304 232.0
1959.172363 152.0
1974.354248 164.0
1978.034912 148.0
