>compound MLS002153861-01!Isoquinoline, 6,7-dimethoxy-1-methyl-1,2,3,4-tetrahydro, hydrochloride2984-97-0
>formula C12H17NO2
>ionization [M+H]+
>parentmass 208.13320523609053
#inchi InChI=1S/C12H17NO2/c1-8-10-7-12(15-3)11(14-2)6-9(10)4-5-13-8/h6-8,13H,4-5H2,1-3H3
#inchikey HMYJLVDKPJHJCF
#origInchi InChI=1S/C12H17NO2.ClH/c1-8-10-7-12(15-3)11(14-2)6-9(10)4-5-13-8;/h6-8,13H,4-5H2,1-3H3;1H
#Ion_Source LC-ESI
#Instrument qTof
#Compound_Source NIH Pharmacologically Active Library
#PI Dorrestein
#Data_Collector VP/LMS
#Scan -1
#Precursor_MZ 208.136
#ExactMass 207.126
#Charge 1
#CAS_Number N/A
#Pubmed_ID N/A
#Smiles COc1cc2CCNC(C)c2cc1OC.Cl
#INCHI_AUX N/A
#Library_Class 1
#SpectrumID CCMSLIB00000086192
#IonMode Positive
#UpdateWorkflowName UPDATE-SINGLE-ANNOTATED-GOLD
#LibraryQualityString Gold
#TaskID d252d724072548979f1f6f1ced849daf
##Scan# 1109
#SpectrumFile p5-H05_GH5_01_18480.mzXML
#LibraryName Pharm_Active_Library.mgf
#MQScore -1
#Organism Pharm_Active_Library
#TIC_Query 0
#RT_Query -1
#MZErrorPPM -1
#SharedPeaks 0
#MassDiff 0
#LibMZ -1
#SpecMZ 208.136
#SpecCharge 0
#internalFilename spec-00000.mgf

>collision 10
44.958099 192.0
45.060917 140.0
45.102345 152.0
45.138443 188.0
45.179905 72.0
45.209343 236.0
45.221386 224.0
45.307087 196.0
45.343266 144.0
45.430424 168.0
45.724693 108.0
45.895775 164.0
45.991562 136.0
46.084743 176.0
46.201015 136.0
46.249729 204.0
46.309307 104.0
46.564289 100.0
46.750546 144.0
46.798187 152.0
47.284161 136.0
47.384121 92.0
47.396454 200.0
47.456764 92.0
47.625561 152.0
47.717632 152.0
47.758888 68.0
47.804287 144.0
47.827686 112.0
47.838699 116.0
48.106136 168.0
48.147556 220.0
48.18071 136.0
48.280231 136.0
48.47681 76.0
48.644634 192.0
48.659325 184.0
48.690453 128.0
48.707119 224.0
48.72657 152.0
48.751579 52.0
48.800232 308.0
49.017372 236.0
49.078705 156.0
49.112175 108.0
49.190315 152.0
49.336998 120.0
49.371956 100.0
49.517506 100.0
49.653454 80.0
49.712376 144.0
49.865456 96.0
50.279522 140.0
50.290813 224.0
50.381798 232.0
50.67263 176.0
51.040249 196.0
51.13414 184.0
51.249489 164.0
51.403488 176.0
51.472004 164.0
51.497711 208.0
51.716473 176.0
51.773743 96.0
51.839638 164.0
51.85247 172.0
51.891243 188.0
51.905579 92.0
52.120895 104.0
52.616364 156.0
52.636578 228.0
52.812893 44.0
52.875107 140.0
52.947498 180.0
53.27095 200.0
53.282574 60.0
53.490532 80.0
53.529842 200.0
53.669727 180.0
53.779144 160.0
54.102196 196.0
54.19593 212.0
54.311745 52.0
54.399792 144.0
54.542278 152.0
54.736477 52.0
54.804237 64.0
54.874985 148.0
54.931026 140.0
54.982666 164.0
55.016617 200.0
55.074207 164.0
55.17765 192.0
55.279709 80.0
55.318192 136.0
55.346321 212.0
55.571617 136.0
55.812241 156.0
55.824135 180.0
55.977409 204.0
56.002728 204.0
56.096603 60.0
56.172653 200.0
56.344334 248.0
56.400696 192.0
56.514778 140.0
56.683983 172.0
56.817425 180.0
56.85944 104.0
56.942017 132.0
57.16 176.0
57.268394 180.0
57.298523 216.0
57.340714 132.0
57.36031 160.0
57.382923 184.0
57.521164 84.0
57.827042 180.0
57.848232 148.0
58.329105 152.0
58.493389 156.0
58.539852 116.0
58.609135 88.0
58.70517 176.0
58.842495 160.0
59.125286 124.0
59.394947 336.0
59.620644 180.0
59.666653 236.0
59.706905 148.0
59.843693 232.0
59.957684 144.0
60.073326 88.0
60.176727 204.0
60.260132 140.0
60.3606 184.0
60.605167 184.0
60.636158 168.0
60.681114 36.0
60.906132 240.0
61.21096 164.0
61.482208 120.0
61.549335 208.0
61.632122 80.0
61.658688 140.0
61.774395 40.0
61.877682 148.0
61.970089 40.0
62.075024 72.0
62.092361 128.0
62.140987 216.0
62.294842 80.0
62.330978 120.0
62.343552 140.0
62.562183 164.0
62.68346 176.0
62.74493 184.0
62.918476 108.0
62.98954 196.0
63.102268 168.0
63.364471 244.0
63.378731 136.0
63.435783 284.0
63.477009 196.0
63.526176 44.0
63.591232 128.0
63.95203 104.0
63.963173 144.0
63.990234 152.0
64.022079 200.0
64.081017 176.0
64.127235 156.0
64.198975 200.0
64.604675 176.0
64.636673 148.0
64.755142 144.0
64.824028 132.0
64.89296 156.0
65.01487 224.0
65.218842 120.0
65.252602 140.0
65.307274 136.0
65.426353 124.0
65.582611 256.0
65.630974 184.0
65.648712 172.0
65.724525 200.0
65.747116 164.0
65.805229 196.0
65.940918 156.0
66.156052 136.0
66.220825 52.0
66.280762 168.0
66.327766 280.0
66.347221 72.0
66.449394 212.0
66.741753 204.0
66.756386 56.0
66.925621 124.0
67.261459 104.0
67.321869 104.0
67.40522 160.0
67.439499 192.0
67.452576 156.0
67.478737 160.0
67.581772 200.0
68.062035 216.0
68.080101 48.0
68.269089 184.0
68.845879 164.0
69.012772 44.0
69.247765 84.0
69.891884 196.0
70.046715 212.0
70.305145 232.0
70.34687 168.0
70.853081 208.0
71.336914 168.0
71.622986 176.0
71.683632 92.0
71.789841 120.0
72.391441 208.0
72.487999 184.0
72.52359 200.0
72.594795 204.0
72.699974 172.0
72.779762 196.0
72.797653 208.0
72.837502 104.0
73.095924 132.0
73.114647 212.0
73.189545 148.0
73.227013 180.0
73.470764 80.0
73.511719 224.0
73.682465 160.0
73.699547 160.0
74.015991 164.0
74.103348 204.0
74.132477 176.0
74.223328 148.0
74.264488 156.0
74.528862 156.0
74.54261 136.0
74.637154 116.0
74.650909 80.0
74.709389 204.0
74.979141 176.0
75.01075 148.0
75.02282 196.0
75.152168 172.0
75.235008 232.0
75.347267 172.0
75.406021 184.0
75.47863 148.0
75.553001 132.0
76.10762 156.0
76.166664 148.0
76.218788 160.0
76.23616 124.0
76.342209 172.0
76.436142 144.0
76.575417 132.0
76.606766 184.0
76.721786 208.0
76.775841 160.0
76.936371 108.0
76.983513 68.0
77.069107 260.0
77.163483 64.0
77.290787 164.0
77.382187 200.0
77.415459 124.0
77.534584 212.0
77.680115 248.0
77.715202 164.0
77.745033 196.0
77.850365 60.0
77.922379 152.0
78.085861 176.0
78.314667 116.0
78.390427 204.0
78.438011 88.0
78.501488 152.0
78.570274 100.0
78.632034 48.0
78.739731 268.0
78.780357 92.0
78.833366 96.0
78.875778 140.0
78.900528 148.0
78.967728 180.0
79.004875 184.0
79.065033 120.0
79.270462 116.0
79.330719 220.0
79.586205 144.0
79.753197 148.0
79.813637 208.0
79.973747 148.0
80.096611 120.0
80.392578 76.0
80.463974 208.0
80.859024 172.0
80.966446 180.0
80.980774 180.0
81.004059 132.0
81.441734 160.0
81.680801 216.0
81.91301 124.0
81.936432 176.0
82.022926 32.0
82.174416 192.0
82.219528 228.0
82.416359 164.0
82.635139 216.0
82.658661 200.0
82.696663 180.0
82.952065 176.0
83.325912 128.0
83.454956 264.0
83.491325 180.0
83.642342 100.0
83.67511 164.0
83.800781 224.0
83.959366 172.0
83.983078 188.0
84.052406 200.0
84.090195 204.0
84.129059 136.0
84.282478 40.0
84.313545 144.0
84.46347 164.0
84.51104 192.0
84.686783 228.0
84.730743 140.0
84.811371 152.0
84.952568 152.0
84.994766 128.0
85.038811 148.0
85.106735 176.0
85.279419 64.0
85.29229 188.0
85.533257 80.0
85.671364 232.0
85.708214 40.0
85.958992 104.0
86.032822 164.0
86.088211 168.0
86.282127 148.0
86.319206 208.0
86.732063 40.0
86.791389 204.0
86.949066 144.0
87.032608 152.0
87.212807 192.0
87.274155 100.0
87.400642 156.0
87.43972 180.0
87.476944 180.0
87.586815 196.0
88.176414 200.0
88.340958 188.0
88.413933 168.0
88.535622 180.0
88.571205 224.0
88.66864 212.0
88.737991 156.0
88.788628 172.0
88.816757 176.0
88.92746 180.0
89.045746 100.0
89.267242 172.0
89.787277 188.0
89.91745 168.0
90.166756 136.0
90.185654 176.0
90.382332 148.0
90.725143 244.0
90.78772 232.0
90.833237 68.0
90.977463 188.0
91.054764 988.0
91.076202 272.0
91.119896 200.0
91.176903 56.0
91.407005 164.0
91.420326 188.0
91.436058 212.0
91.481232 80.0
91.86618 216.0
91.883347 116.0
91.965401 172.0
92.032219 48.0
92.059662 328.0
92.185036 168.0
92.288765 224.0
92.397278 180.0
92.779457 80.0
92.898956 152.0
93.031616 160.0
93.058495 196.0
93.087303 108.0
93.158363 72.0
93.392876 192.0
93.64502 100.0
93.963089 216.0
94.039337 132.0
94.06427 180.0
94.113632 128.0
94.221794 48.0
94.310684 176.0
94.469246 168.0
94.639565 176.0
94.897255 180.0
95.060196 152.0
95.172775 156.0
95.188309 88.0
95.417587 152.0
95.495369 164.0
95.853584 180.0
95.964684 136.0
96.241753 208.0
96.407791 192.0
96.83429 144.0
96.979279 136.0
97.077301 184.0
97.456154 164.0
97.544586 112.0
97.662567 128.0
97.684204 176.0
97.715683 164.0
97.888893 144.0
98.121399 224.0
98.196335 136.0
98.393661 196.0
98.458824 172.0
98.818588 144.0
98.840355 132.0
98.895767 260.0
98.994759 148.0
99.012581 136.0
99.13739 48.0
99.337646 136.0
99.518242 160.0
99.939621 152.0
100.005295 52.0
100.347931 180.0
100.377838 200.0
100.405762 172.0
100.605293 156.0
100.793037 216.0
100.809021 72.0
100.841003 168.0
101.034966 128.0
101.067917 172.0
101.089432 164.0
101.233124 176.0
101.351311 148.0
101.433479 176.0
101.523705 84.0
101.86657 160.0
101.927193 188.0
102.044754 380.0
102.065887 172.0
102.081978 144.0
102.452324 176.0
102.545013 136.0
102.589363 200.0
102.71035 144.0
102.978806 36.0
102.999001 116.0
103.019203 164.0
103.054665 2176.0
103.075775 224.0
103.116196 36.0
103.172791 172.0
103.275925 140.0
103.40332 116.0
103.453995 44.0
103.488411 68.0
103.534988 136.0
103.597778 60.0
103.72747 88.0
103.861298 104.0
103.912018 216.0
103.968834 48.0
104.055405 984.0
104.117035 196.0
104.417824 204.0
104.61927 124.0
104.664055 160.0
104.908546 144.0
104.94117 64.0
104.986031 148.0
105.033363 436.0
105.069633 4096.0
105.093719 176.0
105.216599 172.0
105.290108 52.0
105.364456 208.0
105.76445 108.0
105.856583 140.0
105.940559 84.0
105.997925 160.0
106.012276 72.0
106.038918 120.0
106.07312 772.0
106.110336 176.0
106.137314 68.0
106.19474 164.0
106.280899 44.0
106.301414 92.0
106.506721 144.0
106.531372 92.0
106.551918 100.0
106.714287 204.0
106.841797 64.0
106.860313 76.0
106.936455 188.0
107.048843 1472.0
107.076683 176.0
107.142372 124.0
107.253654 180.0
107.41243 152.0
107.633255 32.0
107.678688 168.0
107.779915 180.0
107.808846 216.0
108.030083 56.0
108.056755 824.0
108.079735 152.0
108.224625 160.0
108.276398 136.0
108.330833 184.0
108.404839 208.0
108.510551 120.0
108.780251 188.0
108.844612 60.0
109.029495 144.0
109.065048 148.0
109.726814 176.0
109.741409 108.0
109.766434 140.0
109.89576 124.0
110.073181 180.0
110.317627 132.0
110.51841 208.0
110.677483 204.0
110.761261 228.0
110.813629 212.0
111.212074 184.0
111.256157 116.0
111.438873 116.0
111.813179 156.0
111.853172 208.0
111.9058 48.0
111.990036 52.0
112.038483 132.0
112.260841 132.0
112.571861 196.0
112.734779 176.0
112.829903 128.0
113.049881 56.0
113.273445 168.0
113.371773 120.0
113.441719 172.0
113.541374 140.0
113.571068 272.0
113.745064 200.0
113.776901 128.0
113.870338 184.0
114.040306 220.0
114.365738 188.0
114.572296 188.0
114.651131 196.0
115.011581 232.0
115.05439 5812.0
115.084328 160.0
115.101242 96.0
115.122597 52.0
115.15036 80.0
115.193085 52.0
115.272133 152.0
115.325562 68.0
115.342667 184.0
115.612152 52.0
115.719185 224.0
115.821976 84.0
115.843399 188.0
115.858391 152.0
116.060539 2040.0
116.105667 148.0
116.280815 228.0
116.315163 132.0
116.471909 240.0
116.697563 160.0
116.852417 132.0
116.880386 120.0
116.983696 92.0
117.031059 152.0
117.070061 7544.0
117.149513 48.0
117.384445 140.0
117.494446 152.0
117.744843 92.0
117.848526 124.0
118.040565 380.0
118.071487 1240.0
118.103622 56.0
118.309196 44.0
118.426132 140.0
118.50412 176.0
118.627647 96.0
118.7686 216.0
119.04834 952.0
119.085632 616.0
119.152832 136.0
119.444138 80.0
119.574684 164.0
119.674828 212.0
119.936249 88.0
119.960228 132.0
120.036537 144.0
120.055588 360.0
120.08577 160.0
120.108505 108.0
120.296165 84.0
120.48616 64.0
120.536415 180.0
120.599792 76.0
120.781281 76.0
120.808441 172.0
121.065063 2976.0
121.33532 140.0
121.392326 116.0
121.583183 156.0
121.840096 168.0
122.009315 156.0
122.035614 220.0
122.061554 216.0
122.097275 156.0
122.30072 136.0
122.442802 172.0
122.623459 68.0
122.70723 100.0
122.819695 124.0
122.945457 144.0
123.037346 140.0
123.081558 172.0
123.225891 120.0
123.270081 28.0
123.619476 36.0
123.685875 176.0
123.891815 104.0
124.050591 264.0
124.193291 164.0
124.348602 96.0
124.832916 160.0
124.8685 136.0
124.928551 200.0
125.298111 116.0
125.492012 160.0
125.659294 148.0
125.866875 44.0
126.063446 188.0
126.278069 148.0
126.327278 188.0
126.356361 156.0
126.678741 200.0
127.054184 792.0
127.329216 112.0
127.493217 168.0
127.749542 76.0
127.835037 184.0
127.857544 124.0
127.976852 148.0
128.008377 96.0
128.028641 52.0
128.06134 2252.0
128.143524 44.0
128.526825 96.0
128.603561 128.0
128.795486 324.0
128.829361 220.0
128.854218 156.0
129.032669 404.0
129.069168 3932.0
129.127747 116.0
129.179764 88.0
129.254425 216.0
129.297424 60.0
129.32135 140.0
129.369858 40.0
129.392487 164.0
129.686981 76.0
129.852493 144.0
130.040955 568.0
130.074707 748.0
130.856903 204.0
130.970764 160.0
131.047546 2284.0
131.08284 452.0
131.143936 32.0
131.351425 52.0
131.397049 56.0
131.513443 100.0
131.837753 92.0
131.933746 200.0
132.055099 1256.0
132.081161 168.0
132.098404 56.0
132.259689 168.0
132.297501 48.0
132.405121 168.0
132.554016 140.0
132.684662 212.0
132.88649 152.0
132.941574 196.0
133.024139 176.0
133.0634 5488.0
133.106842 200.0
133.122925 44.0
133.159668 60.0
133.235474 208.0
133.315887 100.0
133.446838 128.0
133.497498 92.0
133.528992 108.0
133.844971 36.0
134.013123 156.0
134.037521 492.0
134.071198 1992.0
134.188278 36.0
134.259766 64.0
134.282837 56.0
134.333572 76.0
134.377411 88.0
134.541275 60.0
134.629013 160.0
134.797653 52.0
134.890106 112.0
134.940964 60.0
134.998764 176.0
135.043396 1096.0
135.078125 332.0
135.183838 48.0
135.357452 56.0
135.69574 188.0
135.772263 112.0
135.878967 56.0
136.049072 480.0
136.074966 572.0
136.345688 96.0
136.489822 40.0
136.592148 104.0
137.059555 472.0
137.55687 180.0
137.776398 60.0
137.802094 156.0
137.862839 128.0
138.06337 176.0
138.096634 84.0
138.255737 208.0
138.372772 164.0
138.670273 64.0
138.700745 88.0
139.026749 152.0
139.541168 124.0
140.040054 28.0
140.108368 136.0
141.069992 292.0
141.175262 192.0
141.33847 236.0
141.748123 164.0
141.963852 168.0
142.030258 172.0
142.073288 168.0
142.108551 144.0
142.69281 124.0
143.048492 588.0
143.080612 136.0
143.163956 52.0
143.242554 40.0
143.373596 216.0
143.743225 224.0
143.895996 104.0
143.922256 236.0
143.958069 108.0
144.056381 2264.0
144.106171 56.0
144.185028 124.0
144.220871 64.0
144.256729 132.0
144.285416 76.0
144.469574 120.0
144.670593 28.0
144.768753 184.0
144.819046 88.0
144.855972 204.0
144.922058 148.0
144.968155 172.0
145.013123 136.0
145.065048 15784.0
145.129196 96.0
145.146622 88.0
145.168961 44.0
145.194534 196.0
145.257706 168.0
145.351273 148.0
145.492874 96.0
145.560104 96.0
145.639359 96.0
145.658569 116.0
145.713837 56.0
145.812347 80.0
145.838791 172.0
145.872437 144.0
145.908508 124.0
145.985443 100.0
146.037079 424.0
146.067764 2416.0
146.094772 400.0
146.180298 212.0
146.209183 40.0
146.226028 124.0
146.253174 256.0
146.534256 72.0
146.589676 48.0
146.621002 188.0
146.6427 144.0
146.712601 192.0
146.915176 32.0
147.045441 176.0
147.079514 2816.0
147.140305 84.0
147.199982 148.0
147.225342 56.0
147.32074 44.0
147.659149 68.0
147.78978 76.0
147.993088 64.0
148.03334 200.0
148.089737 584.0
148.155365 44.0
148.240173 128.0
148.499573 148.0
148.95105 48.0
149.059784 1044.0
149.093872 112.0
149.145432 44.0
149.281586 68.0
149.719635 68.0
150.0242 144.0
150.066742 2180.0
150.091034 164.0
150.861542 48.0
151.02243 176.0
151.074722 1968.0
151.12323 160.0
151.17218 136.0
151.245605 124.0
151.419434 60.0
152.076523 180.0
152.265579 36.0
152.324524 80.0
152.693207 72.0
152.784225 128.0
153.276657 108.0
153.473846 144.0
153.547821 212.0
153.718048 152.0
153.772339 176.0
153.994553 132.0
154.199341 176.0
155.056137 512.0
155.120392 180.0
155.155106 96.0
155.189819 52.0
155.805328 148.0
156.486786 76.0
157.000107 252.0
157.062775 392.0
157.996735 36.0
158.070679 376.0
158.274551 60.0
158.645355 164.0
158.698013 176.0
158.81337 96.0
158.918732 112.0
158.961395 152.0
159.046051 152.0
159.0811 4168.0
159.204895 52.0
159.38324 172.0
159.468689 108.0
159.516449 84.0
159.75032 136.0
159.858505 192.0
160.054428 212.0
160.087326 11680.0
160.178253 40.0
160.215591 68.0
160.27652 84.0
160.379837 44.0
160.457993 52.0
160.538681 40.0
160.634521 176.0
160.657227 120.0
160.73291 64.0
160.881821 136.0
160.909592 148.0
160.99202 56.0
161.015656 152.0
161.059784 6788.0
161.091187 1816.0
161.147003 140.0
161.172272 140.0
161.222809 60.0
161.336563 84.0
161.354248 76.0
161.377014 40.0
161.475632 120.0
161.513565 120.0
161.594528 88.0
161.63501 60.0
161.764084 108.0
161.796997 60.0
161.867889 48.0
161.895752 72.0
161.921066 84.0
161.961594 96.0
162.00972 128.0
162.036133 104.0
162.062546 756.0
162.09407 432.0
162.255554 120.0
162.362061 132.0
162.442322 116.0
162.638611 80.0
163.07489 396.0
163.099899 172.0
163.233109 56.0
163.454407 32.0
163.535843 48.0
163.594391 64.0
164.004501 68.0
164.074982 1312.0
164.223785 136.0
164.782837 164.0
164.984741 100.0
165.01593 60.0
165.088776 1288.0
165.388916 72.0
165.724396 60.0
165.760269 76.0
166.094833 216.0
166.725174 28.0
168.002304 44.0
168.384323 112.0
168.779709 172.0
170.080246 156.0
170.569382 156.0
171.057617 116.0
171.20343 84.0
172.607376 104.0
172.892517 80.0
173.060043 160.0
173.156937 76.0
174.06778 364.0
175.073563 1192.0
175.105728 52.0
176.083038 5836.0
176.136551 264.0
176.155533 72.0
176.176666 44.0
176.374847 160.0
176.594315 56.0
177.085602 816.0
178.084152 464.0
178.623474 88.0
179.106567 1240.0
179.209167 64.0
180.113541 184.0
180.386108 96.0
181.473038 76.0
181.985504 64.0
182.587448 80.0
184.512741 148.0
186.214493 76.0
187.29158 176.0
189.090683 152.0
190.102997 224.0
190.140579 96.0
190.684372 156.0
191.104462 2516.0
191.438187 88.0
191.644775 64.0
191.884567 60.0
192.110748 624.0
192.966858 132.0
193.11232 216.0
193.193634 80.0
203.52243 60.0
204.970261 144.0
208.137527 268.0
213.703903 44.0
236.168442 84.0
247.148453 88.0
257.661804 88.0
260.509827 120.0
269.262177 100.0
286.186279 40.0
290.33255 44.0
292.663666 52.0
324.999451 100.0
350.869812 72.0
351.507599 136.0
353.899872 52.0
355.571777 84.0
396.379913 88.0
432.543182 44.0
468.008698 84.0
481.534698 92.0
506.997894 88.0
517.806091 68.0
611.599976 116.0
638.11145 64.0
638.348328 188.0
642.482971 168.0
668.958618 204.0
712.447388 116.0
736.483948 128.0
783.735107 128.0
803.832214 164.0
807.956848 104.0
825.103882 140.0
836.74469 240.0
850.717957 236.0
853.477661 112.0
858.864624 156.0
872.550232 144.0
873.120605 152.0
874.950562 124.0
875.45105 104.0
878.793274 216.0
885.917419 132.0
886.735107 184.0
886.788452 56.0
892.487488 160.0
895.754822 212.0
900.980591 52.0
903.054871 168.0
915.50824 180.0
927.774048 32.0
930.267395 164.0
933.031494 104.0
935.951965 76.0
936.317383 108.0
938.437988 180.0
943.970093 120.0
953.232605 136.0
958.265808 148.0
959.535461 168.0
964.851074 136.0
967.548462 92.0
968.508301 140.0
978.998291 204.0
987.517273 120.0
997.386475 144.0
999.052856 76.0
999.436646 240.0
1000.154114 168.0
1001.004028 208.0
1002.768005 172.0
1003.146179 216.0
1005.846008 124.0
1006.23114 244.0
1007.292053 244.0
1012.465881 192.0
1022.611389 172.0
1029.925781 204.0
1032.289429 116.0
1033.127319 180.0
1034.003906 164.0
1035.309937 180.0
1037.155151 244.0
1038.835205 168.0
1041.010986 180.0
1042.180054 176.0
1055.606934 160.0
1057.133667 120.0
1060.618042 68.0
1060.838379 36.0
1067.864136 164.0
1068.456055 132.0
1071.327026 152.0
1076.035767 144.0
1076.394897 92.0
1082.522095 188.0
1092.768433 144.0
1103.955566 168.0
1104.193604 196.0
1104.914673 180.0
1105.066772 44.0
1109.610229 164.0
1112.369995 168.0
1115.698242 128.0
1116.615845 272.0
1118.540405 184.0
1118.731812 204.0
1124.010498 152.0
1128.124634 128.0
1129.221191 252.0
1129.321533 176.0
1138.201294 128.0
1140.068726 92.0
1144.649902 64.0
1145.794922 124.0
1151.042358 164.0
1154.414307 76.0
1156.525146 164.0
1159.078369 204.0
1162.516357 192.0
1164.451294 172.0
1166.632446 184.0
1166.870361 176.0
1167.618408 184.0
1168.346191 196.0
1168.686401 44.0
1169.155884 164.0
1172.997314 184.0
1178.798584 232.0
1183.285645 140.0
1183.429443 188.0
1185.56665 104.0
1187.534302 232.0
1188.933838 160.0
1190.416748 128.0
1190.815063 272.0
1191.124146 108.0
1192.422729 204.0
1194.134644 84.0
1196.233887 112.0
1196.625732 220.0
1198.289307 136.0
1199.712158 140.0
1199.932861 168.0
1201.753662 36.0
1202.464478 44.0
1202.843994 176.0
1207.151733 184.0
1208.545654 52.0
1212.298706 216.0
1212.998779 160.0
1215.009766 208.0
1215.634277 244.0
1216.217285 180.0
1217.876709 152.0
1218.543701 140.0
1218.974487 68.0
1220.003052 148.0
1222.562744 168.0
1223.572021 128.0
1227.334473 204.0
1229.196899 96.0
1232.625488 216.0
1232.828125 144.0
1233.030762 224.0
1234.862549 60.0
1235.687988 196.0
1237.50769 188.0
1237.836792 108.0
1238.460083 136.0
1239.020508 184.0
1240.583374 196.0
1242.469849 104.0
1244.736938 156.0
1246.724854 172.0
1248.820068 152.0
1249.368652 108.0
1249.889282 180.0
1250.030029 200.0
1250.973145 200.0
1251.55481 136.0
1256.406616 240.0
1257.232178 120.0
1260.325073 208.0
1260.508789 200.0
1260.911621 136.0
1264.780518 132.0
1269.449341 204.0
1271.847412 164.0
1272.15979 172.0
1273.381104 156.0
1276.7854 76.0
1277.290283 136.0
1277.425537 120.0
1277.631836 124.0
1279.539062 56.0
1279.866577 200.0
1286.261597 140.0
1287.004028 236.0
1287.989624 168.0
1289.23999 212.0
1290.569458 248.0
1290.927002 120.0
1291.005737 264.0
1291.19165 176.0
1291.41333 124.0
1292.11438 256.0
1292.243164 164.0
1292.328979 48.0
1292.421997 152.0
1294.082642 160.0
1294.598145 252.0
1295.378906 176.0
1296.525269 128.0
1299.257202 220.0
1301.180542 184.0
1302.760498 136.0
1302.940063 172.0
1304.60022 168.0
1304.830322 192.0
1304.916504 108.0
1308.204346 164.0
1310.890869 208.0
1315.824463 164.0
1316.005005 188.0
1316.106079 124.0
1316.546631 184.0
1318.57666 64.0
1319.140503 148.0
1323.662354 212.0
1324.748779 196.0
1325.545776 196.0
1325.7052 164.0
1326.980835 212.0
1329.004517 180.0
1331.160278 180.0
1331.370972 192.0
1333.819458 96.0
1334.451904 120.0
1337.222046 100.0
1337.798462 176.0
1338.803345 136.0
1338.890747 140.0
1340.726562 140.0
1341.579346 112.0
1342.73877 192.0
1343.380615 136.0
1343.70166 128.0
1344.241577 156.0
1344.548096 204.0
1345.139282 60.0
1345.905884 196.0
1347.987671 124.0
1349.354492 156.0
1350.575684 188.0
1351.014648 152.0
1351.285278 204.0
1352.544067 176.0
1352.624512 164.0
1353.085815 96.0
1353.730103 76.0
1354.682251 216.0
1355.539551 184.0
1357.232788 180.0
1359.125244 168.0
1360.123291 156.0
1360.211426 152.0
1360.26355 216.0
1361.136475 168.0
1362.627441 128.0
1365.59729 212.0
1365.876831 184.0
1366.163696 144.0
1366.546265 60.0
1368.540894 172.0
1368.695435 140.0
1369.586548 176.0
1371.679321 160.0
1372.128906 180.0
1374.924561 140.0
1376.599365 144.0
1376.821899 132.0
1378.269775 216.0
1378.328857 156.0
1378.45459 192.0
1379.156616 160.0
1380.383911 156.0
1382.884399 100.0
1383.609863 144.0
1384.054077 168.0
1384.809448 220.0
1385.305786 196.0
1386.13562 140.0
1387.062012 204.0
1388.047974 164.0
1389.546265 64.0
1389.687256 156.0
1390.755859 132.0
1391.802612 144.0
1392.649292 108.0
1394.529053 152.0
1397.793823 168.0
1398.009644 132.0
1398.069214 188.0
1399.490967 188.0
1405.894165 176.0
1408.051758 144.0
1408.806152 132.0
1412.199707 112.0
1413.179688 276.0
1414.549316 172.0
1414.908569 152.0
1420.056641 108.0
1421.129395 172.0
1421.241943 180.0
1422.427612 100.0
1422.600342 160.0
1422.712891 204.0
1423.411133 180.0
1424.072021 124.0
1425.409302 160.0
1426.303711 68.0
1426.611816 132.0
1427.799927 112.0
1428.898071 160.0
1429.402222 212.0
1429.469971 216.0
1429.989258 188.0
1430.71936 128.0
1432.632202 132.0
1432.948608 172.0
1435.858276 184.0
1436.363647 160.0
1437.148315 144.0
1440.077271 184.0
1442.223145 244.0
1442.540649 100.0
1442.686279 104.0
1444.370605 224.0
1444.809326 104.0
1445.687012 188.0
1445.861084 164.0
1446.913208 168.0
1447.125244 156.0
1448.276245 72.0
1448.533813 108.0
1449.852173 156.0
1450.003784 140.0
1452.27832 200.0
1452.589355 160.0
1453.074829 236.0
1453.439087 32.0
1453.780518 184.0
1455.184814 188.0
1456.247925 192.0
1458.124512 220.0
1463.12561 204.0
1463.426636 76.0
1463.586548 132.0
1465.018311 204.0
1465.559326 156.0
1466.694824 116.0
1467.319946 184.0
1468.16626 76.0
1470.56958 224.0
1473.371948 136.0
1474.067261 132.0
1474.327148 180.0
1475.855957 164.0
1476.008911 160.0
1476.223022 148.0
1478.012939 180.0
1478.181274 132.0
1478.785889 196.0
1478.984863 164.0
1479.551392 160.0
1480.768921 240.0
1481.419922 152.0
1481.979248 188.0
1483.328003 88.0
1483.581055 168.0
1483.872314 156.0
1485.114624 136.0
1485.989136 196.0
1486.188721 152.0
1487.431885 124.0
1487.577759 148.0
1487.785034 200.0
1488.821655 156.0
1491.533813 68.0
1492.402466 116.0
1494.279175 160.0
1494.725464 176.0
1495.387329 260.0
1498.667847 196.0
1501.782349 128.0
1502.63855 132.0
1503.626343 160.0
1504.050781 220.0
