>compound MLS002222314-01!1201595
>formula C19H21NS
>ionization [M+H]+
>parentmass 296.14679
#inchi InChI=1S/C19H21NS/c1-20-11-8-15(9-12-20)19-16-5-3-2-4-14(16)6-7-18-17(19)10-13-21-18/h2-5,10,13H,6-9,11-12H2,1H3
#inchikey FIADGNVRKBPQEU
#origInchi InChI=1S/C19H21NS.C4H6O4/c1-20-11-8-15(9-12-20)19-16-5-3-2-4-14(16)6-7-18-17(19)10-13-21-18;5-3(6)1-2-4(7)8/h2-5,10,13H,6-9,11-12H2,1H3;1-2H2,(H,5,6)(H,7,8)
#Ion_Source LC-ESI
#Instrument qTof
#Compound_Source NIH Pharmacologically Active Library
#PI Dorrestein
#Data_Collector VP/LMS
#Scan -1
#Precursor_MZ 296.143
#ExactMass 295.139
#Charge 1
#CAS_Number N/A
#Pubmed_ID N/A
#Smiles CN1CCC(=C2c3ccsc3CCc4ccccc24)CC1.OC(=O)CCC(=O)O
#INCHI_AUX N/A
#Library_Class 1
#SpectrumID CCMSLIB00000085315
#IonMode Positive
#UpdateWorkflowName UPDATE-SINGLE-ANNOTATED-GOLD
#LibraryQualityString Gold
#TaskID d252d724072548979f1f6f1ced849daf
##Scan# 1784
#SpectrumFile p3-H03_GH3_01_18308.mzXML
#LibraryName Pharm_Active_Library.mgf
#MQScore -1
#Organism Pharm_Active_Library
#TIC_Query 0
#RT_Query -1
#MZErrorPPM -1
#SharedPeaks 0
#MassDiff 0
#LibMZ -1
#SpecMZ 296.143
#SpecCharge 0
#internalFilename spec-00000.mgf

>collision 10
44.898418 120.0
44.958454 112.0
45.011856 140.0
45.093472 136.0
45.125439 72.0
45.223099 164.0
45.232468 156.0
45.261055 228.0
45.279335 112.0
45.334862 144.0
45.358147 152.0
45.373138 176.0
45.39996 128.0
45.434837 140.0
45.479122 144.0
45.500603 76.0
45.565918 152.0
45.575199 208.0
45.597324 28.0
45.616142 136.0
45.654011 148.0
45.746635 116.0
45.760101 192.0
45.82206 120.0
45.834187 240.0
45.85474 144.0
45.897831 168.0
45.919121 148.0
45.9515 128.0
45.98119 176.0
46.059505 188.0
46.070312 124.0
46.093914 180.0
46.112129 148.0
46.132481 232.0
46.194691 168.0
46.258297 128.0
46.305691 132.0
46.332783 176.0
46.456158 100.0
46.494152 176.0
46.519287 132.0
46.537594 180.0
46.572906 136.0
46.616383 28.0
46.644928 144.0
46.689796 56.0
46.7034 212.0
46.745579 124.0
47.019318 136.0
47.093246 96.0
47.163185 176.0
47.195751 208.0
47.225838 156.0
47.321636 152.0
47.344166 204.0
47.359982 112.0
47.409309 176.0
47.453175 148.0
47.502548 208.0
47.521759 164.0
47.546459 160.0
47.564304 136.0
47.586269 180.0
47.609615 148.0
47.663193 108.0
47.788326 132.0
47.808968 168.0
47.899845 144.0
47.922207 156.0
47.959099 216.0
47.982536 120.0
48.000347 192.0
48.068058 176.0
48.079098 208.0
48.104351 200.0
48.132938 144.0
48.153656 160.0
48.197865 60.0
48.239254 224.0
48.274883 196.0
48.293259 132.0
48.374905 176.0
48.384598 112.0
48.404728 104.0
48.417458 208.0
48.445534 140.0
48.509285 164.0
48.538403 196.0
48.636379 200.0
48.653568 128.0
48.685509 184.0
48.802238 76.0
48.816147 188.0
48.966457 136.0
48.981777 176.0
49.009644 200.0
49.070976 140.0
49.093288 176.0
49.144901 100.0
49.178398 120.0
49.193752 180.0
49.225868 268.0
49.264977 188.0
49.310009 196.0
49.332058 132.0
49.415977 252.0
49.476162 160.0
49.495766 120.0
49.547443 152.0
49.565807 104.0
49.592434 160.0
49.650578 180.0
49.672363 188.0
49.704636 140.0
49.729897 264.0
49.781845 144.0
49.834175 144.0
49.963177 132.0
50.054668 208.0
50.09129 204.0
50.10397 168.0
50.125107 44.0
50.1688 124.0
50.188541 160.0
50.305649 136.0
50.3466 132.0
50.381912 116.0
50.451164 160.0
50.4851 144.0
50.545933 124.0
50.567451 176.0
50.649288 204.0
50.688454 224.0
50.755589 204.0
50.79388 128.0
50.827934 160.0
50.863419 148.0
50.882507 152.0
50.900333 128.0
50.930019 204.0
50.952888 96.0
50.982731 148.0
51.001205 80.0
51.079418 172.0
51.11216 192.0
51.147724 168.0
51.179047 196.0
51.210377 188.0
51.246109 148.0
51.277348 56.0
51.315838 160.0
51.34721 180.0
51.392864 208.0
51.41539 244.0
51.437107 116.0
51.459038 184.0
51.471375 216.0
51.511364 124.0
51.559948 172.0
51.617134 204.0
51.695156 200.0
51.747105 164.0
51.764679 156.0
51.876293 444.0
51.88633 172.0
51.906406 172.0
52.016884 172.0
52.104492 224.0
52.213741 116.0
52.298634 128.0
52.36631 200.0
52.483047 256.0
52.494583 172.0
52.506123 180.0
52.646244 228.0
52.67934 212.0
52.729916 292.0
52.797871 88.0
52.823906 160.0
52.838371 144.0
52.873104 192.0
52.886131 144.0
52.923771 136.0
52.945496 152.0
53.019382 160.0
53.07143 164.0
53.122337 128.0
53.13615 148.0
53.162964 172.0
53.202156 136.0
53.215225 160.0
53.399788 160.0
53.51767 220.0
53.62402 52.0
53.6726 136.0
53.730473 152.0
53.788849 76.0
53.891087 200.0
53.932007 148.0
53.966545 128.0
54.046082 160.0
54.082672 156.0
54.106094 92.0
54.148563 184.0
54.164673 172.0
54.180115 188.0
54.207165 76.0
54.233547 144.0
54.278996 160.0
54.347942 228.0
54.37289 156.0
54.395023 252.0
54.425777 160.0
54.441895 148.0
54.485962 184.0
54.496078 176.0
54.545315 124.0
54.567738 148.0
54.600624 80.0
54.613148 136.0
54.725712 44.0
54.738964 120.0
54.79052 112.0
54.825882 124.0
54.843571 80.0
54.868633 104.0
54.915825 228.0
54.980423 148.0
54.986034 116.0
55.019123 340.0
55.104786 112.0
55.1245 148.0
55.146168 184.0
55.178692 60.0
55.190517 192.0
55.25708 204.0
55.30592 180.0
55.350334 164.0
55.421436 164.0
55.476276 52.0
55.48962 164.0
55.532627 200.0
55.58604 128.0
55.627598 208.0
55.660263 160.0
55.709278 200.0
55.760166 208.0
56.020313 168.0
56.033619 132.0
56.108139 132.0
56.134979 116.0
56.156143 172.0
56.170776 80.0
56.193157 100.0
56.230255 172.0
56.288689 152.0
56.33461 204.0
56.364876 156.0
56.378326 172.0
56.435131 156.0
56.472519 40.0
56.550327 128.0
56.616547 140.0
56.703106 168.0
56.727089 164.0
56.740185 256.0
56.751076 84.0
56.761574 208.0
56.793068 148.0
56.812572 120.0
56.834011 208.0
56.863594 152.0
57.212345 144.0
57.269569 132.0
57.29372 132.0
57.340534 164.0
57.429508 200.0
57.471592 100.0
57.483662 212.0
57.509319 176.0
57.555527 212.0
57.577267 156.0
57.612011 96.0
57.689087 176.0
57.710251 180.0
57.731422 128.0
57.747536 104.0
57.810093 168.0
57.956097 260.0
58.044907 180.0
58.055523 252.0
58.113167 144.0
58.132893 164.0
58.266518 224.0
58.29327 172.0
58.310432 156.0
58.406384 232.0
58.435287 204.0
58.470291 168.0
58.519005 160.0
58.550983 232.0
58.57383 240.0
58.590588 128.0
58.691189 64.0
58.709488 156.0
58.834614 192.0
58.845303 144.0
58.859043 204.0
59.010319 192.0
59.021023 172.0
59.083412 132.0
59.095646 484.0
59.164852 68.0
59.198009 208.0
59.298122 152.0
59.317623 200.0
59.385521 156.0
59.402397 204.0
59.471451 176.0
59.532864 208.0
59.563583 264.0
59.614288 144.0
59.732681 160.0
59.757298 144.0
59.77652 228.0
59.823479 152.0
59.948246 188.0
59.968281 160.0
59.996029 144.0
60.009903 164.0
60.066971 180.0
60.119083 160.0
60.165737 172.0
60.201252 204.0
60.213608 136.0
60.227512 72.0
60.33139 164.0
60.377525 148.0
60.405693 136.0
60.436226 64.0
60.44706 160.0
60.487988 36.0
60.513618 208.0
60.526009 184.0
60.592613 232.0
60.667004 88.0
60.696465 192.0
60.70887 60.0
60.739891 188.0
60.805061 136.0
60.820583 164.0
60.850506 176.0
60.887352 152.0
60.900978 124.0
60.969696 188.0
61.008556 144.0
61.115875 68.0
61.140293 220.0
61.171906 112.0
61.192146 136.0
61.254444 140.0
61.294952 180.0
61.429043 132.0
61.474293 152.0
61.546101 128.0
61.618412 136.0
61.749268 212.0
61.778988 52.0
61.832191 140.0
61.854103 224.0
61.930744 212.0
62.032852 116.0
62.17654 204.0
62.194267 96.0
62.260212 92.0
62.277489 188.0
62.319908 280.0
62.460995 184.0
62.483429 180.0
62.497593 120.0
62.540085 196.0
62.609577 176.0
62.672379 140.0
62.705471 148.0
62.75806 212.0
62.811119 228.0
62.828472 212.0
62.877392 208.0
63.02063 188.0
63.026077 132.0
63.029732 164.0
63.060608 140.0
63.074833 112.0
63.138081 156.0
63.198196 128.0
63.264671 172.0
63.310593 188.0
63.343857 164.0
63.413578 132.0
63.426258 156.0
63.446869 92.0
63.50713 176.0
63.578487 156.0
63.61821 128.0
63.669025 240.0
63.696026 148.0
63.713501 100.0
63.73098 96.0
63.748737 160.0
63.772301 108.0
63.785015 184.0
63.856571 172.0
63.882023 136.0
63.965752 124.0
64.048843 172.0
64.098106 196.0
64.133629 120.0
64.195808 176.0
64.216545 140.0
64.246849 224.0
64.344208 160.0
64.396675 136.0
64.454239 140.0
64.549973 176.0
64.630096 200.0
64.655983 120.0
64.737579 108.0
64.774155 172.0
64.787231 196.0
64.828896 148.0
64.875381 160.0
64.915466 132.0
64.929901 136.0
64.987846 164.0
65.000488 144.0
65.028709 232.0
65.090385 156.0
65.127327 124.0
65.191589 160.0
65.22052 148.0
65.281616 160.0
65.428047 172.0
65.484253 160.0
65.521461 192.0
65.548851 216.0
65.583603 208.0
65.598824 204.0
65.621635 320.0
65.721397 176.0
65.742378 56.0
65.85273 332.0
65.899017 148.0
65.937798 36.0
65.955582 20.0
65.981445 192.0
65.992767 116.0
66.009468 228.0
66.092705 224.0
66.169128 172.0
66.207993 132.0
66.308441 184.0
66.433304 168.0
66.446281 160.0
66.494965 112.0
66.523376 128.0
66.53717 204.0
66.605385 192.0
66.621628 180.0
66.717514 168.0
66.885078 224.0
66.896469 200.0
66.963234 172.0
67.000702 76.0
67.044701 128.0
67.077301 128.0
67.199615 168.0
67.294289 220.0
67.315514 60.0
67.353081 128.0
67.40258 104.0
67.505081 204.0
67.544342 144.0
67.566223 180.0
67.595062 68.0
67.606514 96.0
67.627792 84.0
67.642525 148.0
67.686729 72.0
67.71949 168.0
67.770271 168.0
67.817528 224.0
67.840752 184.0
67.886299 128.0
67.909851 136.0
67.929306 96.0
68.0327 104.0
68.065353 180.0
68.127953 100.0
68.172318 88.0
68.205193 156.0
68.216698 152.0
68.300049 128.0
68.385345 176.0
68.405884 60.0
68.461868 244.0
68.514816 164.0
68.5327 132.0
68.552475 128.0
68.568954 136.0
68.656342 136.0
68.742126 92.0
68.768234 200.0
68.814758 152.0
68.877518 168.0
68.888474 208.0
68.937332 196.0
68.949821 168.0
69.064308 148.0
69.118904 76.0
69.239754 104.0
69.333443 168.0
69.345795 148.0
69.511642 84.0
69.589661 172.0
69.627861 132.0
69.699043 144.0
69.722557 248.0
69.759132 208.0
69.780746 228.0
69.795708 92.0
69.897179 172.0
69.942116 128.0
70.010384 164.0
70.037033 104.0
70.062019 196.0
70.073685 156.0
70.177025 168.0
70.210381 76.0
70.222054 120.0
70.280441 192.0
70.328491 152.0
70.449074 172.0
70.485832 140.0
70.542664 172.0
70.566071 176.0
70.674789 164.0
70.686508 188.0
70.728348 132.0
70.768532 168.0
70.803696 76.0
70.828819 228.0
70.862328 132.0
70.874054 172.0
70.890213 112.0
70.914276 152.0
70.946129 144.0
70.994759 372.0
71.025253 132.0
71.038368 216.0
71.132347 56.0
71.152817 208.0
71.272675 160.0
71.342339 120.0
71.418015 96.0
71.441566 108.0
71.461754 280.0
71.539177 156.0
71.600273 204.0
71.646957 204.0
71.67392 128.0
71.751457 244.0
71.812111 128.0
71.832405 180.0
71.852654 32.0
71.867836 180.0
71.921844 36.0
71.947166 148.0
72.03923 352.0
72.080605 76.0
72.13131 156.0
72.200638 224.0
72.217552 136.0
72.235184 136.0
72.254768 152.0
72.301529 164.0
72.386795 148.0
72.422363 52.0
72.437607 216.0
72.476578 116.0
72.491829 208.0
72.538513 176.0
72.595238 136.0
72.638771 180.0
72.67836 164.0
72.736069 152.0
72.832863 260.0
72.848007 148.0
72.907623 172.0
72.922531 160.0
72.946716 332.0
72.975616 180.0
72.996025 184.0
73.030037 220.0
73.062363 80.0
73.153534 320.0
73.188316 172.0
73.224075 112.0
73.239403 180.0
73.276886 92.0
73.293922 200.0
73.426903 232.0
73.497803 192.0
73.541222 192.0
73.603699 208.0
73.655624 48.0
73.708588 72.0
73.725677 148.0
73.742767 132.0
73.763283 60.0
73.85862 192.0
73.874443 176.0
73.898392 216.0
73.954872 248.0
73.990822 184.0
74.016502 88.0
74.04966 200.0
74.073021 164.0
74.127853 76.0
74.184418 92.0
74.222816 232.0
74.265015 264.0
74.296463 48.0
74.34565 120.0
74.363083 216.0
74.416031 288.0
74.434921 192.0
74.456238 224.0
74.479576 80.0
74.548302 188.0
74.58268 180.0
74.610184 84.0
74.629097 164.0
74.701332 252.0
74.801537 176.0
74.820084 148.0
74.944092 128.0
74.968216 196.0
75.011307 64.0
75.026825 112.0
75.07338 144.0
75.094078 164.0
75.152733 152.0
75.170219 152.0
75.342659 72.0
75.356483 172.0
75.515526 104.0
75.540367 56.0
75.659157 116.0
75.764809 156.0
75.80986 144.0
75.867058 176.0
75.89827 144.0
75.980179 196.0
76.033585 216.0
76.068298 112.0
76.148178 208.0
76.214195 100.0
76.288925 48.0
76.47332 152.0
76.513359 184.0
76.537735 196.0
76.573227 224.0
76.596954 196.0
76.609848 208.0
76.626572 152.0
76.64225 76.0
76.664909 164.0
76.714951 168.0
76.821838 68.0
76.849998 172.0
76.865456 104.0
76.886398 204.0
76.90036 156.0
76.940514 232.0
76.961464 152.0
76.975433 48.0
77.036568 156.0
77.188629 220.0
77.281342 184.0
77.312843 164.0
77.354851 212.0
77.444153 148.0
77.510735 124.0
77.556297 164.0
77.627518 148.0
77.647476 240.0
77.723289 148.0
77.890961 112.0
77.959984 76.0
77.979317 172.0
78.039093 148.0
78.076019 188.0
78.128792 144.0
78.174713 164.0
78.199181 64.0
78.2248 224.0
78.292496 120.0
78.378815 56.0
78.399963 180.0
78.476669 140.0
78.525146 172.0
78.601006 160.0
78.643364 260.0
78.657486 104.0
78.678665 160.0
78.694557 172.0
78.719276 120.0
78.797005 208.0
78.814674 200.0
78.906586 144.0
78.989708 152.0
79.007393 60.0
79.035706 188.0
79.060478 136.0
79.083488 216.0
79.12149 172.0
79.221687 188.0
79.249962 200.0
79.265907 164.0
79.283844 200.0
79.332947 352.0
79.33712 92.0
79.3423 240.0
79.384689 152.0
79.456055 136.0
79.487579 164.0
79.524849 200.0
79.539047 136.0
79.572777 172.0
79.586159 236.0
79.675797 136.0
79.688232 160.0
79.743462 100.0
79.782173 192.0
79.826881 192.0
79.840828 168.0
79.981384 172.0
80.017281 128.0
80.065361 156.0
80.084953 184.0
80.096428 172.0
80.131271 164.0
80.188293 132.0
80.23999 84.0
80.275658 56.0
80.295273 232.0
80.314896 84.0
80.368416 80.0
80.407677 192.0
80.432663 304.0
80.450516 64.0
80.500511 92.0
80.520157 164.0
80.543793 160.0
80.57196 60.0
80.672043 76.0
80.709595 112.0
80.806656 136.0
80.836601 80.0
80.8545 188.0
80.926102 160.0
81.07766 232.0
81.11422 164.0
81.134552 140.0
81.236168 200.0
81.263077 140.0
81.293587 48.0
81.323563 216.0
81.365387 108.0
81.421051 144.0
81.507286 228.0
81.559402 164.0
81.701469 60.0
81.742043 256.0
81.791451 136.0
81.857544 232.0
81.928696 132.0
82.002197 148.0
82.032845 144.0
82.045464 220.0
82.104973 168.0
82.133827 156.0
82.15728 44.0
82.220436 144.0
82.256538 160.0
82.341408 128.0
82.460655 164.0
82.504036 232.0
82.569138 92.0
82.627022 208.0
82.762772 64.0
82.829788 128.0
82.86602 104.0
82.96933 160.0
83.030983 112.0
83.060005 140.0
83.087219 68.0
83.172287 132.0
83.223343 120.0
83.36322 144.0
83.39048 120.0
83.483208 120.0
83.501389 144.0
83.565063 84.0
83.674271 188.0
83.712509 36.0
83.750755 44.0
83.792343 208.0
83.823631 68.0
83.849144 136.0
84.074692 228.0
84.124588 136.0
84.232056 188.0
84.298103 132.0
84.325523 208.0
84.338318 164.0
84.544998 136.0
84.599907 76.0
84.66217 120.0
84.750191 164.0
84.865578 116.0
84.946274 136.0
84.99765 120.0
85.168495 208.0
85.194107 136.0
85.223068 184.0
85.319672 176.0
85.405518 68.0
85.461922 164.0
85.512238 168.0
85.563782 164.0
85.596924 116.0
85.787712 124.0
85.8162 40.0
85.864151 68.0
85.887527 148.0
85.943474 124.0
85.973 284.0
86.0653 168.0
86.078232 152.0
86.102524 128.0
86.137337 60.0
86.150269 212.0
86.167442 188.0
86.19091 380.0
86.220482 232.0
86.293587 164.0
86.314766 156.0
86.335106 116.0
86.347427 164.0
86.450485 132.0
86.468315 176.0
86.494232 120.0
86.553474 192.0
86.599777 156.0
86.765945 216.0
86.815697 128.0
86.864433 176.0
86.966911 212.0
86.994759 64.0
87.093178 228.0
87.148911 164.0
87.175575 172.0
87.197227 96.0
87.219536 164.0
87.280891 84.0
87.351562 164.0
87.377609 228.0
87.398079 124.0
87.422638 244.0
87.494865 136.0
87.580528 104.0
87.599449 128.0
87.709106 312.0
87.767471 288.0
87.883972 168.0
87.908676 220.0
87.932938 228.0
87.946701 128.0
88.018814 148.0
88.046829 172.0
88.086052 104.0
88.168266 72.0
88.188828 188.0
88.228516 164.0
88.269142 200.0
88.280518 200.0
88.294464 136.0
88.36087 128.0
88.486237 184.0
88.591827 168.0
88.666107 180.0
88.694221 180.0
88.712967 128.0
88.839569 164.0
88.941833 68.0
89.005669 56.0
89.03759 148.0
89.069527 128.0
89.086433 188.0
89.172867 144.0
89.203651 192.0
89.289444 56.0
89.401169 312.0
89.424911 200.0
89.438087 128.0
89.564247 128.0
89.622871 204.0
89.669769 264.0
89.696159 188.0
89.804382 192.0
89.815948 160.0
89.831932 172.0
89.905525 48.0
90.115128 176.0
90.277702 140.0
90.340118 236.0
90.410507 180.0
90.497208 200.0
90.57296 96.0
90.694237 208.0
90.751114 88.0
90.784866 216.0
90.802315 56.0
90.969093 188.0
91.000099 196.0
91.052826 2136.0
91.180145 108.0
91.349373 200.0
91.396942 104.0
91.436462 292.0
91.495918 152.0
91.513054 144.0
91.572662 212.0
91.644478 180.0
91.730247 200.0
91.817955 124.0
91.974419 268.0
91.9916 108.0
92.024055 132.0
92.054375 228.0
92.125282 76.0
92.173424 184.0
92.215088 148.0
92.266708 148.0
92.291565 116.0
92.347023 100.0
92.373802 160.0
92.394844 144.0
92.429291 136.0
92.4571 128.0
92.47522 160.0
92.549881 164.0
92.599678 48.0
92.674385 72.0
92.76255 112.0
92.77597 120.0
92.908302 140.0
92.923363 216.0
93.058006 260.0
93.071449 172.0
93.111099 148.0
93.125221 148.0
93.141502 168.0
93.180931 204.0
93.201263 152.0
93.29895 168.0
93.33049 168.0
93.384705 132.0
93.42318 152.0
93.440498 128.0
93.513618 224.0
93.528786 164.0
93.540848 168.0
93.587128 196.0
93.683907 316.0
93.700417 164.0
93.762085 140.0
93.78714 188.0
93.883545 140.0
93.910545 156.0
93.935623 184.0
93.956841 216.0
93.970253 160.0
94.027046 200.0
94.06459 4148.0
94.117043 96.0
94.142151 64.0
94.176918 132.0
94.298645 252.0
94.352768 212.0
94.43399 200.0
94.486221 184.0
94.499763 196.0
94.526855 152.0
94.564873 220.0
94.586853 228.0
94.625572 128.0
94.677856 120.0
94.693352 140.0
94.714661 148.0
94.737411 236.0
94.784409 144.0
94.809601 36.0
94.962769 192.0
95.021614 192.0
95.070358 308.0
95.08889 204.0
95.139359 156.0
95.15683 276.0
95.232567 200.0
95.265594 224.0
95.285019 160.0
95.298622 220.0
95.319115 196.0
95.337486 80.0
95.3647 120.0
95.405518 104.0
95.500809 156.0
95.574738 112.0
95.603928 136.0
95.625336 224.0
95.698921 140.0
95.76931 208.0
95.796692 68.0
95.814224 172.0
95.827202 152.0
95.860992 180.0
95.888275 212.0
95.935059 180.0
95.978981 220.0
96.002922 184.0
96.021713 164.0
96.047272 176.0
96.080818 38684.0
96.138779 244.0
96.158669 76.0
96.183456 144.0
96.210136 80.0
96.224541 180.0
96.249191 84.0
96.266762 76.0
96.331902 112.0
96.353882 100.0
96.38488 208.0
96.406403 148.0
96.457596 84.0
96.523544 140.0
96.566795 200.0
96.597092 180.0
96.625626 136.0
96.633476 80.0
96.639282 184.0
96.682091 136.0
96.720703 140.0
96.728928 108.0
96.765549 52.0
96.794525 64.0
96.830025 60.0
96.850502 132.0
96.876472 140.0
96.894669 148.0
96.931892 52.0
96.955414 88.0
96.969131 116.0
96.986771 228.0
97.010651 6008.0
97.086113 3836.0
97.135803 136.0
97.149536 28.0
97.18158 132.0
97.231949 88.0
97.29084 56.0
97.32618 60.0
97.38903 160.0
97.434212 32.0
97.44796 180.0
97.52594 248.0
97.553574 196.0
97.574951 136.0
97.636681 228.0
97.664352 172.0
97.679955 108.0
97.719299 84.0
97.76062 128.0
97.796051 188.0
97.837242 108.0
97.86692 88.0
97.906311 108.0
97.931915 148.0
97.97525 260.0
98.013687 588.0
98.095482 2152.0
98.12307 168.0
98.174339 204.0
98.227592 52.0
98.261131 248.0
98.286781 180.0
98.302567 36.0
98.3302 132.0
98.353889 200.0
98.44558 100.0
98.473198 132.0
98.492462 124.0
98.528351 140.0
98.552299 120.0
98.565826 212.0
98.6166 100.0
98.687767 156.0
98.723358 144.0
98.768196 132.0
98.786659 72.0
98.883614 112.0
98.905388 96.0
99.008522 540.0
99.024574 168.0
99.09761 188.0
99.11731 148.0
99.151001 116.0
99.172798 152.0
99.269951 128.0
99.315567 48.0
99.363174 140.0
99.410805 48.0
99.425598 176.0
99.508064 184.0
99.533882 248.0
99.601753 184.0
99.696953 180.0
99.759743 148.0
99.788216 76.0
99.808105 28.0
99.941727 68.0
99.989136 60.0
100.011032 228.0
100.030937 56.0
100.064781 60.0
100.126518 48.0
100.156395 156.0
100.208191 68.0
100.280182 128.0
100.303848 104.0
100.325783 256.0
100.344505 92.0
100.397568 200.0
100.504875 96.0
100.519257 152.0
100.557175 180.0
100.579132 168.0
100.647011 64.0
100.758865 168.0
100.828804 212.0
100.886772 64.0
100.902771 160.0
100.966759 208.0
101.022766 240.0
101.050774 164.0
101.086792 172.0
101.186882 140.0
101.230934 184.0
101.244949 136.0
101.270988 132.0
101.369164 132.0
101.403229 172.0
101.499458 148.0
101.543579 148.0
101.595734 108.0
101.645897 232.0
101.737091 156.0
101.752281 176.0
101.864746 148.0
101.935074 152.0
101.989334 136.0
102.039597 28.0
102.180382 76.0
102.238739 136.0
102.262894 212.0
102.276985 64.0
102.345436 100.0
102.379669 252.0
102.407867 112.0
102.484421 80.0
102.554955 144.0
102.635597 180.0
102.688034 108.0
102.704704 136.0
102.752586 164.0
102.77478 148.0
102.851471 80.0
102.889832 72.0
102.982719 176.0
103.010109 136.0
103.033226 80.0
103.05452 1464.0
103.105972 88.0
103.124161 224.0
103.214966 140.0
103.257607 156.0
103.336502 204.0
103.366852 116.0
103.419479 108.0
103.480209 92.0
103.587547 112.0
103.668594 212.0
103.79834 40.0
103.96875 228.0
103.991074 60.0
104.025581 208.0
104.059975 276.0
104.090553 196.0
104.110863 196.0
104.181953 144.0
104.399452 164.0
104.672142 112.0
104.879959 68.0
104.894226 192.0
104.908493 96.0
104.922768 172.0
104.937042 84.0
104.965584 176.0
105.005142 212.0
105.03289 52.0
105.069061 816.0
105.155319 52.0
105.255356 100.0
105.27578 60.0
105.390175 152.0
105.504631 68.0
105.54348 192.0
105.587959 132.0
105.668251 188.0
105.696899 160.0
105.754204 40.0
105.821754 132.0
105.83609 140.0
105.868858 176.0
105.964378 196.0
106.112701 164.0
106.20089 164.0
106.218605 184.0
106.276794 160.0
106.317841 196.0
106.4328 132.0
106.500572 248.0
106.55249 204.0
106.59919 160.0
106.788338 200.0
106.819191 200.0
106.871452 228.0
106.971474 96.0
107.050171 200.0
107.071152 176.0
107.113564 116.0
107.204224 164.0
107.255753 164.0
107.278564 120.0
107.441353 184.0
107.769638 184.0
107.788239 216.0
107.896988 104.0
107.959824 120.0
107.988777 204.0
108.003258 136.0
108.08049 144.0
108.131538 300.0
108.259903 148.0
108.282761 112.0
108.462379 72.0
108.487007 248.0
108.557205 152.0
108.715996 136.0
108.86132 32.0
108.898705 176.0
108.971413 132.0
109.007935 312.0
109.062851 152.0
109.091957 192.0
109.185524 156.0
109.238678 164.0
109.28746 120.0
109.381119 188.0
109.395691 168.0
109.437073 164.0
109.476891 220.0
109.52063 136.0
109.628975 52.0
109.666489 100.0
109.724861 80.0
109.893806 208.0
109.96476 112.0
110.014854 376.0
110.029472 60.0
110.097588 168.0
110.135979 120.0
110.156868 120.0
110.175667 172.0
110.236267 204.0
110.250893 120.0
110.282242 72.0
110.334442 128.0
110.38678 160.0
110.411873 112.0
110.436974 196.0
110.472534 160.0
110.513367 132.0
110.564606 132.0
110.600189 112.0
110.648338 96.0
110.713249 64.0
110.811707 200.0
110.834755 176.0
110.866188 208.0
110.897629 132.0
110.973099 208.0
111.026558 3604.0
111.079796 128.0
111.115723 148.0
111.203629 164.0
111.281532 140.0
111.298332 204.0
111.417953 144.0
111.474785 156.0
111.588295 140.0
111.609322 72.0
111.695015 148.0
111.749184 204.0
111.828117 188.0
111.927063 108.0
111.996567 124.0
112.021515 192.0
112.095589 132.0
112.110344 152.0
112.127205 48.0
112.160927 128.0
112.352837 164.0
112.378151 172.0
112.395035 136.0
112.46257 176.0
112.549126 164.0
112.580803 180.0
112.629379 212.0
112.654732 196.0
112.684311 156.0
112.802658 188.0
112.879089 136.0
112.904152 132.0
112.967613 88.0
113.01049 224.0
113.027138 136.0
113.107277 196.0
113.202553 148.0
113.238556 132.0
113.326515 204.0
113.357201 92.0
113.412308 140.0
113.444099 120.0
113.569214 140.0
113.700768 140.0
113.748711 184.0
113.856064 136.0
114.057602 56.0
114.121384 164.0
114.544907 124.0
114.634392 184.0
114.77681 188.0
114.879601 172.0
114.920387 240.0
114.952141 236.0
114.990562 132.0
115.010277 268.0
115.026848 200.0
115.054276 11228.0
115.091484 188.0
115.138008 64.0
115.204094 124.0
115.281021 44.0
115.3601 60.0
115.519989 68.0
115.546165 172.0
115.582405 128.0
115.646744 56.0
115.740944 172.0
115.770927 136.0
115.807335 160.0
115.826614 80.0
115.854462 208.0
116.004478 148.0
116.021629 192.0
116.05761 2040.0
116.130013 332.0
116.195351 108.0
116.223244 28.0
116.352028 148.0
116.373497 76.0
116.526001 64.0
116.560379 200.0
116.611954 172.0
116.639122 232.0
116.682899 76.0
116.700096 112.0
116.728256 128.0
116.743103 228.0
116.762459 204.0
116.865723 196.0
116.964722 104.0
116.981941 144.0
117.069153 4964.0
117.119759 120.0
117.212402 56.0
117.300766 184.0
117.317009 172.0
117.402542 120.0
117.432304 156.0
117.519386 132.0
117.579018 160.0
117.630821 48.0
117.70639 100.0
117.779869 208.0
117.8965 104.0
117.965668 124.0
118.072319 372.0
118.166801 160.0
118.218735 220.0
118.276489 140.0
118.320473 136.0
118.337791 152.0
118.443909 120.0
118.526237 136.0
118.56308 56.0
118.630272 92.0
118.669304 128.0
118.782074 196.0
118.816788 172.0
118.936142 216.0
118.95134 84.0
118.97522 76.0
119.033844 164.0
119.083633 196.0
119.185905 176.0
119.201118 136.0
119.320663 120.0
119.397156 160.0
119.440277 88.0
119.485962 200.0
119.527306 188.0
119.568916 164.0
119.599121 232.0
119.633057 204.0
119.747185 164.0
119.766792 184.0
119.790756 212.0
119.829651 256.0
119.849579 232.0
120.036789 168.0
120.059532 168.0
120.09375 200.0
120.137383 156.0
120.397133 80.0
120.41555 92.0
120.487015 136.0
120.517281 84.0
120.578468 224.0
120.740257 172.0
120.76432 40.0
120.792755 156.0
120.895592 220.0
120.915291 60.0
120.963448 184.0
121.008179 456.0
121.30957 92.0
121.390694 68.0
121.464302 136.0
121.56839 88.0
121.601311 140.0
121.634407 212.0
121.763786 52.0
121.812111 200.0
121.893402 96.0
121.941757 192.0
122.020355 404.0
122.047279 168.0
122.064873 96.0
122.192451 124.0
122.218849 180.0
122.370728 64.0
122.408165 196.0
122.430183 160.0
122.483047 144.0
122.5205 224.0
122.584396 320.0
122.621864 192.0
122.701225 116.0
122.718864 156.0
122.740913 168.0
122.782814 160.0
122.855606 84.0
122.871048 160.0
122.911285 144.0
122.985802 48.0
123.025452 5448.0
123.058655 92.0
123.082947 168.0
123.099174 192.0
123.116074 196.0
123.16024 192.0
123.180664 172.0
123.195587 132.0
123.250824 132.0
123.281761 60.0
123.398918 76.0
123.513924 168.0
123.633141 168.0
123.675453 132.0
123.75737 232.0
123.783936 196.0
123.828232 188.0
123.854813 56.0
123.910194 152.0
124.028778 868.0
124.094475 168.0
124.114113 168.0
124.193954 100.0
124.220573 200.0
124.262726 132.0
124.278259 168.0
124.508278 208.0
124.54689 156.0
124.615761 188.0
124.753555 144.0
124.775787 152.0
124.835823 220.0
124.909225 56.0
124.969292 180.0
125.022903 196.0
125.041527 1028.0
125.083496 64.0
125.118416 144.0
125.223076 192.0
125.276543 84.0
125.36908 144.0
125.416931 140.0
125.492729 196.0
125.528404 156.0
125.559631 160.0
125.637703 176.0
125.776062 168.0
125.831871 124.0
126.046303 292.0
126.141541 184.0
126.182655 152.0
126.200539 72.0
126.368294 128.0
126.511536 136.0
126.536163 180.0
126.594383 148.0
126.722069 276.0
126.809464 212.0
126.825157 132.0
126.840843 216.0
126.905861 244.0
126.929924 164.0
126.95295 108.0
127.053551 1824.0
127.42659 144.0
127.552444 220.0
127.597404 168.0
127.642448 132.0
127.689606 240.0
127.952888 96.0
127.982849 184.0
128.028946 196.0
128.061569 9568.0
128.147522 68.0
128.16687 72.0
128.187149 140.0
128.227722 152.0
128.258148 152.0
128.268173 76.0
128.273895 148.0
128.293091 124.0
128.324646 256.0
128.40509 244.0
128.633728 144.0
128.786987 148.0
128.860748 108.0
128.92511 172.0
128.949966 56.0
128.976974 144.0
129.008743 116.0
129.031357 60.0
129.068527 9096.0
129.103714 132.0
129.170807 192.0
129.229584 212.0
129.440903 52.0
129.504318 84.0
129.526962 88.0
129.586182 204.0
129.669724 96.0
129.694656 80.0
129.77626 152.0
129.794403 152.0
129.925964 92.0
129.950912 104.0
130.074097 1328.0
130.107529 84.0
130.171097 156.0
130.211975 192.0
130.259689 144.0
130.367859 88.0
130.471039 64.0
130.523331 248.0
130.650696 208.0
130.68483 192.0
130.721237 128.0
130.74855 120.0
130.889694 68.0
130.96402 152.0
131.049683 136.0
131.086365 1672.0
131.147141 136.0
131.195007 88.0
131.231491 68.0
131.286209 140.0
131.452759 252.0
131.477859 184.0
131.724457 256.0
131.747299 128.0
131.79071 72.0
131.827271 168.0
131.910324 144.0
132.091248 264.0
132.147415 68.0
132.181732 220.0
132.35112 228.0
132.422119 224.0
132.467926 144.0
132.493134 72.0
132.513748 176.0
132.549881 136.0
132.584793 152.0
132.626053 176.0
132.669601 208.0
132.771072 48.0
132.993057 168.0
133.073395 136.0
133.133423 148.0
133.202011 124.0
133.30365 168.0
133.344482 80.0
133.431824 48.0
133.468613 132.0
133.500809 140.0
133.57901 164.0
133.72168 140.0
133.974976 140.0
134.015823 720.0
134.097107 172.0
134.154739 136.0
134.235443 116.0
134.369232 116.0
134.42485 184.0
134.593124 172.0
134.863419 96.0
134.886536 108.0
135.025635 1432.0
135.054718 148.0
135.201111 128.0
135.284439 152.0
135.910233 156.0
135.931107 124.0
135.963608 96.0
135.986404 136.0
136.032166 296.0
136.163269 144.0
136.202759 136.0
136.372375 68.0
136.573929 200.0
136.618866 168.0
136.793411 76.0
136.84108 160.0
136.879562 76.0
136.907501 100.0
136.981674 176.0
137.042038 5164.0
137.110199 72.0
137.126511 112.0
137.147491 52.0
137.209595 184.0
137.33989 156.0
137.448349 88.0
137.698135 196.0
137.820007 196.0
137.842987 200.0
138.04184 256.0
138.069763 276.0
138.165665 156.0
138.292023 172.0
138.429337 124.0
138.598831 164.0
138.617569 132.0
138.685532 136.0
138.766205 168.0
138.805099 120.0
138.855774 132.0
138.955231 140.0
139.013885 68.0
139.0401 560.0
139.182907 200.0
139.239273 100.0
139.342621 140.0
139.36377 304.0
139.413116 140.0
139.436859 156.0
139.490692 192.0
139.577682 160.0
139.671753 152.0
139.735275 88.0
139.845886 104.0
139.956528 164.0
139.982437 128.0
140.010696 216.0
140.060242 164.0
140.097839 164.0
140.137894 180.0
140.274597 48.0
140.345322 160.0
140.375977 160.0
140.534027 112.0
140.590652 44.0
140.647308 156.0
140.701599 184.0
140.899139 176.0
140.933075 100.0
141.008698 180.0
141.06955 11308.0
141.112045 144.0
141.152908 72.0
141.18602 44.0
141.266434 236.0
141.297195 136.0
141.320847 172.0
141.344513 168.0
141.368179 52.0
141.427353 44.0
141.459381 176.0
141.498367 72.0
141.517303 180.0
141.612045 124.0
141.744705 116.0
141.787369 388.0
141.825287 132.0
141.851364 80.0
141.875076 192.0
141.910629 84.0
141.934341 124.0
141.984146 128.0
142.031586 228.0
142.074402 1416.0
142.340134 264.0
142.525406 44.0
142.572937 60.0
142.634735 28.0
142.684662 84.0
142.775024 76.0
142.877304 176.0
142.893967 164.0
142.960587 160.0
142.998672 100.0
143.029617 172.0
143.084656 4912.0
143.114548 164.0
143.227249 124.0
143.298721 184.0
143.366165 264.0
143.463181 120.0
143.487015 176.0
143.565704 128.0
143.708832 48.0
143.792358 220.0
143.8759 144.0
143.893738 212.0
143.966644 200.0
144.04068 208.0
144.085892 824.0
144.217514 136.0
144.246201 188.0
144.262924 148.0
144.432709 48.0
144.518845 64.0
144.753433 36.0
144.817215 164.0
144.930695 56.0
144.957047 108.0
144.995392 52.0
145.024155 196.0
145.065704 300.0
145.088043 340.0
145.177597 32.0
145.283142 88.0
145.381516 176.0
145.424728 148.0
145.441528 172.0
145.592789 32.0
145.643158 148.0
145.748932 180.0
145.825836 40.0
145.868301 120.0
145.878006 80.0
145.90036 72.0
145.941238 100.0
145.982117 148.0
146.046143 180.0
146.052658 268.0
146.094498 188.0
146.152908 172.0
146.196228 148.0
146.222702 168.0
146.37677 160.0
146.509247 160.0
146.79126 120.0
146.892563 136.0
146.914276 112.0
146.931168 56.0
146.967361 112.0
146.986664 132.0
147.025238 2160.0
147.160461 140.0
147.356094 188.0
147.670364 196.0
147.846985 148.0
147.989807 120.0
148.026474 252.0
148.110901 192.0
148.224762 100.0
148.321716 188.0
148.430817 148.0
148.496292 200.0
148.595749 68.0
148.639435 164.0
148.656418 196.0
148.744522 160.0
148.862762 56.0
148.947769 156.0
149.006088 196.0
149.041428 944.0
149.132446 200.0
149.566849 136.0
149.62384 156.0
149.648605 216.0
149.735855 92.0
149.791885 100.0
149.91127 112.0
150.038025 156.0
150.160553 80.0
150.198975 184.0
150.228256 112.0
150.259964 180.0
150.27948 188.0
150.352692 184.0
150.403946 112.0
150.474747 208.0
150.519196 100.0
150.728775 188.0
150.821655 156.0
150.912109 180.0
151.017273 44.0
151.056427 556.0
151.085754 168.0
151.171402 40.0
151.188538 160.0
151.413773 84.0
151.452957 180.0
151.494614 80.0
151.582809 164.0
151.659927 172.0
151.695557 204.0
151.729889 164.0
151.798538 120.0
151.836044 68.0
151.935898 152.0
152.060043 2236.0
152.098969 124.0
152.124863 184.0
152.174255 204.0
152.402405 144.0
152.69249 120.0
152.785965 228.0
152.913147 268.0
152.933609 156.0
153.037003 168.0
153.068909 4316.0
153.105957 116.0
153.17247 44.0
153.347412 156.0
153.552048 124.0
153.569321 152.0
153.628525 164.0
153.645798 188.0
153.742035 208.0
153.80127 88.0
153.855576 152.0
153.892609 156.0
154.026352 332.0
154.077362 4372.0
154.206345 172.0
154.260727 60.0
154.286072 48.0
154.317596 108.0
154.441254 84.0
154.515457 116.0
154.607025 172.0
154.626816 100.0
154.728317 216.0
154.753067 32.0
154.771225 144.0
154.837265 56.0
154.948746 84.0
154.973511 84.0
155.013535 132.0
155.084686 8764.0
155.14949 144.0
155.205688 144.0
155.318848 124.0
155.382629 124.0
155.491806 188.0
155.57869 80.0
155.784821 68.0
155.879028 144.0
156.010971 132.0
156.064423 160.0
156.089767 1276.0
156.125351 96.0
156.150223 48.0
156.188889 124.0
156.284561 96.0
156.369171 48.0
156.418945 40.0
156.44136 164.0
156.466248 120.0
156.538467 72.0
156.690399 76.0
156.800049 228.0
156.869843 160.0
156.908142 144.0
157.020935 88.0
157.099167 540.0
157.121735 172.0
157.14418 140.0
157.251495 228.0
157.275284 196.0
157.336365 116.0
157.386307 272.0
157.468719 208.0
157.633606 180.0
157.736084 152.0
157.927017 144.0
157.993668 60.0
158.092789 292.0
158.102432 180.0
158.168839 128.0
158.319061 308.0
158.336594 196.0
158.659851 68.0
158.722534 188.0
158.797775 44.0
158.878036 56.0
158.903137 96.0
159.026001 272.0
159.10141 120.0
159.139069 160.0
159.689423 184.0
159.996429 220.0
160.035721 192.0
160.21373 156.0
160.260895 192.0
160.429749 216.0
160.47261 88.0
160.4953 64.0
160.548264 148.0
160.596191 64.0
160.825806 168.0
160.896484 108.0
161.043259 1204.0
161.128845 32.0
161.192017 40.0
161.374008 192.0
161.391708 60.0
161.419525 188.0
161.468948 208.0
161.566086 204.0
161.574982 192.0
161.584808 292.0
161.634552 80.0
161.704178 172.0
161.794006 56.0
161.82196 100.0
161.945938 156.0
162.049164 2472.0
162.082748 136.0
162.133438 104.0
162.186661 192.0
162.318497 124.0
162.445312 48.0
162.485901 220.0
162.620407 196.0
162.785431 140.0
162.975952 152.0
163.049789 304.0
163.103653 208.0
163.24794 136.0
163.281799 192.0
163.392929 172.0
163.413284 172.0
163.560898 180.0
163.723846 124.0
163.857773 168.0
163.90065 168.0
164.027054 220.0
164.063431 148.0
164.090164 164.0
164.123932 196.0
164.192795 144.0
164.36116 192.0
164.386688 144.0
164.410629 292.0
164.529617 112.0
164.590897 140.0
164.675171 140.0
164.705826 232.0
164.772247 84.0
164.838684 48.0
164.923019 88.0
164.963928 40.0
165.011566 220.0
165.069016 29852.0
165.108368 116.0
165.134888 56.0
165.213593 64.0
165.247818 148.0
165.278519 52.0
165.303772 160.0
165.330902 144.0
165.423645 108.0
165.446014 108.0
165.601089 152.0
165.649765 76.0
165.718933 148.0
165.753265 200.0
165.780426 60.0
165.809174 56.0
165.859879 252.0
165.877823 92.0
165.898346 148.0
165.91629 76.0
165.947052 100.0
165.96756 188.0
165.988083 56.0
166.013718 140.0
166.076752 13088.0
166.142395 244.0
166.161072 72.0
166.194977 152.0
166.270279 76.0
166.306213 64.0
166.33876 200.0
166.369019 68.0
166.429443 260.0
166.471695 132.0
166.502716 192.0
166.627213 60.0
166.650345 104.0
166.765976 148.0
166.791687 76.0
166.848251 40.0
166.869232 184.0
166.954605 156.0
167.083252 4536.0
167.154327 88.0
167.288177 56.0
167.36026 48.0
167.409195 84.0
167.427216 120.0
167.487457 188.0
167.5457 36.0
167.661667 44.0
167.718369 180.0
167.754456 104.0
167.818268 96.0
167.842117 156.0
167.996872 96.0
168.054596 344.0
168.087921 1016.0
168.112259 212.0
168.141373 88.0
168.172348 36.0
168.226547 56.0
168.267853 40.0
168.287186 240.0
168.353073 56.0
168.469315 136.0
168.497253 132.0
168.531311 128.0
168.877609 84.0
169.065704 212.0
169.099304 3100.0
169.126846 232.0
169.147827 148.0
169.361771 112.0
169.392853 176.0
169.482666 112.0
169.578262 160.0
169.664963 60.0
169.727203 140.0
169.859467 104.0
170.096359 956.0
170.173492 128.0
170.204651 92.0
170.251404 104.0
170.365692 68.0
170.46962 92.0
170.526794 160.0
170.690582 140.0
170.760803 148.0
170.870056 136.0
170.974152 120.0
171.027679 1024.0
171.100266 356.0
171.143356 112.0
171.40123 196.0
171.635834 100.0
171.852341 132.0
172.02861 348.0
172.110336 212.0
172.21521 56.0
172.246567 172.0
172.390259 176.0
172.471283 32.0
172.510498 140.0
172.615082 156.0
172.636002 152.0
172.683075 200.0
172.709244 136.0
172.798187 232.0
172.863602 160.0
172.960434 144.0
173.012802 200.0
173.037979 288.0
173.183014 176.0
173.217072 196.0
173.3862 80.0
173.414459 204.0
173.563019 52.0
173.741379 188.0
173.830597 180.0
173.940826 200.0
173.980209 140.0
174.001205 120.0
174.042816 132.0
174.116745 164.0
174.377365 164.0
174.560883 180.0
174.758179 228.0
174.792389 144.0
174.839752 128.0
174.947678 148.0
175.018768 136.0
175.056534 444.0
175.088593 212.0
175.110931 108.0
175.141281 180.0
175.197861 172.0
175.284805 244.0
175.319077 148.0
175.403412 60.0
175.533722 168.0
175.587982 188.0
175.632828 88.0
175.901718 196.0
175.997025 64.0
176.049042 260.0
176.129089 48.0
176.195129 188.0
176.226837 52.0
176.284973 152.0
176.319321 76.0
176.404617 180.0
176.443558 140.0
176.467361 140.0
176.541397 144.0
176.607529 188.0
176.747742 44.0
176.890656 108.0
177.012451 204.0
177.067154 336.0
177.160782 180.0
177.21376 108.0
177.24556 132.0
177.314468 168.0
177.486786 120.0
177.533188 112.0
177.570633 204.0
177.77594 72.0
177.890076 148.0
177.913956 40.0
177.951126 104.0
177.998932 220.0
178.020172 156.0
178.076614 10932.0
178.121094 184.0
178.164581 76.0
178.243317 52.0
178.285843 56.0
178.37886 56.0
178.413422 152.0
178.588928 48.0
178.772522 240.0
178.796463 224.0
178.815094 60.0
178.859573 96.0
179.038742 36.0
179.084106 7812.0
179.162598 40.0
179.18924 112.0
179.24556 120.0
179.270523 48.0
179.29184 36.0
179.347809 64.0
179.398453 92.0
179.48378 220.0
179.54512 188.0
179.654968 132.0
179.718506 36.0
179.793228 84.0
179.817245 60.0
179.849289 52.0
179.894669 92.0
180.028168 120.0
180.090836 1972.0
180.14035 68.0
180.17775 116.0
180.211151 144.0
180.236816 76.0
180.314026 92.0
180.357437 152.0
180.418289 100.0
180.450363 64.0
180.503845 120.0
180.565353 96.0
180.650955 164.0
180.798111 40.0
180.816849 144.0
180.873062 196.0
180.954071 136.0
181.049774 192.0
181.100647 1916.0
181.172989 52.0
181.342316 108.0
181.398102 48.0
181.436081 196.0
181.620682 344.0
181.668961 44.0
181.735962 140.0
181.781647 56.0
181.982971 156.0
182.047424 60.0
182.093842 400.0
182.238144 36.0
182.297256 176.0
182.420898 92.0
182.51413 232.0
182.555344 48.0
182.634857 92.0
182.653732 124.0
182.762466 56.0
183.104263 604.0
183.140106 104.0
183.187866 36.0
183.225586 108.0
183.438492 68.0
183.667694 64.0
183.72464 188.0
183.818787 176.0
183.95694 152.0
184.034286 5704.0
184.112152 1636.0
184.167068 40.0
184.188675 40.0
184.364304 48.0
184.499451 136.0
184.648178 56.0
184.737442 88.0
184.787323 164.0
184.962051 216.0
185.041122 6236.0
185.118408 1012.0
185.162415 144.0
185.244125 72.0
185.330582 52.0
185.354767 80.0
185.381866 36.0
185.493668 208.0
185.587875 28.0
185.734329 36.0
185.764175 160.0
185.884857 160.0
185.907761 140.0
186.042099 1048.0
186.069687 224.0
186.119797 552.0
186.140732 156.0
186.148056 192.0
186.16983 168.0
186.206619 84.0
186.255508 112.0
186.274521 80.0
186.459915 404.0
186.543564 116.0
186.587051 128.0
186.695831 112.0
186.742065 88.0
186.793747 152.0
187.039749 472.0
187.057449 580.0
187.090378 208.0
187.158447 56.0
187.297348 140.0
187.351822 48.0
187.398148 32.0
187.433563 40.0
187.550751 104.0
187.575287 56.0
188.05275 260.0
188.078842 204.0
188.10997 100.0
188.141464 200.0
188.29837 200.0
188.465012 140.0
188.514206 128.0
188.837784 248.0
188.858688 68.0
188.939682 172.0
189.000961 232.0
189.069138 1820.0
189.151489 32.0
189.247299 172.0
189.352081 124.0
189.40889 152.0
189.515732 196.0
189.592468 240.0
189.718552 100.0
189.937943 52.0
189.990067 204.0
190.014755 152.0
190.033966 56.0
190.075577 3704.0
190.132751 228.0
190.26416 160.0
190.308441 116.0
190.371597 96.0
190.574875 120.0
190.63533 52.0
190.71228 152.0
190.738678 160.0
190.813995 148.0
190.899246 104.0
190.9599 144.0
190.990936 260.0
191.017517 140.0
191.036774 172.0
191.085632 13740.0
191.149582 36.0
191.168839 88.0
191.190643 52.0
191.243149 48.0
191.276184 100.0
191.30011 116.0
191.328491 132.0
191.406967 80.0
191.429749 180.0
191.47168 100.0
191.51561 132.0
191.533218 112.0
191.575989 92.0
191.642471 184.0
191.708603 68.0
191.744431 80.0
191.840912 52.0
191.942932 104.0
191.964996 164.0
192.009109 172.0
192.091812 4656.0
192.177399 96.0
192.221542 196.0
192.243622 60.0
192.527969 72.0
192.700546 80.0
192.878876 56.0
192.936935 36.0
193.054062 88.0
193.099075 2648.0
193.180298 28.0
193.207962 144.0
193.24086 72.0
193.256729 172.0
193.285431 60.0
193.34256 112.0
193.392593 176.0
193.484726 200.0
193.548401 68.0
193.59549 156.0
193.637024 80.0
193.664719 120.0
193.783844 128.0
193.830948 92.0
193.925186 44.0
194.102936 916.0
194.17749 108.0
194.305099 88.0
194.445129 112.0
194.513245 144.0
194.615967 124.0
194.663162 144.0
194.821487 76.0
194.854828 84.0
194.913177 128.0
194.932632 104.0
194.957642 128.0
195.103088 292.0
195.117676 164.0
195.371948 176.0
195.460983 108.0
195.806198 224.0
195.886978 156.0
196.020706 108.0
196.045792 152.0
196.076447 80.0
196.110092 772.0
196.422195 168.0
196.5896 88.0
196.609146 104.0
196.655151 224.0
196.829681 148.0
197.002853 348.0
197.041733 9856.0
197.117874 328.0
197.162125 124.0
197.190063 52.0
197.227127 92.0
197.310272 96.0
197.412109 148.0
197.536804 184.0
197.618866 128.0
197.65152 52.0
197.746658 84.0
197.897842 64.0
198.046799 2736.0
198.082672 124.0
198.12709 6888.0
198.217163 64.0
198.24057 68.0
198.519928 196.0
198.640533 72.0
198.674194 176.0
198.716278 316.0
198.865005 188.0
198.893082 216.0
198.928741 188.0
199.000732 152.0
199.056931 25032.0
199.133133 1100.0
199.188446 176.0
199.230072 52.0
199.284775 76.0
199.324722 64.0
199.367752 72.0
199.413559 260.0
199.457687 48.0
199.530792 100.0
199.558899 100.0
199.57785 76.0
199.644363 112.0
199.688263 104.0
199.74115 160.0
199.77301 64.0
199.797974 204.0
199.817673 92.0
199.845795 52.0
199.879562 88.0
200.00621 128.0
200.025925 52.0
200.05925 2904.0
200.095337 140.0
200.138947 168.0
200.161072 56.0
200.232971 128.0
200.306702 124.0
200.338516 28.0
200.383591 56.0
200.465302 92.0
200.527313 124.0
200.817719 132.0
200.8685 196.0
200.97551 112.0
201.055695 836.0
201.139389 120.0
201.173279 96.0
201.266449 192.0
201.286209 68.0
201.337036 152.0
201.383606 140.0
201.424606 32.0
201.515015 168.0
201.650558 116.0
201.657425 192.0
201.68457 60.0
201.828751 84.0
201.89946 72.0
201.927734 216.0
201.984314 48.0
202.01825 156.0
202.076523 2760.0
202.125198 176.0
202.199356 52.0
202.391861 64.0
202.417343 48.0
202.437164 88.0
202.459824 56.0
202.584457 56.0
202.785645 100.0
202.856125 212.0
202.890518 184.0
203.028046 152.0
203.084213 9020.0
203.19278 56.0
203.200272 152.0
203.311188 120.0
203.489166 316.0
203.531769 44.0
203.685135 128.0
203.724747 76.0
203.821503 220.0
203.852753 48.0
203.898224 60.0
204.047501 172.0
204.093018 9808.0
204.138702 48.0
204.162628 208.0
204.194092 80.0
204.228058 52.0
204.299164 228.0
204.344696 52.0
204.394684 112.0
204.51886 60.0
204.596283 252.0
204.845764 120.0
204.916977 200.0
204.93692 196.0
204.973969 56.0
205.100433 11152.0
205.183182 80.0
205.244766 100.0
205.350723 52.0
205.441254 140.0
205.578537 44.0
205.65274 128.0
205.68985 116.0
205.855453 140.0
205.906403 76.0
206.003967 136.0
206.104309 3520.0
206.140228 232.0
206.24115 48.0
206.28688 52.0
206.3069 92.0
206.389816 156.0
206.441284 44.0
206.512787 56.0
206.675858 124.0
206.796051 160.0
206.873337 188.0
206.89624 144.0
206.973557 88.0
207.114426 1336.0
207.183838 200.0
207.294388 108.0
207.366028 44.0
207.437698 212.0
207.47496 128.0
207.606873 84.0
207.652756 128.0
207.8134 192.0
207.876526 52.0
207.913834 128.0
208.033493 716.0
208.073761 76.0
208.117432 332.0
208.591705 32.0
208.669327 232.0
208.833252 156.0
208.925293 236.0
209.040146 2552.0
209.120178 192.0
209.172791 56.0
209.248749 188.0
209.279312 60.0
209.385864 28.0
209.463638 76.0
209.656677 164.0
209.855591 144.0
209.890182 128.0
209.947861 84.0
209.982468 40.0
210.049606 3372.0
210.233475 156.0
210.406662 80.0
210.431931 64.0
210.443481 48.0
210.452972 52.0
210.581085 96.0
210.626144 40.0
210.782166 104.0
210.897766 52.0
211.056259 3588.0
211.15741 80.0
211.209717 104.0
211.251999 72.0
211.346024 96.0
211.386536 140.0
211.409698 88.0
211.574677 100.0
211.597839 184.0
211.684708 160.0
211.82373 112.0
211.884583 124.0
212.061554 1192.0
212.142517 172.0
212.162796 60.0
212.229492 148.0
212.322281 112.0
212.438309 88.0
212.502136 156.0
212.572891 188.0
212.786575 140.0
212.818512 84.0
212.873688 124.0
212.896927 240.0
213.072739 820.0
213.103165 68.0
213.405457 52.0
213.597397 36.0
213.652679 176.0
214.074783 548.0
214.10968 152.0
214.252411 108.0
214.508865 84.0
214.645905 124.0
215.013489 44.0
215.086685 680.0
216.036194 192.0
216.093536 900.0
216.208832 148.0
216.571899 188.0
216.75647 80.0
217.046677 188.0
217.101135 1908.0
217.243179 64.0
217.290131 140.0
217.348801 140.0
217.463257 60.0
217.792709 120.0
217.8685 68.0
217.94072 152.0
217.980331 68.0
218.038071 124.0
218.064056 68.0
218.105591 1520.0
218.297638 184.0
218.341751 200.0
218.541794 152.0
218.768417 144.0
218.815521 152.0
218.959824 144.0
219.11644 8356.0
219.328125 84.0
219.54631 136.0
219.617096 88.0
219.705597 312.0
219.891495 60.0
220.074524 52.0
220.120605 2264.0
220.177887 208.0
220.302643 168.0
220.627029 104.0
220.721649 88.0
220.804459 52.0
220.877914 124.0
221.041092 1644.0
221.128006 444.0
221.1595 184.0
221.328262 44.0
221.49115 44.0
221.554108 96.0
221.627426 124.0
221.72226 68.0
221.768127 76.0
221.799332 128.0
221.858612 60.0
221.906052 132.0
221.926804 108.0
221.948914 44.0
222.045151 976.0
222.12146 152.0
222.170013 48.0
222.276825 52.0
222.472717 100.0
222.523193 128.0
222.680588 180.0
222.731079 44.0
223.00148 48.0
223.056198 4456.0
223.14119 40.0
223.200668 92.0
223.408859 100.0
223.477295 100.0
223.521927 152.0
223.600571 208.0
223.673721 96.0
223.736237 76.0
223.795776 60.0
223.894058 128.0
224.06366 4276.0
224.18602 68.0
224.397659 112.0
224.490097 76.0
224.549744 44.0
224.612381 80.0
224.894562 92.0
224.964508 128.0
225.07164 4596.0
225.115067 116.0
225.201813 196.0
225.236252 48.0
225.290024 156.0
225.370697 72.0
225.391617 112.0
225.65715 48.0
225.681564 40.0
225.789215 84.0
225.921585 160.0
226.070206 768.0
226.58548 88.0
226.726318 132.0
226.942154 68.0
227.072174 352.0
227.470184 232.0
227.959747 88.0
228.088989 116.0
228.122055 136.0
228.362625 52.0
228.461884 44.0
229.06398 48.0
229.095459 124.0
229.45575 168.0
229.513046 156.0
229.697021 48.0
229.811661 216.0
229.950485 160.0
231.020172 56.0
231.120224 512.0
231.222916 108.0
231.477219 144.0
232.121323 404.0
232.341064 56.0
232.541351 60.0
232.920898 144.0
233.111313 284.0
233.382858 72.0
233.793533 160.0
233.863525 92.0
233.909195 176.0
234.050674 212.0
234.076645 84.0
234.128067 912.0
234.183243 164.0
234.253296 120.0
234.448303 56.0
234.539749 96.0
235.057144 1880.0
235.127502 40.0
235.23526 52.0
235.32074 124.0
235.390961 104.0
235.800339 124.0
236.066025 988.0
236.138245 148.0
236.323273 88.0
236.363052 56.0
236.494659 44.0
237.072006 2448.0
237.15004 124.0
237.564117 144.0
238.035797 236.0
238.077942 1236.0
238.1427 180.0
238.171921 72.0
238.445389 96.0
238.657501 56.0
239.090286 1140.0
239.149734 36.0
239.180511 56.0
239.491516 104.0
239.716415 224.0
240.088867 308.0
240.160385 136.0
240.533752 52.0
241.091507 160.0
241.847488 72.0
242.110657 192.0
243.018936 148.0
243.838776 96.0
245.030609 60.0
245.067993 128.0
246.126968 168.0
246.206604 108.0
247.053818 124.0
247.13504 164.0
247.482483 32.0
248.046417 128.0
248.071487 204.0
248.109116 148.0
248.141251 256.0
248.867416 44.0
248.928055 80.0
249.068222 332.0
249.146622 184.0
249.540802 92.0
249.845871 128.0
250.082397 520.0
250.148422 148.0
250.48494 248.0
250.711807 156.0
251.087601 2132.0
251.131454 192.0
251.225769 88.0
251.25914 124.0
251.326721 48.0
251.468735 132.0
251.531876 124.0
251.847641 124.0
252.081314 648.0
252.334305 84.0
252.479767 76.0
252.903748 112.0
253.060333 356.0
253.103806 1536.0
253.154633 196.0
253.308914 84.0
253.347076 76.0
253.413605 80.0
253.451782 84.0
253.622772 56.0
253.727768 168.0
254.109543 352.0
254.990799 40.0
255.110245 228.0
255.67778 112.0
255.970657 76.0
256.604736 164.0
256.898163 124.0
257.785797 104.0
257.808167 84.0
258.505341 64.0
258.52774 160.0
259.947418 156.0
260.117523 36.0
262.161072 576.0
262.81778 76.0
262.846832 104.0
263.163788 280.0
263.996857 48.0
264.074463 156.0
264.168274 168.0
265.04895 64.0
265.103821 352.0
265.392548 92.0
265.480103 160.0
265.739594 68.0
266.105621 268.0
267.09848 156.0
267.240723 100.0
268.107056 108.0
268.132996 156.0
269.194458 168.0
271.615295 144.0
272.472839 180.0
273.050659 92.0
274.127197 68.0
275.883179 124.0
278.066132 144.0
278.428009 92.0
280.117737 128.0
280.771027 152.0
281.115204 284.0
281.294891 140.0
282.118591 172.0
282.976532 44.0
283.123871 108.0
283.170746 108.0
283.492371 96.0
284.740417 56.0
285.133514 40.0
285.382263 52.0
287.035614 184.0
287.332428 60.0
287.528137 56.0
287.902893 136.0
288.413086 160.0
289.201202 108.0
289.292603 72.0
289.590576 188.0
289.980225 76.0
291.493866 148.0
291.650208 92.0
292.269165 140.0
292.892212 52.0
293.014862 172.0
293.113647 124.0
293.287476 76.0
293.471558 60.0
293.536346 136.0
293.891113 136.0
294.135284 284.0
294.162476 124.0
294.491974 124.0
294.635437 84.0
294.775543 96.0
294.799438 96.0
294.826782 172.0
295.048981 124.0
295.120789 168.0
295.267822 52.0
295.390961 108.0
295.519409 148.0
295.56546 168.0
295.627045 172.0
295.777649 152.0
295.815308 96.0
295.900879 240.0
295.96579 192.0
296.037872 216.0
296.072113 152.0
296.14679 23268.0
296.209106 100.0
296.250214 52.0
296.347382 56.0
296.38385 104.0
296.432617 52.0
296.496674 112.0
296.600281 76.0
296.644318 88.0
296.681091 88.0
296.712311 88.0
296.767761 144.0
296.795166 60.0
296.919647 136.0
296.952942 68.0
297.052399 80.0
297.097015 132.0
297.149841 4772.0
297.229095 136.0
297.334351 48.0
297.474518 48.0
297.529419 80.0
297.580933 164.0
297.605438 68.0
297.756073 120.0
297.792847 88.0
298.145874 860.0
298.19928 128.0
298.477753 28.0
298.95813 124.0
299.010986 96.0
299.043335 92.0
299.141388 344.0
299.148376 136.0
299.182251 112.0
299.20871 156.0
299.255402 52.0
299.32428 112.0
299.696289 68.0
299.806549 56.0
300.216827 172.0
300.344421 76.0
300.906952 56.0
301.362854 40.0
301.853729 68.0
302.473022 68.0
302.874695 48.0
306.282349 128.0
307.509705 64.0
308.64859 72.0
310.739716 84.0
311.139832 40.0
312.056824 108.0
312.429626 44.0
313.415497 92.0
313.693939 92.0
314.208832 64.0
316.520447 88.0
317.027039 148.0
317.177063 60.0
321.279724 100.0
321.793671 84.0
324.810608 56.0
325.618225 60.0
326.067322 108.0
326.354919 52.0
326.99527 52.0
328.775696 52.0
329.288361 36.0
329.544861 132.0
329.819519 56.0
329.866516 52.0
330.072601 56.0
332.60144 108.0
333.734955 88.0
334.076843 52.0
339.486389 84.0
340.264313 160.0
340.46994 84.0
340.682983 88.0
341.101929 56.0
341.822815 96.0
343.016144 40.0
346.071503 64.0
348.35611 80.0
348.43042 72.0
348.891266 88.0
349.222229 52.0
349.575653 84.0
350.558807 60.0
352.047302 32.0
360.401886 56.0
367.346069 108.0
369.179443 80.0
369.466339 40.0
371.92276 44.0
373.132843 120.0
374.206299 48.0
374.845734 144.0
387.168884 116.0
397.823273 56.0
399.69928 56.0
410.17276 40.0
415.494781 56.0
417.411957 60.0
421.480164 128.0
430.468292 88.0
438.733704 48.0
441.334869 92.0
447.747131 84.0
451.744446 112.0
460.005798 96.0
464.486206 52.0
473.663757 104.0
479.473114 88.0
480.44989 44.0
484.669159 120.0
492.495819 44.0
497.650757 92.0
498.788086 60.0
503.421844 124.0
506.794708 128.0
508.103912 100.0
513.732117 56.0
522.425781 88.0
527.743774 68.0
544.049683 44.0
549.910339 60.0
555.497437 48.0
557.845459 64.0
560.113647 52.0
565.070679 100.0
577.257446 172.0
586.952942 84.0
590.618652 40.0
592.826416 88.0
606.890137 64.0
610.592834 100.0
612.300659 76.0
613.088989 20.0
614.844727 52.0
623.248535 92.0
643.737305 76.0
644.686584 208.0
652.813599 60.0
658.577942 76.0
665.106567 52.0
673.494751 48.0
676.085083 116.0
686.298035 44.0
697.133972 56.0
717.071106 112.0
717.721497 164.0
718.703003 220.0
719.695801 112.0
729.796204 84.0
753.067505 52.0
761.991394 164.0
763.024719 136.0
763.910156 68.0
764.454834 208.0
777.963745 148.0
783.330261 92.0
785.258911 68.0
788.609009 204.0
797.375061 200.0
801.195923 104.0
802.00177 152.0
804.224121 52.0
807.128052 64.0
809.029114 140.0
811.590088 156.0
813.286377 260.0
813.678101 152.0
821.429321 32.0
822.844666 168.0
822.896057 96.0
826.508484 76.0
827.819397 176.0
830.060059 128.0
832.051086 152.0
837.272339 148.0
841.845703 212.0
842.683289 60.0
843.116699 36.0
845.140686 104.0
845.458984 204.0
845.528442 52.0
850.600159 196.0
858.000122 168.0
863.54187 144.0
866.041199 140.0
867.013794 32.0
870.774597 104.0
872.496338 144.0
873.149048 208.0
876.133484 84.0
879.205566 144.0
882.856689 148.0
882.998596 184.0
883.767639 228.0
886.51532 76.0
886.983521 88.0
888.727173 216.0
891.292358 124.0
892.213623 140.0
893.034302 152.0
893.873169 112.0
898.896729 172.0
899.881592 180.0
900.598267 140.0
902.63623 188.0
903.282166 120.0
904.30542 180.0
905.257324 164.0
907.996155 60.0
908.2901 344.0
908.530029 140.0
909.052063 60.0
909.580261 148.0
910.048523 44.0
912.247437 112.0
912.638245 32.0
913.678772 48.0
913.841248 112.0
914.701843 200.0
914.924622 256.0
915.617065 176.0
916.942566 240.0
917.593628 124.0
919.892212 196.0
921.679932 48.0
922.665161 172.0
924.25592 48.0
925.085083 36.0
926.417419 152.0
927.605164 124.0
928.302429 176.0
929.56427 204.0
930.213684 176.0
931.391724 44.0
932.91095 60.0
933.196716 176.0
933.330505 64.0
934.705261 116.0
934.991272 180.0
935.709595 148.0
936.817993 48.0
937.421204 124.0
937.738098 100.0
938.042908 144.0
939.500427 176.0
939.866516 64.0
940.165527 184.0
941.441467 208.0
942.211121 176.0
943.133911 116.0
944.069336 144.0
944.295654 168.0
945.372437 104.0
946.333496 156.0
947.098999 164.0
948.275452 196.0
948.447083 188.0
948.624817 156.0
950.673462 68.0
952.165344 236.0
952.269775 204.0
952.441772 196.0
955.718567 60.0
955.878601 124.0
958.575806 48.0
958.748352 180.0
962.715271 136.0
962.931396 152.0
963.765381 180.0
964.630676 160.0
965.082031 176.0
965.916931 124.0
966.332397 156.0
967.067871 184.0
967.940796 124.0
968.807922 176.0
969.315979 160.0
973.857422 192.0
974.298462 128.0
974.484863 128.0
976.579834 140.0
976.712585 188.0
977.027771 228.0
977.407288 144.0
977.917603 132.0
978.515259 56.0
979.636292 148.0
979.941528 224.0
980.620789 196.0
981.387634 212.0
984.301636 56.0
985.344788 136.0
987.488953 120.0
988.671448 152.0
988.840454 136.0
989.322449 20.0
989.416321 132.0
989.485229 172.0
989.72937 184.0
990.662598 188.0
992.793762 132.0
992.989685 84.0
993.132446 112.0
993.872742 136.0
994.927185 116.0
995.341614 88.0
996.641846 172.0
997.295471 160.0
999.282715 160.0
1000.094543 84.0
1001.826233 204.0
1002.084595 208.0
1002.160156 148.0
1003.423523 164.0
1003.578369 136.0
1004.284729 172.0
1008.325684 76.0
1009.267578 188.0
1009.874756 156.0
1010.684509 48.0
1010.956604 76.0
1011.026245 200.0
1013.198181 156.0
1013.939575 64.0
1014.522705 152.0
1014.9729 172.0
1015.087036 148.0
1016.615906 204.0
1017.790283 160.0
1019.613525 144.0
1021.018616 200.0
1021.495667 156.0
1022.023743 148.0
1022.131897 188.0
1022.984802 136.0
1023.271301 132.0
1023.863464 60.0
1024.137329 172.0
1024.984741 212.0
1025.985352 236.0
1026.144775 148.0
1027.114136 136.0
1028.517944 172.0
1029.252197 136.0
1030.203857 180.0
1030.855591 80.0
1031.056519 156.0
1032.140503 188.0
1032.27478 240.0
1034.123779 164.0
1034.463013 156.0
1034.571899 144.0
1034.680664 56.0
1034.904785 232.0
1036.781738 76.0
1037.897217 176.0
1038.724487 156.0
1038.788696 272.0
1039.571411 116.0
1041.022339 188.0
1043.830566 224.0
1044.814697 216.0
1045.400269 128.0
1045.496826 144.0
1045.76062 108.0
1047.157837 160.0
1047.808472 140.0
1048.059082 184.0
1048.588257 116.0
1048.717163 56.0
1048.807373 168.0
1050.425903 72.0
1051.342163 60.0
1052.433105 68.0
1053.137085 140.0
1054.2677 120.0
1055.683472 172.0
1055.929321 172.0
1058.947998 200.0
1060.286621 156.0
1060.35791 108.0
1061.67395 124.0
1063.625244 184.0
1067.044189 208.0
1067.187134 92.0
1067.234497 212.0
1072.284424 172.0
1072.59729 144.0
1073.242798 156.0
1074.181885 368.0
1075.134521 120.0
1075.180298 52.0
1076.582153 72.0
1076.629639 196.0
1077.1521 212.0
1077.452637 160.0
1078.615967 60.0
1080.08728 200.0
1080.172241 136.0
1082.07019 200.0
1082.947632 156.0
1083.177002 364.0
1084.802124 56.0
1085.707031 148.0
1085.870972 208.0
1086.166138 100.0
1088.37793 44.0
1088.903198 208.0
1090.335571 132.0
1090.578735 196.0
1090.712402 176.0
1091.269043 64.0
1091.420288 148.0
1092.360718 248.0
1094.229858 200.0
1094.677612 140.0
1095.158325 140.0
1096.054321 164.0
1096.443115 176.0
1097.583618 132.0
1099.213013 120.0
1099.351562 168.0
1104.253784 252.0
1104.525024 172.0
1105.047607 172.0
1105.153564 112.0
1105.630005 96.0
1106.305176 144.0
1106.384644 140.0
1106.742188 112.0
1107.271973 180.0
1107.318237 212.0
1107.987305 156.0
1111.24939 140.0
1111.581177 216.0
1112.470581 156.0
1112.855591 148.0
1113.380249 148.0
1113.692383 128.0
1114.051147 180.0
1115.898804 160.0
1116.343628 176.0
1117.282104 136.0
1117.401855 188.0
1118.539917 120.0
1119.085815 152.0
1119.152466 232.0
1119.372192 136.0
1119.825073 184.0
1120.331299 224.0
1121.297485 56.0
1121.377563 228.0
1121.597534 172.0
1122.210815 148.0
1122.75769 140.0
1122.93103 148.0
1123.417969 80.0
1124.265381 204.0
1126.234985 212.0
1126.442139 140.0
1127.564697 184.0
1128.162231 120.0
1128.320068 132.0
1129.042236 112.0
1129.236206 44.0
1129.329834 172.0
1129.430176 232.0
1129.680786 204.0
1132.163208 212.0
1132.656616 148.0
1132.884399 100.0
1133.487427 92.0
1133.889526 272.0
1133.976685 144.0
1134.680542 216.0
1135.284058 196.0
1135.706543 40.0
1136.686035 168.0
1137.075317 208.0
1137.457886 156.0
1138.106567 148.0
1139.19043 204.0
1139.338257 100.0
1140.514282 228.0
1140.608398 264.0
1141.17981 128.0
1142.518311 152.0
1142.821045 160.0
1142.955688 180.0
1143.258423 200.0
1143.648804 204.0
1143.823853 52.0
1144.692383 128.0
1146.807861 48.0
1147.367432 200.0
1147.643799 176.0
1148.567749 212.0
1149.586548 192.0
1149.728271 136.0
1150.005005 192.0
1150.464111 92.0
1151.132568 236.0
1151.62561 148.0
1152.490234 148.0
1153.253906 136.0
1153.470215 116.0
1155.587036 108.0
1156.250244 204.0
1157.157349 120.0
1157.387573 140.0
1157.482422 164.0
1158.430664 68.0
1158.606689 152.0
1158.816772 136.0
1159.00647 136.0
1159.338501 208.0
1159.392822 112.0
1159.982422 164.0
1160.057007 172.0
1160.165527 168.0
1160.816406 104.0
1161.203003 188.0
1161.582886 56.0
1162.118774 228.0
1162.994263 128.0
1163.191162 140.0
1163.591675 108.0
1164.060181 232.0
1164.121338 156.0
1165.262451 128.0
1165.534302 196.0
1165.588623 76.0
1165.860474 168.0
1165.914795 172.0
1166.220703 196.0
1166.866577 208.0
1167.798218 48.0
1167.879761 144.0
1169.118042 232.0
1169.601318 196.0
1170.718018 156.0
1170.765625 136.0
1171.065308 36.0
1173.280029 188.0
1173.587158 208.0
1173.845947 40.0
1175.046509 260.0
1175.408081 144.0
1176.07019 132.0
1176.466064 164.0
1176.55481 140.0
1176.629883 48.0
1176.704956 172.0
1177.312744 160.0
1177.435669 160.0
1177.579102 196.0
1178.241699 224.0
1178.856689 128.0
1179.077271 120.0
1179.348755 84.0
1180.114502 136.0
1180.654663 108.0
1181.701294 84.0
1181.783447 208.0
1182.679932 176.0
1182.871582 120.0
1183.124878 140.0
1183.35083 204.0
1183.816528 140.0
1185.172852 120.0
1185.405884 148.0
1185.844482 200.0
1185.974731 168.0
1186.022705 48.0
1186.248901 164.0
1187.009888 88.0
1187.22937 172.0
1187.387085 180.0
1187.894775 72.0
1188.169189 144.0
1188.670044 68.0
1191.533325 132.0
1191.794434 104.0
1193.554077 208.0
1194.200562 148.0
1194.730225 172.0
1194.964233 152.0
1195.13623 156.0
1196.244263 124.0
1196.306274 172.0
1196.505859 152.0
1196.588501 172.0
1196.684326 152.0
1197.098022 156.0
1197.242676 172.0
1197.662842 160.0
1197.798584 148.0
1198.03479 156.0
1199.364868 172.0
1199.516479 176.0
1200.185303 128.0
1201.785522 128.0
1202.026978 164.0
1202.724121 204.0
1202.772461 76.0
1203.275024 140.0
1203.587158 112.0
1203.711426 188.0
1204.098145 232.0
1205.859985 96.0
1206.309326 180.0
1206.675659 184.0
1207.699219 132.0
1208.045044 204.0
1212.580566 168.0
1213.011353 140.0
1213.151489 88.0
1213.218384 120.0
1213.280762 36.0
1213.350098 44.0
1213.426392 124.0
1214.105957 68.0
1214.889771 64.0
1215.548828 156.0
1215.930542 184.0
1216.263794 200.0
1216.444214 192.0
1216.680298 144.0
1216.855713 204.0
1217.527466 180.0
1218.625 292.0
1218.958496 180.0
1220.112427 156.0
1220.161011 180.0
1220.223633 184.0
1220.821655 160.0
1221.28064 196.0
1221.391968 208.0
1221.684082 200.0
1221.746704 196.0
1222.205933 168.0
1222.470337 96.0
1223.263916 132.0
1223.549316 184.0
1224.886353 240.0
1225.109375 144.0
1226.015137 236.0
1226.977173 192.0
1227.144409 160.0
1228.888184 112.0
1229.271973 192.0
1230.137451 180.0
1230.751831 208.0
1231.680786 104.0
1231.813477 272.0
1232.246582 132.0
1232.414307 156.0
1232.519165 152.0
1232.603027 232.0
1233.182983 172.0
1233.875122 156.0
1234.161743 96.0
1234.399536 144.0
1235.336792 124.0
1235.476685 140.0
1235.86145 160.0
1236.29541 176.0
1236.379395 200.0
1236.713257 188.0
1237.114258 208.0
1237.744507 184.0
1238.795044 156.0
1239.586792 168.0
1239.958252 144.0
1240.126465 108.0
1240.413818 160.0
1240.834473 176.0
1241.013306 164.0
1241.739136 164.0
1242.938721 252.0
1243.773926 212.0
1244.223267 124.0
1244.763916 192.0
1249.205933 124.0
1249.818115 132.0
1250.205078 136.0
1250.676636 128.0
1250.958252 68.0
1251.789062 112.0
1252.049683 140.0
1252.852661 180.0
1253.028809 140.0
1253.966064 144.0
1254.121094 120.0
1254.233887 112.0
1254.325562 68.0
1255.087036 232.0
1255.855713 68.0
1255.92627 160.0
1257.135498 192.0
1257.662109 188.0
1257.746826 252.0
1257.958496 196.0
1258.601074 216.0
1258.706909 196.0
1258.897583 40.0
1259.246094 228.0
1259.342529 140.0
1260.084351 204.0
1260.338745 188.0
1260.649658 104.0
1260.960571 116.0
1261.384766 152.0
1261.63916 172.0
1262.62207 104.0
1262.735229 152.0
1263.004028 112.0
1263.336548 152.0
1264.546509 240.0
1264.884277 216.0
1265.410156 212.0
1266.380371 148.0
1267.046265 184.0
1268.577148 220.0
1269.72583 220.0
1270.170776 196.0
1270.264893 120.0
1270.562866 56.0
1270.747314 228.0
1271.00708 152.0
1271.116333 116.0
1271.677002 172.0
1272.067383 56.0
1272.798706 152.0
1273.104004 196.0
1273.409424 152.0
1273.707764 128.0
1273.962402 148.0
1274.183716 156.0
1274.546143 180.0
1274.937012 132.0
1275.953491 156.0
1276.209473 176.0
1276.629028 188.0
1277.183716 160.0
1277.311768 228.0
1279.525024 212.0
1280.514893 44.0
1281.811523 232.0
1282.10376 92.0
1282.346069 156.0
1285.312866 228.0
1285.576904 180.0
1286.312012 180.0
1287.111694 128.0
1287.532959 96.0
1287.682983 128.0
1287.754395 176.0
1287.861572 132.0
1288.125854 156.0
1288.82605 64.0
1290.28418 188.0
1290.634521 240.0
1290.934814 40.0
1291.321045 60.0
1291.829834 148.0
1291.963989 184.0
1292.064941 148.0
1292.902222 72.0
1293.124023 168.0
1293.227905 172.0
1293.302979 180.0
1293.739746 120.0
1294.440674 192.0
1294.606079 156.0
1294.815552 200.0
1295.659058 80.0
1296.260986 176.0
1296.46875 232.0
1296.862915 136.0
1297.536865 160.0
1297.601318 216.0
1298.440308 76.0
1298.519287 232.0
1298.619629 100.0
1299.301147 156.0
1299.358521 104.0
1299.458984 120.0
1299.745972 56.0
1301.921143 200.0
1302.158203 216.0
1302.287476 188.0
1303.580688 180.0
1304.479126 100.0
1304.773926 64.0
1304.888916 132.0
1305.356323 132.0
1305.550537 156.0
1305.974854 160.0
1306.154663 144.0
1306.255371 180.0
1306.348877 124.0
1306.780518 220.0
1307.118774 196.0
1307.183472 120.0
1307.557739 104.0
1307.896118 172.0
1308.047241 160.0
1308.369385 176.0
1309.047974 128.0
1309.487305 92.0
1309.847534 200.0
1311.324707 184.0
1311.980591 180.0
1313.033447 168.0
1314.108276 172.0
1314.627808 216.0
1315.003174 160.0
1315.140259 120.0
1316.613159 116.0
1316.981567 204.0
1317.076416 228.0
1317.234375 40.0
1317.81958 144.0
1318.238647 192.0
1318.831299 176.0
1318.903931 180.0
1320.248413 172.0
1320.299072 140.0
1320.369751 272.0
1320.523315 228.0
1320.80542 60.0
1321.514404 176.0
1322.288696 276.0
1322.404541 200.0
1322.867798 152.0
1323.048706 184.0
1324.098755 180.0
1327.135132 152.0
1327.265625 124.0
1327.336426 192.0
1327.599243 144.0
1327.866089 204.0
1327.95459 140.0
1328.041626 28.0
1330.392822 184.0
1330.828491 116.0
1331.097168 204.0
1331.198853 184.0
1333.291138 188.0
1333.611816 164.0
1333.85083 140.0
1334.744995 232.0
1334.817749 212.0
1334.955933 228.0
1335.561279 160.0
1337.385986 164.0
1337.98291 188.0
1338.783936 172.0
1339.162598 152.0
1339.235474 160.0
1339.490479 176.0
1339.796387 176.0
1340.473999 164.0
1340.65625 160.0
1341.355957 244.0
1341.406982 136.0
1341.807983 44.0
1342.98938 156.0
1344.14209 108.0
1344.313354 176.0
1344.521484 148.0
1345.71875 120.0
1345.915894 172.0
1346.076538 216.0
1346.222534 180.0
1346.953003 176.0
1347.625122 200.0
1347.868042 160.0
1348.312012 188.0
1348.53125 160.0
1349.671753 148.0
1349.956909 152.0
1350.110596 184.0
1350.19104 64.0
1350.659058 148.0
1351.07605 228.0
1353.799072 112.0
1355.036987 216.0
1355.242188 100.0
1355.359375 148.0
1355.718506 160.0
1355.813721 216.0
1356.334106 192.0
1356.700684 88.0
1356.876587 120.0
1358.130615 168.0
1359.187134 168.0
1360.2146 124.0
1360.288086 232.0
1360.706543 152.0
1361.103027 236.0
1361.154419 84.0
1361.264526 248.0
1361.55835 76.0
1361.683228 176.0
1361.81543 212.0
1361.984375 64.0
1362.043091 72.0
1362.094482 64.0
1362.212036 140.0
1362.829224 188.0
1363.233398 132.0
1363.622925 148.0
1364.093384 160.0
1364.255127 184.0
1364.394775 184.0
1364.571167 68.0
1364.828613 148.0
1365.58606 180.0
1366.89563 116.0
1367.440186 256.0
1367.859741 120.0
1368.102661 400.0
1368.367798 196.0
1369.597656 180.0
1371.211304 136.0
1371.402954 152.0
1371.579834 48.0
1371.985229 52.0
1372.317017 196.0
1372.427612 140.0
1373.489624 196.0
1374.795654 128.0
1375.201538 212.0
1375.290161 196.0
1375.614868 176.0
1376.006226 156.0
1376.47998 152.0
1376.574829 96.0
1377.638428 200.0
1378.074341 268.0
1378.185181 124.0
1378.901978 220.0
1379.256714 84.0
1379.448975 156.0
1379.559814 216.0
1379.633789 176.0
1380.890869 172.0
1380.96228 188.0
1381.327271 188.0
1381.615845 172.0
1381.882202 192.0
1382.044556 180.0
1382.526001 92.0
1382.747925 180.0
1383.665894 200.0
1384.458252 152.0
1385.117432 160.0
1385.295166 140.0
1385.458252 188.0
1385.610352 184.0
1385.813843 456.0
1386.184326 160.0
1386.836548 160.0
1387.029297 112.0
1387.251709 136.0
1387.71875 116.0
1387.840942 196.0
1387.896729 176.0
1388.378662 200.0
1388.556763 72.0
1388.920166 128.0
1389.12793 128.0
1389.432007 68.0
1389.617554 164.0
1389.929199 112.0
1390.07019 68.0
1390.611938 148.0
1391.435913 140.0
1391.643799 184.0
1391.725586 176.0
1391.933472 60.0
1392.074585 140.0
1392.297363 188.0
1392.46814 176.0
1393.158936 40.0
1393.842529 204.0
1394.117554 172.0
1394.38501 208.0
1394.660034 132.0
1394.853516 164.0
1395.388672 152.0
1395.611694 136.0
1395.961182 168.0
1396.109863 120.0
1396.518921 164.0
1397.136353 40.0
1397.687012 132.0
1397.910278 60.0
1399.525635 148.0
1399.879517 204.0
1400.367065 160.0
1400.992798 124.0
1401.276001 148.0
1401.350464 144.0
1401.737915 176.0
1401.960571 164.0
1402.667725 128.0
1403.094604 148.0
1403.653809 208.0
1404.056519 32.0
1405.01123 180.0
1405.533569 156.0
1406.369507 216.0
1406.541138 172.0
1407.108521 56.0
1408.521118 156.0
1408.594727 60.0
1409.134399 172.0
1409.775269 144.0
1410.619873 32.0
1410.672119 132.0
1410.956299 76.0
1411.031006 112.0
1411.098267 116.0
1411.210449 180.0
1411.345093 176.0
1411.625488 176.0
1412.369629 208.0
1413.110352 60.0
1413.327271 124.0
1413.641602 136.0
1413.738892 204.0
1413.843628 128.0
1413.993286 136.0
1414.247803 108.0
1414.390015 148.0
1414.479858 120.0
1414.614624 164.0
1415.001343 136.0
1415.088257 148.0
1417.018677 52.0
1417.65564 172.0
1418.232788 120.0
1418.585083 48.0
1418.682495 204.0
1418.847412 48.0
1419.057373 168.0
1419.394775 200.0
1419.589844 56.0
1420.002319 196.0
1420.767456 136.0
1420.977539 104.0
1421.075073 136.0
1421.547729 140.0
1421.802979 144.0
1422.050659 76.0
1422.418457 232.0
1422.583618 180.0
1422.94397 116.0
1423.604736 336.0
1423.807495 136.0
1424.088745 144.0
1424.243164 256.0
1424.363281 60.0
1425.152222 216.0
1425.368042 176.0
1425.588013 88.0
1425.640625 104.0
1425.881104 156.0
1426.723389 160.0
1427.670532 168.0
1427.956299 88.0
1428.234619 200.0
1428.302246 32.0
1428.369995 88.0
1428.460205 164.0
1428.716064 136.0
1428.828857 188.0
1429.310425 96.0
1429.415771 144.0
1429.664185 196.0
1430.09314 168.0
1430.421631 184.0
1430.830933 148.0
1431.026611 152.0
1431.312744 168.0
1431.696899 196.0
1431.832397 196.0
1432.257202 200.0
1432.42749 160.0
1433.927002 72.0
1434.447021 140.0
1434.699219 172.0
1436.385132 140.0
1436.513306 180.0
1436.762329 64.0
1436.875488 32.0
1437.275391 84.0
1438.324463 156.0
1438.437622 152.0
1439.675903 128.0
1439.77417 188.0
1439.910034 152.0
1440.657837 180.0
1440.778809 328.0
1441.798828 176.0
1442.101196 140.0
1442.179932 208.0
1443.499878 112.0
1443.862915 156.0
1444.067139 160.0
1444.376343 164.0
1444.461426 216.0
1444.828247 180.0
1445.201904 184.0
1446.185547 148.0
1446.261353 156.0
1446.443115 144.0
1447.010864 200.0
1447.412231 168.0
1447.51062 200.0
1447.669678 184.0
1448.086182 136.0
1448.919434 180.0
1449.54834 40.0
1449.639282 152.0
1449.76062 172.0
1450.730835 192.0
1450.927856 192.0
1451.102295 236.0
1451.443481 184.0
1453.338257 240.0
1453.840698 116.0
1454.167114 176.0
1454.690796 128.0
1454.911011 180.0
1454.986938 228.0
1455.14917 112.0
1455.419678 148.0
1455.91333 108.0
1457.136353 164.0
1457.500977 120.0
1457.622559 116.0
1458.116577 152.0
1458.557495 116.0
1458.747437 180.0
1459.621826 64.0
1459.796753 160.0
1460.762695 184.0
1461.295288 168.0
1461.565552 216.0
1461.820312 144.0
1461.877197 168.0
1461.957275 152.0
1462.939209 172.0
1463.296997 52.0
1463.71582 196.0
1464.037231 96.0
1464.210815 100.0
1464.462158 40.0
1464.751587 156.0
1465.368774 232.0
1465.787842 148.0
1466.062134 108.0
1466.115479 188.0
1466.283203 184.0
1466.511841 64.0
1466.61853 52.0
1466.931152 140.0
1467.152222 156.0
1467.723999 188.0
1467.807861 168.0
1468.227295 152.0
1468.624023 124.0
1469.120239 160.0
1469.4021 160.0
1469.485962 96.0
1469.638672 156.0
1469.90564 196.0
1470.004883 68.0
1470.241455 216.0
1470.478027 152.0
1470.630737 176.0
1470.737549 148.0
1471.157471 124.0
1471.432251 152.0
1471.531616 180.0
1472.37915 64.0
1472.692383 148.0
1472.90625 144.0
1473.395142 232.0
1473.740112 180.0
1474.174561 204.0
1474.266235 176.0
1474.541382 160.0
1474.648438 132.0
1475.634521 136.0
1475.863892 152.0
1476.942261 64.0
1477.079956 124.0
1477.401245 132.0
1477.661377 224.0
1478.350098 164.0
1478.430298 152.0
1479.192017 148.0
1479.337524 140.0
1479.52124 132.0
1479.919312 112.0
1481.36377 160.0
1481.621704 156.0
1481.918457 164.0
1482.378296 164.0
1482.707764 180.0
1482.799805 164.0
1483.129395 184.0
1484.087646 132.0
1484.333008 200.0
1484.473999 128.0
1484.770142 180.0
1484.981934 140.0
1485.153687 120.0
1485.498901 148.0
1485.928467 152.0
1486.419556 204.0
1486.987549 140.0
1487.171753 180.0
1488.423096 432.0
1488.653564 188.0
1489.879028 192.0
1490.328125 120.0
1490.958252 112.0
1491.888306 124.0
1492.088257 108.0
1492.203613 120.0
1492.280518 152.0
1492.780273 168.0
1492.911011 120.0
1493.25708 132.0
1493.426392 96.0
1493.557129 144.0
1493.964844 128.0
1494.305054 156.0
1494.434082 108.0
1494.626465 188.0
1495.057495 128.0
1495.272949 140.0
1495.580811 156.0
1495.665527 60.0
1496.466187 268.0
1496.663574 176.0
1496.989746 104.0
1497.151489 176.0
1497.598267 176.0
1497.690674 164.0
1498.753784 168.0
1498.807739 164.0
1499.046631 164.0
1499.609253 200.0
1500.272217 48.0
1500.665405 120.0
1500.804199 140.0
1500.864258 232.0
1501.606201 204.0
1501.837646 156.0
1502.107666 132.0
1502.618774 216.0
1502.855957 212.0
1503.334473 44.0
1504.376465 112.0
1504.824219 128.0
1505.2323 156.0
