>compound MLS001048958-01!5,7-dihydroxy-2-(4-hydroxy-3-methoxyphenyl)chromen-4-one
>formula C16H12O6
>ionization [M+H]+
>parentmass 301.069946
#inchi InChI=1S/C16H12O6/c1-21-14-4-8(2-3-10(14)18)13-7-12(20)16-11(19)5-9(17)6-15(16)22-13/h2-7,17-19H,1H3
#inchikey SCZVLDHREVKTSH
#Ion_Source LC-ESI
#Instrument qTof
#Compound_Source NIH Natural Product Library
#PI Dorrestein
#Data_Collector VVP/LMS
#Scan -1
#Precursor_MZ 301.071
#ExactMass 300.063
#Charge 1
#CAS_Number N/A
#Pubmed_ID N/A
#Smiles COc1cc(ccc1O)c2cc(=O)c3c(O)cc(O)cc3o2
#INCHI_AUX N/A
#Library_Class 1
#SpectrumID CCMSLIB00000079846
#IonMode Positive
#UpdateWorkflowName UPDATE-SINGLE-ANNOTATED-GOLD
#LibraryQualityString Gold
#TaskID b1d8e8f6646f4e71acdff9ca3d919d08
##Scan# 1900
#SpectrumFile p1-H11_GH11_01_17967.mzXML
#LibraryName NIH_Natural_Products_Library.mgf
#MQScore -1
#Organism NIH_Natural_Products_Library
#TIC_Query 0
#RT_Query -1
#MZErrorPPM -1
#SharedPeaks 0
#MassDiff 0
#LibMZ -1
#SpecMZ 301.071
#SpecCharge 0
#internalFilename spec-00000.mgf

>collision 10
94.964142 116.0
95.142662 64.0
95.733765 168.0
96.067055 144.0
96.394417 160.0
96.631668 88.0
97.097878 92.0
97.168495 200.0
98.179558 168.0
98.282135 140.0
98.303841 120.0
98.805717 72.0
98.880905 176.0
99.069016 196.0
99.310852 168.0
99.414017 200.0
99.74968 180.0
100.151627 208.0
100.414726 148.0
100.498505 104.0
100.899963 104.0
101.16404 148.0
101.232109 152.0
101.286186 108.0
101.412422 132.0
101.900063 200.0
102.01059 104.0
102.199646 40.0
102.376785 204.0
102.411026 152.0
102.907112 52.0
102.931343 124.0
103.115181 132.0
103.369995 180.0
103.608917 120.0
103.708206 196.0
104.95034 140.0
105.031425 260.0
105.079437 244.0
105.205368 172.0
105.636559 68.0
105.716354 152.0
105.806419 168.0
105.968216 128.0
106.009201 52.0
106.040527 276.0
106.446136 148.0
106.951897 160.0
107.041153 192.0
107.108383 60.0
107.716904 108.0
107.89463 96.0
107.971138 160.0
108.022301 136.0
108.550255 124.0
108.611137 72.0
108.656776 168.0
108.741852 240.0
109.188545 156.0
109.648651 56.0
109.807106 140.0
110.037788 212.0
110.111824 100.0
110.871262 144.0
111.005432 128.0
111.145973 76.0
111.932129 128.0
112.218697 88.0
112.623878 152.0
112.998047 144.0
113.093277 232.0
113.591232 160.0
113.688835 44.0
113.961586 224.0
114.072189 212.0
114.492432 48.0
114.609596 176.0
114.935837 108.0
114.952904 176.0
115.052139 292.0
115.313828 188.0
115.514824 172.0
115.718132 144.0
116.022362 152.0
116.050232 56.0
116.269035 80.0
116.46656 52.0
116.724457 148.0
116.952507 172.0
117.094612 180.0
117.346733 104.0
117.625031 228.0
117.815063 212.0
118.035522 288.0
118.427238 164.0
118.598412 144.0
118.76754 136.0
118.862999 172.0
118.895546 160.0
119.006256 152.0
119.14743 236.0
119.20842 172.0
119.436554 144.0
120.509132 204.0
120.644638 68.0
120.981537 100.0
121.029655 180.0
121.231232 208.0
121.56237 144.0
121.604065 32.0
121.920326 136.0
122.050026 68.0
122.263405 60.0
123.169594 112.0
123.434799 132.0
123.474609 120.0
123.660454 100.0
123.675949 60.0
123.71801 132.0
124.012962 336.0
124.294266 156.0
124.349747 188.0
124.440765 184.0
124.511826 52.0
124.742905 252.0
125.379486 204.0
125.553642 136.0
125.68499 156.0
125.801048 132.0
125.903755 156.0
126.086952 136.0
126.136124 152.0
126.247917 180.0
126.836761 172.0
126.87487 160.0
127.036339 196.0
127.222603 120.0
127.298943 136.0
127.665237 208.0
128.061737 488.0
128.160461 68.0
128.550568 96.0
128.663422 148.0
128.792145 220.0
129.187729 240.0
129.416321 88.0
129.597519 192.0
129.883163 172.0
130.044266 144.0
130.076035 192.0
130.219086 92.0
130.666901 164.0
130.801178 132.0
130.864914 168.0
130.962845 188.0
130.983337 144.0
131.142838 132.0
131.395966 148.0
131.512344 184.0
131.587677 88.0
131.729279 236.0
131.960098 260.0
132.040131 32.0
132.101883 120.0
132.307846 180.0
132.335327 140.0
132.940475 68.0
133.035583 192.0
133.085083 80.0
133.275726 232.0
133.351562 100.0
133.374557 124.0
133.735672 44.0
133.811646 212.0
133.857697 152.0
134.037369 192.0
134.189499 176.0
134.399384 176.0
134.623306 200.0
134.778076 152.0
134.870514 120.0
134.932922 116.0
135.006927 164.0
135.039291 136.0
135.734055 120.0
135.757248 136.0
135.859299 96.0
135.956757 148.0
136.014404 128.0
136.147125 188.0
136.226089 164.0
136.288818 136.0
136.940201 208.0
137.024353 200.0
137.208176 148.0
137.481079 52.0
137.576782 128.0
137.61647 160.0
137.79866 96.0
138.268677 72.0
138.301437 144.0
138.324844 148.0
138.345917 156.0
138.542633 112.0
138.594177 72.0
138.97403 160.0
139.150055 168.0
139.575333 180.0
139.87413 232.0
139.998917 196.0
140.119034 88.0
140.159103 192.0
140.328796 180.0
140.375961 84.0
140.536362 168.0
140.555237 144.0
140.596527 160.0
141.465179 136.0
141.548035 152.0
141.564621 264.0
141.735168 136.0
141.920059 340.0
142.093201 56.0
142.356674 100.0
142.589493 156.0
142.889114 204.0
143.019989 184.0
143.463058 132.0
143.763596 132.0
143.834595 96.0
143.902039 160.0
144.358429 168.0
144.506729 152.0
144.655106 200.0
144.755676 128.0
144.793991 92.0
145.059952 164.0
145.208618 208.0
145.777588 140.0
145.996353 84.0
146.035217 160.0
146.19603 172.0
146.566864 128.0
146.967133 160.0
147.046768 168.0
147.297882 116.0
147.568558 108.0
147.694305 84.0
147.856415 124.0
148.061295 128.0
148.226929 148.0
148.283783 252.0
148.340836 168.0
148.452118 188.0
148.542114 100.0
148.806641 68.0
149.058914 812.0
149.289703 100.0
149.623535 284.0
149.691711 128.0
149.859787 168.0
150.029144 632.0
150.142563 132.0
150.166946 168.0
150.20842 108.0
150.32309 172.0
150.381653 52.0
150.406067 52.0
150.489075 144.0
150.662476 88.0
150.977783 132.0
151.03894 168.0
151.124557 184.0
151.171051 124.0
151.420761 40.0
151.594696 144.0
151.869293 96.0
151.947784 84.0
152.008194 404.0
152.041031 112.0
152.203049 136.0
152.5298 224.0
152.657654 164.0
152.748657 112.0
152.945511 132.0
152.975052 112.0
153.017578 8240.0
153.095703 64.0
153.159729 64.0
153.238571 48.0
153.263199 148.0
153.366714 44.0
153.670044 132.0
153.840332 80.0
154.019501 316.0
154.046371 128.0
154.557068 140.0
154.804611 120.0
154.821945 60.0
155.022446 180.0
155.039322 156.0
155.119263 104.0
155.186203 128.0
155.270523 160.0
155.347412 196.0
155.367249 44.0
155.888672 92.0
156.025391 168.0
156.05513 184.0
156.070953 256.0
156.144745 128.0
156.216873 160.0
156.246719 200.0
156.316391 156.0
156.356216 156.0
156.610168 176.0
156.789551 256.0
157.0289 128.0
157.128677 192.0
157.198547 120.0
157.398239 28.0
157.601654 148.0
157.833023 160.0
157.866669 44.0
158.023117 100.0
158.426193 124.0
158.476227 128.0
158.752045 308.0
158.819748 168.0
159.344421 180.0
159.553024 148.0
160.015945 152.0
160.046814 184.0
160.878952 64.0
161.058746 296.0
161.775604 120.0
161.968048 108.0
162.044052 192.0
162.064331 204.0
162.158081 176.0
162.371063 168.0
163.135345 156.0
163.265015 56.0
163.315887 80.0
163.440536 228.0
163.583069 160.0
164.243042 196.0
164.332336 260.0
165.469696 140.0
165.697632 196.0
165.923172 180.0
165.966751 76.0
166.02829 156.0
166.092422 136.0
166.238663 80.0
166.415771 176.0
166.490234 156.0
166.549316 144.0
166.677765 144.0
166.703461 140.0
166.783142 156.0
167.009415 200.0
167.161209 156.0
167.596375 244.0
167.812881 120.0
168.068237 168.0
168.398682 48.0
168.452911 124.0
168.76564 140.0
169.029465 140.0
169.117462 192.0
169.301285 156.0
169.345306 124.0
169.821121 236.0
170.022003 132.0
170.089478 196.0
170.731232 124.0
171.029922 160.0
171.168427 88.0
171.340332 132.0
171.405472 180.0
171.47583 224.0
171.667572 164.0
172.271683 20.0
172.462433 116.0
172.509476 48.0
172.83902 224.0
172.938477 128.0
173.019485 152.0
173.05983 156.0
173.362747 144.0
173.42041 116.0
173.483322 208.0
173.994888 80.0
174.029022 196.0
174.065399 136.0
174.110428 196.0
174.473038 136.0
174.583481 176.0
175.040237 196.0
175.499847 244.0
175.576324 52.0
175.729324 128.0
175.890305 48.0
176.044693 220.0
176.12796 64.0
176.180786 132.0
176.249481 156.0
176.990112 116.0
177.270905 148.0
177.872955 168.0
177.910126 96.0
178.827194 160.0
179.034851 100.0
179.487869 84.0
179.559875 92.0
179.634567 172.0
179.856049 148.0
180.037598 104.0
180.160461 112.0
181.072601 128.0
181.15831 188.0
181.206528 128.0
181.455795 152.0
181.486694 76.0
181.847443 172.0
182.424957 152.0
182.449142 216.0
182.747681 124.0
183.043884 176.0
183.181122 176.0
183.248474 176.0
183.344254 220.0
183.466782 132.0
183.925369 168.0
184.051071 668.0
184.26564 264.0
184.354797 68.0
184.473724 92.0
184.684647 200.0
184.773911 156.0
184.860504 164.0
184.971466 140.0
185.591873 204.0
185.668396 204.0
185.77359 148.0
185.900345 184.0
186.023254 40.0
186.156296 124.0
186.455124 128.0
186.805878 160.0
187.037476 444.0
187.10524 188.0
188.043701 292.0
188.14122 116.0
188.616547 84.0
188.917343 60.0
189.358032 164.0
189.445694 128.0
189.856842 200.0
189.944611 124.0
190.142151 88.0
190.391983 208.0
190.457901 136.0
190.650223 52.0
191.103943 124.0
191.384689 80.0
191.406723 184.0
191.676682 200.0
191.726273 92.0
191.880646 160.0
192.495941 148.0
192.692062 168.0
193.032043 188.0
193.278229 120.0
193.83757 148.0
194.114777 20.0
194.27565 40.0
194.361664 140.0
194.483765 96.0
194.636459 160.0
194.692001 164.0
194.786438 40.0
194.917007 76.0
194.972595 140.0
195.142151 124.0
195.267288 60.0
195.420288 36.0
195.487076 128.0
195.810013 112.0
195.907501 208.0
196.161087 68.0
196.211273 228.0
196.27002 176.0
196.300491 140.0
196.638062 112.0
196.772049 140.0
197.48465 152.0
197.509811 136.0
197.859619 68.0
197.957611 100.0
198.061661 188.0
198.195724 196.0
198.310181 152.0
198.408737 168.0
198.877197 184.0
199.422089 260.0
199.511795 228.0
199.683578 140.0
200.063446 44.0
200.116943 100.0
200.401413 152.0
200.547958 288.0
200.581772 48.0
200.688904 92.0
200.759399 136.0
200.883438 152.0
201.053711 1416.0
201.083847 144.0
201.465042 148.0
201.600662 68.0
201.744827 200.0
201.891846 72.0
202.019135 192.0
202.058746 384.0
202.412552 80.0
202.880035 36.0
203.034302 596.0
203.061523 136.0
203.35376 188.0
203.380508 140.0
203.490005 212.0
204.039154 348.0
204.502029 180.0
204.632965 44.0
204.712708 176.0
204.943436 180.0
205.055405 136.0
205.456635 156.0
205.510834 128.0
205.633545 168.0
206.030457 132.0
206.310532 248.0
206.504974 60.0
206.547882 144.0
206.59079 80.0
206.653732 188.0
207.372513 228.0
207.581787 52.0
207.943268 136.0
208.035126 88.0
208.374008 204.0
209.012314 136.0
209.498886 156.0
209.896637 140.0
210.320724 60.0
210.372696 124.0
210.424652 80.0
210.6297 164.0
210.973572 112.0
211.038528 328.0
211.071884 124.0
211.134537 196.0
211.323532 164.0
211.919968 168.0
212.042938 580.0
212.096756 176.0
212.433121 72.0
212.511459 120.0
212.607224 148.0
213.051025 608.0
213.109573 152.0
213.371155 160.0
214.057831 100.0
214.678543 52.0
215.034363 356.0
215.227142 160.0
215.308899 60.0
215.72966 104.0
215.948959 96.0
216.036728 268.0
216.21521 220.0
216.956284 164.0
217.040955 132.0
217.27594 220.0
217.322891 180.0
217.689804 224.0
217.777924 180.0
218.044373 180.0
218.082581 220.0
218.486359 96.0
218.586395 64.0
218.630539 192.0
218.680573 152.0
218.807144 188.0
219.434692 168.0
219.732574 148.0
220.154678 124.0
221.118469 68.0
221.296082 84.0
221.583374 88.0
221.867889 140.0
221.977585 136.0
223.034515 192.0
223.328888 68.0
223.495483 128.0
223.644958 192.0
224.040329 48.0
224.248917 172.0
224.50531 132.0
224.917053 160.0
225.421783 88.0
225.834351 60.0
225.912125 268.0
226.136551 128.0
226.247299 176.0
226.510834 88.0
226.582733 244.0
226.630676 100.0
226.711578 128.0
226.969376 116.0
227.221329 160.0
227.36235 92.0
227.527451 36.0
227.716629 144.0
227.770691 144.0
228.086197 140.0
228.326736 156.0
228.66069 184.0
228.70549 140.0
229.049194 8204.0
229.107758 160.0
229.151535 52.0
229.181656 208.0
229.223846 56.0
229.449905 132.0
229.594635 52.0
229.642899 76.0
229.765411 124.0
229.860107 92.0
230.004974 68.0
230.049622 1176.0
230.104599 52.0
230.192169 216.0
230.213303 236.0
230.430786 84.0
230.720917 196.0
231.020309 44.0
231.063583 424.0
231.259369 100.0
231.36261 192.0
231.540939 60.0
231.613632 152.0
231.749954 128.0
231.810562 60.0
231.831772 28.0
231.995453 144.0
232.056091 184.0
232.298706 132.0
232.608231 92.0
232.957443 140.0
232.978714 232.0
233.034714 92.0
233.349487 76.0
233.541077 44.0
234.061478 128.0
234.20462 140.0
234.609909 124.0
234.994186 80.0
235.562027 152.0
236.023529 196.0
236.366119 172.0
236.43956 204.0
236.549744 152.0
236.984634 108.0
237.094955 188.0
238.340851 140.0
238.608246 224.0
238.823502 180.0
239.045013 184.0
239.160355 180.0
239.31897 96.0
239.636215 116.0
239.670105 176.0
240.047714 176.0
240.083176 132.0
240.441055 180.0
240.524384 120.0
240.632431 192.0
241.049118 316.0
241.28743 52.0
241.411102 164.0
242.091919 96.0
242.724091 120.0
242.885361 160.0
242.962906 108.0
242.987732 184.0
243.043579 92.0
243.18634 164.0
243.73912 116.0
243.798172 72.0
243.835464 164.0
243.869644 136.0
243.997101 264.0
244.740707 68.0
244.828201 216.0
245.045959 148.0
245.14566 248.0
245.479218 188.0
246.112656 152.0
246.300049 136.0
246.465622 148.0
246.578125 188.0
246.82196 200.0
247.022125 92.0
247.11911 140.0
247.629364 96.0
247.679489 108.0
247.792267 152.0
248.11821 124.0
248.422409 140.0
248.601242 120.0
248.890045 212.0
249.290634 156.0
249.509003 164.0
249.672516 188.0
250.843796 120.0
251.288467 88.0
251.323181 132.0
251.809326 124.0
251.834595 192.0
251.973587 72.0
252.599533 236.0
252.887482 208.0
253.080582 132.0
253.349792 116.0
253.790344 196.0
253.815704 176.0
253.885468 92.0
254.047241 92.0
254.18367 216.0
254.228088 152.0
254.263 148.0
254.39949 132.0
254.799637 80.0
254.891785 64.0
255.071426 228.0
255.184204 192.0
255.778336 148.0
256.247253 124.0
256.62973 152.0
256.678406 192.0
256.71582 140.0
256.763641 92.0
256.798737 108.0
256.907196 104.0
256.959839 112.0
257.044006 5160.0
257.101227 188.0
257.143311 64.0
257.186676 220.0
257.290161 188.0
257.3125 132.0
257.334839 104.0
257.378082 136.0
257.417877 188.0
257.500916 40.0
257.606323 88.0
257.628662 100.0
257.714935 40.0
257.75647 68.0
257.786713 180.0
257.825165 184.0
257.882233 160.0
257.919464 228.0
257.962769 88.0
258.05249 67156.0
258.139923 144.0
258.160583 96.0
258.261353 160.0
258.285431 168.0
258.305328 48.0
258.317902 120.0
258.354889 108.0
258.396149 64.0
258.423401 104.0
258.48111 72.0
258.512421 132.0
258.576447 72.0
258.597565 112.0
258.618805 88.0
258.649017 156.0
258.675354 104.0
258.714935 100.0
258.781158 56.0
258.828064 120.0
258.856873 76.0
258.886505 84.0
258.927338 36.0
258.959076 96.0
258.988281 68.0
259.055542 9728.0
259.15097 124.0
259.20282 48.0
259.250885 60.0
259.340637 76.0
259.388733 76.0
259.45282 44.0
259.516968 84.0
259.597107 108.0
259.63559 104.0
259.658051 84.0
259.71579 76.0
259.776733 36.0
259.818451 72.0
259.927856 80.0
259.998413 44.0
260.056946 820.0
260.110474 76.0
260.168243 232.0
260.209991 112.0
260.238892 168.0
260.349823 88.0
260.388428 120.0
260.428345 88.0
260.471405 112.0
260.499023 96.0
260.556854 68.0
260.598602 60.0
260.623016 132.0
260.653229 60.0
260.67572 116.0
260.721405 120.0
260.756073 132.0
260.788208 64.0
260.825867 200.0
260.867371 128.0
260.891266 144.0
260.916809 176.0
260.970612 76.0
261.022888 56.0
261.061493 80.0
261.125824 132.0
261.167633 36.0
261.232147 64.0
261.502258 72.0
261.547302 108.0
261.585938 56.0
261.68573 196.0
261.721161 96.0
261.827423 80.0
261.885406 72.0
261.907959 152.0
261.994934 120.0
262.098022 48.0
262.233368 72.0
262.449371 92.0
262.623505 56.0
262.739624 48.0
262.813843 136.0
262.849335 92.0
262.903595 188.0
263.185028 116.0
263.262543 204.0
263.453094 52.0
263.546814 104.0
263.989655 188.0
264.0802 84.0
264.245178 40.0
264.410217 44.0
264.455536 116.0
264.633575 180.0
264.701569 72.0
265.028748 56.0
265.336639 48.0
266.97937 180.0
267.025208 136.0
267.249664 168.0
267.444916 120.0
267.887787 76.0
268.005066 140.0
268.115845 172.0
268.556 44.0
269.042847 664.0
269.52887 164.0
269.568085 108.0
269.741302 100.0
270.038849 136.0
270.110809 164.0
270.153351 176.0
270.614807 132.0
271.050446 124.0
271.158569 100.0
271.497894 152.0
272.005219 168.0
272.070465 160.0
272.152557 276.0
272.576294 156.0
272.783356 72.0
273.457642 56.0
273.622253 88.0
273.816528 56.0
274.258026 76.0
274.455841 120.0
274.597626 224.0
274.891235 72.0
275.013367 96.0
275.779663 212.0
277.276428 204.0
278.17453 80.0
279.217865 216.0
280.159851 56.0
280.829865 96.0
281.093414 196.0
282.182312 92.0
282.935333 104.0
282.976654 136.0
283.223083 152.0
283.531311 136.0
283.614136 220.0
283.859863 120.0
284.564484 56.0
285.004822 120.0
285.039093 348.0
285.16452 116.0
285.24408 160.0
285.313721 92.0
285.350677 200.0
285.43811 240.0
285.465027 96.0
285.527374 220.0
285.582733 120.0
285.697083 132.0
285.802917 156.0
285.879791 244.0
285.905701 152.0
285.942719 108.0
285.982849 196.0
286.046539 36972.0
286.125702 140.0
286.150909 40.0
286.156311 72.0
286.212036 48.0
286.250214 48.0
286.285919 64.0
286.29129 108.0
286.305389 144.0
286.36673 124.0
286.40625 40.0
286.446594 56.0
286.484863 40.0
286.537415 104.0
286.58728 160.0
286.67691 92.0
286.736694 124.0
286.790588 88.0
286.881622 196.0
286.990387 136.0
287.049072 5604.0
287.125275 88.0
287.196106 52.0
287.429138 68.0
287.462646 88.0
287.518921 68.0
287.567261 88.0
287.631378 64.0
287.918396 40.0
287.979187 44.0
288.008148 60.0
288.04953 1500.0
288.110901 88.0
288.310272 60.0
288.536743 44.0
288.614502 68.0
288.73288 56.0
288.780212 60.0
288.830841 112.0
288.897797 100.0
288.962616 96.0
289.033936 132.0
289.069336 100.0
289.098236 72.0
289.176086 132.0
289.226837 128.0
289.277618 76.0
289.362274 40.0
289.396118 84.0
289.728027 108.0
289.765289 92.0
289.812744 100.0
289.985565 76.0
290.083862 112.0
290.124542 104.0
290.368683 72.0
290.568817 40.0
292.924744 84.0
293.981689 124.0
294.637268 148.0
294.746613 92.0
298.311035 208.0
298.458862 156.0
298.775299 84.0
298.950775 156.0
300.560028 212.0
300.732574 176.0
300.774017 140.0
300.912079 184.0
301.069946 11756.0
301.122742 128.0
301.191803 112.0
301.260895 44.0
301.302368 48.0
301.679047 36.0
301.76358 68.0
301.967468 56.0
301.997192 68.0
302.071472 1780.0
302.415833 48.0
302.481598 52.0
302.564697 56.0
302.606232 44.0
302.651245 28.0
302.734344 60.0
302.966431 32.0
303.077057 492.0
303.233246 100.0
303.562592 40.0
304.107269 120.0
304.270416 52.0
304.305573 128.0
304.857452 96.0
305.410248 36.0
305.692047 88.0
306.785706 60.0
311.534607 76.0
315.584106 68.0
317.741058 160.0
324.542786 48.0
330.07724 72.0
331.358551 60.0
334.18692 52.0
358.213989 64.0
364.019684 68.0
371.623413 44.0
372.771515 48.0
381.778961 60.0
393.945648 100.0
405.962219 152.0
407.367004 88.0
409.555267 80.0
412.052338 48.0
412.452423 72.0
415.976593 136.0
416.34201 52.0
423.655487 40.0
436.787231 152.0
437.819427 92.0
440.593262 128.0
441.040405 32.0
442.098541 80.0
445.847748 68.0
455.634094 84.0
459.167145 108.0
471.579773 80.0
472.115875 104.0
482.945618 128.0
501.499817 56.0
524.46167 48.0
525.364563 88.0
526.263672 68.0
530.518494 104.0
553.664307 64.0
555.679932 48.0
565.017944 84.0
570.585815 48.0
586.628601 40.0
599.896973 64.0
608.109802 64.0
612.584351 44.0
621.205688 56.0
622.203186 64.0
627.016479 104.0
632.657654 144.0
660.128296 72.0
696.966614 44.0
697.744507 60.0
741.570068 48.0
765.081238 116.0
771.419861 104.0
823.504272 92.0
867.801025 72.0
873.056519 40.0
882.810669 180.0
888.924133 52.0
892.886658 20.0
965.538574 48.0
980.239136 80.0
1016.657715 80.0
1032.917603 168.0
1116.464844 68.0
1140.601807 104.0
1147.717896 140.0
1148.938721 196.0
1177.557617 64.0
1221.612061 148.0
1250.419922 164.0
1260.137085 224.0
1280.638672 84.0
1293.598755 68.0
1295.704224 64.0
1309.928589 188.0
1327.535156 200.0
1332.144165 196.0
1339.848267 320.0
1352.335205 116.0
1354.524536 192.0
1375.459595 80.0
1386.109497 44.0
1388.207397 40.0
1388.459595 136.0
1392.043945 136.0
1392.16272 172.0
1401.572876 92.0
1404.741455 168.0
1405.47998 144.0
1407.353516 132.0
1419.872925 128.0
1421.223267 108.0
1428.969727 108.0
1436.94104 68.0
1442.930176 132.0
1444.730103 220.0
1445.630493 208.0
1461.345337 136.0
1462.471558 92.0
1463.66687 160.0
1466.203613 140.0
1467.97229 172.0
1478.81311 52.0
1490.216309 132.0
1497.871094 104.0
