>compound MLS000728582-01!methyl (1S,4aS,8aS)-7-[2-(1H-indol-3-yl)ethyl]-1-methyl-1,4a,5,6,8,8a-hexahydropyrano[3,4-c]pyridine-4-carboxylate
>formula C21H26N2O3
>ionization [M+H]+
>parentmass 355.201385
#inchi InChI=1S/C21H26N2O3/c1-14-18-12-23(10-8-17(18)19(13-26-14)21(24)25-2)9-7-15-11-22-20-6-4-3-5-16(15)20/h3-6,11,13-14,17-18,22H,7-10,12H2,1-2H3/t14-,17-,18-/m0/s1
#inchikey NYNOIMNCLKTWCG
#Ion_Source LC-ESI
#Instrument qTof
#Compound_Source NIH Natural Product Library
#PI Dorrestein
#Data_Collector VVP/LMS
#Scan -1
#Precursor_MZ 355.202
#ExactMass 354.194
#Charge 1
#CAS_Number N/A
#Pubmed_ID N/A
#Smiles COC(=O)C1=CO[C@@H](C)[C@@H]2CN(CCc3c[nH]c4ccccc34)CC[C@@H]21
#INCHI_AUX N/A
#Library_Class 1
#SpectrumID CCMSLIB00000080429
#IonMode Positive
#UpdateWorkflowName UPDATE-SINGLE-ANNOTATED-GOLD
#LibraryQualityString Gold
#TaskID b1d8e8f6646f4e71acdff9ca3d919d08
##Scan# 1668
#SpectrumFile p2-G08_GG8_01_18056.mzXML
#LibraryName NIH_Natural_Products_Library.mgf
#MQScore -1
#Organism NIH_Natural_Products_Library
#TIC_Query 0
#RT_Query -1
#MZErrorPPM -1
#SharedPeaks 0
#MassDiff 0
#LibMZ -1
#SpecMZ 355.202
#SpecCharge 0
#internalFilename spec-00000.mgf

>collision 10
95.033913 152.0
95.047493 328.0
95.084366 104.0
95.129005 120.0
95.142593 148.0
95.18531 112.0
95.220268 152.0
95.410698 200.0
95.45153 144.0
95.583809 216.0
95.727859 192.0
95.828514 208.0
95.928543 220.0
95.941345 148.0
95.990936 180.0
96.078606 152.0
96.102119 72.0
96.316864 188.0
96.412605 60.0
96.533661 156.0
96.653893 76.0
96.69619 144.0
96.721634 136.0
96.974312 168.0
97.017433 184.0
97.082138 216.0
97.137054 152.0
97.168449 116.0
97.297981 208.0
97.364746 204.0
97.390274 64.0
97.457069 224.0
97.537643 88.0
97.590454 144.0
97.677261 120.0
97.733635 220.0
97.968605 172.0
98.009979 144.0
98.041512 204.0
98.078957 160.0
98.118385 172.0
98.15181 160.0
98.2742 140.0
98.359062 116.0
98.392624 260.0
98.410522 180.0
98.668671 116.0
98.722603 80.0
98.764137 168.0
98.793808 108.0
98.920464 164.0
99.003624 148.0
99.029366 176.0
99.080605 88.0
99.183922 120.0
99.201759 104.0
99.34256 220.0
99.374306 140.0
99.455666 168.0
99.481476 200.0
99.622475 152.0
99.684067 152.0
99.739258 296.0
99.78743 140.0
99.804466 140.0
99.950531 144.0
99.970428 180.0
100.030136 120.0
100.074028 264.0
100.119736 124.0
100.151604 180.0
100.187836 192.0
100.243248 132.0
100.360855 116.0
100.426666 172.0
100.617218 164.0
100.712097 156.0
100.744057 124.0
100.790009 200.0
100.8405 152.0
100.848366 40.0
100.855461 160.0
100.869957 156.0
100.929932 116.0
101.041328 208.0
101.103149 184.0
101.198845 192.0
101.374329 144.0
101.420425 144.0
101.679161 176.0
101.737373 100.0
101.825722 164.0
101.92028 176.0
102.047585 208.0
102.161407 144.0
102.185555 112.0
102.217743 148.0
102.266045 72.0
102.284164 184.0
102.390877 44.0
102.448486 160.0
102.554077 148.0
102.576248 168.0
102.656898 212.0
102.679085 168.0
102.705299 188.0
102.74968 132.0
102.788017 132.0
102.894997 176.0
103.054451 2032.0
103.096992 220.0
103.169754 188.0
103.200958 212.0
103.214706 120.0
103.24395 208.0
103.287048 176.0
103.345711 212.0
103.37809 124.0
103.495499 64.0
103.595047 132.0
103.641335 188.0
103.706184 236.0
103.748756 140.0
103.799446 184.0
103.937386 72.0
103.95961 172.0
104.052124 796.0
104.095718 192.0
104.109215 256.0
104.251556 196.0
104.282623 116.0
104.327866 188.0
104.429016 180.0
104.466698 236.0
104.593834 84.0
104.760811 116.0
104.828049 160.0
104.934044 200.0
104.991142 64.0
105.068558 328.0
105.111504 184.0
105.129868 180.0
105.189056 204.0
105.209473 180.0
105.354469 144.0
105.412743 148.0
105.425987 220.0
105.457474 216.0
105.575218 136.0
105.757309 128.0
105.796204 148.0
105.92112 60.0
105.951851 36.0
105.968239 296.0
106.068657 136.0
106.17733 204.0
106.220406 204.0
106.245682 112.0
106.263489 96.0
106.296318 124.0
106.419472 232.0
106.50573 276.0
106.544762 200.0
106.608459 224.0
106.643394 64.0
106.703011 88.0
106.788307 204.0
106.812004 136.0
106.836693 220.0
106.878929 180.0
106.910767 96.0
107.007507 220.0
107.072517 184.0
107.089882 144.0
107.207321 104.0
107.374306 140.0
107.458885 172.0
107.639847 276.0
107.745865 132.0
107.776855 388.0
107.82531 160.0
107.849037 216.0
107.985657 188.0
108.041061 204.0
108.077156 416.0
108.139221 200.0
108.154373 96.0
108.199364 204.0
108.401779 112.0
108.583122 212.0
108.711571 176.0
108.756432 168.0
108.81871 76.0
108.853722 172.0
109.025673 392.0
109.059273 180.0
109.076317 136.0
109.099182 184.0
109.16156 160.0
109.186516 192.0
109.205231 152.0
109.267639 104.0
109.291191 240.0
109.382103 340.0
109.44664 176.0
109.49662 180.0
109.542442 184.0
109.565361 188.0
109.884346 200.0
109.915642 160.0
109.971992 204.0
110.028358 96.0
110.061493 296.0
110.097626 444.0
110.136948 224.0
110.172455 228.0
110.195442 204.0
110.216331 84.0
110.239319 96.0
110.362648 152.0
110.427475 132.0
110.494415 172.0
110.515343 140.0
110.573936 140.0
110.605614 180.0
110.672325 152.0
110.726768 232.0
110.816849 100.0
110.858757 216.0
110.911156 180.0
111.039055 148.0
111.078903 200.0
111.096779 160.0
111.177521 176.0
111.341278 252.0
111.418999 136.0
111.504608 156.0
111.606056 48.0
111.627083 152.0
111.717522 200.0
111.753288 220.0
111.768021 212.0
111.89431 176.0
111.920738 188.0
112.041733 164.0
112.133934 196.0
112.19558 176.0
112.231422 164.0
112.28846 172.0
112.332657 124.0
112.374847 164.0
112.393845 116.0
112.446602 160.0
112.659866 144.0
112.786659 188.0
112.837395 160.0
112.879684 208.0
112.911407 128.0
112.930443 164.0
113.024796 192.0
113.057381 188.0
113.112411 72.0
113.154755 120.0
113.19075 236.0
113.313599 260.0
113.330551 184.0
113.362335 56.0
113.379288 36.0
113.408966 144.0
113.425919 160.0
113.514969 132.0
113.582832 184.0
113.675896 144.0
113.930984 236.0
114.020226 116.0
114.045731 188.0
114.081871 92.0
114.188187 192.0
114.28817 128.0
114.406586 220.0
114.456741 164.0
114.586258 124.0
114.703468 44.0
114.745041 48.0
114.827133 132.0
114.856995 96.0
115.024574 256.0
115.053955 9052.0
115.160095 172.0
115.202057 260.0
115.231659 120.0
115.273323 148.0
115.348129 132.0
115.402039 56.0
115.422958 196.0
115.658295 188.0
115.677559 60.0
115.705391 252.0
115.857948 172.0
115.878876 160.0
116.059639 1632.0
116.191895 48.0
116.23481 96.0
116.273438 124.0
116.320656 220.0
116.526825 112.0
116.606331 228.0
116.728874 168.0
116.817604 188.0
116.859497 220.0
116.888062 44.0
116.913422 132.0
117.028641 168.0
117.069534 14176.0
117.120346 112.0
117.144272 48.0
117.221832 48.0
117.275711 140.0
117.325294 152.0
117.437424 84.0
117.670486 112.0
117.707191 156.0
117.780624 120.0
117.843277 136.0
117.921066 116.0
117.998894 192.0
118.01619 212.0
118.06604 2884.0
118.112968 156.0
118.123085 140.0
118.169754 168.0
118.221748 144.0
118.280128 176.0
118.323425 44.0
118.373222 132.0
118.405708 152.0
118.483688 228.0
118.513351 168.0
118.546524 164.0
118.600708 108.0
118.633224 172.0
118.647293 164.0
118.665741 140.0
118.755783 152.0
118.800209 152.0
118.856987 260.0
119.043304 72.0
119.069023 556.0
119.087975 240.0
119.117149 156.0
119.132355 168.0
119.188843 72.0
119.425812 116.0
119.46714 116.0
119.482376 184.0
119.575943 168.0
119.591179 208.0
119.663017 188.0
119.813293 184.0
119.87648 112.0
120.077049 116.0
120.223221 164.0
120.323631 220.0
120.545486 176.0
120.570465 232.0
120.60762 200.0
120.692886 208.0
120.712563 104.0
120.758492 148.0
120.795677 228.0
120.839432 40.0
120.902885 148.0
120.975121 156.0
121.027863 400.0
121.065117 1944.0
121.088982 184.0
121.216049 180.0
121.268646 76.0
121.305046 252.0
121.354874 96.0
121.378258 244.0
121.656906 104.0
121.685448 112.0
121.764496 184.0
121.806229 48.0
121.83699 164.0
121.865547 192.0
121.900703 156.0
121.916092 136.0
122.041389 172.0
122.064911 344.0
122.093742 984.0
122.131554 120.0
122.287773 52.0
122.303726 148.0
122.375832 64.0
122.456955 296.0
122.587296 132.0
122.675461 180.0
122.781296 228.0
122.845261 80.0
122.860703 116.0
122.889389 172.0
122.937935 208.0
123.048302 128.0
123.079514 348.0
123.124344 128.0
123.156509 128.0
123.27581 128.0
123.313385 216.0
123.333275 160.0
123.412865 128.0
123.458298 188.0
123.496223 236.0
123.501701 164.0
123.545563 164.0
123.567688 124.0
123.603088 148.0
123.665054 164.0
123.729248 132.0
123.793465 44.0
123.890923 188.0
123.95504 128.0
123.983986 100.0
124.043831 204.0
124.064384 132.0
124.087776 204.0
124.111794 228.0
124.205345 172.0
124.387665 128.0
124.480911 56.0
124.645294 308.0
124.705299 112.0
124.860931 196.0
124.934334 188.0
125.055969 320.0
125.475525 148.0
125.520592 168.0
125.754364 168.0
125.79454 256.0
125.814636 136.0
125.932983 152.0
125.982132 192.0
126.024574 52.0
126.046921 200.0
126.111732 72.0
126.196686 64.0
126.248116 196.0
126.333107 68.0
126.460655 68.0
126.563637 140.0
126.615143 136.0
126.691299 68.0
126.754036 124.0
126.783173 208.0
126.841446 204.0
126.913185 108.0
126.978683 232.0
127.053398 2368.0
127.202599 44.0
127.247498 40.0
127.336899 148.0
127.391228 172.0
127.411453 76.0
127.604736 64.0
127.690186 112.0
127.726173 44.0
127.74192 104.0
127.829666 160.0
127.89859 32.0
127.921944 112.0
128.050308 2240.0
128.090836 228.0
128.140396 52.0
128.171951 144.0
128.248566 216.0
128.398132 168.0
128.413162 200.0
128.483093 152.0
128.5168 68.0
128.55304 152.0
128.650589 200.0
128.688477 164.0
128.742676 136.0
128.905975 124.0
128.922852 148.0
128.984421 40.0
129.055481 312.0
129.174377 160.0
129.190216 140.0
129.215103 100.0
129.294296 132.0
129.371262 180.0
129.400681 148.0
129.606796 196.0
129.640732 144.0
129.677048 68.0
129.701981 44.0
129.990021 140.0
130.019577 164.0
130.059158 296.0
130.094437 64.0
130.192062 32.0
130.219315 44.0
130.289734 176.0
130.337448 224.0
130.364716 208.0
130.462463 160.0
130.49324 52.0
130.532944 240.0
130.64212 180.0
130.696716 116.0
130.805954 168.0
130.887924 180.0
131.013199 188.0
131.048843 556.0
131.075623 248.0
131.099777 164.0
131.119095 76.0
131.133514 180.0
131.184113 92.0
131.41217 156.0
131.43956 228.0
131.478348 184.0
131.505157 164.0
131.539978 152.0
131.615326 220.0
131.713516 120.0
131.852905 172.0
131.951187 140.0
132.056335 168.0
132.097549 48.0
132.147888 200.0
132.305801 112.0
132.670074 164.0
132.718216 76.0
132.757202 236.0
132.784714 136.0
132.805359 172.0
133.064026 284.0
133.124374 156.0
133.151932 140.0
133.222687 200.0
133.28978 48.0
133.420792 48.0
133.894806 184.0
133.940399 160.0
134.0215 236.0
134.057419 136.0
134.096359 156.0
134.143646 140.0
134.314285 192.0
134.356308 148.0
134.50351 112.0
134.600479 184.0
134.646652 112.0
134.826859 112.0
134.85228 184.0
134.93782 92.0
135.00148 160.0
135.04808 212.0
135.085632 152.0
135.111282 116.0
135.548889 100.0
135.73201 136.0
135.755203 64.0
135.854935 96.0
135.873505 212.0
135.954712 144.0
136.040588 200.0
136.077591 340.0
136.113678 336.0
136.184555 236.0
136.26355 176.0
136.41925 132.0
136.454132 152.0
136.48436 128.0
136.521561 184.0
136.598312 156.0
136.614594 136.0
136.768188 168.0
136.89624 388.0
137.056961 96.0
137.120255 504.0
137.178162 140.0
137.297073 144.0
137.348389 160.0
137.371704 180.0
137.423035 164.0
137.483704 224.0
137.626099 196.0
137.801285 212.0
137.876053 176.0
137.955536 152.0
138.047119 160.0
138.06543 180.0
138.086472 156.0
138.132156 164.0
138.367279 176.0
138.388351 204.0
138.408524 192.0
138.435181 180.0
138.48436 112.0
138.524185 112.0
138.646027 216.0
138.66243 136.0
138.70462 160.0
138.840607 148.0
138.934433 68.0
138.995438 140.0
139.041061 332.0
139.079529 116.0
139.303009 184.0
139.33551 172.0
139.350464 180.0
139.533875 136.0
139.561539 188.0
139.860306 160.0
139.876785 260.0
139.952118 232.0
140.036392 220.0
140.128769 120.0
140.161758 152.0
140.194748 180.0
140.239532 184.0
140.468262 204.0
140.503647 144.0
140.550827 160.0
140.579147 124.0
140.662994 236.0
140.778854 216.0
140.867203 208.0
141.054169 168.0
141.07988 220.0
141.134262 168.0
141.472595 136.0
141.579147 108.0
141.643097 156.0
141.690475 152.0
141.794739 56.0
141.868225 144.0
142.001007 120.0
142.065018 2040.0
142.12912 88.0
142.156128 160.0
142.257278 176.0
142.273895 208.0
142.459137 92.0
142.48526 164.0
142.506653 208.0
142.561295 180.0
142.599319 180.0
142.701538 152.0
142.75386 172.0
142.847672 172.0
142.894424 208.0
142.95369 52.0
142.9841 236.0
143.033188 128.0
143.0728 19500.0
143.122696 256.0
143.151276 168.0
143.199005 160.0
143.222717 56.0
143.264023 240.0
143.301331 100.0
143.344223 144.0
143.426743 96.0
143.454453 80.0
143.49678 56.0
143.518234 132.0
143.550629 116.0
143.613632 36.0
143.633667 120.0
143.642044 48.0
143.658157 212.0
143.701965 132.0
143.742035 184.0
143.794952 176.0
143.838974 400.0
143.85881 128.0
143.895218 220.0
143.916595 252.0
143.953461 276.0
143.969772 232.0
144.011032 368.0
144.037247 180.0
144.081406 179084.0
144.169724 48.0
144.227982 236.0
144.251007 80.0
144.267395 184.0
144.293625 140.0
144.338196 112.0
144.36879 128.0
144.403336 108.0
144.422501 156.0
144.448639 112.0
144.473557 1256.0
144.521179 104.0
144.529205 80.0
144.570358 100.0
144.613678 96.0
144.649384 128.0
144.667084 56.0
144.693756 32.0
144.718597 140.0
144.742447 48.0
144.763412 320.0
144.804733 272.0
144.820389 96.0
144.826935 144.0
144.858246 68.0
144.887299 296.0
144.928741 76.0
144.940292 56.0
145.009811 180.0
145.034485 172.0
145.083664 20092.0
145.171219 104.0
145.194916 144.0
145.21376 88.0
145.230545 52.0
145.294266 64.0
145.329605 124.0
145.356323 160.0
145.395599 76.0
145.437012 116.0
145.472687 44.0
145.525726 72.0
145.570724 124.0
145.598083 200.0
145.621231 52.0
145.645798 56.0
145.681488 56.0
145.689651 48.0
145.715469 60.0
145.770737 148.0
145.794769 248.0
145.833221 40.0
145.854858 72.0
145.871689 92.0
145.917786 132.0
145.94545 88.0
145.971252 48.0
146.018616 244.0
146.037262 88.0
146.041306 140.0
146.06398 392.0
146.087036 1320.0
146.133591 124.0
146.169434 132.0
146.197586 72.0
146.206284 168.0
146.211914 88.0
146.235519 236.0
146.264053 104.0
146.303543 108.0
146.32785 124.0
146.346909 60.0
146.400497 92.0
146.408234 72.0
146.437134 56.0
146.458633 52.0
146.474518 100.0
146.513458 156.0
146.538315 120.0
146.56723 48.0
146.617844 40.0
146.639526 60.0
146.692551 132.0
146.776947 132.0
146.803467 48.0
146.842453 120.0
146.931305 88.0
146.950607 72.0
147.015762 52.0
147.085754 176.0
147.117142 88.0
147.141281 80.0
147.167831 128.0
147.231018 144.0
147.288589 268.0
147.319992 44.0
147.406967 52.0
147.47464 56.0
147.518158 144.0
147.576172 56.0
147.602768 236.0
147.810806 76.0
147.960876 68.0
147.999619 52.0
148.051941 168.0
148.14978 96.0
148.22731 140.0
148.372284 108.0
148.496399 44.0
148.624985 200.0
148.690506 32.0
148.991608 148.0
149.023193 236.0
149.059692 2652.0
149.110672 68.0
149.149551 104.0
149.207901 84.0
149.526566 48.0
149.567932 112.0
149.626358 140.0
149.660446 112.0
150.062347 148.0
150.094177 216.0
150.331314 192.0
151.0271 224.0
151.071136 172.0
151.139633 84.0
151.20816 68.0
151.28894 136.0
151.318314 124.0
151.624512 80.0
151.734818 76.0
151.857437 92.0
152.069534 168.0
152.106186 348.0
152.441742 84.0
152.471222 176.0
152.56955 136.0
152.712173 168.0
152.780594 172.0
152.928696 76.0
153.009933 120.0
153.054169 6276.0
153.09137 156.0
153.177383 48.0
153.211884 88.0
153.234055 76.0
153.288895 188.0
153.312912 76.0
153.331879 128.0
153.455872 80.0
153.712402 80.0
153.759293 140.0
153.910202 60.0
153.961731 48.0
154.05658 852.0
154.086472 144.0
154.142075 72.0
154.312622 172.0
154.465958 96.0
154.597092 128.0
154.730759 112.0
154.837234 40.0
155.060989 2680.0
155.092438 212.0
155.112259 92.0
155.190201 88.0
155.225418 92.0
155.283356 120.0
155.345367 72.0
155.382568 80.0
155.519058 48.0
155.63472 68.0
155.71521 60.0
155.772339 64.0
156.062988 804.0
156.207367 112.0
156.274536 92.0
156.374069 36.0
156.478622 32.0
156.558304 64.0
156.623062 76.0
156.737671 164.0
156.770065 52.0
156.799973 52.0
157.074234 184.0
157.323792 64.0
157.561035 68.0
157.606018 212.0
157.62851 80.0
157.651001 168.0
157.72847 156.0
157.825974 40.0
158.023575 104.0
158.091141 132.0
158.348999 44.0
158.772552 208.0
159.204224 80.0
159.646515 140.0
159.767258 276.0
161.047821 132.0
161.270172 256.0
161.330841 120.0
161.396576 76.0
161.568558 104.0
161.801407 196.0
162.04454 152.0
162.091461 196.0
162.594803 148.0
162.719193 92.0
162.876633 92.0
162.896957 136.0
162.927444 76.0
163.07724 368.0
163.166336 56.0
164.104218 1032.0
164.253754 168.0
164.65448 180.0
165.06337 188.0
165.091492 140.0
165.115662 116.0
165.352448 104.0
166.083313 160.0
166.494614 64.0
166.614059 96.0
166.891632 64.0
167.069962 520.0
167.2621 72.0
167.712875 144.0
167.730911 168.0
168.101379 356.0
169.083893 428.0
169.11087 196.0
169.786453 124.0
170.092087 196.0
170.380875 116.0
171.093475 140.0
171.176788 200.0
171.922363 188.0
172.53096 152.0
173.111832 116.0
173.583527 168.0
174.061111 152.0
174.094055 448.0
174.276505 200.0
174.518311 220.0
175.276382 136.0
175.529449 124.0
175.716721 128.0
175.756302 112.0
176.067795 44.0
176.26329 104.0
177.300644 160.0
177.584335 192.0
178.085983 100.0
178.314484 168.0
178.875717 168.0
180.101898 1544.0
180.626236 144.0
180.992889 108.0
181.084717 1268.0
181.268784 76.0
182.092422 364.0
182.586914 116.0
183.090942 268.0
183.278763 60.0
183.303009 100.0
183.348831 40.0
183.40004 184.0
183.982712 36.0
184.101517 296.0
184.125824 136.0
184.398697 40.0
184.596054 80.0
184.742111 88.0
185.107056 148.0
185.589828 40.0
186.347092 72.0
186.68959 96.0
186.920822 200.0
186.988861 148.0
187.124969 140.0
187.792618 104.0
188.270233 52.0
188.374023 124.0
188.775803 196.0
189.969986 168.0
190.101685 180.0
190.552002 36.0
190.659164 152.0
190.749878 120.0
191.848267 128.0
192.1008 1444.0
192.502182 60.0
193.085297 136.0
193.106201 136.0
194.024002 128.0
194.109955 116.0
194.223663 32.0
195.098404 156.0
195.119583 200.0
195.916595 84.0
196.132553 708.0
196.5802 84.0
197.130325 76.0
197.161072 80.0
197.183426 228.0
197.793182 112.0
198.131241 128.0
199.394745 112.0
199.816544 88.0
199.836243 164.0
200.426407 140.0
201.906769 72.0
202.501114 196.0
202.617264 148.0
203.8004 60.0
204.559753 128.0
205.67717 96.0
206.119843 120.0
208.093369 144.0
208.547256 148.0
208.788757 56.0
208.808899 136.0
209.113861 148.0
210.116913 148.0
212.128662 2024.0
213.058136 192.0
213.130188 300.0
214.140244 156.0
216.075623 136.0
216.13121 144.0
216.283401 160.0
216.963028 208.0
217.226959 48.0
218.525482 172.0
218.887527 152.0
219.873642 20.0
220.149673 172.0
221.530945 244.0
222.132721 168.0
222.913574 80.0
223.710693 84.0
223.825394 168.0
223.850632 68.0
223.907211 148.0
223.963806 112.0
223.996567 108.0
224.053177 172.0
224.07402 188.0
224.128479 25708.0
224.244995 64.0
224.282623 120.0
224.348206 60.0
224.424774 224.0
224.461502 60.0
224.596252 44.0
224.638397 116.0
224.664322 64.0
224.726807 72.0
224.792618 60.0
224.861099 84.0
224.950806 180.0
224.978958 112.0
225.043365 192.0
225.13176 2780.0
225.189682 76.0
225.409225 116.0
225.557205 112.0
225.700714 72.0
225.865204 72.0
225.966919 56.0
226.041718 36.0
226.130814 432.0
226.212326 104.0
226.273651 156.0
226.365021 104.0
226.421921 180.0
226.445877 40.0
226.502792 88.0
226.562698 144.0
226.670563 120.0
226.715515 92.0
226.736496 52.0
226.766464 88.0
226.790802 68.0
226.817413 192.0
227.093277 68.0
227.243271 68.0
230.658401 52.0
230.927521 168.0
231.781235 44.0
232.108612 152.0
233.007034 48.0
233.307907 96.0
234.296997 112.0
235.459167 176.0
235.764679 92.0
236.578308 56.0
237.761459 52.0
238.139526 148.0
239.141449 136.0
239.671127 68.0
240.213745 108.0
241.07518 60.0
242.687912 76.0
251.286407 36.0
252.173767 132.0
254.429169 76.0
254.740387 100.0
256.232422 52.0
256.618073 80.0
256.857269 64.0
256.949799 128.0
257.045502 80.0
263.783875 92.0
264.184875 96.0
265.593994 56.0
266.207397 28.0
266.684998 100.0
266.896301 188.0
271.907562 136.0
273.544434 48.0
275.880035 28.0
280.634369 92.0
281.138062 116.0
282.497955 104.0
284.92514 92.0
296.582306 108.0
296.962891 68.0
299.551208 84.0
300.14212 184.0
308.088776 84.0
311.599243 120.0
312.555603 108.0
313.157593 52.0
317.543854 68.0
317.848938 32.0
319.437073 76.0
320.683319 44.0
323.173126 332.0
326.285583 152.0
327.858582 36.0
331.338287 60.0
335.331848 148.0
339.752777 64.0
343.497742 52.0
346.262512 84.0
348.681488 40.0
351.198395 52.0
355.201385 772.0
356.197449 280.0
356.390869 48.0
357.139008 180.0
357.21286 296.0
358.645111 48.0
360.127991 104.0
360.301727 36.0
362.947388 88.0
364.902802 72.0
365.442871 112.0
372.093262 100.0
372.120148 56.0
385.105072 144.0
385.374634 84.0
407.766479 72.0
410.024323 44.0
422.920135 140.0
438.942169 80.0
438.988037 40.0
451.651031 96.0
452.133362 76.0
475.314636 84.0
482.59317 96.0
482.623779 56.0
495.214508 84.0
499.529022 92.0
501.74231 68.0
503.464661 72.0
521.859436 80.0
530.818298 180.0
534.263062 100.0
537.59436 56.0
559.286072 120.0
564.891907 52.0
570.587524 80.0
574.235107 60.0
588.222168 84.0
650.007874 52.0
672.273926 248.0
674.127808 68.0
675.772156 56.0
682.171875 80.0
687.312317 68.0
690.483276 80.0
721.732971 192.0
724.221436 48.0
726.451355 200.0
730.510498 96.0
741.083374 56.0
741.880066 76.0
751.664734 172.0
753.827148 96.0
769.133911 40.0
769.984192 28.0
776.276428 156.0
788.239197 180.0
789.178223 140.0
813.012085 132.0
819.374878 124.0
825.516541 88.0
825.7453 56.0
829.105957 164.0
832.375793 152.0
839.39032 68.0
849.37262 208.0
855.736084 180.0
868.252808 76.0
869.343994 196.0
869.625671 184.0
870.04834 52.0
876.429749 132.0
879.106812 148.0
886.72998 136.0
887.168579 196.0
887.927551 280.0
892.648804 184.0
895.61261 204.0
900.575134 196.0
904.347961 196.0
906.977417 144.0
924.461548 60.0
926.120422 160.0
935.88562 228.0
936.092651 216.0
936.458008 128.0
941.141479 116.0
941.764404 160.0
944.227478 260.0
944.283203 180.0
947.974121 76.0
948.623779 180.0
955.532715 32.0
956.548096 224.0
957.619507 200.0
959.005798 112.0
963.918274 160.0
966.960876 160.0
974.178345 164.0
976.428467 144.0
977.666504 220.0
978.772705 180.0
978.836792 172.0
978.955139 148.0
981.142151 120.0
984.12439 172.0
987.061096 156.0
987.167419 152.0
989.40741 140.0
991.342834 160.0
997.29248 76.0
997.745056 60.0
1002.667419 272.0
1009.295776 176.0
1009.618225 216.0
1009.902832 180.0
1011.345459 144.0
1012.111511 244.0
1014.075317 88.0
1015.317993 236.0
1016.764465 164.0
1017.145264 124.0
1018.853516 180.0
1020.874756 224.0
1024.273438 96.0
1029.088257 148.0
1032.295898 208.0
1035.310059 192.0
1035.841675 208.0
1037.783447 164.0
1040.060913 56.0
1040.490967 200.0
1041.101685 188.0
1042.694214 172.0
1048.821533 164.0
1049.143921 296.0
1052.621582 124.0
1054.158936 180.0
1055.936768 64.0
1056.169556 200.0
1057.638428 204.0
1059.710693 148.0
1061.344116 176.0
1062.284424 128.0
1067.226807 120.0
1069.197754 220.0
1069.536255 148.0
1070.70813 124.0
1071.945923 252.0
1071.991577 176.0
1074.704102 132.0
1074.952026 152.0
1078.178101 200.0
1083.543701 112.0
1083.949951 260.0
1087.609497 152.0
1089.599243 216.0
1092.136597 172.0
1092.452393 40.0
1094.512329 208.0
1095.322388 164.0
1097.088501 168.0
1097.892944 132.0
1100.334351 164.0
1101.351318 192.0
1101.602295 220.0
1101.892944 128.0
1103.181641 44.0
1103.981689 172.0
1106.515991 136.0
1107.886841 60.0
1109.053101 256.0
1109.179077 52.0
1109.311646 148.0
1109.749146 208.0
1110.392334 184.0
1110.863281 220.0
1113.179688 128.0
1115.053101 152.0
1115.551636 200.0
1117.140869 132.0
1117.613281 232.0
1119.317261 144.0
1119.490479 136.0
1121.14917 204.0
1121.669067 152.0
1122.655884 112.0
1126.003296 196.0
1126.313232 128.0
1128.832886 172.0
1131.864136 88.0
1134.309448 176.0
1134.423462 172.0
1134.678223 180.0
1139.107422 196.0
1144.157715 144.0
1145.484375 220.0
1147.560059 200.0
1149.435181 188.0
1153.575317 148.0
1154.359619 116.0
1154.79248 60.0
1155.306519 216.0
1155.976318 216.0
1157.296265 140.0
1159.588867 176.0
1161.694702 160.0
1161.769287 212.0
1162.834595 260.0
1167.72644 144.0
1169.195923 172.0
1169.440918 192.0
1169.733643 188.0
1170.182983 168.0
1171.408813 168.0
1173.507812 152.0
1174.817261 72.0
1175.137939 108.0
1178.681641 192.0
1178.756836 140.0
1180.117065 192.0
1180.575195 184.0
1181.265991 184.0
1181.33728 156.0
1181.614868 92.0
1183.757202 220.0
1184.873657 52.0
1185.887817 112.0
1186.840698 168.0
1187.156128 172.0
1187.21106 48.0
1188.404541 120.0
1188.576172 80.0
1191.19873 108.0
1191.927002 176.0
1192.373657 164.0
1192.504272 108.0
1192.634888 108.0
1193.363525 212.0
1195.399536 36.0
1196.012085 188.0
1197.878174 148.0
1198.828979 104.0
1199.276978 200.0
1199.697388 120.0
1201.945801 108.0
1203.733643 176.0
1204.016724 96.0
1205.149658 224.0
1205.204956 164.0
1205.2948 148.0
1206.400635 76.0
1207.631348 148.0
1207.755859 60.0
1208.772949 152.0
1208.855957 32.0
1208.938965 156.0
1209.50647 176.0
1211.230713 164.0
1211.341431 136.0
1211.468262 184.0
1213.039185 88.0
1216.757568 128.0
1217.389404 88.0
1218.125732 72.0
1218.459106 212.0
1219.661377 188.0
1219.758667 112.0
1219.946289 64.0
1221.079712 132.0
1221.455322 120.0
1221.844849 104.0
1222.443237 112.0
1223.174072 100.0
1224.336792 140.0
1224.712891 176.0
1225.953003 184.0
1227.019409 156.0
1230.207642 32.0
1232.575317 188.0
1232.896729 128.0
1233.309082 176.0
1236.29541 76.0
1236.666382 152.0
1239.215454 184.0
1239.803955 216.0
1240.307007 64.0
1240.434814 104.0
1240.511963 204.0
1240.953613 140.0
1241.360229 52.0
1242.068604 88.0
1243.324463 176.0
1243.401733 160.0
1244.875977 140.0
1245.501099 140.0
1245.697754 128.0
1245.922485 120.0
1250.76062 164.0
1251.373047 172.0
1251.950439 208.0
1253.105713 204.0
1254.62793 204.0
1255.749146 156.0
1256.44043 84.0
1256.708496 176.0
1257.096558 64.0
1259.108521 96.0
1262.309814 204.0
1262.677612 120.0
1263.236328 152.0
1264.014648 112.0
1264.55249 164.0
1265.040894 168.0
1265.416138 228.0
1265.685181 128.0
1265.805542 136.0
1265.975464 180.0
1267.7323 112.0
1269.341431 212.0
1269.462036 228.0
1269.554199 80.0
1269.802368 116.0
1270.362793 128.0
1270.724609 148.0
1271.306396 124.0
1271.902588 128.0
1273.365234 144.0
1273.450439 172.0
1273.500244 160.0
1273.649292 168.0
1274.231812 148.0
1274.878418 136.0
1275.255127 168.0
1275.496826 192.0
1276.186401 128.0
1277.10376 204.0
1277.647217 208.0
1278.512451 124.0
1279.039185 152.0
1279.402222 136.0
1279.672729 144.0
1280.42041 184.0
1281.111328 252.0
1281.89502 176.0
1282.244263 112.0
1284.490234 192.0
1284.590088 168.0
1284.796997 160.0
1285.060913 152.0
1285.539062 112.0
1286.095703 164.0
1288.323608 188.0
1288.880859 68.0
1288.973755 140.0
1289.245361 164.0
1289.473999 208.0
1291.061157 160.0
1292.0625 160.0
1292.527588 168.0
1292.706543 160.0
1293.973389 116.0
1294.026489 156.0
1294.188232 156.0
1294.288452 240.0
1294.488892 204.0
1294.904297 160.0
1295.835571 32.0
1296.047607 196.0
1296.960693 152.0
1297.577148 132.0
1297.820923 120.0
1298.021729 124.0
1298.229614 128.0
1299.373779 172.0
1299.728882 116.0
1300.26709 136.0
1300.468018 124.0
1300.841309 76.0
1301.02063 240.0
1301.415649 180.0
1302.306152 112.0
1302.751465 152.0
1303.31897 184.0
1303.771729 152.0
1304.900269 224.0
1305.302979 188.0
1306.302612 208.0
1306.36731 108.0
1306.849365 184.0
1307.058105 168.0
1309.930664 124.0
1310.067505 176.0
1311.476807 204.0
1311.631226 192.0
1312.438721 128.0
1313.787354 132.0
1315.483276 144.0
1315.577026 164.0
1315.670898 128.0
1316.320679 144.0
1317.339111 108.0
1319.492676 44.0
1319.926514 192.0
1320.454346 172.0
1321.373047 232.0
1321.756592 164.0
1322.2052 108.0
1322.552612 168.0
1323.696533 216.0
1327.341309 176.0
1328.11731 124.0
1328.781128 116.0
1330.15625 176.0
1332.269409 136.0
1332.523682 188.0
1332.981445 140.0
1333.243042 224.0
1333.584717 116.0
1333.686401 36.0
1335.009644 128.0
1335.424194 268.0
1335.533325 32.0
1336.602661 144.0
1337.163086 144.0
1337.410522 188.0
1337.716187 188.0
1339.478394 164.0
1339.726074 48.0
1340.338135 248.0
1342.021851 260.0
1342.605225 172.0
1343.509644 132.0
1344.072021 168.0
1344.560425 180.0
1344.815796 136.0
1347.108643 160.0
1347.210938 152.0
1347.568848 64.0
1347.985352 180.0
1349.037842 196.0
1349.47644 208.0
1350.683105 144.0
1350.880615 84.0
1351.897583 152.0
1352.373291 144.0
1352.702759 100.0
1353.815674 128.0
1354.394165 176.0
1355.661743 224.0
1355.910889 184.0
1356.160034 112.0
1356.607178 136.0
1356.966431 164.0
1357.993042 164.0
1361.156006 156.0
1361.784668 172.0
1362.007935 180.0
1363.81543 104.0
1364.013916 156.0
1364.866699 180.0
1367.035767 152.0
1367.603394 36.0
1368.656128 116.0
1370.018677 48.0
1370.549194 168.0
1371.610352 168.0
1371.897827 168.0
1372.238525 188.0
1372.41394 164.0
1372.765503 436.0
1373.306274 148.0
1373.734131 116.0
1374.095581 116.0
1374.936768 196.0
1376.021851 176.0
1376.19165 232.0
1376.36145 188.0
1376.479614 144.0
1377.513672 156.0
1377.676147 160.0
1379.026245 208.0
1379.582764 160.0
1379.974609 140.0
1380.63269 156.0
1380.891479 48.0
1380.987671 160.0
1381.882812 188.0
1382.008545 156.0
1382.504395 132.0
1382.59314 116.0
1382.715332 220.0
1383.481323 176.0
1383.599854 164.0
1383.666382 172.0
1384.303223 180.0
1384.562378 180.0
1384.814209 132.0
1385.525269 168.0
1386.592285 152.0
1386.84314 224.0
1387.622681 176.0
1388.260376 60.0
1389.165283 132.0
1389.372925 80.0
1389.840332 68.0
1390.738281 128.0
1391.452271 164.0
1391.740479 388.0
1392.80249 180.0
1393.248169 172.0
1395.120972 124.0
1395.380249 164.0
1396.11731 148.0
1396.348022 152.0
1398.177979 196.0
1399.517944 180.0
1400.314697 228.0
1402.363647 192.0
1402.609619 188.0
1402.818359 108.0
1403.981445 200.0
1405.174927 124.0
1405.891235 132.0
1407.585815 128.0
1407.682861 212.0
1407.765015 136.0
1408.765869 152.0
1409.03479 228.0
1411.291992 128.0
1411.43396 80.0
1411.620972 176.0
1412.346436 172.0
1412.443604 220.0
1413.087036 60.0
1413.139404 144.0
1413.22168 124.0
1413.535889 116.0
1414.194458 148.0
1415.205078 148.0
1415.347412 212.0
1415.497192 160.0
1416.194092 172.0
1416.27002 200.0
1416.425781 168.0
1416.508179 60.0
1416.882812 116.0
1417.332275 132.0
1417.431152 188.0
1417.796875 160.0
1418.006714 160.0
1418.306519 164.0
1418.936279 100.0
1419.603638 196.0
1420.091064 196.0
1421.471436 96.0
1421.674072 132.0
1422.161865 172.0
1422.274536 200.0
1423.182861 160.0
1423.513428 156.0
1424.140869 204.0
1424.467041 116.0
1425.579102 248.0
1425.842041 148.0
1426.247925 188.0
1426.353149 264.0
1426.435791 184.0
1427.112427 188.0
1430.03125 104.0
1430.362427 84.0
1430.663574 152.0
1430.859253 220.0
1431.288452 140.0
1432.192139 156.0
1432.841431 188.0
1433.623657 128.0
1433.857178 204.0
1434.776855 140.0
1434.844727 140.0
1435.093506 156.0
1436.028564 116.0
1436.737671 220.0
1436.79541 168.0
1436.873413 228.0
1437.326172 160.0
1437.643066 224.0
1437.861938 200.0
1438.209106 180.0
1438.971558 180.0
1440.640503 132.0
1440.859619 108.0
1441.018311 172.0
1442.29541 28.0
1442.416382 172.0
1442.907715 160.0
1443.222656 172.0
1444.397461 188.0
1444.896729 176.0
1445.131348 48.0
1445.502075 140.0
1445.797241 100.0
1447.606445 172.0
1448.023071 144.0
1448.734985 60.0
1449.227417 236.0
1449.651855 140.0
1450.452759 220.0
1451.167847 104.0
1451.493774 52.0
1451.653076 192.0
1452.145996 184.0
1452.328003 120.0
1452.449463 184.0
1453.059692 108.0
1453.283936 196.0
1453.701294 172.0
1454.141357 168.0
1454.953613 192.0
1455.363647 80.0
1455.553467 44.0
1455.925537 280.0
1456.176147 188.0
1458.121094 204.0
1458.645508 188.0
1459.322144 156.0
1459.46521 236.0
1459.85437 132.0
1460.067383 44.0
1460.633301 204.0
1460.919189 156.0
1461.109375 176.0
1462.098633 164.0
1462.570435 180.0
1463.369873 164.0
1463.514526 68.0
1464.138916 128.0
1464.284546 148.0
1465.563354 332.0
1466.676025 168.0
1467.026611 180.0
1467.080078 140.0
1467.545044 136.0
1469.207764 148.0
1469.467041 156.0
1470.565918 160.0
1470.878906 140.0
1472.337158 184.0
1472.902344 152.0
1474.292969 112.0
1475.064819 132.0
1475.95166 192.0
1477.014771 148.0
1477.420166 176.0
1477.519653 128.0
1477.57312 172.0
1477.929565 164.0
1478.713379 136.0
1479.172607 112.0
1479.356323 176.0
1479.670166 200.0
1479.904785 192.0
1480.818726 60.0
1481.439209 144.0
1481.492798 144.0
1483.0177 136.0
1483.101074 172.0
1483.332031 180.0
1483.845581 172.0
1484.121582 208.0
1485.064819 192.0
1485.701538 184.0
1485.77832 120.0
1486.645264 184.0
1486.752686 32.0
1486.947632 220.0
1487.029053 84.0
1487.243896 264.0
1487.597046 156.0
1488.495361 196.0
1488.741089 196.0
1488.7948 124.0
1489.101929 172.0
1489.232544 200.0
1489.309326 216.0
1489.678101 84.0
1489.831665 264.0
1490.016113 176.0
1491.038086 220.0
1491.137939 152.0
1491.860474 200.0
1492.175659 216.0
1494.044556 116.0
1494.359985 228.0
1494.452271 152.0
1494.560059 116.0
1494.883179 192.0
1494.975586 156.0
1496.907715 268.0
1498.19397 40.0
1498.679321 160.0
1498.995239 124.0
1499.496216 232.0
1500.307983 152.0
1500.945435 88.0
1501.516113 188.0
1501.686646 172.0
1501.801514 132.0
1503.560547 104.0
1504.170288 192.0
1504.232056 148.0
