>compound (6R,7R)-7-[[2-(2-amino-1,3-thiazol-4-yl)-2-hydroxyiminoacetyl]amino]-3-ethenyl-8-oxo-5-thia-1-azabicyclo[4.2.0]oct-2-ene-2-carboxylic acid
>formula C14H13N5O5S2
>ionization [M+H]+
>parentmass 396.04306
#inchi InChI=1S/C14H13N5O5S2/c1-2-5-3-25-12-8(11(21)19(12)9(5)13(22)23)17-10(20)7(18-24)6-4-26-14(15)16-6/h2,4,8,12,24H,1,3H2,(H2,15,16)(H,17,20)(H,22,23)/t8-,12-/m1/s1
#inchikey RTXOFQZKPXMALH
#Ion_Source LC-ESI
#Instrument qTof
#Compound_Source Commercial
#PI Dorrestein
#Data_Collector Garg_Neha
#Scan -1
#Precursor_MZ 396.043
#ExactMass 395.036
#Charge 1
#CAS_Number N/A
#Pubmed_ID N/A
#Smiles Nc1nc(cs1)C(=NO)C(=O)N[C@H]2[C@H]3SCC(=C(N3C2=O)C(=O)O)C=C
#INCHI_AUX N/A
#Library_Class 1
#SpectrumID CCMSLIB00000079071
#IonMode Positive
#UpdateWorkflowName UPDATE-SINGLE-ANNOTATED-GOLD
#LibraryQualityString Gold
#TaskID 278b19f5865741e282cec7349aa7e7a1
##Scan# 994
#SpectrumFile NCP003432_C2_D11_BD1_01_15723.mzXML
#LibraryName NIHcollectionI_05062014.mgf
#MQScore -1
#Organism NIHcollectionI_05062014
#TIC_Query 0
#RT_Query -1
#MZErrorPPM -1
#SharedPeaks 0
#MassDiff 0
#LibMZ -1
#SpecMZ 396.043
#SpecCharge 0
#internalFilename spec-00000.mgf

>collision 10
45.565933 140.0
51.663383 176.0
54.351181 164.0
55.956371 188.0
57.042477 148.0
57.888893 184.0
58.909458 248.0
70.124619 200.0
70.898415 176.0
78.065971 144.0
78.506218 140.0
78.689728 164.0
91.244522 196.0
94.062569 160.0
95.026314 268.0
97.009705 152.0
97.718666 156.0
98.230873 144.0
99.988365 180.0
101.805618 156.0
101.978394 164.0
102.001572 208.0
103.667603 164.0
106.027527 176.0
106.052116 200.0
108.550819 140.0
110.011391 148.0
110.057327 148.0
111.053444 188.0
112.15731 240.0
113.01683 268.0
114.03685 176.0
115.435364 144.0
117.042572 176.0
119.059731 384.0
120.046783 284.0
120.067764 164.0
123.012177 116.0
124.022354 452.0
124.049507 284.0
125.006073 424.0
126.012375 4228.0
127.011734 384.0
127.343269 184.0
127.97905 172.0
128.008453 112.0
128.029205 180.0
128.581543 156.0
130.168472 220.0
132.692032 228.0
132.984924 188.0
135.050171 116.0
136.019791 456.0
137.984787 168.0
138.015427 192.0
138.039337 328.0
138.991928 244.0
139.038864 188.0
142.004837 764.0
142.274994 176.0
142.980942 160.0
143.045212 152.0
144.003738 172.0
144.027618 188.0
144.991821 184.0
145.988098 156.0
147.053864 176.0
148.017517 144.0
150.056061 144.0
150.165802 144.0
150.864136 152.0
151.035309 168.0
151.052429 184.0
152.017456 2496.0
153.023529 440.0
154.003723 148.0
154.026031 228.0
154.076157 208.0
155.016373 168.0
155.063461 328.0
156.026138 204.0
157.002625 216.0
161.035797 380.0
164.015656 188.0
164.034988 168.0
166.030029 1224.0
167.036942 120.0
167.955673 140.0
168.007614 128.0
170.026703 1628.0
171.036636 420.0
171.998367 172.0
172.021133 144.0
172.030121 216.0
173.022095 136.0
174.087631 184.0
179.034576 168.0
180.022476 468.0
180.054321 208.0
181.040161 264.0
181.64151 144.0
182.025742 1004.0
183.033142 1020.0
184.034943 260.0
184.069077 168.0
184.982895 168.0
185.031097 136.0
187.02832 128.0
190.041122 208.0
190.430923 152.0
191.040176 172.0
194.001114 140.0
195.011887 168.0
197.986191 136.0
198.018524 164.0
198.829788 204.0
199.029846 1116.0
199.990784 164.0
200.02713 168.0
200.054016 144.0
200.976868 152.0
201.027649 144.0
202.04483 140.0
204.05275 164.0
207.024277 860.0
209.013611 1064.0
209.980316 152.0
210.020279 752.0
210.985168 240.0
211.027771 1368.0
211.997147 264.0
212.023224 236.0
213.003845 1184.0
213.998825 252.0
214.996918 376.0
216.00737 156.0
219.413879 192.0
221.044266 192.0
222.014633 180.0
224.00502 148.0
225.998566 608.0
227.023621 11684.0
228.027191 836.0
228.248154 188.0
229.022018 792.0
232.049545 140.0
234.969711 124.0
239.912918 156.0
243.000366 1120.0
244.008804 152.0
245.012985 272.0
246.00145 112.0
247.061935 140.0
250.99733 144.0
252.987 228.0
253.028427 156.0
253.960556 148.0
254.001373 124.0
254.976532 164.0
255.992844 204.0
257.052856 168.0
259.063904 156.0
261.018463 188.0
263.949554 140.0
270.672272 172.0
270.995697 2208.0
271.035858 172.0
272.001892 328.0
272.054504 156.0
272.725952 144.0
272.991364 284.0
273.880829 200.0
274.006012 144.0
284.898499 240.0
286.049957 124.0
288.004272 148.0
290.190338 168.0
291.036591 136.0
294.041016 172.0
301.03064 148.0
301.072083 160.0
302.07547 184.0
304.042419 148.0
309.044342 168.0
311.879883 140.0
312.39328 168.0
316.041229 160.0
319.03125 164.0
322.992737 152.0
328.095551 180.0
332.026917 136.0
335.043793 128.0
336.043152 152.0
350.035217 196.0
351.051422 140.0
362.054993 272.0
363.017548 264.0
364.015564 156.0
365.00354 148.0
368.045685 276.0
369.026123 176.0
375.839905 180.0
376.519287 172.0
376.623566 184.0
386.459076 212.0
393.211121 224.0
393.304901 144.0
394.210419 156.0
396.04306 5220.0
396.124329 152.0
396.655182 148.0
396.752533 108.0
397.043335 944.0
398.037598 684.0
399.017212 148.0
399.204102 156.0
417.043213 164.0
1227.491577 156.0
1461.851074 172.0
1517.44104 200.0
1651.133789 140.0
1659.668945 160.0
1671.698975 160.0
1713.44165 176.0
1765.235596 212.0
1768.44812 220.0
1781.38623 164.0
1782.923828 212.0
1858.820557 196.0
1923.123657 172.0
