>compound MLS001077272-01!Enalapril maleate salt
>formula C20H28N2O5
>ionization [M+H]+
>parentmass 377.2070984480905
#inchi InChI=1S/C20H28N2O5/c1-3-27-20(26)16(12-11-15-8-5-4-6-9-15)21-14(2)18(23)22-13-7-10-17(22)19(24)25/h4-6,8-9,14,16-17,21H,3,7,10-13H2,1-2H3,(H,24,25)/t14-,16-,17-/m0/s1
#inchikey GBXSMTUPTTWBMN
#origInchi InChI=1S/C20H28N2O5.C4H4O4/c1-3-27-20(26)16(12-11-15-8-5-4-6-9-15)21-14(2)18(23)22-13-7-10-17(22)19(24)25;5-3(6)1-2-4(7)8/h4-6,8-9,14,16-17,21H,3,7,10-13H2,1-2H3,(H,24,25);1-2H,(H,5,6)(H,7,8)/b;2-1-/t14-,16-,17-;/m0./s1
#Ion_Source LC-ESI
#Instrument qTof
#Compound_Source NIH Pharmacologically Active Library
#PI Dorrestein
#Data_Collector VP/LMS
#Scan -1
#Precursor_MZ 377.211
#ExactMass 376.2
#Charge 1
#CAS_Number N/A
#Pubmed_ID N/A
#Smiles CCOC(=O)[C@H](CCc1ccccc1)N[C@@H](C)C(=O)N2CCC[C@H]2C(=O)O.OC(=O)/C=C\C(=O)O
#INCHI_AUX N/A
#Library_Class 1
#SpectrumID CCMSLIB00000084917
#IonMode Positive
#UpdateWorkflowName UPDATE-SINGLE-ANNOTATED-GOLD
#LibraryQualityString Gold
#TaskID d252d724072548979f1f6f1ced849daf
##Scan# 1597
#SpectrumFile p3-C07_GC7_01_18252.mzXML
#LibraryName Pharm_Active_Library.mgf
#MQScore -1
#Organism Pharm_Active_Library
#TIC_Query 0
#RT_Query -1
#MZErrorPPM -1
#SharedPeaks 0
#MassDiff 0
#LibMZ -1
#SpecMZ 377.211
#SpecCharge 0
#internalFilename spec-00000.mgf

>collision 10
44.963234 92.0
44.99794 152.0
45.039341 172.0
45.106155 84.0
45.122196 228.0
45.169003 132.0
45.39938 152.0
45.611523 120.0
45.64917 140.0
45.724506 112.0
46.087269 144.0
46.100784 148.0
46.237377 124.0
46.314556 120.0
46.371464 168.0
46.522034 116.0
46.579067 128.0
46.614395 132.0
46.702766 208.0
46.776249 220.0
46.822544 160.0
46.870224 224.0
46.913837 148.0
46.950653 176.0
47.165016 132.0
47.297703 140.0
47.37439 184.0
47.515602 148.0
47.604824 120.0
47.812416 264.0
47.868858 204.0
47.89365 212.0
47.926716 144.0
47.941872 168.0
48.350361 180.0
48.392197 52.0
48.461452 48.0
48.641747 232.0
48.791782 164.0
48.851585 156.0
48.904465 196.0
48.989407 188.0
49.081394 124.0
49.156723 204.0
49.233505 216.0
49.381653 184.0
49.41103 100.0
49.433853 160.0
49.464211 236.0
49.571369 220.0
49.698261 204.0
49.734749 180.0
49.866783 116.0
49.892082 176.0
50.05901 188.0
50.159561 108.0
50.170837 136.0
50.25264 48.0
50.270985 168.0
50.512592 144.0
50.610249 84.0
50.662651 168.0
50.686737 200.0
50.707996 128.0
50.759033 124.0
50.803001 180.0
50.821445 212.0
50.866863 152.0
50.892418 160.0
51.205276 180.0
51.320709 96.0
51.350655 144.0
51.409149 160.0
51.56768 180.0
51.647751 172.0
51.776569 148.0
51.843903 152.0
51.861103 148.0
51.932796 244.0
52.092129 108.0
52.119427 196.0
52.243076 40.0
52.351028 188.0
52.394241 128.0
52.489372 108.0
52.505234 48.0
52.521099 204.0
52.659271 200.0
52.67411 156.0
52.90694 148.0
52.969212 196.0
53.024273 132.0
53.053265 128.0
53.079361 232.0
53.178013 152.0
53.371231 140.0
53.4105 196.0
53.712029 68.0
53.935444 148.0
53.979301 200.0
54.272167 176.0
54.282433 192.0
54.368984 192.0
54.404213 144.0
54.420364 144.0
54.474705 152.0
54.502621 136.0
54.520252 144.0
54.611408 112.0
54.808685 52.0
54.865364 132.0
54.957611 148.0
54.978271 64.0
55.052086 160.0
55.089012 188.0
55.244236 64.0
55.451542 244.0
55.592434 36.0
55.659237 208.0
55.674088 108.0
55.967037 144.0
56.025124 180.0
56.160778 156.0
56.428089 268.0
56.648087 228.0
56.70203 204.0
57.117947 176.0
57.276001 140.0
57.450867 108.0
57.538403 120.0
57.689476 100.0
57.793835 48.0
57.917976 168.0
57.984646 160.0
58.030125 72.0
58.118095 164.0
58.165146 116.0
58.195507 140.0
58.216766 152.0
58.342884 160.0
58.390022 112.0
58.438702 80.0
58.460003 96.0
58.518456 200.0
58.533073 172.0
58.552872 200.0
58.711372 108.0
58.773918 240.0
59.159073 188.0
59.19582 240.0
59.382793 124.0
59.491741 116.0
59.625374 196.0
59.820721 188.0
60.28035 132.0
60.342178 156.0
60.444263 168.0
60.462837 176.0
60.51392 184.0
60.605305 168.0
60.642498 192.0
60.662647 192.0
60.730877 120.0
60.782074 216.0
60.931133 156.0
60.954437 124.0
60.979305 176.0
61.156662 140.0
61.212666 148.0
61.313927 72.0
61.34938 152.0
61.616653 156.0
61.640091 156.0
61.779243 172.0
61.948318 128.0
62.01413 152.0
62.078407 244.0
62.134876 176.0
62.188232 232.0
62.225906 192.0
62.373581 152.0
62.430183 156.0
62.513561 200.0
62.543465 192.0
62.633217 72.0
62.666302 108.0
62.67733 148.0
62.716732 224.0
62.816074 92.0
62.874454 176.0
62.904442 36.0
63.060822 76.0
63.073467 228.0
63.136711 200.0
63.203152 124.0
63.247467 88.0
63.290211 144.0
63.347855 164.0
63.454994 176.0
63.589832 40.0
63.740704 172.0
63.995205 188.0
64.157715 192.0
64.512123 144.0
64.838661 132.0
64.958916 108.0
65.056808 180.0
65.2705 140.0
65.420128 104.0
65.531258 280.0
65.665054 124.0
65.899132 160.0
66.132004 104.0
66.151428 140.0
66.167618 156.0
66.180565 140.0
66.196762 88.0
66.227531 76.0
66.35231 180.0
66.387985 144.0
66.534019 140.0
66.563248 64.0
66.655838 192.0
66.714348 160.0
66.738739 140.0
66.959946 172.0
67.411964 124.0
67.431572 112.0
67.644218 72.0
67.68351 180.0
67.891624 176.0
67.925735 176.0
68.203575 204.0
68.330208 116.0
68.366409 216.0
68.564034 224.0
68.60524 144.0
68.679443 236.0
68.839539 204.0
68.902306 164.0
68.932045 168.0
69.018005 176.0
69.034187 168.0
69.064308 128.0
69.112289 208.0
69.198357 168.0
69.504997 108.0
69.601273 200.0
69.802338 136.0
69.815643 44.0
69.863876 112.0
69.988701 196.0
70.202003 148.0
70.232552 416.0
70.398918 200.0
70.449028 200.0
70.594444 124.0
70.724945 180.0
70.751732 204.0
70.768471 208.0
70.90081 220.0
70.921043 216.0
70.982948 220.0
71.185326 180.0
71.414566 136.0
71.456627 168.0
71.4785 176.0
71.540771 224.0
71.635078 184.0
71.855927 144.0
71.908241 176.0
71.923431 152.0
71.992653 140.0
72.023056 148.0
72.107536 100.0
72.286804 108.0
72.335884 140.0
72.737633 172.0
72.778381 84.0
72.820839 124.0
72.878593 132.0
72.946579 144.0
73.024796 184.0
73.116669 132.0
73.154488 184.0
73.232445 156.0
73.471092 168.0
73.484741 160.0
73.537445 136.0
73.559837 244.0
73.672546 44.0
73.749443 184.0
74.004097 196.0
74.071129 144.0
74.149948 60.0
74.170517 180.0
74.189377 148.0
74.203087 136.0
74.221947 152.0
74.245956 108.0
74.438164 80.0
74.484535 164.0
74.548103 208.0
74.647812 160.0
74.794052 60.0
74.862923 68.0
74.887032 124.0
75.052475 72.0
75.069717 156.0
75.24572 80.0
75.295792 164.0
75.361435 160.0
75.373535 204.0
75.408096 140.0
75.427109 284.0
75.447853 192.0
75.529129 280.0
75.563309 248.0
75.686623 188.0
75.762833 108.0
75.809143 176.0
75.813568 128.0
75.880684 140.0
75.902962 160.0
76.213928 48.0
76.257378 204.0
76.276497 112.0
76.309532 136.0
76.406929 180.0
76.511345 160.0
76.945465 164.0
76.999596 208.0
77.018806 48.0
77.050255 156.0
77.233803 152.0
77.319542 120.0
77.377304 32.0
77.452606 164.0
77.594559 200.0
78.05986 196.0
78.133736 112.0
78.184769 212.0
78.734818 60.0
78.948662 88.0
78.978729 124.0
79.061882 180.0
79.12915 156.0
79.169876 200.0
79.192902 152.0
79.400269 316.0
79.48542 64.0
79.515587 128.0
79.6008 36.0
79.787369 140.0
80.02578 144.0
80.097015 164.0
80.148682 164.0
80.178902 212.0
80.196793 168.0
80.26989 180.0
80.48938 64.0
80.620934 248.0
80.694855 172.0
80.718102 184.0
80.800377 184.0
80.923874 144.0
80.999092 180.0
81.029549 100.0
81.119156 112.0
81.157799 144.0
81.198807 104.0
81.373901 124.0
81.413406 112.0
81.65963 160.0
81.717194 192.0
81.897217 116.0
81.933243 144.0
82.082848 192.0
82.12793 224.0
82.149574 64.0
82.879997 188.0
82.985123 144.0
83.014137 160.0
83.083061 76.0
83.101204 180.0
83.124794 116.0
83.161095 172.0
83.211922 184.0
83.231895 164.0
83.36087 116.0
83.4263 144.0
83.479027 120.0
83.500854 124.0
83.68544 248.0
83.819435 172.0
84.025475 108.0
84.043716 196.0
84.171494 172.0
84.496841 136.0
84.58651 56.0
84.635948 176.0
84.782494 216.0
84.846649 196.0
84.861313 172.0
84.954849 196.0
85.013565 120.0
85.037422 116.0
85.176971 160.0
85.469292 128.0
85.48217 156.0
85.548431 84.0
85.561317 180.0
85.721565 136.0
85.734467 132.0
86.068359 144.0
86.232773 192.0
86.463959 208.0
86.534302 164.0
86.563927 140.0
86.660248 128.0
86.845314 164.0
86.990364 160.0
87.003365 232.0
87.3918 196.0
87.548164 128.0
87.607773 128.0
87.740089 172.0
87.758736 156.0
88.010628 132.0
88.100273 88.0
88.186234 128.0
88.304024 100.0
88.395691 212.0
88.42189 192.0
88.489281 152.0
88.526733 184.0
88.637253 200.0
88.706604 140.0
88.815361 164.0
88.862259 100.0
88.941078 36.0
88.993645 176.0
89.078156 96.0
89.098824 96.0
89.16835 152.0
89.299957 136.0
89.476845 272.0
89.525803 164.0
89.633179 220.0
89.64637 128.0
89.880196 180.0
90.169128 180.0
90.186142 220.0
90.411209 208.0
90.611923 160.0
90.627083 212.0
90.752182 124.0
90.803383 192.0
90.927635 120.0
90.96846 172.0
91.031113 188.0
91.054359 6064.0
91.075554 180.0
91.095543 200.0
91.209709 32.0
91.306679 188.0
91.363739 108.0
91.37896 164.0
91.404068 224.0
91.508385 132.0
91.6017 92.0
91.628372 104.0
91.656952 148.0
91.706505 56.0
91.742722 256.0
91.824715 44.0
91.906746 124.0
92.057892 596.0
92.118668 184.0
92.145409 132.0
92.275375 152.0
92.520264 180.0
92.54213 180.0
92.596855 180.0
92.613304 136.0
92.867104 64.0
92.924652 132.0
92.940002 148.0
92.987976 156.0
93.03405 56.0
93.055168 152.0
93.116615 216.0
93.173187 152.0
93.210747 192.0
93.395309 140.0
93.633972 168.0
93.676353 168.0
93.770226 200.0
94.021492 164.0
94.060089 232.0
94.083153 228.0
94.090767 180.0
94.0951 208.0
94.222305 176.0
94.275352 44.0
94.303467 140.0
94.560707 88.0
94.611038 104.0
94.78923 172.0
95.249039 60.0
95.425888 176.0
95.59317 120.0
95.702171 200.0
95.819038 160.0
96.08049 192.0
96.154884 172.0
96.187614 216.0
96.302818 136.0
96.330162 136.0
96.406364 120.0
96.470863 228.0
96.609711 188.0
96.666458 228.0
96.689941 96.0
96.733002 208.0
96.78212 224.0
96.801529 412.0
97.017403 156.0
97.142563 112.0
97.26226 184.0
97.460617 128.0
97.558777 152.0
97.877327 188.0
98.061653 412.0
98.133766 164.0
98.254074 176.0
98.317223 116.0
98.672775 176.0
98.704407 120.0
98.73407 244.0
98.775604 132.0
98.791435 160.0
98.991341 136.0
99.338188 216.0
99.747261 156.0
99.892418 32.0
100.089455 168.0
100.208961 96.0
100.278709 140.0
100.306618 280.0
100.330536 152.0
100.432236 112.0
100.50605 88.0
100.66375 164.0
100.873535 116.0
100.897522 208.0
100.955513 184.0
101.033516 160.0
101.169601 140.0
101.39595 156.0
101.917702 208.0
101.959908 184.0
102.034279 256.0
102.054695 3284.0
102.120743 96.0
102.199203 36.0
102.392456 228.0
102.563721 220.0
102.59597 164.0
102.660492 168.0
102.696793 140.0
102.894554 68.0
102.916306 192.0
102.94471 200.0
102.98745 184.0
103.055656 208.0
103.126862 56.0
103.159203 152.0
103.282555 68.0
103.503151 144.0
103.543655 176.0
103.655075 176.0
103.748306 176.0
103.831444 188.0
103.916641 160.0
104.005936 136.0
104.060745 128.0
104.131821 188.0
104.524178 176.0
104.693138 164.0
104.719612 156.0
104.760353 120.0
104.799065 168.0
104.829628 116.0
105.070824 348.0
105.117157 148.0
105.170219 132.0
105.276382 72.0
105.307022 176.0
105.325401 252.0
105.339699 196.0
105.585426 164.0
105.681122 176.0
105.738419 172.0
105.76503 124.0
106.07193 184.0
106.275322 176.0
106.318413 60.0
106.552498 224.0
106.568932 164.0
106.66758 180.0
106.821808 144.0
106.87941 228.0
107.400635 136.0
107.425385 116.0
107.493469 164.0
107.691666 164.0
107.757767 156.0
107.941582 168.0
107.976883 144.0
108.235565 156.0
108.295624 168.0
108.39473 148.0
108.440659 144.0
108.579567 36.0
108.826508 172.0
109.06749 224.0
109.225525 216.0
109.348282 192.0
109.473198 204.0
109.527351 144.0
109.57943 164.0
109.633606 100.0
109.881744 140.0
110.048714 124.0
110.489708 152.0
110.698318 180.0
110.801651 192.0
110.931587 172.0
111.149704 176.0
111.275642 140.0
111.477287 120.0
111.628647 192.0
111.773315 160.0
111.851662 176.0
111.879028 140.0
111.916924 188.0
112.081223 188.0
112.241417 96.0
112.29203 192.0
112.336327 204.0
112.462936 192.0
112.621155 188.0
112.686783 264.0
112.81781 116.0
113.050476 192.0
113.082222 148.0
113.145729 180.0
113.325752 160.0
113.414757 180.0
113.431717 196.0
113.459274 212.0
113.70031 144.0
113.82634 140.0
113.928291 168.0
114.247177 248.0
114.35144 196.0
114.440849 40.0
114.628296 220.0
114.768982 120.0
114.969498 144.0
114.990837 132.0
115.054977 3016.0
115.146698 156.0
115.247101 164.0
115.330444 172.0
115.362511 240.0
115.448036 120.0
115.465141 240.0
115.542145 256.0
115.610619 64.0
115.632019 36.0
115.647003 124.0
115.717644 144.0
115.808418 176.0
116.069122 1336.0
116.146248 36.0
116.208466 32.0
116.328644 156.0
116.398102 160.0
116.472519 164.0
116.493996 108.0
116.558456 152.0
116.663773 156.0
116.683121 104.0
116.702469 96.0
116.764832 156.0
116.784187 108.0
116.803543 168.0
116.876694 156.0
116.927551 196.0
116.950279 188.0
117.010139 184.0
117.023605 128.0
117.070396 40172.0
117.134773 32.0
117.156433 56.0
117.178131 36.0
117.199677 80.0
117.221222 176.0
117.238464 44.0
117.271385 116.0
117.330467 76.0
117.387207 116.0
117.425011 108.0
117.438972 180.0
117.518791 76.0
117.551155 64.0
117.569672 76.0
117.587746 92.0
117.633537 136.0
117.693619 44.0
117.806961 92.0
117.826424 196.0
117.885872 72.0
118.002594 56.0
118.072647 3444.0
118.128029 68.0
118.173462 52.0
118.268677 124.0
118.340843 60.0
118.37043 148.0
118.543732 32.0
118.643875 196.0
118.667282 36.0
118.714989 84.0
118.732338 128.0
118.758362 72.0
118.823441 184.0
118.964508 56.0
119.031815 116.0
119.082085 588.0
119.140282 116.0
119.275139 48.0
119.290359 108.0
119.351234 52.0
119.405602 68.0
119.549416 76.0
119.573128 72.0
119.932503 84.0
119.989182 100.0
120.028427 68.0
120.054596 60.0
120.093452 132.0
120.17675 132.0
121.062042 136.0
121.099274 156.0
121.138702 68.0
121.246063 204.0
121.557472 52.0
121.737473 200.0
122.062706 184.0
122.421394 204.0
122.463242 204.0
122.478661 92.0
122.853401 188.0
122.941658 192.0
122.961967 180.0
123.116066 148.0
123.182327 128.0
123.303848 76.0
123.414383 172.0
123.666573 184.0
123.936752 40.0
124.076378 120.0
124.114075 120.0
124.238274 160.0
124.283722 128.0
124.335907 192.0
124.826866 60.0
125.042656 200.0
125.171776 172.0
125.648758 188.0
125.673302 224.0
125.80275 156.0
125.840698 84.0
126.090889 128.0
126.28093 68.0
126.784668 100.0
126.990936 160.0
127.01561 56.0
127.61747 208.0
127.762688 208.0
127.797409 136.0
127.869423 84.0
127.889679 192.0
128.06572 396.0
128.110352 88.0
128.184708 120.0
128.256821 36.0
128.568069 284.0
128.929413 140.0
128.997223 108.0
129.062775 156.0
129.078613 84.0
129.38179 120.0
129.397644 116.0
129.501816 204.0
129.547119 204.0
129.797989 64.0
130.050903 176.0
130.057861 136.0
130.086243 17276.0
130.148376 180.0
130.186737 60.0
130.216263 116.0
130.237854 188.0
130.293488 112.0
130.470428 56.0
130.535431 72.0
130.607193 84.0
130.68988 92.0
130.793777 68.0
130.887131 152.0
131.035172 192.0
131.088272 840.0
131.183304 40.0
131.281357 124.0
131.320114 92.0
131.368027 32.0
131.457001 200.0
131.615585 76.0
131.778961 44.0
131.902374 80.0
131.954956 44.0
131.970963 124.0
132.000687 72.0
132.028122 44.0
132.085129 380.0
132.332458 108.0
132.472458 220.0
132.781601 144.0
132.832062 100.0
132.930725 168.0
133.098282 36.0
133.268265 112.0
133.36937 128.0
133.500427 92.0
134.096161 9928.0
134.169006 132.0
134.190109 92.0
134.243271 132.0
134.274887 184.0
134.334198 52.0
134.361877 184.0
134.408035 80.0
134.484192 68.0
134.58577 112.0
134.761307 72.0
134.777481 64.0
134.8237 76.0
134.90921 72.0
134.96933 192.0
134.990143 64.0
135.100113 888.0
135.192963 104.0
135.339554 60.0
135.358078 156.0
135.617538 88.0
135.691727 120.0
136.026611 204.0
136.100082 160.0
136.145752 180.0
136.188324 28.0
136.432327 212.0
136.478821 108.0
136.536957 120.0
137.056076 156.0
137.3125 132.0
137.452469 180.0
137.900864 76.0
138.450668 168.0
138.588867 96.0
138.642761 80.0
138.940552 124.0
139.262146 252.0
139.278595 132.0
139.337326 128.0
139.800537 184.0
140.224457 172.0
140.870972 132.0
141.086029 228.0
141.161682 212.0
141.213715 220.0
141.618454 92.0
142.085739 560.0
142.541321 84.0
142.619736 56.0
142.660156 156.0
142.821854 156.0
142.862289 128.0
142.890839 96.0
143.047913 188.0
143.083893 796.0
143.517242 100.0
143.600708 136.0
143.641251 120.0
143.708054 88.0
143.770096 52.0
143.946747 192.0
144.080673 648.0
144.379288 44.0
144.640091 116.0
144.666412 188.0
144.891541 76.0
145.028122 48.0
145.044907 160.0
145.064163 176.0
145.083405 196.0
145.126419 208.0
145.390274 36.0
145.80336 72.0
146.055801 208.0
146.356628 88.0
146.549332 180.0
146.768661 60.0
147.060562 152.0
147.116089 48.0
147.25856 276.0
148.168091 68.0
148.286819 148.0
148.468658 164.0
148.636032 172.0
148.655457 180.0
148.847229 120.0
149.09166 116.0
149.377045 132.0
149.593628 136.0
149.656921 160.0
150.2565 160.0
151.82933 104.0
152.008408 148.0
152.509415 152.0
152.711029 256.0
152.925095 152.0
153.067871 92.0
153.136826 116.0
153.582962 180.0
153.708786 252.0
153.750732 148.0
153.943283 196.0
154.061844 240.0
154.173035 136.0
154.764236 244.0
155.059036 180.0
155.225128 196.0
155.391312 232.0
155.627106 184.0
155.646973 76.0
155.709045 184.0
155.873016 128.0
156.086792 176.0
156.223572 84.0
156.646774 124.0
156.786301 120.0
157.110443 132.0
157.452408 132.0
157.632278 164.0
157.732254 220.0
158.330231 132.0
158.766296 144.0
158.916809 244.0
159.238129 88.0
159.43158 100.0
159.539658 192.0
159.589951 124.0
159.652802 116.0
159.765991 132.0
159.794724 124.0
159.867966 144.0
159.899353 212.0
159.942917 156.0
159.969833 188.0
160.012634 160.0
160.043839 232.0
160.111725 45548.0
160.172455 216.0
160.196472 72.0
160.236786 44.0
160.256943 40.0
160.316071 60.0
160.37352 172.0
160.463608 32.0
160.499802 136.0
160.556915 72.0
160.579605 44.0
160.640152 28.0
160.741074 172.0
160.950577 148.0
160.990982 60.0
161.049072 88.0
161.114868 4092.0
161.253723 72.0
161.304276 96.0
161.410461 88.0
161.473679 56.0
161.526794 60.0
161.645584 84.0
161.7267 72.0
161.877426 104.0
161.949509 188.0
161.997635 96.0
162.061539 128.0
162.125641 580.0
162.162338 152.0
162.185852 88.0
162.233322 60.0
162.263733 108.0
162.296707 68.0
162.349945 128.0
162.469162 124.0
162.486923 68.0
162.594803 132.0
162.646805 104.0
163.07695 160.0
163.131973 152.0
163.533875 84.0
163.882751 144.0
164.260071 60.0
164.528015 208.0
164.729767 124.0
165.082474 184.0
165.22316 116.0
165.607132 148.0
166.515076 80.0
166.936539 108.0
167.047134 204.0
168.005447 132.0
168.896652 52.0
169.453232 208.0
169.476547 108.0
169.73056 164.0
170.079651 180.0
170.097321 344.0
170.337875 156.0
170.582138 188.0
171.013931 120.0
171.071182 160.0
171.09462 112.0
171.357666 80.0
171.785217 64.0
172.545166 128.0
172.631454 148.0
173.27536 88.0
173.301559 76.0
173.810242 216.0
174.114746 240.0
174.419525 32.0
174.474731 80.0
174.624619 132.0
174.985138 48.0
175.924515 176.0
176.66626 148.0
177.161301 152.0
177.407761 40.0
178.124573 132.0
178.56813 128.0
179.500229 232.0
179.78566 164.0
180.357208 96.0
180.935028 216.0
181.350235 132.0
181.835693 124.0
181.967224 144.0
182.02092 112.0
182.09343 208.0
182.141785 140.0
182.174011 156.0
182.337921 44.0
183.376801 196.0
184.128708 208.0
184.272705 196.0
185.734558 180.0
186.127838 180.0
186.157944 120.0
186.478516 184.0
186.69873 192.0
187.085114 172.0
187.112335 184.0
187.153168 152.0
188.107605 544.0
188.129379 396.0
189.107788 208.0
189.389816 140.0
189.652847 196.0
189.792664 152.0
191.174377 104.0
191.752716 144.0
192.403702 124.0
192.48378 92.0
192.953491 68.0
193.180252 84.0
194.08313 120.0
194.180191 52.0
194.890854 264.0
195.744797 208.0
196.257492 84.0
196.768082 156.0
196.974731 136.0
198.640289 176.0
198.873184 152.0
199.114639 192.0
199.151154 148.0
199.921494 148.0
200.053787 140.0
201.992432 148.0
202.111252 220.0
202.501923 116.0
203.202103 136.0
204.142288 168.0
204.287338 156.0
204.705734 44.0
205.064697 172.0
205.238586 196.0
205.766434 152.0
205.86351 176.0
206.116043 1292.0
206.152802 544.0
206.189194 116.0
207.001648 64.0
207.125793 280.0
207.159164 128.0
207.325348 64.0
208.118729 164.0
208.681366 100.0
209.460114 44.0
210.61969 176.0
211.547913 84.0
212.379547 120.0
212.652283 192.0
212.762589 128.0
213.000717 148.0
213.477356 216.0
213.747894 188.0
215.732635 176.0
216.840546 220.0
216.960724 144.0
217.567993 68.0
217.834015 188.0
217.870483 204.0
218.431961 116.0
218.885193 212.0
219.247528 116.0
219.468628 160.0
220.35408 140.0
220.637802 132.0
221.146591 104.0
221.20282 184.0
222.893341 64.0
222.92009 180.0
223.125168 236.0
224.137131 40.0
226.051224 140.0
227.147766 116.0
228.021515 136.0
228.725342 176.0
229.24939 148.0
229.445312 180.0
231.064087 152.0
231.651398 180.0
231.902893 96.0
232.131226 1036.0
232.178787 120.0
232.227325 64.0
232.494308 92.0
232.767517 108.0
232.967972 56.0
233.136597 312.0
233.180664 208.0
233.296173 68.0
233.344818 96.0
233.496857 92.0
233.536392 124.0
233.575943 100.0
233.603317 128.0
233.718933 52.0
233.776749 156.0
233.904053 208.0
234.006241 208.0
234.07811 176.0
234.101776 316.0
234.149155 45940.0
234.224304 232.0
234.271378 44.0
234.308472 48.0
234.330917 52.0
234.386749 92.0
234.43013 164.0
234.456924 68.0
234.522903 56.0
234.549805 160.0
234.602325 72.0
234.648361 68.0
234.721069 112.0
234.775955 60.0
234.803406 52.0
234.846359 96.0
234.876602 52.0
234.919312 32.0
234.962784 112.0
234.999619 152.0
235.047455 56.0
235.072586 68.0
235.152176 5484.0
235.196991 92.0
235.224472 68.0
235.273315 56.0
235.3069 72.0
235.429031 88.0
235.602661 52.0
235.640808 72.0
235.682571 128.0
235.835373 60.0
235.94516 48.0
236.03714 36.0
236.104416 72.0
236.154007 736.0
236.391068 80.0
236.538895 92.0
236.585098 84.0
236.658295 44.0
236.688904 100.0
236.725647 184.0
236.788651 104.0
236.875732 116.0
236.936996 136.0
236.961502 88.0
237.035049 52.0
237.068756 140.0
237.212799 68.0
237.448898 76.0
237.623749 44.0
237.755692 72.0
237.88768 76.0
238.142532 144.0
238.243896 44.0
238.265411 60.0
238.302277 96.0
238.477432 44.0
239.502045 168.0
240.241852 68.0
241.000092 148.0
241.610413 88.0
242.548721 36.0
244.312546 128.0
245.02858 104.0
245.661438 64.0
246.741989 84.0
247.186127 80.0
247.308182 64.0
252.088623 48.0
252.914062 188.0
255.497131 36.0
256.733002 36.0
257.164673 540.0
258.042175 144.0
258.163696 60.0
258.938171 120.0
259.152771 44.0
259.896667 88.0
260.921234 64.0
262.437653 116.0
264.061981 64.0
268.743103 184.0
269.111908 48.0
273.71225 36.0
274.044922 92.0
275.400757 188.0
278.544189 180.0
280.150909 104.0
281.064423 152.0
281.177887 104.0
282.073029 76.0
284.233215 136.0
284.615875 108.0
285.14328 124.0
286.90036 52.0
287.156616 68.0
292.190338 132.0
294.542542 124.0
295.380005 208.0
298.934448 108.0
299.971161 172.0
300.633362 76.0
301.621155 68.0
302.811401 204.0
303.106873 236.0
303.168976 8508.0
303.296478 176.0
303.373688 144.0
303.43515 32.0
303.46286 52.0
303.539154 44.0
303.670929 48.0
303.872131 88.0
304.042175 40.0
304.172058 1080.0
304.235504 132.0
304.305969 108.0
304.966003 40.0
305.180511 396.0
305.51889 76.0
305.560638 48.0
306.075775 116.0
306.280151 88.0
306.629669 96.0
306.657562 88.0
307.302673 72.0
307.892609 128.0
309.123138 84.0
310.791077 48.0
313.255585 36.0
314.210968 152.0
321.067627 84.0
321.538544 144.0
324.213623 144.0
328.860352 56.0
329.680176 116.0
331.225098 72.0
338.205383 80.0
339.033112 80.0
343.275391 68.0
348.227112 64.0
358.504425 64.0
359.23587 64.0
360.0625 28.0
377.210968 112.0
378.225128 144.0
379.216675 100.0
381.230896 108.0
383.944305 124.0
396.184662 92.0
400.458801 64.0
406.81665 64.0
423.077667 136.0
427.370667 100.0
432.223083 68.0
435.178375 108.0
439.073303 72.0
442.952057 32.0
454.024597 196.0
523.908752 44.0
524.396301 88.0
529.893616 80.0
532.903381 80.0
555.237061 96.0
586.650452 40.0
590.348938 116.0
593.336426 32.0
605.993713 92.0
608.333069 48.0
629.499939 60.0
630.968933 52.0
645.84906 88.0
652.949829 60.0
664.920227 188.0
672.031921 44.0
686.186157 48.0
720.381104 56.0
726.381958 100.0
729.270752 180.0
737.922852 28.0
755.041077 96.0
764.60907 200.0
771.266235 80.0
782.772766 136.0
784.689514 80.0
790.297119 168.0
790.632874 40.0
796.132446 80.0
809.746765 124.0
815.340759 36.0
833.030762 248.0
833.409973 84.0
834.841248 212.0
835.307129 192.0
851.380981 124.0
852.351074 204.0
853.368286 160.0
855.165833 88.0
861.580139 168.0
874.015808 108.0
875.004578 172.0
880.896057 124.0
884.195374 220.0
887.032471 192.0
889.20929 256.0
892.17334 104.0
895.213806 120.0
897.484131 124.0
897.931335 204.0
900.252869 156.0
908.482788 264.0
923.766052 144.0
925.866333 184.0
931.573914 212.0
932.935181 208.0
935.977234 236.0
937.286865 36.0
937.792664 60.0
942.430603 184.0
948.722229 44.0
950.777039 152.0
951.286499 176.0
957.47821 168.0
962.448547 196.0
963.517029 152.0
968.088013 176.0
975.378113 108.0
976.683899 176.0
978.731384 176.0
981.529114 64.0
983.513062 64.0
984.156067 168.0
985.117859 176.0
988.556641 140.0
989.132446 136.0
991.286926 100.0
996.111694 116.0
1004.546936 216.0
1005.240967 112.0
1008.120544 160.0
1010.061523 176.0
1013.385193 164.0
1018.098206 136.0
1018.866821 152.0
1019.769104 132.0
1021.460449 204.0
1021.867615 184.0
1025.535645 188.0
1026.204956 148.0
1029.376221 100.0
1029.785034 148.0
1036.925171 156.0
1037.219971 52.0
1037.664307 64.0
1038.444702 160.0
1039.355591 40.0
1045.685547 36.0
1047.656006 172.0
1047.913696 172.0
1051.447388 192.0
1052.27356 96.0
1054.011108 188.0
1058.059937 216.0
1061.824707 40.0
1063.979004 152.0
1064.043945 176.0
1064.251709 172.0
1064.829712 228.0
1066.19397 176.0
1066.434448 148.0
1068.183594 72.0
1068.294189 140.0
1069.947144 200.0
1072.722412 164.0
1074.842041 172.0
1075.044312 204.0
1076.676392 108.0
1076.722168 116.0
1077.577881 60.0
1079.133423 148.0
1082.208496 136.0
1084.488281 164.0
1088.155273 56.0
1090.776489 124.0
1094.796509 144.0
1095.19165 180.0
1096.601685 140.0
1100.97583 196.0
1101.259888 176.0
1102.369751 212.0
1103.076904 228.0
1104.578003 136.0
1105.345459 176.0
1106.589844 156.0
1108.656494 164.0
1110.90564 192.0
1116.869385 196.0
1117.567871 200.0
1118.912354 200.0
1121.183716 140.0
1125.025635 176.0
1125.366211 188.0
1125.94043 188.0
1126.855591 136.0
1127.423584 52.0
1127.510498 132.0
1127.604004 68.0
1131.336426 156.0
1131.550659 88.0
1135.081787 196.0
1135.184204 172.0
1135.390259 124.0
1135.584717 152.0
1136.430054 68.0
1137.570923 76.0
1140.331543 36.0
1142.974487 108.0
1144.435181 172.0
1145.647461 176.0
1155.172607 124.0
1155.402588 100.0
1155.984497 136.0
1156.268799 168.0
1156.444702 88.0
1156.789307 200.0
1160.21106 208.0
1161.730103 140.0
1161.804688 164.0
1164.710083 120.0
1165.477783 148.0
1166.286499 100.0
1169.047729 168.0
1169.279175 44.0
1169.803223 156.0
1171.119263 76.0
1171.171143 164.0
1171.355835 168.0
1171.696533 176.0
1172.078003 144.0
1175.831177 132.0
1176.531738 124.0
1178.505615 152.0
1181.014526 188.0
1181.24707 132.0
1182.766113 176.0
1183.752075 172.0
1184.471191 112.0
1184.580811 208.0
1187.439087 192.0
1189.840698 136.0
1191.056152 228.0
1193.860352 228.0
1194.424316 132.0
1195.752319 208.0
1197.322021 180.0
1197.521729 28.0
1198.679077 148.0
1198.768677 188.0
1200.705933 124.0
1201.264648 76.0
1201.719971 344.0
1201.781982 168.0
1202.58252 176.0
1202.720581 120.0
1203.659546 60.0
1205.842529 208.0
1207.875366 160.0
1209.376831 240.0
1209.743774 184.0
1210.803101 120.0
1211.717407 124.0
1212.35498 156.0
1216.808105 152.0
1218.203979 184.0
1219.197632 152.0
1219.545166 88.0
1222.500854 156.0
1223.050781 76.0
1223.313965 260.0
1223.419678 164.0
1223.802612 224.0
1225.272217 168.0
1225.67627 180.0
1225.885376 140.0
1225.98291 200.0
1227.167847 152.0
1227.300415 144.0
1227.872192 156.0
1229.218628 120.0
1229.351196 208.0
1230.705322 168.0
1231.16626 144.0
1231.648193 228.0
1231.955566 164.0
1232.863892 192.0
1241.376465 108.0
1241.916504 192.0
1242.309326 192.0
1242.568848 76.0
1243.200317 180.0
1243.298584 176.0
1243.902222 116.0
1245.924683 176.0
1246.051147 192.0
1246.957642 128.0
1247.030029 212.0
1247.744995 176.0
1249.904297 144.0
1250.558716 164.0
1251.706299 228.0
1252.692261 156.0
1256.089966 76.0
1257.0354 72.0
1257.804688 128.0
1260.333008 192.0
1260.73584 88.0
1261.110352 204.0
1261.9021 180.0
1262.623413 184.0
1263.10437 216.0
1263.401489 132.0
1265.68042 152.0
1265.800781 92.0
1266.246948 132.0
1266.615234 212.0
1266.671997 168.0
1267.883545 100.0
1269.03186 64.0
1270.336792 188.0
1271.919312 148.0
1272.288452 164.0
1272.487183 176.0
1272.856445 148.0
1273.488403 164.0
1275.442383 188.0
1275.881104 140.0
1276.053833 144.0
1276.487549 144.0
1276.622681 148.0
1277.931519 168.0
1278.500732 172.0
1279.354858 136.0
1281.555542 176.0
1282.52478 120.0
1282.952515 192.0
1283.508667 216.0
1285.186646 192.0
1286.790771 188.0
1289.044067 236.0
1289.169312 180.0
1289.734009 180.0
1291.814819 92.0
1292.208252 132.0
1292.380005 192.0
1293.439209 244.0
1294.076294 140.0
1294.541748 128.0
1296.081909 172.0
1296.870239 172.0
1298.010132 52.0
1299.65271 104.0
1301.612305 164.0
1303.882324 164.0
1304.328003 116.0
1307.751709 136.0
1309.170044 204.0
1310.877319 196.0
1311.453979 132.0
1311.634155 148.0
1312.376709 80.0
1316.822021 60.0
1318.20752 232.0
1318.606567 184.0
1318.80896 156.0
1321.824707 276.0
1322.179321 164.0
1327.51123 124.0
1328.780518 188.0
1328.998169 168.0
1329.230347 184.0
1329.419067 184.0
1330.761963 224.0
1330.820068 156.0
1330.899902 140.0
1331.023315 168.0
1332.090942 192.0
1332.178101 168.0
1332.759399 236.0
1332.991943 220.0
1333.740479 152.0
1337.049805 88.0
1337.581055 120.0
1339.059204 116.0
1340.98999 204.0
1341.966797 160.0
1342.229248 168.0
1342.623047 228.0
1342.768921 148.0
1346.710205 156.0
1346.914673 168.0
1349.362793 120.0
1353.474854 196.0
1355.569824 48.0
1356.091431 184.0
1356.222046 152.0
1356.485962 152.0
1356.793823 132.0
1357.893799 220.0
1360.40332 52.0
1362.973877 108.0
1363.091431 144.0
1363.142822 36.0
1363.988037 140.0
1364.480591 104.0
1365.708618 100.0
1366.974121 156.0
1367.467163 176.0
1368.210571 228.0
1369.771851 116.0
1369.948608 216.0
1370.611694 144.0
1371.002197 156.0
1371.503418 168.0
1372.896851 176.0
1373.044434 196.0
1374.947754 160.0
1376.0625 148.0
1377.081543 160.0
1379.24646 108.0
1379.349854 164.0
1379.77124 160.0
1379.896973 180.0
1380.85083 168.0
1381.686768 184.0
1381.87915 168.0
1382.123291 176.0
1383.344482 156.0
1385.484619 204.0
1386.951904 160.0
1387.455933 56.0
1387.584839 160.0
1387.81189 172.0
1387.989868 180.0
1388.657227 48.0
1390.400757 220.0
1391.66272 112.0
1391.855713 176.0
1392.702393 168.0
1393.259521 156.0
1393.333862 224.0
1393.489868 156.0
1394.738281 168.0
1397.132812 260.0
1398.092651 136.0
1399.425049 228.0
1400.750732 192.0
1401.048706 120.0
1401.57019 120.0
1401.644775 188.0
1402.635986 120.0
1402.896851 180.0
1403.88855 180.0
1404.000366 156.0
1406.529663 224.0
1409.756226 156.0
1410.406494 148.0
1411.759644 220.0
1412.612305 152.0
1413.32312 152.0
1413.682251 132.0
1413.906738 176.0
1414.303467 136.0
1415.403931 148.0
1416.062988 164.0
1416.25769 160.0
1416.579834 232.0
1417.63623 148.0
1419.990356 48.0
1420.162842 200.0
1420.425293 172.0
1421.078003 124.0
1423.082031 88.0
1424.215942 176.0
1426.011719 168.0
1426.846191 168.0
1427.079224 180.0
1428.071899 148.0
1429.094971 108.0
1429.817383 156.0
1430.065674 76.0
1430.735718 80.0
1433.025269 196.0
1433.605469 120.0
1434.449585 172.0
1434.525024 152.0
1434.947144 176.0
1435.082886 172.0
1435.678589 76.0
1436.123535 128.0
1436.62146 144.0
1440.40332 136.0
1445.105713 124.0
1445.552124 84.0
1445.854858 148.0
1446.854004 124.0
1449.656494 128.0
1450.202148 156.0
1450.876831 168.0
1451.248291 88.0
1451.847412 164.0
1452.135498 188.0
1452.818237 148.0
1453.387207 88.0
1454.882446 128.0
1456.150513 36.0
1456.446777 168.0
1456.894897 68.0
1457.031616 144.0
1457.806641 164.0
1458.087891 144.0
1458.285522 136.0
1459.083618 60.0
1459.136841 192.0
1460.087402 144.0
1460.186279 224.0
1461.03064 76.0
1461.821899 192.0
1462.111084 228.0
1462.55249 176.0
1462.89502 172.0
1463.085327 144.0
1464.098145 172.0
1464.233521 240.0
1464.943604 112.0
1469.304199 240.0
1471.868774 140.0
1473.908203 124.0
1474.252075 196.0
1474.37439 204.0
1474.435547 140.0
1474.993408 196.0
1475.161621 248.0
1477.861328 188.0
1479.682983 172.0
1482.018921 156.0
1482.425049 176.0
1482.992188 148.0
1483.375488 120.0
1483.459839 156.0
1487.702026 124.0
1488.646484 196.0
1488.915283 120.0
1489.276245 104.0
1490.605347 204.0
1492.780762 148.0
1493.034546 156.0
1493.196045 84.0
1494.927002 168.0
1497.798828 240.0
1497.898926 176.0
1498.376587 136.0
1498.53064 176.0
1499.532471 284.0
1499.648071 116.0
1500.57312 212.0
1501.467529 208.0
1501.544678 160.0
1502.246582 172.0
1502.416382 208.0
1504.770264 172.0
1505.279907 236.0
