>compound MLS000863622-01!7-hydroxy-5-methyl-2-(2-oxopropyl)-8-[3,4,5-trihydroxy-6-(hydroxymethyl)oxan-2-yl]chromen-4-one
>formula C19H22O9
>ionization [M+H]+
>parentmass 395.1336587360905
#inchi InChI=1S/C19H22O9/c1-7-3-10(22)14(19-17(26)16(25)15(24)12(6-20)28-19)18-13(7)11(23)5-9(27-18)4-8(2)21/h3,5,12,15-17,19-20,22,24-26H,4,6H2,1-2H3
#inchikey HKIKAXXIWJHWLY
#Ion_Source LC-ESI
#Instrument qTof
#Compound_Source NIH Natural Product Library
#PI Dorrestein
#Data_Collector VVP/LMS
#Scan -1
#Precursor_MZ 395.134
#ExactMass 394.126
#Charge 1
#CAS_Number N/A
#Pubmed_ID N/A
#Smiles CC(=O)Cc1cc(=O)c2c(C)cc(O)c(C3OC(CO)C(O)C(O)C3O)c2o1
#INCHI_AUX N/A
#Library_Class 1
#SpectrumID CCMSLIB00000079836
#IonMode Positive
#UpdateWorkflowName UPDATE-SINGLE-ANNOTATED-GOLD
#LibraryQualityString Gold
#TaskID b1d8e8f6646f4e71acdff9ca3d919d08
##Scan# 1288
#SpectrumFile p1-G11_GG11_01_17955.mzXML
#LibraryName NIH_Natural_Products_Library.mgf
#MQScore -1
#Organism NIH_Natural_Products_Library
#TIC_Query 0
#RT_Query -1
#MZErrorPPM -1
#SharedPeaks 0
#MassDiff 0
#LibMZ -1
#SpecMZ 395.134
#SpecCharge 0
#internalFilename spec-00000.mgf

>collision 10
94.968178 140.0
94.981758 84.0
95.407036 84.0
96.026245 80.0
96.112083 168.0
97.579117 136.0
98.319756 64.0
98.54882 192.0
101.920258 176.0
104.237984 112.0
105.185028 120.0
105.687775 172.0
107.048714 140.0
107.971184 156.0
109.888489 204.0
110.435806 176.0
111.519806 160.0
113.860786 100.0
113.969124 188.0
115.048935 188.0
116.481567 188.0
116.70507 172.0
117.685432 116.0
118.156601 168.0
119.049629 168.0
119.25602 172.0
119.471298 152.0
119.645393 104.0
122.034546 184.0
122.230309 160.0
125.925964 128.0
126.984612 168.0
127.197769 176.0
128.167084 172.0
129.067703 208.0
129.436539 40.0
130.005524 152.0
130.28479 112.0
130.682663 208.0
131.087128 196.0
131.311386 124.0
131.63089 188.0
133.100967 172.0
133.314606 160.0
133.599716 60.0
133.675644 76.0
133.786118 168.0
134.433792 172.0
134.477646 152.0
135.499741 68.0
137.058777 160.0
137.131012 128.0
137.175308 152.0
138.060211 188.0
139.119278 152.0
139.866806 136.0
139.909164 180.0
140.128204 72.0
142.586823 108.0
143.083969 44.0
143.126831 104.0
144.236191 172.0
145.040451 148.0
145.064423 172.0
145.479431 76.0
146.328079 88.0
146.684631 140.0
147.039185 160.0
147.081253 308.0
148.043503 180.0
149.022446 108.0
149.056458 196.0
149.083191 116.0
150.064163 48.0
150.151947 188.0
150.496017 212.0
151.753647 196.0
154.074524 144.0
154.52449 112.0
155.101486 136.0
157.185623 200.0
157.465225 176.0
158.070206 172.0
158.117752 56.0
159.072723 208.0
159.11792 168.0
160.463928 128.0
160.612717 120.0
160.711105 216.0
160.73381 204.0
161.055084 188.0
161.69664 160.0
161.851059 32.0
162.067963 240.0
162.388306 156.0
162.416214 68.0
162.987427 188.0
163.037399 448.0
163.073822 156.0
163.170425 176.0
163.496017 40.0
163.939133 256.0
163.962067 216.0
164.040314 312.0
164.834824 68.0
165.052094 140.0
167.04744 132.0
168.299973 144.0
168.426514 212.0
168.625473 132.0
168.990082 168.0
169.780136 172.0
171.102737 184.0
171.848129 48.0
172.132645 116.0
173.089691 160.0
175.037796 180.0
175.073654 676.0
176.045425 152.0
176.079483 696.0
176.18277 172.0
176.293747 40.0
176.452332 136.0
177.050354 140.0
177.083054 116.0
178.353058 48.0
178.496628 68.0
179.031509 112.0
183.075348 148.0
183.617035 224.0
185.06546 176.0
185.91391 112.0
186.05777 156.0
186.217987 116.0
186.609589 180.0
187.073563 320.0
187.115341 156.0
188.080368 204.0
188.249634 124.0
188.45723 188.0
188.580215 120.0
189.01503 148.0
189.04921 164.0
190.062469 184.0
190.209961 136.0
191.068787 512.0
191.125137 140.0
193.017365 132.0
193.045792 340.0
193.725891 192.0
195.007858 172.0
195.177429 264.0
195.213577 144.0
195.258072 116.0
196.609268 152.0
196.751617 184.0
196.79071 96.0
198.177994 128.0
198.332138 268.0
199.08403 172.0
200.085205 136.0
200.282166 92.0
200.501923 160.0
200.766922 148.0
201.051788 148.0
201.085724 180.0
201.851303 68.0
202.059662 260.0
202.145493 108.0
202.703354 192.0
202.816711 76.0
203.069061 4440.0
203.171173 104.0
203.225082 40.0
203.352783 40.0
203.396347 184.0
203.432266 96.0
203.495605 64.0
203.650909 48.0
203.67363 260.0
203.815674 292.0
204.012817 132.0
204.07576 1972.0
204.152679 72.0
204.267715 52.0
204.299011 136.0
204.438431 88.0
204.968094 116.0
205.078354 548.0
205.643967 76.0
205.752441 92.0
206.086685 148.0
206.126602 108.0
207.692627 92.0
209.956146 196.0
210.057098 168.0
213.056198 136.0
213.096878 176.0
213.550354 196.0
214.065475 168.0
215.067123 768.0
216.003418 104.0
216.077408 96.0
217.041199 160.0
217.083557 1032.0
217.11348 200.0
217.351105 56.0
217.947159 172.0
218.090164 140.0
218.317551 40.0
218.588181 52.0
219.04747 156.0
219.094604 244.0
220.422333 144.0
220.602615 68.0
221.016663 172.0
221.283051 44.0
221.448883 48.0
222.124695 72.0
224.059967 48.0
225.026276 100.0
225.083298 124.0
225.348846 120.0
226.057495 184.0
226.087433 212.0
226.177216 40.0
226.584488 136.0
227.067093 160.0
228.075165 192.0
229.044815 172.0
229.084106 388.0
230.091232 340.0
230.26033 84.0
230.973648 120.0
231.064987 760.0
231.100586 100.0
232.073181 228.0
232.108368 148.0
232.355026 196.0
232.983459 196.0
233.079697 6440.0
233.226562 60.0
233.700974 68.0
233.722275 60.0
233.78009 112.0
234.019669 68.0
234.084686 932.0
234.121048 44.0
234.172821 64.0
234.383026 48.0
234.532349 64.0
234.671066 20.0
235.050812 144.0
235.088257 312.0
235.374374 84.0
235.478195 36.0
235.520966 80.0
235.661484 88.0
235.857071 148.0
235.918213 104.0
236.028275 60.0
236.089432 180.0
237.231506 200.0
238.281082 224.0
241.090271 280.0
241.140717 88.0
242.741257 236.0
243.06723 308.0
243.098663 996.0
243.731461 60.0
244.067154 44.0
244.102478 388.0
245.079514 2552.0
245.880173 112.0
246.048737 156.0
246.085907 228.0
246.123672 132.0
246.154892 60.0
246.567261 180.0
247.05191 80.0
247.097092 1200.0
247.202103 48.0
247.521393 92.0
247.55896 56.0
248.097885 176.0
248.803757 136.0
251.069275 100.0
252.250137 172.0
252.401886 176.0
253.047348 152.0
253.072678 68.0
254.178909 160.0
254.470917 172.0
255.093597 144.0
256.064148 144.0
256.092743 128.0
256.867279 76.0
257.079712 964.0
257.11615 232.0
257.512054 60.0
258.088348 84.0
258.499908 76.0
258.685547 60.0
259.05426 200.0
259.094208 900.0
259.743011 132.0
260.034973 76.0
260.106903 136.0
260.246857 80.0
260.561615 36.0
260.892609 148.0
261.068115 144.0
262.080231 196.0
263.090302 668.0
263.528931 192.0
263.713135 276.0
264.330841 208.0
264.479706 64.0
265.977234 108.0
267.095001 128.0
269.08432 364.0
269.514008 84.0
269.556488 64.0
269.697021 140.0
270.076324 140.0
270.136383 104.0
270.671936 48.0
270.930695 60.0
271.091583 460.0
271.251831 72.0
272.111359 96.0
272.502197 72.0
273.072571 244.0
273.133362 232.0
274.077637 180.0
274.500153 144.0
274.899292 180.0
275.047821 144.0
275.090515 2836.0
275.124939 320.0
275.232697 56.0
276.094727 764.0
276.684174 68.0
277.068329 148.0
277.099091 112.0
277.930359 76.0
278.099609 136.0
278.159363 92.0
278.843597 108.0
281.08783 188.0
281.134888 72.0
281.528809 132.0
283.050323 132.0
283.100555 232.0
283.402039 52.0
284.052429 120.0
285.075287 116.0
285.109253 168.0
286.082123 160.0
286.105682 188.0
286.641205 84.0
287.091644 512.0
287.217712 48.0
287.578735 104.0
288.093872 380.0
289.098694 176.0
290.112335 120.0
290.220825 112.0
291.092865 172.0
292.343842 88.0
292.926056 160.0
298.996796 196.0
299.091858 1156.0
299.46637 184.0
299.930176 84.0
300.089752 128.0
301.068237 132.0
301.105072 148.0
302.822205 52.0
303.082001 152.0
304.754425 108.0
305.099335 360.0
305.825531 36.0
306.093597 468.0
312.101654 164.0
312.390045 152.0
312.713776 44.0
313.100159 484.0
313.326477 52.0
314.111481 124.0
314.154938 64.0
316.094635 164.0
317.00116 200.0
317.09967 852.0
318.097412 132.0
318.782562 44.0
319.024261 76.0
319.593292 52.0
321.135834 40.0
329.099121 516.0
330.128906 240.0
331.138611 112.0
333.973297 156.0
335.111084 240.0
336.101715 136.0
341.100159 500.0
342.101624 376.0
344.394135 92.0
352.676331 124.0
359.10614 616.0
359.16095 136.0
359.719421 56.0
360.047913 36.0
360.115997 176.0
361.117096 196.0
361.257416 48.0
362.003052 40.0
362.112885 148.0
363.018646 52.0
375.254913 96.0
377.11853 572.0
378.032166 64.0
378.11731 144.0
379.069977 48.0
379.120361 60.0
381.03717 64.0
387.016357 140.0
390.367401 96.0
392.162628 124.0
393.215698 108.0
395.136139 120.0
396.127655 132.0
396.151276 104.0
396.212982 160.0
405.076874 96.0
413.022919 116.0
467.943085 148.0
491.26944 148.0
496.355713 72.0
505.961914 132.0
552.277954 60.0
573.826843 56.0
580.334106 92.0
589.146362 44.0
603.058533 36.0
689.251038 88.0
907.913818 84.0
979.934204 56.0
1111.611084 20.0
1156.73584 92.0
1225.139526 136.0
1244.927002 200.0
1284.2854 160.0
1290.669922 120.0
1386.839478 180.0
1421.631836 200.0
1487.178101 176.0
1498.474731 200.0
