>compound MLS002153889-01!Lobelanidine hydrochloride6112-86-3
>formula C22H29NO2
>ionization [M+H]+
>parentmass 340.226257
#inchi InChI=1S/C22H29NO2/c1-23-19(15-21(24)17-9-4-2-5-10-17)13-8-14-20(23)16-22(25)18-11-6-3-7-12-18/h2-7,9-12,19-22,24-25H,8,13-16H2,1H3
#inchikey OWGJQNXIWMMDTH
#origInchi InChI=1S/C22H29NO2.ClH/c1-23-19(15-21(24)17-9-4-2-5-10-17)13-8-14-20(23)16-22(25)18-11-6-3-7-12-18;/h2-7,9-12,19-22,24-25H,8,13-16H2,1H3;1H
#Ion_Source LC-ESI
#Instrument qTof
#Compound_Source NIH Pharmacologically Active Library
#PI Dorrestein
#Data_Collector VP/LMS
#Scan -1
#Precursor_MZ 340.235
#ExactMass 339.22
#Charge 1
#CAS_Number N/A
#Pubmed_ID N/A
#Smiles CN1C(CC(O)c2ccccc2)CCCC1CC(O)c3ccccc3.Cl
#INCHI_AUX N/A
#Library_Class 1
#SpectrumID CCMSLIB00000086113
#IonMode Positive
#UpdateWorkflowName UPDATE-SINGLE-ANNOTATED-GOLD
#LibraryQualityString Gold
#TaskID d252d724072548979f1f6f1ced849daf
##Scan# 1626
#SpectrumFile p5-E05_GE5_01_18462.mzXML
#LibraryName Pharm_Active_Library.mgf
#MQScore -1
#Organism Pharm_Active_Library
#TIC_Query 0
#RT_Query -1
#MZErrorPPM -1
#SharedPeaks 0
#MassDiff 0
#LibMZ -1
#SpecMZ 340.235
#SpecCharge 0
#internalFilename spec-00000.mgf

>collision 10
44.981487 216.0
45.041576 152.0
45.080051 140.0
45.154594 136.0
45.169899 212.0
45.254208 180.0
45.281658 112.0
45.338596 216.0
45.378811 132.0
45.399578 164.0
45.47942 180.0
45.512413 208.0
45.52248 184.0
45.547901 140.0
45.6003 192.0
45.619118 180.0
45.636597 120.0
45.722687 172.0
45.757683 76.0
45.767109 152.0
45.841194 168.0
45.889305 248.0
45.916687 144.0
45.994942 216.0
46.009792 104.0
46.035088 156.0
46.059391 104.0
46.068356 120.0
46.085423 112.0
46.099232 128.0
46.134075 192.0
46.18005 188.0
46.265297 180.0
46.322174 152.0
46.389927 172.0
46.503868 152.0
46.527874 180.0
46.552742 192.0
46.613869 84.0
46.632309 204.0
46.683197 164.0
46.729443 144.0
46.799446 176.0
46.827454 44.0
46.858784 144.0
46.881947 156.0
46.982845 88.0
46.993526 256.0
47.034702 88.0
47.072929 200.0
47.128933 200.0
47.221889 44.0
47.268402 152.0
47.327259 152.0
47.34095 148.0
47.436859 228.0
47.477207 208.0
47.487591 68.0
47.60186 152.0
47.648689 212.0
47.677052 220.0
47.70179 128.0
47.725163 164.0
47.737537 168.0
47.780178 160.0
47.865513 200.0
47.87653 132.0
47.953678 224.0
47.986763 148.0
47.999023 148.0
48.028133 172.0
48.062622 76.0
48.099884 180.0
48.130142 196.0
48.146828 200.0
48.173069 60.0
48.286411 168.0
48.359737 84.0
48.417885 168.0
48.496857 208.0
48.510719 212.0
48.523197 44.0
48.543407 180.0
48.560635 180.0
48.585606 60.0
48.616131 160.0
48.649441 84.0
48.660545 128.0
48.692486 208.0
48.734158 472.0
48.744579 152.0
48.764729 120.0
48.793674 204.0
48.815941 172.0
48.863461 216.0
48.914948 112.0
49.02219 128.0
49.061218 60.0
49.072369 120.0
49.118389 60.0
49.151875 144.0
49.16164 76.0
49.200722 124.0
49.223061 144.0
49.238422 200.0
49.283123 108.0
49.380745 120.0
49.422558 216.0
49.480328 80.0
49.497265 124.0
49.518135 144.0
49.558762 80.0
49.66951 112.0
49.744102 176.0
49.772926 192.0
49.839378 220.0
49.852028 188.0
49.86327 124.0
49.884354 228.0
49.894192 164.0
49.909191 200.0
49.946224 108.0
49.971546 160.0
49.995464 140.0
50.084785 208.0
50.139111 192.0
50.155685 216.0
50.187836 184.0
50.234398 272.0
50.277317 36.0
50.314018 184.0
50.363441 176.0
50.376663 232.0
50.438328 164.0
50.475086 180.0
50.54298 116.0
50.589687 216.0
50.643494 172.0
50.653408 168.0
50.7356 168.0
50.758286 60.0
50.827789 232.0
50.873207 188.0
50.927162 148.0
50.989071 236.0
51.02948 108.0
51.2159 88.0
51.271465 140.0
51.30228 148.0
51.34417 144.0
51.374435 92.0
51.435013 188.0
51.486885 184.0
51.602627 176.0
51.616924 116.0
51.639805 128.0
51.666985 160.0
51.692738 188.0
51.711258 204.0
51.722794 144.0
51.772903 120.0
51.804413 312.0
51.851048 124.0
51.929115 144.0
51.939156 184.0
52.012337 88.0
52.066895 132.0
52.091312 128.0
52.155811 212.0
52.216358 164.0
52.258076 76.0
52.347317 232.0
52.423664 140.0
52.434978 160.0
52.442616 160.0
52.498013 172.0
52.531799 156.0
52.55344 140.0
52.582302 196.0
52.599621 180.0
52.632824 60.0
52.654488 144.0
52.692043 116.0
52.759968 196.0
52.770569 192.0
52.80479 224.0
52.833721 108.0
52.862659 216.0
52.937935 224.0
53.02113 168.0
53.058193 120.0
53.088261 152.0
53.182945 124.0
53.223595 180.0
53.383682 116.0
53.411068 136.0
53.451801 164.0
53.5042 192.0
53.544968 108.0
53.60907 116.0
53.641132 152.0
53.686333 184.0
53.746387 164.0
53.772404 104.0
53.81036 72.0
53.848324 184.0
53.860008 132.0
53.924297 180.0
53.988415 140.0
54.013489 100.0
54.063232 56.0
54.080982 188.0
54.093967 196.0
54.112999 136.0
54.142284 156.0
54.155464 164.0
54.167183 48.0
54.222862 160.0
54.239689 208.0
54.258041 184.0
54.269768 56.0
54.280033 176.0
54.303497 172.0
54.416969 220.0
54.454666 88.0
54.470825 116.0
54.516373 160.0
54.554474 236.0
54.564312 260.0
54.597225 136.0
54.697273 204.0
54.725243 184.0
54.754696 180.0
54.766476 72.0
54.806252 148.0
54.941891 156.0
54.952221 252.0
55.021584 132.0
55.074745 212.0
55.125061 140.0
55.176708 152.0
55.188534 144.0
55.220127 132.0
55.237339 188.0
55.248463 100.0
55.330044 232.0
55.340931 152.0
55.3587 220.0
55.392765 144.0
55.495022 176.0
55.575115 84.0
55.635963 144.0
55.649471 124.0
55.679359 160.0
55.765194 244.0
55.783031 96.0
55.91243 208.0
55.940712 192.0
55.968998 168.0
56.034534 144.0
56.098648 188.0
56.165718 212.0
56.231365 44.0
56.314976 164.0
56.461441 148.0
56.502918 192.0
56.527607 140.0
56.572163 172.0
56.596115 152.0
56.608097 160.0
56.756439 140.0
56.769936 192.0
56.835938 180.0
56.926003 116.0
56.947025 108.0
57.016136 204.0
57.154484 160.0
57.190601 204.0
57.282452 112.0
57.348747 228.0
57.363823 40.0
57.375881 196.0
57.520699 148.0
57.567505 84.0
57.606773 240.0
57.62188 136.0
57.808537 152.0
57.888088 124.0
57.919891 140.0
57.963703 148.0
58.113937 196.0
58.250568 224.0
58.268799 156.0
58.314384 196.0
58.369114 96.0
58.423866 216.0
58.454296 144.0
58.484734 180.0
58.522793 156.0
58.53706 136.0
58.609612 196.0
58.623325 44.0
58.649868 260.0
58.71632 128.0
58.759029 156.0
58.798702 216.0
58.867401 192.0
58.94072 88.0
58.961849 232.0
58.995743 136.0
59.009499 104.0
59.063023 36.0
59.209953 120.0
59.245186 80.0
59.30801 128.0
59.443703 176.0
59.473557 172.0
59.501293 92.0
59.530468 72.0
59.621105 140.0
59.6334 56.0
59.648705 188.0
59.719498 144.0
59.76366 192.0
59.776421 144.0
59.796425 36.0
59.814896 140.0
59.90575 144.0
60.018253 136.0
60.154018 152.0
60.188564 256.0
60.21825 144.0
60.294571 48.0
60.380783 136.0
60.394196 184.0
60.427555 180.0
60.504181 164.0
60.554485 232.0
60.591663 180.0
60.628849 140.0
60.642799 168.0
60.67535 144.0
60.687756 212.0
60.703259 108.0
60.731174 208.0
60.765305 108.0
60.804096 216.0
60.819618 140.0
60.841351 204.0
60.878613 164.0
60.925209 80.0
61.122665 188.0
61.18959 60.0
61.212948 200.0
61.324421 288.0
61.401508 136.0
61.459229 180.0
61.496681 136.0
61.512291 196.0
61.670048 204.0
61.696392 164.0
61.774811 160.0
61.804539 164.0
61.853054 116.0
61.86401 148.0
61.885929 176.0
61.929775 188.0
62.000278 128.0
62.017517 196.0
62.066116 196.0
62.114731 112.0
62.125713 104.0
62.153454 176.0
62.172783 76.0
62.226154 160.0
62.277973 244.0
62.303108 164.0
62.328243 132.0
62.342388 204.0
62.38797 188.0
62.428848 196.0
62.476032 112.0
62.562588 224.0
62.609825 168.0
62.669682 164.0
62.685799 192.0
62.73745 208.0
62.768982 156.0
62.795792 112.0
62.819454 164.0
62.849426 164.0
62.91634 304.0
62.928345 168.0
62.948872 184.0
62.966244 92.0
63.004398 180.0
63.017914 212.0
63.038914 208.0
63.064198 140.0
63.129017 120.0
63.166977 196.0
63.240845 228.0
63.374367 184.0
63.412399 144.0
63.426556 176.0
63.453613 100.0
63.482151 164.0
63.496426 116.0
63.629715 72.0
63.666233 116.0
63.726597 48.0
63.745663 152.0
63.842632 36.0
63.866489 188.0
63.907806 144.0
63.963551 128.0
64.00132 216.0
64.046349 112.0
64.059044 132.0
64.164268 176.0
64.17543 220.0
64.215294 164.0
64.303047 156.0
64.366905 224.0
64.432129 224.0
64.461151 180.0
64.527382 180.0
64.558846 204.0
64.576248 204.0
64.671402 204.0
64.693062 100.0
64.744202 208.0
64.763512 180.0
64.804611 232.0
64.902939 176.0
65.029671 184.0
65.044113 124.0
65.119576 196.0
65.149796 192.0
65.235268 192.0
65.246521 112.0
65.346237 224.0
65.430763 140.0
65.502388 196.0
65.528526 160.0
65.574089 216.0
65.644218 160.0
65.673248 172.0
65.744232 220.0
65.851471 256.0
65.886322 160.0
65.955811 168.0
65.978622 144.0
66.010773 88.0
66.023712 232.0
66.106216 80.0
66.130493 176.0
66.146675 120.0
66.266518 108.0
66.334579 172.0
66.381599 64.0
66.39566 200.0
66.448097 172.0
66.467567 212.0
66.543854 264.0
66.5877 192.0
66.654305 148.0
66.691727 144.0
66.706314 144.0
66.755089 136.0
66.831535 172.0
66.872223 176.0
66.898262 164.0
66.925941 160.0
66.965019 188.0
67.036705 128.0
67.209549 52.0
67.250389 156.0
67.292793 176.0
67.420197 120.0
67.547836 60.0
67.562454 200.0
67.616447 228.0
67.659004 120.0
67.713043 160.0
67.767166 184.0
67.781845 184.0
67.808067 164.0
67.824455 180.0
67.939377 192.0
67.963852 168.0
67.993385 128.0
68.011444 184.0
68.070541 228.0
68.170746 180.0
68.190468 88.0
68.215126 56.0
68.255272 276.0
68.289116 160.0
68.400505 200.0
68.514626 200.0
68.611862 108.0
68.648132 136.0
68.691017 164.0
68.73391 72.0
68.793327 124.0
68.808182 108.0
68.826347 144.0
68.837906 128.0
68.965363 160.0
68.981331 168.0
69.007927 196.0
69.041168 144.0
69.075897 116.0
69.271225 152.0
69.361519 164.0
69.502426 352.0
69.611992 156.0
69.82209 216.0
69.850548 184.0
69.892143 224.0
69.912109 108.0
69.932121 176.0
69.958717 128.0
69.973701 168.0
70.078484 140.0
70.095284 116.0
70.10862 128.0
70.155289 212.0
70.308739 52.0
70.331085 168.0
70.353806 144.0
70.387199 132.0
70.465698 220.0
70.53923 72.0
70.635277 180.0
70.775124 84.0
70.788513 188.0
70.80191 228.0
70.847137 64.0
70.907143 168.0
70.951042 80.0
70.984573 164.0
71.009727 180.0
71.024704 172.0
71.057861 196.0
71.118782 176.0
71.168427 168.0
71.189301 184.0
71.219528 180.0
71.234642 204.0
71.251442 180.0
71.265541 164.0
71.356255 188.0
71.451508 140.0
71.517136 144.0
71.550797 260.0
71.623207 132.0
71.653534 140.0
71.705772 36.0
71.761398 172.0
71.776573 200.0
71.818367 224.0
71.850784 176.0
71.94191 128.0
71.962173 200.0
71.974396 228.0
72.002701 144.0
72.044922 188.0
72.102371 220.0
72.132797 184.0
72.14801 136.0
72.159843 156.0
72.190285 136.0
72.24102 128.0
72.256248 120.0
72.27317 128.0
72.403511 136.0
72.418755 40.0
72.462799 176.0
72.498383 172.0
72.53228 144.0
72.544144 36.0
72.592613 184.0
72.652672 40.0
72.708664 120.0
72.727341 136.0
72.74601 160.0
72.774872 44.0
72.803734 164.0
72.82412 80.0
72.951553 152.0
73.012764 168.0
73.02977 176.0
73.160797 72.0
73.253151 120.0
73.343063 160.0
73.376427 168.0
73.399323 204.0
73.411018 140.0
73.433434 136.0
73.610916 208.0
73.626282 156.0
73.708282 152.0
73.74929 192.0
73.761261 156.0
73.804001 140.0
73.857681 144.0
73.916893 160.0
73.957962 120.0
74.02816 168.0
74.06926 196.0
74.082962 200.0
74.167068 148.0
74.1875 152.0
74.233795 148.0
74.329849 128.0
74.350441 184.0
74.377907 332.0
74.458603 204.0
74.644196 128.0
74.656235 148.0
74.686363 232.0
74.712997 36.0
74.843796 116.0
74.874794 132.0
74.936806 120.0
74.988503 180.0
75.041939 132.0
75.136795 132.0
75.257607 52.0
75.273148 168.0
75.335327 168.0
75.375061 88.0
75.390617 36.0
75.485695 216.0
75.537575 68.0
75.671066 148.0
75.747025 224.0
75.776474 112.0
75.788605 32.0
75.818062 204.0
75.844063 80.0
75.876999 40.0
75.958504 136.0
75.991882 184.0
76.036583 184.0
76.086922 176.0
76.109489 60.0
76.133797 176.0
76.335381 148.0
76.427574 100.0
76.467598 192.0
76.52504 156.0
76.573799 196.0
76.760262 188.0
76.786987 224.0
76.821304 88.0
76.85112 180.0
76.898079 124.0
77.009827 256.0
77.200317 124.0
77.303528 160.0
77.350784 52.0
77.447083 136.0
77.488907 156.0
77.535484 220.0
77.560974 124.0
77.617081 204.0
77.650398 152.0
77.724075 204.0
77.773216 164.0
77.797012 136.0
77.861 116.0
77.930458 96.0
77.950592 172.0
78.020897 196.0
78.06485 200.0
78.085953 132.0
78.098267 180.0
78.161598 148.0
78.17392 100.0
78.187996 168.0
78.216156 184.0
78.23024 52.0
78.413422 136.0
78.425125 200.0
78.461014 100.0
78.515678 116.0
78.53508 176.0
78.556244 176.0
78.589767 132.0
78.649765 128.0
78.662125 148.0
78.787498 104.0
78.829636 132.0
78.877625 156.0
78.944809 128.0
78.974533 188.0
79.105812 52.0
79.146324 168.0
79.180176 192.0
79.256348 160.0
79.297531 168.0
79.341423 196.0
79.419449 168.0
79.452744 228.0
79.476219 272.0
79.557854 168.0
79.61467 168.0
79.646645 168.0
79.705269 160.0
79.735481 116.0
79.785416 208.0
79.830208 168.0
79.844757 100.0
79.874161 68.0
79.893066 204.0
79.954224 188.0
80.030769 204.0
80.061043 120.0
80.098801 220.0
80.112694 284.0
80.258835 168.0
80.306984 204.0
80.405708 120.0
80.417168 164.0
80.544373 240.0
80.556877 156.0
80.574265 180.0
80.606903 108.0
80.628349 184.0
80.748131 108.0
80.798218 124.0
80.873375 108.0
80.962891 176.0
81.00946 124.0
81.029167 136.0
81.102104 108.0
81.116974 160.0
81.149246 184.0
81.258652 200.0
81.287361 60.0
81.377106 156.0
81.447342 180.0
81.495644 168.0
81.535179 140.0
81.569328 164.0
81.58551 116.0
81.599892 108.0
81.709312 216.0
81.749184 96.0
81.817574 164.0
81.833778 164.0
81.864388 144.0
81.8806 180.0
81.904015 120.0
81.958061 136.0
81.974274 180.0
81.986893 132.0
82.046524 188.0
82.072083 200.0
82.106277 180.0
82.123909 144.0
82.262848 164.0
82.295341 160.0
82.360359 144.0
82.410934 160.0
82.440498 112.0
82.485031 108.0
82.515762 236.0
82.535652 128.0
82.551926 104.0
82.600761 152.0
82.648918 188.0
82.68399 304.0
82.71476 60.0
82.72924 188.0
82.85601 156.0
82.877747 144.0
82.903114 152.0
83.008255 76.0
83.068443 152.0
83.084435 224.0
83.133423 188.0
83.193321 180.0
83.235077 68.0
83.253235 112.0
83.287743 160.0
83.305908 152.0
83.352371 156.0
83.460388 244.0
83.487663 148.0
83.549507 56.0
83.600456 200.0
83.649597 184.0
83.691467 188.0
83.714661 184.0
83.717712 136.0
83.801857 204.0
83.857239 112.0
83.880936 84.0
83.953865 188.0
84.035942 64.0
84.079742 80.0
84.10347 116.0
84.202057 68.0
84.220322 108.0
84.255028 120.0
84.311676 104.0
84.538948 200.0
84.597008 220.0
84.624466 188.0
84.686729 144.0
84.758171 168.0
84.811317 180.0
84.842758 160.0
84.893822 176.0
85.060776 156.0
85.110352 116.0
85.237091 156.0
85.283035 84.0
85.338181 144.0
85.362083 56.0
85.402412 164.0
85.457733 196.0
85.498215 232.0
85.527664 172.0
85.586571 188.0
85.641823 132.0
85.724724 72.0
85.74868 172.0
85.781639 168.0
85.844543 124.0
85.931236 96.0
85.96814 184.0
86.012436 108.0
86.060432 168.0
86.115829 84.0
86.180489 180.0
86.202484 208.0
86.237778 48.0
86.250717 172.0
86.278442 124.0
86.302475 148.0
86.365349 168.0
86.38385 100.0
86.444908 236.0
86.504128 116.0
86.555969 164.0
86.568932 180.0
86.587448 168.0
86.611206 184.0
86.663399 160.0
86.715286 64.0
86.731964 96.0
86.80983 128.0
86.8358 84.0
86.974953 196.0
86.987946 188.0
87.013939 232.0
87.088554 132.0
87.221992 184.0
87.249878 124.0
87.300079 164.0
87.339493 152.0
87.363518 188.0
87.407974 116.0
87.443993 180.0
87.491722 96.0
87.512207 152.0
87.543861 48.0
87.651901 120.0
87.666809 144.0
87.683426 196.0
87.713402 208.0
87.739502 236.0
87.799164 168.0
87.842064 196.0
87.907364 176.0
87.968956 224.0
87.994919 192.0
88.069786 160.0
88.150024 148.0
88.193703 176.0
88.259827 180.0
88.264328 124.0
88.270416 192.0
88.299675 100.0
88.342697 224.0
88.417542 136.0
88.483055 124.0
88.501587 160.0
88.577988 236.0
88.636642 136.0
88.659126 292.0
88.683487 204.0
88.760353 132.0
88.792229 64.0
88.872894 204.0
88.959221 116.0
89.002403 360.0
89.017426 168.0
89.160194 40.0
89.225983 172.0
89.365158 52.0
89.523277 152.0
89.560944 152.0
89.611801 104.0
89.657028 188.0
89.685295 148.0
89.700378 192.0
89.76825 180.0
89.781448 184.0
89.843697 76.0
89.99279 76.0
90.007896 208.0
90.089111 168.0
90.117447 156.0
90.149567 112.0
90.183838 180.0
90.264877 152.0
90.317833 192.0
90.336853 144.0
90.36702 56.0
90.410538 152.0
90.454071 88.0
90.5298 208.0
90.5895 192.0
90.60746 144.0
90.62262 180.0
90.702599 176.0
90.732544 252.0
90.757187 184.0
90.818504 204.0
90.846329 76.0
90.867195 184.0
90.9412 60.0
90.960182 116.0
90.990959 224.0
91.011436 160.0
91.054863 11516.0
91.17749 124.0
91.31929 228.0
91.380768 176.0
91.442963 116.0
91.456284 216.0
91.482933 72.0
91.570518 228.0
91.764893 204.0
91.804932 192.0
91.844986 188.0
91.88504 208.0
91.913658 128.0
91.978546 244.0
91.995728 128.0
92.057121 340.0
92.079742 84.0
92.100235 152.0
92.115257 216.0
92.135139 56.0
92.158066 156.0
92.17717 164.0
92.199043 260.0
92.21946 188.0
92.318626 164.0
92.35305 204.0
92.444885 216.0
92.481247 48.0
92.496559 144.0
92.521446 204.0
92.536758 120.0
92.555908 56.0
92.571228 68.0
92.596123 164.0
92.640175 124.0
92.727249 156.0
92.75515 76.0
92.849098 204.0
92.875946 196.0
92.93158 196.0
92.991074 128.0
93.05928 240.0
93.209991 188.0
93.246506 208.0
93.309944 136.0
93.341217 196.0
93.419556 124.0
93.442642 156.0
93.506798 188.0
93.625694 164.0
93.82975 172.0
93.856743 144.0
93.872169 196.0
93.930031 236.0
93.949318 140.0
94.009132 172.0
94.065483 2804.0
94.095993 140.0
94.177139 184.0
94.265961 80.0
94.385811 172.0
94.409012 148.0
94.53669 148.0
94.606369 140.0
94.709 188.0
94.722557 64.0
94.736115 152.0
94.800056 132.0
94.875443 152.0
94.890205 204.0
94.984238 52.0
95.050201 184.0
95.074402 136.0
95.088806 336.0
95.162209 164.0
95.219093 240.0
95.320107 200.0
95.351318 204.0
95.384247 216.0
95.476311 148.0
95.561211 168.0
95.6157 176.0
95.660461 180.0
95.691612 240.0
95.758896 116.0
95.76683 64.0
95.774551 156.0
95.841583 72.0
95.888351 148.0
95.964378 192.0
96.009224 140.0
96.041382 148.0
96.081848 16776.0
96.111786 160.0
96.130173 124.0
96.168396 56.0
96.225815 164.0
96.308563 96.0
96.35276 212.0
96.454376 132.0
96.468063 68.0
96.49424 184.0
96.524757 88.0
96.544312 268.0
96.558006 208.0
96.579521 168.0
96.689774 220.0
96.715111 200.0
96.73098 168.0
96.769341 316.0
96.796753 124.0
96.948494 216.0
96.967186 48.0
97.002464 216.0
97.085297 1656.0
97.147575 88.0
97.184853 80.0
97.322243 180.0
97.347771 156.0
97.396873 192.0
97.455803 216.0
97.474274 100.0
97.500999 72.0
97.563347 168.0
97.601257 64.0
97.617638 204.0
97.666153 100.0
97.701561 116.0
97.769394 84.0
97.799377 152.0
97.825539 32.0
97.872787 172.0
97.895279 332.0
97.923988 196.0
97.949593 152.0
97.970535 192.0
98.01461 228.0
98.028404 208.0
98.069427 220.0
98.09716 59856.0
98.147308 296.0
98.172226 64.0
98.200195 140.0
98.230423 132.0
98.249229 176.0
98.300529 240.0
98.335571 116.0
98.422859 232.0
98.454948 196.0
98.480179 40.0
98.496994 156.0
98.53154 112.0
98.567863 160.0
98.606201 56.0
98.646156 56.0
98.683723 144.0
98.839355 140.0
98.858803 148.0
98.899345 104.0
98.91716 40.0
98.936234 88.0
98.958733 156.0
98.994377 128.0
99.016159 96.0
99.059731 80.0
99.100304 3336.0
99.137642 124.0
99.162766 100.0
99.208855 176.0
99.274399 208.0
99.314224 72.0
99.338432 108.0
99.366608 176.0
99.418602 60.0
99.434479 216.0
99.557564 208.0
99.607216 116.0
99.710831 108.0
99.784592 220.0
99.81987 156.0
99.833794 64.0
99.850914 352.0
99.895447 80.0
99.911362 152.0
100.07058 296.0
100.099396 364.0
100.126289 188.0
100.200035 44.0
100.225342 180.0
100.339546 212.0
100.387398 88.0
100.419304 220.0
100.48513 164.0
100.513069 112.0
100.541 84.0
100.596893 160.0
100.664772 148.0
100.686737 148.0
100.827995 164.0
100.872559 192.0
100.964531 144.0
101.000526 92.0
101.038536 292.0
101.060547 176.0
101.084267 56.0
101.098564 164.0
101.112572 216.0
101.194641 144.0
101.228683 136.0
101.25071 232.0
101.282753 120.0
101.306793 220.0
101.326828 124.0
101.398964 64.0
101.423012 140.0
101.479607 156.0
101.51123 88.0
101.525261 132.0
101.58786 180.0
101.840355 204.0
101.854416 152.0
101.89827 192.0
101.93679 192.0
101.968811 176.0
102.015175 52.0
102.037285 156.0
102.067528 188.0
102.085541 136.0
102.115707 176.0
102.159958 68.0
102.242455 208.0
102.264595 128.0
102.341087 148.0
102.357201 44.0
102.393448 148.0
102.470085 168.0
102.598976 76.0
102.617119 168.0
102.734093 192.0
102.814796 180.0
102.84507 164.0
102.871315 124.0
102.921783 84.0
103.014687 124.0
103.055458 1136.0
103.085403 128.0
103.102364 192.0
103.234993 152.0
103.283531 196.0
103.309715 192.0
103.354332 168.0
103.384689 48.0
103.491974 168.0
103.63578 52.0
103.707253 212.0
103.739136 52.0
103.781708 100.0
103.895287 132.0
103.972389 176.0
104.059715 208.0
104.214035 128.0
104.235367 132.0
104.474266 128.0
104.488503 160.0
104.504784 188.0
104.535301 176.0
104.700195 88.0
104.731705 204.0
104.832611 136.0
104.97123 164.0
105.001816 156.0
105.033768 2604.0
105.070824 3172.0
105.094673 144.0
105.137642 180.0
105.196335 156.0
105.238525 112.0
105.256905 192.0
105.293472 128.0
105.364273 252.0
105.391716 68.0
105.422363 184.0
105.440758 160.0
105.601334 148.0
105.655457 68.0
105.686142 216.0
105.747536 156.0
105.776192 116.0
105.8069 40.0
105.946159 164.0
105.964592 172.0
106.043671 208.0
106.073341 264.0
106.159317 48.0
106.17572 184.0
106.290604 96.0
106.325485 108.0
106.389114 192.0
106.41375 144.0
106.448654 200.0
106.477409 124.0
106.540321 140.0
106.566605 176.0
106.59861 32.0
106.625328 136.0
106.641769 152.0
106.658211 140.0
106.736336 36.0
106.752785 136.0
106.802147 168.0
106.909126 176.0
106.923531 196.0
106.946175 228.0
106.991898 132.0
107.024948 196.0
107.049957 24496.0
107.108833 160.0
107.128609 80.0
107.257195 320.0
107.271622 60.0
107.325226 72.0
107.394493 152.0
107.408653 132.0
107.451035 356.0
107.469604 108.0
107.488174 128.0
107.518593 200.0
107.537613 180.0
107.581795 156.0
107.608597 200.0
107.638863 116.0
107.658707 72.0
107.698753 64.0
107.731804 144.0
107.794258 140.0
107.810318 128.0
107.942619 164.0
107.994316 160.0
108.053459 1188.0
108.080719 3608.0
108.13002 144.0
108.176407 68.0
108.195038 196.0
108.306068 104.0
108.441536 192.0
108.49128 64.0
108.545189 52.0
108.572144 76.0
108.597031 96.0
108.650963 72.0
108.671715 196.0
108.724815 108.0
108.751282 128.0
108.77755 92.0
108.808693 96.0
108.826637 160.0
108.862801 132.0
108.903175 112.0
108.933296 60.0
108.96653 124.0
109.058266 384.0
109.0886 3672.0
109.247185 84.0
109.289139 204.0
109.336357 280.0
109.351227 164.0
109.392853 108.0
109.445801 148.0
109.680313 168.0
109.744942 176.0
109.79081 136.0
109.813751 184.0
109.876335 124.0
109.922234 204.0
110.005722 184.0
110.034943 192.0
110.096817 3684.0
110.151894 144.0
110.167404 244.0
110.212479 128.0
110.231285 128.0
110.317368 84.0
110.565872 136.0
110.823441 48.0
110.924034 184.0
110.982735 152.0
111.04718 196.0
111.06871 88.0
111.102165 876.0
111.213493 180.0
111.276466 136.0
111.408775 172.0
111.423477 136.0
111.487144 152.0
111.518044 64.0
111.568489 248.0
111.633667 36.0
111.692558 128.0
111.746651 112.0
111.856323 164.0
111.896683 108.0
111.930367 68.0
111.951431 168.0
112.070274 216.0
112.111916 3896.0
112.151573 188.0
112.181084 52.0
112.229576 44.0
112.263313 48.0
112.349838 176.0
112.472176 92.0
112.543953 108.0
112.562958 144.0
112.579857 244.0
112.611534 156.0
112.638992 64.0
112.659157 88.0
112.679131 168.0
112.725609 372.0
112.780563 236.0
112.795357 176.0
112.926445 192.0
112.958176 144.0
113.053383 148.0
113.076668 64.0
113.093544 172.0
113.118172 212.0
113.153717 160.0
113.282051 144.0
113.325012 144.0
113.42614 180.0
113.49398 164.0
113.513069 152.0
113.578812 92.0
113.608505 56.0
113.630157 196.0
113.880211 264.0
113.921806 220.0
113.974617 164.0
114.001305 236.0
114.060051 204.0
114.091896 8912.0
114.14299 104.0
114.184135 172.0
114.201149 88.0
114.252197 36.0
114.347954 48.0
114.388733 124.0
114.411812 60.0
114.460777 96.0
114.49485 104.0
114.535316 136.0
114.581314 196.0
114.648239 204.0
114.692993 68.0
114.744156 132.0
114.788353 192.0
114.837982 132.0
114.929085 164.0
115.054695 5028.0
115.095314 892.0
115.112274 136.0
115.185898 180.0
115.209396 116.0
115.2799 224.0
115.322647 44.0
115.549309 100.0
115.565582 192.0
115.619926 176.0
115.776199 40.0
115.874504 184.0
115.909019 72.0
115.94973 80.0
116.02475 236.0
116.058212 732.0
116.097656 176.0
116.137428 188.0
116.188217 156.0
116.234947 136.0
116.286446 232.0
116.363335 240.0
116.43029 60.0
116.510643 236.0
116.660194 60.0
116.678673 88.0
116.728996 112.0
116.83223 64.0
116.875259 228.0
116.911842 144.0
116.950584 236.0
117.070351 13072.0
117.127144 28.0
117.247795 160.0
117.286591 168.0
117.312462 140.0
117.336174 116.0
117.359886 180.0
117.385765 48.0
117.435364 116.0
117.544273 172.0
117.705124 152.0
117.741837 60.0
117.800156 180.0
117.829422 240.0
117.869286 112.0
117.944931 224.0
118.029243 88.0
118.071182 1316.0
118.226089 164.0
118.304504 192.0
118.431763 148.0
118.457756 112.0
118.483757 204.0
118.624611 120.0
118.774231 172.0
118.837143 156.0
118.941307 116.0
118.999924 132.0
119.04335 124.0
119.085121 172.0
119.14978 108.0
119.209167 108.0
119.378006 68.0
119.404099 92.0
119.467232 164.0
119.543327 248.0
119.649979 120.0
119.7742 188.0
119.819855 196.0
119.865608 156.0
119.917908 124.0
120.018188 120.0
120.079758 584.0
120.245056 168.0
120.27343 52.0
120.325821 144.0
120.485245 60.0
120.614174 168.0
120.695068 148.0
120.710373 72.0
120.902878 104.0
121.121819 164.0
121.271172 148.0
121.314651 160.0
121.345345 124.0
121.419899 160.0
121.555176 168.0
121.670044 92.0
121.782028 216.0
121.825966 152.0
121.933624 196.0
122.017159 208.0
122.096985 952.0
122.129303 120.0
122.373573 176.0
122.545364 144.0
122.620285 180.0
122.651146 104.0
122.712868 32.0
122.840775 204.0
122.957718 140.0
123.046013 104.0
123.103477 176.0
123.123299 72.0
123.156425 116.0
123.178513 164.0
123.235954 276.0
123.370766 136.0
123.414978 108.0
123.523346 168.0
123.543259 256.0
123.569801 100.0
123.738007 152.0
123.760147 76.0
123.893028 40.0
124.006035 236.0
124.025986 48.0
124.11261 172.0
124.232208 140.0
124.403076 180.0
124.52076 68.0
124.711838 180.0
124.858574 192.0
125.058807 160.0
125.114014 100.0
125.152306 120.0
125.46209 176.0
125.566788 84.0
125.644859 124.0
125.673859 120.0
125.758659 240.0
126.041847 152.0
126.090843 180.0
126.227806 184.0
126.294899 176.0
126.310555 104.0
126.41571 80.0
126.476135 180.0
126.610466 136.0
126.641823 88.0
126.818825 228.0
126.850212 192.0
126.888321 248.0
126.906258 200.0
126.962959 208.0
127.054092 1128.0
127.144028 48.0
127.170959 112.0
127.263 216.0
127.289948 184.0
127.541565 84.0
127.573036 112.0
127.633736 112.0
127.660721 172.0
127.87114 164.0
127.993752 136.0
128.019608 356.0
128.062759 23316.0
128.110306 48.0
128.131958 88.0
128.16832 144.0
128.194229 44.0
128.311432 36.0
128.35202 56.0
128.40239 204.0
128.422531 248.0
128.444489 116.0
128.485092 68.0
128.577606 188.0
128.609207 48.0
128.738327 84.0
128.755951 52.0
128.780807 48.0
128.846313 180.0
128.889236 28.0
128.929916 112.0
129.015808 104.0
129.030655 56.0
129.070099 9468.0
129.106247 176.0
129.129837 148.0
129.156006 52.0
129.23291 76.0
129.253281 212.0
129.286118 148.0
129.38002 52.0
129.477386 116.0
129.601974 140.0
129.631439 128.0
129.721024 76.0
129.776505 68.0
129.805984 108.0
129.944458 152.0
129.962494 112.0
129.987457 160.0
130.072769 652.0
130.212189 144.0
130.239456 44.0
130.307602 412.0
130.330322 172.0
130.414398 156.0
130.432587 48.0
130.553085 48.0
130.648621 32.0
130.73053 68.0
130.753281 164.0
130.851166 144.0
130.924026 112.0
130.945282 204.0
131.053482 400.0
131.0849 1344.0
131.167816 112.0
131.386734 164.0
131.567017 92.0
131.724579 76.0
131.893677 120.0
132.083649 1044.0
132.236755 216.0
132.280243 156.0
132.860016 128.0
132.990814 88.0
133.039017 132.0
133.065353 196.0
133.089355 156.0
133.112488 112.0
133.195175 156.0
133.234222 60.0
133.280167 196.0
133.314636 148.0
133.353714 52.0
133.542236 164.0
133.558334 204.0
133.664169 204.0
133.811478 136.0
134.041809 216.0
134.095795 444.0
134.146759 152.0
134.180099 128.0
134.286514 248.0
134.346146 124.0
134.611557 208.0
134.685471 140.0
134.720123 56.0
134.787125 176.0
134.826401 44.0
134.870316 212.0
134.895737 156.0
134.928101 180.0
134.97435 72.0
135.008026 128.0
135.100403 136.0
135.416351 44.0
135.610977 152.0
135.708328 152.0
135.828918 120.0
135.970459 140.0
136.05661 168.0
136.213882 124.0
136.293243 212.0
136.355988 120.0
136.423218 168.0
136.428467 132.0
136.462906 172.0
136.546631 80.0
136.693802 164.0
136.763 264.0
136.930634 236.0
136.97023 220.0
136.988861 216.0
137.035461 96.0
137.086716 80.0
137.105362 196.0
137.133331 252.0
137.156631 96.0
137.221909 108.0
137.238235 144.0
137.366501 204.0
137.399155 152.0
137.448151 148.0
137.466827 72.0
137.639557 116.0
137.901199 160.0
137.943283 156.0
137.978348 184.0
138.034454 128.0
138.090576 148.0
138.112427 164.0
138.191162 52.0
138.390106 148.0
138.582169 120.0
138.631378 140.0
138.664185 104.0
138.783737 140.0
138.81955 208.0
138.842361 124.0
138.951813 168.0
139.004227 140.0
139.107498 112.0
139.241333 208.0
139.292999 92.0
139.332932 156.0
139.433975 204.0
139.469238 200.0
139.818848 160.0
139.850266 112.0
140.045685 148.0
140.103638 308.0
140.179977 132.0
140.441666 164.0
140.592651 160.0
140.658737 164.0
140.675262 108.0
140.80513 120.0
140.932693 136.0
140.956314 188.0
141.016342 412.0
141.070114 9492.0
141.114685 124.0
141.154877 104.0
141.180893 36.0
141.228195 128.0
141.251846 72.0
141.393799 344.0
141.469223 148.0
141.540573 76.0
141.557144 172.0
141.57373 108.0
141.593002 144.0
141.612228 172.0
141.670837 72.0
141.782196 132.0
141.855667 52.0
141.931534 40.0
141.950211 192.0
142.075287 2256.0
142.133163 28.0
142.216217 256.0
142.24321 160.0
142.303024 152.0
142.534439 40.0
142.610489 164.0
142.636642 176.0
142.674667 84.0
142.749969 132.0
142.754532 88.0
142.810638 88.0
142.904984 200.0
142.936295 152.0
142.960495 120.0
142.986267 212.0
143.085938 29640.0
143.145767 52.0
143.162109 148.0
143.190247 148.0
143.240631 72.0
143.24437 120.0
143.266937 160.0
143.344772 96.0
143.375153 224.0
143.404907 212.0
143.46492 80.0
143.477661 108.0
143.505569 44.0
143.559967 148.0
143.598557 92.0
143.763168 80.0
143.911163 164.0
143.989975 200.0
144.089523 3408.0
144.117508 144.0
144.164368 52.0
144.216949 132.0
144.246918 52.0
144.338867 44.0
144.405823 144.0
144.475189 64.0
144.532608 80.0
144.590042 116.0
144.616379 112.0
144.63475 236.0
144.703506 160.0
144.831528 56.0
144.858215 84.0
144.913315 80.0
144.977737 216.0
144.994888 192.0
145.035522 108.0
145.062851 1244.0
145.100906 2284.0
145.155396 52.0
145.178574 40.0
145.212952 176.0
145.228745 124.0
145.268127 76.0
145.30101 176.0
145.331802 176.0
145.358154 84.0
145.388092 120.0
145.416885 144.0
145.44809 92.0
145.503296 56.0
145.625763 136.0
145.656998 180.0
145.757889 88.0
145.93576 52.0
146.067673 524.0
146.096771 1792.0
146.140198 156.0
146.166672 276.0
146.771255 64.0
146.807434 40.0
146.82431 64.0
146.923126 132.0
147.051086 36.0
147.095322 224.0
147.191116 204.0
147.505188 196.0
147.599625 180.0
147.754257 72.0
147.848633 92.0
148.111588 696.0
148.439713 120.0
148.539139 192.0
148.558548 116.0
148.728409 120.0
148.825516 108.0
148.963943 144.0
149.010101 156.0
149.046539 48.0
149.095154 192.0
149.124313 144.0
149.323669 240.0
149.367462 200.0
149.620544 160.0
149.739334 188.0
149.771515 152.0
149.890884 184.0
149.993256 132.0
150.032257 136.0
150.21759 144.0
150.366425 212.0
150.40303 168.0
150.898941 144.0
151.295273 208.0
151.511963 116.0
151.559769 140.0
151.581833 140.0
151.8564 160.0
152.018311 120.0
152.058762 100.0
152.239243 376.0
152.301849 192.0
152.371887 140.0
152.391541 140.0
152.585693 240.0
152.789825 204.0
152.925171 108.0
153.069656 248.0
153.321686 92.0
153.370972 52.0
153.417801 192.0
153.728577 136.0
153.758194 68.0
153.837173 164.0
153.866806 136.0
153.944962 156.0
154.078568 1424.0
154.133545 224.0
154.348602 88.0
154.388168 116.0
154.417831 144.0
154.54895 200.0
154.573685 96.0
154.593491 72.0
154.808853 80.0
155.060455 540.0
155.084091 524.0
155.460815 72.0
155.480667 68.0
155.515427 40.0
155.796005 152.0
155.820862 220.0
155.850662 116.0
155.897888 180.0
156.058731 284.0
156.086365 492.0
156.265884 100.0
156.477432 124.0
156.706573 64.0
156.756409 36.0
156.872864 148.0
157.020645 180.0
157.050583 116.0
157.092361 208.0
157.274277 188.0
157.33255 120.0
157.365005 120.0
157.382492 52.0
157.647263 148.0
157.677261 108.0
158.089493 176.0
158.230057 192.0
158.310181 140.0
158.392838 208.0
158.415375 148.0
158.452957 64.0
158.515594 160.0
158.58075 92.0
158.643417 180.0
158.698578 104.0
158.876633 216.0
159.044769 40.0
159.077393 216.0
159.111176 432.0
159.16777 116.0
159.275772 96.0
159.439072 160.0
159.516998 124.0
159.846466 140.0
159.866592 180.0
159.96727 84.0
160.077469 228.0
160.112061 540.0
160.153595 196.0
160.345078 272.0
160.478683 244.0
160.569458 108.0
160.657745 96.0
160.719437 140.0
160.771286 116.0
160.874771 152.0
160.945465 180.0
160.968185 76.0
161.046478 144.0
161.115204 116.0
161.220795 68.0
161.501434 104.0
161.962097 96.0
162.048218 136.0
162.093826 184.0
162.134979 332.0
162.195206 44.0
162.263657 48.0
162.384125 196.0
162.428482 72.0
162.486832 176.0
162.51474 140.0
162.826736 224.0
162.987015 140.0
163.020035 60.0
163.045456 200.0
163.136963 232.0
163.177628 72.0
163.701782 136.0
163.727249 140.0
163.775558 116.0
163.806213 228.0
163.933594 164.0
164.061035 132.0
164.127335 212.0
164.208923 224.0
164.336472 172.0
164.60704 104.0
164.691315 328.0
164.932327 160.0
164.964066 136.0
165.008179 168.0
165.06955 200.0
165.113022 176.0
165.243484 204.0
165.286972 348.0
165.350952 168.0
165.525024 108.0
165.650528 124.0
166.070892 128.0
166.217117 160.0
166.399353 148.0
166.554565 240.0
166.784683 32.0
166.922104 124.0
167.087265 428.0
167.242523 84.0
167.409866 132.0
167.751343 112.0
167.948181 228.0
167.954803 200.0
168.089142 300.0
168.28656 136.0
168.364029 164.0
168.803345 104.0
168.891266 84.0
168.940414 88.0
168.963699 172.0
169.10025 4856.0
169.212158 112.0
169.624054 228.0
169.673309 132.0
169.732941 40.0
169.797775 104.0
170.06485 72.0
170.099014 572.0
170.303879 52.0
170.361023 116.0
170.457153 160.0
170.628693 128.0
170.714493 144.0
170.862 124.0
170.906982 168.0
170.930405 148.0
171.008469 152.0
171.115692 1468.0
171.245407 180.0
171.310516 196.0
171.425156 56.0
171.534622 164.0
171.657166 128.0
171.706711 152.0
172.114883 672.0
172.354095 28.0
172.380234 116.0
172.408981 120.0
172.547516 128.0
172.619827 140.0
172.884933 68.0
172.926331 220.0
172.976532 168.0
173.005325 136.0
173.116791 192.0
173.32486 132.0
173.358917 80.0
173.448944 136.0
173.471619 200.0
173.896545 124.0
173.954285 76.0
174.046173 140.0
174.129242 1276.0
174.186142 76.0
174.264175 196.0
174.31369 176.0
174.487579 112.0
174.6138 48.0
174.658508 180.0
174.792679 164.0
174.855835 180.0
174.934799 144.0
175.048004 172.0
175.131516 456.0
175.184967 48.0
175.224487 148.0
175.266632 72.0
175.321976 144.0
175.422134 216.0
175.451126 68.0
175.527588 64.0
175.815125 36.0
175.862625 60.0
176.010468 140.0
176.105545 132.0
176.147217 372.0
176.237625 96.0
176.271973 148.0
176.319534 68.0
176.472855 124.0
176.605072 164.0
176.639465 168.0
176.668564 144.0
176.700302 212.0
176.755875 72.0
176.787628 260.0
176.890854 232.0
176.99939 152.0
177.126511 160.0
177.14801 176.0
177.261627 68.0
177.757507 176.0
177.823853 176.0
177.959229 72.0
178.033585 168.0
178.155762 176.0
178.198257 136.0
178.39183 168.0
178.663513 100.0
178.722046 176.0
178.918991 184.0
178.998871 40.0
179.171997 204.0
179.585175 100.0
179.95076 104.0
180.241898 196.0
180.426315 164.0
180.82486 156.0
180.850189 196.0
180.923904 156.0
180.96138 160.0
181.103317 164.0
181.239944 156.0
181.490265 180.0
181.564301 68.0
181.64476 188.0
181.808426 148.0
181.905045 140.0
182.00975 176.0
182.090317 232.0
182.329422 224.0
182.391235 232.0
182.512207 188.0
182.531036 180.0
182.584808 52.0
182.653809 220.0
183.028824 116.0
183.118591 120.0
183.298187 148.0
184.110809 612.0
184.323563 124.0
184.499237 236.0
184.531677 48.0
184.699356 168.0
184.74263 112.0
184.96994 152.0
184.994293 88.0
185.119507 1452.0
185.492722 44.0
185.587616 76.0
185.788315 32.0
185.834427 172.0
185.9104 144.0
186.018967 196.0
186.062408 104.0
186.082367 240.0
186.126022 768.0
186.219894 120.0
186.415497 124.0
186.613922 96.0
186.839661 144.0
186.964828 152.0
187.019257 200.0
187.041031 180.0
187.11055 2612.0
187.177155 188.0
187.64035 164.0
187.741226 144.0
187.984024 48.0
188.144592 2400.0
188.174454 244.0
188.336197 156.0
188.459137 124.0
188.502853 56.0
188.616913 168.0
188.661377 88.0
188.718781 208.0
188.891083 156.0
189.093552 140.0
189.112701 164.0
189.144714 452.0
189.518005 148.0
189.768631 56.0
190.033463 136.0
190.055405 180.0
190.122757 1188.0
190.159485 660.0
190.206345 20.0
190.320358 112.0
190.362839 128.0
190.382065 76.0
190.423264 164.0
190.447983 124.0
190.497421 84.0
190.697998 144.0
190.810699 128.0
190.923447 104.0
191.036209 204.0
191.123215 448.0
191.1689 176.0
191.204056 224.0
191.317169 128.0
191.476608 136.0
191.923019 80.0
192.127121 96.0
192.295441 108.0
192.419647 120.0
192.455536 124.0
192.559204 164.0
192.825699 148.0
193.215591 28.0
193.290298 184.0
193.412064 72.0
193.49234 204.0
193.56987 168.0
193.835785 40.0
194.024261 68.0
194.143494 152.0
194.584671 120.0
194.823517 148.0
194.929092 188.0
195.037476 176.0
195.212631 100.0
195.276596 104.0
195.429581 48.0
195.474106 120.0
195.936295 188.0
195.966949 176.0
196.187241 184.0
196.318161 128.0
196.348831 156.0
196.496674 40.0
196.745056 172.0
196.923767 216.0
197.007568 120.0
197.152298 204.0
197.284225 84.0
197.323364 244.0
197.658997 148.0
197.938904 116.0
198.12674 516.0
198.157959 192.0
198.196609 180.0
198.361954 168.0
198.384384 176.0
198.434845 148.0
198.518967 192.0
198.967896 148.0
199.007202 204.0
199.049316 316.0
199.133575 88.0
199.439819 76.0
199.510101 60.0
199.586014 160.0
199.611313 316.0
199.820816 156.0
199.870102 112.0
199.90387 200.0
199.926376 28.0
199.992188 208.0
200.026642 308.0
200.055847 128.0
200.143753 22520.0
200.193817 56.0
200.235672 60.0
200.27771 76.0
200.288254 60.0
200.362808 48.0
200.398178 64.0
200.420303 88.0
200.492416 212.0
200.661545 80.0
200.760239 108.0
200.785614 40.0
200.805359 224.0
200.866119 80.0
200.897995 100.0
200.919662 176.0
201.046539 156.0
201.110077 164.0
201.14682 2388.0
201.204269 152.0
201.323273 132.0
201.341583 184.0
201.375473 112.0
201.443268 76.0
201.471512 108.0
201.505417 104.0
201.528015 84.0
201.607132 124.0
201.677795 112.0
201.742142 204.0
201.80217 64.0
201.826996 208.0
201.83522 128.0
201.855759 148.0
201.919632 164.0
201.953018 140.0
201.965012 48.0
201.976379 120.0
201.994476 160.0
202.044724 300.0
202.110519 352.0
202.159653 70268.0
202.211151 124.0
202.254074 84.0
202.289688 212.0
202.343658 124.0
202.378082 88.0
202.405289 144.0
202.426666 68.0
202.432968 60.0
202.460129 196.0
202.50235 80.0
202.537781 104.0
202.58461 196.0
202.623169 264.0
202.657166 100.0
202.688095 88.0
202.733261 64.0
202.767441 124.0
202.792953 72.0
202.823059 84.0
202.846283 96.0
202.872314 168.0
202.946548 176.0
202.99707 44.0
203.033646 232.0
203.062302 164.0
203.124268 52.0
203.161652 8572.0
203.213181 168.0
203.277908 44.0
203.303436 44.0
203.360199 64.0
203.397964 128.0
203.453873 32.0
203.476593 48.0
203.529922 56.0
203.582184 84.0
203.652527 124.0
203.703339 316.0
203.763428 100.0
203.797531 80.0
203.955536 140.0
204.022049 52.0
204.047638 64.0
204.081757 164.0
204.104492 52.0
204.139679 192.0
204.166687 516.0
204.275146 92.0
204.33989 84.0
204.37471 100.0
204.434464 88.0
204.479996 92.0
204.504196 104.0
204.536926 116.0
204.559418 124.0
204.616638 128.0
204.650803 56.0
204.680023 160.0
204.740707 56.0
204.793182 116.0
204.816971 96.0
204.835907 168.0
204.887192 112.0
204.97551 56.0
205.140808 220.0
205.16748 148.0
205.191132 104.0
205.217789 52.0
205.254852 164.0
205.307297 72.0
205.354675 204.0
205.403152 104.0
205.528687 192.0
205.649017 144.0
205.679932 96.0
205.719711 120.0
205.896927 60.0
205.977783 104.0
206.051178 84.0
206.485657 60.0
206.568604 176.0
206.592987 84.0
206.61438 172.0
206.660156 64.0
206.780334 60.0
206.823273 104.0
206.938385 112.0
207.129654 48.0
207.482117 72.0
207.548065 112.0
207.745956 108.0
207.955414 76.0
208.176483 40.0
208.231049 132.0
208.420639 336.0
208.598816 156.0
208.708069 132.0
208.952545 172.0
208.992828 152.0
209.82518 52.0
210.220337 100.0
210.312683 180.0
210.509003 116.0
210.70253 76.0
210.815216 216.0
210.974182 148.0
211.075378 104.0
211.150558 120.0
211.419601 120.0
211.483276 124.0
211.590378 128.0
211.71489 64.0
211.738052 92.0
211.79599 156.0
211.908966 156.0
211.949524 152.0
211.992996 164.0
212.14473 308.0
212.311874 168.0
212.445297 128.0
212.668732 56.0
212.738388 128.0
212.924225 76.0
212.953262 208.0
213.089798 132.0
213.153717 180.0
213.206024 124.0
214.160065 320.0
214.454575 56.0
214.611984 136.0
214.865723 116.0
215.119614 44.0
215.169952 148.0
215.26268 132.0
215.806168 60.0
216.102097 156.0
216.171951 1936.0
216.202179 240.0
216.303497 56.0
216.373749 44.0
216.493805 32.0
216.628525 140.0
216.695908 176.0
216.725204 68.0
216.84053 124.0
216.956741 116.0
217.106277 96.0
217.135605 104.0
217.178909 356.0
217.197662 204.0
217.244125 84.0
217.291183 100.0
217.314545 128.0
217.399643 72.0
217.426041 48.0
217.531708 120.0
217.561066 112.0
217.625656 112.0
217.687317 120.0
217.816544 140.0
217.865112 112.0
217.914642 152.0
217.968002 152.0
218.025681 172.0
218.065338 296.0
218.086868 56.0
218.154419 51960.0
218.271149 96.0
218.295593 72.0
218.361145 152.0
218.381592 172.0
218.408554 108.0
218.435791 168.0
218.466187 64.0
218.53421 60.0
218.606384 112.0
218.636993 100.0
218.666275 56.0
218.686874 200.0
218.735413 220.0
218.780411 36.0
218.8694 84.0
218.910614 80.0
218.938354 96.0
218.978348 60.0
219.001694 52.0
219.031372 40.0
219.057877 52.0
219.113861 236.0
219.155365 6796.0
219.19278 176.0
219.296555 44.0
219.340759 100.0
219.377945 52.0
219.420349 76.0
219.532394 56.0
219.558945 96.0
219.64241 160.0
219.712326 68.0
219.827393 36.0
220.025528 64.0
220.060577 76.0
220.163071 556.0
220.214127 72.0
220.249573 80.0
220.270248 68.0
220.299789 44.0
220.323425 88.0
220.352966 224.0
220.379562 116.0
220.456161 108.0
220.491852 124.0
220.513657 104.0
220.539139 116.0
220.576218 48.0
220.636688 80.0
220.659088 136.0
220.692978 96.0
220.820007 108.0
220.846634 96.0
220.902832 72.0
220.953125 92.0
221.041885 40.0
221.095154 56.0
221.252029 72.0
221.352692 52.0
221.566986 92.0
221.640015 52.0
221.896957 64.0
221.954208 208.0
222.206314 44.0
222.268631 44.0
222.310165 60.0
222.360626 60.0
222.672363 108.0
222.710968 144.0
222.850586 100.0
223.061584 76.0
223.510666 160.0
223.591019 92.0
223.817245 84.0
223.873825 52.0
225.051666 60.0
225.658173 64.0
226.002136 48.0
226.175705 48.0
226.517059 76.0
227.839996 108.0
228.017273 92.0
228.095413 128.0
228.751175 84.0
229.4953 152.0
229.670212 272.0
230.153061 132.0
230.358429 108.0
230.645493 188.0
231.117264 132.0
231.168701 124.0
231.599609 80.0
231.874313 28.0
233.051712 136.0
233.258362 168.0
234.131577 156.0
235.085754 144.0
235.74231 64.0
236.170319 148.0
236.540558 152.0
237.104126 188.0
237.978363 96.0
238.036697 72.0
238.752716 124.0
239.023407 36.0
239.30043 152.0
241.946259 80.0
243.300339 164.0
244.426132 156.0
245.301285 136.0
246.718521 100.0
247.043762 72.0
247.140747 124.0
247.472519 212.0
248.610352 92.0
249.492966 124.0
250.506271 48.0
251.105133 148.0
251.988586 124.0
252.086945 144.0
252.10907 188.0
252.374588 84.0
252.595963 164.0
253.50145 84.0
253.774048 52.0
254.157837 132.0
254.576843 64.0
255.171021 116.0
255.517685 232.0
257.126831 136.0
257.992432 148.0
258.10434 28.0
258.155518 128.0
258.584198 60.0
261.44046 84.0
261.63681 72.0
262.851898 72.0
264.144196 136.0
264.238007 64.0
265.092804 196.0
266.631042 136.0
266.959381 180.0
269.162201 96.0
269.668549 192.0
270.123047 56.0
270.283356 64.0
270.388062 52.0
270.430603 160.0
270.997131 104.0
271.280334 100.0
273.163879 144.0
273.298767 76.0
273.61142 76.0
274.088989 184.0
274.158203 176.0
274.332886 64.0
274.857269 104.0
276.177765 124.0
278.180115 132.0
278.54538 100.0
278.731415 140.0
279.230072 144.0
279.339813 64.0
279.935577 40.0
281.923767 224.0
283.325714 52.0
284.902466 120.0
285.258667 76.0
285.722748 128.0
285.975098 112.0
287.262268 140.0
287.656219 188.0
287.71109 128.0
288.809296 208.0
288.917542 108.0
290.910889 168.0
291.273499 68.0
291.960052 100.0
292.212311 364.0
293.206055 132.0
293.233337 176.0
294.196228 188.0
294.451294 124.0
295.675232 116.0
295.805298 164.0
296.17511 116.0
296.774811 124.0
297.577667 148.0
298.50882 52.0
298.57074 124.0
298.969788 72.0
302.196106 88.0
302.836517 132.0
303.269623 128.0
303.456818 176.0
304.142456 136.0
304.204437 2216.0
304.251282 180.0
304.30423 48.0
304.459625 96.0
304.657593 28.0
305.209839 560.0
305.422333 48.0
305.519745 52.0
305.9617 108.0
306.153229 72.0
306.204681 164.0
306.379608 132.0
306.595642 88.0
307.048859 100.0
307.16745 160.0
307.49527 172.0
307.956268 144.0
309.63504 68.0
310.213196 100.0
310.925201 132.0
310.960297 96.0
311.321899 52.0
312.066833 100.0
312.569794 52.0
313.615753 44.0
314.801117 48.0
314.900024 52.0
314.995392 128.0
315.327515 60.0
315.521912 164.0
316.955353 204.0
317.128998 136.0
319.244934 104.0
320.508606 104.0
320.62619 124.0
320.665405 116.0
321.08609 56.0
321.15741 88.0
321.278687 148.0
321.492798 192.0
321.891693 160.0
321.978302 176.0
322.052612 204.0
322.113312 160.0
322.21579 15224.0
322.280487 184.0
322.336212 256.0
322.378418 40.0
322.510651 60.0
322.609497 116.0
322.67865 100.0
322.746582 52.0
322.780884 108.0
322.865417 104.0
322.996918 60.0
323.029114 68.0
323.219238 2704.0
323.32251 76.0
323.404816 44.0
323.495941 140.0
323.544434 36.0
323.590973 48.0
323.637512 132.0
323.768127 84.0
323.827301 28.0
324.006409 28.0
324.222443 448.0
324.314575 44.0
324.518921 48.0
324.572693 64.0
324.791473 96.0
324.870392 48.0
325.006714 80.0
325.056946 116.0
325.189728 32.0
325.272278 104.0
325.462555 72.0
325.516418 52.0
325.660065 76.0
325.818115 164.0
325.882782 72.0
325.987 44.0
326.382385 68.0
327.99884 72.0
328.164673 116.0
328.752625 104.0
328.788696 104.0
330.262787 68.0
330.523254 80.0
331.145905 120.0
333.347992 176.0
335.76886 160.0
336.042419 72.0
336.089874 200.0
336.421967 56.0
337.094025 196.0
337.167114 28.0
337.836212 140.0
337.967926 100.0
338.052094 68.0
338.235077 40.0
338.315613 208.0
338.495026 64.0
338.626862 92.0
338.652496 164.0
338.685455 84.0
338.938232 76.0
339.08847 180.0
339.20578 76.0
339.356079 116.0
339.686127 100.0
339.803528 76.0
339.841583 128.0
339.876038 120.0
339.913605 292.0
339.979645 88.0
340.031036 68.0
340.056732 132.0
340.133789 128.0
340.163177 124.0
340.226257 13652.0
340.326965 108.0
340.423431 36.0
340.466309 92.0
340.548401 48.0
340.589111 76.0
340.6185 44.0
340.65155 44.0
340.739716 100.0
340.787476 52.0
340.838928 60.0
340.9328 72.0
341.052063 36.0
341.227539 2704.0
341.382965 60.0
341.416046 44.0
341.482239 60.0
341.559479 72.0
341.618347 48.0
341.754456 60.0
341.802307 100.0
342.104095 84.0
342.166687 64.0
342.231812 780.0
342.476013 44.0
342.630707 84.0
342.733887 72.0
342.907074 60.0
343.03241 140.0
343.113495 60.0
343.146667 56.0
343.249908 200.0
343.283112 92.0
343.500702 64.0
343.52652 128.0
344.27948 88.0
344.988861 40.0
345.739716 104.0
345.965485 68.0
346.246918 48.0
346.676636 64.0
350.049622 76.0
351.115417 60.0
352.739594 80.0
354.641052 84.0
354.944702 136.0
355.237244 52.0
357.999756 48.0
358.176758 56.0
359.35672 92.0
359.515198 52.0
360.017273 48.0
361.949585 96.0
364.722809 104.0
370.481049 40.0
370.507874 48.0
376.859833 88.0
377.776093 108.0
384.053284 108.0
386.060699 68.0
388.406708 104.0
389.423279 128.0
391.779449 40.0
395.732758 100.0
398.954224 100.0
401.785706 108.0
402.951447 64.0
403.646912 140.0
403.878876 60.0
404.591156 100.0
406.968628 68.0
413.693329 52.0
414.81543 52.0
415.395294 60.0
418.097198 64.0
434.762299 120.0
435.277039 48.0
435.692352 100.0
441.682617 56.0
442.063354 68.0
442.373047 44.0
445.417389 112.0
445.993042 92.0
448.160278 32.0
451.237122 80.0
451.939209 80.0
454.867615 96.0
463.499634 60.0
465.133606 108.0
465.26239 80.0
470.203827 48.0
471.391418 28.0
475.093292 104.0
489.111938 60.0
502.508698 120.0
507.993439 104.0
513.850769 124.0
514.062866 76.0
521.685486 92.0
525.6297 100.0
526.12262 28.0
529.735291 108.0
534.1604 160.0
534.873596 104.0
540.871582 84.0
544.755371 76.0
549.144714 56.0
549.200684 100.0
569.107544 64.0
569.610962 68.0
571.136719 72.0
574.776489 96.0
575.077087 48.0
580.559814 36.0
580.895508 120.0
585.731262 96.0
593.332642 76.0
597.781738 48.0
605.573303 88.0
605.842712 80.0
614.766724 84.0
627.978333 96.0
639.57251 64.0
641.531982 92.0
645.338562 108.0
652.88385 144.0
660.575256 52.0
682.671082 204.0
704.950806 148.0
731.808594 184.0
733.166016 228.0
733.678101 72.0
733.953064 96.0
737.489014 88.0
743.728699 116.0
752.979004 140.0
760.386414 156.0
767.907349 60.0
769.386108 92.0
772.364624 108.0
772.40332 196.0
774.179932 128.0
774.296204 36.0
775.847717 156.0
778.039001 168.0
780.22229 92.0
784.480957 40.0
786.55603 156.0
789.796875 116.0
790.512939 168.0
791.475769 176.0
792.231812 160.0
793.072327 140.0
799.547974 212.0
799.941956 40.0
808.011902 148.0
808.374023 220.0
817.464722 124.0
823.964722 168.0
825.302124 188.0
825.393616 60.0
826.371704 168.0
828.18634 156.0
828.381104 116.0
829.103027 84.0
830.754333 216.0
833.481445 92.0
833.607849 160.0
835.902222 192.0
836.535278 200.0
836.592896 76.0
838.49939 152.0
840.990967 232.0
841.244934 144.0
841.706848 76.0
846.934814 160.0
847.827026 100.0
847.88501 60.0
849.044434 156.0
849.949402 176.0
851.615479 120.0
853.254211 160.0
854.109009 44.0
858.80365 188.0
859.398682 204.0
859.550354 120.0
863.236267 128.0
863.850342 200.0
863.914734 172.0
865.875549 128.0
870.526001 168.0
870.608215 156.0
871.448181 56.0
876.53186 160.0
877.150696 176.0
878.925842 192.0
879.43927 208.0
880.177185 120.0
880.507874 180.0
883.090637 80.0
884.238403 148.0
885.363281 144.0
887.063721 160.0
888.30896 184.0
889.193054 132.0
889.329529 176.0
891.526978 148.0
891.859802 160.0
892.739685 204.0
892.989441 68.0
893.370178 128.0
896.067017 132.0
896.227844 160.0
896.972778 112.0
897.211243 180.0
898.457642 168.0
899.58551 160.0
900.731995 96.0
901.897156 244.0
902.399353 80.0
903.739075 84.0
905.445068 164.0
905.6427 200.0
905.911133 144.0
906.661255 164.0
907.128723 188.0
907.704285 132.0
910.536743 44.0
911.077332 172.0
911.942627 212.0
912.363403 204.0
914.131714 152.0
915.124878 44.0
916.937988 128.0
918.300598 136.0
919.531372 52.0
920.128967 208.0
921.681152 56.0
921.832214 28.0
922.587708 80.0
923.059326 168.0
923.307251 52.0
926.030701 196.0
926.121582 124.0
927.963745 156.0
928.78241 172.0
928.913513 176.0
929.28595 224.0
930.663696 108.0
931.532166 76.0
931.927063 48.0
932.072876 44.0
932.41925 196.0
932.752014 224.0
933.629028 164.0
934.206848 196.0
934.504944 200.0
937.007263 140.0
937.890808 184.0
937.963989 204.0
938.829712 52.0
939.531433 176.0
940.574646 148.0
942.382263 184.0
943.390686 144.0
944.656494 196.0
946.082336 168.0
947.711731 224.0
947.944275 168.0
948.88208 112.0
949.593384 164.0
949.697632 156.0
950.759033 224.0
954.924377 160.0
956.0625 96.0
956.776489 124.0
957.657043 132.0
957.8172 136.0
958.248413 168.0
958.901611 140.0
958.963257 196.0
959.197449 180.0
960.979065 196.0
961.127808 176.0
962.337524 84.0
962.633911 184.0
962.714172 248.0
963.004456 176.0
964.073242 176.0
965.210632 160.0
967.722717 164.0
968.924255 116.0
969.066711 136.0
969.159668 208.0
969.234558 188.0
969.370361 188.0
969.735962 184.0
970.126465 120.0
971.019348 168.0
971.317078 128.0
972.533203 168.0
973.073303 196.0
973.259521 164.0
974.010986 116.0
974.265686 176.0
974.681946 196.0
975.788269 180.0
975.956177 152.0
976.117798 224.0
976.441162 164.0
977.025879 184.0
977.536072 180.0
977.672974 176.0
978.488403 136.0
978.544434 136.0
980.269775 204.0
980.755859 140.0
980.899231 164.0
981.098694 160.0
982.501892 116.0
983.013489 112.0
983.05719 132.0
984.118286 124.0
984.542908 144.0
986.604858 196.0
988.44989 144.0
989.338623 260.0
989.499268 164.0
989.582764 144.0
990.140076 148.0
990.328003 196.0
991.167419 172.0
991.524658 136.0
992.452393 168.0
993.016785 124.0
994.654358 188.0
995.087524 148.0
995.910156 240.0
996.431519 92.0
997.260986 200.0
997.700989 180.0
997.965088 136.0
998.053101 200.0
998.33606 184.0
998.543579 140.0
998.990173 156.0
999.178894 204.0
999.971741 144.0
1000.053589 184.0
1000.14801 212.0
1000.676758 136.0
1002.3396 204.0
1002.736633 96.0
1003.102173 212.0
1003.549805 176.0
1004.218201 120.0
1005.29071 160.0
1007.020508 196.0
1007.172119 296.0
1007.772217 76.0
1007.911255 252.0
1009.434631 32.0
1010.168274 104.0
1015.38739 252.0
1015.583984 52.0
1016.70697 68.0
1017.894043 160.0
1018.249634 160.0
1018.376648 188.0
1018.535461 156.0
1019.037292 192.0
1019.81897 212.0
1020.607239 128.0
1020.664429 92.0
1020.963318 136.0
1021.268616 184.0
1022.954773 132.0
1023.050293 196.0
1023.616943 200.0
1023.763367 160.0
1024.280273 184.0
1025.011963 192.0
1025.107544 120.0
1025.540894 140.0
1026.580078 160.0
1026.70752 200.0
1026.879761 184.0
1028.021729 136.0
1028.117432 124.0
1028.532349 88.0
1028.825928 140.0
1029.33667 140.0
1031.125366 112.0
1031.265991 152.0
1031.822144 124.0
1032.097046 132.0
1032.384766 208.0
1033.107544 188.0
1033.336914 236.0
1033.939331 160.0
1034.950806 184.0
1035.866577 184.0
1035.917847 228.0
1036.509155 160.0
1036.596924 68.0
1037.673706 152.0
1038.597168 248.0
1039.046265 148.0
1040.342529 216.0
1040.856201 160.0
1041.851685 60.0
1042.153687 172.0
1042.462036 96.0
1043.246216 128.0
1044.02417 184.0
1044.796021 184.0
1044.918213 172.0
1045.490967 112.0
1047.209839 128.0
1047.473999 160.0
1047.783203 236.0
1047.879761 132.0
1047.97644 148.0
1048.678833 172.0
1049.19458 60.0
1049.465332 104.0
1049.529785 188.0
1049.620117 160.0
1049.807007 132.0
1050.529419 180.0
1051.495239 220.0
1052.455444 164.0
1053.066162 184.0
1053.53125 228.0
1053.99646 172.0
1056.653687 188.0
1056.796143 152.0
1056.85437 244.0
1056.977295 136.0
1057.663208 164.0
1058.083984 152.0
1058.362427 148.0
1058.498413 132.0
1058.602051 156.0
1059.145996 164.0
1059.764771 140.0
1060.143799 148.0
1060.474243 148.0
1060.552002 172.0
1061.148438 104.0
1061.206787 208.0
1061.329956 128.0
1061.407837 96.0
1062.958008 140.0
1063.425293 128.0
1064.522461 128.0
1064.697754 204.0
1064.763794 180.0
1065.590576 144.0
1066.172485 56.0
1066.815918 120.0
1067.446655 152.0
1068.083984 200.0
1068.545898 108.0
1068.662964 328.0
1070.505005 108.0
1071.182373 124.0
1071.397339 100.0
1071.742676 160.0
1072.022827 176.0
1072.446411 140.0
1072.707153 168.0
1072.7854 144.0
1074.180908 124.0
1074.841431 196.0
1074.976807 132.0
1076.12561 124.0
1076.393311 76.0
1076.510864 164.0
1076.72644 244.0
1076.89624 68.0
1077.288086 204.0
1077.444946 152.0
1078.398926 140.0
1078.73877 168.0
1078.849976 168.0
1078.971436 188.0
1079.418701 140.0
1079.974609 164.0
1080.330688 156.0
1081.852661 180.0
1082.435303 160.0
1082.481201 136.0
1082.585938 196.0
1083.692871 216.0
1084.754517 72.0
1085.613403 280.0
1086.000366 216.0
1086.203735 52.0
1087.076294 60.0
1087.148438 280.0
1087.601318 156.0
1088.993286 232.0
1090.221802 100.0
1091.083984 136.0
1091.260376 128.0
1091.983765 72.0
1092.937622 160.0
1093.371948 108.0
1093.569336 164.0
1094.385132 152.0
1094.708252 168.0
1095.123169 124.0
1095.221924 96.0
1095.571045 116.0
1095.656738 172.0
1096.117798 160.0
1096.453979 184.0
1096.500122 184.0
1096.691284 140.0
1098.036255 236.0
1098.095581 72.0
1098.307251 176.0
1098.563965 192.0
1099.217041 188.0
1099.731812 168.0
1100.119507 176.0
1100.312744 100.0
1101.065552 160.0
1101.45752 192.0
1101.930786 196.0
1102.314087 148.0
1102.380127 168.0
1102.710571 140.0
1104.581787 156.0
1104.661133 36.0
1104.8927 204.0
1105.481567 212.0
1106.163208 140.0
1106.375 104.0
1106.725952 32.0
1107.196045 160.0
1107.633179 164.0
1109.654419 104.0
1110.204712 44.0
1110.476685 252.0
1110.841431 144.0
1111.080322 180.0
1111.266113 172.0
1111.730591 208.0
1112.268188 128.0
1113.171021 116.0
1113.27063 80.0
1113.383545 188.0
1114.439697 152.0
1114.931396 176.0
1116.174561 144.0
1117.770996 192.0
1117.930664 120.0
1118.130249 232.0
1118.503052 172.0
1118.882446 144.0
1119.814697 148.0
1119.914551 172.0
1120.827271 164.0
1121.966919 140.0
1122.170288 40.0
1122.423706 160.0
1122.607056 216.0
1122.913818 108.0
1122.987183 172.0
1123.680908 152.0
1124.101318 240.0
1124.608521 232.0
1125.12915 176.0
1125.289307 92.0
1125.342773 108.0
1127.092773 188.0
1127.139526 56.0
1127.500366 124.0
1129.539551 156.0
1129.981079 152.0
1130.074829 164.0
1130.516357 48.0
1130.57666 156.0
1130.984863 160.0
1131.192383 172.0
1131.580688 192.0
1131.694458 120.0
1132.116333 188.0
1132.91333 172.0
1133.710693 216.0
1133.972046 216.0
1134.199951 160.0
1135.205566 40.0
1135.366577 172.0
1135.69519 156.0
1136.526978 164.0
1136.734985 136.0
1137.130981 172.0
1137.486694 124.0
1137.547119 220.0
1137.674683 172.0
1137.835815 148.0
1138.124268 192.0
1138.359497 80.0
1138.789307 176.0
1138.950562 128.0
1139.059814 204.0
1139.23938 184.0
1139.319946 132.0
1139.54834 204.0
1139.696167 116.0
1140.19873 224.0
1140.408569 136.0
1140.489136 152.0
1140.616943 112.0
1140.986572 148.0
1141.635498 168.0
1142.277832 260.0
1142.728516 188.0
1143.879272 172.0
1144.183838 200.0
1144.640015 148.0
1144.842041 180.0
1145.145142 160.0
1145.663818 140.0
1145.845703 164.0
1147.193481 244.0
1147.456421 132.0
1147.61145 108.0
1148.070068 132.0
1148.407227 136.0
1149.851074 160.0
1151.160645 188.0
1151.781982 260.0
1151.944092 124.0
1152.052246 156.0
1152.180542 180.0
1152.626465 328.0
1153.924194 104.0
1154.005371 96.0
1154.120361 96.0
1154.164917 84.0
1154.749146 244.0
1154.857422 164.0
1155.141479 120.0
1155.540649 188.0
1155.62854 112.0
1157.139404 172.0
1157.401978 120.0
1157.504883 200.0
1158.607422 100.0
1158.864868 52.0
1159.712036 36.0
1160.484741 124.0
1160.559326 100.0
1160.633911 172.0
1160.688232 248.0
1160.817017 156.0
1161.008667 208.0
1162.648682 168.0
1162.797974 204.0
1162.940796 216.0
1163.761841 216.0
1164.712646 140.0
1165.072632 88.0
1165.147339 148.0
1165.694214 240.0
1166.744385 152.0
1167.696411 84.0
1167.886841 136.0
1168.172485 184.0
1168.635132 176.0
1168.805176 136.0
1168.918335 216.0
1169.193115 196.0
1169.744385 168.0
1169.907715 232.0
1170.078003 32.0
1170.479614 132.0
1170.69751 232.0
1171.255981 196.0
1171.637573 92.0
1172.346069 128.0
1173.054932 152.0
1173.211792 204.0
1174.009521 156.0
1174.111816 160.0
1174.343628 52.0
1174.623291 176.0
1176.25415 204.0
1176.304199 148.0
1176.383789 180.0
1176.923218 240.0
1177.906616 160.0
1178.200317 272.0
1178.999756 48.0
1179.225342 88.0
1180.455811 76.0
1181.461304 164.0
1181.550171 208.0
1181.683228 184.0
1182.207031 112.0
1182.323364 200.0
1182.590332 48.0
1183.54187 112.0
1183.603516 56.0
1183.767822 200.0
1183.836304 112.0
1185.384399 172.0
1185.681641 172.0
1185.754517 164.0
1188.140747 204.0
1188.209351 176.0
1188.545532 164.0
1188.593506 112.0
1188.984619 328.0
1190.069214 144.0
1190.446899 200.0
1190.852051 184.0
1191.188599 176.0
1191.532104 136.0
1191.807007 120.0
1192.487305 108.0
1192.59729 160.0
1193.222778 152.0
1193.422119 200.0
1193.552856 148.0
1194.075439 172.0
1194.412476 124.0
1194.543213 144.0
1194.818359 188.0
1195.031616 164.0
1195.599487 200.0
1195.912476 128.0
1196.039185 180.0
1196.469971 208.0
1196.587036 56.0
1198.012573 124.0
1198.439697 148.0
1198.729126 112.0
1198.804932 188.0
1198.904907 136.0
1199.314819 192.0
1199.700928 140.0
1200.025024 224.0
1200.245605 80.0
1200.348999 160.0
1200.845581 196.0
1201.252563 132.0
1201.362915 196.0
1201.528442 92.0
1202.860352 208.0
1203.713989 204.0
1203.870483 200.0
1204.317261 244.0
1205.07019 60.0
1205.346558 164.0
1205.401855 184.0
1206.01001 124.0
1206.58374 204.0
1207.199097 76.0
1207.489624 204.0
1208.29895 196.0
1208.368042 64.0
1208.727905 140.0
1209.087769 180.0
1209.378418 52.0
1209.703735 204.0
1209.814941 128.0
1210.54834 68.0
1210.652222 92.0
1210.74231 48.0
1210.975342 180.0
1211.552734 188.0
1211.836792 192.0
1213.59021 152.0
1214.013184 248.0
1214.131104 192.0
1214.415527 244.0
1214.547241 132.0
1214.706787 188.0
1215.352051 192.0
1216.111328 156.0
1216.685303 156.0
1216.77478 160.0
1217.163574 172.0
1217.309448 176.0
1218.446533 264.0
1218.684692 204.0
1219.442139 140.0
1219.622925 244.0
1219.720215 160.0
1220.484985 128.0
1220.97168 188.0
1221.069214 172.0
1221.152466 116.0
1221.486328 172.0
1221.681152 116.0
1221.889893 136.0
1222.439575 276.0
1222.697021 180.0
1222.794434 136.0
1223.107666 188.0
1223.212036 168.0
1223.394409 148.0
1223.483521 252.0
1224.047485 188.0
1224.51416 164.0
1226.060669 36.0
1226.255859 200.0
1226.743774 52.0
1227.231812 204.0
1227.55249 212.0
1227.692017 172.0
1227.761719 176.0
1228.145386 156.0
1228.20813 208.0
1228.619629 152.0
1229.129028 184.0
1230.064209 196.0
1230.32251 184.0
1230.860107 188.0
1231.251099 156.0
1231.956543 188.0
1232.578369 144.0
1232.76001 64.0
1233.500854 160.0
1233.696655 140.0
1233.794556 164.0
1234.423706 156.0
1234.738403 184.0
1235.074219 184.0
1235.392212 248.0
1235.493896 220.0
1235.549805 80.0
1235.640747 104.0
1236.193604 136.0
1236.85144 120.0
1237.215454 128.0
1237.474487 140.0
1237.607544 112.0
1237.768555 116.0
1237.9646 152.0
1238.707031 100.0
1239.449585 140.0
1239.498657 140.0
1239.652832 144.0
1240.257812 208.0
1241.405273 180.0
1241.636719 132.0
1242.366211 152.0
1242.92749 152.0
1243.180054 140.0
1243.63623 156.0
1244.022339 192.0
1244.717407 52.0
1245.419678 60.0
1245.862183 152.0
1246.115112 128.0
1246.466431 152.0
1246.643677 148.0
1246.698364 160.0
1247.063599 152.0
1247.330933 72.0
1247.654297 160.0
1247.865112 172.0
1248.547241 52.0
1248.687866 156.0
1248.779297 196.0
1249.595337 220.0
1249.799316 144.0
1249.947144 232.0
1251.129517 180.0
1251.720947 208.0
1251.974487 200.0
1252.072998 200.0
1254.884521 180.0
1255.603882 32.0
1255.892944 188.0
1255.970581 136.0
1256.344482 60.0
1256.415039 224.0
1256.464355 176.0
1257.169922 132.0
1258.009888 164.0
1258.906494 184.0
1259.104248 200.0
1259.294922 148.0
1259.471558 116.0
1259.685791 184.0
1259.916504 148.0
1261.004761 64.0
1261.216797 216.0
1262.022705 148.0
1262.581299 160.0
1262.776855 160.0
1262.927856 48.0
1263.076416 156.0
1263.679565 220.0
1264.052734 236.0
1264.618896 208.0
1265.482422 152.0
1265.737427 192.0
1265.815308 160.0
1266.346436 172.0
1267.033447 48.0
1267.11145 164.0
1267.430298 196.0
1267.557861 100.0
1268.542969 116.0
1268.805176 128.0
1268.904541 212.0
1269.18103 88.0
1269.379517 144.0
1269.641968 156.0
1270.287354 72.0
1270.344116 160.0
1270.400879 168.0
1270.954224 164.0
1271.458008 172.0
1271.685181 164.0
1272.267212 148.0
1272.700317 164.0
1272.92749 308.0
1273.171021 164.0
1273.38208 204.0
1273.56665 196.0
1273.730103 192.0
1274.326782 180.0
1274.724731 80.0
1275.122681 180.0
1275.343018 192.0
1276.109619 136.0
1276.266113 192.0
1276.871582 168.0
1277.120483 140.0
1277.30542 156.0
1277.895874 188.0
1278.732056 152.0
1278.998901 84.0
1280.323242 160.0
1281.227783 296.0
1281.484253 140.0
1281.569702 192.0
1282.218262 160.0
1282.339355 148.0
1282.624512 184.0
1282.724243 176.0
1282.966675 160.0
1284.506958 112.0
1284.963501 144.0
1285.384399 140.0
1285.527222 164.0
1285.841187 144.0
1286.219482 304.0
1287.019043 128.0
1288.947632 128.0
1289.190552 236.0
1289.354858 192.0
1289.840942 228.0
1290.091064 40.0
1290.381592 64.0
1290.627319 216.0
1290.734619 36.0
1290.977661 132.0
1291.621338 88.0
1291.835938 92.0
1291.921753 156.0
1293.25769 76.0
1293.317139 164.0
1293.796753 164.0
1293.997192 112.0
1294.362427 180.0
1294.68457 148.0
1294.820679 220.0
1295.809204 176.0
1296.332275 196.0
1296.626099 104.0
1297.170776 192.0
1297.400146 164.0
1297.722778 160.0
1298.117188 160.0
1299.200195 188.0
1299.451294 152.0
1300.003784 140.0
1300.053955 176.0
1301.460938 180.0
1301.863037 32.0
1302.732056 172.0
1302.954834 156.0
1303.003174 152.0
1304.061401 180.0
1304.372559 180.0
1304.438477 212.0
1304.650879 176.0
1304.89624 248.0
1305.527954 176.0
1305.765381 144.0
1306.549316 116.0
1306.635742 216.0
1307.139404 220.0
1307.923828 172.0
1308.398926 164.0
1308.499634 172.0
1308.830933 160.0
1309.795898 196.0
1311.554077 344.0
1312.022583 160.0
1312.094727 208.0
1312.289307 172.0
1312.459717 44.0
1312.570557 164.0
1313.334961 72.0
1315.896729 280.0
1316.402222 108.0
1316.626099 148.0
1317.247192 204.0
1317.341064 184.0
1317.781738 188.0
1317.919067 156.0
1318.171997 212.0
1318.229736 220.0
1318.424927 156.0
1319.125977 144.0
1319.422363 132.0
1320.080322 196.0
1320.434692 176.0
1320.579346 168.0
1320.680542 184.0
1320.912109 148.0
1321.157959 40.0
1321.208618 68.0
1321.476318 156.0
1321.557373 216.0
1321.809204 204.0
1321.953857 172.0
1322.380859 128.0
1322.815186 184.0
1323.003418 144.0
1323.757202 172.0
1323.937378 160.0
1324.241577 164.0
1324.703613 172.0
1324.922485 188.0
1325.335449 204.0
1325.393433 60.0
1325.661499 172.0
1325.748413 216.0
1326.929932 164.0
1327.045898 128.0
1327.546265 40.0
1327.633301 164.0
1327.756592 216.0
1328.300537 96.0
1328.409302 140.0
1328.757568 208.0
1329.185669 64.0
1329.330811 196.0
1329.475952 200.0
1329.642822 228.0
1329.766235 132.0
1330.150879 44.0
1330.238037 144.0
1330.354126 136.0
1330.521118 144.0
1330.767944 180.0
1331.014771 136.0
1331.152832 212.0
1332.031616 52.0
1332.759155 160.0
1332.838013 148.0
1333.186768 204.0
1333.717285 212.0
1334.131714 228.0
1334.487915 168.0
1334.691528 116.0
1334.895142 140.0
1335.593262 192.0
1335.651489 116.0
1336.255249 216.0
1336.844604 160.0
1336.895508 172.0
1337.128418 184.0
1337.179321 60.0
1337.565186 172.0
1337.853394 164.0
1338.314941 204.0
1338.402344 164.0
1338.504272 44.0
1338.62085 184.0
1338.824707 192.0
1339.232544 136.0
1339.319946 252.0
1339.67688 192.0
1339.897217 192.0
1340.598755 236.0
1341.017578 160.0
1341.841309 152.0
1342.030884 164.0
1342.24231 184.0
1342.884033 152.0
1344.095093 156.0
1344.416138 160.0
1344.503662 164.0
1344.648804 144.0
1345.352661 204.0
1345.70813 120.0
1346.102417 256.0
1346.628174 236.0
1347.965088 156.0
1348.535156 128.0
1349.032104 96.0
1349.302612 76.0
1349.631592 40.0
1349.938721 164.0
1350.4823 220.0
1350.591431 180.0
1352.126099 128.0
1352.440796 164.0
1352.607544 160.0
1353.1875 160.0
1353.319214 112.0
1353.787842 200.0
1354.425049 156.0
1354.8573 132.0
1355.260254 184.0
1355.619263 128.0
1355.985718 132.0
1356.234863 176.0
1356.410767 136.0
1356.550049 152.0
1356.850586 164.0
1357.202515 140.0
1357.877197 172.0
1357.943237 136.0
1358.265991 148.0
1358.522705 164.0
1358.610718 160.0
1358.676758 188.0
1358.911499 120.0
1359.510986 188.0
1359.918701 204.0
1360.019531 128.0
1360.203125 212.0
1360.762207 180.0
1361.260254 112.0
1361.539307 72.0
1361.97998 168.0
1362.332642 164.0
1362.663208 200.0
1362.802856 72.0
1362.861572 164.0
1362.971802 172.0
1363.589111 160.0
1363.68457 100.0
1363.912476 196.0
1364.338867 40.0
1364.875488 192.0
1364.956421 232.0
1365.412354 196.0
1365.537354 196.0
1365.971313 144.0
1366.464233 164.0
1366.618774 88.0
1367.023438 240.0
1368.885864 188.0
1370.344238 136.0
1370.481567 264.0
1370.631592 64.0
1370.92627 152.0
1371.140015 184.0
1371.560181 132.0
1372.157227 60.0
1372.260498 80.0
1372.828247 100.0
1373.669067 200.0
1373.86084 172.0
1374.000977 84.0
1374.251831 136.0
1374.310913 168.0
1374.406738 180.0
1375.085693 160.0
1375.809082 44.0
1375.927124 40.0
1376.805786 96.0
1376.960938 132.0
1377.322876 40.0
1377.544434 144.0
1377.740112 260.0
1378.024658 180.0
1378.19458 188.0
1378.297974 252.0
1378.559082 120.0
1379.221802 96.0
1379.635742 224.0
1379.751831 324.0
1380.323364 148.0
1380.508179 128.0
1380.94458 120.0
1381.173828 200.0
1381.225586 84.0
1381.69165 208.0
1381.935791 52.0
1382.120728 204.0
1382.512939 160.0
1382.586914 180.0
1382.794189 160.0
1383.02356 240.0
1383.10498 44.0
1383.170776 180.0
1383.667603 204.0
1384.230347 72.0
1384.696899 52.0
1384.804077 184.0
1385.504272 140.0
1385.637573 144.0
1385.748779 104.0
1386.356323 152.0
1386.964111 168.0
1387.251709 164.0
1387.475586 120.0
1387.549683 192.0
1388.34314 252.0
1388.72876 156.0
1388.884521 120.0
1388.943848 160.0
1389.403809 128.0
1389.618896 132.0
1389.900879 136.0
1390.732056 180.0
1390.789795 204.0
1391.236816 216.0
1391.481812 148.0
1391.749023 196.0
1391.88269 224.0
1392.209473 128.0
1392.272827 200.0
1392.551025 176.0
1392.707031 120.0
1393.376953 212.0
1393.435059 184.0
1393.695068 156.0
1393.820068 176.0
1393.910522 96.0
1394.319214 176.0
1394.490234 188.0
1394.65271 196.0
1394.674927 168.0
1394.839478 188.0
1395.478882 140.0
1395.701904 148.0
1395.754028 168.0
1395.925049 64.0
1396.006836 108.0
1396.20752 80.0
1397.137329 160.0
1397.27124 68.0
1397.509277 252.0
1397.672974 168.0
1397.948364 180.0
1398.007812 96.0
1398.201416 184.0
1398.78186 88.0
1399.243408 220.0
1399.450073 208.0
1399.668335 220.0
1399.995483 124.0
1400.126587 208.0
1400.32312 196.0
1400.621094 124.0
1400.732788 56.0
1401.090454 120.0
1401.157471 140.0
1401.656616 120.0
1401.798218 144.0
1402.550903 172.0
1402.76709 216.0
1403.296387 56.0
1404.280762 236.0
1404.869995 164.0
1405.101318 168.0
1405.26062 248.0
1405.766479 172.0
1406.364746 164.0
1406.437012 164.0
1406.59375 140.0
1407.056641 148.0
1407.220825 108.0
1407.467285 136.0
1407.554077 220.0
1407.848022 216.0
1408.184082 288.0
1408.340942 184.0
1408.52771 188.0
1409.513916 72.0
1409.843018 168.0
1410.126709 144.0
1410.447998 152.0
1411.816284 212.0
1412.668945 152.0
1412.805054 172.0
1413.125244 216.0
1413.252441 180.0
1413.49939 332.0
1413.659668 196.0
1413.851074 196.0
1413.948364 108.0
1414.27771 160.0
1414.479736 64.0
1414.943848 136.0
1415.857422 188.0
1416.261841 152.0
1416.598877 172.0
1416.748779 156.0
1416.936035 36.0
1417.025879 152.0
1417.632812 188.0
1417.790161 156.0
1417.887573 176.0
1418.284912 164.0
1418.552124 188.0
1418.634521 184.0
1418.742065 44.0
1418.794556 80.0
1418.952026 168.0
1419.094482 192.0
1419.229492 176.0
1419.28186 180.0
1419.484375 212.0
1419.881836 104.0
1420.380371 388.0
1421.074463 228.0
1421.127075 220.0
1421.614746 108.0
1422.110107 176.0
1422.402832 148.0
1422.838257 172.0
1423.45752 420.0
1423.866943 160.0
1424.01709 52.0
1424.234985 188.0
1424.366577 240.0
1424.432495 184.0
1424.805786 160.0
1424.948608 192.0
1425.203979 224.0
1425.874634 180.0
1425.985596 64.0
1426.451538 128.0
1426.50415 116.0
1426.834961 180.0
1426.940186 176.0
1427.278564 208.0
1427.68457 148.0
1427.932739 152.0
1428.30127 156.0
1428.391602 124.0
1428.549561 152.0
1428.899414 244.0
1429.535156 228.0
1429.655518 184.0
1430.122192 180.0
1430.299194 252.0
1430.38562 264.0
1430.694214 48.0
1430.822266 140.0
1431.033081 168.0
1432.365967 168.0
1432.637207 48.0
1433.149536 136.0
1434.159302 176.0
1434.445679 164.0
1434.641724 88.0
1434.769897 172.0
1435.063843 144.0
1435.327759 144.0
1436.617432 148.0
1437.175781 92.0
1437.409668 172.0
1437.787964 92.0
1437.847412 136.0
1438.519165 44.0
1438.896606 200.0
1438.992432 244.0
1439.825317 160.0
1439.923462 172.0
1440.202515 196.0
1440.337158 276.0
1442.046509 152.0
1442.455933 204.0
1442.764648 104.0
1442.837891 112.0
1443.747559 224.0
1444.397949 188.0
1444.459961 160.0
1445.502563 148.0
1445.631226 208.0
1445.880859 116.0
1446.070068 184.0
1446.130615 72.0
1446.970947 336.0
1447.076904 148.0
1447.803833 92.0
1448.424805 180.0
1448.985474 184.0
1449.925049 120.0
1450.370972 148.0
1450.546509 164.0
1450.751221 200.0
1450.908936 120.0
1451.016479 172.0
1451.130249 80.0
1451.744385 204.0
1452.008423 192.0
1452.859375 52.0
1452.988403 192.0
1453.215942 120.0
1453.565063 128.0
1453.860962 172.0
1454.232788 244.0
1454.437744 196.0
1454.878052 216.0
1455.401855 152.0
1456.670166 148.0
1456.761353 136.0
1457.293091 144.0
1457.999756 220.0
1458.068237 340.0
1458.349365 128.0
1458.620972 196.0
1458.759888 84.0
1459.246338 48.0
1459.900269 96.0
1460.402222 156.0
1460.470703 132.0
1460.592407 112.0
1460.77063 136.0
1460.843384 192.0
1460.987915 140.0
1461.824951 132.0
1462.197754 68.0
1462.281494 136.0
1462.981567 160.0
1463.141602 164.0
1463.606079 184.0
1463.689819 212.0
1463.826904 116.0
1464.359985 64.0
1465.068359 192.0
1465.807373 32.0
1466.081787 124.0
1466.180786 64.0
1466.439941 200.0
1467.85791 204.0
1467.97229 124.0
1468.040894 212.0
1469.352783 120.0
1469.741943 160.0
1470.352661 144.0
1470.505005 32.0
1470.688232 40.0
1471.130981 104.0
1471.273315 248.0
1471.359985 160.0
1472.299194 164.0
1473.146973 96.0
1474.056152 208.0
1474.525635 156.0
1475.072632 52.0
1475.187256 164.0
1475.515991 192.0
1475.600098 56.0
1476.196533 104.0
1476.25 184.0
1476.922974 68.0
1477.007202 128.0
1477.129517 204.0
1477.259644 88.0
1478.422607 120.0
1478.751709 140.0
1479.187988 92.0
1479.846313 148.0
1479.899902 184.0
1480.07605 172.0
1480.244507 224.0
1480.343994 140.0
1480.497192 128.0
1480.795898 148.0
1480.994995 152.0
1481.204956 152.0
1481.515869 84.0
1481.760986 144.0
1481.967896 104.0
1482.075073 132.0
1482.266724 172.0
1482.803101 60.0
1482.94873 136.0
1483.01001 88.0
1483.286011 132.0
1483.401001 252.0
1483.937622 168.0
1484.537964 184.0
1484.673706 184.0
1484.750366 204.0
1484.842407 220.0
1486.338379 124.0
1486.806396 176.0
1486.867798 196.0
1487.12561 216.0
1487.77356 140.0
1489.002075 172.0
1489.339966 140.0
1490.323364 136.0
1490.415527 148.0
1490.50769 164.0
1491.099487 196.0
1491.38501 180.0
1491.606689 144.0
1492.313965 152.0
1492.998291 172.0
1493.15979 148.0
1493.398315 148.0
1493.714355 200.0
1493.805908 172.0
1494.198242 72.0
1494.61377 72.0
1494.721436 268.0
1495.044678 60.0
1495.783569 184.0
1496.052979 176.0
1496.738159 152.0
1496.830566 112.0
1496.884521 156.0
1496.946045 196.0
1497.00769 172.0
1497.485107 120.0
1498.007202 176.0
1498.247681 184.0
1498.34021 208.0
1498.447998 172.0
1498.555908 100.0
1498.680054 148.0
1498.971924 128.0
1499.380371 144.0
1499.611572 168.0
1499.742676 136.0
1499.819702 244.0
1500.128052 152.0
1500.259033 216.0
1500.953003 160.0
1501.446533 200.0
1501.70105 148.0
1501.955566 180.0
1502.572632 176.0
1502.827271 232.0
1503.067993 184.0
1503.351929 200.0
1503.699219 156.0
1503.853638 148.0
1504.031128 136.0
1504.841675 148.0
