>compound MLS000863575-01!5,7-dihydroxy-2-(4-hydroxyphenyl)-6-(3-methylbut-2-enyl)-2,3-dihydrochromen-4-one
>formula C20H20O5
>ionization [M+H]+
>parentmass 341.139
#inchi InChI=1S/C20H20O5/c1-11(2)3-8-14-15(22)9-18-19(20(14)24)16(23)10-17(25-18)12-4-6-13(21)7-5-12/h3-7,9,17,21-22,24H,8,10H2,1-2H3
#inchikey YHWNASRGLKJRJJ
#Ion_Source LC-ESI
#Instrument qTof
#Compound_Source NIH Natural Product Library
#PI Dorrestein
#Data_Collector VVP/LMS
#Scan -1
#Precursor_MZ 341.139
#ExactMass 340.131
#Charge 1
#CAS_Number N/A
#Pubmed_ID N/A
#Smiles CC(=CCc1c(O)cc2OC(CC(=O)c2c1O)c3ccc(O)cc3)C
#INCHI_AUX N/A
#Library_Class 1
#SpectrumID CCMSLIB00000079845
#IonMode Positive
#UpdateWorkflowName UPDATE-SINGLE-ANNOTATED-GOLD
#LibraryQualityString Gold
#TaskID b1d8e8f6646f4e71acdff9ca3d919d08
##Scan# 2384
#SpectrumFile p1-H11_GH11_01_17967.mzXML
#LibraryName NIH_Natural_Products_Library.mgf
#MQScore -1
#Organism NIH_Natural_Products_Library
#TIC_Query 0
#RT_Query -1
#MZErrorPPM -1
#SharedPeaks 0
#MassDiff 0
#LibMZ -1
#SpecMZ 341.139
#SpecCharge 0
#internalFilename spec-00000.mgf

>collision 10
95.057037 36.0
95.472763 104.0
95.827034 156.0
95.967369 152.0
96.014168 180.0
96.098045 140.0
96.242485 160.0
96.318649 236.0
96.42807 76.0
96.658829 260.0
97.029022 172.0
97.154533 164.0
97.352776 168.0
97.477272 128.0
97.616104 132.0
98.374664 124.0
98.40033 104.0
98.625526 120.0
98.698677 156.0
99.007332 1100.0
99.031151 148.0
99.066803 144.0
99.11039 100.0
99.189667 124.0
99.31459 100.0
99.35228 140.0
99.53289 160.0
99.80909 176.0
99.984146 232.0
100.011696 248.0
100.304825 52.0
100.735847 240.0
100.787796 148.0
100.819771 144.0
100.891724 148.0
100.913719 140.0
101.011711 268.0
101.079735 184.0
101.293961 108.0
101.538498 56.0
101.833527 196.0
101.901833 160.0
101.970154 220.0
101.998291 200.0
102.225563 152.0
102.314125 40.0
102.822083 124.0
103.268593 176.0
103.47905 128.0
103.515503 224.0
103.581032 56.0
103.643112 220.0
103.754585 124.0
103.837723 136.0
103.980705 152.0
103.999153 164.0
104.040642 208.0
104.278305 124.0
104.508095 96.0
104.683151 128.0
104.727959 128.0
104.760551 196.0
105.03167 180.0
105.086746 188.0
105.164299 192.0
105.227577 100.0
105.278625 168.0
105.542236 184.0
105.619949 144.0
105.656769 128.0
106.013046 52.0
106.427406 164.0
106.99894 188.0
107.048622 860.0
107.56797 116.0
107.702194 164.0
107.724915 216.0
107.879906 76.0
108.049484 172.0
108.130188 200.0
108.188148 220.0
108.2192 128.0
108.293755 112.0
108.768578 232.0
109.028412 880.0
109.05938 140.0
109.658821 128.0
109.698425 96.0
109.948715 64.0
110.032211 184.0
110.213921 140.0
110.358147 172.0
110.460625 188.0
110.690842 128.0
110.739014 208.0
110.845856 140.0
110.900345 212.0
110.930779 200.0
110.989685 156.0
111.00679 212.0
111.034531 156.0
111.208672 136.0
111.326241 148.0
111.460686 120.0
111.670914 148.0
111.795036 244.0
112.237404 152.0
112.425148 200.0
112.653183 108.0
112.801109 176.0
112.82225 112.0
113.157501 172.0
113.374695 176.0
113.796822 120.0
114.349815 144.0
114.451706 124.0
114.473 172.0
114.496422 152.0
114.57737 180.0
114.607193 144.0
114.647682 168.0
114.737206 156.0
114.762794 120.0
114.811836 256.0
115.065765 168.0
115.144768 108.0
115.212044 144.0
115.578873 180.0
116.026375 140.0
116.148605 228.0
116.303101 176.0
116.711281 48.0
116.997437 64.0
117.572952 220.0
117.732704 48.0
117.814789 60.0
118.041733 92.0
118.131363 136.0
118.245087 100.0
118.49411 76.0
118.674103 180.0
118.758583 144.0
118.778107 172.0
119.014664 184.0
119.042892 196.0
119.073296 128.0
119.205811 156.0
119.78019 164.0
120.022102 160.0
120.189758 144.0
120.445496 116.0
120.541626 124.0
120.600632 164.0
120.626862 172.0
121.030327 300.0
121.065781 632.0
121.489677 80.0
121.553307 212.0
121.667442 196.0
121.924438 108.0
121.985977 196.0
122.067329 208.0
122.210304 124.0
122.443642 152.0
122.467873 128.0
122.936317 168.0
122.979111 176.0
123.007111 5348.0
123.193604 36.0
123.651314 152.0
124.010582 356.0
124.041145 140.0
124.129829 116.0
124.368782 272.0
124.858971 156.0
125.007286 156.0
125.025085 152.0
125.06633 188.0
125.125252 48.0
125.265556 216.0
125.428223 68.0
126.109009 160.0
126.281166 112.0
126.341568 116.0
126.377365 172.0
126.431068 212.0
126.527321 116.0
126.731133 64.0
126.79245 132.0
126.814049 184.0
126.984444 180.0
127.033791 216.0
127.103348 124.0
127.604225 220.0
128.034012 152.0
128.205231 168.0
128.518433 192.0
129.106003 196.0
129.286987 260.0
129.372986 428.0
129.511124 88.0
129.816177 148.0
130.009918 156.0
130.157471 156.0
130.521027 100.0
130.612 128.0
130.730316 144.0
131.110626 220.0
131.133423 172.0
131.5177 220.0
131.587372 216.0
131.681 204.0
132.037537 180.0
132.557205 136.0
132.664917 156.0
132.894272 168.0
133.069229 192.0
133.128403 48.0
133.174332 196.0
133.302994 176.0
133.5858 176.0
133.652512 108.0
133.829742 180.0
134.17305 160.0
134.288193 244.0
134.468307 208.0
134.717682 136.0
135.045731 236.0
135.147705 196.0
135.325928 148.0
135.413925 216.0
135.837723 120.0
136.081787 192.0
136.098038 224.0
136.290573 148.0
136.330338 216.0
136.676819 216.0
136.935226 88.0
136.953857 40.0
137.022369 4412.0
137.114609 60.0
137.142578 100.0
137.396759 204.0
137.44809 140.0
137.478424 28.0
137.527435 164.0
137.611481 140.0
137.716568 164.0
138.026352 672.0
138.20282 76.0
138.43222 192.0
138.479065 180.0
138.779022 156.0
139.027664 272.0
139.098083 108.0
139.384613 152.0
139.459808 136.0
139.530334 204.0
139.72789 44.0
139.805542 172.0
140.099869 224.0
140.481766 144.0
140.713043 136.0
140.831116 40.0
140.873642 192.0
140.956329 168.0
141.018829 828.0
141.775131 84.0
142.02066 176.0
142.066772 156.0
142.083374 240.0
142.275604 140.0
142.488327 168.0
142.536865 196.0
142.669968 220.0
142.738922 156.0
142.79837 96.0
142.857849 48.0
142.957779 108.0
143.107742 208.0
143.197235 308.0
143.379303 188.0
143.550949 140.0
143.794281 104.0
144.056931 336.0
144.57579 128.0
144.743362 160.0
144.834366 164.0
144.901443 136.0
145.025192 100.0
145.1651 116.0
145.280228 176.0
145.474609 140.0
146.437546 208.0
146.484604 156.0
146.646057 52.0
147.005692 524.0
147.044983 180.0
147.130905 208.0
148.003738 160.0
148.049744 156.0
148.090912 144.0
148.144211 176.0
148.370667 152.0
148.447174 156.0
148.466568 188.0
148.578156 128.0
148.995728 116.0
149.071045 92.0
149.164871 120.0
149.292267 104.0
149.353073 124.0
149.555023 168.0
149.674316 156.0
149.72789 32.0
150.030045 172.0
150.544876 56.0
150.715866 156.0
150.886963 164.0
151.035141 296.0
151.288177 204.0
151.699738 204.0
151.834595 236.0
151.851761 240.0
151.994049 112.0
152.129044 164.0
152.156052 148.0
153.08548 160.0
153.142136 216.0
153.349091 224.0
153.595673 148.0
153.645004 120.0
153.802933 144.0
153.839966 192.0
153.941193 172.0
154.012817 172.0
154.086929 184.0
154.311844 108.0
154.356339 160.0
154.90332 100.0
155.036057 244.0
155.14122 176.0
155.190796 104.0
155.257751 152.0
155.612595 160.0
155.667221 104.0
155.724335 124.0
156.272003 220.0
157.006485 124.0
157.055969 100.0
157.307999 152.0
157.32547 192.0
157.512756 176.0
157.909637 164.0
157.952698 184.0
158.0728 168.0
158.167892 176.0
158.438354 132.0
158.922241 64.0
158.952347 144.0
159.010071 180.0
160.096146 212.0
160.11377 160.0
160.171707 128.0
160.453949 88.0
160.557327 156.0
160.653183 120.0
160.711212 152.0
161.312286 144.0
161.471588 148.0
161.689163 148.0
161.815735 60.0
162.00061 172.0
162.023407 224.0
162.20079 204.0
162.248962 132.0
162.355453 244.0
162.494965 152.0
162.70816 104.0
162.75386 180.0
162.891006 120.0
162.931656 128.0
163.042038 352.0
163.071411 152.0
163.175629 212.0
163.343475 196.0
163.381943 164.0
163.58522 212.0
163.661606 212.0
163.735458 112.0
163.763474 164.0
163.794037 124.0
163.893387 124.0
163.911224 72.0
163.972397 168.0
163.995331 152.0
164.064163 168.0
164.097305 148.0
164.120255 120.0
164.14064 144.0
164.306442 148.0
164.329391 128.0
164.395737 140.0
164.428925 212.0
164.501801 152.0
164.537338 176.0
164.569977 184.0
164.59938 224.0
164.61586 160.0
164.643402 156.0
164.682938 180.0
164.709778 112.0
164.74939 188.0
164.775848 144.0
164.829269 176.0
164.864777 168.0
164.91452 284.0
164.951889 144.0
164.971222 324.0
165.017944 112820.0
165.072769 216.0
165.111633 128.0
165.144623 32.0
165.167755 48.0
165.189316 208.0
165.218063 96.0
165.253525 52.0
165.300369 72.0
165.326141 68.0
165.360077 144.0
165.379288 88.0
165.4095 188.0
165.439087 760.0
165.465378 168.0
165.556366 64.0
165.616745 224.0
165.639801 120.0
165.669067 56.0
165.712616 40.0
165.738235 136.0
165.759323 52.0
165.783401 112.0
165.815109 48.0
165.876633 128.0
165.894577 96.0
165.930466 48.0
165.961227 132.0
166.020447 11752.0
166.056122 40.0
166.082443 196.0
166.145966 96.0
166.197205 52.0
166.231537 128.0
166.297302 60.0
166.326233 44.0
166.387146 56.0
166.407684 88.0
166.444824 120.0
166.493179 136.0
166.59259 48.0
166.656815 88.0
166.679947 44.0
166.701675 96.0
166.759613 44.0
166.808456 56.0
166.831039 76.0
166.924149 140.0
166.950592 56.0
166.970703 280.0
167.022659 1024.0
167.077408 136.0
167.113922 72.0
167.121887 32.0
167.153091 144.0
167.207138 256.0
167.250595 164.0
167.31752 136.0
167.338806 208.0
167.379608 96.0
167.403809 152.0
167.432663 140.0
167.4646 40.0
167.498566 108.0
167.536728 68.0
167.6604 72.0
167.789291 96.0
167.840851 48.0
167.905319 48.0
168.01268 304.0
168.027664 328.0
168.336304 108.0
168.475769 52.0
168.796265 92.0
169.058868 184.0
169.112701 64.0
169.194717 60.0
169.521088 68.0
169.731049 80.0
169.814041 36.0
170.03717 72.0
170.179947 104.0
170.816666 40.0
171.433731 84.0
173.011353 140.0
173.27063 88.0
174.070633 100.0
174.8172 180.0
174.914581 120.0
175.054123 204.0
175.122589 40.0
175.504715 92.0
175.707809 52.0
176.293991 188.0
176.338913 108.0
176.812332 40.0
177.047958 176.0
178.488907 100.0
178.574005 128.0
179.03183 416.0
179.356812 104.0
179.396805 88.0
179.530121 60.0
179.596802 60.0
180.043793 176.0
180.408569 96.0
181.492905 36.0
181.589447 72.0
183.02594 3900.0
183.097198 88.0
183.131989 48.0
183.177994 80.0
183.285767 80.0
184.029083 160.0
185.049545 156.0
185.160568 100.0
185.434204 116.0
189.113922 108.0
189.881073 164.0
189.903015 164.0
190.397034 84.0
190.696503 96.0
190.800964 100.0
191.033752 1028.0
191.634888 112.0
192.035065 148.0
195.138916 160.0
197.00618 172.0
197.05481 216.0
198.055176 180.0
198.722382 180.0
200.155884 200.0
201.052475 148.0
201.151108 36.0
205.267899 80.0
208.014542 212.0
208.807571 116.0
211.725388 220.0
212.629929 140.0
213.658569 128.0
214.64888 20.0
216.527969 132.0
216.823868 72.0
216.982162 124.0
218.329941 100.0
218.980362 124.0
221.076843 180.0
221.476196 172.0
223.170746 220.0
223.768784 184.0
225.050476 148.0
231.101456 84.0
232.938675 132.0
235.021088 64.0
239.07106 168.0
240.070282 136.0
240.230667 112.0
243.062469 984.0
243.098862 148.0
243.325455 64.0
244.069519 296.0
244.768158 48.0
250.963013 116.0
251.568756 124.0
253.235168 140.0
256.476105 76.0
258.603363 68.0
258.766602 72.0
260.164429 48.0
266.715698 156.0
266.777435 188.0
267.073364 168.0
268.059814 144.0
270.509399 72.0
271.128448 192.0
272.496796 84.0
275.082031 68.0
277.825439 64.0
283.075043 104.0
284.006744 148.0
285.034058 168.0
285.07309 3080.0
285.18866 64.0
285.524872 116.0
286.077362 488.0
286.730164 180.0
286.763855 132.0
287.079895 176.0
287.833282 60.0
287.978485 128.0
289.026489 116.0
290.157745 76.0
291.549469 64.0
294.568268 56.0
304.940125 108.0
304.999207 128.0
307.929504 68.0
310.891327 68.0
313.028687 160.0
321.412201 64.0
323.016357 128.0
341.04306 160.0
341.351898 132.0
344.392365 76.0
344.602936 72.0
356.001587 124.0
370.997375 128.0
380.006775 84.0
383.015747 148.0
389.442352 48.0
389.662323 64.0
397.9646 60.0
443.764648 116.0
464.135254 60.0
490.329468 56.0
502.796509 100.0
516.509644 68.0
527.957764 76.0
563.669067 92.0
577.532471 108.0
601.466248 108.0
617.0047 68.0
665.650818 108.0
741.031799 124.0
781.70105 40.0
830.645874 32.0
847.06897 32.0
855.43103 128.0
861.057739 140.0
875.785339 68.0
887.723755 168.0
896.533936 188.0
900.047546 144.0
907.311096 88.0
943.705933 76.0
972.952637 168.0
993.234863 168.0
1001.261169 60.0
1023.329712 60.0
1029.872681 188.0
1030.038696 204.0
1033.734131 144.0
1037.410645 192.0
1041.022949 140.0
1043.400269 152.0
1045.130493 84.0
1047.396606 204.0
1060.908813 120.0
1068.175537 148.0
1075.134155 148.0
1083.968994 168.0
1095.354858 104.0
1114.67395 144.0
1114.766968 152.0
1115.577881 176.0
1118.75769 140.0
1127.007812 180.0
1127.589233 156.0
1137.703857 132.0
1141.950562 204.0
1147.843262 76.0
1148.726807 136.0
1152.717041 144.0
1159.674194 68.0
1164.85144 156.0
1167.774292 84.0
1169.618164 20.0
1169.99939 196.0
1170.401123 108.0
1174.919922 248.0
1175.13147 172.0
1179.67981 196.0
1179.898682 220.0
1180.247314 256.0
1182.210571 140.0
1182.847046 48.0
1190.745972 176.0
1191.04126 128.0
1191.597778 48.0
1194.602051 156.0
1197.134888 184.0
1198.147461 244.0
1198.326538 76.0
1200.456421 176.0
1204.984497 180.0
1205.49585 148.0
1206.290649 176.0
1206.546387 144.0
1211.792603 176.0
1212.513184 140.0
1215.002563 124.0
1216.952759 144.0
1220.86499 216.0
1225.459229 180.0
1225.556763 140.0
1238.465332 92.0
1246.991821 204.0
1249.952515 196.0
1251.796753 32.0
1252.627808 256.0
1255.31311 168.0
1265.459961 120.0
1266.699341 160.0
1267.19519 172.0
1279.823853 156.0
1281.440674 224.0
1289.940308 120.0
1306.124756 188.0
1314.561401 164.0
1315.232666 156.0
1315.290405 52.0
1315.51416 104.0
1320.485474 144.0
1324.321533 140.0
1326.343018 152.0
1327.52478 152.0
1328.416992 176.0
1328.663574 92.0
1330.67395 224.0
1331.058838 220.0
1332.235474 96.0
1334.932007 120.0
1337.296387 164.0
1339.713989 140.0
1340.479004 112.0
1343.614258 88.0
1356.741821 192.0
1360.395142 152.0
1361.25415 32.0
1361.628662 184.0
1364.09021 224.0
1364.332764 60.0
1366.811401 72.0
1370.618286 72.0
1371.384766 132.0
1374.541138 136.0
1384.898682 200.0
1385.180176 192.0
1388.307983 120.0
1388.812256 140.0
1390.103149 208.0
1390.541016 236.0
1392.73877 140.0
1394.105835 136.0
1394.195068 172.0
1394.313965 112.0
1395.704102 260.0
1395.964355 204.0
1396.016357 256.0
1397.13208 176.0
1398.820557 108.0
1401.644043 188.0
1402.328857 196.0
1403.29126 188.0
1411.056152 172.0
1411.714111 180.0
1412.93335 164.0
1415.583008 108.0
1416.878784 252.0
1417.830444 56.0
1418.902344 184.0
1419.592163 124.0
1419.794678 116.0
1422.615845 120.0
1424.816284 168.0
1427.830566 200.0
1431.224365 212.0
1431.77417 232.0
1431.894653 132.0
1432.655396 144.0
1434.365967 148.0
1437.963867 152.0
1442.760498 184.0
1444.325806 156.0
1448.201172 92.0
1448.441162 176.0
1449.511841 232.0
1449.633057 148.0
1449.784668 188.0
1450.133301 224.0
1452.688599 52.0
1453.986084 268.0
1456.317017 232.0
1459.752075 184.0
1460.337769 152.0
1460.908203 172.0
1462.71936 172.0
1465.460938 152.0
1467.091919 144.0
1468.967896 176.0
1469.547729 208.0
1473.77002 216.0
1474.121582 88.0
1474.76355 124.0
1475.593628 280.0
1477.21814 136.0
1477.891357 104.0
1480.287231 52.0
1480.516968 204.0
1483.919189 128.0
1485.537354 208.0
1485.706177 212.0
1486.358276 160.0
1489.506104 196.0
1492.134277 228.0
1492.903198 104.0
1495.342041 128.0
1496.304199 120.0
1497.081909 112.0
1498.106323 136.0
1500.379761 168.0
1501.220215 72.0
1501.312744 152.0
1501.690674 156.0
1502.184326 136.0
1502.338623 180.0
1504.175171 152.0
