>compound MLS001141250-01!3-(4-chlorophenyl)-2-[[2-[(6-methyl-4-oxo-2,3-dihydro-1H-cyclopenta[c]chromen-7-yl)oxy]acetyl]amino]propanoic acid
>formula C24H22ClNO6
>ionization [M+H]+
>parentmass 456.119781
#inchi InChI=1S/C24H22ClNO6/c1-13-20(10-9-17-16-3-2-4-18(16)24(30)32-22(13)17)31-12-21(27)26-19(23(28)29)11-14-5-7-15(25)8-6-14/h5-10,19H,2-4,11-12H2,1H3,(H,26,27)(H,28,29)
#inchikey RVIRQPJKWQYQAZ
#Ion_Source LC-ESI
#Instrument qTof
#Compound_Source NIH Natural Product Library
#PI Dorrestein
#Data_Collector VVP/LMS
#Scan -1
#Precursor_MZ 456.121
#ExactMass 455.114
#Charge 1
#CAS_Number N/A
#Pubmed_ID N/A
#Smiles Cc1c(OCC(=O)NC(Cc2ccc(Cl)cc2)C(=O)O)ccc3c4CCCc4c(=O)oc13
#INCHI_AUX N/A
#Library_Class 1
#SpectrumID CCMSLIB00000079585
#IonMode Positive
#UpdateWorkflowName UPDATE-SINGLE-ANNOTATED-GOLD
#LibraryQualityString Gold
#TaskID b1d8e8f6646f4e71acdff9ca3d919d08
##Scan# 1994
#SpectrumFile p1-D08_GD8_01_17916.mzXML
#LibraryName NIH_Natural_Products_Library.mgf
#MQScore -1
#Organism NIH_Natural_Products_Library
#TIC_Query 0
#RT_Query -1
#MZErrorPPM -1
#SharedPeaks 0
#MassDiff 0
#LibMZ -1
#SpecMZ 456.121
#SpecCharge 0
#internalFilename spec-00000.mgf

>collision 10
95.621925 136.0
96.626846 140.0
96.650322 168.0
97.324585 188.0
97.578033 128.0
97.719635 140.0
99.006615 76.0
99.399117 140.0
101.449409 224.0
101.898941 56.0
102.045654 148.0
102.168335 176.0
103.055077 388.0
103.389053 156.0
104.053894 272.0
104.374908 124.0
105.073273 276.0
105.506462 164.0
105.569847 176.0
105.723267 148.0
107.030861 144.0
107.047333 240.0
107.185341 136.0
108.520569 204.0
110.053986 184.0
111.478348 176.0
112.301498 216.0
113.014572 188.0
113.392448 160.0
114.120544 192.0
114.252403 164.0
114.346031 220.0
114.418404 188.0
114.932045 120.0
115.054184 456.0
116.039948 204.0
117.069824 132.0
118.064255 344.0
119.071945 128.0
119.245544 136.0
119.421654 116.0
119.776436 224.0
121.170151 96.0
122.602776 192.0
123.039505 168.0
123.063789 172.0
123.308983 176.0
123.49028 188.0
124.403183 200.0
125.014465 488.0
125.337265 72.0
125.756516 172.0
126.460548 224.0
127.053215 324.0
127.847496 176.0
128.062759 1848.0
128.160492 172.0
128.600235 152.0
128.627319 52.0
129.060898 156.0
129.531799 176.0
129.744812 160.0
130.065109 1476.0
130.407623 236.0
131.072083 1308.0
131.270432 108.0
131.868546 124.0
132.046875 128.0
132.07785 132.0
132.129227 156.0
133.066574 204.0
133.834488 176.0
134.1409 68.0
134.710861 64.0
135.168625 156.0
135.198715 136.0
135.845139 184.0
136.084167 176.0
136.593109 208.0
136.923615 212.0
137.011765 184.0
138.006348 180.0
139.031357 848.0
139.130905 92.0
140.035507 176.0
140.130417 52.0
140.33075 56.0
141.027191 468.0
141.068649 152.0
141.564163 180.0
142.073853 172.0
142.156784 176.0
143.005203 160.0
143.087158 644.0
144.059113 140.0
144.094269 196.0
144.386566 196.0
145.023422 52.0
145.064697 576.0
145.103836 652.0
145.628036 168.0
145.813034 72.0
145.94043 208.0
146.036621 104.0
146.070297 168.0
147.08046 404.0
147.164398 132.0
149.613052 172.0
150.419922 196.0
150.463867 108.0
150.686111 92.0
151.029221 844.0
151.052811 148.0
151.763 192.0
152.033829 204.0
152.197296 100.0
152.391327 212.0
153.028091 208.0
153.070618 372.0
154.0168 184.0
154.041763 1188.0
154.081436 144.0
154.39534 76.0
154.915115 56.0
155.044907 124.0
155.088898 324.0
155.38562 176.0
155.430786 52.0
155.927444 76.0
155.96225 56.0
156.037369 332.0
156.081573 156.0
156.245728 92.0
156.517014 100.0
157.06279 168.0
158.069504 324.0
159.082413 224.0
160.055084 136.0
160.606979 200.0
161.058517 344.0
161.10025 164.0
161.298828 248.0
162.118835 176.0
162.448441 72.0
162.803772 148.0
163.210342 124.0
163.737091 208.0
164.028015 196.0
164.188171 84.0
164.88002 144.0
165.019897 172.0
165.399216 156.0
165.678329 76.0
165.870514 72.0
166.011292 172.0
166.041794 3872.0
166.532501 48.0
166.825424 100.0
167.005417 220.0
167.046494 504.0
167.080017 184.0
167.566589 168.0
168.039642 620.0
168.079666 32.0
168.252594 240.0
168.317139 52.0
169.046082 152.0
169.268692 124.0
170.069763 168.0
170.474915 64.0
170.558075 68.0
171.080276 1716.0
171.674973 144.0
172.083496 508.0
172.921112 124.0
173.094879 504.0
173.319153 68.0
173.42659 112.0
174.100845 180.0
176.924759 80.0
177.202835 40.0
177.9534 204.0
179.443298 176.0
179.515289 44.0
181.009018 188.0
181.073288 72.0
182.011856 168.0
183.012543 192.0
183.078903 192.0
184.051163 164.0
184.090652 236.0
185.020767 148.0
185.096405 272.0
185.9505 72.0
186.034637 112.0
186.067215 244.0
186.09436 192.0
187.072113 208.0
187.56337 176.0
188.08345 416.0
189.089981 236.0
189.380371 140.0
190.112366 88.0
190.351181 136.0
192.148483 160.0
192.974274 96.0
194.295319 108.0
195.045319 272.0
197.045914 360.0
198.153809 88.0
199.082428 344.0
200.050873 144.0
200.336655 96.0
200.454987 124.0
200.553619 144.0
200.858139 196.0
201.02742 196.0
201.090897 5840.0
201.285416 80.0
201.379333 128.0
201.600662 40.0
201.784393 76.0
202.09259 1008.0
202.69577 60.0
203.104004 152.0
204.1008 156.0
204.524689 52.0
205.479309 132.0
205.621979 244.0
212.04657 152.0
213.05397 108.0
213.501572 168.0
214.037003 196.0
215.071335 436.0
215.872406 136.0
215.933823 128.0
216.07692 1536.0
216.375671 116.0
216.437149 60.0
216.838486 40.0
217.014359 136.0
217.084976 2312.0
217.16098 68.0
217.254852 68.0
217.460251 92.0
217.565918 60.0
217.771454 92.0
218.090805 676.0
218.365143 116.0
218.906631 76.0
219.103973 140.0
219.316132 72.0
219.549042 104.0
219.717163 88.0
227.26239 92.0
228.810211 220.0
229.049973 148.0
229.08519 3268.0
229.539337 32.0
230.09024 992.0
231.096588 156.0
232.079224 168.0
233.822861 236.0
238.815994 132.0
241.128326 180.0
241.350891 180.0
244.574127 112.0
257.081238 260.0
257.141235 40.0
258.083344 148.0
258.582611 48.0
261.223297 48.0
263.441101 76.0
267.172363 64.0
274.102875 272.0
275.086273 192.0
281.604492 68.0
285.098755 192.0
323.062439 140.0
353.090149 364.0
354.097992 140.0
354.559448 124.0
355.099304 168.0
362.41626 88.0
392.091248 176.0
410.119202 416.0
411.135162 136.0
412.112335 104.0
413.135162 108.0
414.463104 48.0
415.432068 40.0
428.316772 100.0
456.119781 184.0
457.112183 148.0
458.133331 84.0
459.271423 136.0
487.137146 40.0
511.532715 88.0
522.580627 108.0
547.943359 20.0
575.768005 84.0
593.505676 120.0
652.403687 144.0
684.411743 100.0
710.114929 96.0
727.311462 80.0
809.360718 52.0
893.39502 76.0
919.990967 60.0
941.674377 176.0
955.164856 56.0
980.363586 168.0
1000.311829 196.0
1057.818359 176.0
1059.288208 160.0
1104.508301 180.0
1108.7854 204.0
1117.550537 216.0
1177.195068 208.0
1185.930664 208.0
1233.687866 152.0
1263.20166 128.0
1290.911011 100.0
1292.05542 188.0
1296.752686 60.0
1315.699341 244.0
1340.220581 220.0
1348.832031 152.0
1351.80127 176.0
1359.63501 152.0
1370.142334 84.0
1399.947632 112.0
1400.461426 148.0
1427.07959 164.0
1443.834717 108.0
1448.898438 144.0
1472.280029 208.0
1476.682007 160.0
1483.489014 168.0
1485.866333 180.0
1490.757324 136.0
1499.815552 216.0
