>compound MLS002154193-01!Trimethobenzamide hydrochloride554-92-7
>formula C21H28N2O5
>ionization [M+H]+
>parentmass 389.2070984480905
#inchi InChI=1S/C21H28N2O5/c1-23(2)10-11-28-17-8-6-15(7-9-17)14-22-21(24)16-12-18(25-3)20(27-5)19(13-16)26-4/h6-9,12-13H,10-11,14H2,1-5H3,(H,22,24)
#inchikey FEZBIKUBAYAZIU
#origInchi InChI=1S/C21H28N2O5.ClH/c1-23(2)10-11-28-17-8-6-15(7-9-17)14-22-21(24)16-12-18(25-3)20(27-5)19(13-16)26-4;/h6-9,12-13H,10-11,14H2,1-5H3,(H,22,24);1H
#Ion_Source LC-ESI
#Instrument qTof
#Compound_Source NIH Pharmacologically Active Library
#PI Dorrestein
#Data_Collector VP/LMS
#Scan -1
#Precursor_MZ 389.211
#ExactMass 388.2
#Charge 1
#CAS_Number N/A
#Pubmed_ID N/A
#Smiles COc1cc(cc(OC)c1OC)C(=O)NCc2ccc(OCCN(C)C)cc2.Cl
#INCHI_AUX N/A
#Library_Class 1
#SpectrumID CCMSLIB00000086005
#IonMode Positive
#UpdateWorkflowName UPDATE-SINGLE-ANNOTATED-GOLD
#LibraryQualityString Gold
#TaskID d252d724072548979f1f6f1ced849daf
##Scan# 883
#SpectrumFile p5-A04_GA4_01_18427.mzXML
#LibraryName Pharm_Active_Library.mgf
#MQScore -1
#Organism Pharm_Active_Library
#TIC_Query 0
#RT_Query -1
#MZErrorPPM -1
#SharedPeaks 0
#MassDiff 0
#LibMZ -1
#SpecMZ 389.211
#SpecCharge 0
#internalFilename spec-00000.mgf

>collision 10
44.889378 232.0
45.204636 84.0
45.248806 220.0
45.93932 168.0
46.785217 172.0
46.82198 240.0
46.866932 164.0
47.256065 280.0
47.424503 200.0
47.479347 176.0
47.567158 192.0
47.866875 128.0
48.965076 156.0
49.506943 92.0
49.606422 172.0
49.672329 48.0
49.826752 180.0
49.980007 96.0
50.298512 256.0
50.398781 188.0
50.455318 184.0
50.53735 132.0
51.026669 180.0
51.231606 188.0
51.412689 180.0
51.488354 264.0
52.852592 168.0
53.294834 128.0
53.784157 144.0
54.472378 208.0
54.824024 160.0
54.913956 52.0
55.061546 192.0
55.661308 204.0
55.986977 200.0
56.270287 92.0
56.310608 144.0
56.840561 204.0
56.929127 168.0
57.116997 100.0
57.46801 160.0
58.623474 164.0
58.792747 52.0
58.818695 152.0
59.30817 152.0
59.49992 72.0
60.24221 220.0
60.279293 224.0
60.339573 184.0
60.529888 192.0
60.635231 44.0
61.085514 236.0
61.475025 136.0
61.493752 108.0
61.915878 132.0
62.79916 252.0
63.414207 188.0
64.402275 68.0
65.036339 232.0
65.052391 176.0
65.428566 208.0
65.447891 160.0
65.668671 192.0
65.812294 124.0
66.127525 132.0
67.337021 228.0
67.382904 208.0
67.440102 148.0
67.749374 148.0
67.96743 52.0
69.203644 112.0
69.243385 224.0
69.399155 172.0
70.437637 116.0
70.472717 180.0
71.478783 160.0
71.562943 156.0
71.967598 180.0
72.27523 204.0
73.123734 128.0
73.232697 212.0
73.490112 100.0
73.577156 124.0
73.636925 120.0
73.780457 44.0
74.019997 180.0
75.416962 40.0
75.579521 168.0
75.692032 60.0
75.865295 208.0
76.18634 212.0
76.261063 28.0
76.337555 212.0
76.480217 196.0
76.821754 256.0
76.893295 152.0
76.950897 128.0
78.096977 140.0
78.657303 136.0
79.689774 220.0
79.707542 120.0
80.975945 96.0
81.017143 140.0
81.15873 188.0
81.399178 152.0
81.618401 176.0
81.681343 188.0
81.906624 132.0
82.203186 56.0
82.346451 176.0
82.375351 264.0
82.785919 176.0
82.867432 168.0
83.121277 164.0
83.246529 152.0
83.346436 204.0
83.426407 188.0
83.752129 236.0
83.919785 216.0
83.954437 100.0
83.970848 204.0
84.599419 100.0
84.973282 216.0
85.357162 188.0
85.458328 224.0
85.697685 136.0
85.824867 108.0
86.033348 180.0
86.367813 48.0
87.00528 200.0
87.060982 64.0
87.743866 188.0
88.648537 188.0
88.9505 196.0
89.742523 228.0
89.833054 196.0
90.292038 212.0
90.356354 244.0
91.033028 176.0
91.055817 160.0
91.468407 152.0
92.057541 148.0
92.79422 196.0
93.254669 144.0
93.491493 188.0
93.647438 176.0
93.818932 232.0
94.986946 164.0
95.045151 68.0
95.408348 132.0
95.536697 360.0
95.622314 252.0
95.803406 168.0
95.930069 140.0
96.055511 336.0
96.156334 104.0
96.730988 144.0
97.031113 220.0
97.062088 128.0
97.928749 180.0
97.995728 192.0
98.641068 76.0
99.604103 92.0
100.272636 104.0
101.766953 184.0
102.084435 176.0
102.801582 168.0
103.051971 116.0
103.264229 192.0
103.654945 172.0
103.733986 136.0
104.412155 172.0
105.017052 148.0
105.07135 428.0
106.037285 144.0
106.068085 168.0
106.764053 156.0
106.889542 196.0
107.010979 192.0
107.050987 1076.0
107.083054 52.0
107.472672 124.0
107.497437 156.0
107.984985 116.0
108.056885 164.0
108.666512 172.0
109.0299 132.0
109.063797 708.0
109.468849 204.0
109.960846 280.0
110.065224 428.0
110.167564 120.0
111.039368 160.0
111.081299 504.0
111.53804 168.0
111.744606 140.0
112.053619 120.0
112.171638 124.0
112.838737 52.0
113.064354 228.0
113.143394 156.0
113.414543 156.0
113.478134 188.0
113.987556 36.0
114.63446 140.0
114.758087 136.0
114.851921 172.0
114.928719 64.0
115.826622 164.0
116.418579 164.0
116.656593 196.0
117.333244 180.0
118.346352 152.0
118.430809 76.0
118.461136 204.0
118.667023 140.0
119.181427 212.0
120.04641 172.0
120.067406 40.0
120.252853 76.0
120.403496 116.0
120.611061 76.0
121.028557 416.0
121.063438 756.0
121.125275 180.0
121.403625 236.0
121.561569 36.0
122.034149 812.0
122.080002 40.0
122.130592 152.0
122.471756 76.0
123.039932 152.0
123.087059 216.0
123.135643 68.0
124.00071 136.0
124.052841 1468.0
124.142593 60.0
124.21357 52.0
124.38221 124.0
125.058121 192.0
125.954277 212.0
126.647675 188.0
126.71936 252.0
126.811241 164.0
127.677856 172.0
128.046616 484.0
129.008179 44.0
129.051132 132.0
130.563629 68.0
130.618225 172.0
130.768387 172.0
130.7957 212.0
130.891327 296.0
131.166992 348.0
132.453476 120.0
132.558868 68.0
132.891342 196.0
133.031342 168.0
133.065186 4020.0
133.169113 148.0
133.21965 76.0
133.396591 84.0
133.497757 96.0
133.57135 44.0
133.849823 40.0
134.011063 148.0
134.041016 176.0
134.066315 516.0
134.091721 92.0
134.472275 40.0
135.045013 180.0
135.06752 192.0
135.073486 120.0
135.080994 216.0
135.237305 112.0
136.929886 216.0
137.022537 584.0
137.065689 244.0
137.118942 188.0
138.026703 132.0
138.065384 216.0
138.209152 116.0
138.319138 144.0
138.490082 176.0
138.797073 124.0
139.037872 180.0
139.075867 2384.0
139.844833 160.0
140.078751 448.0
140.705246 160.0
141.019531 388.0
141.075394 176.0
142.498108 152.0
142.638321 196.0
142.764343 200.0
143.071335 188.0
143.483429 120.0
143.597885 184.0
144.907867 148.0
145.601105 88.0
145.77887 64.0
146.327286 52.0
146.722397 104.0
146.82608 84.0
147.415131 196.0
147.627853 120.0
147.80687 144.0
148.03714 372.0
148.078003 200.0
148.109482 156.0
148.701096 148.0
149.025116 160.0
149.043503 320.0
149.084824 156.0
149.573685 72.0
149.861053 144.0
150.095215 176.0
150.229187 60.0
150.976593 48.0
150.996155 180.0
151.037949 468.0
151.995651 148.0
152.015289 204.0
152.047699 3852.0
152.086456 168.0
152.15239 196.0
152.201843 76.0
152.295166 76.0
152.422913 48.0
152.590057 80.0
152.76712 60.0
153.051102 580.0
153.149078 136.0
154.061966 768.0
154.236801 76.0
154.27388 52.0
154.437088 80.0
154.484085 124.0
154.781082 116.0
154.979233 236.0
155.031265 240.0
155.063492 164.0
155.173798 96.0
156.037338 520.0
156.106171 120.0
156.474426 164.0
157.057556 72.0
157.511841 72.0
157.569305 164.0
158.299667 160.0
159.924011 152.0
160.551346 260.0
160.743057 48.0
161.1698 168.0
161.523743 140.0
162.042709 264.0
162.248001 100.0
163.479889 212.0
163.831268 156.0
164.098465 180.0
164.542801 140.0
164.629608 172.0
165.064026 164.0
165.409424 140.0
165.870499 136.0
165.973053 100.0
166.019196 212.0
166.042282 180.0
166.121643 5548.0
166.306549 56.0
166.342484 88.0
166.378418 72.0
166.452881 80.0
166.527359 148.0
166.753448 72.0
166.809998 40.0
166.833145 116.0
166.881989 84.0
167.071167 2060.0
167.127289 844.0
167.193237 72.0
167.394531 252.0
167.705765 100.0
167.824356 176.0
167.881073 40.0
168.038422 172.0
168.082306 240.0
168.195847 80.0
168.231979 96.0
168.332672 120.0
168.469559 160.0
168.495407 76.0
168.6763 192.0
169.041702 196.0
169.088837 348.0
169.198853 92.0
170.054718 168.0
170.462006 164.0
171.083633 128.0
171.297165 76.0
171.94902 184.0
172.069092 52.0
172.5289 40.0
172.834915 144.0
175.954758 232.0
176.102631 184.0
176.588959 140.0
177.03093 92.0
177.380661 108.0
177.478745 132.0
178.078491 164.0
178.12468 164.0
178.447098 152.0
178.96138 176.0
179.03627 156.0
179.126495 148.0
180.045898 328.0
180.311172 112.0
180.37532 160.0
181.047745 372.0
182.807495 124.0
184.034668 156.0
184.188339 96.0
184.27861 212.0
184.991455 196.0
185.037476 184.0
185.08345 368.0
185.216202 56.0
185.533264 68.0
185.866867 40.0
185.96846 164.0
186.04599 140.0
186.953827 256.0
187.185211 144.0
187.520294 64.0
187.539383 164.0
187.743851 68.0
191.041656 152.0
191.22052 136.0
192.041565 112.0
192.259521 184.0
192.427902 176.0
192.485886 112.0
192.867508 180.0
193.06897 84.0
193.262604 184.0
193.600311 176.0
194.081207 352.0
194.257202 92.0
194.452545 100.0
194.606308 308.0
194.629089 144.0
194.74295 136.0
194.776291 144.0
194.850128 152.0
194.924454 204.0
194.954102 168.0
195.008057 188.0
195.065704 31312.0
195.135239 52.0
195.180527 132.0
195.220978 48.0
195.298843 80.0
195.400467 144.0
195.436096 60.0
195.499161 108.0
195.533386 76.0
195.610489 52.0
195.690186 96.0
195.698654 60.0
195.801895 108.0
195.85553 28.0
195.875031 136.0
195.925171 80.0
195.966461 92.0
196.029663 96.0
196.068604 4616.0
196.115799 156.0
196.404648 72.0
196.47438 108.0
196.621811 144.0
196.753464 76.0
196.901459 68.0
197.024353 80.0
197.068634 396.0
197.095169 220.0
197.189224 72.0
197.239532 136.0
197.285675 164.0
197.384903 32.0
197.48558 52.0
197.516357 136.0
197.729004 96.0
198.017365 84.0
198.05098 80.0
198.076187 116.0
198.12941 52.0
198.154633 128.0
198.196655 100.0
198.269516 84.0
199.611389 72.0
200.816727 104.0
201.169434 56.0
201.995758 260.0
202.096436 188.0
202.455933 44.0
203.104965 188.0
205.908508 36.0
206.112289 120.0
207.126968 104.0
208.397858 88.0
210.061874 172.0
210.515015 112.0
212.114975 304.0
214.597702 64.0
216.119431 84.0
227.072037 152.0
236.128128 176.0
245.152435 116.0
250.582718 52.0
251.124924 176.0
252.078339 200.0
254.088928 132.0
258.921326 184.0
261.058655 108.0
261.692566 88.0
273.115753 96.0
282.413239 40.0
282.898438 196.0
295.279968 40.0
303.143097 104.0
310.898956 112.0
321.337799 84.0
322.491241 40.0
322.920288 100.0
327.22644 104.0
331.1521 188.0
332.166626 100.0
340.9552 152.0
346.738403 92.0
350.212311 180.0
351.218689 32.0
355.825317 144.0
355.907928 72.0
359.185883 204.0
361.562439 108.0
385.575226 44.0
385.723755 80.0
387.046112 80.0
387.70813 100.0
389.197601 244.0
389.25766 132.0
391.1763 168.0
391.227478 36.0
393.202271 112.0
393.936676 116.0
427.447784 60.0
453.391846 48.0
467.317139 136.0
489.06427 44.0
510.140991 60.0
518.482239 40.0
532.94812 88.0
595.761536 36.0
636.423584 20.0
707.239746 44.0
752.388916 48.0
752.427124 80.0
760.726501 64.0
764.309875 80.0
768.464294 76.0
842.360352 20.0
867.306396 212.0
937.009583 196.0
943.154724 72.0
976.506348 116.0
988.565674 144.0
1022.054749 92.0
1027.049438 140.0
1034.212036 148.0
1059.441772 152.0
1067.034912 132.0
1073.161499 228.0
1100.826172 148.0
1113.993164 172.0
1127.853271 180.0
1135.271484 204.0
1150.072754 144.0
1161.867554 140.0
1162.75647 220.0
1163.360596 108.0
1164.57605 212.0
1168.134766 232.0
1174.759155 156.0
1176.833862 84.0
1179.607544 176.0
1179.764771 148.0
1186.686279 180.0
1191.559204 56.0
1191.909668 44.0
1214.595825 120.0
1231.62146 144.0
1238.308105 180.0
1242.359619 108.0
1258.328125 140.0
1267.608154 152.0
1269.692261 120.0
1277.164062 168.0
1297.86731 156.0
1304.508301 168.0
1305.932007 164.0
1312.831543 228.0
1313.271484 152.0
1315.847656 172.0
1316.865845 96.0
1319.496094 220.0
1321.390991 124.0
1329.071167 144.0
1330.275879 172.0
1330.907593 172.0
1333.137573 296.0
1339.139648 156.0
1339.773315 168.0
1340.399902 152.0
1348.800171 176.0
1351.001221 148.0
1355.005859 48.0
1369.712891 184.0
1385.862427 172.0
1389.465698 248.0
1397.273926 164.0
1397.973267 164.0
1400.504639 176.0
1410.084595 156.0
1411.826538 208.0
1415.53833 160.0
1415.620728 128.0
1423.37439 100.0
1434.916382 272.0
1457.729858 152.0
1458.656982 56.0
1465.910156 168.0
1467.198242 160.0
1467.976074 172.0
1471.172974 136.0
1471.814209 168.0
1473.463989 148.0
1490.427246 160.0
1491.318726 128.0
1495.964722 60.0
1501.581909 212.0
1501.88269 44.0
1502.43811 168.0
