>compound Paclitaxel (Taxol)
>formula C47H51NO14
>ionization [M+H]+
>parentmass 854.3382317640904
#inchi InChI=1S/C47H51NO14/c1-25-31(60-43(56)36(52)35(28-16-10-7-11-17-28)48-41(54)29-18-12-8-13-19-29)23-47(57)40(61-42(55)30-20-14-9-15-21-30)38-45(6,32(51)22-33-46(38,24-58-33)62-27(3)50)39(53)37(59-26(2)49)34(25)44(47,4)5/h7-21,31-33,35-38,40,51-52,57H,22-24H2,1-6H3,(H,48,54)/t31-,32+,33+,35-,36+,37+,38?,40-,45+,46-,47+/m0/s1
#inchikey RCINICONZNJXQF
#Ion_Source LC-ESI
#Instrument qTof
#Compound_Source Commercial
#PI Dorrestein
#Data_Collector Garg_Neha
#Scan -1
#Precursor_MZ 854.338
#ExactMass 853.331
#Charge 1
#CAS_Number 33069-62-4, 157069-30-2, 1203669-79-7
#Pubmed_ID N/A
#Smiles C1=CC=CC(=C1)C(=O)N[C@H]([C@H](C(O[C@H]2C[C@@]3(C(C(=C2C)[C@H](C(=O)[C@]4(C([C@]5([C@@H](C[C@H]4O)OC5)OC(C)=O)[C@@H]3OC(C6=CC=CC=C6)=O)C)OC(C)=O)(C)C)O)=O)O)C7=CC=CC=C7
#INCHI_AUX N/A
#Library_Class 1
#SpectrumID CCMSLIB00000078027
#IonMode Positive
#UpdateWorkflowName UPDATE-SINGLE-ANNOTATED-GOLD
#LibraryQualityString Gold
#TaskID 77f51c88eb8b467eb4a01dd2d0cb90d2
##Scan# 1875
#SpectrumFile Plate1_21_40_GG2_01_16489.mzXML
#LibraryName FDALibrary_2_04302014.mgf
#MQScore -1
#Organism FDALibrary_2_04302014
#TIC_Query 0
#RT_Query -1
#MZErrorPPM -1
#SharedPeaks 0
#MassDiff 0
#LibMZ -1
#SpecMZ 854.338
#SpecCharge 0
#internalFilename spec-00000.mgf

>collision 10
46.298431 172.0
46.404129 184.0
47.299202 164.0
48.461582 196.0
49.254581 156.0
50.576397 180.0
50.696785 164.0
51.375034 172.0
53.236225 228.0
53.291424 156.0
54.02771 176.0
54.498222 228.0
54.555672 156.0
56.443192 200.0
57.577824 224.0
58.871784 228.0
59.078133 160.0
60.340813 236.0
60.60239 188.0
62.058224 168.0
62.262226 140.0
62.479145 216.0
64.215347 168.0
65.009476 196.0
65.151794 216.0
65.533104 184.0
65.641106 208.0
67.467796 140.0
67.931259 140.0
68.793587 148.0
68.867897 172.0
68.965385 176.0
69.286423 200.0
69.55674 208.0
69.762726 204.0
71.193031 156.0
71.881569 144.0
72.763443 160.0
75.166702 152.0
75.810005 180.0
75.894943 160.0
76.543098 156.0
76.917946 156.0
79.739838 180.0
79.901657 180.0
82.621613 172.0
83.127144 156.0
84.020554 200.0
84.288956 192.0
84.497406 176.0
85.350311 148.0
85.597359 156.0
86.40535 148.0
86.425705 200.0
86.812866 244.0
87.009552 208.0
88.784134 156.0
88.87793 140.0
89.83371 144.0
91.102104 204.0
92.28759 192.0
92.496124 200.0
92.645493 152.0
93.069366 256.0
94.043503 164.0
95.557022 144.0
95.681587 188.0
97.169662 192.0
97.748581 192.0
97.762352 160.0
98.306274 200.0
99.004135 160.0
99.079407 240.0
99.1884 220.0
99.50383 152.0
99.638885 228.0
101.028481 148.0
101.176582 176.0
101.587418 144.0
103.057152 164.0
104.025253 168.0
104.508957 144.0
104.701515 196.0
104.879616 392.0
105.034218 2660.0
105.070755 348.0
106.036423 332.0
107.085304 332.0
107.558601 140.0
107.661835 164.0
108.321648 152.0
109.070763 232.0
109.098267 188.0
109.885048 212.0
110.526512 156.0
110.817566 164.0
112.25325 176.0
113.043327 216.0
115.005013 180.0
115.141663 184.0
116.059723 140.0
118.066856 476.0
119.04689 548.0
119.084137 484.0
120.051758 188.0
120.091019 144.0
121.063881 316.0
121.099174 356.0
121.42083 144.0
121.499802 148.0
121.86866 192.0
122.059998 1884.0
122.097282 172.0
123.040001 176.0
123.062912 476.0
123.079735 200.0
124.089127 152.0
125.059929 192.0
125.097771 172.0
127.059982 176.0
128.531509 164.0
128.820511 204.0
129.070404 160.0
129.603333 184.0
129.682648 204.0
130.989227 220.0
131.048462 148.0
131.08551 168.0
132.084946 164.0
132.680359 176.0
132.829422 172.0
132.954391 128.0
133.065323 852.0
133.100525 896.0
133.810745 200.0
134.064133 276.0
135.04068 184.0
135.082748 392.0
135.119385 148.0
135.805084 156.0
136.076767 204.0
137.095459 160.0
137.163055 152.0
139.078415 204.0
139.106995 164.0
140.448303 236.0
141.393417 160.0
142.075851 184.0
143.086227 400.0
143.908508 212.0
144.090027 140.0
145.06282 160.0
145.104263 136.0
146.070251 172.0
146.108749 160.0
146.493942 160.0
147.046631 228.0
147.07933 380.0
147.306915 192.0
147.700943 360.0
148.456619 192.0
148.738068 236.0
148.827896 156.0
149.059814 1136.0
149.096649 332.0
150.058182 240.0
150.095657 168.0
151.07222 384.0
151.1091 220.0
153.097931 172.0
155.084534 208.0
156.091202 172.0
157.068588 148.0
157.096832 152.0
158.065247 212.0
158.473404 152.0
159.040176 152.0
159.080963 556.0
159.117844 196.0
160.073486 160.0
161.064362 348.0
161.095871 780.0
163.112717 168.0
163.257095 176.0
164.306549 216.0
164.526031 268.0
165.050369 168.0
165.241653 200.0
166.071671 156.0
166.400146 156.0
166.531113 164.0
167.072937 432.0
167.091522 144.0
168.442398 148.0
168.496658 188.0
169.100082 428.0
170.102142 184.0
171.080124 524.0
171.110947 292.0
172.530304 160.0
173.057556 292.0
173.096054 428.0
173.480621 180.0
174.494034 216.0
175.112442 188.0
176.112091 184.0
177.016602 144.0
177.055283 336.0
177.091721 924.0
177.119888 216.0
178.048233 172.0
178.077301 148.0
178.33252 204.0
178.683548 248.0
179.066528 184.0
179.086441 616.0
179.629303 156.0
179.920181 228.0
181.099487 180.0
181.549759 176.0
182.070404 168.0
182.113937 152.0
182.833939 184.0
183.078125 272.0
183.118988 768.0
184.114532 372.0
185.090363 300.0
185.135223 336.0
187.073029 144.0
187.112991 300.0
187.623123 152.0
188.114182 140.0
189.057617 352.0
189.084869 268.0
189.481598 188.0
190.793488 168.0
191.084244 184.0
191.503464 192.0
193.095337 332.0
193.119324 208.0
194.111099 344.0
194.276062 160.0
195.073151 224.0
195.112762 564.0
195.529266 192.0
196.120468 488.0
196.16713 176.0
196.489044 176.0
197.068588 164.0
197.096024 272.0
197.131866 360.0
197.451569 192.0
198.105331 196.0
198.128983 140.0
199.110901 508.0
199.149506 116.0
200.087357 188.0
200.117493 144.0
201.092438 152.0
201.124939 248.0
202.130081 144.0
203.067749 180.0
203.10524 228.0
204.679199 140.0
205.09375 328.0
206.074005 192.0
206.10672 588.0
206.314087 164.0
206.748871 172.0
207.060028 316.0
207.112198 180.0
207.708725 168.0
208.093216 152.0
208.139236 176.0
208.843353 180.0
208.869232 168.0
209.097244 720.0
209.129684 296.0
209.629333 212.0
210.098175 308.0
210.126968 220.0
210.149933 128.0
211.06131 132.0
211.112976 740.0
211.147354 856.0
211.839691 160.0
212.113907 248.0
212.150894 228.0
213.083954 600.0
213.123383 408.0
213.286133 196.0
213.738525 140.0
214.084946 224.0
214.135727 228.0
215.06749 168.0
215.101105 396.0
215.301071 172.0
216.804825 160.0
217.021744 164.0
217.109436 168.0
218.087418 176.0
218.284409 192.0
219.081116 152.0
219.113022 232.0
219.164551 248.0
220.034653 156.0
220.121078 512.0
220.811829 156.0
221.098602 304.0
221.129044 300.0
221.688156 156.0
222.102081 256.0
222.135956 172.0
223.109039 340.0
223.142639 516.0
224.117691 488.0
224.161316 164.0
225.090149 484.0
225.12883 692.0
225.166214 324.0
226.089142 168.0
226.135971 152.0
226.17366 232.0
226.30838 144.0
227.069565 140.0
227.110489 180.0
227.147018 184.0
228.109039 152.0
228.156586 168.0
229.120453 688.0
229.149567 160.0
230.112045 112.0
230.791779 160.0
231.065643 272.0
231.100189 116.0
231.139999 172.0
232.116379 352.0
233.096695 240.0
233.131485 336.0
234.06897 220.0
234.104355 336.0
234.142059 148.0
234.730225 160.0
235.110886 340.0
235.148041 560.0
236.119781 168.0
236.14917 268.0
236.171768 200.0
236.777802 192.0
237.071915 160.0
237.128296 832.0
237.158142 312.0
238.165741 156.0
239.142471 1032.0
239.81958 140.0
240.102356 4728.0
240.147934 140.0
240.303757 216.0
241.104019 1312.0
241.148682 216.0
242.113159 212.0
243.087753 152.0
243.678635 196.0
245.132217 520.0
246.135941 168.0
247.142197 164.0
248.121185 544.0
248.17955 192.0
248.769379 164.0
249.091644 204.0
249.127274 404.0
249.425934 160.0
249.72464 140.0
250.097641 184.0
250.128021 184.0
251.064499 184.0
251.105499 328.0
251.145065 724.0
251.31871 220.0
251.785919 156.0
252.044968 160.0
253.098312 188.0
253.126114 424.0
253.15741 876.0
253.20282 180.0
253.608383 164.0
254.094925 132.0
254.163635 284.0
254.207809 140.0
255.105804 256.0
255.139389 452.0
256.095215 164.0
256.147736 148.0
257.105896 160.0
257.153931 148.0
257.183624 176.0
258.099396 124.0
258.165497 340.0
258.650818 156.0
259.137604 168.0
261.115051 220.0
261.136749 188.0
262.119507 148.0
262.625671 180.0
263.14212 952.0
263.445587 148.0
264.14502 456.0
265.119873 464.0
265.155151 340.0
265.222168 244.0
265.773499 140.0
266.128876 508.0
266.305908 216.0
267.100098 112.0
267.137756 420.0
268.096588 4100.0
268.134186 712.0
269.098236 1200.0
269.154266 452.0
270.077179 168.0
270.112885 232.0
270.153046 168.0
270.702301 176.0
271.082306 172.0
271.134827 136.0
271.172729 152.0
273.127319 176.0
274.125031 160.0
274.425323 140.0
275.08847 164.0
276.116821 148.0
277.124298 128.0
279.136993 184.0
280.138123 284.0
280.392395 184.0
281.15332 1956.0
281.402191 272.0
282.114807 184.0
282.155762 680.0
283.130493 168.0
283.167877 360.0
284.140533 172.0
284.177887 200.0
285.108856 332.0
285.145966 436.0
285.575409 180.0
285.854645 212.0
286.107269 15512.0
287.054901 144.0
287.112854 3264.0
287.182953 184.0
287.900208 124.0
288.005676 204.0
288.115326 332.0
288.947449 136.0
289.09201 116.0
289.170929 108.0
290.44281 180.0
291.136078 1364.0
291.185486 160.0
292.145752 208.0
293.128723 188.0
295.134155 196.0
296.083832 160.0
297.151611 328.0
297.226196 156.0
299.164001 964.0
301.138245 228.0
301.178253 164.0
305.12146 148.0
306.454498 156.0
307.170959 124.0
307.643799 164.0
308.024445 156.0
309.147369 3892.0
310.153198 572.0
311.126404 180.0
311.143555 244.0
312.13562 240.0
313.180908 152.0
315.154541 316.0
315.329681 152.0
316.178497 188.0
318.131592 176.0
321.159882 212.0
323.15332 140.0
325.152222 188.0
326.726807 196.0
327.158722 3960.0
328.117004 220.0
328.160583 964.0
329.132599 296.0
330.134735 148.0
330.149841 236.0
330.93161 156.0
333.151245 172.0
334.187439 200.0
339.187164 140.0
341.170502 244.0
341.783752 144.0
342.171753 132.0
345.167114 720.0
345.269897 140.0
346.171967 256.0
351.158966 332.0
351.481323 184.0
351.832184 156.0
352.174164 184.0
356.112366 144.0
357.168182 172.0
357.620117 164.0
359.119751 196.0
359.186584 248.0
361.178345 168.0
363.167847 192.0
363.853851 144.0
368.989685 212.0
369.166199 1520.0
369.238251 144.0
370.170563 332.0
370.214172 156.0
371.179138 180.0
372.118652 284.0
373.128845 368.0
376.884613 140.0
377.138031 180.0
385.323975 140.0
386.923615 168.0
387.179535 2440.0
388.182404 1104.0
389.173431 108.0
389.182556 116.0
390.131714 520.0
390.186584 148.0
391.133484 268.0
401.179901 164.0
403.20282 112.0
405.195007 148.0
406.196533 132.0
407.212677 160.0
409.154938 184.0
413.174866 120.0
413.623932 228.0
414.170563 152.0
421.193848 220.0
422.863861 148.0
429.192169 660.0
430.853821 148.0
431.174591 656.0
432.190094 124.0
433.147766 180.0
434.181885 152.0
445.198212 188.0
447.206421 648.0
448.202667 372.0
449.194092 872.0
450.191956 384.0
451.18338 148.0
451.212952 152.0
453.15567 164.0
456.249695 160.0
462.212555 144.0
473.198517 368.0
474.198517 168.0
482.211029 164.0
487.118652 148.0
491.205811 2052.0
492.211182 652.0
493.210083 344.0
498.056213 140.0
507.100739 240.0
507.979614 160.0
509.215546 6504.0
510.217621 1972.0
511.22287 608.0
512.221497 148.0
513.26886 168.0
513.49884 148.0
527.242249 240.0
533.214355 144.0
534.055481 200.0
536.777344 156.0
537.760071 160.0
543.95343 160.0
547.254333 164.0
549.067078 140.0
550.453125 200.0
551.153809 224.0
551.224365 3244.0
552.235107 1476.0
553.229065 436.0
554.253052 160.0
554.962158 100.0
555.639404 140.0
564.226562 184.0
564.258423 340.0
565.24646 108.0
566.245911 156.0
568.089783 184.0
568.597534 168.0
569.072205 156.0
569.136536 156.0
569.238586 3568.0
569.325928 120.0
570.240723 1092.0
571.241699 572.0
572.243591 140.0
577.226929 196.0
584.829529 148.0
594.259583 128.0
594.491028 160.0
595.219177 188.0
612.254639 236.0
648.90979 140.0
654.265198 168.0
655.110168 172.0
655.25116 1172.0
656.263123 648.0
656.99646 148.0
657.256409 144.0
672.27655 304.0
673.229553 128.0
698.271729 100.0
713.021606 164.0
715.308838 192.0
716.281799 296.0
717.322449 184.0
734.297058 152.0
735.291199 96.0
736.318848 156.0
736.722717 144.0
758.302429 112.0
760.292725 128.0
766.961487 148.0
776.303772 932.0
777.031921 144.0
777.309875 424.0
777.387085 140.0
778.317261 488.0
794.310425 248.0
795.280579 144.0
795.322998 132.0
797.932068 140.0
798.680054 164.0
807.99646 300.0
820.340515 144.0
836.339966 172.0
837.312988 144.0
838.343567 100.0
851.035889 140.0
854.330811 180.0
856.33374 260.0
1295.749146 172.0
1347.570435 192.0
1490.814819 188.0
1556.028687 188.0
1575.150146 200.0
1576.943848 148.0
1583.914917 168.0
1626.625854 152.0
1677.469727 160.0
1714.609619 180.0
1752.855957 152.0
1796.565674 156.0
1830.801758 160.0
1841.309082 196.0
1848.618652 192.0
1860.223999 208.0
1872.511475 220.0
1886.058105 160.0
1906.87793 220.0
1910.704224 196.0
1934.293335 140.0
1944.013428 156.0
1953.150879 148.0
1953.995483 148.0
1972.480103 168.0
1974.734863 148.0
1990.04834 164.0
1990.598877 236.0
1997.753906 176.0
