>compound MLS001141369-01!1-[2-(4-ethyl-8-methyl-2-oxochromen-7-yl)oxyacetyl]piperidine-4-carboxylic acid
>formula C20H23NO6
>ionization [M+H]+
>parentmass 374.161804
#inchi InChI=1S/C20H23NO6/c1-3-13-10-18(23)27-19-12(2)16(5-4-15(13)19)26-11-17(22)21-8-6-14(7-9-21)20(24)25/h4-5,10,14H,3,6-9,11H2,1-2H3,(H,24,25)
#inchikey MEWZCHGHCUWIQK
#Ion_Source LC-ESI
#Instrument qTof
#Compound_Source NIH Natural Product Library
#PI Dorrestein
#Data_Collector VVP/LMS
#Scan -1
#Precursor_MZ 374.16
#ExactMass 373.153
#Charge 1
#CAS_Number N/A
#Pubmed_ID N/A
#Smiles CCc1cc(=O)oc2c(C)c(OCC(=O)N3CCC(CC3)C(=O)O)ccc12
#INCHI_AUX N/A
#Library_Class 1
#SpectrumID CCMSLIB00000080452
#IonMode Positive
#UpdateWorkflowName UPDATE-SINGLE-ANNOTATED-GOLD
#LibraryQualityString Gold
#TaskID b1d8e8f6646f4e71acdff9ca3d919d08
##Scan# 1845
#SpectrumFile p2-B09_GB9_01_17997.mzXML
#LibraryName NIH_Natural_Products_Library.mgf
#MQScore -1
#Organism NIH_Natural_Products_Library
#TIC_Query 0
#RT_Query -1
#MZErrorPPM -1
#SharedPeaks 0
#MassDiff 0
#LibMZ -1
#SpecMZ 374.16
#SpecCharge 0
#internalFilename spec-00000.mgf

>collision 10
94.987183 180.0
95.227867 124.0
95.313339 108.0
95.655632 160.0
96.010246 84.0
96.082359 676.0
96.121437 208.0
96.301041 216.0
96.676414 136.0
96.737083 84.0
97.050552 152.0
97.083885 152.0
97.360596 120.0
97.659332 44.0
98.027481 176.0
98.059013 156.0
98.098434 132.0
98.177299 80.0
98.337105 192.0
98.580017 108.0
98.96772 116.0
99.045662 2108.0
99.590416 204.0
99.661934 296.0
99.755341 192.0
99.96418 196.0
100.04734 368.0
100.314713 204.0
100.522141 120.0
100.853661 160.0
100.92363 200.0
101.01963 240.0
101.037392 240.0
101.107666 28.0
101.233788 172.0
101.372009 176.0
101.528381 124.0
101.600586 20.0
101.630684 120.0
101.686874 160.0
101.821388 144.0
102.042427 208.0
102.118835 116.0
102.25766 160.0
102.372414 204.0
102.396584 208.0
102.614212 112.0
103.058662 212.0
103.432381 104.0
103.456673 192.0
103.65313 28.0
103.76461 132.0
103.855865 100.0
104.032402 128.0
104.060074 196.0
104.08316 200.0
104.524246 148.0
104.566986 132.0
104.701355 184.0
104.770233 108.0
105.069832 908.0
105.158035 44.0
105.609581 80.0
105.889984 168.0
106.075356 180.0
106.23024 176.0
106.250748 168.0
106.273315 132.0
106.682014 180.0
107.052368 180.0
107.085564 188.0
108.111389 72.0
108.471771 140.0
108.606552 112.0
108.654266 172.0
108.799538 180.0
109.030098 156.0
109.24218 136.0
109.304596 52.0
109.389931 56.0
109.596107 132.0
109.691978 156.0
110.036194 100.0
110.064873 168.0
110.146873 96.0
110.217903 124.0
110.240891 124.0
110.738808 156.0
111.041214 196.0
111.067924 176.0
111.357529 208.0
111.826385 168.0
111.897957 56.0
111.9506 108.0
112.049599 172.0
112.076431 2320.0
112.14743 132.0
112.351074 84.0
112.414375 172.0
112.469246 60.0
112.497337 220.0
113.079811 320.0
113.257935 172.0
113.637398 156.0
113.836922 256.0
113.875145 176.0
113.924004 168.0
113.947372 196.0
114.055206 2548.0
114.091049 604.0
114.115273 148.0
114.166306 96.0
114.281174 76.0
114.355652 164.0
114.370552 92.0
114.890503 172.0
114.931038 88.0
115.053963 524.0
115.623405 80.0
115.81395 64.0
115.968224 188.0
116.060959 808.0
116.096855 180.0
116.309258 132.0
116.878777 124.0
117.003296 220.0
117.106964 156.0
117.652519 108.0
117.667633 52.0
117.717293 144.0
117.775604 108.0
118.071709 192.0
118.238289 156.0
118.385506 104.0
118.701881 248.0
118.87542 156.0
118.91449 188.0
119.023033 184.0
119.041298 240.0
119.057121 176.0
119.398972 176.0
119.481628 148.0
119.520798 216.0
119.812546 148.0
119.91423 180.0
120.157005 152.0
120.405846 188.0
120.650574 288.0
120.698677 104.0
120.757721 140.0
121.064545 184.0
121.102211 212.0
121.121056 184.0
121.228409 68.0
121.605629 152.0
121.620987 60.0
121.873535 152.0
121.948257 80.0
122.154945 180.0
122.800323 156.0
123.140213 180.0
123.206482 164.0
123.288239 180.0
123.427505 196.0
123.622162 196.0
123.989784 116.0
124.075882 700.0
124.240341 136.0
124.346848 60.0
124.635536 168.0
124.800018 208.0
124.81781 220.0
124.868958 204.0
125.083885 144.0
125.182747 168.0
125.479088 128.0
125.6129 156.0
125.824898 108.0
125.894119 40.0
126.007568 180.0
126.091835 4828.0
126.119766 152.0
126.251678 128.0
126.327728 216.0
126.381416 68.0
126.401558 84.0
126.623184 104.0
127.095917 376.0
127.219627 136.0
127.280243 224.0
127.482414 164.0
127.651314 176.0
127.718483 68.0
127.754471 148.0
127.835472 156.0
127.875977 228.0
127.911995 132.0
127.971153 144.0
127.993042 328.0
128.04393 180.0
128.071609 19168.0
128.128387 80.0
128.148651 88.0
128.16423 248.0
128.188232 116.0
128.211548 56.0
128.229584 68.0
128.288177 76.0
128.371613 148.0
128.427994 100.0
128.493011 184.0
128.569427 52.0
128.599472 96.0
128.736237 48.0
128.834305 68.0
128.983444 208.0
129.042221 68.0
129.073059 1268.0
129.22995 212.0
129.420074 104.0
129.472153 220.0
129.814346 52.0
129.889191 64.0
129.925491 212.0
130.032135 168.0
130.086426 3100.0
130.222855 180.0
130.618347 152.0
130.823151 36.0
130.880066 44.0
131.044266 184.0
131.053955 152.0
131.058548 236.0
131.086349 876.0
131.164841 192.0
131.511551 56.0
131.584595 104.0
132.009598 252.0
132.088043 160.0
132.165131 64.0
132.217773 140.0
132.57045 132.0
132.719437 88.0
132.857056 64.0
132.912109 84.0
133.064316 272.0
133.103745 620.0
133.249634 196.0
133.833832 116.0
133.877579 168.0
134.015793 156.0
134.067062 176.0
134.327026 196.0
134.391617 120.0
134.520859 120.0
134.682495 172.0
135.036118 152.0
135.082077 152.0
135.993011 180.0
136.037109 140.0
136.083542 136.0
136.534348 100.0
136.98822 160.0
137.06044 164.0
138.054871 148.0
138.073578 136.0
138.134384 140.0
138.312225 188.0
139.036453 44.0
139.055222 116.0
139.859055 256.0
141.000595 148.0
141.06601 628.0
141.229935 156.0
141.476028 136.0
141.582581 136.0
141.625214 128.0
141.734192 84.0
141.933304 188.0
142.052597 320.0
142.087677 20520.0
142.165771 80.0
142.19899 44.0
142.227478 60.0
142.249817 52.0
142.320068 40.0
142.510315 40.0
142.61702 36.0
142.704971 84.0
142.728745 52.0
143.056519 152.0
143.090195 2476.0
143.447754 32.0
143.671906 68.0
143.764969 84.0
143.82225 148.0
143.94162 88.0
143.963104 124.0
143.979828 32.0
144.057953 416.0
144.0979 360.0
144.119049 140.0
144.17572 120.0
144.211578 80.0
144.235214 112.0
144.670837 284.0
144.87439 200.0
145.064194 680.0
145.620377 60.0
146.033783 152.0
146.072052 588.0
146.233475 64.0
146.891266 96.0
147.077927 752.0
147.098801 136.0
147.516708 36.0
148.08696 176.0
148.405197 64.0
148.502197 140.0
148.829819 52.0
149.058136 176.0
149.091476 156.0
149.391235 132.0
149.413116 276.0
150.104843 224.0
150.40004 152.0
150.87883 60.0
152.666321 144.0
153.030487 164.0
153.077271 136.0
154.08638 132.0
154.110794 108.0
154.5905 156.0
154.719208 180.0
155.046173 124.0
155.088364 140.0
155.89241 84.0
156.065308 340.0
156.888 152.0
157.064224 120.0
157.177322 40.0
157.48938 44.0
157.689255 44.0
158.079712 160.0
158.512604 120.0
158.808426 204.0
158.996597 144.0
159.051819 200.0
159.081192 3784.0
160.083923 388.0
160.198471 68.0
160.233734 56.0
160.306808 96.0
160.387466 124.0
160.624481 44.0
160.692596 168.0
160.970245 148.0
161.024643 228.0
161.060608 664.0
161.097656 1996.0
161.215286 144.0
161.260773 120.0
161.470612 80.0
161.761597 76.0
161.943909 84.0
162.061539 192.0
162.102402 276.0
162.417892 216.0
162.570114 216.0
162.887482 64.0
163.088211 156.0
163.271271 112.0
163.775208 96.0
165.596298 200.0
166.4888 148.0
167.489288 180.0
167.981628 172.0
168.283569 120.0
168.423019 128.0
168.611633 64.0
169.93486 208.0
170.081924 1764.0
171.08815 1580.0
171.117416 64.0
171.187729 76.0
171.218979 56.0
171.497742 160.0
171.72197 72.0
172.098877 644.0
172.142136 40.0
172.204819 56.0
172.31192 44.0
172.466095 56.0
172.554977 160.0
173.06517 124.0
173.100342 208.0
173.521057 220.0
174.068268 304.0
174.095703 316.0
174.242798 104.0
174.697601 204.0
174.837051 180.0
174.934448 252.0
175.036911 156.0
175.075256 1164.0
175.722427 112.0
176.052368 124.0
176.082657 1916.0
177.049362 200.0
177.082672 188.0
177.089981 124.0
177.09874 200.0
177.160614 80.0
177.934998 52.0
178.022629 100.0
180.353821 168.0
181.518402 188.0
182.278061 116.0
183.966766 108.0
184.361115 124.0
184.393539 188.0
185.118561 184.0
185.804306 48.0
186.526672 192.0
187.080338 348.0
187.277649 100.0
187.705521 48.0
188.46434 128.0
188.609177 124.0
188.937332 144.0
189.058441 184.0
189.092148 4172.0
189.1371 236.0
189.175415 64.0
189.287674 80.0
189.389008 100.0
189.509537 36.0
189.632858 60.0
189.860413 164.0
190.053864 160.0
190.095459 864.0
191.057983 120.0
191.798737 172.0
192.07724 192.0
194.270874 188.0
195.448868 56.0
197.714783 168.0
197.938736 132.0
199.07869 264.0
199.88118 96.0
200.762894 84.0
202.056213 160.0
202.753128 108.0
203.067764 544.0
203.072083 128.0
203.33168 64.0
203.581512 180.0
203.913681 52.0
204.036133 136.0
204.077835 1800.0
204.155548 52.0
204.348969 76.0
204.516876 76.0
204.65921 184.0
204.681992 68.0
205.018127 160.0
205.086121 2232.0
205.445816 40.0
205.825409 116.0
206.082657 168.0
206.279678 96.0
206.665756 140.0
207.201157 44.0
208.722351 168.0
209.053162 84.0
211.688751 108.0
212.033493 128.0
213.05777 60.0
213.32222 140.0
213.360016 92.0
213.534485 228.0
213.930206 184.0
215.078705 248.0
215.703796 44.0
216.107376 148.0
216.377014 184.0
216.836533 328.0
216.874634 200.0
216.959885 144.0
216.986023 116.0
217.015335 148.0
217.087585 11660.0
217.176636 56.0
217.557281 72.0
217.678482 124.0
217.746017 84.0
217.844086 120.0
217.993851 56.0
218.04863 108.0
218.089249 2092.0
218.280869 80.0
218.342621 44.0
218.695679 100.0
219.090714 372.0
219.159271 284.0
219.361374 84.0
219.482254 48.0
225.186066 172.0
227.06662 196.0
228.426239 120.0
229.08548 100.0
229.585815 72.0
230.068588 152.0
230.38266 112.0
231.068924 208.0
235.095016 112.0
237.275894 88.0
238.073669 156.0
239.035843 144.0
240.898056 108.0
244.171204 156.0
244.192978 52.0
245.082611 852.0
245.164322 76.0
246.08992 152.0
247.848572 112.0
253.321091 132.0
257.122864 136.0
257.794556 108.0
258.115051 220.0
260.142242 72.0
262.097656 132.0
262.139557 52.0
265.618347 40.0
271.128571 152.0
271.558044 76.0
273.174103 160.0
274.113983 188.0
280.61908 184.0
285.106384 260.0
286.110229 120.0
292.096619 84.0
295.997559 144.0
298.179352 80.0
299.121796 128.0
300.157288 468.0
301.161041 160.0
302.171204 252.0
307.806732 104.0
309.181091 76.0
310.72934 52.0
313.130188 156.0
320.046661 176.0
328.154205 1296.0
328.280792 40.0
329.160095 172.0
329.739288 184.0
330.093567 88.0
330.162262 168.0
332.147034 144.0
332.183319 84.0
343.638031 148.0
346.058899 144.0
346.125549 112.0
346.818329 80.0
351.955933 44.0
352.804016 144.0
355.553314 84.0
356.011322 140.0
356.150421 340.0
356.232941 176.0
356.582367 48.0
357.146393 136.0
357.187714 180.0
370.363281 196.0
372.273224 112.0
373.209625 212.0
373.249268 104.0
373.945557 148.0
374.099518 124.0
374.161804 2280.0
374.232666 232.0
374.569305 100.0
374.657928 140.0
374.711853 120.0
374.962311 52.0
375.163727 800.0
375.40567 120.0
376.161865 84.0
377.664948 72.0
377.71524 112.0
378.349884 80.0
389.251587 48.0
414.40329 172.0
415.428986 112.0
420.470306 56.0
454.864807 108.0
458.953186 104.0
482.953064 48.0
537.926819 60.0
558.862244 144.0
586.706543 80.0
637.713501 72.0
641.831421 148.0
651.107117 60.0
652.987549 56.0
660.030029 68.0
666.478149 100.0
724.785217 100.0
736.550903 160.0
744.061829 160.0
794.341553 128.0
794.796021 48.0
795.233704 52.0
803.979553 108.0
808.817444 148.0
853.424744 92.0
857.278137 104.0
876.875549 260.0
885.821167 140.0
895.38385 240.0
896.205872 128.0
913.682251 136.0
914.711304 188.0
915.229004 72.0
926.929077 212.0
933.971375 156.0
939.58783 152.0
961.166504 228.0
967.897766 108.0
988.307556 168.0
994.386047 156.0
996.615295 92.0
996.942017 248.0
997.425964 204.0
1017.140015 64.0
1028.25293 192.0
1045.910645 56.0
1045.974976 52.0
1057.282715 68.0
1068.94397 160.0
1075.213013 160.0
1090.597534 184.0
1093.734985 172.0
1096.909912 184.0
1098.888306 252.0
1105.416382 152.0
1109.197998 200.0
1116.501343 184.0
1127.755249 196.0
1132.251221 140.0
1132.740112 160.0
1137.635254 176.0
1140.281738 184.0
1144.923706 52.0
1146.587646 112.0
1149.392944 188.0
1151.749023 192.0
1152.377319 176.0
1155.588745 144.0
1159.570435 216.0
1164.910278 228.0
1165.2771 140.0
1169.568115 252.0
1170.52124 196.0
1172.271851 152.0
1175.394897 168.0
1180.54541 136.0
1180.72998 144.0
1182.529297 204.0
1183.193237 212.0
1183.857422 244.0
1184.878052 168.0
1186.550171 164.0
1186.605103 152.0
1188.168701 192.0
1195.389893 184.0
1207.406982 168.0
1207.960327 160.0
1208.645264 124.0
1217.045898 124.0
1218.323853 208.0
1220.165405 144.0
1221.097168 140.0
1221.201538 104.0
1221.611938 120.0
1226.597656 164.0
1227.225098 140.0
1228.836182 144.0
1229.359497 84.0
1241.335449 88.0
1246.382324 228.0
1248.329346 184.0
1250.024658 124.0
1250.587646 56.0
1258.327637 104.0
1258.807739 148.0
1260.54541 144.0
1260.863403 224.0
1261.011841 172.0
1263.246216 212.0
1266.488037 144.0
1267.217773 96.0
1275.929565 240.0
1276.245728 48.0
1277.468994 60.0
1282.460449 232.0
1294.09729 68.0
1295.837646 132.0
1296.031128 196.0
1300.642334 148.0
1300.721191 168.0
1303.062256 116.0
1305.139404 216.0
1306.081543 168.0
1306.75769 168.0
1310.307007 180.0
1310.890625 144.0
1311.200562 164.0
1311.755493 36.0
1312.115967 168.0
1312.505371 168.0
1315.658203 116.0
1316.315186 124.0
1318.67749 92.0
1323.191162 228.0
1323.480713 208.0
1324.87854 224.0
1325.016235 32.0
1329.30127 204.0
1332.292603 188.0
1333.215332 180.0
1336.742188 272.0
1338.401855 144.0
1339.669067 100.0
1340.43396 156.0
1340.747314 144.0
1345.444702 204.0
1347.087769 236.0
1350.69873 164.0
1353.765259 236.0
1358.507324 132.0
1371.49292 188.0
1372.171143 148.0
1374.250977 172.0
1376.74585 164.0
1376.893555 92.0
1377.97937 160.0
1379.753174 136.0
1381.742554 252.0
1387.252197 168.0
1387.393066 52.0
1390.768066 144.0
1391.658936 108.0
1400.173096 144.0
1403.489136 240.0
1406.898682 116.0
1410.850464 40.0
1413.071655 136.0
1415.68396 116.0
1418.058716 152.0
1420.56311 92.0
1420.83313 160.0
1422.581665 208.0
1427.292236 136.0
1433.42688 136.0
1435.567627 212.0
1435.710938 192.0
1436.46521 180.0
1439.182007 192.0
1441.969482 160.0
1442.090332 100.0
1445.342163 132.0
1446.916382 144.0
1447.764404 152.0
1448.499023 84.0
1450.082642 148.0
1451.500244 160.0
1460.065918 68.0
1462.569092 208.0
1463.612061 152.0
1464.129761 256.0
1464.518188 76.0
1465.180908 188.0
1466.14856 152.0
1469.306885 152.0
1469.465454 112.0
1471.610107 136.0
1479.323853 200.0
1482.22644 212.0
1483.966309 160.0
1486.60498 192.0
1487.879028 176.0
1488.823486 168.0
1489.560791 216.0
1490.913086 152.0
1491.620117 232.0
1497.329102 172.0
1497.629395 100.0
1499.73291 132.0
