>compound MLS001331704-01!BENZOCAINE94-09-7
>formula C9H11NO2
>ionization [M+H]+
>parentmass 166.08625504409054
#inchi InChI=1S/C9H11NO2/c1-2-12-9(11)7-3-5-8(10)6-4-7/h3-6H,2,10H2,1H3
#inchikey BLFLLBZGZJTVJG
#Ion_Source LC-ESI
#Instrument qTof
#Compound_Source NIH Pharmacologically Active Library
#PI Dorrestein
#Data_Collector VP/LMS
#Scan -1
#Precursor_MZ 166.09
#ExactMass 165.079
#Charge 1
#CAS_Number N/A
#Pubmed_ID N/A
#Smiles CCOC(=O)c1ccc(N)cc1
#INCHI_AUX N/A
#Library_Class 1
#SpectrumID CCMSLIB00000085486
#IonMode Positive
#UpdateWorkflowName UPDATE-SINGLE-ANNOTATED-GOLD
#LibraryQualityString Gold
#TaskID d252d724072548979f1f6f1ced849daf
##Scan# 1641
#SpectrumFile p4-B07_GB7_01_18343.mzXML
#LibraryName Pharm_Active_Library.mgf
#MQScore -1
#Organism Pharm_Active_Library
#TIC_Query 0
#RT_Query -1
#MZErrorPPM -1
#SharedPeaks 0
#MassDiff 0
#LibMZ -1
#SpecMZ 166.09
#SpecCharge 0
#internalFilename spec-00000.mgf

>collision 10
45.378052 176.0
47.078976 160.0
47.337429 120.0
47.533447 144.0
47.618561 104.0
47.970806 48.0
48.476654 96.0
49.052048 168.0
49.198517 88.0
49.290699 188.0
49.724819 196.0
50.245453 164.0
51.166649 180.0
51.423229 40.0
51.603214 196.0
51.704777 192.0
52.636303 48.0
52.678185 188.0
53.646095 192.0
54.581638 84.0
55.01627 216.0
55.091583 200.0
55.400761 168.0
55.750923 164.0
55.850533 176.0
55.869869 168.0
56.155865 92.0
57.350842 148.0
58.849663 128.0
59.594028 148.0
59.875526 120.0
60.014214 160.0
60.075901 152.0
60.165409 136.0
60.488491 132.0
60.932007 88.0
61.867722 48.0
62.57576 172.0
63.151737 172.0
64.115433 88.0
65.054321 132.0
65.820671 228.0
66.985138 148.0
68.403214 88.0
69.106239 76.0
71.618706 164.0
72.651527 216.0
72.71431 236.0
72.853539 188.0
73.760094 180.0
74.970078 104.0
75.596939 240.0
76.729408 196.0
77.654427 192.0
79.396912 148.0
79.970757 176.0
80.10183 176.0
80.266479 224.0
80.318199 152.0
80.464531 140.0
80.580612 164.0
81.524902 176.0
82.373505 108.0
82.968864 172.0
84.590172 104.0
84.940163 200.0
85.311089 172.0
85.360733 140.0
85.990768 148.0
86.064606 176.0
86.312202 196.0
86.338089 168.0
86.624969 164.0
87.06826 156.0
87.358215 132.0
87.68219 140.0
87.730652 140.0
88.410522 172.0
88.476036 176.0
89.354332 192.0
89.612267 188.0
90.54351 184.0
91.811096 172.0
91.849243 204.0
91.986633 132.0
92.0019 268.0
92.049736 708.0
92.571671 204.0
93.033981 348.0
93.05809 2520.0
93.091339 136.0
93.220039 72.0
93.506577 84.0
93.531601 48.0
93.687576 112.0
94.026932 68.0
94.06646 2916.0
94.266396 96.0
94.49649 184.0
94.535187 172.0
94.620346 120.0
95.070824 284.0
96.093521 128.0
96.51931 208.0
96.566246 96.0
96.619057 72.0
97.034828 188.0
100.337936 148.0
101.72628 120.0
101.90345 128.0
102.12011 208.0
103.017822 340.0
104.020264 196.0
104.07222 172.0
104.53566 148.0
104.775917 72.0
105.093964 132.0
105.57399 116.0
105.956749 176.0
106.960922 140.0
107.897461 168.0
108.021538 116.0
108.406631 164.0
109.470207 192.0
110.062401 148.0
110.106255 244.0
110.229507 176.0
111.043854 52.0
111.444794 180.0
113.093887 140.0
113.782814 208.0
114.356743 180.0
114.684746 164.0
114.735901 220.0
115.034561 128.0
115.628754 64.0
115.960716 140.0
116.241646 280.0
116.61747 200.0
117.200645 144.0
117.932213 172.0
118.869934 172.0
119.019707 176.0
119.441315 164.0
120.045509 3664.0
120.505142 52.0
120.642822 216.0
120.809021 76.0
121.029045 2228.0
121.885498 80.0
121.988792 92.0
122.03437 264.0
122.360573 76.0
123.037392 216.0
123.12619 220.0
124.256805 60.0
125.025612 164.0
125.197029 72.0
125.275047 136.0
129.751709 264.0
129.962631 40.0
130.105621 188.0
130.810318 220.0
131.421082 220.0
132.181961 116.0
133.117203 184.0
134.196335 92.0
134.824188 112.0
134.842682 184.0
135.124786 40.0
135.854538 88.0
135.975189 280.0
136.121445 32.0
136.758423 152.0
137.045975 412.0
137.368912 164.0
137.714355 188.0
137.733047 80.0
137.789108 152.0
137.831161 148.0
137.985428 160.0
138.018158 148.0
138.055603 17980.0
138.186554 40.0
138.317612 76.0
138.40657 44.0
138.575211 56.0
138.612701 72.0
138.727539 88.0
139.059555 912.0
139.223541 60.0
139.391739 40.0
139.770309 80.0
139.822083 148.0
139.843262 104.0
139.930359 44.0
139.970383 48.0
140.059937 164.0
140.165894 144.0
140.552582 44.0
140.79808 76.0
141.673233 44.0
145.193771 56.0
149.03746 224.0
149.856735 76.0
150.029648 168.0
150.161438 76.0
150.925781 56.0
156.024536 96.0
166.088364 504.0
168.291489 76.0
168.35347 128.0
183.233124 116.0
390.402924 52.0
426.4823 52.0
731.425049 184.0
734.377686 144.0
804.5401 32.0
816.512817 88.0
832.761292 192.0
836.124634 68.0
838.687561 144.0
851.590149 164.0
852.362793 220.0
871.16394 132.0
872.098206 200.0
876.099487 244.0
890.490906 140.0
895.850159 172.0
898.252441 220.0
899.195129 92.0
908.223572 156.0
911.789917 172.0
913.449341 132.0
921.062439 212.0
948.16217 192.0
949.461853 148.0
958.954346 140.0
960.699341 152.0
962.631165 220.0
988.897583 132.0
991.057983 36.0
991.860168 44.0
993.013855 36.0
996.522827 160.0
1006.108215 168.0
1015.904419 196.0
1021.90802 72.0
1025.314697 120.0
1025.365723 212.0
1032.906128 192.0
1040.057007 164.0
1055.647949 92.0
1059.848877 236.0
1064.532227 96.0
1073.512329 172.0
1073.662354 148.0
1074.340698 36.0
1077.519897 40.0
1082.549805 264.0
1088.425171 216.0
1100.375366 176.0
1113.778564 188.0
1115.931641 164.0
1118.559326 168.0
1118.785767 48.0
1122.623535 140.0
1131.483398 204.0
1145.296387 204.0
1150.907227 144.0
1157.689453 128.0
1162.325928 224.0
1171.913086 192.0
1173.105713 136.0
1173.1875 208.0
1183.031372 108.0
1187.924194 196.0
1188.836792 228.0
1191.404663 192.0
1197.643677 168.0
1203.677979 96.0
1203.79541 168.0
1205.646729 128.0
1206.365601 212.0
1210.198242 200.0
1221.294678 176.0
1222.901855 144.0
1235.056152 200.0
1243.508057 64.0
1245.443726 256.0
1246.497559 188.0
1247.326782 244.0
1248.493896 144.0
1251.041016 172.0
1254.182617 88.0
1254.492798 196.0
1262.061035 180.0
1263.482544 88.0
1263.970703 140.0
1270.630859 180.0
1272.802612 168.0
1274.15918 180.0
1276.511841 200.0
1276.568726 156.0
1277.941528 148.0
1281.508545 192.0
1284.224609 228.0
1314.484985 176.0
1318.203857 176.0
1318.659058 172.0
1319.034912 112.0
1322.818115 152.0
1336.316406 228.0
1340.4375 160.0
1342.784912 212.0
1352.070435 44.0
1352.494995 164.0
1353.468628 228.0
1371.415649 148.0
1371.703125 180.0
1372.322388 160.0
1374.284302 156.0
1374.786011 200.0
1377.916748 168.0
1378.493042 172.0
1381.324707 172.0
1384.196167 132.0
1398.810547 396.0
1399.246338 192.0
1406.089111 212.0
1406.94751 140.0
1409.225342 176.0
1419.47229 132.0
1420.124756 120.0
1422.998779 236.0
1423.441772 160.0
1428.875977 200.0
1434.501343 128.0
1434.765259 172.0
1440.183228 176.0
1440.946167 68.0
1444.998535 188.0
1445.142212 188.0
1445.997314 156.0
1450.928467 204.0
1453.074707 192.0
1454.220581 140.0
1462.80957 144.0
1463.388184 156.0
1463.449097 100.0
1464.218262 204.0
1466.320923 172.0
1470.095825 188.0
1472.118774 152.0
1475.075562 184.0
1482.476562 96.0
1482.76001 176.0
1484.040161 156.0
1489.573364 80.0
1491.471313 176.0
1492.301514 144.0
1492.539917 104.0
1492.893555 192.0
1494.093506 168.0
1497.187744 144.0
1500.077026 56.0
1500.138672 220.0
