>compound Etravirine (TMC125)
>formula C20H15BrN6O
>ionization [M+Na]+
>parentmass 457.039062
#inchi InChI=1S/C20H15BrN6O/c1-11-7-14(10-23)8-12(2)17(11)28-19-16(21)18(24)26-20(27-19)25-15-5-3-13(9-22)4-6-15/h3-8H,1-2H3,(H3,24,25,26,27)
#inchikey PYGWGZALEOIKDF
#Ion_Source LC-ESI
#Instrument qTof
#Compound_Source Commercial
#PI Dorrestein
#Data_Collector Garg_Neha
#Scan -1
#Precursor_MZ 457.038
#ExactMass 434.049
#Charge 1
#CAS_Number 269055-15-4, 1030633-39-6 (HCl), 1030633-41-0 (4-methylbenzenesulfonate)
#Pubmed_ID N/A
#Smiles C1(N=C(N=C(C=1Br)N)NC2C=CC(C#N)=CC=2)OC3C(=CC(C#N)=CC=3C)C
#INCHI_AUX N/A
#Library_Class 1
#SpectrumID CCMSLIB00000078572
#IonMode Positive
#UpdateWorkflowName UPDATE-SINGLE-ANNOTATED-GOLD
#LibraryQualityString Gold
#TaskID 77f51c88eb8b467eb4a01dd2d0cb90d2
##Scan# 2461
#SpectrumFile Plate9_21_40_GC5_01_15753.mzXML
#LibraryName FDALibrary_2_04302014.mgf
#MQScore -1
#Organism FDALibrary_2_04302014
#TIC_Query 0
#RT_Query -1
#MZErrorPPM -1
#SharedPeaks 0
#MassDiff 0
#LibMZ -1
#SpecMZ 457.038
#SpecCharge 0
#internalFilename spec-00000.mgf

>collision 10
59.288738 148.0
74.579926 184.0
83.334435 176.0
90.58429 160.0
91.058479 160.0
91.884621 156.0
101.258438 216.0
104.055367 188.0
117.04525 352.0
118.052979 172.0
118.936935 168.0
119.059464 628.0
120.072685 212.0
125.170174 144.0
130.063919 356.0
133.043777 172.0
134.196426 148.0
144.057266 872.0
144.394211 160.0
144.944809 224.0
145.059021 168.0
146.061172 148.0
146.940399 140.0
147.488647 188.0
147.932312 136.0
148.075272 288.0
149.078552 192.0
155.061935 532.0
156.056885 200.0
157.07106 156.0
158.074005 156.0
159.063828 204.0
162.953629 244.0
164.947159 1724.0
165.947784 168.0
168.065292 248.0
169.072342 320.0
169.18956 164.0
170.035919 144.0
170.068314 172.0
170.086487 180.0
171.084702 196.0
172.085266 308.0
174.073227 180.0
179.196838 152.0
180.274841 144.0
184.051682 196.0
186.07695 148.0
191.764191 196.0
193.067307 180.0
198.066559 228.0
208.686386 152.0
208.950989 152.0
211.076721 140.0
211.099854 172.0
212.000153 156.0
214.68338 180.0
217.095993 184.0
222.403702 220.0
224.638397 144.0
234.413559 152.0
236.799515 176.0
236.937363 160.0
237.090576 152.0
238.080292 176.0
241.174759 144.0
241.80571 172.0
242.195831 264.0
242.344543 164.0
245.75264 168.0
246.105347 164.0
247.108261 164.0
247.965729 236.0
249.494934 152.0
250.127228 144.0
250.976196 332.0
252.344986 232.0
257.087433 148.0
259.060211 180.0
269.184082 164.0
273.114655 604.0
273.169525 188.0
274.117126 408.0
276.982147 180.0
277.988037 408.0
279.002686 244.0
283.003357 144.0
285.116699 144.0
286.145996 248.0
288.977692 156.0
289.98114 116.0
290.912811 144.0
290.967987 312.0
291.0065 136.0
292.143005 148.0
294.009705 232.0
295.00415 180.0
297.3573 172.0
299.086151 160.0
303.002167 228.0
305.980896 1608.0
306.783295 152.0
306.986816 1000.0
307.993195 348.0
308.993927 228.0
310.465088 204.0
310.59137 144.0
311.546173 220.0
318.010132 268.0
319.001038 888.0
319.047058 120.0
320.007172 156.0
320.151978 220.0
321.010803 216.0
331.540527 148.0
333.413147 156.0
337.006104 208.0
342.124664 212.0
342.825836 148.0
346.92688 140.0
348.271851 144.0
355.124176 296.0
356.122986 120.0
358.817444 164.0
361.427307 160.0
365.015686 164.0
373.856262 156.0
394.803375 152.0
400.088562 188.0
400.813446 140.0
408.93103 176.0
410.143372 176.0
412.828217 156.0
413.673828 236.0
414.893188 196.0
421.039764 164.0
423.790344 164.0
429.566559 164.0
429.781097 144.0
430.705841 160.0
435.049561 120.0
435.859589 208.0
436.058868 2424.0
436.219055 196.0
436.867493 276.0
436.932312 168.0
436.9935 136.0
437.054474 22404.0
437.239258 300.0
437.341125 136.0
437.778229 204.0
438.056488 7296.0
438.247681 116.0
439.062103 964.0
439.282379 140.0
439.407013 140.0
440.120728 152.0
440.609406 140.0
442.445374 140.0
444.134125 180.0
451.530151 192.0
453.0578 136.0
453.092072 152.0
454.07074 1452.0
454.351196 168.0
454.899323 200.0
454.970825 200.0
455.06485 12612.0
455.221313 188.0
455.765045 216.0
455.823334 124.0
455.916992 268.0
456.067474 3276.0
456.156128 160.0
456.853424 144.0
457.039062 17312.0
457.274689 172.0
457.669434 96.0
458.041534 3568.0
458.091309 260.0
458.379242 112.0
458.90509 120.0
459.036438 15700.0
459.123688 156.0
459.168274 108.0
459.718719 108.0
460.040192 1800.0
461.045959 404.0
462.67688 104.0
470.257172 232.0
475.042267 296.0
476.054108 140.0
477.04895 584.0
498.056396 308.0
501.095215 192.0
706.579346 144.0
1814.390381 160.0
1930.891113 140.0
