>compound MLS001076276-01!
>formula C24H30F2O6
>ionization [M+H]+
>parentmass 453.208
#inchi InChI=1S/C24H30F2O6/c1-20(2)31-19-9-13-14-8-16(25)15-7-12(28)5-6-21(15,3)23(14,26)17(29)10-22(13,4)24(19,32-20)18(30)11-27/h5-7,13-14,16-17,19,27,29H,8-11H2,1-4H3/t13-,14-,16-,17-,19+,21-,22-,23-,24+/m0/s1
#inchikey FEBLZLNTKCEFIT
#Ion_Source LC-ESI
#Instrument qTof
#Compound_Source NIH Pharmacologically Active Library
#PI Dorrestein
#Data_Collector VP/LMS
#Scan -1
#Precursor_MZ 453.208
#ExactMass 452.201
#Charge 1
#CAS_Number N/A
#Pubmed_ID N/A
#Smiles CC1(C)O[C@@H]2C[C@H]3[C@@H]4C[C@H](F)C5=CC(=O)C=C[C@]5(C)[C@@]4(F)[C@@H](O)C[C@]3(C)[C@@]2(O1)C(=O)CO
#INCHI_AUX N/A
#Library_Class 1
#SpectrumID CCMSLIB00000085210
#IonMode Positive
#UpdateWorkflowName UPDATE-SINGLE-ANNOTATED-GOLD
#LibraryQualityString Gold
#TaskID d252d724072548979f1f6f1ced849daf
##Scan# 1916
#SpectrumFile p3-G02_GG2_01_18295.mzXML
#LibraryName Pharm_Active_Library.mgf
#MQScore -1
#Organism Pharm_Active_Library
#TIC_Query 0
#RT_Query -1
#MZErrorPPM -1
#SharedPeaks 0
#MassDiff 0
#LibMZ -1
#SpecMZ 453.208
#SpecCharge 0
#internalFilename spec-00000.mgf

>collision 10
45.034351 136.0
45.53397 152.0
46.080925 164.0
46.15527 116.0
46.21571 176.0
46.250462 212.0
46.323105 192.0
46.556412 160.0
46.641441 104.0
46.812096 136.0
46.979755 160.0
47.38583 164.0
47.425571 176.0
47.66301 120.0
47.840446 172.0
47.856968 184.0
47.909927 196.0
47.92033 108.0
47.934113 56.0
48.025108 108.0
48.036144 152.0
48.098244 156.0
48.460602 84.0
48.765923 120.0
48.98579 212.0
49.132179 172.0
49.26202 148.0
49.372448 136.0
49.455002 124.0
49.707283 120.0
49.881451 216.0
50.415672 132.0
50.613731 144.0
50.816437 164.0
51.284332 148.0
51.349922 92.0
51.754372 156.0
51.831726 208.0
51.871861 148.0
51.927784 156.0
52.009575 160.0
52.097176 208.0
52.304264 72.0
52.369061 228.0
52.536285 108.0
52.829567 140.0
52.857059 324.0
52.932335 72.0
53.228172 212.0
53.763924 100.0
53.893894 152.0
54.138008 152.0
54.340496 200.0
54.508011 204.0
54.684387 152.0
54.906872 160.0
55.001308 164.0
55.0648 112.0
55.178593 180.0
55.32951 180.0
55.347279 172.0
55.403564 76.0
55.431717 52.0
55.501389 156.0
55.538467 200.0
55.834053 192.0
56.190086 108.0
56.236179 176.0
56.324451 188.0
56.70612 188.0
56.916061 144.0
57.097904 144.0
57.174637 212.0
57.277027 216.0
57.578709 120.0
57.627048 152.0
57.657272 248.0
58.044842 124.0
58.210255 132.0
58.233513 192.0
58.324207 192.0
58.87579 196.0
59.076035 272.0
59.327202 56.0
59.43457 176.0
59.446846 184.0
60.184231 164.0
60.236744 212.0
60.29546 240.0
60.443928 168.0
60.604977 120.0
60.668522 180.0
60.84359 124.0
60.87645 72.0
60.899746 112.0
60.926155 60.0
60.938587 188.0
60.980545 144.0
61.133785 124.0
61.164097 152.0
61.198349 144.0
61.349483 152.0
61.499241 168.0
61.710152 168.0
62.536926 136.0
62.722805 144.0
62.744877 132.0
62.836357 136.0
62.998978 236.0
63.063766 164.0
63.258339 92.0
63.290005 92.0
63.34861 124.0
63.442112 232.0
63.603928 160.0
63.616627 116.0
63.827953 152.0
63.924992 128.0
64.081047 180.0
64.218147 152.0
64.385742 176.0
64.939545 240.0
64.979652 220.0
65.095222 168.0
65.357254 152.0
65.449005 208.0
65.474777 104.0
65.635933 44.0
65.747246 236.0
65.766617 116.0
66.374954 128.0
66.420364 52.0
66.707802 184.0
66.890007 108.0
66.960022 148.0
67.065933 172.0
67.211304 152.0
67.379272 188.0
67.444641 228.0
67.742477 196.0
67.768692 184.0
68.091873 216.0
68.152657 160.0
68.183884 188.0
68.244713 168.0
68.572319 272.0
68.705894 184.0
68.831345 176.0
68.94368 200.0
69.009804 220.0
69.109047 156.0
69.171944 44.0
69.236519 128.0
69.287872 208.0
69.312729 92.0
69.701042 104.0
70.288879 164.0
70.318916 140.0
70.741837 120.0
70.927788 64.0
71.083466 260.0
71.873009 104.0
72.019897 240.0
72.117897 160.0
72.485168 180.0
72.516159 168.0
72.748077 108.0
73.076096 172.0
73.118645 224.0
73.299164 160.0
73.380989 160.0
73.488449 216.0
74.068024 124.0
74.376694 180.0
74.778915 208.0
74.816788 92.0
74.887398 128.0
75.273727 56.0
75.527794 164.0
75.855087 108.0
76.033752 108.0
76.188301 240.0
76.200462 220.0
76.266502 164.0
76.360397 192.0
77.008797 124.0
77.055969 164.0
77.097908 108.0
77.257034 148.0
77.379547 136.0
77.579277 124.0
77.740654 180.0
77.819649 164.0
77.902191 104.0
77.918007 144.0
78.444229 108.0
78.892647 128.0
79.097862 152.0
79.12973 188.0
79.390251 224.0
79.418594 92.0
79.432793 152.0
79.70977 80.0
79.752426 52.0
80.217041 152.0
80.441818 60.0
80.570404 120.0
80.729492 192.0
80.838623 164.0
81.05352 96.0
81.669334 100.0
81.719711 168.0
81.748505 92.0
81.824104 180.0
81.88353 108.0
81.932167 60.0
81.968208 280.0
82.132278 184.0
82.410309 64.0
82.486214 48.0
82.520569 208.0
82.72139 156.0
82.764847 136.0
82.946022 128.0
83.203636 160.0
83.316246 156.0
83.396202 172.0
83.481659 104.0
83.501663 108.0
83.769249 180.0
83.931465 196.0
83.95517 84.0
84.079231 172.0
84.133995 112.0
84.431847 152.0
85.012619 64.0
85.034645 104.0
85.181549 212.0
85.194405 184.0
85.512535 140.0
85.54567 216.0
85.565918 180.0
85.766731 160.0
85.84417 176.0
85.929024 80.0
85.958542 140.0
86.676056 136.0
86.922691 240.0
87.301674 124.0
87.577133 164.0
87.69825 52.0
88.049026 172.0
88.069641 120.0
88.173897 144.0
88.209724 176.0
88.393021 148.0
88.537178 116.0
89.081146 160.0
89.351875 188.0
89.594749 116.0
89.6362 72.0
90.145729 164.0
90.334808 156.0
90.440781 100.0
91.001953 116.0
91.053963 768.0
91.125412 112.0
91.212837 60.0
91.243256 140.0
91.325027 96.0
91.465843 172.0
91.585808 128.0
91.625816 68.0
91.910019 156.0
92.055321 184.0
92.093201 80.0
92.494759 176.0
92.531639 56.0
92.60582 136.0
92.623062 144.0
92.651802 88.0
92.676704 196.0
92.703537 128.0
92.762955 112.0
92.983543 92.0
93.068161 352.0
93.142921 96.0
93.2659 132.0
93.3255 152.0
93.412048 60.0
94.158028 152.0
94.331932 184.0
94.355133 164.0
94.969025 116.0
95.046631 156.0
95.085976 372.0
95.211838 200.0
95.35405 232.0
95.39624 208.0
95.72702 184.0
95.925766 224.0
95.962807 100.0
96.019363 136.0
96.087639 144.0
96.462357 184.0
96.538872 124.0
96.671906 172.0
96.742371 56.0
97.030373 236.0
97.046059 252.0
97.065666 196.0
97.153931 72.0
97.314873 88.0
97.794563 148.0
97.811592 184.0
98.139328 244.0
98.520256 112.0
98.549896 116.0
98.601273 200.0
98.977158 44.0
99.042519 244.0
99.057648 308.0
99.19709 220.0
99.669464 184.0
99.727097 192.0
99.785446 228.0
99.904083 44.0
100.103134 132.0
100.753395 76.0
101.021294 156.0
101.035301 204.0
101.08532 168.0
101.13736 172.0
101.247482 56.0
101.379715 176.0
101.522057 172.0
101.58223 168.0
101.710663 196.0
101.825111 72.0
101.842438 160.0
101.961739 120.0
102.020035 164.0
102.274353 196.0
102.823769 208.0
103.052177 340.0
103.594193 96.0
103.736053 136.0
103.817162 120.0
103.999763 128.0
104.05661 192.0
104.377655 148.0
104.937889 156.0
105.031441 64.0
105.068817 916.0
105.194695 132.0
105.392807 128.0
105.407112 148.0
105.470474 204.0
105.517494 72.0
105.853073 88.0
105.963684 40.0
106.072113 388.0
106.57309 152.0
106.704636 76.0
106.835228 200.0
106.902107 212.0
107.048172 188.0
107.084229 360.0
107.256371 304.0
107.285233 112.0
107.588509 208.0
108.028717 192.0
108.086647 176.0
108.461525 128.0
108.52372 192.0
108.716644 56.0
108.789291 180.0
108.91597 136.0
109.00531 148.0
109.02401 76.0
109.047058 204.0
109.062477 800.0
109.103004 40.0
109.152901 316.0
109.544205 60.0
109.679657 152.0
109.754715 80.0
110.063545 92.0
110.115753 80.0
110.176338 172.0
110.402092 160.0
110.584114 148.0
110.780952 216.0
110.89621 40.0
111.042709 172.0
111.053215 204.0
111.059181 360.0
111.080742 232.0
111.108009 160.0
111.194046 76.0
111.431351 204.0
111.601601 148.0
112.184814 148.0
112.296577 176.0
112.568832 172.0
112.8964 64.0
113.021217 188.0
113.036026 248.0
113.075264 136.0
113.116455 96.0
113.158798 96.0
113.230804 72.0
113.321892 136.0
113.784279 208.0
113.845856 236.0
114.351868 120.0
114.419991 168.0
114.443413 184.0
114.490265 160.0
114.965691 140.0
115.010513 152.0
115.034782 540.0
115.052795 2288.0
115.087372 168.0
115.296722 108.0
115.337585 172.0
115.375816 60.0
115.489159 88.0
115.575386 144.0
115.628235 148.0
115.643219 200.0
115.67424 116.0
116.05909 444.0
116.10173 152.0
116.840858 228.0
116.918137 180.0
116.970993 108.0
117.068031 1092.0
117.120667 68.0
117.262749 180.0
117.338196 64.0
117.428772 208.0
118.007538 212.0
118.073425 164.0
118.109184 48.0
118.765526 236.0
118.830612 160.0
118.876175 128.0
118.906563 164.0
119.04512 200.0
119.086624 576.0
119.138916 44.0
119.15847 144.0
119.223656 56.0
119.567291 80.0
119.652138 172.0
119.671783 40.0
120.026962 136.0
120.050957 124.0
120.114204 132.0
120.186203 96.0
120.323715 136.0
120.568375 180.0
120.640511 176.0
120.714851 140.0
120.824219 140.0
120.881393 156.0
121.06398 10684.0
121.102905 184.0
121.170151 72.0
121.188774 72.0
121.257805 152.0
121.321976 176.0
121.387154 208.0
121.426636 164.0
121.49823 200.0
121.608749 156.0
121.670212 40.0
121.823944 64.0
121.839325 100.0
121.909645 172.0
121.999763 96.0
122.034943 124.0
122.067268 936.0
122.127312 52.0
122.232918 156.0
122.314346 184.0
122.411224 204.0
122.575287 220.0
122.598488 144.0
122.627136 48.0
122.671227 68.0
122.849854 92.0
123.042839 376.0
123.068779 360.0
123.123566 148.0
123.152283 100.0
123.536919 80.0
123.76268 116.0
123.957611 120.0
124.092834 212.0
124.115005 168.0
124.197067 76.0
125.055611 328.0
125.074799 132.0
125.094833 228.0
125.290817 112.0
125.35672 76.0
125.781441 100.0
125.87075 184.0
125.937752 128.0
126.04052 160.0
126.098625 188.0
126.19252 76.0
126.250664 100.0
126.655785 196.0
126.893341 216.0
126.913521 144.0
127.049171 408.0
127.126633 60.0
127.483711 152.0
127.695114 144.0
127.83004 140.0
128.059036 412.0
128.093475 180.0
128.282776 76.0
128.372955 144.0
128.402283 240.0
128.72049 188.0
128.799545 128.0
128.869583 132.0
128.987106 48.0
129.046936 188.0
129.067551 752.0
129.115982 56.0
129.215515 44.0
129.534576 160.0
130.077927 164.0
130.228867 80.0
130.39473 128.0
130.642593 116.0
130.742722 156.0
131.04538 528.0
131.083084 948.0
131.351089 212.0
131.832855 120.0
131.899139 104.0
131.94487 128.0
132.05542 220.0
132.084106 176.0
132.164444 128.0
132.354431 136.0
132.810516 148.0
132.831161 40.0
132.860977 116.0
133.041504 144.0
133.06311 768.0
133.297256 160.0
133.334015 76.0
133.425964 252.0
133.444366 100.0
133.476562 172.0
133.529449 184.0
133.553223 48.0
133.60997 164.0
133.660583 132.0
133.904617 44.0
134.040543 124.0
134.068207 188.0
134.09816 144.0
134.612656 192.0
134.88298 156.0
135.056458 620.0
135.078018 1396.0
135.158203 120.0
135.18367 40.0
135.577362 156.0
135.642273 48.0
136.079529 192.0
136.543198 100.0
136.615311 124.0
136.708389 180.0
137.071899 1092.0
137.097305 76.0
137.391113 136.0
137.479782 148.0
137.507797 32.0
137.647873 172.0
137.750641 184.0
137.953949 160.0
138.077896 140.0
138.321243 128.0
138.3423 208.0
138.482803 112.0
138.677292 52.0
138.719482 192.0
138.979828 140.0
139.017365 172.0
139.054016 1608.0
139.212219 104.0
139.371964 124.0
139.543549 76.0
139.828201 160.0
139.983582 192.0
140.05719 220.0
140.143768 36.0
140.207397 160.0
140.877533 92.0
140.964951 224.0
141.014587 96.0
141.070358 1032.0
141.210831 152.0
141.312561 108.0
141.499542 120.0
141.812241 156.0
142.073196 352.0
143.049133 172.0
143.083771 696.0
143.166534 236.0
143.242752 156.0
143.302307 128.0
143.571686 80.0
143.977402 92.0
144.056686 376.0
144.086853 200.0
144.457855 144.0
144.856476 164.0
144.888794 128.0
145.011002 84.0
145.063248 2368.0
145.098648 320.0
145.222015 80.0
145.514786 52.0
145.639664 52.0
145.726151 96.0
145.807861 36.0
145.872757 240.0
145.896805 116.0
146.017029 116.0
146.048309 76.0
146.067429 1284.0
146.101227 212.0
146.132507 100.0
146.15416 92.0
146.693665 92.0
146.989456 132.0
147.037811 220.0
147.076538 2220.0
147.118256 132.0
147.161728 76.0
147.202774 80.0
147.277649 132.0
147.321121 144.0
147.35495 156.0
148.056473 192.0
148.082047 360.0
148.226059 168.0
148.255127 156.0
148.272095 68.0
148.681976 84.0
149.034103 168.0
149.070404 468.0
149.262604 108.0
150.056412 56.0
150.078354 348.0
150.356461 164.0
150.610397 224.0
150.639709 76.0
150.656799 116.0
150.881653 196.0
150.913437 172.0
151.03508 344.0
151.075745 288.0
151.73613 156.0
151.804794 128.0
152.059296 196.0
152.610229 208.0
152.715988 144.0
153.067551 440.0
153.464645 216.0
153.620026 196.0
153.960663 108.0
154.070877 168.0
154.455002 192.0
154.836182 40.0
154.917938 144.0
155.053604 176.0
155.084427 452.0
155.170731 148.0
155.686874 120.0
155.729095 72.0
155.865738 164.0
155.983078 96.0
156.002441 104.0
156.057144 120.0
156.088547 476.0
157.003433 152.0
157.064041 848.0
157.357788 140.0
157.732529 108.0
157.917572 140.0
158.030136 120.0
158.071442 636.0
158.528458 132.0
158.834351 52.0
158.859436 80.0
158.932205 112.0
159.020035 256.0
159.042633 148.0
159.078766 2056.0
159.160629 128.0
159.333939 152.0
160.084839 228.0
160.201904 96.0
160.268555 68.0
160.310257 176.0
160.337982 116.0
160.375793 88.0
160.834869 140.0
160.940918 56.0
161.060898 684.0
161.090881 644.0
161.193512 80.0
161.259232 76.0
161.372986 104.0
162.067169 112.0
162.65239 84.0
162.708252 152.0
162.870773 260.0
163.052307 900.0
163.073517 440.0
163.310532 40.0
164.062393 200.0
164.194351 176.0
164.222412 152.0
164.487793 216.0
164.991058 132.0
165.068649 884.0
165.147064 48.0
165.179459 88.0
165.259628 88.0
165.367111 136.0
165.559128 156.0
165.741013 104.0
165.869156 120.0
166.052444 84.0
166.07312 320.0
166.135864 44.0
166.166656 212.0
166.364273 164.0
166.56459 204.0
166.916702 128.0
167.027298 200.0
167.061569 172.0
167.084396 624.0
167.109619 64.0
167.361877 152.0
167.428833 84.0
167.493225 112.0
167.756073 128.0
168.048676 148.0
168.072067 176.0
168.091385 68.0
169.008728 100.0
169.061432 1320.0
169.106323 180.0
169.283127 60.0
169.412643 144.0
169.731445 148.0
169.845566 68.0
169.907822 112.0
169.949341 104.0
169.998642 36.0
170.032379 168.0
170.07132 192.0
170.102463 48.0
170.211517 112.0
170.35437 188.0
170.720871 256.0
170.845718 188.0
170.999252 140.0
171.079117 2256.0
171.110336 184.0
171.139832 152.0
171.173676 216.0
171.262238 144.0
171.290894 112.0
171.389893 224.0
171.57756 144.0
171.848816 80.0
172.013229 136.0
172.039337 52.0
172.083908 704.0
172.115067 172.0
172.175125 60.0
172.287445 48.0
172.663864 116.0
172.737106 104.0
173.027603 96.0
173.056015 456.0
173.09523 668.0
173.234497 116.0
173.271179 68.0
173.698502 192.0
174.013443 184.0
174.066895 212.0
174.089432 128.0
174.207794 48.0
174.704666 116.0
174.904541 176.0
175.012604 48.0
175.047287 216.0
175.073715 400.0
175.428894 232.0
176.054245 132.0
176.080658 292.0
176.141418 152.0
176.175751 228.0
176.233887 152.0
176.25502 168.0
176.529953 100.0
176.5802 124.0
176.598709 56.0
177.07019 1156.0
177.305649 120.0
177.483276 68.0
177.607925 48.0
177.682205 208.0
177.783035 144.0
178.045868 176.0
178.075394 608.0
178.140518 256.0
178.287643 216.0
178.378006 116.0
178.707794 44.0
178.923386 168.0
179.015106 156.0
179.084213 740.0
179.232361 144.0
179.333633 124.0
179.394943 148.0
179.472275 76.0
179.837769 72.0
180.091263 312.0
180.762497 140.0
180.866882 184.0
181.024857 144.0
181.063599 1116.0
181.102173 404.0
181.268631 172.0
181.60376 196.0
181.630585 124.0
181.909668 72.0
182.070801 348.0
182.097336 208.0
182.42009 160.0
182.707855 140.0
182.869308 148.0
183.080109 1136.0
183.113403 156.0
183.141266 128.0
183.173599 164.0
183.432297 72.0
183.969147 108.0
184.042038 156.0
184.080017 256.0
184.113983 156.0
184.223007 100.0
184.420471 52.0
184.466217 168.0
184.744766 204.0
184.928787 364.0
184.960968 112.0
185.009995 148.0
185.059387 700.0
185.097214 768.0
185.31604 68.0
186.058975 160.0
186.101776 492.0
186.192261 180.0
186.534637 120.0
186.681458 188.0
186.9263 136.0
187.051239 200.0
187.074966 1024.0
187.104843 168.0
187.206696 44.0
187.323822 212.0
187.500931 160.0
187.830872 132.0
187.980927 164.0
188.078308 112.0
188.237534 64.0
188.308548 156.0
188.559433 92.0
188.740341 140.0
188.926346 180.0
189.072067 872.0
190.073944 380.0
190.293976 124.0
190.368118 68.0
190.750046 64.0
191.081085 380.0
191.526047 84.0
192.091614 308.0
192.961105 160.0
193.06546 212.0
193.099304 716.0
193.243225 108.0
193.584671 116.0
193.80809 92.0
194.071823 256.0
194.103165 552.0
194.160156 140.0
194.329376 188.0
194.72081 52.0
194.884705 132.0
194.954178 100.0
194.987534 176.0
195.018112 60.0
195.079269 924.0
195.113922 1060.0
195.158142 128.0
195.268356 192.0
195.674637 84.0
196.086761 1344.0
196.11499 300.0
196.145462 72.0
196.17334 52.0
196.296021 108.0
196.569412 168.0
196.960297 76.0
197.055695 316.0
197.093231 1548.0
197.130722 100.0
198.095413 1048.0
198.398712 108.0
198.892441 152.0
198.926132 200.0
199.081848 428.0
199.106033 480.0
199.173248 44.0
199.327774 224.0
199.426147 52.0
200.059082 160.0
200.081604 156.0
200.116547 208.0
200.521057 156.0
200.695831 156.0
201.068054 376.0
201.086914 220.0
201.469193 152.0
201.633087 52.0
201.880371 160.0
202.000671 60.0
202.074997 600.0
202.207245 128.0
202.518707 144.0
202.768036 176.0
203.084503 448.0
203.463028 44.0
203.732834 216.0
203.8806 64.0
203.903336 32.0
204.09198 604.0
204.187653 172.0
204.32135 80.0
204.40387 124.0
204.549026 72.0
204.583191 148.0
204.708466 164.0
204.752594 188.0
204.822403 120.0
204.936356 200.0
205.063004 776.0
205.098663 852.0
205.44101 56.0
206.071976 156.0
206.100662 464.0
206.126266 116.0
206.183426 196.0
206.480774 60.0
207.079803 984.0
207.112305 792.0
207.322495 80.0
207.873123 140.0
207.916168 192.0
208.086914 2328.0
208.123947 136.0
208.257843 80.0
209.010559 240.0
209.092407 1840.0
209.127274 124.0
209.151321 116.0
209.221207 112.0
209.379578 148.0
209.57547 188.0
209.843536 80.0
209.999268 28.0
210.069687 200.0
210.101303 484.0
210.137741 240.0
210.449463 52.0
210.723862 52.0
210.80188 80.0
210.916092 140.0
211.074112 344.0
211.109528 2452.0
211.268524 52.0
211.640778 128.0
211.692902 44.0
211.840622 112.0
211.950729 48.0
212.060318 196.0
212.08783 224.0
212.117218 1876.0
212.257996 172.0
212.501648 128.0
212.725128 60.0
212.754166 64.0
212.829651 128.0
212.849976 40.0
213.067123 200.0
213.089035 192.0
213.125916 900.0
213.599838 124.0
214.083008 144.0
214.131653 328.0
214.222809 184.0
214.70668 160.0
214.90213 104.0
215.036377 140.0
215.086304 420.0
215.118118 132.0
215.392609 32.0
215.594223 48.0
215.819321 48.0
216.089783 772.0
216.375244 96.0
216.404526 48.0
216.521667 128.0
216.627106 92.0
216.975861 228.0
217.098282 712.0
217.26329 72.0
217.545029 224.0
217.577316 36.0
218.074692 324.0
218.103821 452.0
218.150208 196.0
218.688522 168.0
218.988861 28.0
219.074814 444.0
219.112839 392.0
219.333618 104.0
219.472183 172.0
219.554749 136.0
220.082443 1044.0
220.121521 356.0
220.543869 48.0
220.67395 124.0
220.954926 228.0
220.984512 116.0
221.093567 1384.0
221.132935 744.0
221.247925 76.0
221.313065 100.0
221.452255 172.0
221.517426 160.0
221.567795 64.0
221.615204 56.0
221.680389 132.0
221.784119 172.0
222.00946 128.0
222.041275 176.0
222.049774 128.0
222.101013 1988.0
222.137009 44.0
222.448608 28.0
222.706955 44.0
222.911957 124.0
222.97139 128.0
223.018951 168.0
223.07692 304.0
223.109344 3360.0
223.167587 236.0
223.316284 40.0
223.35495 148.0
223.590012 44.0
223.7061 148.0
223.999283 196.0
224.049606 152.0
224.080475 616.0
224.116211 704.0
224.173737 44.0
224.844772 144.0
225.026871 140.0
225.090576 352.0
225.126587 1156.0
225.182159 168.0
225.304626 36.0
225.445068 152.0
225.577927 152.0
225.747025 172.0
226.06279 196.0
226.093369 676.0
226.135223 160.0
226.252701 84.0
226.297623 36.0
226.734985 60.0
227.093933 400.0
227.63501 84.0
227.917374 116.0
227.956436 260.0
228.090485 420.0
228.371338 164.0
228.783615 40.0
229.10112 436.0
229.699753 140.0
229.944168 36.0
230.107224 484.0
230.442444 224.0
231.081482 880.0
231.116043 892.0
231.5345 36.0
231.62233 56.0
231.761887 188.0
231.785934 80.0
231.995071 60.0
232.084579 636.0
232.122681 380.0
232.674667 72.0
232.872055 48.0
233.017868 136.0
233.065918 128.0
233.092636 1272.0
233.13266 320.0
233.257965 120.0
233.598557 44.0
233.65332 112.0
233.778076 140.0
233.854172 184.0
234.027695 48.0
234.100601 1500.0
234.139725 180.0
234.429794 128.0
234.570007 52.0
234.655365 60.0
234.929855 108.0
235.067902 192.0
235.108505 2112.0
235.387695 156.0
235.460999 92.0
235.561798 108.0
235.732895 164.0
235.879608 116.0
236.059998 124.0
236.115265 1140.0
236.157867 124.0
236.595474 224.0
237.094147 448.0
237.127075 2032.0
237.226578 72.0
237.536316 32.0
237.585388 28.0
237.705063 160.0
237.735748 176.0
238.09671 340.0
238.131882 456.0
238.479019 148.0
238.525116 60.0
238.568161 64.0
238.629654 88.0
239.108093 900.0
239.139618 372.0
239.19574 40.0
239.482101 192.0
239.679276 32.0
239.72551 88.0
239.74707 84.0
239.784058 128.0
239.839539 80.0
240.088318 152.0
240.111298 732.0
240.311401 76.0
240.456436 44.0
240.765182 108.0
241.115417 688.0
241.157578 164.0
241.352341 76.0
241.547195 48.0
241.794724 80.0
241.890686 140.0
241.943314 80.0
242.088608 188.0
242.119293 300.0
242.178665 96.0
242.474915 104.0
242.748932 108.0
243.087921 248.0
243.117462 792.0
243.664627 144.0
244.093216 396.0
244.12085 172.0
244.544693 40.0
244.809341 44.0
245.093552 844.0
245.128296 260.0
245.267349 36.0
246.101852 2328.0
246.681473 60.0
246.94101 100.0
247.069992 136.0
247.10994 1412.0
247.16626 48.0
247.560699 100.0
247.617065 120.0
247.732971 80.0
248.002472 40.0
248.07872 368.0
248.115082 976.0
248.328568 52.0
249.089432 644.0
249.123306 1608.0
249.257858 48.0
249.3647 92.0
249.606323 116.0
249.653961 120.0
249.823807 72.0
249.987427 48.0
250.034637 212.0
250.072403 48.0
250.102524 700.0
250.127731 808.0
250.169998 108.0
250.195175 80.0
250.522705 116.0
251.106873 1216.0
251.140381 1748.0
251.383514 72.0
251.604462 68.0
251.752869 60.0
251.898163 76.0
251.932922 120.0
251.970825 52.0
252.116318 356.0
252.151535 484.0
252.359604 80.0
252.593628 96.0
252.795822 124.0
253.04303 168.0
253.119171 732.0
253.492828 48.0
253.71788 164.0
253.892288 124.0
254.087814 188.0
254.127945 328.0
254.168289 84.0
254.49205 216.0
254.939972 164.0
255.12587 352.0
255.184738 44.0
255.83696 136.0
255.897461 68.0
256.083832 192.0
256.107452 128.0
256.135254 204.0
257.041779 144.0
257.096985 604.0
257.172638 56.0
257.68042 72.0
257.96225 212.0
258.100342 1260.0
258.620636 168.0
258.659027 56.0
258.934418 204.0
259.049713 120.0
259.107208 1752.0
259.629883 80.0
259.719696 56.0
260.114075 768.0
260.271729 60.0
260.972198 152.0
261.092285 1244.0
261.124664 2912.0
261.17804 64.0
261.264893 68.0
261.309937 36.0
261.348541 200.0
261.583496 40.0
261.705841 140.0
261.738037 148.0
261.834656 52.0
262.096863 948.0
262.133087 624.0
262.292206 60.0
262.601746 56.0
262.66626 92.0
262.985718 152.0
263.027679 56.0
263.10675 816.0
263.14151 1496.0
263.410065 48.0
263.483032 184.0
263.579987 152.0
263.718933 140.0
263.938782 52.0
264.074615 144.0
264.111389 588.0
264.142395 284.0
264.433777 108.0
265.075012 140.0
265.11618 520.0
265.259766 52.0
265.889038 108.0
265.950714 84.0
266.106903 372.0
266.121185 116.0
266.129486 404.0
266.327362 220.0
267.105774 308.0
267.135345 1056.0
268.100616 320.0
268.139709 508.0
268.178833 164.0
268.52771 92.0
268.553802 64.0
268.91272 180.0
269.088989 196.0
269.12619 180.0
269.148285 156.0
270.082489 172.0
270.111938 52.0
270.138092 52.0
270.514435 56.0
270.681427 48.0
270.78949 60.0
271.069153 188.0
271.097961 464.0
271.153992 328.0
271.582733 100.0
271.864899 88.0
271.92395 88.0
272.110504 216.0
272.142914 140.0
272.252289 140.0
273.12381 1448.0
273.179199 144.0
273.768402 80.0
274.097778 224.0
274.127136 496.0
274.135254 276.0
274.328552 60.0
274.407654 84.0
274.76059 144.0
274.816681 104.0
275.1008 948.0
275.308533 72.0
275.529846 64.0
275.92691 176.0
275.976044 68.0
276.111755 360.0
276.392822 64.0
276.47226 68.0
276.578186 48.0
277.048431 140.0
277.084503 504.0
277.119873 1744.0
277.333405 140.0
277.487976 92.0
277.764496 48.0
278.123718 596.0
279.073029 148.0
279.098297 120.0
279.135742 1324.0
280.083496 156.0
280.136139 572.0
280.211365 48.0
280.491302 32.0
280.731354 120.0
280.884796 92.0
281.13266 952.0
281.335297 28.0
282.109436 172.0
282.119751 164.0
282.133606 188.0
282.183929 152.0
282.620544 120.0
283.111511 160.0
283.142639 260.0
283.164948 156.0
283.459259 72.0
283.750885 192.0
284.113098 152.0
284.149994 168.0
285.096588 148.0
285.122253 168.0
285.154083 168.0
286.099548 164.0
286.368744 124.0
286.436096 160.0
287.093353 164.0
287.120361 184.0
288.117859 244.0
289.076569 144.0
289.122009 864.0
289.818054 76.0
290.098877 140.0
290.124268 396.0
290.180725 72.0
290.787964 48.0
291.133759 1188.0
291.451019 124.0
291.798645 100.0
292.09726 160.0
292.136719 452.0
293.015381 56.0
293.120361 200.0
294.117279 444.0
294.1427 284.0
294.560822 32.0
295.098022 172.0
295.128693 952.0
295.675507 80.0
295.829559 72.0
296.062378 192.0
296.136566 188.0
296.538635 44.0
296.607178 168.0
297.144714 380.0
297.179932 244.0
297.217682 112.0
298.132843 348.0
298.303009 188.0
298.681274 44.0
299.143738 752.0
299.373077 84.0
299.545319 68.0
299.941589 68.0
300.136658 152.0
300.245026 84.0
300.831604 72.0
301.118896 568.0
301.975403 108.0
302.06189 124.0
302.119141 188.0
302.899597 76.0
303.05899 128.0
303.10556 136.0
303.915436 72.0
304.101135 424.0
304.755737 60.0
304.828705 56.0
304.97467 44.0
305.033783 76.0
305.114685 140.0
305.893036 64.0
306.109985 196.0
306.142487 160.0
306.248199 44.0
307.128662 328.0
308.104065 176.0
308.134735 164.0
309.144684 500.0
309.884949 84.0
309.951538 176.0
310.143463 120.0
311.138336 148.0
312.092773 104.0
312.156067 172.0
313.123901 160.0
313.159119 208.0
314.654327 168.0
314.823822 96.0
314.968658 184.0
315.056976 212.0
315.117035 252.0
317.109283 128.0
318.144318 160.0
319.132019 388.0
319.147156 432.0
319.221832 172.0
320.14389 300.0
321.128174 228.0
322.123138 148.0
322.555542 152.0
323.031158 112.0
325.145416 180.0
325.299622 216.0
325.357056 116.0
325.482727 84.0
326.105255 168.0
327.148987 276.0
328.149017 168.0
329.155457 292.0
329.235199 28.0
330.137085 156.0
331.07605 156.0
331.137634 292.0
332.152557 196.0
333.147247 96.0
333.678925 68.0
335.082764 36.0
335.120789 120.0
335.252777 164.0
336.494293 132.0
337.14325 268.0
338.138367 548.0
339.138947 260.0
340.136475 176.0
341.133881 172.0
341.242798 92.0
342.055878 204.0
342.129517 164.0
345.106873 112.0
345.140289 156.0
345.499054 68.0
347.158295 140.0
348.164246 148.0
349.152863 184.0
349.67746 40.0
354.574005 96.0
355.08017 128.0
355.150421 320.0
355.695526 112.0
356.029694 84.0
356.165192 160.0
357.142151 340.0
358.162354 124.0
358.829376 104.0
358.912354 112.0
360.543182 48.0
362.094391 32.0
362.810577 36.0
363.144287 108.0
367.16452 192.0
368.787231 100.0
370.394379 36.0
374.134827 104.0
375.097931 172.0
375.166656 224.0
377.147675 124.0
378.873627 148.0
381.190094 48.0
382.376251 92.0
386.016235 72.0
388.072021 276.0
395.723969 100.0
396.009094 144.0
398.206482 140.0
413.183655 104.0
415.184723 284.0
415.213104 280.0
421.049225 176.0
425.357056 108.0
433.010132 68.0
433.213104 132.0
435.041992 156.0
435.071045 108.0
440.731445 84.0
448.967926 116.0
453.203766 68.0
453.424133 152.0
455.180481 112.0
455.261169 124.0
455.36734 120.0
479.737946 92.0
480.357208 64.0
484.103027 164.0
504.515778 48.0
541.851013 72.0
551.629089 68.0
582.943176 88.0
583.58252 56.0
633.828064 48.0
643.556458 48.0
661.703735 92.0
694.736023 44.0
696.43689 88.0
763.296753 96.0
849.228821 56.0
853.346252 156.0
854.684082 72.0
877.493286 108.0
881.229492 76.0
889.90094 92.0
899.432495 72.0
907.77301 88.0
931.992249 132.0
942.473022 168.0
943.420349 112.0
946.044922 40.0
972.552979 112.0
979.592285 168.0
993.395691 184.0
994.067017 64.0
1007.50415 56.0
1012.938416 176.0
1014.712952 200.0
1015.144165 140.0
1016.5271 124.0
1025.16333 176.0
1029.533447 164.0
1030.67688 124.0
1037.602539 120.0
1047.499756 128.0
1058.706421 148.0
1060.008545 176.0
1084.18689 164.0
1091.125366 132.0
1105.776733 124.0
1107.339355 96.0
1122.045532 216.0
1122.552368 160.0
1142.069214 188.0
1150.94519 240.0
1152.539429 240.0
1155.528076 108.0
1160.364014 176.0
1164.333862 204.0
1165.733398 120.0
1168.194702 48.0
1168.773071 232.0
1169.126953 224.0
1171.183228 176.0
1173.248047 208.0
1173.950317 240.0
1175.690063 132.0
1179.535522 132.0
1186.079712 212.0
1187.49231 192.0
1191.260864 172.0
1201.194702 144.0
1209.258667 184.0
1209.99939 144.0
1210.712524 172.0
1211.516113 192.0
1217.974609 52.0
1218.308105 176.0
1229.986694 48.0
1230.650024 124.0
1241.089966 264.0
1243.005005 188.0
1261.4021 192.0
1263.743164 180.0
1264.337524 156.0
1269.239868 208.0
1277.002319 52.0
1278.041016 176.0
1278.261597 144.0
1278.759766 172.0
1282.492188 192.0
1283.918213 104.0
1286.522705 172.0
1297.468872 160.0
1300.603882 164.0
1301.027466 80.0
1303.167847 240.0
1310.377441 200.0
1315.512451 52.0
1317.563477 184.0
1318.95105 204.0
1319.11731 64.0
1321.258057 140.0
1324.226074 132.0
1329.359131 120.0
1336.167725 164.0
1336.553345 112.0
1338.533447 140.0
1341.542603 180.0
1344.358154 160.0
1344.701172 40.0
1352.522339 124.0
1353.056763 140.0
1353.481445 192.0
1354.184448 136.0
1355.598511 152.0
1357.306519 68.0
1358.281982 140.0
1362.459229 184.0
1362.554688 156.0
1364.171631 224.0
1365.745239 176.0
1370.044434 60.0
1377.22229 136.0
1378.692627 156.0
1379.986206 116.0
1381.650391 240.0
1381.768799 188.0
1382.87146 84.0
1384.00415 156.0
1388.213257 124.0
1390.097534 172.0
1391.663818 148.0
1393.780884 128.0
1395.616821 164.0
1405.710571 164.0
1411.156128 180.0
1412.47229 112.0
1421.763428 120.0
1430.9646 188.0
1436.202271 56.0
1439.0625 116.0
1440.625977 132.0
1443.301514 144.0
1444.541992 184.0
1448.766357 148.0
1449.304321 92.0
1454.841064 212.0
1455.729492 156.0
1457.256348 56.0
1463.228271 256.0
1463.68396 204.0
1464.5979 136.0
1466.822998 116.0
1467.989502 184.0
1469.576172 224.0
1471.873779 192.0
1472.240356 152.0
1473.134033 164.0
1473.691772 204.0
1475.143921 36.0
1476.994507 132.0
1478.21106 120.0
1478.348877 156.0
1478.417725 208.0
1491.526001 172.0
1492.533081 148.0
1495.487427 160.0
1500.124756 188.0
1500.548828 180.0
1502.770142 164.0
1503.148315 160.0
1504.537598 160.0
