>compound MLS001142768-01!methyl 1-[1-[(2S)-2-[(4-methylphenyl)sulfonylamino]propanoyl]piperidine-4-carbonyl]piperidine-4-carboxylate
>formula C23H33N3O6S
>ionization [M+H]+
>parentmass 480.216187
#inchi InChI=1S/C23H33N3O6S/c1-16-4-6-20(7-5-16)33(30,31)24-17(2)21(27)25-12-8-18(9-13-25)22(28)26-14-10-19(11-15-26)23(29)32-3/h4-7,17-19,24H,8-15H2,1-3H3/t17-/m0/s1
#inchikey ZFPDJLFLTOCCBJ
#Ion_Source LC-ESI
#Instrument qTof
#Compound_Source NIH Natural Product Library
#PI Dorrestein
#Data_Collector VVP/LMS
#Scan -1
#Precursor_MZ 480.217
#ExactMass 479.209
#Charge 1
#CAS_Number N/A
#Pubmed_ID N/A
#Smiles COC(=O)C1CCN(CC1)C(=O)C2CCN(CC2)C(=O)[C@H](C)NS(=O)(=O)c3ccc(C)cc3
#INCHI_AUX N/A
#Library_Class 1
#SpectrumID CCMSLIB00000080509
#IonMode Positive
#UpdateWorkflowName UPDATE-SINGLE-ANNOTATED-GOLD
#LibraryQualityString Gold
#TaskID b1d8e8f6646f4e71acdff9ca3d919d08
##Scan# 1908
#SpectrumFile p2-A10_GA10_01_17986.mzXML
#LibraryName NIH_Natural_Products_Library.mgf
#MQScore -1
#Organism NIH_Natural_Products_Library
#TIC_Query 0
#RT_Query -1
#MZErrorPPM -1
#SharedPeaks 0
#MassDiff 0
#LibMZ -1
#SpecMZ 480.217
#SpecCharge 0
#internalFilename spec-00000.mgf

>collision 10
95.38604 204.0
95.46611 132.0
95.508545 160.0
95.642799 116.0
95.777161 140.0
96.094925 52.0
96.256927 236.0
96.540283 200.0
96.779015 168.0
96.900452 144.0
97.304474 148.0
97.640495 196.0
98.020439 140.0
98.170258 120.0
98.839912 152.0
99.022041 136.0
99.095337 108.0
99.221931 156.0
99.271751 168.0
99.325302 140.0
99.710495 212.0
100.084488 172.0
100.142235 180.0
100.221924 252.0
100.26178 248.0
100.433243 136.0
100.515045 60.0
100.574913 120.0
101.194641 116.0
101.286758 64.0
102.119751 128.0
102.166443 208.0
102.552643 152.0
102.631264 112.0
103.024834 172.0
103.115761 208.0
103.178421 136.0
103.26133 160.0
103.423195 172.0
103.708794 96.0
104.193787 252.0
104.208008 200.0
105.232498 192.0
106.063522 176.0
106.417992 224.0
106.518616 280.0
107.207367 208.0
107.282082 220.0
107.321259 108.0
107.56057 168.0
108.081375 36.0
108.118629 92.0
108.593071 244.0
108.613815 64.0
109.002052 88.0
109.122604 160.0
109.255714 172.0
109.362335 184.0
109.4347 152.0
109.513832 60.0
110.035172 152.0
110.059021 340.0
110.098663 452.0
110.304665 72.0
110.436394 112.0
110.624718 116.0
110.779686 140.0
111.280922 156.0
111.352318 164.0
111.524612 216.0
111.661278 128.0
111.995934 104.0
112.0187 84.0
112.076401 11444.0
112.099281 412.0
112.139206 96.0
112.196121 28.0
112.261482 28.0
112.357391 120.0
112.421814 80.0
112.440811 120.0
112.508354 52.0
112.73436 116.0
112.82869 140.0
112.890793 184.0
113.04734 176.0
113.077522 1564.0
113.333206 100.0
113.540947 76.0
113.557915 40.0
113.770111 76.0
113.795593 144.0
113.86142 156.0
113.89328 60.0
113.950638 132.0
114.012558 200.0
114.081802 200.0
114.114288 88.0
114.139809 160.0
114.188721 92.0
114.367447 36.0
115.055984 140.0
117.114189 136.0
117.483238 116.0
117.783302 156.0
117.850273 56.0
118.300117 128.0
118.693718 60.0
118.805054 128.0
119.059311 176.0
119.076385 196.0
119.254547 148.0
119.545982 200.0
119.676582 188.0
120.079735 164.0
120.146332 196.0
120.188812 200.0
120.335052 176.0
120.448608 96.0
120.531631 164.0
120.774658 124.0
120.984375 144.0
121.420425 204.0
121.593742 116.0
121.802338 96.0
121.982521 156.0
122.006706 208.0
122.123253 156.0
122.160645 120.0
122.288269 132.0
122.424767 108.0
122.596603 196.0
122.627457 168.0
122.724457 128.0
123.024506 392.0
123.041832 160.0
123.15258 168.0
123.205597 236.0
123.831596 136.0
123.891403 116.0
124.028801 160.0
124.310036 208.0
124.574677 208.0
125.455933 60.0
125.904427 44.0
126.197159 200.0
126.461128 164.0
126.631294 228.0
127.077393 296.0
127.268173 180.0
127.32431 164.0
127.768593 172.0
128.192688 192.0
128.623474 64.0
129.308334 132.0
129.525696 180.0
130.474274 192.0
130.738312 152.0
131.524445 108.0
132.191803 236.0
132.968704 156.0
133.163864 56.0
133.715652 184.0
133.851486 108.0
134.723312 192.0
134.910507 128.0
135.451996 132.0
136.508026 188.0
136.582443 72.0
137.105743 212.0
137.292816 76.0
137.311478 148.0
138.065842 52.0
138.090088 448.0
138.608932 176.0
138.808182 116.0
139.025223 212.0
139.303406 176.0
139.357452 116.0
139.924271 56.0
140.018463 104.0
140.084412 164.0
140.220306 244.0
140.229233 164.0
140.277649 192.0
141.007004 140.0
141.484818 100.0
141.567703 220.0
141.733521 208.0
142.085724 1404.0
142.262405 92.0
142.366882 124.0
142.426254 120.0
142.47139 164.0
142.540298 176.0
142.640121 120.0
142.823212 100.0
142.974564 232.0
143.089737 148.0
143.373199 188.0
143.549606 36.0
143.721359 200.0
144.053223 160.0
144.102264 21352.0
144.192093 100.0
144.218094 88.0
144.258728 88.0
144.368958 216.0
144.39502 116.0
144.581787 60.0
144.646255 120.0
144.783432 164.0
144.823456 96.0
144.859375 228.0
144.97438 72.0
144.995956 116.0
145.104706 1640.0
145.295685 48.0
145.386871 120.0
145.461273 72.0
145.489624 92.0
145.571716 68.0
145.773514 36.0
145.872055 124.0
145.96582 64.0
146.007904 192.0
146.10585 344.0
146.338776 108.0
146.386932 76.0
146.459183 44.0
146.852066 232.0
146.98233 80.0
147.462921 144.0
147.922485 92.0
148.343994 208.0
148.848648 68.0
149.098862 132.0
149.128036 96.0
149.480667 176.0
149.568283 52.0
149.841034 196.0
150.028687 144.0
150.436096 60.0
151.083694 168.0
151.514572 72.0
151.774384 192.0
151.990234 188.0
152.319214 64.0
152.474014 104.0
153.027481 156.0
153.111206 188.0
153.244232 128.0
153.673248 56.0
153.78923 104.0
154.107803 184.0
154.226425 92.0
154.357452 44.0
154.401962 196.0
154.424225 144.0
154.451431 148.0
154.736023 160.0
154.758301 64.0
154.804184 152.0
154.825165 96.0
154.93663 140.0
154.973312 160.0
155.016418 14268.0
155.067963 212.0
155.110092 84.0
155.127441 124.0
155.164627 60.0
155.209259 124.0
155.31839 164.0
155.338226 72.0
155.37793 44.0
155.40033 124.0
155.591354 68.0
155.678268 64.0
155.742844 164.0
156.020599 1936.0
156.795288 180.0
156.897491 188.0
156.949844 68.0
157.012589 1244.0
157.06955 116.0
157.139404 140.0
157.166855 112.0
157.231735 48.0
157.321594 52.0
157.563843 92.0
158.011353 184.0
158.108948 156.0
158.833054 148.0
159.551254 176.0
161.22496 72.0
161.49295 168.0
161.576431 176.0
162.085342 160.0
162.88707 112.0
163.825745 164.0
163.86142 64.0
164.072952 124.0
165.439728 100.0
166.318985 132.0
166.421677 76.0
166.452484 48.0
166.902161 112.0
167.04361 168.0
167.082199 132.0
167.391068 64.0
167.646103 180.0
167.684753 144.0
167.893585 96.0
167.95549 108.0
168.554443 132.0
168.712097 116.0
170.083786 532.0
170.394089 128.0
171.084473 340.0
171.995651 108.0
173.104172 168.0
173.473602 112.0
174.082306 168.0
176.945877 112.0
178.133972 116.0
180.171921 136.0
180.262772 260.0
181.100159 228.0
182.064011 328.0
183.071472 152.0
183.098404 124.0
183.152267 132.0
183.599686 124.0
183.783112 80.0
184.039536 172.0
185.140121 136.0
185.343277 84.0
186.79306 68.0
187.416504 144.0
187.574585 152.0
187.708176 164.0
187.849243 72.0
188.693863 164.0
191.487366 176.0
193.323288 48.0
193.456146 196.0
194.723328 216.0
195.21524 168.0
195.713333 44.0
196.022522 120.0
197.930405 60.0
198.022812 152.0
198.058929 6288.0
198.113632 184.0
198.16568 56.0
198.218918 88.0
198.246948 76.0
198.277771 28.0
198.415115 124.0
198.462784 144.0
198.482407 172.0
198.821854 92.0
199.061478 992.0
199.094162 196.0
199.139099 56.0
199.158768 68.0
199.324524 40.0
199.365463 140.0
199.43132 64.0
199.459427 164.0
199.751862 48.0
199.771561 44.0
199.802505 60.0
200.057449 452.0
200.568466 92.0
200.650223 144.0
201.005615 44.0
201.062057 180.0
201.29071 140.0
201.661499 180.0
202.014267 204.0
203.641296 184.0
206.372787 20.0
206.694565 168.0
207.089645 112.0
207.476486 152.0
208.38916 200.0
209.315338 72.0
209.66391 60.0
211.571442 196.0
212.18161 220.0
213.700592 204.0
214.108124 132.0
216.066757 200.0
217.623047 128.0
219.553421 104.0
220.40654 240.0
220.805344 204.0
222.037674 36.0
222.325455 192.0
222.58075 72.0
223.145279 88.0
224.431534 236.0
225.135773 44.0
225.39566 80.0
225.856064 220.0
226.008636 112.0
228.162125 200.0
228.204224 112.0
228.46286 96.0
230.328842 208.0
230.697723 276.0
231.429657 140.0
231.778 68.0
232.490616 228.0
232.681854 100.0
235.361221 116.0
235.947845 68.0
236.74646 92.0
237.159286 888.0
237.21524 220.0
238.091629 300.0
238.143799 1612.0
239.018982 68.0
239.14711 496.0
239.171967 172.0
239.991425 200.0
240.145462 164.0
243.072266 80.0
244.081802 156.0
244.392853 100.0
244.853561 48.0
245.373947 152.0
245.592239 48.0
248.696136 56.0
249.128174 312.0
251.10939 64.0
251.263962 100.0
251.314453 140.0
251.595337 276.0
252.486404 80.0
253.153931 456.0
253.524796 104.0
253.5755 124.0
253.664261 140.0
253.702301 144.0
254.161987 128.0
254.419266 200.0
254.444656 40.0
254.466888 124.0
254.574844 124.0
254.606598 80.0
254.644714 208.0
254.75589 168.0
254.822601 144.0
254.974686 128.0
255.095917 180.0
255.171707 20684.0
255.225052 84.0
255.256897 168.0
255.309433 52.0
255.35257 72.0
255.515701 52.0
255.567917 88.0
255.595596 112.0
255.630249 64.0
255.687027 76.0
255.738464 112.0
255.964493 76.0
256.004486 128.0
256.051208 144.0
256.094849 60.0
256.172882 4736.0
256.268158 36.0
256.337189 56.0
256.426422 56.0
256.474243 120.0
256.60495 204.0
256.659515 156.0
256.694214 40.0
256.828156 48.0
256.869629 80.0
257.0802 196.0
257.171906 148.0
257.274902 84.0
257.300446 32.0
257.476074 64.0
257.54953 28.0
257.603851 60.0
257.645355 72.0
257.674133 96.0
257.709259 64.0
257.757202 148.0
257.814728 76.0
257.872253 132.0
257.961731 128.0
257.993713 36.0
258.118408 108.0
258.173218 168.0
258.377472 60.0
258.713501 128.0
258.934448 48.0
259.283661 112.0
259.905792 68.0
260.140076 160.0
260.358398 120.0
260.512573 40.0
260.586487 40.0
261.976318 60.0
263.119843 616.0
264.491852 64.0
265.152588 80.0
266.088501 396.0
266.947845 120.0
268.092133 108.0
268.308868 108.0
270.392883 112.0
273.247742 124.0
280.130524 204.0
281.077393 212.0
281.15036 1568.0
281.185028 900.0
281.361115 56.0
281.895508 44.0
282.039246 40.0
282.152374 144.0
282.192291 232.0
282.500702 88.0
282.570953 88.0
282.838654 80.0
283.150055 60.0
283.981232 144.0
285.499298 208.0
291.123688 156.0
292.108398 168.0
292.71759 144.0
294.098358 136.0
296.221802 52.0
302.513367 132.0
305.198669 196.0
309.125946 980.0
309.182404 172.0
310.117584 200.0
310.159912 180.0
311.132782 200.0
311.661652 156.0
312.642731 112.0
317.128113 156.0
319.027191 156.0
319.105408 188.0
322.168671 252.0
323.190948 196.0
323.225128 64.0
324.200195 420.0
324.338928 72.0
325.199768 284.0
326.205963 100.0
335.968933 104.0
337.122437 132.0
338.132111 128.0
348.137939 124.0
366.7211 136.0
384.627258 64.0
385.4552 136.0
387.325287 88.0
388.146149 108.0
389.066437 160.0
397.771088 84.0
398.239624 96.0
403.851624 48.0
405.140564 176.0
409.181458 156.0
409.966217 44.0
410.208038 216.0
414.119446 56.0
426.112823 72.0
431.590546 208.0
432.289612 32.0
434.205597 508.0
435.210114 132.0
435.240295 140.0
435.660492 208.0
437.040802 80.0
437.1698 512.0
438.174683 164.0
439.186249 136.0
443.409119 84.0
448.196472 152.0
452.529175 36.0
462.127075 116.0
462.207886 156.0
466.260864 52.0
479.199493 52.0
480.216187 420.0
480.468201 96.0
481.218262 392.0
481.384796 76.0
482.223999 332.0
489.057098 76.0
528.836365 92.0
539.609985 96.0
582.137939 92.0
632.495178 152.0
667.391602 188.0
677.522949 92.0
725.518799 200.0
767.84314 76.0
773.810974 168.0
788.457275 76.0
791.735657 156.0
816.801758 20.0
824.058899 128.0
828.120422 168.0
837.891541 48.0
837.94342 200.0
844.211914 64.0
864.702087 68.0
869.073608 124.0
877.160034 156.0
889.356934 180.0
892.107178 184.0
895.308228 160.0
899.637024 116.0
906.431335 140.0
908.859802 56.0
909.495972 96.0
921.31665 188.0
934.016357 84.0
934.095459 44.0
934.338806 188.0
936.018677 184.0
945.101318 136.0
946.031555 68.0
950.468872 180.0
953.570068 152.0
958.801331 172.0
958.986206 224.0
959.904785 96.0
974.407043 200.0
974.854431 152.0
996.147522 168.0
999.787964 156.0
1002.029602 168.0
1004.204346 160.0
1010.198669 168.0
1012.401306 132.0
1012.508972 180.0
1014.657043 220.0
1016.28064 188.0
1018.502563 132.0
1019.366638 188.0
1025.017212 96.0
1036.192383 48.0
1037.884399 216.0
1040.084839 176.0
1044.672974 88.0
1048.420166 80.0
1054.71936 188.0
1054.771118 180.0
1055.889648 204.0
1064.892944 128.0
1066.223755 144.0
1066.451294 148.0
1073.567139 212.0
1075.604004 104.0
1075.922607 200.0
1080.242188 120.0
1082.447876 120.0
1086.977417 200.0
1090.154907 176.0
1093.463623 144.0
1098.068848 192.0
1098.609741 136.0
1099.137451 160.0
1099.804077 128.0
1103.483521 196.0
1107.387817 140.0
1114.253418 144.0
1123.060303 240.0
1124.341309 216.0
1124.982056 172.0
1125.516235 176.0
1131.439941 152.0
1131.727783 124.0
1148.784912 120.0
1155.060425 180.0
1166.098755 136.0
1167.00293 128.0
1169.213623 152.0
1184.178955 244.0
1191.766113 148.0
1199.577271 156.0
1201.873901 100.0
1202.446655 152.0
1202.9021 124.0
1206.231689 68.0
1206.687866 36.0
1213.424316 44.0
1223.05957 120.0
1228.243652 156.0
1231.126099 224.0
1232.481201 224.0
1232.970337 76.0
1234.962891 164.0
1239.660522 224.0
1243.419434 124.0
1246.985718 96.0
1249.195068 260.0
1249.884521 112.0
1253.757568 112.0
1259.973877 116.0
1264.081909 192.0
1265.518799 168.0
1265.731201 128.0
1266.439331 152.0
1267.530396 204.0
1273.844604 180.0
1276.65918 188.0
1279.904053 124.0
1283.338379 196.0
1288.384155 128.0
1289.491699 92.0
1289.656128 132.0
1290.542603 200.0
1290.592651 128.0
1290.86438 220.0
1291.908569 148.0
1294.628418 180.0
1298.017944 156.0
1299.351929 164.0
1303.13562 188.0
1303.466064 176.0
1303.933228 120.0
1305.852783 56.0
1306.831177 152.0
1308.371338 240.0
1319.611572 180.0
1323.207397 172.0
1323.258057 200.0
1326.373047 200.0
1328.359863 160.0
1329.869141 164.0
1334.627441 128.0
1339.350464 176.0
1343.739014 156.0
1344.213257 188.0
1353.562378 132.0
1355.994507 132.0
1359.030396 52.0
1359.213867 180.0
1360.021118 172.0
1362.165161 104.0
1365.877319 116.0
1369.012573 116.0
1370.588989 92.0
1371.915527 84.0
1376.733643 140.0
1382.559082 140.0
1389.576172 156.0
1394.157471 148.0
1398.619873 200.0
1401.688232 88.0
1404.014038 128.0
1404.431763 180.0
1405.05835 172.0
1405.177734 120.0
1406.289551 156.0
1407.663208 140.0
1408.664062 164.0
1409.822144 152.0
1410.382568 200.0
1411.257324 200.0
1412.820312 148.0
1413.793091 132.0
1414.511597 160.0
1415.162842 112.0
1415.709473 172.0
1415.896729 268.0
1416.690674 160.0
1418.811523 132.0
1419.628784 200.0
1423.26062 168.0
1423.816284 204.0
1430.741455 136.0
1435.646484 224.0
1440.091675 72.0
1440.605347 40.0
1440.786621 216.0
1441.549805 152.0
1442.970703 140.0
1444.036987 140.0
1445.073364 76.0
1446.36731 132.0
1446.624756 108.0
1448.328491 164.0
1449.267822 132.0
1452.300171 132.0
1455.404053 200.0
1459.157349 128.0
1460.305542 192.0
1461.537964 204.0
1469.980713 200.0
1471.27063 144.0
1473.49292 172.0
1473.920776 156.0
1474.493896 60.0
1477.766724 188.0
1482.66748 156.0
1483.226929 64.0
1483.679199 220.0
1485.550415 176.0
1487.737427 220.0
1489.910767 152.0
1494.192871 172.0
1496.86377 196.0
1502.899048 140.0
