>compound MLS000570053-01!
>formula C11H12O4
>ionization [M+H]+
>parentmass 209.081
#inchi InChI=1S/C11H12O4/c1-14-9-5-3-8(4-6-11(12)13)7-10(9)15-2/h3-7H,1-2H3,(H,12,13)/b6-4+
#inchikey HJBWJAPEBGSQPR
#Ion_Source LC-ESI
#Instrument qTof
#Compound_Source NIH Natural Product Library
#PI Dorrestein
#Data_Collector VVP/LMS
#Scan -1
#Precursor_MZ 209.081
#ExactMass 208.074
#Charge 1
#CAS_Number N/A
#Pubmed_ID N/A
#Smiles COc1ccc(/C=C/C(=O)O)cc1OC
#INCHI_AUX N/A
#Library_Class 3
#SpectrumID CCMSLIB00000079766
#IonMode Positive
#UpdateWorkflowName UPDATE-SINGLE-ANNOTATED-BRONZE
#LibraryQualityString Bronze
#TaskID b1d8e8f6646f4e71acdff9ca3d919d08
##Scan# 1690
#SpectrumFile p1-G10_GG10_01_17954.mzXML
#LibraryName NIH_Natural_Products_Library.mgf
#MQScore -1
#Organism NIH_Natural_Products_Library
#TIC_Query 0
#RT_Query -1
#MZErrorPPM -1
#SharedPeaks 0
#MassDiff 0
#LibMZ -1
#SpecMZ 209.081
#SpecCharge 0
#internalFilename spec-00000.mgf

>collision 10
95.04789 172.0
95.837509 156.0
96.536324 196.0
96.653694 212.0
98.727089 92.0
101.416908 76.0
101.946754 224.0
102.045807 980.0
102.153847 44.0
103.055748 688.0
103.447372 172.0
104.059624 196.0
104.510841 248.0
105.032715 800.0
105.067055 192.0
105.144592 148.0
105.185417 284.0
106.042442 176.0
106.536652 132.0
107.047157 152.0
108.043976 132.0
108.081215 204.0
113.576797 152.0
115.128357 132.0
116.024902 148.0
116.053833 180.0
116.989494 156.0
117.033897 536.0
118.038979 860.0
119.047813 2116.0
119.219513 60.0
119.239067 44.0
119.373856 64.0
119.662262 220.0
119.69809 32.0
119.820061 188.0
120.054115 716.0
120.144897 56.0
120.876846 68.0
121.027885 200.0
121.05854 188.0
121.951889 224.0
122.682266 80.0
123.037445 176.0
126.480942 156.0
127.47673 96.0
129.031555 160.0
129.722473 220.0
130.040497 240.0
131.052994 136.0
131.074783 44.0
131.134033 88.0
131.263977 112.0
132.033569 184.0
132.057404 1240.0
132.67012 68.0
133.026947 1664.0
133.064926 560.0
133.11293 88.0
133.834961 96.0
134.030502 176.0
135.077789 204.0
139.455688 40.0
140.083954 160.0
142.295166 144.0
145.020767 184.0
145.038589 176.0
146.398453 96.0
147.042831 968.0
147.167664 44.0
148.049301 988.0
148.304672 40.0
148.413773 44.0
148.91124 192.0
149.059219 360.0
149.905594 72.0
150.052521 164.0
150.198837 88.0
152.046112 200.0
153.354538 188.0
154.01828 132.0
156.976654 208.0
157.068939 168.0
157.643173 212.0
158.045761 148.0
158.190918 120.0
160.050049 628.0
160.620865 48.0
161.027237 140.0
161.049973 128.0
161.067657 164.0
162.013748 128.0
162.952454 156.0
163.010895 100.0
163.075455 1496.0
163.985596 184.0
164.073547 72.0
164.431931 64.0
165.02713 92.0
167.01976 144.0
173.423035 148.0
175.038727 168.0
176.049606 272.0
191.074875 588.0
192.716797 72.0
193.08168 152.0
195.854416 64.0
196.088455 120.0
224.275345 104.0
230.016602 144.0
249.923553 88.0
267.011414 188.0
269.946503 80.0
289.760925 116.0
301.332367 80.0
378.912506 64.0
714.956909 140.0
765.075256 240.0
834.563538 152.0
939.0224 120.0
953.034912 224.0
956.811279 112.0
993.360229 184.0
995.324646 152.0
1043.104248 156.0
1066.594849 144.0
1069.821289 148.0
1079.758911 212.0
1153.837891 204.0
1160.039062 344.0
1163.403809 212.0
1167.983887 196.0
1206.088745 92.0
1243.120361 132.0
1247.664795 164.0
1254.726074 128.0
1259.213989 268.0
1266.725708 68.0
1273.038086 264.0
1284.639648 52.0
1295.068726 112.0
1296.286621 176.0
1316.176147 240.0
1355.874268 224.0
1360.811035 144.0
1401.782715 200.0
1415.557495 72.0
1416.141724 168.0
1416.216553 116.0
1423.15332 100.0
1443.709961 136.0
1446.100708 164.0
1457.43042 144.0
1464.512939 184.0
1484.498413 76.0
1497.756104 152.0
