>compound MLS001141337-01!(2R)-1-[3-[(10aS)-1,3-dioxo-10,10a-dihydro-5H-imidazo[1,5-b]isoquinolin-2-yl]propanoyl]pyrrolidine-2-carboxylic acid
>formula C19H21N3O5
>ionization [M+H]+
>parentmass 372.156
#inchi InChI=1S/C19H21N3O5/c23-16(20-8-3-6-14(20)18(25)26)7-9-21-17(24)15-10-12-4-1-2-5-13(12)11-22(15)19(21)27/h1-2,4-5,14-15H,3,6-11H2,(H,25,26)/t14-,15+/m1/s1
#inchikey WYKMLHCHJWMDNM
#Ion_Source LC-ESI
#Instrument qTof
#Compound_Source NIH Natural Product Library
#PI Dorrestein
#Data_Collector VVP/LMS
#Scan -1
#Precursor_MZ 372.156
#ExactMass 371.148
#Charge 1
#CAS_Number N/A
#Pubmed_ID N/A
#Smiles OC(=O)[C@H]1CCCN1C(=O)CCN2C(=O)[C@@H]3Cc4ccccc4CN3C2=O
#INCHI_AUX N/A
#Library_Class 1
#SpectrumID CCMSLIB00000080084
#IonMode Positive
#UpdateWorkflowName UPDATE-SINGLE-ANNOTATED-GOLD
#LibraryQualityString Gold
#TaskID b1d8e8f6646f4e71acdff9ca3d919d08
##Scan# 1655
#SpectrumFile p2-H03_GH3_01_18063.mzXML
#LibraryName NIH_Natural_Products_Library.mgf
#MQScore -1
#Organism NIH_Natural_Products_Library
#TIC_Query 0
#RT_Query -1
#MZErrorPPM -1
#SharedPeaks 0
#MassDiff 0
#LibMZ -1
#SpecMZ 372.156
#SpecCharge 0
#internalFilename spec-00000.mgf

>collision 10
95.013023 100.0
95.073174 116.0
95.640701 208.0
96.085014 112.0
96.188446 160.0
97.365204 96.0
98.351639 172.0
99.805801 116.0
100.824463 148.0
101.769981 172.0
101.96685 124.0
102.736053 160.0
103.040901 144.0
103.055046 148.0
104.22419 44.0
105.077316 184.0
106.186043 176.0
107.197525 152.0
107.729851 164.0
108.048172 152.0
108.296638 136.0
109.043579 144.0
110.093613 128.0
110.547256 164.0
110.781761 192.0
110.94313 164.0
112.421814 56.0
112.749374 116.0
112.774513 132.0
113.288719 160.0
115.049606 172.0
115.660988 148.0
115.832298 132.0
116.066727 292.0
116.860641 164.0
117.056519 248.0
117.070717 208.0
117.213776 188.0
118.083794 232.0
118.792099 212.0
119.380714 124.0
121.091751 116.0
121.58725 240.0
122.656204 168.0
123.247673 144.0
123.47316 256.0
124.069824 188.0
124.224045 52.0
124.450417 224.0
125.460518 168.0
127.059578 184.0
127.60984 160.0
128.648453 180.0
128.921753 176.0
129.686737 116.0
129.779694 220.0
130.032242 208.0
130.064896 4276.0
130.174515 52.0
131.016098 168.0
131.038879 48.0
131.069962 672.0
131.27594 52.0
131.748413 76.0
131.901535 164.0
132.036423 160.0
132.081131 3904.0
132.146225 52.0
132.208008 68.0
132.349945 64.0
132.654663 76.0
133.084183 736.0
133.446716 48.0
133.522598 48.0
133.653717 124.0
134.358765 60.0
135.939117 228.0
137.085587 140.0
138.534225 144.0
139.242599 160.0
139.898636 184.0
141.440125 184.0
143.090042 128.0
144.07901 492.0
144.263824 60.0
145.077774 112.0
146.059204 196.0
146.100845 116.0
146.956131 64.0
148.276489 168.0
149.135681 164.0
150.626938 96.0
151.549271 156.0
152.074066 36.0
154.528534 88.0
155.150192 120.0
155.284088 160.0
156.078781 216.0
156.740906 176.0
157.055038 188.0
157.084976 164.0
157.299576 160.0
157.459381 152.0
157.749222 148.0
157.79422 84.0
158.009323 84.0
158.059204 2464.0
158.161972 56.0
158.249588 48.0
158.505081 96.0
158.738205 148.0
158.991577 92.0
159.063049 160.0
159.09198 168.0
159.471298 60.0
159.768021 168.0
160.074173 512.0
161.121857 140.0
162.580353 136.0
163.385849 108.0
164.915878 200.0
165.386505 184.0
165.506836 132.0
166.429932 124.0
167.082764 112.0
167.296371 148.0
167.7164 200.0
169.411423 100.0
170.080627 288.0
171.082565 104.0
172.095459 136.0
174.676941 108.0
174.713776 200.0
175.085464 928.0
175.466995 172.0
175.680618 96.0
175.736023 168.0
176.077606 132.0
176.086746 184.0
176.11882 160.0
176.570786 56.0
176.790375 208.0
178.243576 40.0
180.504059 88.0
182.999512 228.0
183.619308 156.0
185.069839 328.0
185.219421 192.0
185.815826 152.0
185.986801 128.0
186.090012 184.0
186.13884 172.0
186.600754 160.0
187.025131 236.0
187.056305 220.0
187.087128 5344.0
187.237503 40.0
187.335556 72.0
187.414566 52.0
187.441818 40.0
187.488144 92.0
187.529037 36.0
188.0336 60.0
188.088776 568.0
188.153717 64.0
188.51973 76.0
188.6698 124.0
189.0896 404.0
189.447281 64.0
189.630875 104.0
189.954437 60.0
193.559448 108.0
195.082657 56.0
196.006683 80.0
196.589508 168.0
200.092361 224.0
200.673721 128.0
201.063004 164.0
201.102371 132.0
201.870972 144.0
201.978439 120.0
202.108582 312.0
202.128387 48.0
202.267075 56.0
202.683395 204.0
202.737228 188.0
203.003723 112.0
203.026398 180.0
203.081909 5832.0
203.141922 172.0
203.337418 96.0
203.39241 60.0
203.42363 88.0
203.518433 72.0
203.741699 84.0
203.912201 48.0
204.084137 908.0
204.153854 72.0
204.173752 72.0
204.495255 44.0
205.079147 196.0
205.184616 108.0
205.929413 48.0
206.993286 52.0
211.114212 92.0
212.942963 148.0
213.088211 204.0
213.317795 40.0
214.109222 192.0
214.569626 176.0
215.007172 144.0
215.082565 1784.0
215.123932 140.0
215.798798 260.0
215.836823 88.0
216.086792 336.0
216.181992 40.0
216.36348 68.0
216.893707 120.0
217.07254 160.0
217.791595 80.0
219.109482 156.0
219.607681 124.0
219.796478 144.0
221.084915 132.0
221.164825 28.0
222.902756 216.0
223.087036 136.0
225.426788 56.0
228.23555 88.0
229.095825 784.0
230.095413 220.0
232.856262 192.0
233.087967 104.0
236.010361 164.0
240.12236 300.0
243.123367 44.0
249.872955 184.0
250.149902 136.0
255.072098 144.0
257.092499 3520.0
257.159973 116.0
257.359558 40.0
257.452148 64.0
257.474518 92.0
257.576721 36.0
257.678955 40.0
257.928223 56.0
257.950592 76.0
258.095428 688.0
258.126434 28.0
258.503906 44.0
259.092865 136.0
260.068787 72.0
260.18988 72.0
267.147614 188.0
268.030334 160.0
268.151398 164.0
270.162354 88.0
295.053528 36.0
309.083221 20.0
309.149719 172.0
319.85849 164.0
323.911438 48.0
323.972321 88.0
326.172089 164.0
331.861786 80.0
337.156464 160.0
338.632721 148.0
341.186707 120.0
345.013458 192.0
345.039337 112.0
352.682434 52.0
367.57843 52.0
369.186707 112.0
369.959625 96.0
370.177856 72.0
370.219971 92.0
370.457458 60.0
391.669128 52.0
396.168518 168.0
402.149078 188.0
451.505157 52.0
489.207123 56.0
525.733887 64.0
598.26947 92.0
641.508911 92.0
758.773376 28.0
856.543823 192.0
906.082886 156.0
969.597656 100.0
994.075439 208.0
1012.4646 136.0
1024.526733 124.0
1049.335815 160.0
1071.742554 172.0
1097.990479 108.0
1144.304565 160.0
1194.792969 152.0
1221.697632 268.0
1228.615356 208.0
1248.19873 144.0
1271.30542 248.0
1276.313354 184.0
1283.112915 204.0
1288.001221 156.0
1294.566772 172.0
1295.275757 148.0
1355.367676 144.0
1355.807373 184.0
1365.174805 164.0
1403.652588 156.0
1404.987671 208.0
1408.100342 108.0
1418.358276 232.0
1425.503174 168.0
1429.10498 188.0
1435.334106 144.0
1436.450317 168.0
1438.563232 220.0
1455.765381 224.0
1463.529053 248.0
1465.722778 148.0
1466.431519 116.0
1473.467041 128.0
1479.906982 140.0
1486.836548 76.0
1492.428833 96.0
1493.313232 192.0
1496.96106 144.0
1502.356323 176.0
