>compound MLS002172453-01!HA-10084468-24-6
>formula C13H15N3O2S
>ionization [M+H]+
>parentmass 278.095062
#inchi InChI=1S/C13H15N3O2S/c17-19(18,16-8-6-14-7-9-16)13-3-1-2-11-10-15-5-4-12(11)13/h1-5,10,14H,6-9H2
#inchikey UPTYCYWTFGTCCG
#origInchi InChI=1S/C13H15N3O2S.ClH/c17-19(18,16-8-6-14-7-9-16)13-3-1-2-11-10-15-5-4-12(11)13;/h1-5,10,14H,6-9H2;1H
#Ion_Source LC-ESI
#Instrument qTof
#Compound_Source NIH Pharmacologically Active Library
#PI Dorrestein
#Data_Collector VP/LMS
#Scan -1
#Precursor_MZ 278.1
#ExactMass 277.089
#Charge 1
#CAS_Number N/A
#Pubmed_ID N/A
#Smiles O=S(=O)(N1CCNCC1)c2cccc3cnccc23.Cl
#INCHI_AUX N/A
#Library_Class 1
#SpectrumID CCMSLIB00000085603
#IonMode Positive
#UpdateWorkflowName UPDATE-SINGLE-ANNOTATED-GOLD
#LibraryQualityString Gold
#TaskID d252d724072548979f1f6f1ced849daf
##Scan# 1134
#SpectrumFile p4-D03_GD3_01_18363.mzXML
#LibraryName Pharm_Active_Library.mgf
#MQScore -1
#Organism Pharm_Active_Library
#TIC_Query 0
#RT_Query -1
#MZErrorPPM -1
#SharedPeaks 0
#MassDiff 0
#LibMZ -1
#SpecMZ 278.1
#SpecCharge 0
#internalFilename spec-00000.mgf

>collision 10
45.160015 188.0
45.202827 200.0
45.212196 220.0
45.419868 164.0
45.925617 168.0
46.270206 100.0
46.344696 164.0
46.428741 128.0
46.832397 84.0
47.180363 208.0
47.458294 144.0
47.768673 192.0
48.096626 40.0
48.122856 168.0
48.234756 212.0
48.2472 196.0
48.879665 96.0
50.040028 100.0
50.18515 192.0
50.583546 244.0
50.756393 124.0
50.796104 164.0
50.957943 228.0
51.35083 64.0
52.867989 164.0
53.324825 40.0
53.674213 128.0
53.722343 240.0
53.953083 176.0
54.73658 232.0
54.8456 140.0
55.09203 68.0
55.430847 124.0
55.571709 188.0
56.568737 188.0
56.697548 192.0
56.877529 104.0
56.993168 160.0
57.173618 136.0
57.755997 232.0
57.78928 172.0
57.813492 224.0
58.107449 192.0
58.917389 128.0
59.289207 124.0
59.568455 172.0
59.688335 128.0
60.267899 148.0
60.301899 160.0
61.643089 188.0
61.902763 140.0
62.458344 144.0
63.583305 184.0
63.726219 132.0
64.457581 148.0
64.484749 196.0
64.860886 212.0
64.902573 96.0
64.920204 132.0
65.39093 84.0
65.632568 148.0
65.98616 120.0
66.054085 80.0
66.071877 36.0
66.283981 136.0
66.535385 80.0
67.088509 188.0
67.147209 172.0
67.400238 172.0
67.506493 72.0
67.607918 172.0
68.642845 208.0
69.004448 144.0
69.188095 208.0
69.629158 180.0
69.640785 188.0
69.833588 136.0
69.948395 184.0
70.7229 156.0
71.56395 200.0
71.862274 68.0
73.206467 156.0
73.233711 188.0
73.416069 188.0
75.219337 96.0
75.504425 136.0
75.951279 176.0
78.207085 276.0
78.607147 128.0
79.179924 196.0
79.273811 120.0
79.483055 176.0
79.747665 40.0
80.044762 176.0
80.976974 120.0
81.337364 224.0
83.358368 160.0
84.061272 80.0
85.034866 204.0
85.078926 128.0
85.474083 156.0
85.83696 148.0
85.899666 168.0
86.232025 140.0
86.328163 180.0
87.871719 248.0
88.191048 184.0
89.568298 56.0
91.058861 196.0
91.57798 188.0
92.041389 164.0
92.749496 132.0
93.319405 60.0
93.340553 36.0
93.434799 164.0
93.694702 116.0
95.166527 132.0
95.399658 204.0
95.586372 152.0
96.085167 104.0
96.855385 140.0
97.261269 220.0
98.770622 196.0
98.790405 168.0
98.84185 32.0
99.933151 188.0
99.968964 184.0
100.195953 152.0
100.850479 64.0
101.040451 136.0
101.681664 232.0
102.046799 568.0
102.089485 144.0
102.252441 112.0
103.053917 812.0
103.548599 56.0
104.052116 608.0
104.928352 100.0
105.05835 1440.0
105.111916 32.0
105.134369 108.0
105.201721 204.0
105.226936 80.0
105.827316 52.0
106.063087 320.0
107.248909 132.0
107.789619 156.0
107.930176 72.0
108.045532 160.0
108.587494 260.0
108.731865 72.0
108.864723 88.0
110.045364 144.0
111.072899 152.0
111.974594 160.0
113.073578 156.0
113.260872 44.0
113.614883 132.0
113.994942 112.0
114.216049 268.0
114.305405 156.0
114.341583 52.0
114.467186 140.0
115.810501 136.0
116.049942 156.0
116.544174 152.0
116.868843 52.0
116.978607 172.0
117.056633 684.0
117.288788 104.0
117.383652 112.0
117.482864 96.0
118.065407 524.0
118.232628 96.0
118.293236 80.0
119.065643 168.0
119.88092 88.0
120.042236 156.0
120.057503 156.0
120.618614 104.0
121.045242 184.0
121.68988 76.0
122.34063 120.0
122.686501 164.0
122.706337 168.0
122.772491 180.0
123.842178 200.0
124.987694 188.0
127.514717 188.0
127.69458 180.0
128.010376 260.0
128.05072 1688.0
128.424316 60.0
128.482971 80.0
128.557434 204.0
128.75383 148.0
128.835144 132.0
129.019272 124.0
129.057541 6472.0
129.196854 60.0
129.249908 64.0
130.064713 4360.0
130.095413 216.0
130.146484 72.0
130.335007 52.0
131.035797 104.0
131.070038 1016.0
131.656219 136.0
131.717896 92.0
132.045914 1168.0
132.076279 144.0
132.990982 128.0
133.048492 308.0
133.089706 32.0
133.466522 116.0
133.677002 112.0
134.050247 156.0
134.067337 72.0
134.632538 48.0
137.268753 184.0
138.12822 148.0
139.556442 32.0
141.77771 92.0
142.064606 388.0
142.102554 68.0
142.223587 136.0
143.041275 184.0
143.073486 128.0
143.789688 48.0
144.043198 228.0
144.080795 220.0
145.052002 1524.0
145.265991 104.0
145.842285 224.0
145.895172 128.0
145.943253 176.0
145.974518 144.0
146.060272 8220.0
146.260818 172.0
146.292099 96.0
146.497467 72.0
146.528107 36.0
146.581116 36.0
146.706451 48.0
147.063385 1088.0
147.143112 48.0
147.217957 80.0
147.457138 112.0
147.594925 60.0
147.953003 88.0
148.02565 132.0
148.064392 208.0
148.129791 132.0
148.544296 56.0
149.039566 192.0
152.959961 172.0
156.057419 916.0
156.510178 72.0
157.056046 176.0
157.075897 136.0
157.527725 72.0
157.857635 40.0
159.095367 104.0
161.04628 1484.0
162.051178 100.0
163.03064 144.0
163.050964 180.0
168.066818 188.0
169.080627 168.0
170.756607 192.0
171.083191 312.0
171.45433 48.0
172.09491 196.0
173.092255 136.0
173.666183 184.0
173.991577 200.0
176.005737 184.0
177.023788 100.0
178.034149 184.0
179.034058 124.0
180.496414 48.0
182.08017 112.0
182.539703 88.0
184.083771 204.0
186.315613 100.0
192.006775 168.0
193.98616 92.0
194.027313 2300.0
194.252792 132.0
195.027863 316.0
195.063217 64.0
196.017563 160.0
196.904953 140.0
199.280411 108.0
208.927505 196.0
216.940094 188.0
220.522369 60.0
223.856964 92.0
234.12355 128.0
235.056549 184.0
242.043427 100.0
242.926712 248.0
252.951675 176.0
257.949036 156.0
264.13913 44.0
266.609741 64.0
267.973145 148.0
274.66745 108.0
278.095062 1168.0
278.576843 64.0
279.070374 172.0
279.099121 276.0
279.126465 248.0
280.101166 244.0
280.963745 56.0
290.423248 84.0
349.947754 84.0
361.244385 36.0
696.843811 160.0
866.876038 180.0
869.121887 192.0
930.638977 52.0
933.719849 84.0
936.93988 176.0
944.735779 112.0
947.466125 128.0
955.85321 156.0
959.252869 220.0
964.604797 204.0
1012.054871 76.0
1017.609009 144.0
1019.101624 164.0
1020.836914 76.0
1027.582275 224.0
1032.417725 204.0
1033.946777 212.0
1051.382324 180.0
1130.29126 152.0
1134.121948 136.0
1136.469116 140.0
1143.511719 248.0
1147.041138 168.0
1149.671509 72.0
1156.79541 284.0
1166.026855 140.0
1171.783691 236.0
1171.844971 64.0
1175.486084 144.0
1179.611328 160.0
1183.086426 204.0
1183.134399 168.0
1184.880737 180.0
1189.489136 216.0
1192.820679 176.0
1195.668213 108.0
1197.981689 112.0
1200.53186 148.0
1201.125 192.0
1207.998169 132.0
1213.691162 68.0
1220.697388 128.0
1228.428345 164.0
1236.960571 48.0
1244.033691 296.0
1248.425049 164.0
1252.570557 232.0
1252.662109 172.0
1258.826294 44.0
1266.266113 192.0
1268.61853 60.0
1268.767456 156.0
1289.545776 116.0
1318.813599 204.0
1322.444458 208.0
1325.341187 192.0
1340.06897 144.0
1344.422241 208.0
1352.9375 144.0
1355.442383 172.0
1355.845337 200.0
1361.112427 148.0
1368.030884 164.0
1374.332275 128.0
1377.920532 180.0
1379.139771 176.0
1391.555542 84.0
1392.134766 216.0
1396.817017 216.0
1398.446655 152.0
1402.677368 208.0
1406.45166 116.0
1408.071899 164.0
1408.579834 168.0
1409.140137 208.0
1413.327148 180.0
1421.682373 216.0
1422.567993 164.0
1423.078491 60.0
1426.128418 136.0
1426.293823 64.0
1428.451904 256.0
1429.520264 52.0
1431.838989 192.0
1432.592163 132.0
1440.188232 96.0
1442.901001 112.0
1445.873779 184.0
1446.797241 72.0
1449.49353 172.0
1453.80835 144.0
1460.631104 136.0
1467.843384 172.0
1468.148438 76.0
1475.012329 152.0
1494.453369 132.0
1495.299927 148.0
1503.530884 136.0
