>compound MLS001049031-01!N-(4-bromophenyl)-2,2-diphenylacetamide
>formula C20H16BrNO
>ionization [M+H]+
>parentmass 366.049
#inchi InChI=1S/C20H16BrNO/c21-17-11-13-18(14-12-17)22-20(23)19(15-7-3-1-4-8-15)16-9-5-2-6-10-16/h1-14,19H,(H,22,23)
#inchikey KIKNJLOFPANLQI
#Ion_Source LC-ESI
#Instrument qTof
#Compound_Source NIH Natural Product Library
#PI Dorrestein
#Data_Collector VVP/LMS
#Scan -1
#Precursor_MZ 366.049
#ExactMass 365.042
#Charge 1
#CAS_Number N/A
#Pubmed_ID N/A
#Smiles Brc1ccc(NC(=O)C(c2ccccc2)c3ccccc3)cc1
#INCHI_AUX N/A
#Library_Class 1
#SpectrumID CCMSLIB00000080200
#IonMode Positive
#UpdateWorkflowName UPDATE-SINGLE-ANNOTATED-GOLD
#LibraryQualityString Gold
#TaskID b1d8e8f6646f4e71acdff9ca3d919d08
##Scan# 2630
#SpectrumFile p2-E05_GE5_01_18029.mzXML
#LibraryName NIH_Natural_Products_Library.mgf
#MQScore -1
#Organism NIH_Natural_Products_Library
#TIC_Query 0
#RT_Query -1
#MZErrorPPM -1
#SharedPeaks 0
#MassDiff 0
#LibMZ -1
#SpecMZ 366.049
#SpecCharge 0
#internalFilename spec-00000.mgf

>collision 10
95.486679 176.0
95.632607 176.0
96.295509 168.0
96.444 132.0
96.541756 112.0
97.121483 184.0
98.282188 84.0
98.36705 96.0
98.398636 116.0
99.120575 112.0
99.34462 244.0
99.564941 152.0
99.886925 152.0
100.139709 176.0
100.342964 44.0
100.496544 212.0
100.89399 104.0
101.148041 120.0
101.59893 144.0
101.894051 40.0
102.221786 64.0
102.654892 148.0
102.973755 204.0
103.105072 152.0
104.111946 176.0
104.469673 140.0
104.77504 224.0
104.92585 116.0
105.438202 180.0
105.650856 176.0
105.923119 132.0
105.94854 172.0
106.056305 176.0
106.222397 180.0
106.379349 148.0
106.42762 152.0
106.51593 128.0
107.19487 116.0
107.297928 168.0
107.638374 208.0
107.780899 132.0
108.775002 196.0
108.918274 172.0
109.928032 72.0
110.247032 216.0
110.316513 208.0
110.630302 56.0
110.877464 192.0
111.448242 156.0
111.626915 204.0
111.910973 144.0
112.172211 96.0
112.469627 156.0
112.824516 160.0
112.858345 44.0
113.135498 184.0
113.922264 152.0
113.988129 196.0
114.140327 180.0
114.294327 176.0
114.309227 88.0
114.360298 120.0
114.667 224.0
115.053741 196.0
115.10006 80.0
115.448372 140.0
115.542488 140.0
116.120842 200.0
116.268883 168.0
116.461845 164.0
116.833992 148.0
117.006157 184.0
117.161217 188.0
117.284569 200.0
117.974808 132.0
118.018051 76.0
118.040977 336.0
118.245186 100.0
118.307961 160.0
118.405396 84.0
118.613403 112.0
118.737823 156.0
118.817245 156.0
118.956131 164.0
119.693161 136.0
120.1007 228.0
120.249062 156.0
120.356316 156.0
121.007599 148.0
121.491936 208.0
122.043198 164.0
122.318199 108.0
123.03685 36.0
124.27626 200.0
124.482697 172.0
124.929443 204.0
124.991737 212.0
125.365845 176.0
125.486206 136.0
125.950386 216.0
126.283424 100.0
126.33934 208.0
126.446747 116.0
126.740105 180.0
126.867851 200.0
126.932877 136.0
127.022583 104.0
127.049507 176.0
127.514313 136.0
128.062271 248.0
128.275101 164.0
129.783051 204.0
130.096146 184.0
130.391418 112.0
130.520996 176.0
130.687042 196.0
130.741653 156.0
130.819046 140.0
130.945221 192.0
130.992111 64.0
131.142502 44.0
131.359756 244.0
131.811172 136.0
131.863724 176.0
132.04068 340.0
132.804749 252.0
132.901093 196.0
132.942398 180.0
133.162796 232.0
133.315659 148.0
133.977081 184.0
134.108429 144.0
134.532852 156.0
135.094406 172.0
135.180222 232.0
136.123489 188.0
136.448776 236.0
136.881546 140.0
137.291687 204.0
137.711777 120.0
138.382919 104.0
138.516418 248.0
138.771866 140.0
138.931335 76.0
138.982956 64.0
139.05101 132.0
139.476486 132.0
140.059677 132.0
140.417938 180.0
140.724701 184.0
141.066559 188.0
141.157104 84.0
141.44812 116.0
141.52829 152.0
142.064224 188.0
142.315796 244.0
142.47493 164.0
143.2314 200.0
143.329071 112.0
143.956436 124.0
144.001816 136.0
144.946762 108.0
145.025848 192.0
145.061798 268.0
145.340012 148.0
145.532028 212.0
145.738586 144.0
146.207504 200.0
146.754303 224.0
148.580338 208.0
148.871597 40.0
148.900391 136.0
149.274994 156.0
149.309036 180.0
149.391739 180.0
149.620499 148.0
150.432297 108.0
150.688721 52.0
150.98938 216.0
151.023621 172.0
151.0522 152.0
151.309937 132.0
151.508301 128.0
151.741135 112.0
151.929977 156.0
152.061264 3564.0
152.121384 52.0
152.141022 64.0
152.406281 72.0
152.524231 172.0
153.063736 508.0
153.260071 196.0
154.074265 172.0
154.271957 144.0
154.949036 428.0
155.277267 216.0
155.361603 72.0
155.42363 144.0
155.773682 52.0
156.941864 144.0
157.073074 48.0
157.39003 152.0
157.449951 200.0
157.612335 132.0
158.192566 80.0
159.10759 136.0
159.416534 200.0
160.839508 136.0
161.074341 160.0
161.329575 108.0
162.238403 184.0
162.324356 208.0
162.431122 188.0
162.575745 132.0
162.728043 164.0
163.027771 160.0
163.304886 156.0
163.411728 208.0
163.699356 172.0
164.076462 164.0
164.334045 172.0
164.515244 184.0
164.89328 72.0
164.982742 148.0
165.069244 3708.0
165.200119 104.0
165.402267 144.0
165.563568 68.0
165.871033 196.0
165.991531 172.0
166.042816 164.0
166.077042 1380.0
166.468826 68.0
166.903091 160.0
166.967377 208.0
167.011108 184.0
167.030396 164.0
167.08522 14156.0
167.140656 168.0
167.170609 40.0
167.191193 44.0
167.255539 116.0
167.31218 100.0
167.332779 60.0
167.410019 40.0
167.440918 80.0
167.513046 76.0
167.549103 96.0
167.665054 52.0
167.742386 52.0
167.760422 40.0
167.814575 32.0
167.915131 108.0
168.038956 100.0
168.090393 2004.0
168.170563 80.0
168.201538 68.0
168.224762 56.0
168.676834 116.0
169.092728 272.0
169.15538 140.0
169.31073 92.0
169.346985 104.0
169.41951 116.0
169.439255 188.0
169.484283 92.0
169.793533 68.0
169.961914 136.0
170.101532 92.0
170.343018 36.0
171.011276 148.0
171.819077 228.0
171.839951 96.0
171.958084 512.0
172.964157 108.0
173.125992 152.0
173.220276 132.0
173.962692 36.0
174.080551 152.0
174.26178 96.0
174.29332 88.0
174.472031 208.0
174.824493 160.0
174.850815 108.0
174.952301 260.0
175.852325 144.0
176.658234 188.0
178.924606 140.0
179.074203 372.0
179.385483 200.0
179.828262 128.0
179.862961 180.0
179.90834 124.0
179.932358 180.0
180.004456 112.0
180.025818 136.0
180.080627 16644.0
180.148682 288.0
180.239517 48.0
180.307526 84.0
180.375824 124.0
180.544266 100.0
180.910828 124.0
180.961685 92.0
181.085449 2248.0
181.186661 168.0
181.218811 48.0
181.280441 40.0
181.422501 120.0
181.470749 56.0
181.556564 68.0
181.66922 92.0
181.69873 160.0
181.916107 116.0
181.960373 2812.0
181.991272 156.0
182.066193 204.0
182.086838 272.0
182.179276 36.0
182.243744 100.0
182.335724 124.0
182.415756 124.0
182.475769 148.0
182.555557 80.0
182.579758 72.0
182.620102 128.0
182.727707 120.0
182.757294 68.0
182.95108 328.0
182.978912 200.0
183.080322 136.0
183.150345 76.0
183.958267 2120.0
184.169922 60.0
184.261765 44.0
184.448227 64.0
184.951645 312.0
185.151688 52.0
185.479538 72.0
185.577133 188.0
185.954666 136.0
187.082245 160.0
187.419952 172.0
187.877991 172.0
187.921646 96.0
188.298355 120.0
188.44313 108.0
189.310226 80.0
190.072281 156.0
190.297348 116.0
191.071838 496.0
191.857285 156.0
192.066864 148.0
192.088928 168.0
193.069427 108.0
194.024719 128.0
194.059525 316.0
195.029602 260.0
195.076859 148.0
195.953491 180.0
196.012009 168.0
196.058105 352.0
196.457565 84.0
197.947815 96.0
199.080719 140.0
199.25206 152.0
199.339157 104.0
199.392548 72.0
199.949402 120.0
200.242203 96.0
200.715637 112.0
201.110596 68.0
203.199005 232.0
203.494186 28.0
204.358215 128.0
205.463638 72.0
205.69194 192.0
207.101608 120.0
207.588806 136.0
207.898621 68.0
208.076233 1056.0
208.237396 152.0
208.452866 148.0
208.480743 148.0
208.596558 208.0
208.67131 160.0
208.786331 64.0
208.950287 100.0
209.009109 216.0
209.042358 180.0
209.083359 14108.0
209.132309 152.0
209.164886 56.0
209.187653 88.0
209.243835 44.0
209.327347 108.0
209.402222 44.0
209.45694 84.0
209.47998 64.0
209.533768 60.0
209.560654 140.0
209.687439 60.0
209.739319 40.0
209.954346 1596.0
209.987366 160.0
210.086899 2172.0
210.223846 56.0
210.397034 124.0
210.732056 300.0
210.958801 380.0
211.083176 180.0
211.130951 60.0
211.191696 76.0
211.226395 212.0
211.45787 124.0
211.527344 116.0
211.69455 80.0
211.76767 120.0
211.837189 64.0
211.953476 1268.0
212.12117 56.0
212.31543 32.0
212.593933 128.0
212.94812 124.0
215.418167 48.0
216.614594 124.0
216.68782 116.0
217.708588 132.0
222.489029 40.0
222.934555 56.0
223.630478 152.0
225.016632 80.0
227.997055 124.0
230.85495 112.0
231.678223 100.0
236.581268 204.0
242.85025 116.0
244.274689 200.0
248.172256 32.0
250.069656 156.0
251.541641 56.0
252.783722 116.0
254.555725 32.0
256.617584 52.0
257.990387 116.0
259.181 80.0
259.443787 120.0
259.812592 220.0
259.918488 196.0
260.006775 3372.0
260.091766 28.0
260.218719 48.0
260.393585 88.0
260.837006 104.0
261.008942 516.0
261.100647 88.0
261.506012 48.0
261.84729 108.0
261.940704 160.0
262.004181 3196.0
262.156555 52.0
263.004852 308.0
263.182343 60.0
264.630829 132.0
266.034637 60.0
268.104797 160.0
268.227112 104.0
269.122925 156.0
270.113159 224.0
274.202362 84.0
283.012299 152.0
287.995209 564.0
289.989044 76.0
295.379089 40.0
324.317413 188.0
335.555634 92.0
340.334015 136.0
345.149872 144.0
347.906372 144.0
348.037567 284.0
350.035309 228.0
352.939819 200.0
363.240356 172.0
364.751617 148.0
365.131836 152.0
365.942352 108.0
366.044861 380.0
366.58609 48.0
367.049561 172.0
367.531738 104.0
368.039429 372.0
368.780518 128.0
369.057617 188.0
369.258423 84.0
369.958649 84.0
370.433502 32.0
370.632721 120.0
406.678162 84.0
418.641296 40.0
422.208038 148.0
430.352509 28.0
440.327118 92.0
442.024384 152.0
445.579926 40.0
481.634674 84.0
504.186523 40.0
570.175354 100.0
617.230774 120.0
622.383972 96.0
627.982422 56.0
682.639038 64.0
715.313416 84.0
737.817932 280.0
781.929077 136.0
816.712891 124.0
821.26947 60.0
852.212891 132.0
897.591797 56.0
900.551758 44.0
907.661255 164.0
945.567017 108.0
968.805298 136.0
971.458496 208.0
981.122375 176.0
988.098206 168.0
989.91333 160.0
1017.987854 216.0
1042.293457 128.0
1081.366577 128.0
1088.131348 136.0
1128.54126 112.0
1129.90564 156.0
1130.922729 148.0
1134.157837 116.0
1146.88147 176.0
1148.769409 152.0
1150.807617 216.0
1161.791626 248.0
1167.048218 236.0
1189.009888 132.0
1194.534058 188.0
1203.272217 160.0
1217.404297 164.0
1235.316406 68.0
1238.046143 204.0
1246.168701 192.0
1261.984619 180.0
1267.909424 96.0
1268.958496 152.0
1284.575439 96.0
1288.737427 236.0
1291.117798 140.0
1291.911743 148.0
1292.262329 132.0
1293.886841 156.0
1303.476318 232.0
1308.899902 64.0
1309.043823 152.0
1309.159058 128.0
1320.880005 80.0
1323.695312 72.0
1339.994141 188.0
1340.759277 172.0
1341.123657 164.0
1365.629517 200.0
1366.004639 96.0
1366.254761 132.0
1368.389038 116.0
1369.883911 180.0
1377.452271 236.0
1379.97229 176.0
1388.12439 168.0
1389.570679 80.0
1393.119263 140.0
1396.9104 204.0
1399.760864 112.0
1401.928589 44.0
1402.159668 128.0
1407.470825 124.0
1410.511475 48.0
1410.563843 196.0
1411.535645 108.0
1415.494019 156.0
1433.27356 184.0
1433.778442 176.0
1434.713013 180.0
1445.089844 80.0
1445.377319 112.0
1451.793335 92.0
1462.223999 104.0
1465.32312 128.0
1469.379028 144.0
1473.853027 212.0
1488.006958 84.0
1490.718384 268.0
1493.885986 188.0
1494.324463 140.0
