>compound MLS001304042-01!WARFARIN81-81-2
>formula C19H16O4
>ionization [M+H]+
>parentmass 309.11213544409054
#inchi InChI=1S/C19H16O4/c1-12(20)11-15(13-7-3-2-4-8-13)17-18(21)14-9-5-6-10-16(14)23-19(17)22/h2-10,15,22H,11H2,1H3
#inchikey QTXVAVXCBMYBJW
#Ion_Source LC-ESI
#Instrument qTof
#Compound_Source NIH Pharmacologically Active Library
#PI Dorrestein
#Data_Collector VP/LMS
#Scan -1
#Precursor_MZ 309.115
#ExactMass 308.105
#Charge 1
#CAS_Number N/A
#Pubmed_ID N/A
#Smiles CC(=O)CC(c1ccccc1)c2c(O)oc3ccccc3c2=O
#INCHI_AUX N/A
#Library_Class 1
#SpectrumID CCMSLIB00000085878
#IonMode Positive
#UpdateWorkflowName UPDATE-SINGLE-ANNOTATED-GOLD
#LibraryQualityString Gold
#TaskID d252d724072548979f1f6f1ced849daf
##Scan# 2114
#SpectrumFile p4-G06_GG6_01_18402.mzXML
#LibraryName Pharm_Active_Library.mgf
#MQScore -1
#Organism Pharm_Active_Library
#TIC_Query 0
#RT_Query -1
#MZErrorPPM -1
#SharedPeaks 0
#MassDiff 0
#LibMZ -1
#SpecMZ 309.115
#SpecCharge 0
#internalFilename spec-00000.mgf

>collision 10
44.896152 132.0
44.916969 148.0
44.958332 60.0
45.029091 176.0
45.05431 164.0
45.081196 96.0
45.204231 40.0
45.22163 156.0
45.371662 172.0
45.472271 128.0
45.492409 148.0
45.797661 112.0
45.820564 152.0
45.877857 172.0
45.941902 220.0
46.055988 164.0
46.120155 140.0
46.13097 156.0
46.153957 88.0
46.163422 148.0
46.212494 188.0
46.243244 124.0
46.286568 188.0
46.359722 148.0
46.373272 132.0
46.417088 176.0
46.498055 180.0
46.514343 192.0
46.531536 236.0
46.565945 192.0
46.674664 96.0
46.750847 180.0
46.934753 180.0
46.99477 140.0
47.016605 220.0
47.244801 180.0
47.32555 224.0
47.348831 160.0
47.394039 148.0
47.463947 176.0
47.518814 156.0
47.549004 96.0
47.584698 232.0
47.64238 224.0
47.698727 272.0
47.719349 120.0
47.779865 148.0
47.790871 192.0
47.878975 188.0
47.937225 156.0
47.963024 164.0
47.99749 168.0
48.014042 276.0
48.083023 152.0
48.18383 208.0
48.264 176.0
48.474407 88.0
48.585335 184.0
48.686665 72.0
48.714447 128.0
48.743626 248.0
48.818691 144.0
48.849293 156.0
48.86599 152.0
48.917484 128.0
48.94672 164.0
48.964825 52.0
49.28429 164.0
49.383549 148.0
49.433918 240.0
49.443714 232.0
49.46751 304.0
49.587975 164.0
49.603394 104.0
49.62302 60.0
49.676315 88.0
49.688942 112.0
49.714199 180.0
49.820915 168.0
49.930557 156.0
49.940403 144.0
49.981907 116.0
50.038063 292.0
50.051586 56.0
50.102291 44.0
50.141747 104.0
50.155842 148.0
50.19532 84.0
50.205193 208.0
50.270088 96.0
50.320904 224.0
50.35762 124.0
50.408482 132.0
50.433922 152.0
50.481995 204.0
50.521599 164.0
50.623512 212.0
50.647587 52.0
50.715603 140.0
50.89436 60.0
50.93697 140.0
51.019394 92.0
51.192989 156.0
51.285599 188.0
51.333122 192.0
51.418644 200.0
51.453934 48.0
51.509628 40.0
51.531059 144.0
51.714111 84.0
51.748466 152.0
51.794296 204.0
51.951984 84.0
51.989292 192.0
52.071129 100.0
52.322781 68.0
52.338619 80.0
52.363102 152.0
52.38903 124.0
52.409203 244.0
52.419289 220.0
52.491367 64.0
52.52454 72.0
52.56638 116.0
52.775837 148.0
52.80476 172.0
52.870556 172.0
53.050766 180.0
53.092976 184.0
53.135044 136.0
53.148102 128.0
53.287495 108.0
53.304932 208.0
53.341267 108.0
53.358715 184.0
53.419796 176.0
53.431435 112.0
53.486736 156.0
53.528957 148.0
53.553719 148.0
53.770969 100.0
53.914097 72.0
54.018566 168.0
54.064735 180.0
54.105721 196.0
54.129147 180.0
54.159904 168.0
54.247829 232.0
54.346092 184.0
54.369576 200.0
54.406269 124.0
54.606121 188.0
54.634068 160.0
54.669384 168.0
54.715015 156.0
54.74152 124.0
54.819595 148.0
54.863815 196.0
54.987728 180.0
55.040874 100.0
55.064503 116.0
55.398808 224.0
55.484764 160.0
55.516354 224.0
55.552006 236.0
55.959717 264.0
56.064487 108.0
56.107716 60.0
56.174828 200.0
56.189747 144.0
56.218098 128.0
56.228546 176.0
56.315182 152.0
56.330082 212.0
56.388355 228.0
56.514912 192.0
56.600796 192.0
56.625847 368.0
56.663704 244.0
56.716156 160.0
56.749321 164.0
57.009239 148.0
57.077984 192.0
57.183998 248.0
57.223938 196.0
57.248032 196.0
57.272129 156.0
57.312809 152.0
57.348976 148.0
57.413811 180.0
57.455605 392.0
57.507355 168.0
57.517921 200.0
57.544788 176.0
57.558685 212.0
57.873207 184.0
57.903496 184.0
57.92012 168.0
57.936001 208.0
58.017143 160.0
58.135456 132.0
58.215916 124.0
58.244774 204.0
58.326832 128.0
58.370922 192.0
58.438576 236.0
58.459156 408.0
58.535271 212.0
58.588734 204.0
58.727306 156.0
58.741032 184.0
58.815807 160.0
58.898266 116.0
58.941044 160.0
58.994537 116.0
59.020531 108.0
59.049587 184.0
59.165886 168.0
59.309887 212.0
59.322151 160.0
59.35128 168.0
59.369682 192.0
59.397293 28.0
59.428261 152.0
59.447926 124.0
59.501648 184.0
59.66143 140.0
59.709099 216.0
59.719868 208.0
59.761406 116.0
59.782948 96.0
59.912292 232.0
60.001678 104.0
60.046402 160.0
60.228077 256.0
60.321251 208.0
60.336712 148.0
60.360912 344.0
60.390835 156.0
60.406303 144.0
60.502254 156.0
60.646324 220.0
60.720745 212.0
60.737808 92.0
60.764183 36.0
60.790562 132.0
60.888371 108.0
60.922543 184.0
60.961388 176.0
61.015793 188.0
61.059334 56.0
61.129341 180.0
61.182262 128.0
61.238323 124.0
61.330254 208.0
61.342728 232.0
61.375465 156.0
61.511204 124.0
61.525253 116.0
61.590137 136.0
61.784691 132.0
61.820679 120.0
61.930275 92.0
61.963173 192.0
62.044674 208.0
62.087772 148.0
62.256508 140.0
62.270641 228.0
62.300488 108.0
62.317768 56.0
62.383781 184.0
62.394783 76.0
62.434097 200.0
62.471981 140.0
62.604065 36.0
62.632416 84.0
62.652897 160.0
62.667076 152.0
62.67968 128.0
62.692287 140.0
62.749634 184.0
62.810539 160.0
62.996819 188.0
63.088478 140.0
63.146988 52.0
63.175461 144.0
63.188118 172.0
63.362278 196.0
63.373367 112.0
63.395554 228.0
63.407417 264.0
63.501778 148.0
63.541435 148.0
63.589043 208.0
63.685898 216.0
63.731972 216.0
63.746273 72.0
63.803493 156.0
63.828934 96.0
63.887787 200.0
63.903698 104.0
63.918018 128.0
63.962582 136.0
64.062904 208.0
64.075653 128.0
64.118675 156.0
64.140991 144.0
64.227104 360.0
64.274963 60.0
64.290924 88.0
64.313271 220.0
64.326035 152.0
64.337212 84.0
64.449013 168.0
64.475754 164.0
64.514549 136.0
64.565712 120.0
64.59771 220.0
64.688919 160.0
64.845901 212.0
64.882774 124.0
64.93409 212.0
64.962654 124.0
64.983818 172.0
65.36142 36.0
65.409027 152.0
65.496666 176.0
65.517601 136.0
65.617531 144.0
65.780472 148.0
65.883827 156.0
66.068138 196.0
66.098877 224.0
66.116676 120.0
66.249458 172.0
66.332108 56.0
66.351562 204.0
66.36615 116.0
66.40345 200.0
66.534897 188.0
66.587769 112.0
66.804672 148.0
66.89418 164.0
66.949539 168.0
66.989487 360.0
67.047295 96.0
67.145119 124.0
67.190788 180.0
67.216896 128.0
67.288719 176.0
67.310486 220.0
67.385078 172.0
67.448822 180.0
67.492958 48.0
67.568199 132.0
67.640205 148.0
67.735184 184.0
67.771233 116.0
67.78598 124.0
67.816605 204.0
67.902374 156.0
67.953232 128.0
68.035294 100.0
68.120689 152.0
68.206146 132.0
68.281776 144.0
68.347977 152.0
68.382141 148.0
68.499054 176.0
68.548485 140.0
68.56002 132.0
68.6408 200.0
68.78434 140.0
68.802498 160.0
68.871857 132.0
68.884506 184.0
68.951164 176.0
68.997452 252.0
69.017296 108.0
69.088417 156.0
69.109924 120.0
69.169502 104.0
69.199646 172.0
69.248985 188.0
69.285431 188.0
69.326851 204.0
69.398132 64.0
69.476089 160.0
69.597252 124.0
69.653717 176.0
69.743446 40.0
69.916428 240.0
69.988007 144.0
70.172958 124.0
70.289726 100.0
70.491081 152.0
70.669357 188.0
70.700829 64.0
70.756073 132.0
70.85321 92.0
70.903481 152.0
71.111458 176.0
71.170212 160.0
71.227318 168.0
71.301247 176.0
71.334862 176.0
71.519905 112.0
71.551888 152.0
71.678215 128.0
71.710236 136.0
71.792854 188.0
71.849106 228.0
71.926147 144.0
71.961601 124.0
71.973419 100.0
72.088287 36.0
72.23539 104.0
72.304764 172.0
72.386024 268.0
72.43853 136.0
72.558853 128.0
72.614815 116.0
72.66526 168.0
72.726807 140.0
72.865829 208.0
72.886444 148.0
72.944237 144.0
72.983337 140.0
73.029259 76.0
73.117088 164.0
73.139854 120.0
73.20285 376.0
73.2267 116.0
73.24543 180.0
73.356201 220.0
73.422607 216.0
73.443169 140.0
73.757362 192.0
73.919838 36.0
73.943802 124.0
74.00029 124.0
74.077362 164.0
74.089355 180.0
74.288223 144.0
74.327682 140.0
74.367157 200.0
74.482201 132.0
74.538902 72.0
74.575806 160.0
74.635162 172.0
74.697083 188.0
74.77623 180.0
74.819267 136.0
74.831322 44.0
74.941551 144.0
74.977745 28.0
75.050148 192.0
75.234756 236.0
75.303833 112.0
75.326286 144.0
75.343567 52.0
75.36084 156.0
75.390221 184.0
75.469734 248.0
75.642746 152.0
75.757042 144.0
75.836754 136.0
75.890495 148.0
75.944748 164.0
76.017128 208.0
76.129967 244.0
76.265488 216.0
76.322861 180.0
76.556046 172.0
76.688461 144.0
76.763428 84.0
76.775635 132.0
76.833199 160.0
76.887291 176.0
76.950134 132.0
76.964386 148.0
76.992043 256.0
77.149658 160.0
77.241997 164.0
77.266487 192.0
77.343483 96.0
77.378502 156.0
77.4468 212.0
77.467819 136.0
77.522133 160.0
77.612747 208.0
77.644859 200.0
77.802788 52.0
77.846024 224.0
77.881805 140.0
77.947723 248.0
77.991493 208.0
78.094498 200.0
78.233513 152.0
78.303947 152.0
78.492516 116.0
78.531319 204.0
78.647774 152.0
79.182678 144.0
79.215408 140.0
79.348328 112.0
79.380241 176.0
79.445869 224.0
79.578987 184.0
79.632263 200.0
79.669563 200.0
79.72998 196.0
79.756638 152.0
79.796509 224.0
80.008537 144.0
80.050201 140.0
80.351448 188.0
80.758751 148.0
80.789162 224.0
80.80526 176.0
80.826736 160.0
80.9216 120.0
81.138397 200.0
81.190399 156.0
81.227097 192.0
81.400368 188.0
81.474014 120.0
81.504555 44.0
81.518929 160.0
81.619598 144.0
81.660965 48.0
81.770721 112.0
81.867935 228.0
81.916573 160.0
82.012077 168.0
82.055344 256.0
82.150925 300.0
82.170776 148.0
82.253792 148.0
82.349495 108.0
82.415009 212.0
82.468742 60.0
82.524788 160.0
82.665878 220.0
82.738472 192.0
82.761826 148.0
82.979256 192.0
83.053604 168.0
83.175186 136.0
83.496796 196.0
83.560463 92.0
83.573196 120.0
83.607773 140.0
83.687866 128.0
83.726112 140.0
83.75695 116.0
83.870049 80.0
83.930214 156.0
83.964867 204.0
84.021416 160.0
84.056084 164.0
84.088936 144.0
84.129135 164.0
84.394814 160.0
84.520226 84.0
84.538528 200.0
84.558662 196.0
84.589775 56.0
84.622734 128.0
84.818756 212.0
84.879265 148.0
84.97831 204.0
85.005836 120.0
85.450516 216.0
85.540695 116.0
85.560944 216.0
85.660393 160.0
85.693558 144.0
85.927711 100.0
85.955391 160.0
85.984917 144.0
86.117859 140.0
86.225021 172.0
86.297119 120.0
86.450653 192.0
86.537651 144.0
86.639519 128.0
86.674904 208.0
86.80352 136.0
86.874969 156.0
86.893524 132.0
86.960327 148.0
86.999313 200.0
87.095879 44.0
87.112595 240.0
87.166161 212.0
87.222237 120.0
87.260681 188.0
87.315201 52.0
87.374725 212.0
87.398918 200.0
87.534805 184.0
87.594406 200.0
87.65403 132.0
87.866592 156.0
87.898315 80.0
87.982307 176.0
88.186516 244.0
88.426285 192.0
88.442177 48.0
88.541412 140.0
88.65757 216.0
88.771927 196.0
88.798187 184.0
88.942665 192.0
88.995232 156.0
89.038765 200.0
89.087265 132.0
89.141754 120.0
89.273346 176.0
89.286507 148.0
89.299675 88.0
89.374924 48.0
89.42009 196.0
89.450211 160.0
89.489746 176.0
89.508575 184.0
89.606522 52.0
89.693214 144.0
89.740349 56.0
89.861061 156.0
89.883705 128.0
89.927109 204.0
90.015846 192.0
90.181236 172.0
90.233139 316.0
90.249306 208.0
90.378082 140.0
90.385101 212.0
90.460167 52.0
90.598412 184.0
90.65107 228.0
90.687477 196.0
90.710228 148.0
90.723495 144.0
90.805038 156.0
91.027084 84.0
91.05423 476.0
91.067261 180.0
91.186668 180.0
91.230385 228.0
91.270317 144.0
91.470085 204.0
91.522385 216.0
91.541824 124.0
91.546967 200.0
91.698662 164.0
91.718712 220.0
91.795891 160.0
91.879822 136.0
91.979057 140.0
92.060204 160.0
92.162399 152.0
92.221642 172.0
92.292381 156.0
92.330627 160.0
92.40332 164.0
92.598579 172.0
92.677124 92.0
92.742279 44.0
93.032562 488.0
93.104912 192.0
93.243423 144.0
93.343208 92.0
93.383598 140.0
93.475945 152.0
93.53244 216.0
93.560638 144.0
93.65136 212.0
93.703156 148.0
93.87664 128.0
93.982735 96.0
94.042564 196.0
94.241478 156.0
94.268532 132.0
94.300301 128.0
94.450272 104.0
94.552826 188.0
94.574112 140.0
94.707726 76.0
94.729027 108.0
94.765839 144.0
94.948059 200.0
95.049896 792.0
95.086708 148.0
95.112991 212.0
95.254745 92.0
95.29554 208.0
95.419937 220.0
95.437439 48.0
95.486053 128.0
95.506264 236.0
95.548302 188.0
95.663124 144.0
95.694275 168.0
95.774124 148.0
95.797501 148.0
95.894928 196.0
95.916374 72.0
96.009964 248.0
96.128967 184.0
96.16214 172.0
96.414093 244.0
96.472733 116.0
96.5177 184.0
96.652672 212.0
96.674202 80.0
96.762283 192.0
96.85041 232.0
96.942497 208.0
96.985619 148.0
97.016983 172.0
97.081177 200.0
97.167992 124.0
97.224899 132.0
97.299492 60.0
97.32502 148.0
97.364296 76.0
97.383934 176.0
97.433044 192.0
97.466446 212.0
97.505753 144.0
97.613884 168.0
97.751587 184.0
97.966202 140.0
97.991814 368.0
98.046989 148.0
98.074585 204.0
98.100212 232.0
98.125839 148.0
98.20472 148.0
98.577866 176.0
98.615273 160.0
98.846809 160.0
98.9636 132.0
99.032913 212.0
99.116119 184.0
99.257149 140.0
99.292557 168.0
99.320328 156.0
99.37191 36.0
99.610146 160.0
99.685646 212.0
99.870552 84.0
100.005852 156.0
100.053627 108.0
100.226913 108.0
100.316605 132.0
100.506081 116.0
100.557968 124.0
100.599884 148.0
100.649803 172.0
100.765656 156.0
100.787628 148.0
100.9067 212.0
100.933556 104.0
100.959549 224.0
101.038696 368.0
101.053566 160.0
101.201683 64.0
101.271782 176.0
101.297821 152.0
101.347908 160.0
101.527412 216.0
101.542366 104.0
101.634644 148.0
101.921791 156.0
101.986107 144.0
102.04599 304.0
102.072556 216.0
102.118813 232.0
102.150993 208.0
102.197266 100.0
102.26368 88.0
102.344208 52.0
102.358307 152.0
102.426781 164.0
102.501282 168.0
102.611778 140.0
102.67672 148.0
102.775566 192.0
102.850426 216.0
103.029968 232.0
103.054405 3844.0
103.120903 76.0
103.143005 60.0
103.161331 152.0
103.203789 180.0
103.302124 200.0
103.347809 180.0
103.381805 156.0
103.459778 152.0
103.48909 60.0
103.580231 184.0
103.673431 172.0
103.693703 124.0
103.760597 152.0
103.909309 136.0
104.032455 36.0
104.055191 488.0
104.077126 168.0
104.105553 120.0
104.259949 128.0
104.465317 180.0
104.589455 128.0
104.630165 200.0
104.677002 188.0
104.762245 204.0
104.830109 200.0
105.005119 188.0
105.031914 384.0
105.07209 356.0
105.107117 220.0
105.131607 220.0
105.26226 188.0
105.315361 200.0
105.350761 220.0
105.446495 156.0
105.461685 164.0
105.536079 148.0
105.560616 128.0
105.587204 160.0
105.71405 156.0
105.746796 184.0
106.041733 132.0
106.063843 188.0
106.10231 204.0
106.298096 172.0
106.400726 208.0
106.636963 132.0
106.803513 60.0
106.822029 72.0
106.95578 132.0
107.047173 328.0
107.066971 168.0
107.287453 156.0
107.450439 136.0
107.489586 208.0
107.882019 116.0
107.921303 148.0
108.006096 208.0
108.048836 164.0
108.10537 204.0
108.250633 188.0
108.339386 152.0
108.749977 120.0
108.768661 220.0
108.893242 128.0
109.028847 492.0
109.055771 180.0
109.107285 152.0
109.136391 168.0
109.184219 128.0
109.215416 188.0
109.248703 144.0
109.42144 96.0
109.577652 224.0
109.711037 160.0
109.748566 176.0
109.767967 236.0
109.919617 184.0
110.005188 124.0
110.019806 184.0
110.063652 188.0
110.421013 156.0
110.623985 212.0
110.653297 140.0
110.781052 40.0
110.931938 164.0
111.037094 132.0
111.227722 76.0
111.454544 132.0
111.650047 320.0
111.666878 216.0
111.69001 200.0
111.717361 192.0
111.782585 60.0
111.87941 100.0
111.900459 144.0
111.936256 164.0
111.984314 220.0
111.995644 224.0
112.03315 116.0
112.064751 188.0
112.10479 192.0
112.130081 136.0
112.217125 164.0
112.370476 156.0
112.408463 136.0
112.435898 172.0
112.486557 224.0
112.558342 136.0
112.643478 180.0
112.674515 104.0
112.843323 188.0
112.904922 192.0
112.964149 116.0
113.000114 84.0
113.298637 164.0
113.336777 80.0
113.42247 184.0
113.453346 112.0
113.637871 172.0
113.733368 68.0
113.852272 172.0
113.928734 180.0
114.000984 116.0
114.043488 148.0
114.103516 252.0
114.132782 136.0
114.160423 208.0
114.285934 160.0
114.354034 168.0
114.368935 256.0
114.402992 52.0
114.52224 96.0
114.539284 132.0
114.66713 128.0
114.82917 132.0
114.84623 164.0
115.050873 608.0
115.130096 116.0
115.277504 124.0
115.303154 152.0
115.478477 164.0
115.64109 216.0
115.767403 112.0
115.820953 160.0
115.977371 144.0
116.060989 152.0
116.082428 236.0
116.112457 92.0
116.202553 180.0
116.226151 136.0
116.342056 144.0
116.494537 64.0
116.51387 116.0
116.608421 100.0
116.81485 180.0
116.928886 52.0
116.978401 164.0
117.033119 184.0
117.068832 296.0
117.359741 264.0
117.428749 168.0
117.488632 184.0
117.495811 140.0
117.500557 196.0
117.567719 176.0
117.590576 140.0
117.713631 204.0
117.754669 92.0
117.806511 196.0
117.830276 160.0
117.95472 164.0
117.975075 276.0
118.042175 216.0
118.083191 192.0
118.535416 136.0
118.561676 256.0
118.583344 144.0
118.607193 144.0
118.931412 132.0
118.947762 144.0
119.008545 100.0
119.047401 488.0
119.069351 172.0
119.084671 152.0
119.108452 100.0
119.36274 132.0
119.504128 116.0
119.565056 36.0
119.698311 172.0
119.835083 180.0
119.930977 68.0
119.972389 156.0
120.052635 220.0
120.149048 80.0
120.269073 68.0
120.367317 172.0
120.413177 124.0
120.531151 72.0
120.61425 172.0
120.721336 260.0
120.738831 136.0
120.762894 140.0
120.818527 184.0
120.898643 172.0
120.918724 252.0
120.972435 232.0
120.994804 168.0
121.028496 30508.0
121.105354 52.0
121.121208 180.0
121.161301 88.0
121.190193 124.0
121.242378 80.0
121.262108 40.0
121.310913 60.0
121.332253 224.0
121.392616 36.0
121.413383 72.0
121.462921 212.0
121.483574 44.0
121.507713 76.0
121.698662 148.0
121.731606 36.0
121.810677 116.0
121.865913 140.0
121.907349 148.0
121.957901 168.0
122.030746 3108.0
122.118408 80.0
122.173409 96.0
122.230614 124.0
122.268028 144.0
122.326736 108.0
122.356079 144.0
122.54615 160.0
122.58075 84.0
122.598381 88.0
122.749573 96.0
122.789108 180.0
122.797203 220.0
122.827682 212.0
122.849747 96.0
122.874016 96.0
122.90049 208.0
123.014351 172.0
123.031029 160.0
123.103577 96.0
123.143333 44.0
123.205185 192.0
123.300201 148.0
123.406311 204.0
123.543434 116.0
123.614243 48.0
123.738197 68.0
124.061661 120.0
124.093719 104.0
124.188057 108.0
124.281235 180.0
124.316742 168.0
124.694298 160.0
124.78891 128.0
124.86174 180.0
124.889961 28.0
124.960892 204.0
125.161476 172.0
125.241653 144.0
125.263931 120.0
125.448898 68.0
125.475647 108.0
125.517029 176.0
125.589378 168.0
125.645149 196.0
125.857193 204.0
125.897385 120.0
125.997902 32.0
126.109642 128.0
126.273911 216.0
126.339966 152.0
126.373528 208.0
126.456329 136.0
126.53244 188.0
126.621597 196.0
126.654678 56.0
126.671295 140.0
126.866058 176.0
126.971649 40.0
126.996323 120.0
127.053162 708.0
127.139915 140.0
127.16909 128.0
127.393646 116.0
127.645386 128.0
127.694862 152.0
127.829849 196.0
128.061279 1944.0
128.111298 196.0
128.140579 124.0
128.163116 144.0
128.237488 160.0
128.363739 176.0
128.417862 248.0
128.485535 104.0
128.521637 192.0
128.55098 108.0
128.569031 76.0
128.6819 140.0
128.830963 148.0
128.85553 160.0
128.939423 64.0
129.033676 660.0
129.06955 4644.0
129.097687 32.0
129.185287 104.0
129.18869 136.0
129.351089 160.0
129.502808 72.0
129.609283 160.0
129.64328 184.0
129.817841 176.0
130.039215 872.0
130.076126 200.0
130.169586 148.0
130.251358 136.0
130.321777 180.0
130.594589 80.0
130.69696 224.0
130.829773 136.0
130.897278 160.0
130.920059 116.0
131.048691 6540.0
131.11142 120.0
131.172974 40.0
131.234528 116.0
131.268723 188.0
131.312057 112.0
131.496872 68.0
131.585907 140.0
131.800613 148.0
131.825745 112.0
131.924026 40.0
131.962891 156.0
132.051468 772.0
132.079529 32.0
132.18248 104.0
132.235123 100.0
132.271744 192.0
132.29599 220.0
132.422867 168.0
132.459518 76.0
132.62793 204.0
132.690994 208.0
132.74144 36.0
132.924957 288.0
132.986923 104.0
133.030533 160.0
133.051193 112.0
133.283188 128.0
133.519974 80.0
133.565964 120.0
133.978043 188.0
134.026428 140.0
134.084045 148.0
134.213135 112.0
134.261566 116.0
134.510757 144.0
134.659195 252.0
134.741699 172.0
134.757874 172.0
134.852631 184.0
135.421814 224.0
135.558502 112.0
135.586319 152.0
135.873856 128.0
135.890106 116.0
136.061844 224.0
136.110611 128.0
136.217453 200.0
136.531235 200.0
136.617371 148.0
136.724335 64.0
136.794174 104.0
136.88504 136.0
136.980469 68.0
137.09697 228.0
137.325455 176.0
137.591476 140.0
137.640518 144.0
137.680222 244.0
137.724594 152.0
137.804016 128.0
137.862442 152.0
138.138351 128.0
138.49884 160.0
138.526001 148.0
138.585526 64.0
138.644104 100.0
138.822281 136.0
138.864502 180.0
139.037827 280.0
139.209503 108.0
139.273056 192.0
139.312851 88.0
139.336334 188.0
139.462799 172.0
139.583145 92.0
139.653702 200.0
139.757217 108.0
139.785446 152.0
139.806625 100.0
139.891373 128.0
140.044678 152.0
140.093887 136.0
140.202286 160.0
140.308365 212.0
140.343719 128.0
140.623581 64.0
140.676392 168.0
140.697647 176.0
140.744858 132.0
140.855865 168.0
140.877121 84.0
140.936188 172.0
140.973999 116.0
141.066391 500.0
141.204208 108.0
141.428116 108.0
141.627014 148.0
141.757324 260.0
141.781021 168.0
141.807083 164.0
141.94223 184.0
141.987289 124.0
142.015747 120.0
142.034714 136.0
142.073318 224.0
142.094025 44.0
142.203186 96.0
142.224548 176.0
142.312393 196.0
142.521423 120.0
142.962662 160.0
143.082581 332.0
143.151794 152.0
143.280426 52.0
143.373352 28.0
143.502075 96.0
143.523544 156.0
143.68335 144.0
143.97551 172.0
144.053391 128.0
144.1418 356.0
144.27803 140.0
144.337814 60.0
144.557892 96.0
144.608154 80.0
144.660812 168.0
144.701508 172.0
144.873947 180.0
144.99736 96.0
145.028076 1648.0
145.064697 612.0
145.113617 52.0
145.221542 176.0
145.583954 116.0
145.663208 148.0
145.773727 204.0
145.836227 196.0
146.064651 124.0
146.101242 136.0
146.240311 140.0
146.274017 156.0
146.331787 240.0
146.391983 156.0
146.623276 36.0
146.751038 152.0
146.842667 56.0
146.87645 152.0
146.951233 144.0
147.026031 172.0
147.079544 3736.0
147.156387 96.0
147.246262 92.0
147.284393 152.0
147.671127 144.0
147.920364 140.0
147.980881 128.0
148.055954 156.0
148.083359 532.0
148.271576 108.0
148.477661 36.0
148.870819 160.0
148.997131 96.0
149.024689 200.0
149.089462 176.0
149.142944 128.0
149.189133 48.0
149.352051 212.0
149.470825 200.0
149.502899 208.0
149.909607 160.0
149.960785 144.0
150.126572 128.0
150.333939 68.0
150.837082 48.0
151.051926 400.0
151.086533 176.0
151.150146 160.0
151.385162 164.0
151.419449 104.0
151.505173 160.0
151.831375 164.0
151.926849 176.0
152.017639 172.0
152.05957 1900.0
152.14238 164.0
152.164917 64.0
152.23613 48.0
152.260696 64.0
152.405624 108.0
152.61702 168.0
152.668671 204.0
152.722778 124.0
152.858093 188.0
152.949158 220.0
153.069412 2096.0
153.123978 176.0
153.158463 156.0
153.61908 140.0
153.777359 72.0
153.871796 140.0
153.903259 100.0
154.00946 104.0
154.036621 204.0
154.072876 788.0
154.103333 40.0
154.155228 104.0
154.226898 128.0
154.357941 104.0
154.41481 124.0
154.620621 236.0
154.857864 188.0
154.924744 96.0
154.944565 216.0
155.000122 256.0
155.057693 476.0
155.084671 21692.0
155.130432 48.0
155.150269 72.0
155.240082 72.0
155.269287 48.0
155.320724 60.0
155.366028 72.0
155.398285 96.0
155.472733 112.0
155.554642 68.0
155.61174 212.0
155.651474 196.0
155.723495 48.0
155.884155 132.0
155.927231 28.0
156.049042 80.0
156.088104 3420.0
156.133591 148.0
156.225616 44.0
156.305237 88.0
156.399811 104.0
156.4272 84.0
156.447113 112.0
156.489441 48.0
156.775909 56.0
156.840714 112.0
156.87561 52.0
156.910507 68.0
157.00029 104.0
157.026825 3356.0
157.060806 200.0
157.093857 172.0
157.141739 156.0
157.332153 148.0
157.394577 152.0
157.414551 56.0
157.50946 84.0
157.569412 168.0
157.604752 196.0
157.679367 160.0
157.849365 44.0
157.981934 136.0
158.027359 200.0
158.079514 128.0
158.129578 68.0
158.302322 284.0
158.465134 72.0
158.582916 168.0
158.946564 76.0
159.114746 40.0
159.204575 180.0
159.235275 112.0
159.328903 132.0
159.438782 120.0
159.738007 176.0
160.108002 152.0
160.238998 88.0
160.362473 176.0
160.402817 52.0
160.589401 164.0
160.730682 136.0
160.763489 156.0
160.967972 64.0
161.043747 240.0
161.197861 116.0
161.367218 168.0
161.432953 112.0
161.491135 44.0
161.627747 204.0
161.845428 172.0
162.088608 216.0
162.144363 104.0
162.435959 88.0
162.458786 228.0
162.481628 72.0
162.599396 168.0
162.631348 176.0
162.674728 136.0
162.737976 184.0
162.758286 116.0
162.791306 140.0
162.826859 168.0
162.929367 168.0
162.969193 316.0
162.994614 476.0
163.038681 57984.0
163.121948 88.0
163.15126 64.0
163.168884 60.0
163.191605 196.0
163.220764 104.0
163.252411 72.0
163.286301 88.0
163.317169 144.0
163.334061 80.0
163.368454 116.0
163.408401 104.0
163.456345 72.0
163.495514 112.0
163.535004 68.0
163.554047 56.0
163.592239 36.0
163.729736 48.0
163.767944 76.0
163.808701 36.0
163.829071 68.0
163.857986 80.0
163.887512 188.0
163.935135 64.0
163.95903 72.0
164.040176 4380.0
164.106888 36.0
164.166367 180.0
164.185928 48.0
164.231842 68.0
164.341537 128.0
164.39769 80.0
164.443619 48.0
164.469147 80.0
164.558502 68.0
164.614685 92.0
164.734726 56.0
164.765381 80.0
164.785828 100.0
165.000519 96.0
165.043442 812.0
165.068359 4152.0
165.138611 184.0
165.20256 140.0
165.25116 88.0
165.271088 56.0
165.316879 164.0
165.343292 160.0
165.368881 124.0
165.435791 116.0
165.489212 60.0
165.522491 96.0
165.56459 136.0
165.629456 168.0
165.76329 48.0
165.983749 96.0
166.001694 152.0
166.02478 144.0
166.075165 704.0
166.176132 64.0
166.235138 52.0
166.332672 84.0
166.543243 132.0
166.56636 124.0
166.59462 64.0
166.723083 180.0
166.759079 56.0
166.797623 120.0
166.82077 168.0
166.864471 168.0
166.897903 92.0
166.923615 148.0
166.949326 96.0
166.9879 160.0
167.026596 184.0
167.084641 5736.0
167.147415 48.0
167.204025 160.0
167.246933 72.0
167.327591 68.0
167.412567 68.0
167.49498 164.0
167.53363 124.0
167.672775 148.0
167.71402 108.0
167.781036 128.0
167.891922 204.0
168.060196 452.0
168.088806 828.0
168.263504 44.0
168.506287 48.0
168.702698 152.0
168.741486 104.0
168.997543 160.0
169.057068 140.0
169.108826 112.0
169.143768 88.0
169.191666 116.0
169.243439 140.0
169.378113 104.0
169.613922 148.0
169.642441 160.0
169.896591 124.0
169.945572 160.0
170.137955 108.0
170.239227 136.0
170.384689 112.0
170.566605 28.0
170.735611 96.0
170.803238 164.0
171.077957 920.0
171.112915 100.0
171.46843 80.0
171.519333 144.0
171.555832 164.0
171.704453 160.0
171.787933 180.0
171.824448 128.0
172.080002 208.0
172.153351 172.0
172.312683 120.0
172.472626 200.0
172.520401 128.0
172.54007 76.0
172.665588 108.0
172.721313 236.0
172.796387 196.0
172.848709 100.0
172.906967 124.0
172.976425 184.0
173.022491 21584.0
173.089539 56.0
173.115723 204.0
173.170731 56.0
173.199539 128.0
173.21788 136.0
173.23761 68.0
173.354126 72.0
173.375092 60.0
173.464203 164.0
173.587433 64.0
173.684479 84.0
173.815659 192.0
173.857651 128.0
173.88652 68.0
173.925888 100.0
174.025543 2928.0
174.080795 56.0
174.185852 152.0
174.22789 44.0
174.553818 64.0
174.590637 108.0
174.632721 44.0
174.661652 80.0
174.80899 72.0
174.840576 76.0
175.039322 684.0
175.450485 100.0
175.472778 120.0
175.541336 128.0
175.570343 44.0
175.765564 200.0
175.820984 72.0
176.058228 612.0
176.280502 200.0
176.433807 96.0
176.452316 108.0
176.56073 120.0
176.737976 132.0
177.021225 132.0
177.069382 1316.0
177.121872 72.0
177.204224 92.0
177.270233 96.0
177.44519 100.0
177.567169 100.0
177.588394 128.0
177.606949 116.0
177.655838 56.0
177.925415 164.0
178.010376 148.0
178.075882 6816.0
178.177719 52.0
178.270721 88.0
178.403625 88.0
178.496674 112.0
178.959686 200.0
179.083801 3316.0
179.162094 120.0
179.228745 140.0
179.37529 100.0
179.399292 112.0
179.444611 56.0
179.545944 88.0
179.601486 92.0
179.665985 120.0
179.820755 40.0
180.05571 180.0
180.087891 776.0
180.151871 92.0
180.349609 164.0
180.368332 104.0
180.464569 88.0
180.55014 244.0
180.651779 36.0
180.959564 260.0
180.983658 140.0
181.063797 952.0
181.329254 172.0
181.377502 184.0
181.536606 140.0
181.755661 92.0
182.06955 124.0
182.091751 164.0
182.166443 68.0
182.36261 76.0
182.518539 104.0
182.54274 144.0
182.564255 120.0
182.666458 156.0
182.776764 128.0
182.803162 144.0
182.935562 124.0
183.079193 14092.0
183.15448 68.0
183.226425 40.0
183.266846 56.0
183.358459 56.0
183.482468 60.0
183.570908 60.0
183.698212 96.0
183.717102 80.0
183.873611 176.0
183.951889 128.0
184.039902 160.0
184.082397 1468.0
184.159805 120.0
184.257065 144.0
184.375961 72.0
184.540848 44.0
184.946655 28.0
185.017044 68.0
185.054947 48.0
185.089005 144.0
185.342056 52.0
185.794861 76.0
185.846405 116.0
185.954971 156.0
185.99025 52.0
186.021591 184.0
186.351456 160.0
186.42482 116.0
186.878937 184.0
187.038544 284.0
187.129349 200.0
187.592499 168.0
188.206375 40.0
188.509598 68.0
188.95256 104.0
189.050674 1740.0
189.082245 144.0
189.146866 64.0
189.302933 148.0
189.450836 124.0
189.497421 120.0
189.719421 248.0
190.057922 760.0
190.246155 72.0
190.372467 68.0
190.416397 132.0
190.592224 72.0
190.72139 184.0
190.823105 64.0
190.875351 92.0
190.944107 92.0
191.033585 14052.0
191.107056 172.0
191.13118 80.0
191.191727 64.0
191.329361 60.0
191.395432 88.0
191.483566 68.0
191.522125 112.0
191.574463 204.0
191.624054 44.0
191.679169 32.0
191.731522 88.0
191.930008 176.0
192.037643 688.0
192.421143 40.0
192.766815 112.0
192.862457 140.0
192.912918 56.0
193.036301 264.0
193.074783 532.0
193.114777 88.0
193.294617 92.0
193.322281 88.0
193.394241 120.0
193.615738 196.0
193.906647 108.0
193.967636 192.0
194.072586 556.0
194.147858 56.0
194.322617 136.0
194.589066 76.0
194.861267 88.0
195.079575 1376.0
195.153107 56.0
195.417343 28.0
195.692902 212.0
195.751373 120.0
195.87114 84.0
196.083832 160.0
196.314301 112.0
196.576538 60.0
196.621185 40.0
197.079178 36.0
197.339111 72.0
198.391113 188.0
198.509598 136.0
198.585312 160.0
198.652634 164.0
198.818192 132.0
199.287155 220.0
199.360214 140.0
199.385513 136.0
200.212646 64.0
200.291519 228.0
200.680435 72.0
200.801697 124.0
201.064087 176.0
201.611984 80.0
201.702438 168.0
201.939957 116.0
202.242706 172.0
202.693024 100.0
203.055893 164.0
203.07576 156.0
203.200577 188.0
203.285706 120.0
203.444656 92.0
204.100983 224.0
204.215851 244.0
204.715652 128.0
204.761215 152.0
204.866608 180.0
205.064255 4608.0
205.110977 48.0
205.151596 60.0
205.182953 68.0
205.348358 52.0
205.38829 232.0
205.490982 144.0
205.744995 120.0
205.764984 200.0
206.064209 940.0
206.127747 152.0
206.230637 36.0
206.29924 80.0
206.416473 76.0
206.465088 148.0
206.502258 72.0
206.613831 116.0
207.046066 176.0
207.082138 512.0
207.223663 48.0
207.57338 140.0
208.049438 300.0
208.086899 116.0
208.09404 212.0
208.6185 76.0
209.055634 300.0
209.231293 196.0
210.12764 188.0
210.482666 168.0
210.754196 76.0
210.78598 88.0
212.340622 136.0
212.883347 196.0
213.002426 232.0
213.057175 156.0
213.653625 180.0
214.179291 84.0
214.606033 44.0
214.92688 100.0
215.072815 176.0
215.361893 152.0
215.399857 160.0
216.423492 92.0
217.053497 112.0
217.159073 268.0
217.89296 80.0
218.304489 192.0
218.528046 172.0
218.606812 240.0
218.789993 200.0
218.999069 128.0
219.214142 52.0
219.323196 144.0
219.523682 232.0
220.087311 120.0
220.462479 168.0
221.055283 44.0
221.483246 172.0
221.766953 96.0
222.013779 104.0
222.073105 188.0
222.343491 244.0
222.592468 96.0
222.690475 176.0
222.960846 184.0
223.035919 232.0
223.074112 10500.0
223.142181 196.0
223.190384 148.0
223.365219 56.0
223.46637 68.0
223.522919 136.0
223.715683 168.0
223.826538 64.0
223.874191 52.0
223.91571 68.0
223.972473 120.0
224.078613 2456.0
224.157394 60.0
224.189987 36.0
224.25853 80.0
224.318146 32.0
224.358887 132.0
224.389694 112.0
224.476166 88.0
224.49704 92.0
224.517929 44.0
224.774475 56.0
224.935654 80.0
225.073746 172.0
225.483856 200.0
225.524109 84.0
225.682556 140.0
225.805161 48.0
225.832092 136.0
226.053482 116.0
226.295944 244.0
226.559509 168.0
226.859192 60.0
227.180084 144.0
227.531219 128.0
227.768463 136.0
228.089996 204.0
229.098114 228.0
229.601501 72.0
229.682953 76.0
229.87001 204.0
230.25946 216.0
230.637146 80.0
231.202744 144.0
231.978165 160.0
232.706299 152.0
232.918884 192.0
232.965042 188.0
233.059509 5120.0
233.234909 52.0
233.256195 112.0
233.338272 176.0
233.377808 120.0
233.534653 168.0
233.727615 56.0
234.064377 1876.0
234.623093 116.0
234.778595 52.0
235.056976 224.0
235.182648 112.0
235.340012 152.0
235.822784 112.0
235.863251 112.0
236.042892 40.0
236.137711 76.0
236.376343 216.0
236.728378 48.0
236.820267 36.0
237.062302 108.0
237.915009 92.0
238.680069 224.0
238.753876 120.0
240.896118 104.0
241.545303 104.0
242.235626 176.0
243.286926 248.0
243.358337 96.0
243.395584 64.0
243.914444 240.0
244.384048 176.0
244.405838 144.0
245.094955 144.0
246.082779 120.0
246.254532 172.0
246.626358 96.0
246.954681 104.0
247.067291 132.0
247.564987 32.0
248.103928 128.0
249.052872 1040.0
249.161072 120.0
249.375275 356.0
249.655106 48.0
249.771469 92.0
249.980957 76.0
250.013748 144.0
250.059052 460.0
250.158539 32.0
250.205765 224.0
250.328384 212.0
250.429352 44.0
250.470291 56.0
250.529633 184.0
250.612061 156.0
250.648788 156.0
250.675095 64.0
250.707977 192.0
250.81456 236.0
250.906067 260.0
250.945053 180.0
250.967499 204.0
251.00856 188.0
251.069321 56412.0
251.185303 68.0
251.237015 144.0
251.293121 40.0
251.327835 40.0
251.355408 92.0
251.367188 68.0
251.381165 124.0
251.389938 140.0
251.399261 44.0
251.412064 68.0
251.454071 64.0
251.476028 228.0
251.505402 92.0
251.569809 60.0
251.581512 96.0
251.616287 196.0
251.684875 36.0
251.741364 116.0
251.804535 108.0
251.840378 216.0
251.903473 112.0
251.953003 60.0
251.990906 72.0
252.01619 176.0
252.072754 7972.0
252.114975 188.0
252.170563 80.0
252.212128 28.0
252.243744 80.0
252.284836 60.0
252.395508 104.0
252.433441 76.0
252.474564 84.0
252.515671 44.0
252.588425 76.0
252.642212 76.0
252.762436 52.0
252.809906 44.0
252.869812 56.0
252.901688 80.0
252.987167 100.0
253.076065 932.0
253.223557 116.0
253.27533 72.0
253.313354 28.0
253.443253 28.0
253.484436 84.0
253.560501 80.0
253.6017 140.0
253.631348 68.0
253.654419 152.0
253.699982 64.0
253.722168 76.0
253.823303 144.0
253.871201 80.0
253.896576 40.0
254.039307 128.0
254.074203 104.0
254.197952 108.0
254.239212 72.0
254.543976 116.0
254.648773 112.0
254.963318 52.0
255.074554 144.0
255.109528 128.0
255.239883 100.0
255.812592 76.0
256.10556 40.0
256.357239 44.0
256.475189 64.0
256.88974 96.0
257.007782 80.0
257.046082 124.0
259.679077 52.0
261.063568 144.0
262.348053 40.0
263.829895 48.0
264.269745 48.0
264.315063 108.0
264.486572 72.0
265.07605 80.0
266.081573 160.0
266.565552 60.0
266.721558 80.0
269.710693 72.0
270.135803 48.0
275.316071 112.0
277.423828 100.0
280.632233 92.0
283.527161 148.0
287.691467 72.0
288.546204 88.0
291.106293 332.0
292.41684 132.0
294.380585 100.0
294.506958 60.0
296.405731 68.0
298.245331 64.0
300.473419 64.0
302.11795 88.0
307.12381 140.0
309.990723 64.0
312.244629 160.0
312.332581 196.0
314.866852 104.0
315.389771 60.0
319.389587 92.0
322.942291 176.0
324.306519 116.0
334.729919 76.0
337.762878 84.0
338.194641 104.0
338.813538 108.0
342.247711 76.0
345.704803 88.0
353.847595 100.0
359.776642 104.0
364.914185 56.0
365.629333 80.0
365.716888 112.0
371.943726 60.0
383.20578 96.0
384.668304 48.0
386.877075 52.0
387.828979 64.0
394.220764 76.0
404.462616 36.0
408.75708 72.0
410.638489 44.0
411.041931 76.0
418.300995 52.0
425.016083 52.0
436.820251 52.0
444.239563 36.0
451.349182 124.0
457.314117 60.0
464.690216 92.0
469.676331 60.0
470.280426 80.0
476.533875 92.0
490.252625 60.0
493.713837 136.0
500.459045 100.0
501.060333 104.0
503.089569 84.0
519.561829 76.0
525.398926 148.0
525.481079 100.0
529.371033 84.0
537.798523 148.0
547.81488 40.0
556.03064 48.0
585.924622 64.0
608.88092 32.0
620.026306 124.0
673.074951 108.0
677.424744 72.0
685.024963 92.0
692.662354 176.0
703.865051 40.0
712.259705 56.0
718.888428 44.0
734.011169 108.0
741.41748 100.0
762.023193 80.0
762.677185 80.0
767.731567 56.0
799.815125 68.0
807.22876 120.0
809.89447 236.0
835.878235 64.0
847.345764 180.0
853.393738 156.0
856.414124 108.0
858.973145 136.0
862.564453 72.0
864.980408 96.0
867.065613 76.0
878.378662 68.0
883.411804 168.0
892.123657 48.0
892.325745 240.0
898.448364 96.0
899.379333 152.0
899.445007 44.0
900.890137 248.0
902.970337 140.0
907.078003 164.0
909.723511 80.0
927.155884 136.0
929.933716 224.0
934.34552 112.0
935.440979 160.0
938.029968 152.0
938.255554 120.0
943.041504 68.0
947.337219 152.0
955.53949 184.0
956.955139 112.0
957.971313 172.0
971.814331 132.0
975.58429 228.0
982.540894 144.0
985.987793 176.0
988.57074 176.0
989.240417 40.0
995.479187 48.0
1006.272034 164.0
1007.990173 200.0
1008.236633 172.0
1012.000549 208.0
1013.45105 180.0
1015.378235 48.0
1018.825073 108.0
1030.133057 180.0
1031.213013 160.0
1031.26416 172.0
1032.773193 184.0
1032.926636 44.0
1038.396851 120.0
1039.365601 152.0
1039.513184 48.0
1039.641602 84.0
1044.048828 196.0
1045.747314 176.0
1051.690186 172.0
1053.924805 176.0
1054.422363 152.0
1055.159302 160.0
1055.812378 108.0
1058.43335 84.0
1059.144165 196.0
1060.65564 184.0
1066.21814 184.0
1067.244507 152.0
1067.557007 204.0
1072.036377 104.0
1072.596924 64.0
1073.327148 152.0
1077.84436 160.0
1078.151489 180.0
1078.229858 96.0
1078.426025 188.0
1085.391846 208.0
1086.021484 188.0
1089.408691 52.0
1089.940918 144.0
1092.590698 112.0
1099.206055 32.0
1109.000854 172.0
1109.842896 204.0
1115.552734 252.0
1116.144531 144.0
1116.476929 148.0
1120.017944 200.0
1120.857422 116.0
1123.390991 176.0
1124.859131 144.0
1125.847412 44.0
1126.321533 168.0
1127.831787 144.0
1130.072144 140.0
1131.055908 136.0
1132.381714 220.0
1137.692627 28.0
1137.813477 76.0
1138.377441 148.0
1139.069336 104.0
1141.065308 144.0
1141.374634 160.0
1143.049561 208.0
1144.301636 168.0
1147.643555 156.0
1150.652832 176.0
1152.638672 152.0
1153.084717 144.0
1154.79541 224.0
1155.106567 136.0
1155.654541 192.0
1157.001465 188.0
1157.976562 152.0
1158.41687 208.0
1160.673828 144.0
1163.374268 176.0
1163.550781 140.0
1164.854614 40.0
1165.98938 168.0
1167.029541 148.0
1168.580322 184.0
1169.723633 44.0
1170.200195 164.0
1171.092407 224.0
1173.129883 76.0
1175.544434 200.0
1176.991577 124.0
1180.873413 172.0
1181.181152 176.0
1183.82312 188.0
1184.158813 172.0
1184.57666 132.0
1186.17334 116.0
1187.371582 80.0
1190.839355 64.0
1194.592529 136.0
1194.661255 168.0
1195.720947 100.0
1196.147705 164.0
1198.585938 204.0
1198.833984 204.0
1201.468018 168.0
1204.989136 220.0
1206.233154 164.0
1208.99292 60.0
1209.249023 52.0
1210.772217 160.0
1211.374756 52.0
1212.414185 188.0
1212.96167 240.0
1213.273682 128.0
1213.544067 192.0
1213.703613 164.0
1217.430054 148.0
1217.54126 184.0
1218.784668 56.0
1223.778931 180.0
1226.182373 196.0
1226.78186 104.0
1228.929932 188.0
1229.544067 148.0
1229.697632 104.0
1229.941895 172.0
1230.661011 188.0
1231.114868 124.0
1233.301758 84.0
1235.868408 216.0
1236.995239 144.0
1239.726929 200.0
1245.838501 272.0
1247.054199 48.0
1249.515503 164.0
1251.753784 164.0
1252.634277 176.0
1252.887817 128.0
1253.035767 184.0
1253.534058 224.0
1253.648804 104.0
1253.895508 104.0
1255.164551 128.0
1261.534424 204.0
1263.605347 128.0
1264.256348 236.0
1264.461548 152.0
1265.098022 128.0
1267.528076 164.0
1268.761353 164.0
1269.22229 248.0
1269.321533 156.0
1269.683228 160.0
1270.420898 100.0
1270.768555 196.0
1272.131226 140.0
1272.287476 184.0
1273.508911 156.0
1278.620972 156.0
1279.033813 92.0
1281.989624 116.0
1284.399536 200.0
1285.170044 136.0
1286.019409 80.0
1286.347656 128.0
1287.026001 164.0
1288.554565 184.0
1289.30481 116.0
1290.341309 184.0
1290.39856 152.0
1290.655884 132.0
1291.664429 152.0
1292.959473 144.0
1293.446167 192.0
1294.441406 184.0
1294.627563 32.0
1294.878296 172.0
1297.228516 132.0
1298.304077 52.0
1299.638428 216.0
1299.796265 164.0
1301.016479 144.0
1303.42981 88.0
1304.486328 164.0
1306.701416 76.0
1307.133179 100.0
1310.97876 124.0
1313.90625 340.0
1314.014526 152.0
1314.295898 120.0
1314.66394 160.0
1314.873291 108.0
1316.627686 132.0
1317.0177 200.0
1317.53064 152.0
1318.10144 92.0
1318.245972 148.0
1319.807373 60.0
1320.024292 180.0
1320.689697 72.0
1320.783691 188.0
1324.062622 124.0
1326.453735 76.0
1326.73645 132.0
1327.113525 44.0
1328.121582 148.0
1330.959229 140.0
1332.070435 152.0
1332.906006 132.0
1333.131226 220.0
1333.334839 180.0
1333.487427 232.0
1334.177979 212.0
1335.632446 148.0
1336.716431 124.0
1336.781982 148.0
1337.218628 208.0
1337.779175 180.0
1339.30835 208.0
1339.876587 120.0
1340.765625 236.0
1341.61853 208.0
1344.215088 128.0
1345.455933 156.0
1345.616577 156.0
1346.631714 156.0
1346.916504 160.0
1347.581421 124.0
1347.812012 168.0
1348.597168 188.0
1348.670288 136.0
1348.72876 92.0
1349.101562 172.0
1350.0448 176.0
1351.025024 60.0
1352.276245 140.0
1352.84729 136.0
1352.993652 128.0
1354.209351 72.0
1354.560913 48.0
1356.143677 168.0
1357.323975 156.0
1360.809448 120.0
1361.404175 144.0
1362.792603 96.0
1363.197021 108.0
1363.762695 60.0
1363.990601 60.0
1364.475708 156.0
1364.696289 28.0
1366.005493 148.0
1367.315186 244.0
1367.639038 224.0
1368.345825 160.0
1368.819214 160.0
1370.651245 120.0
1370.761841 140.0
1371.15979 40.0
1371.734741 196.0
1373.172607 156.0
1373.297974 196.0
1373.925049 180.0
1375.076172 180.0
1376.357056 180.0
1376.619263 48.0
1377.018066 144.0
1377.623779 168.0
1380.225464 172.0
1381.327393 108.0
1384.102905 244.0
1385.139771 92.0
1385.454712 144.0
1385.851074 124.0
1387.51123 132.0
1388.189697 224.0
1389.02417 64.0
1389.855103 164.0
1391.280151 184.0
1391.77771 100.0
1397.292847 144.0
1397.419312 236.0
1397.895508 160.0
1398.215576 192.0
1398.461182 192.0
1398.900391 376.0
1402.453613 128.0
1403.542114 180.0
1405.272583 164.0
1405.526245 216.0
1405.750122 148.0
1406.115845 200.0
1406.623413 164.0
1408.57251 120.0
1408.692017 160.0
1409.917358 188.0
1410.276123 152.0
1412.010864 252.0
1413.480835 176.0
1414.569946 108.0
1414.861816 48.0
1416.037476 252.0
1416.374634 104.0
1416.741699 156.0
1416.981445 172.0
1417.625854 160.0
1418.052979 168.0
1418.210449 172.0
1418.75769 60.0
1419.439941 156.0
1419.859985 152.0
1419.97998 76.0
1420.182495 144.0
1420.497559 40.0
1421.210327 224.0
1421.465454 168.0
1421.960693 212.0
1422.035767 172.0
1422.178467 68.0
1422.771484 212.0
1424.00293 108.0
1424.363525 172.0
1424.649048 140.0
1425.152344 156.0
1425.813721 208.0
1426.392456 212.0
1426.527832 236.0
1428.325073 324.0
1431.719604 164.0
1433.48999 260.0
1434.447266 72.0
1434.575439 196.0
1435.548096 208.0
1437.494385 48.0
1437.720825 152.0
1437.796265 132.0
1437.96228 156.0
1438.181274 192.0
1439.940552 224.0
1441.058594 52.0
1441.466553 220.0
1443.189697 176.0
1444.180786 176.0
1444.611938 160.0
1444.664917 168.0
1445.527466 148.0
1447.185181 164.0
1447.24585 148.0
1447.488159 56.0
1447.753174 116.0
1448.321167 236.0
1450.012329 164.0
1450.359619 312.0
1453.689209 164.0
1453.818115 128.0
1455.25293 84.0
1456.984619 196.0
1457.713989 88.0
1457.911621 132.0
1459.705688 132.0
1460.253296 164.0
1461.828125 124.0
1462.269531 256.0
1463.677979 152.0
1464.477661 232.0
1464.736694 132.0
1464.835693 188.0
1465.506104 52.0
1466.473999 152.0
1467.533691 108.0
1468.349121 184.0
1469.600708 200.0
1469.875366 224.0
1470.089111 52.0
1470.562256 184.0
1472.410034 164.0
1473.158569 160.0
1474.266479 172.0
1474.809204 208.0
1474.977295 164.0
1475.053711 168.0
1475.948242 128.0
1476.430054 204.0
1477.302124 188.0
1477.447388 108.0
1478.717651 168.0
1479.751099 128.0
1479.980835 108.0
1480.593506 80.0
1482.7771 68.0
1482.976318 84.0
1483.259888 172.0
1485.077271 156.0
1485.399414 172.0
1485.652588 148.0
1485.729248 68.0
1488.71521 176.0
1489.475586 196.0
1490.973877 124.0
1492.126953 88.0
1492.25 148.0
1492.634399 40.0
1494.980713 132.0
1495.35791 104.0
1495.881348 172.0
1496.412476 236.0
1496.874512 148.0
1497.174927 144.0
1497.32251 160.0
1498.214722 184.0
1498.376587 160.0
1499.648071 48.0
1499.755981 220.0
1499.887085 48.0
1499.956421 60.0
1500.519165 160.0
1501.43689 144.0
1503.5354 56.0
