>compound MLS002172469-01!SB-206553 hydrochloride158942-04-2
>formula C17H16N4O
>ionization [M+H]+
>parentmass 293.1396875840905
#inchi InChI=1S/C17H16N4O/c1-20-7-4-12-10-16-13(9-15(12)20)5-8-21(16)17(22)19-14-3-2-6-18-11-14/h2-4,6-7,9-11H,5,8H2,1H3,(H,19,22)
#inchikey QJQORSLQNXDVGE
#origInchi InChI=1S/C17H16N4O.ClH.H2O/c1-20-7-4-12-10-16-13(9-15(12)20)5-8-21(16)17(22)19-14-3-2-6-18-11-14;;/h2-4,6-7,9-11H,5,8H2,1H3,(H,19,22);1H;1H2
#Ion_Source LC-ESI
#Instrument qTof
#Compound_Source NIH Pharmacologically Active Library
#PI Dorrestein
#Data_Collector VP/LMS
#Scan -1
#Precursor_MZ 293.146
#ExactMass 292.132
#Charge 1
#CAS_Number N/A
#Pubmed_ID N/A
#Smiles Cn1ccc2cc3N(CCc3cc12)C(=O)Nc4cccnc4.O.Cl
#INCHI_AUX N/A
#Library_Class 1
#SpectrumID CCMSLIB00000085521
#IonMode Positive
#UpdateWorkflowName UPDATE-SINGLE-ANNOTATED-GOLD
#LibraryQualityString Gold
#TaskID d252d724072548979f1f6f1ced849daf
##Scan# 1485
#SpectrumFile p4-C02_GC2_01_18350.mzXML
#LibraryName Pharm_Active_Library.mgf
#MQScore -1
#Organism Pharm_Active_Library
#TIC_Query 0
#RT_Query -1
#MZErrorPPM -1
#SharedPeaks 0
#MassDiff 0
#LibMZ -1
#SpecMZ 293.146
#SpecCharge 0
#internalFilename spec-00000.mgf

>collision 10
44.923664 216.0
44.934334 180.0
44.946342 132.0
45.002548 184.0
45.016644 192.0
45.030445 116.0
45.04113 72.0
45.055824 140.0
45.08522 196.0
45.122478 160.0
45.141365 120.0
45.1534 144.0
45.214943 48.0
45.231003 172.0
45.247066 212.0
45.296616 208.0
45.307335 132.0
45.31805 152.0
45.33279 196.0
45.344852 196.0
45.408646 112.0
45.453983 180.0
45.472263 32.0
45.516136 176.0
45.554169 120.0
45.595211 176.0
45.643688 204.0
45.693981 64.0
45.72493 60.0
45.759926 156.0
45.815144 76.0
45.863655 176.0
45.902752 144.0
45.925777 164.0
45.958054 148.0
45.985043 196.0
45.994801 176.0
46.024193 96.0
46.044449 152.0
46.053566 360.0
46.074165 140.0
46.102539 132.0
46.123642 176.0
46.140976 180.0
46.185009 172.0
46.249958 220.0
46.271618 88.0
46.289219 180.0
46.324432 44.0
46.378632 236.0
46.411545 216.0
46.507488 208.0
46.542782 108.0
46.56451 140.0
46.610767 156.0
46.627007 180.0
46.722187 216.0
46.748039 204.0
46.792957 68.0
46.83033 188.0
46.896484 152.0
46.978298 92.0
47.021961 188.0
47.050625 232.0
47.071106 216.0
47.09528 160.0
47.114811 96.0
47.131207 220.0
47.142139 36.0
47.245056 176.0
47.310371 164.0
47.328171 152.0
47.338753 264.0
47.435028 160.0
47.472046 172.0
47.558002 208.0
47.60556 356.0
47.644989 204.0
47.695835 200.0
47.723328 48.0
47.753582 84.0
47.79425 144.0
47.935303 96.0
47.99012 192.0
48.018017 128.0
48.045605 120.0
48.059399 172.0
48.071819 128.0
48.10218 220.0
48.116077 120.0
48.145294 196.0
48.161873 220.0
48.179512 192.0
48.212673 184.0
48.229259 148.0
48.263821 96.0
48.303928 188.0
48.314995 156.0
48.32468 232.0
48.339897 244.0
48.411884 144.0
48.435429 160.0
48.551849 48.0
48.574039 160.0
48.630928 156.0
48.6698 160.0
48.711464 228.0
48.725357 204.0
48.767971 232.0
48.80912 220.0
48.853252 136.0
48.877983 232.0
48.928402 60.0
48.959034 184.0
48.998035 164.0
49.037052 100.0
49.063538 100.0
49.087238 160.0
49.099789 160.0
49.123501 144.0
49.161716 188.0
49.198402 160.0
49.221195 124.0
49.248238 280.0
49.387379 136.0
49.43227 204.0
49.471458 132.0
49.555489 192.0
49.576504 156.0
49.591923 172.0
49.647999 56.0
49.717243 212.0
49.774296 248.0
49.794865 136.0
49.824856 128.0
49.838905 148.0
49.850147 180.0
49.882473 172.0
49.924652 164.0
49.952782 140.0
50.03159 136.0
50.083691 148.0
50.10482 160.0
50.201275 136.0
50.214767 60.0
50.298012 136.0
50.310719 124.0
50.350254 168.0
50.38839 212.0
50.447746 224.0
50.468952 160.0
50.508549 200.0
50.521282 184.0
50.542503 152.0
50.559486 236.0
50.598896 204.0
50.626022 168.0
50.679848 144.0
50.706982 136.0
50.720943 176.0
50.810284 48.0
50.828728 40.0
50.842918 160.0
50.8997 56.0
50.915394 156.0
50.989197 404.0
51.102955 224.0
51.159882 144.0
51.192631 188.0
51.222538 164.0
51.288086 124.0
51.306995 196.0
51.337982 204.0
51.396469 108.0
51.422153 196.0
51.444992 212.0
51.464981 100.0
51.50211 160.0
51.552113 80.0
51.60643 68.0
51.697327 176.0
51.752369 156.0
51.787369 136.0
51.798199 172.0
51.809658 180.0
51.868408 220.0
51.879879 108.0
51.889912 92.0
51.909988 168.0
51.950146 148.0
51.960186 136.0
51.980274 124.0
52.015934 224.0
52.077896 140.0
52.102695 152.0
52.119556 172.0
52.129616 124.0
52.151173 148.0
52.238884 60.0
52.270538 164.0
52.292122 220.0
52.302658 100.0
52.330189 176.0
52.340401 148.0
52.420292 96.0
52.454884 144.0
52.467857 180.0
52.50679 128.0
52.524097 88.0
52.547176 44.0
52.587582 172.0
52.599129 112.0
52.639553 164.0
52.66011 188.0
52.699245 148.0
52.718136 204.0
52.792728 204.0
52.867954 208.0
52.933098 304.0
52.976025 220.0
53.069336 160.0
53.091049 44.0
53.128761 192.0
53.207127 64.0
53.266666 200.0
53.28846 80.0
53.3088 152.0
53.353859 164.0
53.454216 168.0
53.464401 104.0
53.489143 160.0
53.51535 56.0
53.529137 140.0
53.541561 340.0
53.614399 140.0
53.665421 268.0
53.713516 200.0
53.801098 72.0
53.836143 36.0
53.852207 136.0
53.863892 176.0
53.951775 172.0
53.973499 192.0
53.99836 268.0
54.029079 136.0
54.100784 96.0
54.128605 152.0
54.156429 196.0
54.171078 180.0
54.195984 136.0
54.206238 72.0
54.302994 160.0
54.374886 116.0
54.3969 44.0
54.426262 172.0
54.482075 188.0
54.513054 184.0
54.530033 100.0
54.548203 128.0
54.558491 192.0
54.627609 168.0
54.651028 148.0
54.738117 184.0
54.752716 184.0
54.814587 220.0
54.848484 184.0
54.872818 160.0
54.898613 200.0
54.908936 172.0
54.928108 228.0
54.938435 144.0
54.973846 184.0
55.024029 132.0
55.080147 172.0
55.094917 116.0
55.108215 204.0
55.140724 88.0
55.164371 140.0
55.227955 124.0
55.290092 124.0
55.304893 140.0
55.352268 108.0
55.395218 152.0
55.412994 64.0
55.433739 136.0
55.511478 172.0
55.568668 108.0
55.595379 132.0
55.641281 164.0
55.68148 172.0
55.709705 136.0
55.775085 280.0
55.800358 128.0
55.852329 156.0
55.88662 336.0
55.897038 168.0
55.929779 172.0
55.953594 184.0
56.072666 128.0
56.104416 168.0
56.120461 184.0
56.172356 216.0
56.196529 84.0
56.206974 180.0
56.284592 164.0
56.306992 212.0
56.339851 116.0
56.371227 204.0
56.43222 184.0
56.462597 200.0
56.502804 112.0
56.55069 56.0
56.574638 132.0
56.589607 132.0
56.636032 172.0
56.68264 144.0
56.772346 176.0
56.800911 164.0
56.827103 180.0
56.83992 124.0
56.90596 196.0
56.939495 144.0
56.956303 252.0
56.972435 152.0
57.038124 172.0
57.062351 128.0
57.084766 168.0
57.13139 100.0
57.190075 124.0
57.211151 176.0
57.287952 148.0
57.329048 116.0
57.409706 164.0
57.461319 176.0
57.53376 144.0
57.571507 220.0
57.6138 416.0
57.624374 164.0
57.65913 168.0
57.675755 116.0
57.723263 228.0
57.767994 212.0
57.782131 220.0
57.807331 132.0
57.843655 152.0
57.923908 208.0
57.958752 156.0
57.978455 340.0
58.026329 212.0
58.055149 196.0
58.086102 208.0
58.103893 148.0
58.12505 132.0
58.231812 156.0
58.248478 144.0
58.260414 212.0
58.285416 196.0
58.319935 192.0
58.333614 128.0
58.354897 156.0
58.456806 208.0
58.471687 180.0
58.494858 200.0
58.554237 56.0
58.589272 112.0
58.688335 112.0
58.718834 176.0
58.753918 156.0
58.794884 132.0
58.829357 212.0
58.847668 252.0
58.88274 212.0
58.900463 160.0
58.952297 220.0
58.981445 156.0
59.038017 32.0
59.048721 176.0
59.070133 160.0
59.129807 360.0
59.166542 148.0
59.184917 196.0
59.215542 152.0
59.246178 144.0
59.259968 200.0
59.289082 264.0
59.305939 172.0
59.321266 196.0
59.345795 160.0
59.407143 192.0
59.439362 116.0
59.522247 76.0
59.548355 244.0
59.666676 224.0
59.7005 228.0
59.725914 84.0
59.89006 168.0
59.905205 252.0
59.916626 136.0
59.957592 108.0
60.008461 176.0
60.036213 196.0
60.12569 168.0
60.141125 184.0
60.213692 288.0
60.277027 76.0
60.326485 64.0
60.345036 208.0
60.361271 104.0
60.416058 104.0
60.418884 96.0
60.424614 176.0
60.445572 96.0
60.558586 236.0
60.687206 192.0
60.712017 188.0
60.726391 148.0
60.841232 172.0
60.854771 88.0
60.926212 160.0
60.965057 180.0
60.989922 168.0
61.083218 176.0
61.165688 348.0
61.181396 176.0
61.204609 88.0
61.231606 308.0
61.249771 144.0
61.26535 188.0
61.383801 204.0
61.474277 152.0
61.544518 204.0
61.560131 200.0
61.791737 160.0
61.841537 140.0
61.877281 168.0
61.90416 164.0
61.932804 152.0
61.995018 156.0
62.037334 168.0
62.106331 184.0
62.13628 172.0
62.150253 264.0
62.255981 124.0
62.299404 168.0
62.331413 128.0
62.34811 240.0
62.370113 176.0
62.407845 88.0
62.434574 204.0
62.506939 164.0
62.517952 140.0
62.541561 108.0
62.557301 152.0
62.592529 220.0
62.60611 108.0
62.620285 152.0
62.675419 188.0
62.711414 228.0
62.722919 200.0
62.755478 212.0
62.779457 200.0
62.804691 104.0
62.829929 136.0
62.864021 112.0
62.918533 168.0
62.964096 148.0
62.982906 176.0
63.003586 136.0
63.019382 212.0
63.032024 152.0
63.106312 192.0
63.174316 120.0
63.193302 212.0
63.272781 236.0
63.329441 96.0
63.378548 60.0
63.453041 128.0
63.498905 160.0
63.516472 168.0
63.53075 208.0
63.554546 128.0
63.595806 184.0
63.627556 36.0
63.638668 144.0
63.649784 108.0
63.670071 160.0
63.757801 144.0
63.79277 116.0
63.81469 180.0
63.834106 192.0
63.854782 196.0
63.894547 116.0
63.932735 164.0
63.959793 188.0
64.012329 196.0
64.038216 204.0
64.068916 296.0
64.109322 212.0
64.182823 152.0
64.196014 132.0
64.278534 132.0
64.297684 164.0
64.335991 56.0
64.372154 184.0
64.416534 180.0
64.428612 96.0
64.463768 172.0
64.490936 220.0
64.665268 52.0
64.692657 176.0
64.760216 132.0
64.777351 140.0
64.83503 108.0
64.875099 124.0
64.889305 204.0
64.905563 200.0
64.944046 92.0
65.00341 220.0
65.046738 336.0
65.101326 56.0
65.153595 180.0
65.196106 124.0
65.236473 180.0
65.253975 128.0
65.294174 184.0
65.308647 188.0
65.321518 144.0
65.339844 184.0
65.344933 72.0
65.351318 152.0
65.376221 144.0
65.413589 204.0
65.448654 212.0
65.467979 152.0
65.493752 172.0
65.511467 164.0
65.52919 132.0
65.563026 112.0
65.600098 136.0
65.625893 208.0
65.672661 172.0
65.692017 164.0
65.71299 180.0
65.73719 156.0
65.754265 76.0
65.790535 152.0
65.821129 200.0
65.900269 120.0
65.948753 204.0
66.002098 180.0
66.029587 172.0
66.057091 148.0
66.137993 204.0
66.16713 184.0
66.182274 272.0
66.210846 140.0
66.231361 228.0
66.272408 204.0
66.361549 168.0
66.423172 184.0
66.482948 180.0
66.530273 212.0
66.684586 180.0
66.72522 160.0
66.767723 172.0
66.81955 184.0
66.842331 136.0
66.887901 140.0
66.939537 184.0
66.962791 116.0
66.983971 132.0
67.019814 152.0
67.040993 216.0
67.111084 128.0
67.132141 232.0
67.163269 136.0
67.181084 148.0
67.202423 192.0
67.264435 196.0
67.378746 48.0
67.390182 176.0
67.630569 208.0
67.654243 208.0
67.669861 184.0
67.69442 156.0
67.732201 172.0
67.753387 140.0
67.777962 116.0
67.806396 204.0
67.83239 188.0
67.894981 132.0
67.90583 184.0
67.927147 200.0
67.982933 172.0
68.004265 136.0
68.021584 288.0
68.045303 132.0
68.06665 120.0
68.125778 328.0
68.137276 216.0
68.166855 144.0
68.185196 196.0
68.250679 132.0
68.299088 348.0
68.355957 76.0
68.410271 208.0
68.42363 208.0
68.531723 144.0
68.574982 88.0
68.599709 176.0
68.614464 164.0
68.65799 104.0
68.696999 156.0
68.710197 164.0
68.753098 136.0
68.766304 124.0
68.804268 92.0
68.971107 232.0
68.989288 68.0
69.009132 188.0
69.02401 160.0
69.144417 240.0
69.159668 92.0
69.252388 152.0
69.285515 132.0
69.305397 136.0
69.333572 188.0
69.360085 152.0
69.394897 32.0
69.409821 180.0
69.426407 164.0
69.52594 172.0
69.542542 104.0
69.579056 204.0
69.592339 168.0
69.636559 260.0
69.67704 240.0
69.824982 244.0
69.898178 172.0
69.963081 152.0
70.023026 180.0
70.088173 192.0
70.106323 176.0
70.119659 104.0
70.131325 120.0
70.171333 144.0
70.226364 192.0
70.243042 148.0
70.28315 196.0
70.302559 132.0
70.344833 228.0
70.395599 156.0
70.408279 172.0
70.458389 156.0
70.485123 136.0
70.52021 168.0
70.535255 176.0
70.563675 172.0
70.645622 64.0
70.664024 132.0
70.700836 192.0
70.722595 52.0
70.748451 164.0
70.761093 120.0
70.796257 140.0
70.864235 220.0
70.890938 284.0
70.94873 132.0
70.965363 228.0
71.076691 272.0
71.118149 144.0
71.173218 184.0
71.259209 120.0
71.32811 192.0
71.403023 164.0
71.429001 108.0
71.44838 184.0
71.466011 160.0
71.509766 148.0
71.567001 136.0
71.58889 148.0
71.602364 188.0
71.657944 136.0
71.683189 228.0
71.698387 144.0
71.725197 172.0
71.777618 140.0
71.836647 156.0
71.910797 228.0
71.928879 140.0
72.05442 208.0
72.0793 160.0
72.125397 184.0
72.238815 156.0
72.264687 184.0
72.374077 156.0
72.407944 128.0
72.467232 196.0
72.502815 180.0
72.529938 212.0
72.587578 164.0
72.601143 128.0
72.640152 48.0
72.668991 120.0
72.840454 212.0
72.877831 172.0
72.896515 124.0
73.000214 104.0
73.015518 224.0
73.029121 208.0
73.073349 100.0
73.108742 176.0
73.129509 180.0
73.155037 140.0
73.182274 28.0
73.197601 136.0
73.21463 160.0
73.280441 208.0
73.319016 204.0
73.376503 112.0
73.398666 208.0
73.412308 132.0
73.439598 236.0
73.499306 152.0
73.559036 116.0
73.692245 180.0
73.724442 176.0
73.806763 140.0
73.825935 216.0
73.854645 192.0
73.887146 160.0
73.982979 164.0
74.00695 152.0
74.049759 132.0
74.147415 168.0
74.161125 200.0
74.186836 184.0
74.203979 204.0
74.219414 144.0
74.25882 220.0
74.317177 128.0
74.37381 112.0
74.397842 244.0
74.423592 128.0
74.531807 100.0
74.559296 184.0
74.624619 44.0
74.659004 276.0
74.691689 52.0
74.824188 112.0
74.851738 184.0
74.965431 116.0
74.987831 68.0
75.03093 164.0
75.051613 160.0
75.114799 220.0
75.153381 144.0
75.182716 216.0
75.196518 132.0
75.217232 200.0
75.364021 112.0
75.438339 152.0
75.502846 220.0
75.677078 148.0
75.697861 184.0
75.909264 128.0
75.969971 92.0
76.07756 68.0
76.136597 188.0
76.14875 228.0
76.181755 180.0
76.275589 148.0
76.330612 80.0
76.362526 64.0
76.374702 160.0
76.5261 160.0
76.537201 148.0
76.553955 60.0
76.599243 184.0
76.611435 392.0
76.634087 152.0
76.67765 148.0
76.68985 276.0
76.817131 64.0
76.860748 64.0
76.959152 148.0
76.982941 220.0
77.016121 256.0
77.028152 176.0
77.08522 348.0
77.126198 220.0
77.208374 192.0
77.234604 172.0
77.253845 144.0
77.284897 236.0
77.29644 128.0
77.344841 148.0
77.360596 148.0
77.394234 208.0
77.491173 200.0
77.503609 176.0
77.566475 256.0
77.59668 184.0
77.64444 212.0
77.716362 80.0
77.756721 180.0
77.769012 144.0
77.793587 212.0
77.80587 160.0
77.89016 180.0
77.937599 156.0
77.960442 104.0
78.053604 200.0
78.094727 188.0
78.174324 224.0
78.199615 120.0
78.243622 36.0
78.26123 156.0
78.291168 128.0
78.342239 224.0
78.356339 148.0
78.372192 120.0
78.386292 164.0
78.446213 164.0
78.485001 32.0
78.55378 136.0
78.618538 176.0
78.634941 164.0
78.652596 100.0
78.689667 172.0
78.705559 104.0
78.73381 136.0
78.765602 124.0
78.777969 132.0
78.912277 200.0
78.928192 152.0
78.95118 224.0
78.988319 208.0
79.014854 280.0
79.08564 164.0
79.142288 116.0
79.168846 380.0
79.23793 236.0
79.289314 168.0
79.32299 176.0
79.370857 148.0
79.38327 116.0
79.412666 184.0
79.425835 196.0
79.472488 148.0
79.492218 184.0
79.586143 132.0
79.628174 188.0
79.660141 176.0
79.793427 128.0
79.862198 220.0
79.916145 148.0
79.930382 128.0
79.964188 204.0
80.019371 196.0
80.067451 72.0
80.083481 192.0
80.108414 140.0
80.126228 128.0
80.177902 48.0
80.228821 184.0
80.262108 168.0
80.302704 140.0
80.324104 212.0
80.352646 156.0
80.413315 140.0
80.470436 292.0
80.499283 52.0
80.566788 160.0
80.62149 340.0
80.749199 132.0
80.777512 208.0
80.941025 208.0
81.026649 212.0
81.048149 272.0
81.121628 144.0
81.133537 236.0
81.161072 132.0
81.196938 136.0
81.263306 192.0
81.451805 216.0
81.494461 188.0
81.534447 144.0
81.590172 156.0
81.67469 196.0
81.723259 136.0
81.797043 48.0
81.867264 144.0
81.934128 196.0
81.961922 128.0
82.070023 172.0
82.115959 224.0
82.20797 180.0
82.224213 140.0
82.251717 260.0
82.267525 72.0
82.296417 192.0
82.32074 200.0
82.343361 156.0
82.365257 172.0
82.410202 208.0
82.4608 192.0
82.478874 184.0
82.56385 104.0
82.603638 116.0
82.641235 200.0
82.752037 188.0
82.764709 128.0
82.779198 160.0
82.80455 200.0
82.838959 164.0
82.884071 200.0
82.918686 120.0
82.993011 180.0
83.029274 164.0
83.10183 88.0
83.198021 180.0
83.254311 132.0
83.328781 56.0
83.528748 132.0
83.550575 76.0
83.601524 196.0
83.656197 200.0
83.697998 180.0
83.71257 136.0
83.75322 188.0
83.827194 164.0
83.889297 148.0
84.000534 148.0
84.064392 176.0
84.090996 204.0
84.106361 184.0
84.16478 168.0
84.223221 184.0
84.239662 248.0
84.259758 144.0
84.416725 176.0
84.449867 76.0
84.550491 180.0
84.600739 124.0
84.616386 200.0
84.635712 180.0
84.660332 164.0
84.698792 168.0
84.748253 148.0
84.822426 144.0
84.881592 172.0
84.921486 208.0
84.959358 164.0
84.97377 128.0
85.014137 216.0
85.083885 224.0
85.124275 164.0
85.137131 264.0
85.16716 160.0
85.190392 128.0
85.202461 120.0
85.236328 112.0
85.251022 152.0
85.265724 116.0
85.353966 200.0
85.381546 60.0
85.403618 188.0
85.420174 96.0
85.47905 192.0
85.519531 136.0
85.576599 200.0
85.606064 124.0
85.652107 268.0
85.670525 456.0
85.735016 196.0
85.779243 188.0
85.8069 280.0
85.834557 96.0
85.854843 52.0
85.910172 192.0
86.043785 216.0
86.061508 44.0
86.088943 336.0
86.105827 204.0
86.135948 156.0
86.168633 188.0
86.23114 140.0
86.281364 176.0
86.338684 184.0
86.359032 192.0
86.445984 88.0
86.52372 200.0
86.676193 184.0
86.690292 184.0
86.751579 40.0
86.764557 196.0
86.777534 116.0
86.801636 88.0
86.816475 124.0
86.831306 132.0
86.912933 148.0
86.966644 148.0
86.990875 200.0
87.068863 56.0
87.089287 132.0
87.22213 160.0
87.311523 216.0
87.381142 184.0
87.41835 200.0
87.479774 152.0
87.492805 156.0
87.562035 216.0
87.625031 140.0
87.7034 148.0
87.713921 188.0
87.734497 136.0
87.822708 176.0
87.965797 208.0
88.00737 156.0
88.057793 144.0
88.072731 84.0
88.113831 496.0
88.146324 192.0
88.158676 156.0
88.17923 220.0
88.211006 156.0
88.269341 160.0
88.29744 192.0
88.373711 124.0
88.392418 56.0
88.418129 184.0
88.444824 160.0
88.548347 164.0
88.596497 200.0
88.648956 64.0
88.669571 72.0
88.693001 152.0
88.720184 204.0
88.774101 180.0
88.838326 180.0
88.85778 228.0
88.887108 136.0
88.924637 200.0
88.997849 32.0
89.033531 212.0
89.057945 152.0
89.084244 152.0
89.148125 172.0
89.215782 140.0
89.300163 188.0
89.333473 224.0
89.378166 212.0
89.401993 184.0
89.464104 132.0
89.496109 172.0
89.520584 128.0
89.54705 152.0
89.665642 160.0
89.703339 120.0
89.716537 192.0
89.752357 152.0
89.765556 64.0
89.820251 96.0
89.844772 196.0
89.884315 184.0
89.958199 224.0
89.993866 192.0
90.054298 200.0
90.071297 100.0
90.099632 96.0
90.127975 72.0
90.161987 152.0
90.188446 128.0
90.229752 188.0
90.254616 144.0
90.267845 184.0
90.286758 208.0
90.364311 284.0
90.419189 156.0
90.432434 152.0
90.484596 140.0
90.530884 108.0
90.564972 132.0
90.580124 248.0
90.642647 192.0
90.659698 168.0
90.684334 192.0
90.735519 256.0
90.777229 220.0
90.80378 152.0
90.841713 160.0
90.864479 200.0
90.896736 172.0
90.953354 168.0
91.003029 168.0
91.02961 188.0
91.041985 128.0
91.06189 88.0
91.107483 148.0
91.30706 148.0
91.339394 188.0
91.358414 164.0
91.407883 168.0
91.430717 152.0
91.522522 176.0
91.567795 212.0
91.676384 152.0
91.708267 200.0
91.714752 212.0
91.750717 176.0
91.767876 148.0
91.8022 160.0
91.83271 348.0
91.86338 204.0
91.945274 224.0
91.998718 168.0
92.036171 168.0
92.139725 152.0
92.161057 168.0
92.20118 96.0
92.227936 208.0
92.25959 136.0
92.298676 204.0
92.312057 104.0
92.371346 132.0
92.396217 64.0
92.467018 192.0
92.532097 148.0
92.581879 44.0
92.654663 164.0
92.677658 164.0
92.737457 156.0
92.801247 244.0
92.892372 192.0
92.933304 192.0
92.963455 164.0
92.990234 216.0
93.007507 120.0
93.02478 180.0
93.04599 1456.0
93.084175 124.0
93.109261 56.0
93.128471 100.0
93.161125 208.0
93.180389 144.0
93.20723 192.0
93.241821 212.0
93.262962 160.0
93.293716 176.0
93.364861 204.0
93.402672 188.0
93.443726 196.0
93.470665 136.0
93.534172 128.0
93.570747 148.0
93.591927 184.0
93.60733 196.0
93.620811 240.0
93.676666 164.0
93.713272 188.0
93.857826 140.0
93.872589 116.0
93.909897 168.0
93.972298 168.0
94.029755 876.0
94.047562 160.0
94.053947 164.0
94.079697 176.0
94.112175 180.0
94.162727 40.0
94.216812 64.0
94.242767 92.0
94.282509 204.0
94.359825 196.0
94.392693 156.0
94.417831 240.0
94.446846 132.0
94.487541 204.0
94.514687 112.0
94.568657 184.0
94.671768 164.0
94.693832 164.0
94.748825 140.0
94.791451 148.0
94.856415 176.0
94.880608 100.0
94.897919 160.0
94.971741 156.0
94.985321 248.0
95.028091 168.0
95.053223 48.0
95.099464 116.0
95.214348 160.0
95.317307 172.0
95.340065 180.0
95.385323 132.0
95.500809 152.0
95.529221 148.0
95.548141 132.0
95.696587 292.0
95.716057 160.0
95.75695 152.0
95.784218 76.0
95.818008 184.0
95.836823 220.0
95.99276 176.0
96.010307 152.0
96.044113 136.0
96.062965 172.0
96.076622 152.0
96.124832 116.0
96.139954 304.0
96.205421 200.0
96.314774 116.0
96.336258 128.0
96.365562 184.0
96.393242 216.0
96.418327 192.0
96.649071 168.0
96.701904 144.0
96.765839 172.0
96.807625 112.0
96.827209 48.0
96.860504 228.0
96.917313 140.0
96.93103 184.0
96.952591 60.0
97.125122 52.0
97.238914 176.0
97.254616 76.0
97.305603 156.0
97.390961 172.0
97.395882 76.0
97.402954 168.0
97.43145 156.0
97.462784 180.0
97.514076 116.0
97.536064 152.0
97.600372 160.0
97.681 188.0
97.702644 68.0
97.732155 196.0
97.826622 120.0
97.849449 212.0
97.869934 192.0
97.921135 128.0
97.942795 112.0
97.960526 196.0
98.061012 76.0
98.076782 176.0
98.097366 180.0
98.321342 168.0
98.532623 208.0
98.546448 84.0
98.566208 180.0
98.6334 208.0
98.686775 172.0
98.731819 144.0
98.832893 160.0
98.896469 172.0
98.934082 196.0
98.955856 80.0
99.091629 144.0
99.209442 148.0
99.308586 160.0
99.423653 196.0
99.443497 164.0
99.4869 176.0
99.499611 208.0
99.530846 108.0
99.586449 176.0
99.713608 136.0
99.743416 188.0
99.779198 88.0
99.807037 84.0
99.906479 104.0
99.950508 348.0
99.966164 216.0
99.990044 48.0
100.057724 164.0
100.072906 236.0
100.119453 180.0
100.29332 164.0
100.336639 216.0
100.3573 208.0
100.380501 188.0
100.476242 136.0
100.57373 160.0
100.623924 120.0
100.743744 160.0
100.763725 172.0
100.779709 160.0
100.829666 80.0
100.88163 172.0
100.89563 188.0
100.935287 196.0
100.948036 208.0
100.969612 176.0
100.993607 136.0
101.043144 236.0
101.077629 208.0
101.103645 148.0
101.117653 192.0
101.133667 132.0
101.15168 84.0
101.187714 100.0
101.20974 136.0
101.232513 128.0
101.267815 144.0
101.281837 108.0
101.297859 72.0
101.339928 184.0
101.489784 188.0
101.546402 152.0
101.580498 120.0
101.69487 164.0
101.712936 232.0
101.739029 148.0
101.763336 228.0
101.835411 176.0
101.853493 120.0
101.974045 48.0
102.020271 40.0
102.05043 236.0
102.077286 168.0
102.184967 188.0
102.190353 168.0
102.199478 284.0
102.22744 188.0
102.297302 340.0
102.372375 136.0
102.432793 92.0
102.446899 64.0
102.469055 168.0
102.535553 100.0
102.580482 96.0
102.647278 180.0
102.672493 108.0
102.74324 144.0
102.773499 140.0
102.850189 144.0
102.928925 164.0
102.995171 184.0
103.054993 584.0
103.112755 164.0
103.250229 132.0
103.282585 140.0
103.310905 204.0
103.347321 200.0
103.38752 148.0
103.442436 228.0
103.604439 124.0
103.644958 116.0
103.667252 188.0
103.705757 108.0
103.75296 196.0
103.801041 96.0
103.825371 136.0
103.861633 248.0
103.890282 172.0
103.971443 132.0
104.017159 228.0
104.050232 184.0
104.223236 92.0
104.255753 188.0
104.300461 212.0
104.330956 348.0
104.347221 120.0
104.473305 188.0
104.733864 120.0
104.780716 216.0
104.803123 188.0
104.911392 256.0
104.9356 144.0
104.958031 176.0
105.011055 176.0
105.032494 180.0
105.068436 780.0
105.147743 116.0
105.17836 212.0
105.231438 128.0
105.280441 176.0
105.383034 160.0
105.464226 188.0
105.533501 204.0
105.618645 268.0
105.652443 108.0
105.701675 192.0
105.717918 136.0
105.818214 124.0
105.860596 160.0
105.928795 108.0
106.074287 260.0
106.109138 192.0
106.126747 172.0
106.23172 196.0
106.48465 128.0
106.535995 164.0
106.573822 204.0
106.595581 108.0
106.634628 44.0
106.690125 180.0
106.711311 236.0
106.745918 176.0
106.766205 144.0
106.800995 144.0
106.876068 200.0
106.899918 108.0
106.953423 148.0
107.00489 168.0
107.054306 188.0
107.095497 196.0
107.141968 200.0
107.182022 160.0
107.221214 216.0
107.244919 184.0
107.315994 152.0
107.334099 236.0
107.369606 152.0
107.404007 200.0
107.710159 128.0
107.730812 96.0
107.794861 112.0
107.829994 136.0
107.892006 192.0
107.923012 148.0
107.964371 240.0
108.042969 188.0
108.090553 224.0
108.115387 60.0
108.154709 220.0
108.169205 164.0
108.214745 136.0
108.22924 56.0
108.406471 192.0
108.419815 224.0
108.468254 236.0
108.51516 64.0
108.533966 204.0
108.583595 184.0
108.602257 152.0
108.618851 80.0
108.660339 148.0
108.732964 136.0
108.7724 184.0
108.806824 200.0
108.842987 156.0
108.930214 104.0
108.957924 180.0
109.019554 116.0
109.175468 148.0
109.200111 176.0
109.232277 140.0
109.252426 60.0
109.277916 332.0
109.354721 148.0
109.381439 272.0
109.445976 32.0
109.475128 132.0
109.558006 172.0
109.566101 136.0
109.643875 164.0
109.668884 220.0
109.683472 180.0
109.936615 224.0
109.973259 168.0
110.095657 128.0
110.213547 196.0
110.24614 188.0
110.328499 144.0
110.357765 160.0
110.376587 64.0
110.431686 188.0
110.531372 112.0
110.61718 212.0
110.780518 220.0
110.849655 232.0
110.881088 208.0
110.906242 164.0
110.93277 184.0
111.002678 148.0
111.029938 164.0
111.153702 148.0
111.196609 208.0
111.233498 184.0
111.321632 52.0
111.348938 144.0
111.367836 168.0
111.437157 204.0
111.471657 220.0
111.521217 76.0
111.542236 136.0
111.571663 116.0
111.619255 132.0
111.647362 140.0
111.691528 136.0
111.760948 172.0
111.861969 132.0
112.015686 208.0
112.049393 168.0
112.087318 148.0
112.137894 136.0
112.249626 124.0
112.270714 204.0
112.298126 176.0
112.352974 220.0
112.367737 184.0
112.623161 356.0
112.717514 188.0
112.781631 168.0
112.842934 172.0
112.868309 160.0
112.942329 204.0
112.965591 180.0
113.035408 220.0
113.062286 196.0
113.162407 164.0
113.329727 132.0
113.391472 256.0
113.410255 168.0
113.425095 48.0
113.523506 172.0
113.545944 152.0
113.565033 156.0
113.646812 196.0
113.681717 228.0
113.700821 164.0
113.73053 140.0
113.80204 216.0
113.825005 156.0
113.899864 176.0
113.985374 48.0
114.049553 200.0
114.166061 148.0
114.240501 144.0
114.415009 160.0
114.446945 96.0
114.468239 156.0
114.487404 164.0
114.566208 136.0
114.657829 164.0
114.736694 368.0
114.864647 152.0
114.885979 116.0
114.930779 180.0
114.96492 176.0
115.003334 204.0
115.022148 192.0
115.054062 1104.0
115.097267 212.0
115.112213 96.0
115.139977 268.0
115.157059 80.0
115.176285 208.0
115.216873 132.0
115.278831 224.0
115.409218 188.0
115.432739 116.0
115.501175 132.0
115.642952 200.0
115.700188 168.0
115.717316 108.0
115.76442 192.0
115.783691 116.0
115.84581 208.0
115.865089 116.0
115.945541 124.0
115.965805 184.0
116.059296 184.0
116.079422 164.0
116.109444 84.0
116.169502 128.0
116.186661 164.0
116.255325 152.0
116.31971 104.0
116.336884 184.0
116.388412 208.0
116.407738 248.0
116.454979 172.0
116.482903 112.0
116.54306 128.0
116.564545 132.0
116.666191 172.0
116.680611 144.0
116.730064 144.0
116.844803 196.0
116.857712 104.0
116.895691 208.0
116.921257 144.0
116.96344 184.0
117.057617 1628.0
117.10833 160.0
117.134674 116.0
117.155724 176.0
117.29628 136.0
117.353676 192.0
117.410942 132.0
117.488197 108.0
117.531349 96.0
117.566437 184.0
117.671646 140.0
117.691071 144.0
117.768814 192.0
117.86171 148.0
117.911407 96.0
118.032471 48.0
118.066978 868.0
118.123299 48.0
118.209839 104.0
118.413338 180.0
118.493484 132.0
118.509872 248.0
118.533089 200.0
118.575829 172.0
118.705101 240.0
118.799156 112.0
118.83326 156.0
118.898048 256.0
118.930122 248.0
119.024033 352.0
119.071571 560.0
119.092033 380.0
119.148674 128.0
119.292099 152.0
119.402985 192.0
119.422562 168.0
119.47052 188.0
119.520454 84.0
119.557449 124.0
119.577034 96.0
119.614037 68.0
119.652664 196.0
119.679344 132.0
119.731606 56.0
119.757744 124.0
119.803482 132.0
119.83181 64.0
119.960388 140.0
119.983528 156.0
120.062859 304.0
120.087723 184.0
120.178474 172.0
120.200287 176.0
120.217751 172.0
120.236382 200.0
120.276672 160.0
120.302872 40.0
120.342163 228.0
120.484123 204.0
120.623978 180.0
120.639282 236.0
120.681366 544.0
120.702682 144.0
120.719803 164.0
120.725388 136.0
120.744568 236.0
120.777618 196.0
120.841537 192.0
120.879868 212.0
120.909409 200.0
120.94104 176.0
120.973114 224.0
120.992111 668.0
121.01683 528.0
121.041061 162420.0
121.091171 316.0
121.121498 152.0
121.150002 96.0
121.156273 192.0
121.167091 124.0
121.173264 68.0
121.184006 208.0
121.198639 268.0
121.236557 144.0
121.279068 168.0
121.28756 200.0
121.308388 96.0
121.337265 48.0
121.342896 40.0
121.352379 172.0
121.359169 180.0
121.375557 216.0
121.400787 2092.0
121.433594 132.0
121.439308 208.0
121.454559 100.0
121.482155 84.0
121.508698 52.0
121.539658 72.0
121.564819 104.0
121.579811 92.0
121.598022 96.0
121.625694 164.0
121.661316 184.0
121.697449 36.0
121.720551 84.0
121.742157 188.0
121.776497 32.0
121.81823 48.0
121.852562 64.0
121.87645 136.0
121.888947 156.0
121.924065 72.0
121.965454 196.0
121.994698 224.0
122.043648 11208.0
122.07383 240.0
122.090775 128.0
122.116638 100.0
122.171822 128.0
122.198204 100.0
122.2276 60.0
122.257477 72.0
122.292099 220.0
122.318649 56.0
122.347549 160.0
122.362976 180.0
122.390038 52.0
122.435585 152.0
122.463905 148.0
122.507812 84.0
122.533989 136.0
122.550827 164.0
122.58638 168.0
122.616402 264.0
122.656609 224.0
122.675278 36.0
122.726784 132.0
122.767754 116.0
122.773781 192.0
122.820419 212.0
122.84404 88.0
122.870621 168.0
122.911148 96.0
122.93058 228.0
122.950348 144.0
122.970566 128.0
123.012039 104.0
123.04512 312.0
123.071182 160.0
123.087914 120.0
123.107361 100.0
123.123962 136.0
123.155273 44.0
123.176239 260.0
123.199448 144.0
123.223747 180.0
123.340874 40.0
123.406303 168.0
123.47245 188.0
123.515556 88.0
123.554283 220.0
123.590118 232.0
123.608475 80.0
123.641663 36.0
123.660912 92.0
123.708069 56.0
123.739059 120.0
123.7612 148.0
123.807701 40.0
123.836494 76.0
123.885223 96.0
123.919182 156.0
123.972565 144.0
124.015961 56.0
124.091324 96.0
124.144539 56.0
124.171158 204.0
124.192802 164.0
124.239914 196.0
124.25766 152.0
124.34642 152.0
124.435211 144.0
124.524033 72.0
124.570679 120.0
124.595116 108.0
124.610664 128.0
124.646217 152.0
124.757347 72.0
124.781799 208.0
124.852951 192.0
124.89743 28.0
124.932014 132.0
125.139999 188.0
125.162262 152.0
125.213478 132.0
125.253571 160.0
125.358284 132.0
125.409538 140.0
125.582153 144.0
125.610214 152.0
125.694992 180.0
125.730698 40.0
125.788727 100.0
125.813286 148.0
125.917084 148.0
125.936096 52.0
126.052269 124.0
126.096962 160.0
126.186371 136.0
126.240036 220.0
126.291672 180.0
126.37648 108.0
126.465996 196.0
126.48838 184.0
126.678017 168.0
126.703354 92.0
126.744537 200.0
126.819878 184.0
126.925514 164.0
126.949905 152.0
127.050835 204.0
127.093468 204.0
127.198013 176.0
127.235924 160.0
127.479683 188.0
127.553848 44.0
127.571831 136.0
127.619041 40.0
127.643776 216.0
127.691002 160.0
127.756233 68.0
127.792229 116.0
127.814728 112.0
127.859734 48.0
127.983543 156.0
128.048309 412.0
128.125427 148.0
128.21106 228.0
128.247116 52.0
128.307983 56.0
128.332779 56.0
128.468094 116.0
128.490646 84.0
128.580902 64.0
128.641846 88.0
128.777328 116.0
128.827026 108.0
128.865433 136.0
128.980682 80.0
129.005539 104.0
129.056229 276.0
129.166092 168.0
129.190979 180.0
129.297318 148.0
129.34938 64.0
129.381073 148.0
129.462585 144.0
129.648346 136.0
129.684601 112.0
129.711807 32.0
129.727676 180.0
129.745804 56.0
129.786667 200.0
129.827347 184.0
129.852371 84.0
129.918152 136.0
129.949921 40.0
129.997879 176.0
130.065536 3700.0
130.110718 168.0
130.129211 192.0
130.145111 56.0
130.179169 204.0
130.279099 64.0
130.313187 56.0
130.438171 48.0
130.460907 156.0
130.540482 160.0
130.579147 172.0
130.665573 164.0
130.749603 220.0
130.783905 180.0
130.799835 136.0
130.840332 188.0
130.877243 112.0
131.020737 156.0
131.074051 4260.0
131.155182 160.0
131.386841 232.0
131.431122 36.0
131.510986 52.0
131.554352 76.0
131.606873 172.0
131.63884 160.0
131.728226 168.0
131.748459 56.0
131.764755 152.0
131.858139 188.0
131.876434 128.0
131.938141 212.0
131.9552 80.0
131.970154 120.0
132.018173 92.0
132.038757 120.0
132.081055 6968.0
132.189743 32.0
132.242371 76.0
132.288284 124.0
132.343094 132.0
132.366287 124.0
132.448441 56.0
132.490616 88.0
132.544662 120.0
132.562988 40.0
132.590485 132.0
132.611115 64.0
132.645493 60.0
132.75325 52.0
132.822052 160.0
132.845001 148.0
132.874817 36.0
132.906937 108.0
132.936768 104.0
133.012512 176.0
133.08403 916.0
133.182419 128.0
133.219177 168.0
133.297287 148.0
133.31337 204.0
133.343246 192.0
133.568573 116.0
133.626083 168.0
133.743454 84.0
133.771072 104.0
133.819412 80.0
133.88237 152.0
133.999054 132.0
134.054352 104.0
134.154541 152.0
134.190353 160.0
134.221085 108.0
134.257217 44.0
134.427917 120.0
134.545639 180.0
134.658783 176.0
134.783524 168.0
134.873657 128.0
134.963821 92.0
134.996185 60.0
135.336334 152.0
135.514679 160.0
135.642136 124.0
135.702408 144.0
135.966843 168.0
136.120056 184.0
136.142578 172.0
136.178116 176.0
136.237473 208.0
136.273361 120.0
136.289612 236.0
136.312851 224.0
136.398849 76.0
136.436035 156.0
136.66629 204.0
136.810883 212.0
136.931656 196.0
136.958939 112.0
137.03389 140.0
137.062119 40.0
137.111053 188.0
137.146011 168.0
137.264908 132.0
137.297546 156.0
137.421173 176.0
137.582214 148.0
137.724655 40.0
137.748016 168.0
138.159439 140.0
138.403687 176.0
138.430939 200.0
138.984131 140.0
139.063919 160.0
139.082687 68.0
139.216522 204.0
139.319046 208.0
139.420166 180.0
139.48201 196.0
139.533722 188.0
139.7948 192.0
139.820694 116.0
139.938385 236.0
140.013733 204.0
140.051331 200.0
140.084396 184.0
140.15979 64.0
140.244629 204.0
140.305908 152.0
140.397873 160.0
140.534683 188.0
140.574799 132.0
140.596039 240.0
140.636154 104.0
140.804474 164.0
140.831207 124.0
141.059616 476.0
141.212646 200.0
141.347488 140.0
141.412216 172.0
141.643417 176.0
141.697906 152.0
141.757141 116.0
141.816391 180.0
141.837723 168.0
141.930176 144.0
141.9776 48.0
142.064941 488.0
142.129425 44.0
142.146027 136.0
142.193497 124.0
142.378677 80.0
142.397675 168.0
142.466553 132.0
142.554459 144.0
142.661423 180.0
142.689941 196.0
142.835007 296.0
142.984894 180.0
143.071518 332.0
143.10614 124.0
143.203934 120.0
143.258713 92.0
143.411209 216.0
143.461273 60.0
143.594803 132.0
143.692596 152.0
143.730774 132.0
143.816681 200.0
143.95993 176.0
144.000534 152.0
144.044495 188.0
144.081177 6844.0
144.110413 352.0
144.148422 84.0
144.170151 48.0
144.315964 180.0
144.354218 168.0
144.421188 52.0
144.442703 108.0
144.559937 120.0
144.720306 48.0
144.931091 56.0
144.950256 48.0
145.078644 5136.0
145.139618 36.0
145.173187 132.0
145.321182 160.0
145.367493 152.0
145.386688 44.0
145.434692 92.0
145.492294 148.0
145.694031 180.0
145.717194 236.0
145.85321 116.0
145.974075 208.0
146.054855 176.0
146.088837 1812.0
146.146011 80.0
146.191727 52.0
146.220612 88.0
146.36264 40.0
146.420425 196.0
146.456558 140.0
146.561356 56.0
146.675827 116.0
146.714401 96.0
146.798782 68.0
146.914551 120.0
146.960388 60.0
146.989456 184.0
147.095581 712.0
147.131744 136.0
147.254898 272.0
147.283875 76.0
147.339432 136.0
147.385345 108.0
147.462677 136.0
147.501343 52.0
147.532776 96.0
147.619812 76.0
147.665756 124.0
147.726227 156.0
148.096573 160.0
148.205582 184.0
148.319489 40.0
148.338867 136.0
148.36554 136.0
148.581375 56.0
148.638962 180.0
148.802231 72.0
148.882355 124.0
149.154465 176.0
149.176834 100.0
149.240494 256.0
149.346558 120.0
149.380615 176.0
149.438995 160.0
149.548508 72.0
149.665344 152.0
149.697006 88.0
149.850464 64.0
150.077118 176.0
150.17955 188.0
150.386932 176.0
150.5383 112.0
150.572479 188.0
151.014847 300.0
151.332977 100.0
151.467667 200.0
151.558304 164.0
151.582809 212.0
151.648987 192.0
151.695557 64.0
151.896622 52.0
151.928513 156.0
152.107651 136.0
152.277069 156.0
152.305023 136.0
152.409714 168.0
152.463776 120.0
152.562103 32.0
152.88623 112.0
152.926147 176.0
152.982758 108.0
153.160049 136.0
153.221634 88.0
153.283234 276.0
153.334976 36.0
153.411392 156.0
153.549469 140.0
153.653061 156.0
153.714371 104.0
153.848022 124.0
154.069382 348.0
154.151825 64.0
154.423752 88.0
154.47818 156.0
154.517761 200.0
154.557343 180.0
154.738022 228.0
154.87175 164.0
155.027817 144.0
155.06604 324.0
155.112091 64.0
155.179016 48.0
155.310455 84.0
155.397278 272.0
155.501495 136.0
155.518875 172.0
155.578445 180.0
155.618164 160.0
155.68895 120.0
155.721558 216.0
155.762161 224.0
155.794495 100.0
155.898849 240.0
155.923706 56.0
155.973404 188.0
155.999146 140.0
156.02562 56.0
156.069321 16768.0
156.12265 176.0
156.164856 144.0
156.183441 144.0
156.235031 228.0
156.270859 72.0
156.351456 60.0
156.385925 108.0
156.411667 148.0
156.436081 32.0
156.501816 88.0
156.551773 112.0
156.635284 140.0
156.678207 160.0
156.737427 192.0
156.844589 140.0
156.878662 108.0
156.949295 152.0
156.98172 204.0
157.026611 56.0
157.076172 18736.0
157.171295 152.0
157.216202 108.0
157.267334 148.0
157.301071 48.0
157.323532 200.0
157.374313 260.0
157.431686 176.0
157.457565 92.0
157.494492 120.0
157.534668 80.0
157.555786 164.0
157.598251 72.0
157.630737 116.0
157.674774 232.0
157.739731 232.0
157.793457 156.0
157.840698 228.0
157.858215 140.0
157.87822 112.0
157.927551 148.0
157.96936 344.0
157.979034 336.0
157.996735 104.0
158.005569 188.0
158.033722 192.0
158.084656 79616.0
158.152954 64.0
158.172455 232.0
158.207947 56.0
158.243774 204.0
158.265945 168.0
158.291107 88.0
158.307983 100.0
158.338837 72.0
158.364594 120.0
158.410049 220.0
158.442169 64.0
158.495697 316.0
158.539108 148.0
158.55603 80.0
158.579453 224.0
158.675995 76.0
158.700882 52.0
158.735641 140.0
158.774765 240.0
158.792313 48.0
158.834564 360.0
158.904327 60.0
158.977417 184.0
159.001709 112.0
159.038773 52.0
159.0867 7180.0
159.144882 64.0
159.168732 48.0
159.19075 156.0
159.237885 64.0
159.278992 40.0
159.319931 60.0
159.364655 232.0
159.394806 76.0
159.512924 120.0
159.555664 152.0
159.658752 136.0
159.686417 52.0
159.739227 32.0
159.792068 152.0
159.824768 48.0
159.852448 72.0
159.885162 88.0
159.906693 144.0
159.932983 124.0
159.973251 180.0
159.990875 100.0
160.041229 100.0
160.089462 580.0
160.14006 160.0
160.17218 96.0
160.204941 164.0
160.241699 176.0
160.278 132.0
160.311798 140.0
160.345093 140.0
160.398972 56.0
160.459473 96.0
160.523193 160.0
160.633469 80.0
160.66626 52.0
160.794952 104.0
160.858047 100.0
161.024689 28.0
161.080261 172.0
161.137497 152.0
161.249542 40.0
161.327316 160.0
161.406281 84.0
161.717438 112.0
161.98584 52.0
162.036499 148.0
162.069443 132.0
162.097321 176.0
162.185135 128.0
162.246857 44.0
162.442108 128.0
162.515686 36.0
162.75174 44.0
163.14299 132.0
163.196381 56.0
163.27774 112.0
163.399841 96.0
163.659439 180.0
163.684906 124.0
163.947281 248.0
164.017822 260.0
164.592651 144.0
164.656494 48.0
165.03981 148.0
165.572052 152.0
165.605347 164.0
165.725754 124.0
165.746246 80.0
166.038483 60.0
166.100037 168.0
166.125687 136.0
166.343811 56.0
166.402847 164.0
166.538956 96.0
166.870453 164.0
166.95636 156.0
167.029892 140.0
167.104492 144.0
167.592575 168.0
167.645218 40.0
167.748306 120.0
167.94339 140.0
168.155838 148.0
168.202301 116.0
168.315887 100.0
168.426941 84.0
168.558701 156.0
169.07428 320.0
169.192368 116.0
169.285568 128.0
169.332184 204.0
169.549805 176.0
169.58609 184.0
169.694962 228.0
169.806473 88.0
169.94632 140.0
169.962952 188.0
170.083054 1088.0
170.263229 144.0
170.30571 220.0
170.367126 76.0
170.460663 180.0
170.51004 192.0
170.562027 100.0
170.725815 156.0
170.786987 144.0
170.819443 184.0
170.887085 164.0
170.941727 172.0
171.009384 196.0
171.025848 160.0
171.053925 216.0
171.091949 20180.0
171.160385 36.0
171.182724 44.0
171.228088 32.0
171.256729 52.0
171.298416 52.0
171.321854 60.0
171.345306 32.0
171.381775 60.0
171.427155 184.0
171.445786 128.0
171.472656 128.0
171.552414 364.0
171.726852 192.0
171.785873 56.0
171.809341 72.0
171.830215 100.0
171.861526 160.0
171.929367 60.0
171.958084 52.0
172.010284 60.0
172.036392 100.0
172.099197 7412.0
172.237457 64.0
172.260956 60.0
172.334106 56.0
172.394211 136.0
172.459549 36.0
172.531311 44.0
172.584518 224.0
172.633331 116.0
172.651901 180.0
172.681778 136.0
172.726242 132.0
172.766754 148.0
172.772278 60.0
172.799042 208.0
172.825653 136.0
172.90416 220.0
172.930328 136.0
172.956497 108.0
172.985291 184.0
173.003616 128.0
173.032196 184.0
173.070419 308.0
173.108124 111508.0
173.192764 104.0
173.222672 52.0
173.24559 108.0
173.278122 124.0
173.328003 152.0
173.335312 56.0
173.345718 160.0
173.373184 84.0
173.432953 84.0
173.461716 192.0
173.513718 152.0
173.538483 348.0
173.589951 56.0
173.609741 60.0
173.668655 60.0
173.717239 88.0
173.823975 100.0
173.909225 80.0
173.936813 52.0
173.964478 104.0
173.989319 228.0
174.026077 48.0
174.047089 40.0
174.110138 9164.0
174.162628 28.0
174.192184 48.0
174.246567 88.0
174.27034 52.0
174.336899 96.0
174.378082 100.0
174.433273 56.0
174.451675 44.0
174.501617 220.0
174.546829 104.0
174.588394 64.0
174.617767 212.0
174.673904 212.0
174.706757 88.0
174.743591 52.0
174.780426 52.0
174.800537 52.0
174.8535 88.0
174.876434 132.0
174.89621 116.0
174.980453 44.0
175.012054 32.0
175.037247 56.0
175.057556 176.0
175.113434 1616.0
175.145721 132.0
175.183685 60.0
175.231659 188.0
175.268677 92.0
175.290192 168.0
175.325516 128.0
175.345062 304.0
175.408966 64.0
175.489151 96.0
175.541122 76.0
175.573318 48.0
175.660355 60.0
175.757965 76.0
175.787003 40.0
175.874084 72.0
175.969116 56.0
176.024567 40.0
176.080017 136.0
176.17511 108.0
176.243805 96.0
176.383865 136.0
176.457886 148.0
176.521347 72.0
176.666809 92.0
177.034714 44.0
177.112595 88.0
177.196289 36.0
177.471924 60.0
177.498444 36.0
177.527603 40.0
178.395813 112.0
178.58992 84.0
179.05835 96.0
180.119873 64.0
180.253464 84.0
180.30423 100.0
180.758835 48.0
181.076172 148.0
181.519577 132.0
181.962296 144.0
182.080963 124.0
182.233551 120.0
182.65831 40.0
182.827805 108.0
182.916626 108.0
183.070084 140.0
183.627945 140.0
183.846466 96.0
184.013809 96.0
184.069031 184.0
185.615585 44.0
187.968491 28.0
188.042175 96.0
188.41626 88.0
189.42569 56.0
190.577927 64.0
191.792526 88.0
191.827362 72.0
192.047943 124.0
192.150009 68.0
192.550262 128.0
192.698898 84.0
192.956451 88.0
193.133423 124.0
193.806137 112.0
194.785431 88.0
195.402588 60.0
195.697601 84.0
198.067215 168.0
199.097855 168.0
200.944366 108.0
200.969757 44.0
202.111252 124.0
202.365997 64.0
202.847595 84.0
204.076843 208.0
204.190582 44.0
206.572235 48.0
208.355316 48.0
208.723206 52.0
209.123077 152.0
213.014999 56.0
214.636047 120.0
214.898544 60.0
215.210846 40.0
216.383255 116.0
217.740891 128.0
217.925949 32.0
218.255142 92.0
219.023239 72.0
222.67305 92.0
222.94043 72.0
223.065247 144.0
230.999924 80.0
232.542191 80.0
233.146545 172.0
233.742569 108.0
234.900284 48.0
238.793304 32.0
240.015854 188.0
240.737915 68.0
242.554016 76.0
242.581909 52.0
245.074356 120.0
250.989014 204.0
252.935089 92.0
254.796539 92.0
254.984009 88.0
256.900818 88.0
267.412048 36.0
267.913513 88.0
269.852051 48.0
270.817413 76.0
272.625092 84.0
272.792725 116.0
276.331299 84.0
277.172302 76.0
278.472717 128.0
278.665375 80.0
280.199097 116.0
281.306274 76.0
281.42981 124.0
282.860626 72.0
283.664551 76.0
285.514557 100.0
287.168182 84.0
288.143738 180.0
290.466003 68.0
291.02594 96.0
293.132568 180.0
294.181885 164.0
294.625824 80.0
295.008575 48.0
296.11377 104.0
296.751129 40.0
297.124969 80.0
297.317108 128.0
297.523071 72.0
300.137848 116.0
304.678711 120.0
308.347839 84.0
310.122284 308.0
312.401154 36.0
313.154419 116.0
314.106079 88.0
314.748383 44.0
314.868439 104.0
316.308533 92.0
318.608917 36.0
318.743927 112.0
319.021118 84.0
325.100159 156.0
325.502228 60.0
325.721283 52.0
327.13446 96.0
329.185944 172.0
329.23288 56.0
329.637482 60.0
330.396759 48.0
330.461884 56.0
337.159882 124.0
338.147339 152.0
339.117889 132.0
341.736145 80.0
346.487732 76.0
350.243317 116.0
350.455658 56.0
350.764984 76.0
353.162598 156.0
354.129547 100.0
354.138367 48.0
354.152039 92.0
356.464966 124.0
356.870911 132.0
360.255219 44.0
360.436554 44.0
363.537842 44.0
363.594757 60.0
365.494781 84.0
381.370483 76.0
383.000763 84.0
392.232422 40.0
402.99115 72.0
404.074646 44.0
407.494507 96.0
414.701599 92.0
416.588409 92.0
416.913452 72.0
417.389069 92.0
418.455078 64.0
423.477783 124.0
424.904297 52.0
427.525757 56.0
432.817749 52.0
435.206024 160.0
437.938171 136.0
441.581787 48.0
454.217896 92.0
456.2052 176.0
456.388 44.0
467.135468 176.0
469.724304 52.0
470.173035 96.0
470.919922 36.0
472.765961 60.0
474.099762 72.0
484.811523 76.0
491.019012 112.0
509.22702 188.0
509.271912 148.0
516.560486 28.0
519.219177 52.0
523.659424 48.0
524.238037 76.0
525.263855 136.0
539.971069 96.0
540.905701 88.0
548.03894 108.0
548.691467 80.0
557.63678 88.0
558.595947 72.0
560.634644 92.0
585.445923 264.0
592.313843 48.0
607.424866 56.0
616.859619 32.0
624.401062 76.0
641.979309 172.0
661.730347 184.0
681.370178 88.0
689.869873 172.0
707.821472 112.0
712.520752 104.0
714.333496 68.0
731.128662 168.0
734.240723 60.0
735.785767 108.0
737.368408 56.0
739.710388 60.0
740.54425 132.0
764.308228 184.0
779.175659 92.0
779.247864 72.0
781.026733 128.0
799.917542 76.0
811.861633 152.0
814.512085 72.0
818.663879 200.0
819.643677 268.0
822.278259 148.0
847.22821 192.0
851.996826 228.0
856.67981 136.0
866.734558 204.0
867.648865 80.0
880.777466 144.0
886.836304 116.0
888.983215 60.0
901.691772 36.0
915.568237 144.0
916.538086 192.0
916.688721 36.0
916.736938 108.0
918.340576 32.0
926.161743 180.0
926.210205 128.0
929.271545 152.0
929.981567 88.0
931.408447 132.0
934.502686 44.0
934.940796 144.0
944.868347 188.0
945.162048 132.0
947.261963 124.0
948.125854 160.0
955.371094 128.0
956.02948 196.0
956.140259 32.0
960.557922 160.0
966.41449 152.0
972.673645 248.0
974.592651 104.0
977.216431 184.0
982.717896 132.0
983.847534 200.0
984.003601 140.0
984.446899 88.0
984.871582 208.0
986.058716 200.0
989.906067 116.0
990.231689 160.0
990.532349 188.0
991.259094 132.0
992.500183 172.0
999.057007 96.0
1002.690125 232.0
1003.099792 164.0
1004.562805 72.0
1005.073792 128.0
1005.294678 188.0
1005.824829 232.0
1007.258179 160.0
1008.395447 212.0
1008.477661 156.0
1008.837952 88.0
1010.273438 88.0
1011.804932 136.0
1013.185486 120.0
1013.958557 168.0
1015.131348 232.0
1015.860718 248.0
1019.263672 96.0
1020.236084 176.0
1020.95459 144.0
1022.360474 132.0
1025.557617 108.0
1025.672363 152.0
1025.933716 40.0
1027.323853 48.0
1028.427734 204.0
1029.11084 48.0
1030.656494 96.0
1035.966675 180.0
1037.241821 172.0
1038.966797 172.0
1040.85376 180.0
1041.688721 116.0
1042.061279 136.0
1043.34021 100.0
1043.899536 180.0
1044.446289 192.0
1045.192505 148.0
1045.385498 152.0
1047.020752 212.0
1048.856934 188.0
1048.97937 160.0
1049.372681 184.0
1050.565674 236.0
1050.681885 100.0
1051.094727 232.0
1051.404541 176.0
1052.417969 224.0
1055.112061 168.0
1056.036743 116.0
1057.363159 164.0
1057.615479 92.0
1057.673828 124.0
1057.932739 136.0
1060.303345 180.0
1061.288696 184.0
1061.632324 116.0
1062.988037 104.0
1063.526733 40.0
1065.260498 52.0
1065.559326 68.0
1068.998901 188.0
1069.200562 200.0
1071.401367 136.0
1073.0177 208.0
1073.206787 40.0
1073.878418 192.0
1074.62854 60.0
1074.889526 68.0
1075.307251 216.0
1076.182007 220.0
1076.247192 228.0
1076.469238 44.0
1079.514404 48.0
1081.084351 168.0
1081.784668 116.0
1082.884766 188.0
1083.625 136.0
1084.916016 128.0
1085.932373 128.0
1086.345581 176.0
1086.956665 140.0
1087.303589 140.0
1087.881836 160.0
1089.332397 184.0
1090.501953 80.0
1090.758301 160.0
1091.573608 68.0
1093.310181 184.0
1093.582031 160.0
1095.832153 176.0
1095.878296 164.0
1096.912964 104.0
1097.137085 128.0
1097.625 124.0
1097.684326 176.0
1098.442749 120.0
1098.607666 164.0
1099.016724 144.0
1099.221191 220.0
1099.689819 104.0
1102.58252 260.0
1107.173706 188.0
1107.88916 216.0
1109.612183 188.0
1110.023315 120.0
1110.593628 168.0
1111.854126 36.0
1112.312134 176.0
1112.471436 160.0
1112.703857 196.0
1113.328003 148.0
1113.679932 220.0
1114.397339 212.0
1114.510376 176.0
1114.703003 152.0
1114.862549 172.0
1115.713257 108.0
1116.105591 176.0
1117.182983 172.0
1117.861572 100.0
1118.008057 176.0
1118.314209 136.0
1118.866699 160.0
1119.172974 56.0
1119.379395 156.0
1119.499146 124.0
1121.564575 140.0
1121.697876 96.0
1121.851196 240.0
1122.491211 148.0
1122.77124 124.0
1123.518311 156.0
1123.678467 152.0
1124.332397 128.0
1125.093262 196.0
1126.415527 176.0
1126.642578 184.0
1128.888306 228.0
1130.032104 156.0
1130.119141 244.0
1131.029297 200.0
1131.189941 148.0
1131.276978 148.0
1131.558105 152.0
1132.254517 140.0
1132.515747 220.0
1133.299438 204.0
1133.507202 228.0
1134.479004 80.0
1134.546875 192.0
1134.975098 172.0
1135.062256 176.0
1136.088501 248.0
1136.189087 220.0
1136.442871 92.0
1136.960693 136.0
1138.088379 52.0
1138.854004 156.0
1139.834839 172.0
1140.258179 156.0
1141.609497 180.0
1143.584106 188.0
1144.354736 52.0
1144.422119 140.0
1145.445801 188.0
1146.348511 88.0
1146.658569 148.0
1147.710205 144.0
1147.757324 68.0
1148.45874 160.0
1149.909302 192.0
1150.793579 140.0
1151.056885 236.0
1151.759277 152.0
1152.090332 144.0
1152.44165 240.0
1152.536133 96.0
1153.083496 180.0
1153.604004 240.0
1155.680298 44.0
1156.235107 184.0
1156.817261 292.0
1157.203125 192.0
1157.304688 188.0
1157.731201 116.0
1157.968262 228.0
1158.564331 80.0
1158.625366 132.0
1159.45874 144.0
1159.553589 164.0
1160.339966 148.0
1160.91626 152.0
1161.343506 140.0
1161.818359 156.0
1162.091187 200.0
1162.503662 124.0
1163.426758 176.0
1163.74585 112.0
1164.166748 212.0
1164.628662 176.0
1164.839233 136.0
1164.961426 224.0
1166.483643 204.0
1167.129517 140.0
1167.462646 208.0
1167.884277 108.0
1168.312866 132.0
1168.98645 196.0
1169.626221 204.0
1169.762329 172.0
1169.871216 200.0
1170.484009 180.0
1171.682739 128.0
1173.81604 260.0
1174.170654 188.0
1174.293457 140.0
1175.500977 152.0
1175.705688 164.0
1175.842163 212.0
1176.033203 184.0
1176.593018 152.0
1176.756836 176.0
1177.419189 124.0
1178.471191 116.0
1179.229614 116.0
1179.509888 52.0
1179.885864 216.0
1180.665405 136.0
1181.068848 196.0
1181.539429 128.0
1181.992432 52.0
1182.307251 116.0
1182.779419 208.0
1182.865112 264.0
1183.320312 204.0
1183.375 308.0
1183.498291 140.0
1184.33374 176.0
1184.847534 164.0
1185.121582 144.0
1186.581421 136.0
1188.254883 104.0
1189.435181 260.0
1189.487793 244.0
1189.805908 176.0
1191.804443 72.0
1192.42981 180.0
1192.883423 144.0
1193.069092 172.0
1194.134888 220.0
1194.334351 152.0
1196.054443 188.0
1196.350464 92.0
1196.701538 172.0
1196.791138 140.0
1197.355713 164.0
1198.263062 160.0
1199.346924 248.0
1199.395142 156.0
1199.994873 248.0
1200.187988 164.0
1201.125854 244.0
1201.270752 156.0
1201.760498 108.0
1202.008911 68.0
1202.885498 124.0
1204.079956 144.0
1204.439087 188.0
1204.81897 216.0
1205.143677 64.0
1205.43396 136.0
1206.456787 192.0
1207.120605 212.0
1208.490112 220.0
1208.538574 192.0
1208.869019 132.0
1208.953735 120.0
1209.216675 152.0
1210.068115 112.0
1211.875854 196.0
1212.145996 140.0
1212.269409 164.0
1212.409424 136.0
1213.033203 108.0
1213.151001 180.0
1213.456055 136.0
1213.69873 188.0
1214.204956 132.0
1215.460571 128.0
1215.696411 160.0
1215.904663 192.0
1216.060547 140.0
1216.418213 48.0
1217.105591 100.0
1217.300049 196.0
1217.397217 180.0
1217.5271 68.0
1219.620361 160.0
1219.766357 136.0
1220.079224 176.0
1220.579834 208.0
1220.642334 140.0
1220.983154 160.0
1221.323975 192.0
1221.518677 148.0
1221.817749 200.0
1222.019531 148.0
1222.263062 224.0
1223.000732 136.0
1223.248169 176.0
1224.163452 276.0
1224.999146 196.0
1225.389282 152.0
1227.375732 240.0
1227.445435 172.0
1228.017334 48.0
1228.526489 144.0
1229.014893 140.0
1229.454468 192.0
1229.831299 332.0
1229.894165 172.0
1230.152466 196.0
1230.326904 48.0
1231.067017 28.0
1231.863281 108.0
1232.1427 164.0
1233.8479 140.0
1234.127563 116.0
1235.582397 140.0
1235.66626 164.0
1235.848267 188.0
1236.331055 148.0
1236.491943 152.0
1236.610962 140.0
1237.324951 140.0
1237.723999 116.0
1237.885132 192.0
1238.144165 140.0
1238.249268 52.0
1239.503174 232.0
1240.119873 176.0
1241.038208 212.0
1241.599243 188.0
1241.837646 148.0
1241.900757 144.0
1242.008179 128.0
1242.314575 172.0
1242.398804 76.0
1243.247803 36.0
1244.07605 184.0
1244.384888 92.0
1244.553467 188.0
1244.967773 120.0
1246.168823 204.0
1247.335449 156.0
1247.623657 192.0
1247.729126 220.0
1248.031372 48.0
1248.277588 244.0
1248.586914 204.0
1248.91748 132.0
1249.044067 180.0
1249.262207 148.0
1249.395874 124.0
1249.522461 156.0
1249.846069 208.0
1250.359863 204.0
1250.479492 144.0
1250.627319 176.0
1251.824097 84.0
1252.584717 172.0
1252.704468 212.0
1254.261719 104.0
1254.325195 180.0
1254.705811 76.0
1255.178223 288.0
1255.415894 132.0
1255.470093 152.0
1255.608398 164.0
1256.024536 112.0
1256.109131 192.0
1257.513306 160.0
1258.070923 176.0
1258.587646 204.0
1259.356079 168.0
1259.779907 124.0
1260.773315 144.0
1261.186035 168.0
1262.444458 160.0
1263.286133 112.0
1264.050171 112.0
1264.191772 76.0
1264.460693 140.0
1264.524414 184.0
1264.581055 56.0
1264.630493 240.0
1264.849976 120.0
1265.487061 172.0
1265.958008 180.0
1266.053589 196.0
1266.485596 116.0
1267.293213 156.0
1267.867188 188.0
1267.937988 200.0
1268.395264 188.0
1268.568848 140.0
1269.795532 148.0
1269.852173 184.0
1270.689209 152.0
1271.086548 168.0
1271.256836 132.0
1271.434326 176.0
1271.668457 124.0
1272.172485 128.0
1272.428101 204.0
1272.939209 180.0
1273.514526 192.0
1273.919434 204.0
1274.082764 180.0
1274.196411 180.0
1274.686646 108.0
1274.87854 136.0
1275.105957 120.0
1275.724365 132.0
1276.086914 204.0
1276.748169 188.0
1276.994263 224.0
1277.87207 100.0
1278.169189 240.0
1278.410522 144.0
1278.69043 180.0
1279.836548 144.0
1280.085693 152.0
1280.256592 40.0
1281.12561 168.0
1281.467529 184.0
1281.994873 180.0
1282.2229 136.0
1282.493774 140.0
1283.135254 156.0
1283.24939 56.0
1283.342041 172.0
1283.427612 148.0
1285.80835 184.0
1285.924316 144.0
1286.00293 40.0
1286.402588 148.0
1286.577148 228.0
1287.059448 160.0
1287.266479 260.0
1288.009277 128.0
1288.287842 148.0
1288.52356 184.0
1288.930786 144.0
1289.030884 160.0
1289.473999 56.0
1289.538208 176.0
1289.731201 156.0
1291.47583 176.0
1292.191162 136.0
1292.305664 92.0
1293.092773 156.0
1293.780029 184.0
1294.510254 120.0
1294.710815 116.0
1294.782471 220.0
1294.831543 216.0
1294.918457 160.0
1295.477173 160.0
1295.561401 160.0
1295.727905 132.0
1296.22229 48.0
1296.738281 124.0
1297.77771 172.0
1298.042969 228.0
1298.215088 132.0
1298.372925 100.0
1298.523438 176.0
1298.631104 212.0
1298.853394 96.0
1299.269531 156.0
1299.886475 212.0
1300.037231 80.0
1300.352783 140.0
1300.417603 132.0
1301.099487 180.0
1302.744019 200.0
1303.045776 160.0
1303.52002 44.0
1303.893677 164.0
1304.202759 208.0
1304.324951 180.0
1304.58374 140.0
1304.820923 112.0
1305.259521 152.0
1305.518433 164.0
1306.100952 172.0
1306.87793 120.0
1306.971436 160.0
1307.338379 100.0
1308.367676 128.0
1308.593994 56.0
1308.778076 84.0
1310.218506 180.0
1310.283325 160.0
1310.686768 156.0
1311.140747 40.0
1312.481567 80.0
1312.654663 216.0
1312.784424 156.0
1312.856567 132.0
1313.245972 192.0
1314.133301 140.0
1314.869263 208.0
1315.093018 164.0
1316.074829 148.0
1316.616455 204.0
1316.999146 136.0
1317.150879 136.0
1317.353149 164.0
1317.620361 88.0
1318.451416 136.0
1319.16687 108.0
1319.369385 172.0
1319.727051 272.0
1319.846558 160.0
1320.417847 72.0
1320.989136 76.0
1321.292969 116.0
1321.452148 36.0
1321.611328 216.0
1322.515991 168.0
1322.769287 160.0
1322.98645 112.0
1323.152954 156.0
1323.536743 156.0
1324.210205 212.0
1324.57959 236.0
1325.854736 180.0
1326.122925 168.0
1326.731812 144.0
1327.123291 136.0
1327.384277 192.0
1327.659912 112.0
1327.790405 180.0
1327.966064 176.0
1328.153076 188.0
1329.371948 128.0
1330.50415 72.0
1330.809082 188.0
1331.009399 200.0
1331.281128 140.0
1331.390015 168.0
1331.498901 128.0
1331.7677 156.0
1332.021851 144.0
1332.109009 160.0
1332.668457 228.0
1332.850098 152.0
1333.649536 168.0
1334.107422 236.0
1334.158325 232.0
1334.252808 188.0
1334.470947 92.0
1334.550903 132.0
1335.038086 124.0
1335.147217 124.0
1335.26355 92.0
1335.486816 132.0
1335.823608 144.0
1337.002319 164.0
1337.55542 124.0
1338.152344 208.0
1338.60376 200.0
1339.23645 144.0
1339.601562 184.0
1340.643555 192.0
1340.789307 196.0
1341.638306 200.0
1342.582642 160.0
1342.699341 172.0
1342.991089 176.0
1343.800781 208.0
1344.180176 128.0
1344.442871 48.0
1344.734863 132.0
1345.304199 200.0
1345.486694 172.0
1345.627197 208.0
1345.756836 156.0
1346.005005 200.0
1346.085327 164.0
1346.275269 236.0
1346.779175 56.0
1346.874146 108.0
1347.195557 204.0
1347.319702 148.0
1347.37085 156.0
1347.531616 164.0
1347.59729 108.0
1347.904175 176.0
1348.133301 140.0
1348.766602 152.0
1349.344116 44.0
1349.425537 184.0
1349.578125 72.0
1349.998657 132.0
1351.465088 168.0
1351.523682 168.0
1352.149536 120.0
1352.782471 188.0
1352.870239 184.0
1352.966187 120.0
1353.155762 148.0
1353.873413 104.0
1353.953979 136.0
1354.224976 100.0
1354.430054 144.0
1354.686401 224.0
1355.294434 140.0
1355.52771 172.0
1355.624146 180.0
1356.027222 164.0
1356.305786 136.0
1356.426514 188.0
1356.804321 140.0
1357.141479 120.0
1357.772095 152.0
1357.838135 136.0
1358.410278 232.0
1359.657593 204.0
1359.83374 40.0
1360.017212 132.0
1360.075928 216.0
1360.134644 188.0
1360.208008 188.0
1360.479614 164.0
1361.255981 252.0
1361.603027 168.0
1362.117188 200.0
1362.395996 164.0
1362.756348 88.0
1363.2854 184.0
1363.380981 124.0
1363.469116 64.0
1363.785156 80.0
1364.270264 208.0
1364.520264 184.0
1364.762817 40.0
1364.902588 116.0
1365.299683 60.0
1365.512939 48.0
1366.22644 64.0
1366.940063 156.0
1367.07251 148.0
1367.352173 168.0
1367.570923 228.0
1367.904297 48.0
1367.955811 56.0
1368.250244 108.0
1368.544678 164.0
1368.662964 160.0
1368.758301 132.0
1368.964478 184.0
1369.185425 140.0
1369.94397 96.0
1370.326294 136.0
1370.408691 168.0
1370.7323 48.0
1371.078735 164.0
1371.137695 192.0
1371.314575 92.0
1371.388306 200.0
1371.447266 228.0
1372.088501 256.0
1372.184326 152.0
1372.663574 112.0
1372.862671 144.0
1372.988037 164.0
1373.851074 72.0
1374.338013 172.0
1374.825073 152.0
1374.924194 156.0
1375.267822 152.0
1375.762451 80.0
1375.887939 120.0
1376.020752 208.0
1377.150635 84.0
1377.440308 180.0
1377.970581 132.0
1378.657715 188.0
1378.768555 212.0
1379.234253 152.0
1379.359863 84.0
1379.478149 140.0
1379.936523 164.0
1380.05481 124.0
1380.106567 188.0
1380.313599 196.0
1380.949585 64.0
1381.866821 152.0
1382.051758 196.0
1382.503174 224.0
1383.28772 100.0
1383.458008 148.0
1384.494629 200.0
1384.553833 168.0
1384.700928 148.0
1385.005005 208.0
1385.511597 172.0
1386.450317 84.0
1388.081177 136.0
1388.147949 88.0
1388.229492 112.0
1388.718994 192.0
1389.13623 216.0
1389.586914 172.0
1390.017212 176.0
1390.276978 176.0
1390.707397 116.0
1391.375488 184.0
1391.449707 124.0
1392.180542 168.0
1392.34082 80.0
1392.712158 152.0
1392.778931 160.0
1393.009277 188.0
1393.722412 116.0
1393.997437 192.0
1395.075073 172.0
1395.773926 84.0
1396.354004 160.0
1396.584595 120.0
1396.800293 124.0
1397.492065 132.0
1397.737671 116.0
1398.295776 176.0
1398.481812 192.0
1399.546387 152.0
1399.978271 204.0
1400.305908 160.0
1400.44751 96.0
1400.626221 116.0
1400.953979 132.0
1401.11792 208.0
1401.728882 124.0
1401.956421 220.0
1402.183472 228.0
1402.489014 160.0
1402.757324 204.0
1403.010742 120.0
1403.10022 136.0
1403.602905 132.0
1403.927856 164.0
1404.144165 152.0
1404.71106 156.0
1405.285522 176.0
1405.345093 72.0
1405.412354 192.0
1405.628662 64.0
1406.651123 96.0
1406.828979 184.0
1407.464966 228.0
1407.606812 148.0
1408.697144 208.0
1408.824219 104.0
1408.876465 32.0
1408.981079 132.0
1409.085693 188.0
1409.996948 164.0
1410.184082 232.0
1410.602661 152.0
1410.684937 208.0
1410.767212 180.0
1411.066162 148.0
1411.582153 172.0
1411.769043 148.0
1411.933594 128.0
1412.172852 124.0
1412.356201 148.0
1412.369141 192.0
1412.786255 204.0
1412.977905 180.0
1413.373535 136.0
1413.609253 192.0
1413.968506 152.0
1414.499878 136.0
1415.11377 168.0
1415.353394 200.0
1415.51062 152.0
1415.570557 124.0
1415.795166 184.0
1416.109741 220.0
1416.366089 304.0
1417.473145 144.0
1418.222656 44.0
1418.335083 116.0
1418.807251 188.0
1418.897217 108.0
1419.002197 156.0
1419.212158 140.0
1419.422119 172.0
1419.781982 192.0
1419.864502 196.0
1420.427002 140.0
1420.502075 104.0
1420.772095 192.0
1421.094727 200.0
1421.148804 192.0
1421.282349 132.0
1421.529907 60.0
1421.619995 120.0
1421.6875 248.0
1421.860107 36.0
1421.939209 156.0
1422.135498 252.0
1422.378052 216.0
1422.535645 168.0
1422.700806 204.0
1422.896606 184.0
1423.091187 100.0
1423.173828 96.0
1423.346436 152.0
1423.616821 228.0
1423.857056 120.0
1424.044922 140.0
1424.332275 184.0
1424.465454 160.0
1426.374146 140.0
1426.434204 156.0
1426.509399 168.0
1426.667236 60.0
1426.84021 28.0
1427.058228 208.0
1427.238647 200.0
1428.352539 228.0
1429.046509 196.0
1429.638306 228.0
1430.496216 152.0
1430.872681 152.0
1431.03186 132.0
1431.082397 136.0
1431.99585 168.0
1432.265747 176.0
1432.348633 148.0
1432.762939 244.0
1432.906128 36.0
1432.987305 104.0
1433.086914 160.0
1433.196655 180.0
1433.75 152.0
1434.556519 136.0
1434.677124 40.0
1434.910889 156.0
1435.061646 160.0
1435.551758 156.0
1435.815674 180.0
1435.943848 168.0
1436.486938 128.0
1436.818848 128.0
1437.060303 180.0
1437.430054 108.0
1437.513062 172.0
1437.834229 156.0
1438.071533 112.0
1438.282837 124.0
1438.335693 224.0
1438.433838 196.0
1438.584839 132.0
1438.743286 148.0
1438.932007 240.0
1439.098145 244.0
1439.151001 156.0
1439.286865 116.0
1439.503174 180.0
1439.664429 132.0
1439.845703 132.0
1440.227539 172.0
1440.313965 212.0
1440.737061 204.0
1440.94104 124.0
1441.069458 176.0
1441.243164 220.0
1441.605957 136.0
1442.063965 272.0
1442.240723 160.0
1443.412598 60.0
1443.473022 188.0
1444.35791 172.0
1445.121948 180.0
1445.2948 196.0
1445.312256 232.0
1445.772705 124.0
1445.893799 152.0
1446.537109 200.0
1447.347168 208.0
1448.081787 168.0
1448.131348 188.0
1449.316528 152.0
1449.915161 80.0
1450.256226 64.0
1450.476074 160.0
1450.673218 168.0
1450.991577 148.0
1451.658813 72.0
1451.863525 124.0
1451.977295 200.0
1453.024048 184.0
1453.213745 140.0
1453.509644 124.0
1453.843506 120.0
1454.465942 96.0
1454.617676 124.0
1455.56665 404.0
1455.748901 200.0
1456.189453 164.0
1456.250122 168.0
1456.622314 164.0
1457.040161 120.0
1457.131348 208.0
1457.222534 184.0
1457.57959 164.0
1457.647949 148.0
1457.746826 164.0
1457.845581 136.0
1457.921631 148.0
1458.081177 144.0
1458.635986 192.0
1458.803223 224.0
1458.879272 212.0
1459.016113 184.0
1459.152954 208.0
1459.266968 152.0
1459.388672 140.0
1459.525513 48.0
1459.768799 96.0
1459.974121 168.0
1460.072998 88.0
1460.270752 92.0
1460.460938 240.0
1460.51416 48.0
1460.856445 144.0
1460.917236 156.0
1462.5 140.0
1463.116577 208.0
1463.306885 48.0
1463.657227 152.0
1463.839966 160.0
1464.434937 160.0
1465.119507 224.0
1465.226196 40.0
1465.706177 40.0
1466.47583 116.0
1466.544434 72.0
1466.826416 56.0
1467.190186 172.0
1467.352417 156.0
1468.423096 212.0
1468.657715 164.0
1469.358276 248.0
1470.449463 108.0
1471.006592 244.0
1471.411255 176.0
1471.838745 136.0
1472.075439 244.0
1472.449707 184.0
1472.984375 192.0
1473.121826 168.0
1473.503784 180.0
1474.176147 212.0
1474.428345 128.0
1474.550659 156.0
1474.642334 164.0
1474.864014 128.0
1475.383789 160.0
1475.498535 36.0
1475.576782 156.0
1475.666748 192.0
1475.980225 156.0
1476.08728 148.0
1476.232544 36.0
1476.691406 180.0
1477.081421 96.0
1478.203003 116.0
1478.305542 164.0
1478.558105 180.0
1478.768188 116.0
1479.086182 176.0
1479.178101 180.0
1479.231689 180.0
1479.384766 164.0
1479.559448 176.0
1479.579102 144.0
1479.609741 232.0
1479.706299 200.0
1479.897705 180.0
1480.035522 196.0
1480.472046 180.0
1480.88562 180.0
1481.015747 192.0
1481.099976 184.0
1481.260864 104.0
1481.406372 132.0
1481.613281 184.0
1481.728149 208.0
1481.858398 164.0
1481.988647 216.0
1482.571045 160.0
1482.678345 140.0
1483.115234 132.0
1483.410645 252.0
1483.674805 192.0
1483.792236 228.0
1483.889404 208.0
1483.966064 96.0
1484.035156 216.0
1484.088745 164.0
1484.211426 156.0
1484.824951 104.0
1485.258545 140.0
1485.791382 188.0
1486.397583 212.0
1487.049805 172.0
1487.533447 136.0
1488.06311 96.0
1488.162964 192.0
1488.800293 132.0
1488.976929 116.0
1489.460815 208.0
1489.683472 164.0
1489.852539 160.0
1489.937012 108.0
1490.059937 80.0
1490.12146 132.0
1490.182861 168.0
1490.267334 120.0
1490.397949 128.0
1490.497925 76.0
1490.605469 96.0
1490.820679 256.0
1490.905151 112.0
1491.412476 176.0
1491.627686 180.0
1491.896729 160.0
1492.304199 236.0
1492.557861 236.0
1492.627075 72.0
1492.765503 248.0
1493.503784 120.0
1493.665283 184.0
1493.726807 200.0
1493.788452 184.0
1493.880737 116.0
1494.057617 172.0
1494.173096 120.0
1494.496216 88.0
1494.833984 212.0
1494.927124 148.0
1495.950684 184.0
1496.220215 196.0
1496.682129 112.0
1497.0979 160.0
1497.182617 132.0
1497.518188 188.0
1497.729492 236.0
1497.844971 40.0
1498.137695 180.0
1498.353394 128.0
1498.499878 188.0
1498.900513 180.0
1499.370605 188.0
1499.470703 224.0
1499.632568 160.0
1499.786743 168.0
1500.195312 172.0
1500.704102 152.0
1500.873779 136.0
1501.182129 200.0
1501.266968 164.0
1501.824585 148.0
1501.976562 188.0
1502.061401 212.0
1502.223389 184.0
1502.437744 172.0
1503.164673 144.0
1504.075317 168.0
1504.577026 112.0
1504.767578 200.0
1505.08667 156.0
1505.210205 76.0
