>compound MLS001049104-01!4-(2,4-dimethoxy-3,6-dimethylbenzoyl)oxy-2-hydroxy-3,6-dimethylbenzoic acid
>formula C20H22O7
>ionization [M+H]+
>parentmass 375.144
#inchi InChI=1S/C20H22O7/c1-9-8-14(11(3)17(21)15(9)19(22)23)27-20(24)16-10(2)7-13(25-5)12(4)18(16)26-6/h7-8,21H,1-6H3,(H,22,23)
#inchikey MIJKZXWOOXIEEU
#Ion_Source LC-ESI
#Instrument qTof
#Compound_Source NIH Natural Product Library
#PI Dorrestein
#Data_Collector VVP/LMS
#Scan -1
#Precursor_MZ 375.144
#ExactMass 374.137
#Charge 1
#CAS_Number N/A
#Pubmed_ID N/A
#Smiles COc1cc(C)c(C(=O)Oc2cc(C)c(C(=O)O)c(O)c2C)c(OC)c1C
#INCHI_AUX N/A
#Library_Class 1
#SpectrumID CCMSLIB00000079600
#IonMode Positive
#UpdateWorkflowName UPDATE-SINGLE-ANNOTATED-GOLD
#LibraryQualityString Gold
#TaskID b1d8e8f6646f4e71acdff9ca3d919d08
##Scan# 2589
#SpectrumFile p1-F08_GF8_01_17940.mzXML
#LibraryName NIH_Natural_Products_Library.mgf
#MQScore -1
#Organism NIH_Natural_Products_Library
#TIC_Query 0
#RT_Query -1
#MZErrorPPM -1
#SharedPeaks 0
#MassDiff 0
#LibMZ -1
#SpecMZ 375.144
#SpecCharge 0
#internalFilename spec-00000.mgf

>collision 10
94.991951 120.0
95.19574 196.0
95.446411 188.0
96.048187 148.0
96.270683 132.0
96.303886 184.0
96.546227 96.0
96.577522 116.0
96.88485 248.0
97.180893 148.0
97.243683 244.0
97.406654 144.0
97.514725 124.0
97.583527 184.0
97.693657 200.0
97.888512 120.0
98.156502 204.0
98.298523 224.0
98.383392 168.0
98.42437 196.0
98.654037 152.0
99.00029 240.0
99.428505 220.0
99.51783 160.0
99.565491 108.0
99.768158 132.0
99.875542 172.0
99.903389 96.0
99.953125 176.0
99.990936 156.0
100.130302 172.0
100.367439 176.0
100.397354 140.0
101.030525 164.0
101.16861 132.0
101.304779 176.0
101.521248 140.0
101.545311 152.0
101.569382 232.0
101.671707 172.0
101.687759 216.0
102.041306 192.0
102.103638 212.0
102.119728 204.0
102.556641 180.0
102.645348 144.0
102.948036 88.0
103.052635 584.0
103.595268 168.0
103.6689 152.0
103.742004 224.0
103.783745 428.0
103.931816 204.0
104.037354 88.0
104.056351 272.0
104.069832 224.0
104.165283 168.0
104.626907 172.0
104.651337 52.0
104.92231 96.0
104.981438 80.0
105.038544 136.0
105.070435 1892.0
105.238541 192.0
105.258965 176.0
105.281425 184.0
105.348831 220.0
105.606926 180.0
105.711624 172.0
105.776215 48.0
105.911583 180.0
105.989204 176.0
106.067993 244.0
106.13063 168.0
106.149086 272.0
106.249588 160.0
106.266006 152.0
106.298836 236.0
106.374771 184.0
106.419937 164.0
106.512352 80.0
106.530838 144.0
106.62796 164.0
106.728577 224.0
106.843315 80.0
106.917389 188.0
106.950317 160.0
107.048706 2268.0
107.090462 316.0
107.17778 196.0
107.319069 72.0
107.366501 160.0
107.504715 176.0
107.632698 184.0
107.663673 156.0
107.727707 204.0
107.744232 192.0
107.839287 172.0
107.965401 128.0
108.049187 176.0
108.066757 60.0
108.236481 84.0
108.451935 232.0
108.51413 188.0
108.79213 124.0
108.839882 200.0
108.883072 100.0
108.98735 232.0
109.018524 204.0
109.064011 644.0
109.180672 168.0
109.374168 196.0
109.499092 68.0
109.689827 148.0
110.024559 180.0
110.220886 160.0
110.239693 220.0
110.279404 156.0
110.503151 156.0
110.557556 144.0
110.651749 196.0
110.854927 140.0
111.026825 192.0
111.167381 148.0
111.404633 132.0
111.476074 128.0
111.658966 176.0
111.724174 140.0
111.898849 88.0
111.922012 136.0
112.063133 148.0
112.120026 172.0
112.377281 208.0
112.438477 96.0
112.850395 132.0
112.884224 220.0
112.958252 164.0
113.030182 224.0
113.068275 200.0
113.199524 132.0
113.235703 144.0
113.491936 140.0
113.63192 220.0
113.825073 80.0
113.863297 216.0
113.912148 132.0
113.975883 196.0
114.345901 188.0
114.386345 124.0
114.595047 160.0
114.627007 128.0
114.667503 212.0
114.848732 96.0
114.961807 128.0
115.054146 168.0
115.181709 160.0
115.262894 196.0
115.367622 148.0
115.386864 228.0
115.55368 56.0
115.581497 52.0
115.707779 256.0
115.793427 212.0
115.977692 180.0
116.192131 60.0
116.597961 116.0
116.653847 80.0
116.939926 156.0
116.976517 88.0
117.073708 168.0
117.265144 164.0
117.545494 148.0
117.761375 84.0
117.7873 164.0
117.808899 200.0
118.048813 216.0
118.068275 200.0
118.124512 128.0
118.163452 172.0
118.260826 68.0
118.349586 192.0
118.395058 80.0
118.585709 124.0
118.754829 160.0
118.780853 244.0
118.817734 112.0
118.893677 188.0
118.926231 248.0
118.967537 148.0
119.046822 436.0
119.158585 224.0
119.336807 204.0
119.602211 188.0
119.789474 216.0
120.022934 164.0
120.057533 972.0
120.096817 144.0
120.146988 196.0
120.596817 204.0
120.767365 144.0
120.979614 180.0
121.025589 68.0
121.063583 1324.0
121.178909 72.0
121.259987 84.0
121.503387 128.0
121.718483 108.0
121.766327 132.0
122.071495 1432.0
122.140442 188.0
122.276855 260.0
122.375916 184.0
122.499245 184.0
122.5411 108.0
122.739471 176.0
122.8321 56.0
122.96669 152.0
123.079376 512.0
123.165405 228.0
123.18087 92.0
123.239616 196.0
123.373123 148.0
123.393021 228.0
123.412918 200.0
123.485893 76.0
123.552254 60.0
123.654037 68.0
123.720444 208.0
123.840019 144.0
123.902046 180.0
124.030571 180.0
124.090424 120.0
124.105949 152.0
124.212395 184.0
124.239014 124.0
124.52092 84.0
124.556458 184.0
124.607552 164.0
124.625328 180.0
124.823151 148.0
124.86985 152.0
125.092354 172.0
125.390823 52.0
125.720886 204.0
126.178787 144.0
126.26152 196.0
126.304016 204.0
126.364418 140.0
126.509888 212.0
126.931099 184.0
127.079132 200.0
127.251953 144.0
127.283386 136.0
127.312576 156.0
127.813866 124.0
127.937653 176.0
127.980431 224.0
128.122314 88.0
128.140335 128.0
128.501068 68.0
128.584564 128.0
128.864578 104.0
128.970779 192.0
129.289688 160.0
129.536469 172.0
129.933197 228.0
129.949081 156.0
130.062546 164.0
130.366882 192.0
130.464615 232.0
130.494171 136.0
130.51236 100.0
130.662476 64.0
130.933334 132.0
131.043777 168.0
131.432571 148.0
131.788773 152.0
132.057098 528.0
132.106552 108.0
132.172897 196.0
132.20723 196.0
132.266724 176.0
132.307938 140.0
132.532379 176.0
132.715759 124.0
132.829178 184.0
133.062256 688.0
133.080566 184.0
133.131088 76.0
133.349335 180.0
133.37233 156.0
133.409103 52.0
133.823471 176.0
133.982132 104.0
134.000565 176.0
134.074295 192.0
134.533295 184.0
135.042801 1128.0
135.061707 528.0
135.080536 788.0
135.625122 208.0
136.047806 188.0
136.082123 444.0
136.191269 124.0
136.212173 140.0
136.398071 148.0
136.446884 72.0
136.595718 200.0
136.844727 104.0
136.868011 132.0
137.058716 7788.0
137.094543 1460.0
137.13591 52.0
137.201187 248.0
137.217499 100.0
137.31778 64.0
137.341095 200.0
137.513763 84.0
137.772949 176.0
137.99263 80.0
138.063828 1280.0
138.096008 172.0
138.13295 32.0
138.47702 156.0
138.514496 72.0
138.577759 188.0
138.65976 200.0
138.950531 112.0
138.973999 208.0
139.070206 140.0
139.140625 108.0
139.194641 124.0
139.225159 148.0
139.337906 56.0
139.716415 104.0
139.871735 100.0
140.111923 108.0
140.385345 108.0
140.739288 68.0
141.294708 136.0
141.448532 176.0
141.466934 68.0
141.810928 64.0
141.976883 204.0
141.99823 172.0
142.043304 48.0
142.316223 208.0
142.636932 104.0
143.03894 164.0
143.146072 216.0
143.377151 200.0
143.79689 164.0
143.813599 92.0
144.181412 180.0
144.32962 168.0
144.37027 212.0
144.726807 112.0
144.916031 160.0
145.033508 180.0
145.13414 160.0
145.174896 148.0
145.321228 120.0
145.467621 128.0
145.602066 268.0
145.681335 88.0
145.729385 112.0
146.270477 200.0
146.306595 84.0
146.424576 172.0
146.622131 200.0
146.778824 164.0
146.865646 200.0
146.910065 144.0
146.964554 168.0
147.04361 556.0
147.22525 176.0
147.481354 76.0
147.578049 52.0
147.78363 468.0
147.861069 200.0
148.006607 168.0
148.050659 1756.0
148.277634 180.0
148.38913 180.0
148.48613 68.0
148.675369 156.0
148.889008 188.0
148.93515 60.0
149.058456 5828.0
149.207306 80.0
149.247665 60.0
149.383377 180.0
149.460266 72.0
149.754822 72.0
149.774307 156.0
149.988113 156.0
150.066345 9512.0
150.144775 36.0
150.378983 72.0
150.415604 28.0
150.505936 52.0
150.645142 60.0
150.797134 196.0
150.843079 144.0
150.899307 168.0
150.957993 100.0
151.067398 1072.0
151.263077 160.0
151.707199 136.0
151.827347 120.0
151.864136 56.0
151.930359 204.0
151.954895 80.0
151.979431 144.0
152.008881 212.0
152.138962 108.0
152.195419 124.0
152.264191 164.0
153.233353 56.0
153.879532 120.0
154.035126 160.0
154.227859 96.0
154.990082 140.0
155.072922 184.0
155.399185 148.0
155.731842 144.0
155.831207 160.0
156.077271 176.0
156.13446 184.0
156.547562 120.0
156.866486 204.0
157.065964 56.0
157.150787 128.0
157.168243 232.0
157.225647 168.0
157.432846 116.0
157.610199 152.0
157.857666 60.0
158.148804 228.0
158.210464 188.0
158.511017 160.0
158.977432 132.0
159.045197 160.0
159.522461 128.0
160.049805 1264.0
160.358124 72.0
160.416107 88.0
160.605225 240.0
161.006516 180.0
161.055145 448.0
161.107544 196.0
161.14798 72.0
161.170715 172.0
161.352692 76.0
161.420959 144.0
162.067368 224.0
162.949371 64.0
162.97731 136.0
163.01416 160.0
163.037628 856.0
163.074448 2116.0
163.117096 172.0
163.204926 116.0
163.223724 68.0
163.232697 128.0
163.256927 40.0
163.480789 120.0
163.842346 28.0
163.974854 56.0
163.997787 140.0
164.04158 180.0
164.076416 480.0
164.171158 36.0
164.278275 192.0
164.375229 148.0
164.735229 68.0
164.885971 88.0
165.053268 560.0
165.090515 936.0
165.208145 96.0
165.441025 156.0
165.961121 156.0
166.092392 128.0
166.153473 156.0
166.510269 188.0
166.792892 72.0
166.998596 160.0
167.577805 128.0
167.657684 140.0
167.737579 180.0
167.912903 148.0
168.02124 132.0
168.085754 172.0
168.181229 184.0
168.330978 188.0
168.529861 188.0
168.630646 108.0
168.67717 124.0
169.842392 148.0
170.821671 80.0
170.964767 100.0
171.110535 88.0
171.240738 128.0
172.422592 88.0
173.155136 120.0
173.173477 112.0
173.406647 40.0
173.493149 140.0
173.836746 176.0
173.936478 80.0
174.00473 232.0
174.094009 132.0
174.272629 160.0
174.795883 176.0
174.956436 176.0
175.04068 264.0
175.609924 100.0
175.736542 108.0
175.773483 84.0
176.444366 180.0
176.468155 108.0
176.716766 32.0
177.055878 1508.0
177.100616 56.0
177.38414 36.0
177.975754 36.0
178.061432 5804.0
178.156357 220.0
178.249344 120.0
178.318451 48.0
178.384903 180.0
178.602936 60.0
178.725311 172.0
178.97818 140.0
179.065994 508.0
179.364471 128.0
179.436447 176.0
179.636459 152.0
179.681808 40.0
179.828583 144.0
179.914001 124.0
180.138321 156.0
180.306641 108.0
180.376144 140.0
180.402863 120.0
180.507141 76.0
180.53389 152.0
180.785339 52.0
181.055725 228.0
181.540787 196.0
181.964737 180.0
182.29512 200.0
182.45639 148.0
182.711884 220.0
183.312302 96.0
183.428192 176.0
184.043304 228.0
184.151321 228.0
184.22966 248.0
184.270187 144.0
184.48909 180.0
184.543152 132.0
184.640503 176.0
185.019318 148.0
185.123596 212.0
185.387695 48.0
185.715744 140.0
186.033218 180.0
186.06308 176.0
186.217865 192.0
186.968231 252.0
187.003601 204.0
187.030823 60.0
187.741913 108.0
187.782822 52.0
187.995621 160.0
188.168945 208.0
188.522675 196.0
188.757767 208.0
189.03952 144.0
189.639282 132.0
189.694107 160.0
189.806503 140.0
189.847641 236.0
190.152771 180.0
190.377289 116.0
190.608032 164.0
190.68222 148.0
191.193756 124.0
191.383698 212.0
191.458054 68.0
191.711502 96.0
191.788666 124.0
191.827255 80.0
191.909958 180.0
192.125656 156.0
192.185776 108.0
192.252731 136.0
192.29892 100.0
192.373444 104.0
192.409332 236.0
192.434189 44.0
192.494934 104.0
192.531464 176.0
192.584412 220.0
192.646835 60.0
192.707611 132.0
192.740768 228.0
192.786697 200.0
192.810944 152.0
192.831192 172.0
192.859604 92.0
192.892776 52.0
192.919846 248.0
192.994324 216.0
193.037399 296.0
193.085648 96620.0
193.139755 232.0
193.16304 76.0
193.169052 56.0
193.185211 60.0
193.22998 60.0
193.239517 76.0
193.273071 144.0
193.293793 56.0
193.316925 176.0
193.343613 156.0
193.381073 164.0
193.410263 212.0
193.453323 84.0
193.494614 96.0
193.542297 232.0
193.589127 108.0
193.621384 96.0
193.682312 48.0
193.711853 196.0
193.74292 76.0
193.796356 160.0
193.822678 32.0
193.867325 72.0
193.925217 116.0
193.981079 260.0
194.001678 164.0
194.034683 96.0
194.087982 12876.0
194.134277 164.0
194.177521 52.0
194.216599 72.0
194.246002 104.0
194.301224 60.0
194.329712 88.0
194.337524 76.0
194.395782 124.0
194.485733 164.0
194.568771 52.0
194.61319 60.0
194.654633 84.0
194.790924 76.0
194.826416 88.0
194.85849 88.0
194.957626 80.0
195.016541 144.0
195.039978 76.0
195.088669 1468.0
195.160553 112.0
195.196701 52.0
195.221725 160.0
195.241196 40.0
195.260666 36.0
195.300583 68.0
195.335602 72.0
195.37291 136.0
195.404968 100.0
195.441483 120.0
195.466522 156.0
195.490341 128.0
195.525177 104.0
195.550003 88.0
195.603683 112.0
195.625153 116.0
195.650208 120.0
195.682022 152.0
195.84407 84.0
195.907486 84.0
196.104263 112.0
196.187881 96.0
196.282669 56.0
196.51976 96.0
196.575577 100.0
196.684418 152.0
196.751404 168.0
196.988785 136.0
197.064209 180.0
197.97049 48.0
198.085327 36.0
200.231216 40.0
200.507324 68.0
201.698395 88.0
201.989639 72.0
202.95253 128.0
203.03476 108.0
203.179794 136.0
203.622238 124.0
204.113861 68.0
205.717896 36.0
206.17775 108.0
206.334961 48.0
206.463638 84.0
208.826859 44.0
210.05101 144.0
210.538788 64.0
212.359192 104.0
214.033096 72.0
220.091095 88.0
221.054718 68.0
224.11911 36.0
226.074997 212.0
233.022446 216.0
234.175339 68.0
239.027664 172.0
239.732849 76.0
246.916779 112.0
255.08017 76.0
266.115997 200.0
271.041229 128.0
276.223267 88.0
283.250305 160.0
286.185486 116.0
299.72229 108.0
306.555695 100.0
320.920532 132.0
321.398468 36.0
327.15802 60.0
333.655487 116.0
334.681488 116.0
337.392273 68.0
337.896973 104.0
353.205658 68.0
368.089355 84.0
369.144043 92.0
372.209564 112.0
376.209808 144.0
385.367706 60.0
389.551788 36.0
391.892609 92.0
406.847168 96.0
408.627563 76.0
413.631653 84.0
413.757141 56.0
416.864075 128.0
455.559143 84.0
458.128571 56.0
475.574463 72.0
483.292297 104.0
489.719177 68.0
500.511627 44.0
508.370087 64.0
531.601257 64.0
557.252625 48.0
562.244019 52.0
562.305359 80.0
581.620483 40.0
611.81012 64.0
616.742981 104.0
633.722961 84.0
652.330688 36.0
732.068909 20.0
741.154663 160.0
755.435303 72.0
803.387695 80.0
804.781738 52.0
809.571167 196.0
816.471985 36.0
835.180298 108.0
854.269226 72.0
862.912109 80.0
866.93335 140.0
876.063965 88.0
880.068481 148.0
901.793335 68.0
908.799744 156.0
911.435669 144.0
912.703918 140.0
921.044739 72.0
978.231506 168.0
978.505432 208.0
990.727356 216.0
992.808289 220.0
997.554993 144.0
998.995056 160.0
1001.68927 188.0
1002.294067 72.0
1008.415466 184.0
1016.001343 68.0
1020.962097 216.0
1026.942383 172.0
1040.219482 88.0
1040.69458 116.0
1047.65332 168.0
1050.747803 184.0
1051.864258 136.0
1062.327881 152.0
1065.684326 220.0
1070.230835 144.0
1076.947754 132.0
1082.022217 28.0
1084.708008 160.0
1084.819458 52.0
1089.997803 160.0
1092.015991 172.0
1092.627808 108.0
1109.415405 188.0
1110.701782 148.0
1112.048706 136.0
1119.015259 124.0
1123.347046 64.0
1127.480103 208.0
1133.737305 216.0
1134.005371 52.0
1137.298584 116.0
1137.802124 232.0
1140.879028 168.0
1141.0 40.0
1149.999512 200.0
1150.255981 180.0
1150.937866 76.0
1156.054932 160.0
1161.386841 196.0
1162.546997 292.0
1164.685547 204.0
1176.937134 112.0
1179.088867 112.0
1181.016968 248.0
1185.761719 148.0
1186.659668 68.0
1191.99292 76.0
1198.853638 120.0
1203.703125 64.0
1209.80127 160.0
1209.877441 220.0
1212.059082 208.0
1217.976807 48.0
1222.36377 220.0
1223.93689 104.0
1223.999512 136.0
1224.194458 160.0
1233.243164 180.0
1238.827026 136.0
1247.184326 140.0
1249.983276 124.0
1250.187378 204.0
1252.905273 220.0
1253.919922 136.0
1254.956177 56.0
1256.282104 140.0
1259.380859 72.0
1260.313354 88.0
1265.681885 108.0
1267.488159 164.0
1268.452026 192.0
1268.927002 76.0
1272.467285 132.0
1275.47937 64.0
1277.114746 160.0
1277.847412 232.0
1277.925659 208.0
1278.309937 132.0
1280.196411 124.0
1280.38147 152.0
1284.354248 120.0
1285.328735 48.0
1286.207397 248.0
1288.156006 56.0
1290.864746 168.0
1296.799561 168.0
1297.674194 144.0
1301.627686 216.0
1302.690552 140.0
1305.738159 228.0
1308.710205 128.0
1309.891235 128.0
1311.678223 156.0
1317.090088 208.0
1323.084839 236.0
1325.409668 120.0
1325.496704 164.0
1327.381348 188.0
1327.55542 56.0
1331.597656 136.0
1332.040771 192.0
1332.512939 88.0
1333.268677 208.0
1333.901001 184.0
1336.664673 112.0
1340.086792 108.0
1341.945435 168.0
1344.724731 96.0
1346.557251 144.0
1349.611816 172.0
1353.328735 236.0
1354.727539 188.0
1359.955811 144.0
1361.666504 180.0
1362.201782 184.0
1363.018188 168.0
1363.106323 176.0
1364.179321 108.0
1366.150146 260.0
1367.077271 164.0
1371.068726 76.0
1371.473999 172.0
1374.807617 140.0
1376.069824 72.0
1378.433472 128.0
1379.239014 112.0
1380.902588 220.0
1382.826294 256.0
1383.32959 152.0
1384.388306 48.0
1386.840576 128.0
1389.85144 216.0
1390.504517 216.0
1390.808838 80.0
1390.949829 120.0
1391.848145 92.0
1391.907593 56.0
1392.018921 72.0
1393.081055 116.0
1394.07666 56.0
1394.953613 52.0
1395.481445 148.0
1396.649048 124.0
1397.482178 124.0
1397.616089 196.0
1401.145264 244.0
1403.246948 188.0
1406.798096 136.0
1409.509155 140.0
1410.525635 184.0
1412.492188 144.0
1416.819702 200.0
1420.964844 156.0
1421.092407 96.0
1421.227539 132.0
1429.169434 216.0
1429.673706 176.0
1430.697266 216.0
1431.103882 152.0
1433.077148 192.0
1433.989014 164.0
1434.102051 224.0
1435.97937 196.0
1437.133545 176.0
1437.344849 132.0
1438.650513 152.0
1440.817993 44.0
1443.758301 136.0
1443.894409 140.0
1446.625854 164.0
1447.823242 124.0
1449.185669 152.0
1449.519043 192.0
1449.860107 176.0
1452.786865 116.0
1454.312012 128.0
1455.04834 176.0
1455.587402 200.0
1456.331665 100.0
1458.071533 192.0
1458.80127 72.0
1460.633789 200.0
1462.63501 124.0
1464.035889 216.0
1466.550049 32.0
1466.771118 160.0
1468.494385 164.0
1468.570557 300.0
1470.554321 140.0
1471.562012 160.0
1474.877441 164.0
1476.062378 152.0
1476.444702 164.0
1479.788696 156.0
1480.921997 148.0
1483.810913 188.0
1484.063965 112.0
1486.87146 144.0
1487.845337 164.0
1491.710449 128.0
1493.77124 240.0
1495.440918 144.0
1500.640747 140.0
1501.203613 164.0
1501.936279 140.0
1502.969971 44.0
