>compound (E)-4-(3,5-dimethoxystyryl)phenol
>formula C16H16O3
>ionization [M+H]+
>parentmass 257.118225
#inchi InChI=1S/C16H16O3/c1-18-15-9-13(10-16(11-15)19-2)4-3-12-5-7-14(17)8-6-12/h3-11,17H,1-2H3/b4-3+
#inchikey VLEUZFDZJKSGMX
#Ion_Source LC-ESI
#Instrument qTof
#Compound_Source Commercial
#PI Dorrestein
#Data_Collector Garg_Neha
#Scan -1
#Precursor_MZ 257.118
#ExactMass 256.11
#Charge 1
#CAS_Number N/A
#Pubmed_ID N/A
#Smiles COc1cc(OC)cc(/C=C/c2ccc(O)cc2)c1
#INCHI_AUX N/A
#Library_Class 1
#SpectrumID CCMSLIB00000079261
#IonMode Positive
#UpdateWorkflowName UPDATE-SINGLE-ANNOTATED-GOLD
#LibraryQualityString Gold
#TaskID 278b19f5865741e282cec7349aa7e7a1
##Scan# 1738
#SpectrumFile NCP003512_A2_B11_BD4_01_15728.mzXML
#LibraryName NIHcollectionI_05062014.mgf
#MQScore -1
#Organism NIHcollectionI_05062014
#TIC_Query 0
#RT_Query -1
#MZErrorPPM -1
#SharedPeaks 0
#MassDiff 0
#LibMZ -1
#SpecMZ 257.118
#SpecCharge 0
#internalFilename spec-00000.mgf

>collision 10
52.754662 152.0
57.971954 204.0
60.781403 192.0
68.530128 180.0
68.620781 156.0
70.16098 152.0
70.683754 172.0
74.517738 160.0
77.817871 164.0
79.88562 160.0
84.173668 144.0
84.257683 156.0
85.394188 156.0
91.062492 200.0
91.803909 172.0
94.413788 140.0
99.163712 164.0
100.097412 148.0
103.052017 312.0
103.161148 172.0
104.056587 252.0
105.069954 1236.0
107.053291 160.0
107.280861 168.0
108.061516 184.0
108.169128 196.0
108.965462 160.0
109.063126 160.0
111.000526 208.0
111.047508 228.0
112.055252 184.0
115.054535 140.0
118.043274 168.0
119.051201 536.0
119.098709 188.0
120.063599 144.0
120.967422 140.0
121.024284 144.0
121.063507 344.0
122.073204 144.0
123.042679 148.0
123.075981 148.0
125.09552 148.0
128.064163 380.0
131.05043 288.0
132.057358 160.0
133.035568 144.0
133.064529 2312.0
134.036026 180.0
134.069 168.0
134.848343 204.0
135.044922 528.0
135.082108 340.0
135.116577 188.0
135.232269 140.0
136.090485 172.0
137.05896 656.0
137.645386 180.0
138.069611 156.0
139.070206 148.0
140.059799 172.0
141.066727 408.0
143.082657 160.0
144.0867 176.0
145.065994 660.0
145.089447 152.0
146.074036 192.0
147.086075 172.0
148.051132 604.0
149.060852 392.0
149.624176 192.0
150.066788 184.0
151.054214 124.0
151.074799 472.0
152.063416 176.0
153.071732 368.0
154.075562 480.0
154.696182 140.0
155.085922 288.0
157.067917 468.0
158.064087 164.0
158.083618 240.0
159.080261 340.0
159.540863 220.0
161.057236 172.0
161.184143 148.0
162.379013 188.0
163.074661 636.0
164.054642 168.0
164.089096 352.0
165.06958 696.0
166.079849 372.0
167.084244 176.0
168.052048 180.0
169.059021 172.0
169.102722 196.0
169.89502 140.0
170.081848 180.0
170.715775 192.0
171.081116 440.0
172.078522 152.0
173.062576 204.0
174.072632 376.0
176.064575 184.0
177.070923 568.0
178.079178 176.0
178.989914 136.0
179.083725 432.0
181.065079 1768.0
182.071381 896.0
183.078781 596.0
184.055542 168.0
185.06601 180.0
186.063538 168.0
187.148529 160.0
191.582611 220.0
192.059494 220.0
193.061783 188.0
194.069946 428.0
195.084244 380.0
195.133331 176.0
196.054672 176.0
196.090805 372.0
197.058289 160.0
197.096115 680.0
197.906662 152.0
199.074158 1140.0
199.106842 148.0
199.134918 200.0
199.888336 156.0
200.085358 152.0
201.077499 168.0
204.407379 164.0
207.084061 196.0
208.083099 248.0
209.059158 408.0
209.096588 268.0
210.06662 916.0
211.075775 1212.0
212.082199 308.0
212.116104 148.0
212.461182 172.0
213.027267 156.0
213.090973 776.0
213.922089 284.0
214.095749 248.0
216.840881 152.0
224.081589 612.0
224.999329 148.0
225.0923 1436.0
226.098038 956.0
227.070099 1236.0
227.115753 288.0
228.072784 192.0
229.121109 608.0
230.125107 220.0
231.935944 148.0
235.743729 188.0
239.102844 456.0
240.118439 176.0
241.084213 452.0
242.092758 2100.0
243.098236 336.0
246.048294 176.0
253.342484 164.0
254.473511 144.0
255.09935 168.0
255.722794 140.0
255.901047 160.0
256.072998 140.0
256.108063 1324.0
256.255432 192.0
256.300568 168.0
256.764587 152.0
256.865295 160.0
257.118225 38312.0
257.240417 124.0
257.31662 180.0
257.619049 100.0
257.954559 196.0
258.05542 152.0
258.120789 4424.0
258.33609 252.0
259.124908 1128.0
259.163513 220.0
259.576904 124.0
259.839844 140.0
260.12738 248.0
267.071442 180.0
452.512207 144.0
939.155334 224.0
1163.961914 160.0
1415.382446 156.0
1493.672119 172.0
1526.954346 152.0
1559.471313 168.0
1672.749512 200.0
1717.357788 168.0
