>compound MLS001158240-01!N-(2-hydroxy-2-phenylethyl)-2-(2-oxo-4-phenylchromen-7-yl)oxyacetamide
>formula C25H21NO5
>ionization [M+H]+
>parentmass 416.15
#inchi InChI=1S/C25H21NO5/c27-22(18-9-5-2-6-10-18)15-26-24(28)16-30-19-11-12-20-21(17-7-3-1-4-8-17)14-25(29)31-23(20)13-19/h1-14,22,27H,15-16H2,(H,26,28)
#inchikey UYGNVAUODFXWOK
#Ion_Source LC-ESI
#Instrument qTof
#Compound_Source NIH Natural Product Library
#PI Dorrestein
#Data_Collector VVP/LMS
#Scan -1
#Precursor_MZ 416.15
#ExactMass 415.142
#Charge 1
#CAS_Number N/A
#Pubmed_ID N/A
#Smiles OC(CNC(=O)COc1ccc2c(cc(=O)oc2c1)c3ccccc3)c4ccccc4
#INCHI_AUX N/A
#Library_Class 1
#SpectrumID CCMSLIB00000079595
#IonMode Positive
#UpdateWorkflowName UPDATE-SINGLE-ANNOTATED-GOLD
#LibraryQualityString Gold
#TaskID b1d8e8f6646f4e71acdff9ca3d919d08
##Scan# 2171
#SpectrumFile p1-E08_GE8_01_17928.mzXML
#LibraryName NIH_Natural_Products_Library.mgf
#MQScore -1
#Organism NIH_Natural_Products_Library
#TIC_Query 0
#RT_Query -1
#MZErrorPPM -1
#SharedPeaks 0
#MassDiff 0
#LibMZ -1
#SpecMZ 416.15
#SpecCharge 0
#internalFilename spec-00000.mgf

>collision 10
94.98217 216.0
95.00351 76.0
95.117996 180.0
95.349129 116.0
95.613617 184.0
95.814178 156.0
96.052002 168.0
96.57547 172.0
96.886711 208.0
97.422264 144.0
97.563759 144.0
97.593246 204.0
97.67585 204.0
97.78997 92.0
97.849022 108.0
98.237251 92.0
98.349724 168.0
98.705322 140.0
99.20623 160.0
99.239929 52.0
99.257774 112.0
99.343056 236.0
99.511749 188.0
99.694489 140.0
99.775978 160.0
99.976875 108.0
100.152077 44.0
100.590744 224.0
100.636665 140.0
100.754501 168.0
101.122421 156.0
101.713699 124.0
102.043159 184.0
102.061256 68.0
102.175896 156.0
102.439613 160.0
102.540359 192.0
102.59478 192.0
102.67543 224.0
102.731911 200.0
102.85096 140.0
102.893356 180.0
102.96917 236.0
103.020584 76.0
103.053818 1984.0
103.378448 80.0
103.420952 108.0
103.753159 108.0
104.049904 176.0
104.065529 468.0
104.067802 364.0
104.102142 136.0
104.159012 88.0
104.254501 108.0
104.282951 200.0
104.335808 176.0
104.431374 88.0
104.872498 128.0
104.911926 140.0
105.03553 312.0
105.069992 5156.0
105.139435 96.0
105.154655 140.0
105.213852 88.0
105.307777 68.0
105.326164 172.0
105.577553 156.0
106.071312 660.0
106.095581 80.0
106.220665 96.0
106.310944 160.0
106.374565 172.0
106.405357 52.0
106.483391 120.0
106.616928 116.0
106.707367 96.0
106.824585 44.0
106.863678 72.0
107.079819 208.0
107.279686 148.0
107.33329 112.0
107.485924 208.0
107.90728 68.0
108.006538 124.0
108.207268 204.0
108.47451 152.0
108.594772 132.0
108.771133 44.0
108.831337 136.0
109.81356 144.0
110.147514 40.0
110.189293 192.0
110.369041 180.0
110.571953 160.0
110.892387 168.0
111.406471 152.0
111.625053 60.0
111.734421 108.0
111.780716 136.0
112.615547 244.0
112.700043 216.0
112.816284 100.0
113.192886 164.0
113.220413 140.0
113.307259 48.0
113.616783 140.0
113.750473 116.0
114.109489 40.0
114.214333 120.0
114.222435 36.0
114.230087 124.0
114.6054 176.0
114.662933 168.0
114.752464 36.0
115.006317 196.0
115.052422 1748.0
115.162178 200.0
115.192078 84.0
115.407928 196.0
115.679626 136.0
115.743858 216.0
115.940933 176.0
115.985939 160.0
116.00309 208.0
116.062187 568.0
116.619125 88.0
116.718018 152.0
116.814796 120.0
116.85997 248.0
116.911171 212.0
116.926682 128.0
116.965424 220.0
116.98188 204.0
117.059677 3764.0
117.103218 172.0
117.128525 156.0
117.159225 84.0
117.193695 28.0
117.256187 172.0
117.292831 52.0
117.381218 228.0
117.592636 260.0
117.752396 36.0
117.835587 188.0
117.858246 48.0
117.941513 144.0
117.955498 236.0
118.033333 128.0
118.07515 1840.0
118.107872 128.0
118.299446 180.0
118.318924 164.0
118.366219 180.0
118.407707 40.0
118.552849 144.0
118.737907 204.0
118.815208 252.0
119.001854 192.0
119.073158 452.0
119.273407 132.0
119.403854 228.0
119.46476 188.0
119.810898 128.0
120.041931 172.0
120.080635 3888.0
120.150986 56.0
120.304977 88.0
120.391083 104.0
120.543991 60.0
120.716682 88.0
121.083206 728.0
121.103592 192.0
121.562241 72.0
121.733459 136.0
121.867867 192.0
121.902611 76.0
121.93557 104.0
122.043289 68.0
122.217049 160.0
122.423958 84.0
122.472412 80.0
122.708199 112.0
122.730247 172.0
123.60273 76.0
123.963669 76.0
124.498283 104.0
124.793816 208.0
124.911682 196.0
125.223297 108.0
125.312401 200.0
125.486244 196.0
125.562057 212.0
126.220825 48.0
126.46019 60.0
126.657227 152.0
126.690826 164.0
126.724434 180.0
126.814072 132.0
127.051758 156.0
127.267212 192.0
127.81115 128.0
128.056534 120.0
128.340469 164.0
128.421646 96.0
128.739868 176.0
128.861832 136.0
128.972565 188.0
129.035309 304.0
129.096909 136.0
129.255249 196.0
129.343521 112.0
129.397842 128.0
129.463516 156.0
129.610748 244.0
130.034821 192.0
130.064804 1840.0
130.118805 52.0
130.466385 108.0
130.782578 152.0
131.078064 584.0
131.281509 128.0
131.381866 144.0
131.397842 116.0
131.776825 180.0
131.87738 104.0
131.936813 188.0
131.955093 160.0
131.987106 164.0
132.034393 200.0
132.080444 14440.0
132.108322 148.0
132.135773 52.0
132.204422 40.0
132.245605 168.0
132.307419 52.0
132.35321 168.0
132.38298 124.0
132.499786 60.0
132.559357 32.0
132.609772 44.0
132.660202 100.0
132.974442 44.0
133.05249 164.0
133.083954 1432.0
133.509735 164.0
133.624741 56.0
134.084808 176.0
134.212067 28.0
134.29277 136.0
134.980972 100.0
135.168335 268.0
135.332672 148.0
135.429932 80.0
135.789169 128.0
137.022354 524.0
137.170303 140.0
137.314865 272.0
137.527176 216.0
138.030701 180.0
138.321884 196.0
139.055771 148.0
139.093079 212.0
139.43364 188.0
139.671112 188.0
140.035934 156.0
140.146652 224.0
140.908722 48.0
141.043411 200.0
141.069183 500.0
141.308273 120.0
141.324829 68.0
141.353226 132.0
142.056885 300.0
142.151794 68.0
142.187378 204.0
143.052567 176.0
143.070297 180.0
143.314529 224.0
143.545746 128.0
143.744385 132.0
144.051712 204.0
144.082764 160.0
144.125778 48.0
144.367203 188.0
144.403076 108.0
144.776413 172.0
145.695053 116.0
145.90654 136.0
146.062134 176.0
146.24234 160.0
146.317932 56.0
146.62384 60.0
146.732315 144.0
147.08934 212.0
147.894241 196.0
148.0056 172.0
148.116989 196.0
148.14122 116.0
149.022278 164.0
149.415726 172.0
149.447357 144.0
149.790619 152.0
150.222076 140.0
150.712784 164.0
150.886322 260.0
150.942551 168.0
151.056992 152.0
151.10643 108.0
151.478531 128.0
151.667206 216.0
152.062149 920.0
152.145554 60.0
152.750061 156.0
153.005997 200.0
153.069351 692.0
153.180832 80.0
153.708435 60.0
153.977509 164.0
154.029373 180.0
154.07132 428.0
154.511429 192.0
154.749023 112.0
154.793579 152.0
155.046967 280.0
155.082626 664.0
155.187561 116.0
155.244583 48.0
155.743423 128.0
155.827896 144.0
156.113739 156.0
156.141098 168.0
156.56665 216.0
156.965363 116.0
157.357101 236.0
158.44751 148.0
158.627945 80.0
158.870331 236.0
158.879944 156.0
159.793182 192.0
160.074005 168.0
160.171936 208.0
160.238815 216.0
160.379929 176.0
160.950073 252.0
161.082596 656.0
161.463043 224.0
161.533875 144.0
161.721115 120.0
161.761612 148.0
161.801102 180.0
161.831268 76.0
162.09227 148.0
162.321518 192.0
163.055176 172.0
163.085663 228.0
163.271255 76.0
163.398438 100.0
163.708969 128.0
163.752274 204.0
163.856705 120.0
164.060577 276.0
164.165115 136.0
164.315613 68.0
164.484039 116.0
164.522324 180.0
164.818588 188.0
164.858383 348.0
164.992386 116.0
165.017944 136.0
165.06955 19552.0
165.132507 40.0
165.176498 112.0
165.211945 84.0
165.236618 56.0
165.260132 64.0
165.31546 128.0
165.409363 96.0
165.439224 84.0
165.488724 240.0
165.532242 76.0
165.552734 68.0
165.578339 48.0
165.678238 188.0
165.780731 88.0
165.806351 148.0
165.875549 104.0
166.0728 3428.0
166.125504 84.0
166.173035 44.0
166.252579 52.0
166.401459 44.0
167.038773 200.0
167.083633 2196.0
167.167419 48.0
167.332138 120.0
167.440292 168.0
167.468628 108.0
167.607742 136.0
167.865509 88.0
168.053802 160.0
168.08873 220.0
168.275757 132.0
168.368713 144.0
168.490112 40.0
168.577972 36.0
168.694275 28.0
169.065399 760.0
169.898438 88.0
170.059326 172.0
170.61261 212.0
171.041824 180.0
171.075668 164.0
171.226685 52.0
171.487213 52.0
172.535721 200.0
172.568237 168.0
172.94986 80.0
174.024673 228.0
174.121826 132.0
174.347763 192.0
175.347824 36.0
175.38208 144.0
175.87532 84.0
175.962433 168.0
176.064331 216.0
176.155212 60.0
176.226532 84.0
176.353378 52.0
177.070908 776.0
177.20282 40.0
177.367126 84.0
178.076889 1096.0
178.157883 40.0
178.351868 104.0
178.375031 196.0
178.43161 80.0
178.827972 132.0
178.955734 104.0
178.979706 116.0
179.04628 160.0
179.085938 864.0
179.600647 32.0
179.707352 96.0
180.046356 88.0
180.102966 304.0
180.944778 84.0
181.0616 708.0
181.904495 152.0
182.036057 180.0
182.068161 272.0
183.079254 2064.0
183.335358 128.0
183.764099 120.0
184.084427 288.0
185.139954 172.0
185.646713 96.0
185.736206 168.0
186.314407 92.0
186.77652 232.0
189.077179 176.0
189.722977 180.0
190.068542 96.0
191.564163 128.0
191.999649 136.0
192.347275 180.0
192.452194 56.0
192.67038 124.0
192.930145 124.0
192.963318 100.0
193.063446 5100.0
193.270325 56.0
193.39209 88.0
193.466827 44.0
193.560959 132.0
193.735443 124.0
194.067703 1624.0
194.117935 96.0
194.442505 164.0
194.691238 188.0
194.739578 60.0
194.836792 228.0
195.081131 2364.0
195.143829 92.0
196.047134 124.0
196.082932 440.0
196.331497 52.0
196.747238 68.0
196.780731 184.0
196.800278 80.0
197.060242 1448.0
197.090759 144.0
197.977493 60.0
198.066162 328.0
199.14418 112.0
199.349258 52.0
199.512283 180.0
203.717331 160.0
203.799713 212.0
204.16925 120.0
204.200531 156.0
205.077728 328.0
206.074875 156.0
206.339157 172.0
206.882721 168.0
207.081879 860.0
207.386856 44.0
207.561737 60.0
207.636292 104.0
207.983459 124.0
208.052338 144.0
208.083923 176.0
208.491806 172.0
208.871323 132.0
209.059311 736.0
209.153305 220.0
209.311646 176.0
210.068771 428.0
210.164825 120.0
210.866547 308.0
211.070511 160.0
211.585693 104.0
211.879303 172.0
212.070175 220.0
213.07457 124.0
213.568741 184.0
216.086227 176.0
216.168152 48.0
216.528229 196.0
216.856369 168.0
217.202347 184.0
218.309586 176.0
218.371338 168.0
219.124908 68.0
219.649643 44.0
220.62413 140.0
220.656647 200.0
220.819275 240.0
220.884354 120.0
221.058594 10096.0
221.170822 64.0
221.280899 36.0
221.627426 148.0
221.867493 92.0
222.003891 220.0
222.062668 2656.0
222.113617 100.0
222.517212 76.0
222.567673 132.0
222.751816 52.0
222.832016 116.0
222.947906 152.0
223.024063 208.0
223.073532 5012.0
223.144089 36.0
223.169052 132.0
223.197601 76.0
223.36911 60.0
223.408768 76.0
223.530746 92.0
223.625977 100.0
223.70932 80.0
223.741394 88.0
223.798645 120.0
223.822464 120.0
223.905838 100.0
223.932648 104.0
224.079391 1012.0
224.495895 168.0
224.606247 112.0
225.055847 160.0
225.236069 88.0
225.35556 64.0
225.693176 100.0
225.806931 60.0
226.782974 48.0
227.06517 160.0
227.433838 32.0
230.517776 124.0
230.980331 192.0
233.057587 324.0
234.060745 112.0
235.077637 208.0
236.083878 180.0
237.054276 296.0
238.063522 140.0
238.204803 36.0
238.28775 116.0
238.668869 196.0
238.942596 172.0
239.022598 152.0
239.069534 8788.0
239.191864 68.0
239.217209 104.0
239.336548 52.0
239.373505 52.0
239.503952 112.0
239.576782 88.0
240.074066 1364.0
240.893997 48.0
241.078888 200.0
241.580261 52.0
241.688538 32.0
241.824707 120.0
242.196243 52.0
242.403824 104.0
242.595978 128.0
242.710693 136.0
243.11084 52.0
243.887268 48.0
249.063522 240.0
249.09697 76.0
249.187241 144.0
249.312927 136.0
249.885208 96.0
250.18103 128.0
250.391998 132.0
250.599899 84.0
250.870926 204.0
250.948074 212.0
251.012299 176.0
251.069336 10408.0
251.208344 60.0
251.33139 152.0
251.35347 48.0
251.479706 120.0
251.653336 68.0
251.67543 60.0
251.887024 96.0
251.915451 68.0
252.032349 120.0
252.073074 2208.0
252.203003 80.0
252.288345 60.0
252.436951 68.0
252.481216 64.0
252.759598 72.0
253.074875 144.0
253.104614 68.0
253.152115 32.0
253.193283 76.0
253.23761 40.0
253.46254 132.0
253.785843 88.0
254.061813 128.0
254.106171 116.0
254.331482 112.0
254.664871 52.0
254.747452 104.0
255.062042 300.0
255.44043 56.0
258.86499 96.0
263.070007 152.0
264.080902 176.0
264.709625 104.0
265.046509 232.0
265.54248 172.0
265.961029 84.0
266.100616 116.0
266.25 48.0
269.084137 124.0
270.095886 168.0
270.7341 108.0
273.120117 128.0
278.082336 184.0
278.112701 144.0
279.062378 400.0
280.084412 132.0
280.197693 40.0
280.4776 72.0
280.844391 80.0
280.871063 48.0
281.789093 44.0
282.066467 104.0
282.487793 136.0
283.003174 72.0
283.076843 116.0
283.907898 92.0
285.439178 48.0
286.122162 28.0
291.116211 156.0
293.106171 204.0
296.093292 640.0
297.089233 124.0
298.098663 168.0
298.139893 160.0
306.078949 140.0
307.110474 176.0
308.105347 132.0
308.203156 68.0
308.307983 124.0
308.748474 56.0
309.6409 180.0
311.110687 156.0
312.529907 64.0
313.0896 76.0
313.127838 136.0
313.374939 128.0
313.65332 132.0
316.355621 100.0
319.101501 164.0
321.427338 88.0
325.027008 68.0
326.089966 136.0
326.136688 136.0
328.138184 96.0
330.550934 48.0
331.224335 164.0
336.453552 84.0
337.001373 100.0
337.121948 144.0
340.109772 104.0
341.117249 1372.0
341.241913 128.0
342.115753 780.0
343.130615 120.0
344.145203 68.0
345.079987 44.0
349.054077 108.0
353.113831 148.0
354.11142 76.0
357.84021 136.0
361.743744 76.0
363.107788 84.0
372.147888 160.0
378.080292 108.0
378.173157 124.0
379.091003 112.0
387.530975 48.0
389.211334 28.0
389.578888 96.0
390.687469 48.0
398.133728 848.0
398.68634 104.0
399.131378 260.0
399.739166 80.0
399.899353 76.0
400.13562 192.0
400.159454 128.0
401.193909 96.0
404.921906 108.0
416.35556 148.0
416.615509 44.0
418.237976 180.0
425.04245 56.0
442.316895 80.0
449.026886 84.0
453.877319 96.0
457.756836 112.0
486.371582 84.0
513.068481 68.0
542.739014 40.0
549.413086 76.0
557.043518 44.0
679.266541 52.0
737.513123 112.0
738.816345 120.0
765.462952 188.0
770.216919 116.0
795.088257 56.0
796.795227 176.0
819.329041 72.0
824.197266 76.0
842.529419 128.0
872.679077 88.0
874.196655 136.0
895.610779 240.0
921.158081 164.0
928.008728 280.0
933.722778 132.0
948.945862 148.0
966.796753 136.0
987.983154 164.0
988.302246 288.0
1013.494507 80.0
1013.652954 156.0
1016.277954 160.0
1030.405884 176.0
1033.557983 44.0
1045.234009 160.0
1046.654419 168.0
1054.076538 216.0
1059.012573 188.0
1066.694946 176.0
1067.078613 200.0
1068.91272 48.0
1071.816895 36.0
1072.090576 184.0
1089.65271 144.0
1091.802124 124.0
1098.071777 196.0
1108.112793 132.0
1117.607178 184.0
1122.082886 216.0
1126.661011 240.0
1126.928223 184.0
1131.402466 152.0
1136.589966 164.0
1137.724243 192.0
1140.86145 76.0
1143.276123 44.0
1144.130981 80.0
1145.895386 100.0
1149.799683 184.0
1157.390991 136.0
1161.782715 144.0
1162.71228 76.0
1162.983765 208.0
1168.399536 180.0
1169.2229 128.0
1175.117065 172.0
1178.558228 220.0
1178.934082 244.0
1179.357788 188.0
1179.740601 124.0
1182.30542 128.0
1182.955688 176.0
1185.387085 108.0
1186.175171 180.0
1191.630981 108.0
1195.646606 176.0
1197.354004 40.0
1200.220581 184.0
1204.347412 168.0
1204.727417 240.0
1211.416748 216.0
1213.724609 160.0
1216.666382 156.0
1216.944092 184.0
1222.616089 164.0
1223.674194 140.0
1226.864868 164.0
1229.333984 104.0
1233.720215 48.0
1236.091187 204.0
1236.210205 96.0
1238.730591 128.0
1241.968994 184.0
1245.190552 164.0
1245.478516 188.0
1246.159912 104.0
1248.901489 188.0
1250.379028 52.0
1256.262451 168.0
1258.033691 68.0
1259.827393 216.0
1261.452637 168.0
1262.591064 84.0
1266.887329 128.0
1267.284058 156.0
1267.744751 112.0
1268.233643 88.0
1270.098511 144.0
1273.704346 144.0
1277.386353 176.0
1277.500122 144.0
1278.844971 120.0
1279.741943 216.0
1279.855835 184.0
1280.311646 128.0
1284.031738 84.0
1285.501343 132.0
1288.271484 112.0
1288.414429 176.0
1288.707275 192.0
1290.379761 156.0
1292.031738 108.0
1293.112305 200.0
1293.534546 108.0
1295.088379 148.0
1296.349243 224.0
1299.633301 188.0
1300.250488 144.0
1300.896484 160.0
1301.923096 136.0
1309.654541 224.0
1311.275635 152.0
1313.734375 84.0
1317.835083 60.0
1318.124023 128.0
1319.294922 68.0
1321.84082 76.0
1324.142822 164.0
1324.410889 212.0
1330.044678 200.0
1331.119141 192.0
1333.036865 112.0
1337.276733 220.0
1339.766968 120.0
1340.349854 184.0
1341.428467 136.0
1345.462524 240.0
1346.002808 164.0
1349.670898 156.0
1355.218994 232.0
1355.629272 252.0
1355.893066 200.0
1356.758057 168.0
1357.439941 168.0
1358.892212 236.0
1359.046265 156.0
1364.74585 172.0
1364.87085 112.0
1370.730103 148.0
1371.179565 176.0
1372.926758 188.0
1373.273438 112.0
1375.53125 164.0
1375.612427 56.0
1377.827881 140.0
1382.308472 80.0
1391.039062 140.0
1391.66272 188.0
1392.175049 100.0
1392.293823 216.0
1394.678711 148.0
1395.206543 48.0
1396.418579 136.0
1396.686279 168.0
1396.827637 96.0
1397.898926 104.0
1404.417725 132.0
1406.148682 212.0
1408.889038 120.0
1409.815552 68.0
1410.974121 152.0
1414.190552 176.0
1415.538086 192.0
1416.983765 204.0
1419.157227 108.0
1423.561768 276.0
1424.275269 140.0
1429.387451 172.0
1429.462646 168.0
1432.08252 144.0
1433.91333 152.0
1434.433472 192.0
1435.17981 168.0
1436.612671 188.0
1436.808838 156.0
1442.434814 164.0
1446.088013 148.0
1450.397705 176.0
1450.875244 192.0
1451.754761 72.0
1452.573975 168.0
1455.146484 144.0
1455.207275 36.0
1457.28833 128.0
1458.7854 180.0
1461.059204 92.0
1461.850464 140.0
1462.474609 212.0
1463.593628 136.0
1466.879272 192.0
1467.814941 144.0
1468.119995 152.0
1469.172485 112.0
1469.790527 140.0
1472.256104 208.0
1475.73291 116.0
1476.18396 180.0
1476.857056 172.0
1480.974854 148.0
1481.693481 196.0
1483.012817 204.0
1484.385132 184.0
1489.765259 136.0
1491.355957 156.0
1491.632568 132.0
1491.809448 260.0
1491.863281 108.0
1492.470581 148.0
1493.031982 248.0
1493.201172 112.0
1493.87793 136.0
1494.124146 256.0
1496.001831 144.0
1497.572632 92.0
1499.660645 172.0
1500.539429 176.0
1502.158936 132.0
