>compound Sulfameter
>formula C11H12N4O3S 
>ionization [M+H]+
>parentmass 281.070557
#inchi InChI=1S/C11H12N4O3S/c1-18-9-6-13-11(14-7-9)15-19(16,17)10-4-2-8(12)3-5-10/h2-7H,12H2,1H3,(H,13,14,15)
#inchikey GPTONYMQFTZPKC
#Ion_Source LC-ESI
#Instrument qTof
#Compound_Source Isolated
#PI Sirenas
#Data_Collector Ed Esquenazi 
#Scan -1
#Precursor_MZ 281.071
#ExactMass 0.0
#Charge 1
#CAS_Number N/A
#Pubmed_ID N/A
#Smiles N/A
#INCHI_AUX N/A
#Library_Class 3
#SpectrumID CCMSLIB00000004311
#IonMode Positive
#UpdateWorkflowName UPDATE-SINGLE-ANNOTATED-BRONZE
#LibraryQualityString Bronze
#TaskID d19310cd93df49b68e9fcbec27720eb5
##Scan# 1
#SpectrumFile Sulfameter.mgf
#LibraryName fda_library.mgf
#MQScore -1
#Organism fda_library
#TIC_Query 0
#RT_Query -1
#MZErrorPPM -1
#SharedPeaks 0
#MassDiff 0
#LibMZ -1
#SpecMZ 281.071
#SpecCharge 0
#internalFilename spec-00000.mgf

>collision 10
108.043983 2805.253906
111.043098 81.183861
124.0504 279.655914
125.057838 276.723785
126.066261 4185.421875
156.011337 14870.25
172.071869 84.403297
188.012375 5425.542969
190.095245 79.498962
215.092361 4441.321777
217.107651 588.679504
263.060516 310.812012
279.32486 82.689934
279.359619 70.675522
279.46106 108.648201
279.504578 95.254303
279.543671 78.757347
279.595032 110.703598
281.013092 120.614304
281.070557 70093.953125
281.704926 92.813141
281.730377 74.017387
281.775513 91.50415
281.900574 85.08876
