>compound MLS001065902-01!
>formula C18H17NO5
>ionization [M+H]+
>parentmass 328.119
#inchi InChI=1S/C18H17NO5/c1-23-15-9-7-12(11-16(15)24-2)8-10-17(20)19-14-6-4-3-5-13(14)18(21)22/h3-11H,1-2H3,(H,19,20)(H,21,22)/b10-8+
#inchikey NZHGWWWHIYHZNX
#Ion_Source LC-ESI
#Instrument qTof
#Compound_Source NIH Pharmacologically Active Library
#PI Dorrestein
#Data_Collector VP/LMS
#Scan -1
#Precursor_MZ 328.119
#ExactMass 327.111
#Charge 1
#CAS_Number N/A
#Pubmed_ID N/A
#Smiles COc1ccc(/C=C/C(=O)Nc2ccccc2C(=O)O)cc1OC
#INCHI_AUX N/A
#Library_Class 1
#SpectrumID CCMSLIB00000085388
#IonMode Positive
#UpdateWorkflowName UPDATE-SINGLE-ANNOTATED-GOLD
#LibraryQualityString Gold
#TaskID d252d724072548979f1f6f1ced849daf
##Scan# 2060
#SpectrumFile p4-A03_GA3_01_18327.mzXML
#LibraryName Pharm_Active_Library.mgf
#MQScore -1
#Organism Pharm_Active_Library
#TIC_Query 0
#RT_Query -1
#MZErrorPPM -1
#SharedPeaks 0
#MassDiff 0
#LibMZ -1
#SpecMZ 328.119
#SpecCharge 0
#internalFilename spec-00000.mgf

>collision 10
45.012157 128.0
45.240788 72.0
45.456577 248.0
46.246334 228.0
46.327579 160.0
46.361454 164.0
46.562241 144.0
46.642403 176.0
46.65192 180.0
46.673672 164.0
46.732159 204.0
46.876495 176.0
47.014229 156.0
47.068832 168.0
47.113907 172.0
47.190441 148.0
47.351913 96.0
47.435497 148.0
47.771938 140.0
47.782944 116.0
47.915112 168.0
48.366684 188.0
48.841236 196.0
48.873234 132.0
48.990879 152.0
49.020836 152.0
49.192387 196.0
49.230083 220.0
49.527988 188.0
49.599449 152.0
49.741123 228.0
49.836624 220.0
49.874565 152.0
49.909714 108.0
50.431324 216.0
50.506264 236.0
50.674725 116.0
50.782463 216.0
50.832115 128.0
51.262993 76.0
51.709995 100.0
51.75008 108.0
51.879021 248.0
52.204952 120.0
52.605499 148.0
52.627155 200.0
52.700817 256.0
52.716713 256.0
52.909084 136.0
53.110512 152.0
53.494129 124.0
53.510143 196.0
53.523247 96.0
53.629593 172.0
53.860134 156.0
53.880589 252.0
53.93758 112.0
54.243515 148.0
54.346172 164.0
54.445992 200.0
54.51651 112.0
54.644436 192.0
55.005493 56.0
55.240448 152.0
55.453671 208.0
55.627216 220.0
55.984055 144.0
56.076424 160.0
56.52594 128.0
56.614262 208.0
56.672684 104.0
56.690662 176.0
56.872135 148.0
57.014816 144.0
57.216377 168.0
57.260044 228.0
57.582802 168.0
57.616032 108.0
57.776283 220.0
57.962513 176.0
57.977669 140.0
58.056499 132.0
58.120213 120.0
58.170296 256.0
58.206734 168.0
58.297878 148.0
58.354118 228.0
58.364761 180.0
58.454506 64.0
58.779079 180.0
58.844711 140.0
58.867619 192.0
59.060184 244.0
59.10149 184.0
59.151997 204.0
59.352695 68.0
59.589066 168.0
59.776653 152.0
60.132652 184.0
60.197491 172.0
60.39222 120.0
60.410782 56.0
60.446369 112.0
60.534603 208.0
60.55164 52.0
60.646149 196.0
60.675602 136.0
60.757797 152.0
60.830734 216.0
60.989178 108.0
61.0467 212.0
61.129147 148.0
61.186737 48.0
61.219437 224.0
61.266163 168.0
61.628124 204.0
62.403973 40.0
62.64476 140.0
62.674698 172.0
62.780312 140.0
63.167271 192.0
63.298634 148.0
63.371498 128.0
63.430134 132.0
63.569702 136.0
63.771397 192.0
64.002068 156.0
64.013214 176.0
64.096046 208.0
64.332092 208.0
64.408745 144.0
64.539795 136.0
64.698189 208.0
64.824722 152.0
64.880821 136.0
64.893646 208.0
65.02037 156.0
65.248466 220.0
65.306351 160.0
65.47374 108.0
65.536255 188.0
65.576851 164.0
65.734894 192.0
66.006271 208.0
66.360878 140.0
66.378708 196.0
66.576691 152.0
66.614044 268.0
67.113052 196.0
67.284996 180.0
67.368286 128.0
67.593918 268.0
68.061081 212.0
68.350372 144.0
68.409622 272.0
69.205391 44.0
69.492126 188.0
70.029068 152.0
70.095711 72.0
70.142372 168.0
70.217407 208.0
70.305824 152.0
70.501221 196.0
70.737053 164.0
70.90287 152.0
70.958183 176.0
71.235336 164.0
71.339279 172.0
71.440178 300.0
71.539917 120.0
72.026802 92.0
72.067345 128.0
72.21611 156.0
72.243179 168.0
72.329475 168.0
72.39212 180.0
72.561562 168.0
73.047264 168.0
73.425385 220.0
73.51239 120.0
73.596031 192.0
73.619942 88.0
73.725853 196.0
73.778847 116.0
74.320061 112.0
74.495178 152.0
74.510635 184.0
74.701462 160.0
74.722107 188.0
74.87014 196.0
75.256401 180.0
75.867126 180.0
75.927811 68.0
76.044052 224.0
76.078773 220.0
76.44725 240.0
76.870705 184.0
77.101227 164.0
77.372345 244.0
78.007401 160.0
78.165688 36.0
78.264259 132.0
78.338234 196.0
78.675056 140.0
78.82872 120.0
78.929482 144.0
79.198479 172.0
79.221512 148.0
79.304794 180.0
79.60817 120.0
79.810738 204.0
80.345055 76.0
80.598587 148.0
80.739807 168.0
80.777367 128.0
80.881157 168.0
81.097885 132.0
81.196495 160.0
81.230576 184.0
81.566368 132.0
81.748016 68.0
82.339333 204.0
82.449532 152.0
82.75705 204.0
82.791458 96.0
82.863914 240.0
83.105049 104.0
83.213951 128.0
83.275696 136.0
83.681213 156.0
83.719452 136.0
83.861557 156.0
83.918068 128.0
84.259369 128.0
84.312355 44.0
84.429359 180.0
84.458626 108.0
84.878014 156.0
84.962379 204.0
85.221252 192.0
85.368301 208.0
85.572548 160.0
85.672005 72.0
85.70858 164.0
86.184906 36.0
86.860641 92.0
88.543739 128.0
88.706749 164.0
89.038857 148.0
89.089569 152.0
89.277527 204.0
89.456276 148.0
89.680428 88.0
89.729439 124.0
89.914299 40.0
90.001129 184.0
90.270424 156.0
90.316734 196.0
90.432152 96.0
90.511665 176.0
90.524918 200.0
90.604469 212.0
90.70491 216.0
91.053314 480.0
91.118607 184.0
91.179413 168.0
91.207924 116.0
91.569435 112.0
91.670403 92.0
91.872513 220.0
92.061348 188.0
92.242981 224.0
93.103264 136.0
93.13784 84.0
93.414642 128.0
93.628288 152.0
93.909676 136.0
93.982979 152.0
94.038948 148.0
94.452438 160.0
94.572403 160.0
94.603371 84.0
94.655647 48.0
94.706001 40.0
95.056908 128.0
95.084076 164.0
95.254936 60.0
95.593239 244.0
95.836639 128.0
96.027679 188.0
96.135033 272.0
96.279442 176.0
96.517845 164.0
96.691956 192.0
97.054359 160.0
97.221092 108.0
97.433159 140.0
97.612015 156.0
97.903259 52.0
98.398186 244.0
98.498901 172.0
98.514709 72.0
98.548294 236.0
98.769707 128.0
98.805313 40.0
98.975533 56.0
99.61216 96.0
99.697594 148.0
99.733368 204.0
100.047661 180.0
100.71769 116.0
100.745651 212.0
101.039528 32.0
101.311798 140.0
101.78112 188.0
101.825294 128.0
101.845383 208.0
101.951866 184.0
102.047867 448.0
102.193169 52.0
102.499222 180.0
102.529449 140.0
102.650406 200.0
102.712921 144.0
103.015717 208.0
103.055199 2076.0
103.2967 212.0
103.434303 184.0
103.519333 148.0
103.805061 156.0
103.904449 164.0
103.995766 132.0
104.058693 136.0
104.676819 180.0
104.953941 104.0
105.03463 952.0
105.071205 1472.0
105.109489 156.0
105.253891 156.0
105.339668 172.0
105.364182 160.0
105.470444 160.0
105.484756 200.0
106.042145 204.0
106.078392 80.0
106.176811 40.0
106.369682 80.0
106.414848 176.0
106.665474 128.0
106.829987 256.0
106.928749 268.0
106.998741 48.0
107.047791 180.0
107.074928 184.0
107.933403 180.0
107.97683 68.0
108.129929 212.0
108.287277 180.0
108.689445 208.0
108.73925 172.0
109.298271 240.0
109.402328 188.0
109.854546 116.0
109.910873 108.0
109.990181 112.0
110.21991 196.0
110.422691 68.0
111.030045 152.0
111.143326 144.0
111.889458 120.0
111.977898 144.0
112.458611 160.0
112.557831 180.0
112.585289 156.0
112.604294 160.0
112.967857 224.0
113.175262 140.0
113.855957 288.0
113.870819 196.0
113.936668 180.0
114.06205 188.0
114.096062 32.0
114.208771 160.0
114.479057 192.0
114.542953 176.0
114.807243 192.0
115.058739 396.0
115.202103 96.0
115.51207 196.0
116.026024 112.0
116.438019 92.0
116.642136 156.0
116.887314 164.0
117.034164 616.0
117.07029 160.0
117.354721 132.0
117.542374 160.0
117.661087 124.0
118.0438 1548.0
118.07164 80.0
118.088943 308.0
118.106247 44.0
118.272858 120.0
118.595589 120.0
118.803757 124.0
118.901398 148.0
118.994743 180.0
119.049736 2776.0
119.135208 128.0
119.201088 140.0
119.496796 204.0
119.538055 204.0
119.586021 32.0
119.832092 100.0
120.056381 1264.0
120.530304 172.0
120.622093 200.0
120.665817 120.0
120.692055 68.0
120.724854 204.0
120.895493 68.0
121.026833 184.0
121.060638 136.0
121.092522 128.0
121.42347 60.0
121.445618 204.0
121.524376 148.0
121.671425 36.0
121.693375 132.0
122.018547 152.0
122.058121 128.0
122.463051 100.0
122.579811 52.0
122.817917 88.0
123.038589 180.0
123.255035 208.0
123.467255 176.0
123.524765 68.0
123.896667 124.0
124.056229 200.0
124.073959 200.0
124.431152 240.0
124.533302 184.0
124.679932 160.0
124.726608 40.0
125.706558 144.0
125.970016 148.0
126.014694 184.0
126.943611 204.0
127.185913 176.0
127.257751 160.0
127.275711 60.0
127.689201 244.0
127.82193 168.0
128.389618 164.0
128.543015 176.0
128.619751 76.0
128.649094 224.0
128.741669 168.0
128.838791 36.0
128.879456 180.0
129.048981 176.0
129.318176 200.0
129.340805 76.0
129.433624 152.0
129.494766 200.0
129.850601 168.0
129.991257 104.0
130.043365 468.0
130.234177 216.0
130.263702 248.0
130.31369 200.0
130.538712 236.0
130.941528 164.0
131.047119 532.0
131.274017 196.0
131.340393 172.0
131.689606 148.0
131.84726 148.0
131.959259 156.0
132.027863 28.0
132.05806 5976.0
132.091904 224.0
132.176544 172.0
132.20401 176.0
132.520004 52.0
132.875381 212.0
132.9534 128.0
132.985519 188.0
133.028885 2912.0
133.065308 1920.0
133.107193 160.0
133.251907 52.0
133.484055 156.0
133.879868 88.0
133.964401 204.0
134.033493 948.0
134.068939 156.0
134.137909 60.0
134.553162 120.0
134.650146 204.0
135.003723 152.0
135.081467 820.0
135.14946 216.0
135.517609 72.0
135.707657 264.0
135.851456 28.0
136.076569 132.0
136.399475 204.0
137.030136 140.0
137.067429 316.0
137.368179 204.0
137.734665 188.0
138.066544 164.0
138.113327 204.0
138.281784 252.0
138.31456 152.0
138.356689 100.0
138.408203 116.0
138.79248 204.0
138.867523 136.0
138.998901 224.0
139.494461 200.0
139.835526 80.0
139.988541 124.0
140.205276 28.0
140.43396 156.0
140.500015 164.0
140.573166 152.0
141.062057 132.0
141.476044 104.0
141.639435 252.0
141.70813 56.0
141.961761 192.0
142.018677 84.0
142.971405 160.0
143.049942 212.0
143.230911 132.0
143.580582 156.0
143.714874 228.0
143.803162 196.0
143.977448 148.0
144.068207 172.0
144.587082 48.0
144.903152 64.0
145.031738 280.0
145.055191 292.0
145.07811 228.0
145.313141 144.0
145.620407 140.0
145.697266 136.0
145.79097 180.0
145.865479 196.0
145.894333 72.0
145.968872 148.0
146.036591 548.0
146.086716 48.0
146.284042 204.0
146.756241 212.0
147.043015 2492.0
147.166 116.0
147.200226 96.0
147.277512 72.0
147.42247 200.0
147.988495 156.0
148.011658 252.0
148.052216 10632.0
148.089584 64.0
148.166367 128.0
148.4319 96.0
148.684189 60.0
148.737595 60.0
148.834702 168.0
148.863846 232.0
148.894531 144.0
148.999863 180.0
149.055588 808.0
149.186981 224.0
149.362076 32.0
149.605408 84.0
150.007355 52.0
150.058548 284.0
150.448898 88.0
150.54657 204.0
150.825089 32.0
151.245804 132.0
151.282532 132.0
151.855911 140.0
152.079178 68.0
152.177368 104.0
152.236298 64.0
152.661438 56.0
152.917297 172.0
153.20047 172.0
154.44458 40.0
154.578171 112.0
154.984268 104.0
156.210709 116.0
156.310226 160.0
156.442139 176.0
156.676239 156.0
157.434494 48.0
157.551895 32.0
157.754318 204.0
157.836823 44.0
158.038391 312.0
158.081955 40.0
158.409943 120.0
158.565292 172.0
159.040619 152.0
159.335648 200.0
159.670486 76.0
160.052246 2968.0
160.160751 48.0
160.722946 156.0
160.743134 180.0
160.977905 84.0
161.025879 144.0
161.057892 664.0
161.308868 60.0
161.379669 40.0
161.399887 176.0
161.559235 200.0
161.602234 112.0
161.713577 180.0
162.065811 184.0
162.428986 164.0
162.46109 156.0
162.55751 152.0
162.852005 136.0
162.885025 72.0
162.907883 52.0
162.941833 164.0
163.006973 220.0
163.03746 128.0
163.075516 23480.0
163.131119 52.0
163.161942 128.0
163.168655 124.0
163.243378 64.0
163.268814 64.0
163.306656 68.0
163.345108 104.0
163.426529 100.0
163.472321 72.0
163.515717 80.0
163.561401 40.0
163.579224 96.0
163.599594 92.0
163.619949 104.0
163.752365 68.0
163.77739 92.0
163.884827 196.0
163.910309 48.0
164.007675 176.0
164.078598 2696.0
164.215012 84.0
164.282898 88.0
164.55307 60.0
164.59137 40.0
164.645004 32.0
164.887711 68.0
165.054138 172.0
165.086411 500.0
165.105011 140.0
165.151047 68.0
165.245697 124.0
165.44812 84.0
166.080826 216.0
166.203964 56.0
166.260422 88.0
166.396454 132.0
166.664139 212.0
167.363205 212.0
167.491974 136.0
169.165268 116.0
169.299896 144.0
169.771545 116.0
170.101059 184.0
170.464676 44.0
170.857285 200.0
171.021225 44.0
171.452164 156.0
171.612579 176.0
173.172516 68.0
173.39537 120.0
173.447784 44.0
173.505463 96.0
173.849075 52.0
175.042496 176.0
175.229538 224.0
175.327026 224.0
175.61705 204.0
176.045654 1688.0
176.274414 84.0
176.300842 160.0
176.324615 64.0
176.649841 188.0
176.975372 64.0
177.049973 164.0
177.237595 52.0
177.685669 172.0
178.461212 184.0
179.062622 144.0
179.683701 92.0
180.108154 168.0
180.412796 64.0
181.269272 116.0
182.264786 192.0
182.961395 160.0
183.114883 116.0
183.192993 52.0
185.06459 140.0
185.270432 104.0
186.385529 224.0
187.615738 112.0
188.623047 160.0
188.7789 68.0
188.836334 128.0
190.178879 188.0
190.272202 172.0
190.387527 160.0
190.434219 136.0
190.524872 108.0
190.630966 136.0
190.675446 208.0
190.705215 184.0
190.733719 100.0
190.777695 120.0
190.79808 112.0
190.825943 116.0
190.84642 168.0
190.876678 144.0
190.91243 188.0
190.982635 212.0
191.021057 96.0
191.07103 47404.0
191.14949 92.0
191.173767 56.0
191.200348 304.0
191.237061 76.0
191.259079 188.0
191.300369 108.0
191.341858 104.0
191.36644 200.0
191.40036 152.0
191.485168 72.0
191.521606 100.0
191.558533 120.0
191.575226 84.0
191.604431 64.0
191.628098 60.0
191.666672 36.0
191.727295 92.0
191.761322 116.0
191.796204 68.0
191.831848 60.0
191.856842 72.0
191.906479 64.0
191.94783 68.0
191.971039 116.0
192.016006 128.0
192.02182 92.0
192.044357 252.0
192.074005 5032.0
192.174011 140.0
192.34787 68.0
192.384415 68.0
192.46106 56.0
192.496964 64.0
192.571533 76.0
192.59639 84.0
192.758743 68.0
192.81189 68.0
192.883759 72.0
192.925217 88.0
192.988815 44.0
193.052414 284.0
193.078415 728.0
193.146439 132.0
193.165802 56.0
193.22113 120.0
193.298599 128.0
193.373322 108.0
193.403778 104.0
193.464676 140.0
193.538223 120.0
193.578186 72.0
193.669586 108.0
193.774857 64.0
194.03537 80.0
194.279419 52.0
195.382126 56.0
197.306656 184.0
198.875351 36.0
200.405167 56.0
201.096069 52.0
202.297394 96.0
204.744934 108.0
206.634583 88.0
208.636414 80.0
211.110321 60.0
220.069809 128.0
221.510056 52.0
224.977463 48.0
228.143997 152.0
232.208344 152.0
241.473511 104.0
242.117249 152.0
242.145111 176.0
246.072571 112.0
250.085129 180.0
251.497192 116.0
252.053024 168.0
260.965363 84.0
261.325592 80.0
262.404541 60.0
265.025787 88.0
270.183014 208.0
285.122192 156.0
292.097565 144.0
313.152466 144.0
326.283722 68.0
328.722198 96.0
329.195099 104.0
336.092041 124.0
337.706757 60.0
339.728729 96.0
340.25351 104.0
351.703644 40.0
354.61731 112.0
370.834442 40.0
377.396118 116.0
404.266357 100.0
411.679321 112.0
432.962891 96.0
440.286591 44.0
449.788177 52.0
500.100403 128.0
515.829834 60.0
548.8479 48.0
569.465698 192.0
602.381897 56.0
627.078918 76.0
631.78772 112.0
649.636658 28.0
805.209229 108.0
822.801025 208.0
825.543701 176.0
826.19574 172.0
830.92218 112.0
837.055054 204.0
865.830872 180.0
893.426392 136.0
901.846252 48.0
914.443542 108.0
942.502075 152.0
947.402771 292.0
947.445679 112.0
951.499451 220.0
952.285461 168.0
965.013855 20.0
978.44928 228.0
990.025818 212.0
997.554993 156.0
1021.299438 116.0
1028.14209 204.0
1028.346313 196.0
1033.970581 152.0
1034.373901 144.0
1035.692871 172.0
1044.396606 136.0
1050.103271 144.0
1050.296753 96.0
1061.524292 156.0
1064.191162 204.0
1069.795288 124.0
1070.759033 132.0
1073.678711 160.0
1078.784668 112.0
1082.068848 164.0
1083.699707 204.0
1084.30249 172.0
1084.348389 180.0
1088.632446 140.0
1091.543457 124.0
1092.990601 128.0
1094.853638 136.0
1106.984863 192.0
1109.376709 176.0
1127.267578 88.0
1133.04187 104.0
1139.858765 136.0
1141.539307 196.0
1145.032104 108.0
1145.106201 228.0
1149.987549 76.0
1152.384888 132.0
1153.297241 196.0
1160.574707 176.0
1161.137573 56.0
1161.999023 248.0
1162.765869 44.0
1164.49707 40.0
1165.604492 128.0
1171.264893 76.0
1173.69104 88.0
1177.676514 144.0
1179.72644 116.0
1181.046265 156.0
1184.687866 128.0
1195.598389 272.0
1201.158569 32.0
1201.406982 208.0
1206.247803 224.0
1206.365356 180.0
1207.658325 124.0
1210.779785 28.0
1210.925171 196.0
1212.019775 160.0
1221.023438 148.0
1228.218384 192.0
1229.14624 228.0
1257.526733 172.0
1258.197266 60.0
1262.12561 204.0
1264.141602 148.0
1265.833496 156.0
1266.052979 116.0
1266.761353 112.0
1269.256104 156.0
1270.071655 80.0
1271.909424 128.0
1272.030029 112.0
1273.016968 120.0
1276.22168 208.0
1277.530273 132.0
1278.049683 124.0
1278.362793 132.0
1279.822021 236.0
1282.956787 200.0
1286.059814 220.0
1288.789673 288.0
1289.78833 136.0
1290.674805 200.0
1292.677734 84.0
1298.107666 240.0
1298.530762 236.0
1303.606445 236.0
1304.763672 188.0
1307.245117 52.0
1307.928833 128.0
1308.857544 124.0
1309.75061 172.0
1310.240479 140.0
1310.579102 172.0
1311.595215 164.0
1312.993896 176.0
1313.823486 160.0
1319.275879 128.0
1324.5802 152.0
1326.703369 132.0
1332.088013 132.0
1332.85083 156.0
1334.144531 148.0
1338.925171 156.0
1339.544189 200.0
1341.621094 172.0
1344.013306 68.0
1346.451538 36.0
1350.712769 32.0
1355.852661 132.0
1357.802734 176.0
1360.546997 192.0
1362.383057 108.0
1364.499634 176.0
1366.088135 192.0
1369.614014 224.0
1380.485352 164.0
1381.372925 188.0
1381.580078 136.0
1381.765015 236.0
1382.578979 48.0
1382.793579 120.0
1386.289185 200.0
1386.392944 240.0
1390.315918 68.0
1392.610107 204.0
1393.063232 60.0
1395.686768 156.0
1396.355957 208.0
1400.069702 208.0
1402.863892 48.0
1403.9375 144.0
1405.09375 44.0
1406.89978 124.0
1408.169189 156.0
1411.345215 240.0
1413.394653 56.0
1414.577148 140.0
1415.490601 172.0
1415.745117 160.0
1416.539062 168.0
1417.310791 164.0
1420.189575 176.0
1421.69751 84.0
1424.798584 116.0
1424.933838 248.0
1426.309082 88.0
1427.331543 152.0
1428.241577 180.0
1430.416138 196.0
1432.193237 80.0
1432.25354 124.0
1432.743164 232.0
1434.287964 180.0
1436.255981 48.0
1437.432861 136.0
1440.989258 172.0
1442.228638 92.0
1442.568726 196.0
1446.827881 32.0
1447.168579 212.0
1448.03186 136.0
1452.147339 104.0
1455.159912 160.0
1456.602783 128.0
1457.727295 156.0
1459.163818 140.0
1460.228394 116.0
1460.905396 212.0
1461.217285 144.0
1465.191528 172.0
1467.249146 156.0
1467.904907 128.0
1470.35376 188.0
1470.956787 172.0
1472.873413 116.0
1475.387451 88.0
1475.930298 60.0
1476.328003 208.0
1476.534424 116.0
1479.625854 204.0
1481.295288 96.0
1483.425659 152.0
1487.491211 224.0
1490.824585 152.0
1492.854126 180.0
1493.154053 200.0
1495.693115 168.0
1496.154907 104.0
1499.174316 244.0
1499.228271 180.0
1501.417725 180.0
