>compound NCGC00160277-01!3-Methoxy-dictamnine-4-(2,3,4-trimethoxy)-benzoic acid
>formula C23H21NO8
>ionization [M+H]+
>parentmass 440.13399308409055
#inchi InChI=1S/C23H21NO8/c1-26-16-10-12(11-17(27-2)20(16)29-4)23(25)32-15-7-6-13-18(21(15)30-5)24-22-14(8-9-31-22)19(13)28-3/h6-11H,1-5H3
#inchikey HPTABMIUROHMOU
#Ion_Source LC-ESI
#Instrument qTOF
#Compound_Source Prestwick Phytochem Lib
#PI Dorrestein
#Data_Collector VVP/LMS
#Scan -1
#Precursor_MZ 440.135
#ExactMass 439.127
#Charge 1
#CAS_Number N/A
#Pubmed_ID N/A
#Smiles COC1=CC(=CC(OC)=C1OC)C(=O)OC2=C(OC)C3=C(C=C2)C(OC)=C4C=COC4=N3
#INCHI_AUX N/A
#Library_Class 1
#SpectrumID CCMSLIB00000078688
#IonMode Positive
#UpdateWorkflowName UPDATE-SINGLE-ANNOTATED-GOLD
#LibraryQualityString Gold
#TaskID 67c915c6594c435cadc1fe2b5358144d
##Scan# 2446
#SpectrumFile p1-B02_GB2_01_17886.mzXML
#LibraryName phytochem_lib.mgf
#MQScore -1
#Organism phytochem_lib
#TIC_Query 0
#RT_Query -1
#MZErrorPPM -1
#SharedPeaks 0
#MassDiff 0
#LibMZ -1
#SpecMZ 440.135
#SpecCharge 0
#internalFilename spec-00000.mgf

>collision 10
94.974922 64.0
94.989738 208.0
95.010292 332.0
95.02243 180.0
95.050194 1496.0
95.071678 236.0
95.137924 48.0
95.164764 184.0
95.217117 168.0
95.244164 208.0
95.269981 76.0
95.337303 160.0
95.397591 180.0
95.411613 212.0
95.474068 156.0
95.499344 268.0
95.534363 100.0
95.67868 152.0
95.697838 120.0
95.715363 44.0
95.743393 152.0
95.796768 120.0
95.842789 140.0
95.865356 92.0
95.895996 52.0
95.995964 48.0
96.021744 212.0
96.057594 2736.0
96.089584 120.0
96.124702 248.0
96.208633 140.0
96.228157 164.0
96.251587 200.0
96.409813 100.0
96.451355 156.0
96.480179 180.0
96.506462 156.0
96.570984 164.0
96.599464 104.0
96.62294 92.0
96.699951 248.0
96.742317 156.0
96.838005 152.0
96.904861 156.0
96.934258 152.0
97.038139 148.0
97.061806 312.0
97.118965 128.0
97.182167 120.0
97.194618 236.0
97.226448 80.0
97.257042 136.0
97.308891 112.0
97.361908 168.0
97.377617 184.0
97.456055 204.0
97.484589 176.0
97.534798 128.0
97.556229 504.0
97.607544 180.0
97.703911 80.0
97.723587 180.0
97.739418 180.0
97.780655 116.0
97.817383 212.0
97.839706 160.0
97.875626 196.0
97.90271 204.0
97.934227 176.0
97.961205 156.0
97.97731 156.0
97.991348 48.0
98.022873 412.0
98.036758 176.0
98.051544 180.0
98.115509 116.0
98.139168 56.0
98.15889 100.0
98.204247 108.0
98.260071 160.0
98.27906 156.0
98.346306 136.0
98.377052 188.0
98.395653 288.0
98.410904 116.0
98.452919 124.0
98.470695 176.0
98.516121 48.0
98.549706 176.0
98.56749 68.0
98.668289 192.0
98.693192 176.0
98.723656 132.0
98.778755 144.0
98.810684 200.0
98.84079 176.0
98.893799 140.0
98.984863 92.0
99.009377 168.0
99.0215 184.0
99.044556 516.0
99.07003 180.0
99.15107 40.0
99.154236 176.0
99.232536 212.0
99.259514 172.0
99.278145 100.0
99.342529 164.0
99.37043 228.0
99.444794 116.0
99.495529 168.0
99.512283 132.0
99.536064 180.0
99.569099 196.0
99.620522 176.0
99.653297 192.0
99.683105 72.0
99.775948 180.0
99.810318 160.0
99.86998 128.0
99.904793 128.0
99.929657 112.0
99.987564 200.0
100.01722 128.0
100.049072 104.0
100.076836 132.0
100.122742 408.0
100.368866 168.0
100.385597 208.0
100.571327 160.0
100.591293 128.0
100.683136 100.0
100.757042 140.0
100.781013 116.0
100.802994 176.0
100.826736 200.0
100.858955 120.0
100.953796 164.0
101.004921 132.0
101.024925 236.0
101.060936 140.0
101.078941 220.0
101.136978 148.0
101.237083 156.0
101.26712 228.0
101.349258 48.0
101.397102 228.0
101.489563 152.0
101.503822 176.0
101.542572 192.0
101.586586 228.0
101.605888 108.0
101.648018 152.0
101.662071 176.0
101.704216 68.0
101.743523 244.0
101.801697 236.0
101.835197 152.0
101.870125 192.0
101.903435 116.0
101.921104 144.0
101.9412 120.0
101.967323 100.0
102.001495 264.0
102.122131 156.0
102.204613 144.0
102.252907 156.0
102.271538 220.0
102.292709 196.0
102.307259 112.0
102.33947 160.0
102.403908 164.0
102.468369 220.0
102.512695 168.0
102.629608 160.0
102.71431 204.0
102.728432 144.0
102.746582 144.0
102.795006 168.0
102.815186 132.0
102.865646 108.0
102.899963 160.0
102.92823 192.0
103.01104 156.0
103.058296 168.0
103.089836 140.0
103.127647 124.0
103.152489 164.0
103.189781 196.0
103.250626 356.0
103.271782 172.0
103.334496 112.0
103.367004 200.0
103.397224 208.0
103.442101 92.0
103.47467 184.0
103.502487 256.0
103.544655 68.0
103.573372 164.0
103.609833 176.0
103.624016 124.0
103.652382 156.0
103.723312 52.0
103.741035 188.0
103.796295 180.0
103.842941 120.0
103.875389 152.0
103.899734 196.0
103.973648 140.0
104.00206 188.0
104.030739 180.0
104.064125 164.0
104.082397 240.0
104.15551 132.0
104.181915 248.0
104.210358 56.0
104.263733 120.0
104.334335 132.0
104.381096 160.0
104.397362 88.0
104.419739 112.0
104.461433 208.0
104.492966 144.0
104.513153 152.0
104.539253 176.0
104.56749 192.0
104.613037 184.0
104.631355 204.0
104.647644 120.0
104.718918 104.0
104.739281 48.0
104.764145 196.0
104.853378 260.0
104.867645 116.0
104.883957 128.0
104.956886 212.0
105.001396 320.0
105.034225 960.0
105.055244 172.0
105.076241 232.0
105.149101 144.0
105.184105 240.0
105.230751 112.0
105.265465 212.0
105.328659 144.0
105.335022 136.0
105.454575 204.0
105.502472 96.0
105.518402 184.0
105.555626 188.0
105.582214 388.0
105.60675 128.0
105.633347 196.0
105.651756 48.0
105.71022 216.0
105.805244 148.0
105.838081 200.0
105.903534 144.0
106.042091 952.0
106.087952 212.0
106.108452 56.0
106.141258 180.0
106.167854 140.0
106.202782 48.0
106.260216 152.0
106.28894 228.0
106.328293 160.0
106.364876 124.0
106.383354 132.0
106.401825 172.0
106.510666 188.0
106.535316 180.0
106.607224 196.0
106.635994 140.0
106.654495 156.0
106.675049 96.0
106.712273 152.0
106.732613 200.0
106.749611 160.0
106.790199 116.0
106.841621 96.0
106.856026 116.0
106.964775 156.0
106.981285 128.0
107.013458 1496.0
107.050911 1804.0
107.113472 136.0
107.149902 188.0
107.265831 140.0
107.321495 156.0
107.399864 156.0
107.426674 192.0
107.453491 212.0
107.46711 228.0
107.505081 144.0
107.551414 240.0
107.574265 108.0
107.63208 152.0
107.659203 176.0
107.667282 56.0
107.671165 212.0
107.690887 140.0
107.777649 116.0
107.805092 156.0
107.827248 108.0
107.887444 128.0
107.914062 48.0
107.968216 320.0
107.990753 140.0
108.019844 420.0
108.056969 2844.0
108.137474 180.0
108.162308 208.0
108.269974 212.0
108.290627 148.0
108.373543 168.0
108.404335 144.0
108.425346 156.0
108.450218 240.0
108.484016 144.0
108.536102 176.0
108.678001 100.0
108.689835 184.0
108.732216 176.0
108.774796 164.0
108.857727 216.0
108.903748 220.0
108.925377 232.0
109.028435 3952.0
109.064514 11472.0
109.124268 148.0
109.151756 164.0
109.185181 216.0
109.233025 188.0
109.246544 36.0
109.295433 120.0
109.337051 72.0
109.457794 208.0
109.618187 160.0
109.718231 64.0
109.743248 104.0
109.778885 132.0
109.83918 180.0
109.905937 144.0
109.9897 116.0
110.032928 388.0
110.069 1072.0
110.114143 152.0
110.139755 200.0
110.162735 176.0
110.195992 148.0
110.349998 228.0
110.383018 140.0
110.403091 180.0
110.455383 156.0
110.47142 228.0
110.55822 156.0
110.591385 224.0
110.610733 148.0
110.652245 164.0
110.675125 188.0
110.691872 180.0
110.77565 196.0
110.822037 168.0
110.890892 104.0
110.923279 184.0
110.945389 220.0
110.970551 144.0
110.998123 184.0
111.025795 404.0
111.0439 708.0
111.080772 2448.0
111.106873 76.0
111.146736 160.0
111.198051 132.0
111.277794 236.0
111.306259 80.0
111.464172 136.0
111.505829 148.0
111.526848 176.0
111.67823 144.0
111.711884 40.0
111.762375 156.0
111.777107 360.0
111.827614 144.0
111.847572 108.0
111.882339 116.0
111.897079 88.0
111.924454 364.0
111.964462 156.0
112.00869 40.0
112.040291 136.0
112.055038 192.0
112.087219 340.0
112.14537 184.0
112.168472 232.0
112.192024 112.0
112.225754 164.0
112.24791 152.0
112.267929 140.0
112.314323 48.0
112.353409 312.0
112.419815 68.0
112.590813 184.0
112.635162 84.0
112.656288 140.0
112.679527 244.0
112.728127 184.0
112.808441 124.0
112.829575 180.0
112.861198 184.0
112.907784 264.0
112.945885 184.0
112.967033 160.0
112.980957 144.0
112.996651 128.0
113.023598 2180.0
113.060555 1520.0
113.123627 284.0
113.15538 172.0
113.2062 124.0
113.24762 156.0
113.311897 204.0
113.348129 124.0
113.382034 192.0
113.401695 216.0
113.422302 72.0
113.449257 168.0
113.473183 64.0
113.50074 204.0
113.619514 80.0
113.648499 180.0
113.670433 276.0
113.706512 152.0
113.749695 104.0
113.848747 180.0
113.912468 68.0
113.942207 164.0
113.985085 200.0
114.033585 168.0
114.065018 336.0
114.105858 184.0
114.120735 124.0
114.220688 176.0
114.252594 132.0
114.27813 156.0
114.337708 116.0
114.389824 320.0
114.405823 196.0
114.422264 196.0
114.44175 128.0
114.544235 132.0
114.619263 92.0
114.640114 96.0
114.744553 44.0
114.782928 208.0
114.836243 172.0
114.866104 176.0
114.905075 208.0
114.922951 160.0
114.966385 124.0
114.985596 76.0
115.033966 320.0
115.072319 172.0
115.109406 156.0
115.13076 236.0
115.156395 224.0
115.194366 192.0
115.253128 212.0
115.27816 52.0
115.310219 124.0
115.346558 204.0
115.361519 204.0
115.385033 132.0
115.439201 48.0
115.472229 180.0
115.579666 200.0
115.631508 160.0
115.690956 156.0
115.727356 56.0
115.802299 52.0
115.85585 136.0
115.909416 432.0
115.958702 124.0
115.975853 48.0
116.008423 184.0
116.065887 172.0
116.164543 140.0
116.21389 176.0
116.25251 220.0
116.310455 112.0
116.328934 132.0
116.355537 200.0
116.381302 144.0
116.402771 36.0
116.426399 204.0
116.445724 168.0
116.497276 248.0
116.518761 216.0
116.604713 108.0
116.654144 132.0
116.682091 88.0
116.718643 176.0
116.772041 164.0
116.783684 180.0
116.808968 220.0
116.836937 184.0
116.870422 220.0
116.910095 92.0
117.019867 264.0
117.050011 184.0
117.086624 168.0
117.138313 176.0
117.168472 156.0
117.21624 172.0
117.375381 168.0
117.394791 176.0
117.429298 148.0
117.448708 52.0
117.484108 448.0
117.55442 152.0
117.655869 176.0
117.711586 252.0
117.727119 84.0
117.772476 192.0
117.794075 196.0
117.83728 268.0
117.878334 172.0
117.89994 220.0
117.92804 132.0
117.956139 84.0
118.025322 224.0
118.083702 160.0
118.150764 164.0
118.191872 28.0
118.248131 380.0
118.447327 168.0
118.464661 212.0
118.486626 200.0
118.516655 148.0
118.57666 124.0
118.681282 220.0
118.733429 204.0
118.768127 152.0
118.800667 144.0
118.935204 188.0
118.967758 200.0
118.999329 244.0
119.007828 132.0
119.011688 172.0
119.063301 220.0
119.102394 164.0
119.130028 124.0
119.162308 200.0
119.187119 128.0
119.203117 132.0
119.240387 172.0
119.278397 128.0
119.31147 168.0
119.415375 152.0
119.480637 196.0
119.537201 72.0
119.607986 168.0
119.726593 160.0
119.789757 152.0
119.831146 156.0
119.866524 152.0
119.88562 80.0
119.974228 164.0
120.019562 304.0
120.053482 112.0
120.074211 192.0
120.092735 200.0
120.164719 64.0
120.199631 160.0
120.237602 180.0
120.246552 72.0
120.253098 144.0
120.289116 60.0
120.319679 148.0
120.376442 168.0
120.417809 308.0
120.429771 172.0
120.483864 240.0
120.583023 228.0
120.592041 128.0
120.601906 188.0
120.610916 148.0
120.645187 112.0
120.758888 160.0
120.813049 132.0
120.881401 96.0
120.916412 168.0
120.951538 84.0
121.028671 5440.0
121.061813 248.0
121.084991 172.0
121.102509 348.0
121.137558 176.0
121.221695 244.0
121.240532 244.0
121.297523 224.0
121.312866 168.0
121.334785 104.0
121.378639 52.0
121.398376 148.0
121.42688 72.0
121.461525 176.0
121.485176 136.0
121.512154 160.0
121.549797 136.0
121.591423 96.0
121.612053 200.0
121.633125 168.0
121.696793 112.0
121.755157 352.0
121.771454 100.0
121.792557 164.0
121.846138 132.0
121.894882 224.0
121.929634 156.0
121.997772 176.0
122.037186 15740.0
122.093132 144.0
122.108742 160.0
122.161469 164.0
122.183044 196.0
122.202301 120.0
122.226509 136.0
122.270103 64.0
122.327744 116.0
122.369576 76.0
122.400398 112.0
122.466469 156.0
122.508316 68.0
122.556786 128.0
122.587631 144.0
122.678001 92.0
122.696426 156.0
122.765221 144.0
122.819122 136.0
122.920609 100.0
123.005615 240.0
123.042961 2292.0
123.130325 144.0
123.1502 192.0
123.170082 260.0
123.197777 164.0
123.227516 120.0
123.278229 160.0
123.344643 132.0
123.398338 180.0
123.466248 92.0
123.485558 120.0
123.512512 196.0
123.541451 204.0
123.581268 120.0
123.680855 408.0
123.713142 252.0
123.756126 176.0
123.79361 192.0
123.959213 192.0
123.979851 420.0
123.995361 96.0
124.052475 25752.0
124.122192 56.0
124.148331 48.0
124.168289 136.0
124.184799 60.0
124.217087 136.0
124.234833 136.0
124.260368 172.0
124.306114 156.0
124.341339 220.0
124.374626 200.0
124.396828 140.0
124.413475 20.0
124.435349 192.0
124.497986 172.0
124.51384 80.0
124.590027 232.0
124.645569 144.0
124.661301 400.0
124.68779 148.0
124.734383 108.0
124.785599 156.0
124.810059 100.0
124.910133 156.0
124.925156 220.0
124.9524 224.0
124.997757 228.0
125.005058 96.0
125.023407 660.0
125.056046 1440.0
125.077438 368.0
125.117088 144.0
125.141579 48.0
125.177208 264.0
125.208382 160.0
125.263634 228.0
125.306389 32.0
125.384377 244.0
125.417809 60.0
125.435646 80.0
125.484688 144.0
125.578346 92.0
125.638573 164.0
125.717384 148.0
125.776924 52.0
125.819336 120.0
125.863991 156.0
125.904182 200.0
125.948853 172.0
126.028442 408.0
126.063751 168.0
126.111961 56.0
126.147728 84.0
126.201378 172.0
126.222336 204.0
126.248337 164.0
126.268463 144.0
126.35347 84.0
126.40493 48.0
126.447449 148.0
126.464958 136.0
126.485497 124.0
126.562698 140.0
126.581764 104.0
126.63958 196.0
126.646149 160.0
126.663437 60.0
126.672508 124.0
126.716042 156.0
126.73632 220.0
126.789024 168.0
126.861824 128.0
126.878609 164.0
126.949265 360.0
126.973938 152.0
126.995049 192.0
127.040955 412.0
127.059952 196.0
127.090584 152.0
127.121994 64.0
127.155655 60.0
127.202797 136.0
127.238708 260.0
127.292595 200.0
127.344254 92.0
127.35997 132.0
127.375694 232.0
127.411636 184.0
127.434105 124.0
127.463127 144.0
127.487823 172.0
127.551117 172.0
127.577934 108.0
127.595924 220.0
127.703239 116.0
127.743889 176.0
127.81382 168.0
127.870346 128.0
127.915718 232.0
127.940636 160.0
128.016953 228.0
128.046921 3184.0
128.133087 176.0
128.151825 120.0
128.172104 100.0
128.319427 100.0
128.377243 172.0
128.505814 136.0
128.532883 168.0
128.555847 224.0
128.630539 148.0
128.681854 128.0
128.78952 188.0
128.837677 132.0
128.854065 456.0
128.92128 156.0
128.94162 108.0
129.050308 424.0
129.09082 172.0
129.108917 124.0
129.148743 256.0
129.152618 156.0
129.161484 132.0
129.19487 156.0
129.240112 160.0
129.460251 160.0
129.504807 380.0
129.547699 204.0
129.631851 212.0
129.699829 204.0
129.821716 200.0
129.854019 176.0
129.906189 88.0
129.933411 36.0
129.97879 160.0
130.010559 140.0
130.092255 212.0
130.221695 160.0
130.285294 148.0
130.310287 172.0
130.39032 144.0
130.410263 132.0
130.426178 232.0
130.546677 204.0
130.619812 124.0
130.6604 176.0
130.699081 40.0
130.842468 176.0
130.899384 152.0
130.951767 60.0
130.976822 168.0
131.017822 144.0
131.056427 148.0
131.170502 148.0
131.227493 144.0
131.245728 196.0
131.269653 172.0
131.346085 148.0
131.375732 160.0
131.425919 164.0
131.446457 128.0
131.487534 176.0
131.546875 140.0
131.572525 104.0
131.606293 176.0
131.713577 60.0
131.73642 140.0
131.759262 180.0
131.794098 176.0
131.90802 212.0
131.951233 208.0
131.977524 208.0
132.048874 120.0
132.06929 224.0
132.090729 192.0
132.152496 128.0
132.182251 168.0
132.200546 188.0
132.241745 144.0
132.35968 124.0
132.374527 236.0
132.445526 276.0
132.473007 180.0
132.491333 92.0
132.518829 160.0
132.561432 196.0
132.627579 124.0
132.652481 164.0
132.702179 180.0
132.869614 132.0
132.936279 200.0
132.959091 140.0
132.982941 164.0
132.988647 64.0
132.999695 156.0
133.027725 188.0
133.067413 116.0
133.108307 176.0
133.15654 192.0
133.179504 172.0
133.197876 40.0
133.298965 104.0
133.326538 204.0
133.361023 168.0
133.409286 160.0
133.440323 256.0
133.478256 216.0
133.602463 84.0
133.627762 192.0
133.682983 220.0
133.790024 156.0
133.862534 172.0
133.900986 208.0
133.949814 184.0
134.003052 204.0
134.036713 1932.0
134.134399 328.0
134.165726 88.0
134.198944 40.0
134.254288 56.0
134.286575 148.0
134.305038 80.0
134.326767 228.0
134.391571 156.0
134.396393 80.0
134.405045 124.0
134.425003 188.0
134.46994 164.0
134.568832 204.0
134.608765 144.0
134.690506 164.0
134.713593 128.0
134.736694 212.0
134.768463 200.0
134.792145 96.0
134.83374 184.0
134.854553 224.0
134.891525 140.0
134.967819 132.0
135.006134 332.0
135.041824 1220.0
135.067596 200.0
135.152863 172.0
135.282471 180.0
135.31488 148.0
135.365814 152.0
135.38765 164.0
135.404648 224.0
135.479782 188.0
135.495529 176.0
135.544174 84.0
135.569672 200.0
135.651154 100.0
135.740463 148.0
135.762085 208.0
135.854858 296.0
135.95694 200.0
135.984802 248.0
136.01207 540.0
136.050858 260.0
136.105515 124.0
136.138016 232.0
136.15892 160.0
136.230927 156.0
136.297531 208.0
136.31456 112.0
136.340134 208.0
136.440079 192.0
136.486572 36.0
136.519135 76.0
136.54425 184.0
136.625519 156.0
136.690811 200.0
136.716873 188.0
136.765747 176.0
136.800659 84.0
136.819275 96.0
136.905426 124.0
136.940369 52.0
136.986053 208.0
137.024002 14408.0
137.058517 984.0
137.083206 204.0
137.115097 44.0
137.161713 52.0
137.198776 80.0
137.236313 112.0
137.264297 44.0
137.285629 192.0
137.317932 128.0
137.341888 192.0
137.376251 160.0
137.398178 156.0
137.436905 208.0
137.475327 120.0
137.502243 132.0
137.581604 84.0
137.621292 32.0
137.646973 164.0
137.665665 32.0
137.685013 168.0
137.739807 128.0
137.810486 180.0
137.837601 224.0
137.865265 232.0
137.895218 196.0
137.998749 412.0
138.028366 596.0
138.067444 572.0
138.12793 192.0
138.147141 144.0
138.18924 172.0
138.264908 312.0
138.29689 124.0
138.336685 132.0
138.390533 104.0
138.442047 168.0
138.458435 96.0
138.48233 148.0
138.528076 224.0
138.577896 180.0
138.603668 152.0
138.697189 124.0
138.741959 44.0
138.786499 232.0
138.814636 180.0
138.831055 68.0
138.852158 180.0
138.879333 140.0
138.90535 212.0
138.933167 128.0
138.967102 196.0
139.008957 292.0
139.042343 524.0
139.07634 45148.0
139.118225 80.0
139.136078 104.0
139.157257 116.0
139.197601 160.0
139.239182 176.0
139.265106 72.0
139.304306 164.0
139.338745 244.0
139.358765 44.0
139.375641 124.0
139.413239 204.0
139.433929 124.0
139.442947 188.0
139.471329 152.0
139.502548 160.0
139.526062 88.0
139.584839 68.0
139.606003 76.0
139.625504 124.0
139.653046 44.0
139.713943 324.0
139.753876 116.0
139.765625 144.0
139.80307 156.0
139.843628 208.0
139.903198 180.0
139.92601 44.0
139.944839 196.0
139.991943 108.0
140.010773 128.0
140.047424 440.0
140.079468 4396.0
140.109711 136.0
140.15036 188.0
140.219025 212.0
140.260529 96.0
140.300598 156.0
140.325027 84.0
140.390198 168.0
140.416138 112.0
140.461853 208.0
140.479492 224.0
140.500259 192.0
140.533096 96.0
140.578918 132.0
140.627136 176.0
140.705765 80.0
140.735748 180.0
140.791382 92.0
140.822083 144.0
140.865112 92.0
140.881134 188.0
140.903824 164.0
140.942551 160.0
140.964462 268.0
140.989822 156.0
141.018356 2828.0
141.055389 340.0
141.081635 372.0
141.126923 72.0
141.143463 48.0
141.160019 200.0
141.186035 200.0
141.243118 144.0
141.282623 164.0
141.305115 124.0
141.360275 332.0
141.420258 52.0
141.476654 68.0
141.496002 200.0
141.576508 184.0
141.616776 232.0
141.635727 120.0
141.659409 136.0
141.675995 124.0
141.702057 196.0
141.742325 164.0
141.780243 132.0
141.837128 152.0
141.86557 48.0
141.891647 160.0
141.92247 164.0
141.965149 228.0
142.000732 80.0
142.02211 352.0
142.060913 352.0
142.116959 100.0
142.157303 188.0
142.224838 132.0
142.264114 196.0
142.367722 212.0
142.423203 132.0
142.462677 156.0
142.48259 136.0
142.580017 212.0
142.622787 68.0
142.64418 92.0
142.684067 152.0
142.748962 176.0
142.931961 104.0
142.974792 96.0
143.023056 172.0
143.071167 788.0
143.124756 144.0
143.150955 68.0
143.229538 220.0
143.277191 136.0
143.336746 144.0
143.367905 108.0
143.41806 200.0
143.503601 176.0
143.525055 148.0
143.701553 164.0
143.751663 192.0
143.777908 112.0
143.811325 204.0
143.830414 184.0
143.846786 84.0
143.961945 176.0
144.023819 176.0
144.072601 172.0
144.124161 72.0
144.181519 140.0
144.234085 192.0
144.358871 188.0
144.381744 148.0
144.458862 140.0
144.477997 188.0
144.506714 196.0
144.541412 124.0
144.571426 168.0
144.645508 160.0
144.686203 68.0
144.82988 140.0
144.865677 72.0
144.887375 96.0
144.940079 160.0
144.956863 192.0
145.028763 136.0
145.080688 132.0
145.098267 36.0
145.269882 168.0
145.316513 108.0
145.359711 132.0
145.37999 176.0
145.474915 136.0
145.506119 140.0
145.524597 196.0
145.549545 184.0
145.606979 140.0
145.695343 192.0
145.701981 152.0
145.754059 232.0
145.784744 116.0
145.811188 120.0
145.83522 396.0
145.96022 76.0
145.998703 160.0
146.032364 168.0
146.12619 192.0
146.145432 136.0
146.212814 184.0
146.253723 48.0
146.277802 132.0
146.304276 140.0
146.343689 76.0
146.480072 172.0
146.602936 176.0
146.639099 128.0
146.677658 220.0
146.696945 116.0
146.730698 160.0
146.887314 160.0
146.954987 68.0
146.99118 220.0
147.150482 228.0
147.297791 188.0
147.314697 188.0
147.349579 128.0
147.375107 164.0
147.408936 48.0
147.571808 180.0
147.597473 164.0
147.730484 184.0
147.757568 216.0
147.773987 176.0
147.82576 332.0
147.909561 112.0
147.938599 284.0
147.989441 180.0
148.059662 156.0
148.127487 164.0
148.193146 192.0
148.289825 140.0
148.33345 216.0
148.360962 184.0
148.384369 64.0
148.486206 228.0
148.536423 164.0
148.569672 352.0
148.619629 76.0
148.734177 140.0
149.021576 456.0
149.057388 220.0
149.149033 144.0
149.217102 152.0
149.268158 128.0
149.309509 156.0
149.370316 180.0
149.513855 124.0
149.555237 220.0
149.612762 132.0
149.682739 312.0
149.742706 416.0
149.769501 160.0
149.971725 136.0
150.031937 444.0
150.059494 128.0
150.081436 68.0
150.127762 236.0
150.154587 92.0
150.183395 84.0
150.212036 168.0
150.357086 240.0
150.470474 184.0
150.50354 124.0
150.532852 136.0
150.613449 124.0
150.667191 160.0
150.70871 176.0
150.745377 104.0
150.774689 108.0
150.793411 252.0
150.859177 128.0
150.916473 48.0
150.934662 184.0
151.039352 9536.0
151.094711 164.0
151.119476 156.0
151.148834 84.0
151.224701 204.0
151.241837 132.0
151.31282 52.0
151.380646 228.0
151.446564 196.0
151.552841 68.0
151.590439 100.0
151.648773 140.0
151.67688 144.0
151.69989 188.0
151.757782 156.0
151.790207 148.0
151.805862 160.0
151.842102 164.0
151.876434 104.0
151.895096 172.0
151.916336 212.0
151.927643 160.0
151.934204 352.0
151.96257 400.0
152.009613 352.0
152.047699 79292.0
152.125107 196.0
152.149384 208.0
152.219452 208.0
152.231323 80.0
152.241364 176.0
152.279678 88.0
152.306839 140.0
152.356949 80.0
152.415588 136.0
152.453171 244.0
152.497635 128.0
152.517288 176.0
152.544327 276.0
152.57048 100.0
152.60849 240.0
152.654968 88.0
152.686264 180.0
152.716446 272.0
152.769226 140.0
152.784561 204.0
152.805008 140.0
152.874344 244.0
152.907318 208.0
152.969406 184.0
153.011749 124.0
153.050018 7372.0
153.103836 140.0
153.163086 52.0
153.198914 40.0
153.223541 52.0
153.253113 108.0
153.272812 136.0
153.29007 204.0
153.315155 44.0
153.343842 332.0
153.4207 56.0
153.457672 96.0
153.479874 192.0
153.506989 80.0
153.553848 140.0
153.637177 92.0
153.687057 164.0
153.70433 28.0
153.751221 52.0
153.791168 84.0
153.822174 176.0
153.852417 160.0
153.907181 152.0
153.941299 108.0
153.987625 248.0
154.021179 260.0
154.053299 432.0
154.106796 240.0
154.145615 228.0
154.188339 212.0
154.223557 112.0
154.263672 84.0
154.296921 116.0
154.328384 104.0
154.364563 196.0
154.393524 156.0
154.447037 208.0
154.504837 124.0
154.662155 160.0
154.784515 124.0
154.809402 80.0
154.856339 100.0
154.888535 52.0
154.972763 188.0
155.007446 132.0
155.030441 416.0
155.05687 140.0
155.171036 176.0
155.215668 96.0
155.252869 172.0
155.30246 124.0
155.381851 56.0
155.428986 216.0
155.458755 140.0
155.51088 184.0
155.560516 44.0
155.664795 164.0
155.758438 256.0
155.821274 168.0
155.838669 216.0
156.00177 184.0
156.042023 6916.0
156.124527 168.0
156.156342 156.0
156.206039 316.0
156.251389 168.0
156.321045 56.0
156.373306 192.0
156.428772 244.0
156.461838 160.0
156.522675 132.0
156.594894 76.0
156.988663 60.0
157.04335 532.0
157.085922 144.0
157.123352 84.0
157.198196 160.0
157.263885 176.0
157.303024 164.0
157.33049 40.0
157.50029 180.0
157.550247 64.0
157.587723 152.0
157.657394 240.0
157.725174 136.0
157.785156 68.0
157.880173 68.0
157.930191 88.0
157.947708 184.0
157.96521 208.0
158.037491 144.0
158.041214 128.0
158.051117 192.0
158.092819 76.0
158.172913 120.0
158.240494 132.0
158.263031 208.0
158.433334 64.0
158.477768 180.0
158.500992 176.0
158.548599 196.0
158.638824 160.0
158.816864 140.0
158.859497 168.0
158.902145 156.0
158.992416 168.0
159.084137 140.0
159.130539 48.0
159.165695 72.0
159.190796 128.0
159.386734 112.0
159.444534 204.0
159.557648 228.0
159.58519 144.0
159.64061 112.0
159.666077 144.0
159.690216 188.0
159.761337 132.0
159.831787 112.0
160.118759 104.0
160.138916 76.0
160.63295 224.0
160.66069 160.0
160.69577 124.0
160.718719 148.0
160.769196 172.0
160.865723 216.0
160.887817 172.0
160.93074 212.0
161.022919 192.0
161.089844 68.0
161.170685 132.0
161.19342 116.0
161.24649 36.0
161.32486 140.0
161.385529 116.0
161.453796 136.0
161.496796 60.0
161.547394 80.0
161.63179 44.0
161.744766 228.0
161.815643 108.0
161.854233 168.0
161.916931 48.0
161.957458 120.0
162.03244 504.0
162.11618 160.0
162.139877 144.0
162.220978 196.0
162.283066 180.0
162.344742 172.0
162.385788 88.0
162.42131 56.0
162.513855 180.0
162.535461 152.0
162.659821 72.0
162.713135 92.0
162.784225 48.0
162.814957 192.0
162.85025 72.0
162.909225 56.0
162.964325 188.0
163.007767 220.0
163.035324 176.0
163.223831 192.0
163.289948 136.0
163.330643 124.0
163.442581 220.0
163.459442 160.0
163.562195 132.0
163.702209 160.0
163.754181 216.0
164.004501 92.0
164.075531 108.0
164.102264 116.0
164.129913 132.0
164.166 36.0
164.232315 168.0
164.273132 88.0
164.31395 164.0
164.416016 88.0
164.432404 76.0
164.463898 68.0
164.541077 176.0
164.645767 168.0
164.673859 72.0
164.742828 124.0
164.852692 168.0
164.929367 240.0
164.962601 120.0
165.017792 344.0
165.056671 768.0
165.126236 128.0
165.187622 96.0
165.320663 244.0
165.341141 156.0
165.515213 36.0
165.535706 56.0
165.581497 240.0
165.622772 176.0
165.68425 136.0
165.763062 280.0
165.786743 100.0
165.807251 164.0
165.833954 104.0
165.871323 160.0
165.912338 208.0
165.978699 104.0
166.024399 900.0
166.060791 260.0
166.084137 160.0
166.102097 280.0
166.127823 148.0
166.155975 224.0
166.220108 176.0
166.309937 136.0
166.330475 244.0
166.379379 156.0
166.430588 112.0
166.520828 144.0
166.554428 128.0
166.571289 132.0
166.59314 180.0
166.710587 152.0
166.738846 204.0
166.880096 164.0
166.9198 132.0
166.943237 232.0
166.985657 180.0
167.03656 172.0
167.070694 31844.0
167.140015 256.0
167.15802 192.0
167.178864 284.0
167.208878 204.0
167.280579 84.0
167.318817 160.0
167.366821 68.0
167.392273 204.0
167.435593 112.0
167.474686 40.0
167.495743 36.0
167.513321 208.0
167.54866 100.0
167.57515 196.0
167.593185 48.0
167.626678 128.0
167.662857 196.0
167.711716 96.0
167.754562 180.0
167.805817 104.0
167.866928 180.0
167.897354 68.0
168.038437 368.0
168.072952 1976.0
168.109665 188.0
168.178574 208.0
168.198669 112.0
168.225037 152.0
168.245682 240.0
168.268921 104.0
168.365143 180.0
168.373718 48.0
168.384521 208.0
168.410065 164.0
168.417358 108.0
168.565948 76.0
168.653549 148.0
168.690018 140.0
168.739136 208.0
168.759811 168.0
168.823486 96.0
168.838974 156.0
168.873596 280.0
168.89946 148.0
168.93309 96.0
169.015884 148.0
169.044342 84.0
169.074509 348.0
169.129745 80.0
169.201675 152.0
169.28508 116.0
169.307709 92.0
169.339462 76.0
169.375732 48.0
169.419235 176.0
169.43985 112.0
169.633606 56.0
169.702255 256.0
169.780746 180.0
169.890594 144.0
169.92012 108.0
169.952133 164.0
170.013535 68.0
170.055618 584.0
170.11734 192.0
170.205612 132.0
170.301712 80.0
170.325089 84.0
170.38385 160.0
170.472763 152.0
170.525146 144.0
170.628632 168.0
170.675919 164.0
170.829361 128.0
170.852783 168.0
170.927765 148.0
171.006302 112.0
171.064987 912.0
171.144272 164.0
171.167709 104.0
171.2276 108.0
171.281174 212.0
171.334396 172.0
171.469788 100.0
171.503784 160.0
171.56633 44.0
171.58696 232.0
171.662811 228.0
171.782776 144.0
171.911499 60.0
171.9655 156.0
172.007187 392.0
172.038513 104.0
172.059402 156.0
172.08812 72.0
172.252213 192.0
172.359756 216.0
172.383286 48.0
172.600235 124.0
172.626389 40.0
172.710068 124.0
172.749313 156.0
172.903687 144.0
172.925842 172.0
172.95079 152.0
172.980133 228.0
173.139297 48.0
173.22049 72.0
173.274002 180.0
173.325287 140.0
173.34523 236.0
173.369843 172.0
173.424881 176.0
173.542847 64.0
173.634613 132.0
173.689697 400.0
173.910095 152.0
173.931107 44.0
173.949478 128.0
173.993683 176.0
174.036102 156.0
174.104385 108.0
174.143784 84.0
174.311905 76.0
174.396011 44.0
174.419662 180.0
174.445953 108.0
174.548477 136.0
174.603714 104.0
174.658936 60.0
174.748383 208.0
174.79837 108.0
174.853638 204.0
175.21701 76.0
175.375122 48.0
175.406754 168.0
175.541214 148.0
175.596588 116.0
175.657257 92.0
175.696823 168.0
175.757507 120.0
175.791809 76.0
175.926422 124.0
176.01355 176.0
176.053696 232.0
176.084839 96.0
176.219559 204.0
176.283936 144.0
176.425705 92.0
176.452133 132.0
176.475937 96.0
176.528442 224.0
176.571777 164.0
176.614304 160.0
176.664124 152.0
176.838348 164.0
176.894867 216.0
176.970703 76.0
177.030945 176.0
177.089661 100.0
177.109497 156.0
177.247894 196.0
177.358154 236.0
177.538986 164.0
177.56163 124.0
177.662003 176.0
177.726089 88.0
177.77652 144.0
177.837555 148.0
177.896271 200.0
177.916809 168.0
178.003128 76.0
178.068542 108.0
178.174789 144.0
178.206665 52.0
178.919434 156.0
179.035019 424.0
179.071213 192.0
179.124481 152.0
179.201736 128.0
179.263031 252.0
179.281677 192.0
179.302994 164.0
179.340317 48.0
179.369629 68.0
179.415298 184.0
179.458725 152.0
179.497604 104.0
179.538025 124.0
179.5616 220.0
179.601913 140.0
179.6763 144.0
179.73233 68.0
179.793701 140.0
179.825043 184.0
179.849747 208.0
179.895126 64.0
179.961945 148.0
180.016113 216.0
180.04213 640.0
180.103409 256.0
180.129532 196.0
180.15683 324.0
180.210266 140.0
180.261032 200.0
180.330521 180.0
180.365265 180.0
180.405365 52.0
180.509628 172.0
180.597885 44.0
180.768021 404.0
180.817276 116.0
180.924347 184.0
181.049774 432.0
181.138565 156.0
181.287231 372.0
181.388474 228.0
181.440292 128.0
181.586182 180.0
181.607635 232.0
181.773972 136.0
181.795441 148.0
181.854477 144.0
181.878647 152.0
181.959167 140.0
182.057053 132.0
182.080002 124.0
182.157898 156.0
182.178406 196.0
182.200882 216.0
182.257294 64.0
182.283478 124.0
182.353424 172.0
182.40242 200.0
182.446579 188.0
182.499207 160.0
182.523407 176.0
182.601395 104.0
182.708984 212.0
182.738571 132.0
182.776245 52.0
182.854294 200.0
182.989273 164.0
183.037338 144.0
183.068192 200.0
183.146896 220.0
183.174698 88.0
183.417206 160.0
183.473816 168.0
183.500778 108.0
183.519653 132.0
183.657181 136.0
183.703033 128.0
183.724625 72.0
183.802856 160.0
183.897308 160.0
183.927734 164.0
183.9729 108.0
183.991791 172.0
184.036682 6228.0
184.068344 136.0
184.128708 272.0
184.17247 228.0
184.209335 200.0
184.49968 224.0
184.542938 144.0
184.569977 192.0
184.652069 124.0
184.675446 212.0
184.725571 136.0
184.753891 224.0
184.778244 80.0
184.821671 152.0
184.929779 52.0
185.000153 192.0
185.040131 588.0
185.080704 2540.0
185.130112 164.0
185.157196 48.0
185.262833 144.0
185.300766 160.0
185.32515 96.0
185.346252 232.0
185.401016 172.0
185.438965 76.0
185.518555 220.0
185.577209 72.0
185.617874 152.0
185.715515 244.0
185.745346 140.0
185.870148 156.0
185.889145 192.0
185.932556 136.0
185.984131 172.0
186.03244 240.0
186.057419 248.0
186.084854 448.0
186.133286 148.0
186.213791 228.0
186.28009 60.0
186.422424 208.0
186.511063 148.0
186.556778 172.0
186.595337 128.0
186.623459 164.0
186.772095 132.0
186.916275 148.0
186.957108 104.0
187.095917 136.0
187.27298 132.0
187.31105 96.0
187.409119 168.0
187.48175 220.0
187.505493 228.0
187.580811 148.0
187.730759 104.0
187.751465 204.0
187.774399 92.0
187.913513 80.0
187.957169 148.0
188.142761 136.0
188.22467 108.0
188.253418 152.0
188.273819 264.0
188.484161 152.0
188.536301 200.0
188.579819 208.0
188.620804 180.0
188.691895 136.0
188.757507 168.0
188.790329 172.0
188.831345 188.0
188.858688 216.0
188.909378 212.0
188.943497 176.0
189.07637 128.0
189.228119 112.0
189.313004 136.0
189.485565 156.0
189.567764 164.0
189.606125 140.0
189.718506 100.0
189.921432 140.0
189.943375 128.0
190.022919 128.0
190.053635 308.0
190.091522 144.0
190.18483 216.0
190.272812 164.0
190.297379 196.0
190.398987 144.0
190.511597 172.0
190.548538 204.0
190.56929 116.0
190.965134 80.0
191.094421 176.0
191.245773 172.0
191.332077 148.0
191.501831 168.0
191.523865 252.0
191.636826 88.0
191.777359 116.0
191.884766 208.0
191.923462 184.0
191.942764 164.0
192.053085 140.0
192.085953 144.0
192.096802 132.0
192.199295 152.0
192.297821 192.0
192.33989 172.0
192.384201 112.0
192.464264 164.0
192.511215 116.0
192.597122 148.0
192.646698 148.0
192.689423 108.0
192.74324 100.0
192.762589 96.0
192.846008 196.0
192.980957 108.0
193.00322 144.0
193.039017 60.0
193.180069 232.0
193.241379 172.0
193.2686 232.0
193.287964 60.0
193.33107 104.0
193.350281 124.0
193.391174 124.0
193.502777 104.0
193.55719 76.0
193.597198 96.0
193.644577 304.0
193.733719 232.0
193.754456 232.0
193.781799 180.0
193.836227 144.0
193.869492 192.0
193.926743 140.0
193.947861 128.0
193.994095 276.0
194.027481 96.0
194.056717 116.0
194.074615 156.0
194.152252 156.0
194.191086 176.0
194.224869 88.0
194.258896 80.0
194.264252 148.0
194.305634 284.0
194.340958 300.0
194.367798 160.0
194.409103 116.0
194.432053 176.0
194.459839 160.0
194.482895 348.0
194.510941 144.0
194.530884 104.0
194.578964 232.0
194.616364 264.0
194.647751 100.0
194.65361 200.0
194.672195 100.0
194.694824 352.0
194.726074 200.0
194.754944 236.0
194.779999 160.0
194.790131 116.0
194.828323 376.0
194.864471 192.0
194.916504 608.0
194.950134 148.0
194.997849 508.0
195.066711 359240.0
195.131943 164.0
195.172989 208.0
195.214218 168.0
195.242233 148.0
195.272766 164.0
195.304291 212.0
195.326767 324.0
195.358414 504.0
195.420639 100.0
195.492447 432.0
195.523743 5560.0
195.558853 144.0
195.581238 192.0
195.620438 176.0
195.658524 160.0
195.707703 184.0
195.738998 288.0
195.766296 152.0
195.811951 196.0
195.848846 72.0
195.876297 60.0
195.905701 48.0
195.91362 80.0
195.96167 76.0
195.988556 420.0
196.016693 52.0
196.033905 188.0
196.069168 57636.0
196.1604 204.0
196.21463 276.0
196.235306 92.0
196.254547 228.0
196.276108 80.0
196.307846 108.0
196.346222 56.0
196.377411 188.0
196.412964 140.0
196.430237 120.0
196.472839 68.0
196.495728 52.0
196.523422 44.0
196.566986 148.0
196.601913 224.0
196.631058 92.0
196.706558 80.0
196.730499 96.0
196.779099 116.0
196.803802 104.0
196.814957 92.0
196.821442 96.0
196.863647 108.0
196.870285 52.0
196.93927 164.0
196.965546 128.0
196.995514 76.0
197.018509 68.0
197.026627 156.0
197.070435 6456.0
197.139648 88.0
197.163879 112.0
197.172607 44.0
197.18396 152.0
197.216415 96.0
197.275085 176.0
197.302139 160.0
197.334213 332.0
197.362244 180.0
197.39827 248.0
197.425446 396.0
197.467163 316.0
197.4944 464.0
197.512741 412.0
197.551895 200.0
197.563766 84.0
197.570129 296.0
197.582443 100.0
197.592987 160.0
197.63031 252.0
197.655472 124.0
197.665192 216.0
197.710785 308.0
197.738342 176.0
197.763657 100.0
197.773209 92.0
197.783859 132.0
197.803436 248.0
197.848541 92.0
197.912231 128.0
197.965424 208.0
198.003769 136.0
198.038315 72.0
198.076569 456.0
198.118607 88.0
198.165207 76.0
198.218628 40.0
198.261505 64.0
198.309006 144.0
198.350876 132.0
198.424072 100.0
198.441238 144.0
198.468262 88.0
198.490952 108.0
198.520859 60.0
198.556107 96.0
198.577377 72.0
198.583908 48.0
198.625992 100.0
198.658386 132.0
198.802734 116.0
198.825195 88.0
198.866531 88.0
198.928101 96.0
198.968338 104.0
199.062912 440.0
199.156479 32.0
199.18457 80.0
199.237946 232.0
199.267624 164.0
199.350342 60.0
199.443634 60.0
199.49086 44.0
199.578018 136.0
199.603317 68.0
199.628632 96.0
199.709976 52.0
199.971848 32.0
200.066254 208.0
200.209244 100.0
200.320999 84.0
200.484421 64.0
200.52951 64.0
200.656357 76.0
200.748795 112.0
200.831192 80.0
200.884781 52.0
200.97789 56.0
201.073822 104.0
201.243195 76.0
201.364624 48.0
201.449356 88.0
201.565201 48.0
201.689545 64.0
202.085449 92.0
202.144867 76.0
202.26091 68.0
202.292053 68.0
202.343002 92.0
202.563889 88.0
202.745224 92.0
202.878433 116.0
202.97139 56.0
203.034393 84.0
203.167694 112.0
203.420258 60.0
203.442963 88.0
203.474945 76.0
203.891754 108.0
204.031021 60.0
204.4776 52.0
204.729385 128.0
204.796478 96.0
204.830658 44.0
204.881943 112.0
205.243896 56.0
205.306641 100.0
205.344849 132.0
205.611893 64.0
205.691803 116.0
205.726059 72.0
205.920227 200.0
205.957352 60.0
206.268814 44.0
206.328842 120.0
206.403183 116.0
206.443207 88.0
206.498581 140.0
206.520432 60.0
206.563339 64.0
206.643433 108.0
206.737854 40.0
207.092865 164.0
207.195984 64.0
207.284805 104.0
207.494034 40.0
207.755005 48.0
207.909958 84.0
208.019012 76.0
208.072083 116.0
208.099396 76.0
208.125244 112.0
208.23436 52.0
208.257339 88.0
208.582031 52.0
208.697021 68.0
208.740158 152.0
208.950119 88.0
209.076721 104.0
209.206253 56.0
209.344452 36.0
209.491333 116.0
209.727615 84.0
209.811218 56.0
209.966919 48.0
210.076523 64.0
210.157303 40.0
210.379532 80.0
210.555664 68.0
210.619202 56.0
210.873459 108.0
211.347717 48.0
211.535828 104.0
211.622681 92.0
211.686386 44.0
211.897827 96.0
212.036911 160.0
212.086182 64.0
212.239838 40.0
212.532791 84.0
212.625641 48.0
213.008911 56.0
213.044907 372.0
213.50882 108.0
214.172394 84.0
214.877853 132.0
215.061691 184.0
215.175537 112.0
215.360306 96.0
215.417923 76.0
216.028259 236.0
216.066315 140.0
216.822372 68.0
217.077408 148.0
217.180054 92.0
217.934509 52.0
218.025604 84.0
218.372513 124.0
220.418427 36.0
221.519012 80.0
221.791611 88.0
222.378891 108.0
223.122986 40.0
223.341553 116.0
224.097687 84.0
224.801392 40.0
226.505539 48.0
227.018036 196.0
227.057327 1124.0
227.197998 48.0
227.390045 108.0
227.462082 72.0
227.648224 108.0
227.753342 60.0
227.92157 136.0
228.032761 156.0
228.05513 180.0
228.080856 216.0
228.258224 164.0
228.929276 80.0
230.04483 308.0
230.078323 212.0
231.049835 668.0
231.096542 152.0
231.577866 36.0
231.877808 132.0
232.04274 144.0
232.81221 36.0
233.046097 164.0
233.413879 60.0
234.509827 108.0
235.189987 100.0
238.777786 216.0
239.23317 32.0
241.145584 64.0
242.079865 72.0
242.371048 48.0
243.00975 92.0
244.058884 164.0
245.030624 136.0
245.060883 160.0
246.075455 664.0
246.428345 68.0
246.622101 124.0
247.076447 256.0
247.241348 56.0
248.588867 128.0
251.064621 144.0
251.676788 44.0
253.536789 56.0
254.745651 112.0
257.165619 160.0
257.833099 48.0
257.87146 72.0
258.58786 80.0
258.837585 44.0
259.49762 104.0
260.09079 332.0
260.399323 68.0
261.099945 164.0
263.837463 156.0
264.322632 64.0
266.001404 64.0
266.04361 20.0
267.288422 52.0
267.324188 44.0
267.665985 68.0
269.443573 84.0
270.60788 68.0
272.595581 76.0
274.818176 60.0
274.867645 84.0
275.759308 56.0
280.46579 76.0
280.595795 192.0
280.922607 60.0
281.937622 92.0
283.205627 56.0
283.373108 72.0
284.617462 60.0
286.042938 72.0
288.140472 64.0
288.40744 56.0
289.838959 100.0
291.131378 116.0
291.192505 104.0
291.681763 72.0
291.919739 88.0
292.882904 44.0
294.04895 92.0
294.475708 116.0
294.848114 36.0
297.162903 108.0
300.862579 116.0
301.764282 112.0
301.840363 176.0
302.037476 68.0
302.442322 124.0
304.425385 72.0
304.564331 52.0
306.115417 84.0
307.03772 164.0
307.481964 104.0
309.492004 140.0
315.480011 32.0
315.780579 84.0
316.35733 52.0
316.679535 80.0
317.069275 136.0
317.92749 96.0
318.087219 112.0
318.790436 72.0
320.649445 32.0
321.050934 204.0
321.860962 80.0
322.364624 44.0
322.96167 80.0
323.222839 80.0
324.261353 136.0
329.890869 180.0
330.831421 108.0
332.012604 80.0
332.059753 180.0
333.014282 56.0
334.075684 172.0
335.397491 64.0
336.159729 152.0
336.331238 132.0
338.594421 76.0
338.649353 104.0
340.101288 152.0
340.861511 60.0
343.294708 60.0
344.63092 60.0
345.287018 156.0
348.075653 148.0
348.450775 52.0
350.07251 176.0
352.07135 92.0
352.642944 32.0
353.33847 112.0
353.491882 104.0
353.604126 156.0
353.843719 32.0
354.083344 52.0
357.029388 112.0
358.271484 112.0
359.885651 152.0
359.983826 44.0
364.305389 68.0
364.381348 140.0
365.388855 64.0
365.655457 116.0
366.767365 72.0
367.510986 36.0
367.873566 148.0
368.404358 84.0
368.660339 108.0
369.249084 156.0
369.451813 52.0
371.205994 152.0
371.351715 56.0
371.862 56.0
374.553436 92.0
374.757629 104.0
375.069763 216.0
375.960693 100.0
376.034027 164.0
376.18457 72.0
377.300995 92.0
377.556183 52.0
377.614197 68.0
378.047485 112.0
381.138 84.0
382.713287 48.0
382.802856 104.0
382.892426 44.0
387.854401 88.0
391.665802 88.0
393.574524 88.0
395.100098 176.0
396.822876 44.0
398.938904 36.0
401.929901 52.0
402.424835 44.0
403.147827 68.0
404.103485 84.0
404.519684 96.0
405.148407 120.0
406.094391 84.0
408.548676 112.0
410.054596 96.0
411.740997 88.0
413.697968 60.0
422.349091 92.0
422.664093 52.0
424.085114 176.0
424.122009 136.0
425.085785 88.0
425.114502 132.0
425.841156 28.0
431.865784 72.0
432.669708 112.0
433.667999 132.0
434.252625 80.0
435.917358 56.0
437.044708 164.0
437.181519 112.0
437.40625 64.0
438.205841 232.0
438.355835 80.0
438.501678 92.0
439.352325 76.0
439.510864 100.0
439.886475 56.0
440.024231 144.0
440.075836 132.0
440.131226 2888.0
440.303986 120.0
441.00589 84.0
441.076935 84.0
441.141296 652.0
441.256714 104.0
441.398865 96.0
441.679077 84.0
441.762726 68.0
441.796204 48.0
442.047241 28.0
442.142242 420.0
443.23645 184.0
444.058105 124.0
444.204895 44.0
444.989655 80.0
449.76767 60.0
451.838287 52.0
454.711212 108.0
457.027161 60.0
461.078217 68.0
462.883484 20.0
463.136139 44.0
464.434875 92.0
464.795227 40.0
466.044708 104.0
472.113983 76.0
472.455688 132.0
475.362946 72.0
477.848297 104.0
486.097717 60.0
490.385529 88.0
490.601501 32.0
491.029236 100.0
496.003326 44.0
501.773499 32.0
504.134705 36.0
504.885742 52.0
505.659698 72.0
510.0867 68.0
514.858093 52.0
514.903259 56.0
515.28717 60.0
516.806335 92.0
517.738831 76.0
520.005615 80.0
520.368774 112.0
528.522766 104.0
541.092529 64.0
557.991089 96.0
567.333923 72.0
571.275452 84.0
573.113159 72.0
575.612549 20.0
578.744507 72.0
581.088196 44.0
583.028076 40.0
583.234741 88.0
584.797974 112.0
585.760925 44.0
588.0802 48.0
606.113037 72.0
607.804688 76.0
610.10321 76.0
616.19458 48.0
616.452881 72.0
619.925354 68.0
620.713501 56.0
623.41394 144.0
629.631165 56.0
631.071167 108.0
640.096985 68.0
646.513 88.0
648.38678 220.0
651.44635 84.0
651.542847 72.0
655.750977 52.0
659.778381 92.0
662.147522 200.0
664.838989 64.0
667.299377 192.0
670.48053 228.0
674.72345 92.0
687.120239 116.0
688.947449 52.0
691.970276 88.0
708.645081 88.0
709.784668 40.0
710.018005 84.0
714.458496 36.0
715.837036 108.0
720.306335 40.0
722.867249 52.0
723.616577 76.0
732.261963 160.0
734.725342 128.0
744.180298 156.0
745.092712 136.0
746.065491 64.0
747.332703 140.0
752.734375 96.0
755.341309 196.0
759.630371 108.0
760.683899 204.0
771.580505 108.0
782.693726 172.0
799.509766 216.0
801.520081 108.0
805.932495 76.0
810.532654 120.0
816.078064 116.0
816.931152 108.0
817.016479 68.0
820.769775 76.0
827.431702 56.0
851.907227 56.0
854.488403 144.0
864.624023 64.0
867.751953 240.0
876.338745 172.0
881.986328 168.0
885.909546 192.0
886.336121 156.0
888.369629 64.0
889.847351 60.0
890.779724 156.0
891.07489 168.0
893.651123 108.0
897.999695 128.0
901.259094 184.0
903.74646 148.0
908.071533 224.0
908.485413 168.0
908.653381 164.0
910.874512 112.0
910.982666 136.0
913.110413 204.0
913.826233 128.0
914.476135 204.0
919.647461 124.0
920.239014 40.0
920.800598 164.0
923.423584 64.0
932.906982 236.0
932.985962 196.0
935.151428 148.0
936.746765 44.0
938.416565 192.0
941.101135 256.0
943.502197 84.0
944.60907 56.0
945.269775 80.0
948.773193 204.0
949.380188 196.0
951.441833 104.0
952.498047 148.0
954.729065 32.0
959.026428 212.0
960.84552 136.0
965.99762 84.0
968.16394 176.0
972.820312 172.0
991.413452 196.0
991.476074 68.0
991.563843 148.0
991.990051 176.0
993.074829 36.0
994.442566 80.0
1000.168518 132.0
1001.459229 56.0
1001.849792 164.0
1004.402771 96.0
1005.273438 124.0
1006.693909 180.0
1007.893921 60.0
1009.018982 188.0
1010.403992 64.0
1011.726624 80.0
1011.948242 148.0
1012.036865 180.0
1014.723206 184.0
1022.790955 140.0
1023.185669 92.0
1023.440308 148.0
1025.153809 212.0
1027.755371 116.0
1027.800049 196.0
1028.782959 72.0
1030.328369 128.0
1031.286865 136.0
1031.894165 72.0
1032.348145 144.0
1032.974976 88.0
1034.299438 136.0
1034.421143 156.0
1034.587524 152.0
1035.099731 160.0
1037.028076 92.0
1041.384521 56.0
1041.439819 192.0
1044.514771 212.0
1046.368042 172.0
1047.12146 152.0
1050.537598 144.0
1051.040894 132.0
1052.66748 168.0
1054.133911 84.0
1054.502197 192.0
1055.381348 164.0
1055.471924 168.0
1058.066406 144.0
1059.763184 176.0
1062.071045 136.0
1062.181274 72.0
1064.056763 64.0
1064.887939 128.0
1065.050293 144.0
1065.349121 76.0
1065.440063 184.0
1065.66748 176.0
1066.960815 160.0
1070.389648 88.0
1070.500366 104.0
1070.780396 216.0
1071.418701 200.0
1071.555542 136.0
1071.679321 20.0
1073.139282 128.0
1073.426147 112.0
1073.719604 148.0
1074.567627 148.0
1076.898071 276.0
1077.21814 156.0
1077.518555 148.0
1079.211304 148.0
1079.485962 196.0
1079.708374 176.0
1083.131348 104.0
1084.094482 152.0
1084.402466 108.0
1084.933472 184.0
1085.392334 172.0
1086.146606 108.0
1087.40625 116.0
1087.559692 156.0
1088.266235 120.0
1088.706177 60.0
1091.781738 124.0
1092.728882 132.0
1093.604126 152.0
1095.098755 132.0
1096.251587 132.0
1096.40979 172.0
1097.893066 112.0
1098.816528 184.0
1099.03418 160.0
1099.812988 124.0
1100.644775 212.0
1102.408447 240.0
1102.500977 352.0
1103.122314 140.0
1103.604858 148.0
1103.671021 136.0
1104.120605 156.0
1106.913208 176.0
1107.595337 216.0
1107.85376 164.0
1108.443359 152.0
1108.993408 168.0
1110.186768 152.0
1110.24646 232.0
1110.604614 140.0
1110.783691 236.0
1112.32312 140.0
1114.295532 196.0
1115.07959 40.0
1117.160767 100.0
1120.109741 176.0
1120.529419 96.0
1121.055786 180.0
1121.195679 132.0
1123.095825 188.0
1123.716919 200.0
1125.197876 44.0
1127.649292 132.0
1128.304443 192.0
1128.973022 120.0
1129.280762 160.0
1129.354248 112.0
1129.809082 28.0
1131.114014 192.0
1131.381836 88.0
1132.057983 92.0
1132.567017 112.0
1133.364258 176.0
1133.538452 116.0
1135.153931 184.0
1135.824585 156.0
1136.127319 160.0
1136.817505 164.0
1136.884644 156.0
1137.15979 176.0
1137.85791 160.0
1139.516846 160.0
1139.71167 268.0
1139.825928 196.0
1140.081177 68.0
1140.202148 152.0
1140.42395 216.0
1141.466064 52.0
1142.898682 148.0
1143.518433 240.0
1144.157349 216.0
1145.295288 96.0
1148.351929 168.0
1149.46167 180.0
1149.670898 200.0
1150.838623 108.0
1150.8927 160.0
1152.371826 180.0
1152.790771 184.0
1152.862671 152.0
1152.993408 56.0
1153.250244 292.0
1154.339722 80.0
1155.312622 156.0
1155.630615 84.0
1157.282104 100.0
1157.424316 172.0
1157.485229 184.0
1157.647705 244.0
1158.216675 148.0
1158.880493 168.0
1159.605591 172.0
1162.060425 292.0
1162.874634 188.0
1163.573853 156.0
1163.746582 228.0
1166.766846 148.0
1168.024902 140.0
1168.126953 76.0
1168.984253 128.0
1169.229248 160.0
1170.795044 140.0
1172.777588 164.0
1173.636597 80.0
1175.737549 120.0
1175.996826 224.0
1177.464722 120.0
1178.414307 132.0
1178.468872 216.0
1179.036011 160.0
1179.630737 168.0
1179.811401 64.0
1180.040894 116.0
1181.312866 212.0
1183.222168 72.0
1183.900024 144.0
1184.886353 136.0
1184.94812 144.0
1186.791748 196.0
1187.141479 104.0
1188.479004 108.0
1190.572632 156.0
1191.170166 96.0
1191.685425 140.0
1193.101196 128.0
1193.211182 168.0
1195.171387 148.0
1195.811401 148.0
1196.121094 128.0
1196.594971 124.0
1196.861328 256.0
1197.587769 160.0
1198.152588 132.0
1198.441895 144.0
1199.062134 144.0
1199.46875 152.0
1200.84082 156.0
1204.395386 140.0
1205.514648 144.0
1205.604492 124.0
1206.150513 128.0
1206.440796 204.0
1206.572144 180.0
1206.973145 72.0
1207.477905 204.0
1207.554077 160.0
1207.692383 180.0
1207.962158 156.0
1208.84082 204.0
1210.093628 140.0
1210.848389 160.0
1212.026001 68.0
1212.157715 32.0
1212.296265 132.0
1212.427979 160.0
1212.53186 164.0
1213.481567 144.0
1213.668701 204.0
1214.348389 136.0
1214.674316 120.0
1214.994263 168.0
1217.193604 192.0
1218.37439 108.0
1219.368042 172.0
1219.812866 28.0
1220.132568 68.0
1221.126953 120.0
1221.947754 144.0
1222.372192 168.0
1222.991577 120.0
1223.179565 148.0
1223.541504 196.0
1223.673828 72.0
1224.606934 252.0
1226.864502 176.0
1228.538208 180.0
1228.817261 200.0
1230.206055 128.0
1230.785522 112.0
1231.393066 140.0
1231.553711 204.0
1231.805176 220.0
1232.133545 188.0
1232.790283 120.0
1234.453979 104.0
1234.663818 164.0
1235.817993 128.0
1236.762695 152.0
1237.539795 172.0
1238.674316 172.0
1239.718262 108.0
1239.774292 180.0
1240.019531 116.0
1240.923828 168.0
1241.057007 132.0
1241.183228 152.0
1241.786377 144.0
1242.663208 56.0
1242.754395 168.0
1243.006958 184.0
1243.849121 156.0
1245.190186 92.0
1245.568481 168.0
1245.62793 208.0
1245.688965 196.0
1246.644409 36.0
1246.986084 236.0
1247.199463 144.0
1247.797241 200.0
1248.45813 192.0
1249.084106 164.0
1249.224121 208.0
1249.998657 156.0
1250.31543 172.0
1250.779907 180.0
1251.047363 96.0
1253.029419 280.0
1253.96521 116.0
1254.160889 132.0
1254.417358 124.0
1254.745972 80.0
1255.586304 192.0
1256.276245 252.0
1256.39624 304.0
1257.278198 136.0
1257.511108 188.0
1258.125122 128.0
1258.238159 124.0
1258.301636 152.0
1258.435791 164.0
1260.477051 184.0
1260.886963 140.0
1261.438232 192.0
1262.152344 264.0
1262.817017 144.0
1263.977295 148.0
1264.607056 168.0
1264.861938 156.0
1265.237061 100.0
1265.583984 136.0
1265.845947 148.0
1265.923828 92.0
1266.575439 204.0
1267.46106 112.0
1269.140869 88.0
1269.275635 132.0
1269.764893 244.0
1270.005981 92.0
1270.999268 156.0
1271.615967 216.0
1271.85791 100.0
1272.474609 232.0
1272.780884 168.0
1274.606323 124.0
1274.677368 132.0
1275.835938 156.0
1276.639282 128.0
1277.379028 164.0
1277.599487 108.0
1277.805786 144.0
1278.602783 124.0
1278.851929 92.0
1278.937256 168.0
1279.250488 188.0
1279.421387 80.0
1279.513916 180.0
1281.280151 208.0
1283.439575 156.0
1283.99585 116.0
1284.209839 128.0
1284.609253 80.0
1285.372681 160.0
1285.479736 176.0
1286.871582 68.0
1287.321411 140.0
1287.535645 108.0
1287.6427 204.0
1287.749878 40.0
1288.02124 216.0
1288.121338 112.0
1288.699951 208.0
1289.23584 172.0
1292.403564 132.0
1292.897339 52.0
1293.291016 108.0
1293.341064 128.0
1293.555786 188.0
1293.691162 160.0
1293.956787 152.0
1294.336182 128.0
1294.422119 144.0
1295.281616 196.0
1295.453491 188.0
1295.860352 180.0
1296.900879 200.0
1298.090942 120.0
1298.854126 244.0
1299.432251 148.0
1299.869995 204.0
1299.991943 164.0
1300.078003 144.0
1300.515869 216.0
1300.810181 208.0
1301.312622 176.0
1301.872681 180.0
1302.14563 192.0
1302.361084 212.0
1302.871094 176.0
1303.08667 188.0
1303.187256 164.0
1303.848267 96.0
1304.063965 124.0
1304.164551 168.0
1304.603027 140.0
1305.379517 196.0
1305.733154 132.0
1305.890137 136.0
1306.44397 156.0
1306.674194 148.0
1307.062744 100.0
1307.465698 160.0
1307.631226 172.0
1307.839966 140.0
1307.96228 180.0
1308.113525 192.0
1309.12146 208.0
1309.52478 184.0
1309.920898 164.0
1310.115356 128.0
1310.936768 132.0
1311.139404 184.0
1311.808838 208.0
1313.04187 32.0
1313.727051 164.0
1313.965088 136.0
1314.044434 44.0
1314.173218 192.0
1314.441284 200.0
1315.264038 168.0
1316.115967 160.0
1316.411987 100.0
1316.751343 144.0
1316.924683 144.0
1317.437622 172.0
1317.538696 132.0
1318.687622 124.0
1318.76709 64.0
1318.861084 176.0
1319.56958 188.0
1319.670776 136.0
1319.771973 108.0
1319.851562 168.0
1320.017822 200.0
1320.2854 184.0
1320.422729 128.0
1320.625244 160.0
1321.225708 160.0
1322.644043 200.0
1323.208618 224.0
1323.317261 220.0
1323.541748 236.0
1323.708252 196.0
1324.693604 144.0
1325.12793 212.0
1326.425049 144.0
1326.628052 80.0
1327.062988 228.0
1327.287842 188.0
1327.592407 192.0
1327.96228 120.0
1328.020264 152.0
1328.230591 156.0
1329.514771 60.0
1329.572876 168.0
1329.65271 144.0
1330.28418 192.0
1330.37854 176.0
1330.712524 64.0
1331.344238 160.0
1331.509155 172.0
1331.737305 156.0
1332.114136 184.0
1332.259399 100.0
1332.470093 140.0
1333.778076 36.0
1333.923462 96.0
1334.345093 192.0
1334.432373 136.0
1335.290405 232.0
1335.486816 84.0
1335.908081 160.0
1336.090576 116.0
1336.388794 164.0
1337.662354 248.0
1337.975464 180.0
1338.083008 92.0
1338.230225 28.0
1339.366333 184.0
1339.927246 192.0
1340.553833 152.0
1342.076538 208.0
1342.33252 176.0
1342.468384 152.0
1342.966919 204.0
1343.375366 116.0
1344.090454 152.0
1344.856689 172.0
1346.996094 112.0
1347.142212 120.0
1347.332031 60.0
1347.397827 176.0
1347.558594 60.0
1347.872803 196.0
1347.967773 112.0
1348.771606 104.0
1349.210205 156.0
1349.8302 96.0
1350.83374 168.0
1350.943481 168.0
1351.082397 40.0
1354.933228 188.0
1355.475342 88.0
1355.811279 172.0
1356.046997 208.0
1356.230225 168.0
1356.318237 156.0
1356.464844 200.0
1357.703857 164.0
1357.938599 224.0
1358.224609 148.0
1358.826172 156.0
1359.471802 108.0
1360.265381 108.0
1361.608154 168.0
1362.298584 176.0
1362.754028 204.0
1362.908325 156.0
1364.201904 228.0
1364.679688 148.0
1365.076782 160.0
1365.142944 104.0
1365.753418 136.0
1365.841675 168.0
1366.466919 168.0
1366.879028 140.0
1367.276367 144.0
1367.3573 156.0
1367.504517 96.0
1367.644409 148.0
1368.034546 200.0
1368.513062 116.0
1368.601318 220.0
1368.969604 60.0
1369.043213 184.0
1369.138916 176.0
1369.300903 188.0
1369.396729 60.0
1369.845947 104.0
1370.11853 356.0
1371.474487 148.0
1371.709595 176.0
1371.784058 168.0
1372.241089 132.0
1372.572876 232.0
1372.948975 112.0
1373.863525 140.0
1374.244263 188.0
1374.630859 64.0
1375.07373 200.0
1375.295044 100.0
1375.627319 124.0
1375.929932 168.0
1376.092407 164.0
1376.550171 128.0
1376.616577 200.0
1377.562012 84.0
1378.138184 160.0
1378.736816 156.0
1379.838135 152.0
1380.111694 104.0
1380.562744 184.0
1381.324585 212.0
1381.531616 56.0
1382.241943 172.0
1382.375122 28.0
1382.47876 112.0
1382.552734 128.0
1382.730347 176.0
1383.019043 188.0
1383.137451 200.0
1383.537109 164.0
1383.759277 152.0
1384.55896 136.0
1384.810791 192.0
1384.892212 236.0
1385.158936 180.0
1385.457397 160.0
1385.650391 196.0
1386.833496 104.0
1387.130005 148.0
1387.834229 88.0
1388.056641 164.0
1388.270386 228.0
1388.345947 208.0
1388.4646 212.0
1389.443604 172.0
1389.517822 128.0
1389.592041 152.0
1389.643921 176.0
1389.837158 120.0
1389.955566 236.0
1390.007568 184.0
1390.319214 64.0
1390.482544 108.0
1390.779419 100.0
1391.595947 124.0
1391.840942 152.0
1391.991211 184.0
1392.234497 196.0
1392.9104 196.0
1393.056152 160.0
1393.452759 104.0
1393.578979 60.0
1393.668213 120.0
1393.891113 160.0
1394.336914 112.0
1394.976196 144.0
1395.266113 208.0
1395.422241 160.0
1395.82373 180.0
1395.980835 152.0
1396.314575 148.0
1396.374023 184.0
1396.86499 124.0
1397.036011 68.0
1397.430298 284.0
1398.263794 172.0
1398.814575 164.0
1398.963379 48.0
1399.186768 228.0
1399.3396 188.0
1399.782349 136.0
1399.931274 156.0
1400.109985 184.0
1400.32605 220.0
1400.463257 172.0
1400.579224 152.0
1401.003906 112.0
1401.152832 212.0
1401.547729 144.0
1402.359985 132.0
1402.93396 108.0
1403.083008 148.0
1403.299316 148.0
1403.634766 80.0
1403.746704 188.0
1403.933105 240.0
1404.171753 184.0
1404.921875 184.0
1405.395142 52.0
1405.574219 176.0
1405.768188 160.0
1406.653442 176.0
1406.805664 128.0
1406.925049 296.0
1407.134155 188.0
1407.709106 76.0
1407.880859 128.0
1407.954346 108.0
1409.124512 180.0
1409.240234 168.0
1409.471924 156.0
1409.796753 172.0
1410.279053 236.0
1410.562988 168.0
1410.660278 76.0
1410.7948 164.0
1410.921875 144.0
1411.00415 108.0
1411.071411 32.0
1411.475098 104.0
1411.559937 216.0
1412.65686 156.0
1412.716675 132.0
1413.172974 200.0
1414.497681 220.0
1414.759644 120.0
1415.777954 144.0
1416.107422 188.0
1416.317139 140.0
1416.414307 180.0
1416.856445 128.0
1417.568359 132.0
1417.785645 128.0
1418.400146 180.0
1418.580078 128.0
1419.007446 140.0
1419.134888 116.0
1419.209839 168.0
1419.989746 204.0
1420.171631 164.0
1420.46228 120.0
1420.67981 188.0
1421.595215 176.0
1421.670166 116.0
1421.745239 176.0
1422.150513 124.0
1422.540894 136.0
1422.946289 152.0
1423.006348 192.0
1423.201538 64.0
1423.539429 164.0
1423.892334 180.0
1424.005005 164.0
1424.368896 180.0
1424.904541 164.0
1424.996582 240.0
1425.332886 152.0
1425.853149 180.0
1426.078735 140.0
1426.229004 164.0
1426.401855 76.0
1426.86792 148.0
1427.147583 172.0
1427.319092 140.0
1427.396484 200.0
1427.612305 80.0
1427.928223 152.0
1428.016724 152.0
1428.138794 160.0
1428.281738 104.0
1428.46228 140.0
1428.906128 104.0
1429.584961 148.0
1429.771362 128.0
1429.854248 56.0
1430.07251 112.0
1430.13269 56.0
1430.983276 64.0
1431.042603 188.0
1431.435059 224.0
1431.547974 192.0
1431.608276 168.0
1431.781494 168.0
1431.999878 156.0
1432.466919 216.0
1432.66272 112.0
1432.723022 52.0
1433.6875 192.0
1434.282837 212.0
1434.953735 200.0
1435.285522 152.0
1435.458984 176.0
1435.587158 84.0
1435.76062 228.0
1436.311157 212.0
1437.533447 32.0
1437.835205 152.0
1437.956055 140.0
1438.031494 196.0
1438.106934 184.0
1438.491943 144.0
1438.718384 156.0
1438.778809 104.0
1438.861816 76.0
1439.46582 96.0
1439.737671 212.0
1440.01709 152.0
1440.198364 112.0
1440.281494 188.0
1440.379639 176.0
1440.447632 128.0
1440.613892 160.0
1440.802734 112.0
1441.301392 88.0
1441.399536 144.0
1441.452515 232.0
1441.528076 152.0
1441.636841 224.0
1441.964722 128.0
1442.117554 208.0
1442.347168 124.0
1442.729736 116.0
1443.054321 212.0
1443.463135 224.0
1443.65979 120.0
1444.053101 156.0
1444.121094 104.0
1444.279907 40.0
1444.431274 168.0
1444.854858 204.0
1445.028809 232.0
1445.165039 248.0
1445.399658 104.0
1445.558472 112.0
1445.984009 200.0
1446.095825 80.0
1448.17041 68.0
1448.698242 196.0
1449.268799 132.0
1449.420288 132.0
1449.651123 200.0
1449.746216 188.0
1449.973511 124.0
1450.064453 184.0
1450.200928 196.0
1450.253906 176.0
1450.617798 112.0
1450.732056 168.0
1450.979248 112.0
1451.216675 120.0
1451.846069 136.0
1452.035645 172.0
1452.839722 204.0
1453.567993 120.0
1453.780518 144.0
1456.582031 144.0
1457.060669 224.0
1457.533569 168.0
1457.797607 104.0
1457.942017 76.0
1458.154907 156.0
1458.244873 124.0
1458.815063 180.0
1459.933838 160.0
1460.123901 156.0
1460.352051 176.0
1460.534668 192.0
1460.953003 152.0
1461.195801 144.0
1461.250488 148.0
1461.462769 228.0
1461.873657 192.0
1462.223755 296.0
1462.368286 192.0
1462.649902 96.0
1463.799561 136.0
1463.868042 180.0
1464.088867 156.0
1464.271729 212.0
1464.553467 216.0
1465.132446 168.0
1465.28064 264.0
1466.062012 104.0
1467.304565 144.0
1467.464478 108.0
1468.112671 188.0
1468.791382 140.0
1469.340698 216.0
1470.676025 148.0
1470.7677 208.0
1471.080566 100.0
1471.424194 152.0
1471.515747 116.0
1471.851685 188.0
1472.218262 128.0
1473.081299 124.0
1473.188232 168.0
1473.799438 200.0
1474.861694 128.0
1476.169067 44.0
1476.237793 156.0
1476.406128 96.0
1476.727295 108.0
1477.679321 176.0
1477.821167 152.0
1477.928345 144.0
1478.081299 180.0
1478.770142 188.0
1478.961426 144.0
1479.045654 204.0
1480.262939 164.0
1480.523315 152.0
1480.885864 80.0
1481.365845 92.0
1481.427124 112.0
1481.69519 208.0
1481.83313 188.0
1482.102173 132.0
1482.254517 48.0
1482.591675 212.0
1482.867554 104.0
1483.536011 188.0
1483.879395 208.0
1484.354858 140.0
1484.515869 180.0
1484.577148 228.0
1484.630859 212.0
1485.160034 148.0
1485.221436 192.0
1485.750732 160.0
1485.804443 172.0
1486.433594 176.0
1486.671387 144.0
1486.946533 156.0
1487.116577 192.0
1487.208618 164.0
1487.554077 132.0
1487.769043 180.0
1487.991699 148.0
1488.744141 68.0
1489.484497 140.0
1489.927002 136.0
1490.609253 140.0
1490.887451 160.0
1491.010376 172.0
1491.128174 164.0
1491.348633 128.0
1491.494629 156.0
1491.671387 140.0
1492.301758 80.0
1492.455566 216.0
1492.932373 236.0
1493.046631 148.0
1493.170776 224.0
1493.278442 192.0
1493.516846 72.0
1494.016846 116.0
1494.155273 100.0
1494.663086 164.0
1494.817017 96.0
1495.063232 156.0
1495.378784 120.0
1495.608398 120.0
1495.863647 164.0
1495.940674 192.0
1496.056152 140.0
1496.364136 196.0
1496.471924 188.0
1496.548828 148.0
1496.818359 104.0
1497.295776 180.0
1497.765625 124.0
1498.081421 168.0
1498.197021 136.0
1498.512817 176.0
1498.613037 152.0
1498.88269 192.0
1498.952026 128.0
1499.237183 136.0
1499.337402 148.0
1499.399048 184.0
1499.599365 164.0
1500.077271 184.0
1500.146606 196.0
1500.215332 136.0
1500.308594 148.0
1500.840576 100.0
1501.1875 72.0
1501.594849 160.0
1501.889282 152.0
1502.166992 136.0
1502.653076 176.0
1502.984863 200.0
1503.108276 152.0
1503.162231 172.0
1503.362915 152.0
1503.656128 32.0
1503.717896 136.0
1504.080688 216.0
