>compound MLS002637808-01!(5-ethenyl-1-azabicyclo[2.2.2]octan-2-yl)-quinolin-4-ylmethanol
>formula C19H22N2O
>ionization [M+H]+
>parentmass 295.181152
#inchi InChI=1S/C19H22N2O/c1-2-13-12-21-10-8-14(13)11-18(21)19(22)16-7-9-20-17-6-4-3-5-15(16)17/h2-7,9,13-14,18-19,22H,1,8,10-12H2
#inchikey KMPWYEUPVWOPIM
#Ion_Source LC-ESI
#Instrument qTof
#Compound_Source NIH Natural Product Library
#PI Dorrestein
#Data_Collector VVP/LMS
#Scan -1
#Precursor_MZ 295.181
#ExactMass 294.173
#Charge 1
#CAS_Number N/A
#Pubmed_ID N/A
#Smiles OC(C1CC2CCN1CC2C=C)c3ccnc4ccccc34
#INCHI_AUX N/A
#Library_Class 1
#SpectrumID CCMSLIB00000080051
#IonMode Positive
#UpdateWorkflowName UPDATE-SINGLE-ANNOTATED-GOLD
#LibraryQualityString Gold
#TaskID b1d8e8f6646f4e71acdff9ca3d919d08
##Scan# 1273
#SpectrumFile p2-E03_GE3_01_18027.mzXML
#LibraryName NIH_Natural_Products_Library.mgf
#MQScore -1
#Organism NIH_Natural_Products_Library
#TIC_Query 0
#RT_Query -1
#MZErrorPPM -1
#SharedPeaks 0
#MassDiff 0
#LibMZ -1
#SpecMZ 295.181
#SpecCharge 0
#internalFilename spec-00000.mgf

>collision 10
95.035881 100.0
95.072449 348.0
95.105743 184.0
95.533234 156.0
95.560471 176.0
95.784355 84.0
95.887619 96.0
96.049446 124.0
96.082909 132.0
96.106026 132.0
96.248512 148.0
96.268044 248.0
96.457558 96.0
96.919426 160.0
96.978218 152.0
97.121353 176.0
97.170395 240.0
97.313667 120.0
97.407936 184.0
97.567108 200.0
97.809074 168.0
97.836632 128.0
98.041481 140.0
98.351128 216.0
98.683006 176.0
98.849159 156.0
99.719772 76.0
100.028076 188.0
100.183403 120.0
100.302963 240.0
100.432571 144.0
100.482445 164.0
100.510376 200.0
100.821892 236.0
101.047852 204.0
101.414307 156.0
101.560677 172.0
101.683067 164.0
101.759346 188.0
101.863777 228.0
101.930077 128.0
101.952179 232.0
102.030571 144.0
102.046654 204.0
102.215614 104.0
102.493492 188.0
102.559998 140.0
102.668869 148.0
102.745514 40.0
102.779816 184.0
102.850449 232.0
102.894859 172.0
103.054649 352.0
103.210052 48.0
103.246452 132.0
103.390091 156.0
103.527748 48.0
103.811462 164.0
103.914909 144.0
104.056976 196.0
104.098953 184.0
104.321083 160.0
104.335312 224.0
104.390633 136.0
104.489876 212.0
105.023598 148.0
105.068382 336.0
105.894295 192.0
106.069405 252.0
106.164825 168.0
106.248917 116.0
106.324844 148.0
106.828247 172.0
106.842644 120.0
107.078102 216.0
107.225639 148.0
107.81382 140.0
107.983345 160.0
108.082245 752.0
108.312447 136.0
108.382881 76.0
108.56945 88.0
108.893204 52.0
108.913979 208.0
109.085815 236.0
109.213287 204.0
109.362267 160.0
109.444283 148.0
109.908112 216.0
109.982147 132.0
110.095917 688.0
110.330994 100.0
110.374901 116.0
110.441826 56.0
110.628059 180.0
110.818642 88.0
111.303162 152.0
111.719307 120.0
111.826622 176.0
112.420937 208.0
112.469475 192.0
112.731361 212.0
112.758835 140.0
112.87088 124.0
113.311127 148.0
113.342911 120.0
114.213333 212.0
115.054314 808.0
115.106308 176.0
115.127663 188.0
115.24942 48.0
115.709267 68.0
115.786354 120.0
116.049835 196.0
116.084229 144.0
116.63385 64.0
116.702637 172.0
116.934967 144.0
117.066948 332.0
117.195534 112.0
117.950874 96.0
118.037354 108.0
118.061974 176.0
118.216896 184.0
118.786713 56.0
119.05368 144.0
119.071053 208.0
119.08931 200.0
119.290504 200.0
119.90213 184.0
120.080566 248.0
120.10054 128.0
120.219093 164.0
120.268547 144.0
120.44323 64.0
120.607101 100.0
120.650826 72.0
120.762344 212.0
120.777657 64.0
120.976784 52.0
121.068741 204.0
121.086266 172.0
121.621239 128.0
121.746384 192.0
122.094894 308.0
122.230003 156.0
122.547165 184.0
122.569412 144.0
122.829254 144.0
123.097206 244.0
123.118385 168.0
123.133842 136.0
123.273026 136.0
123.744164 140.0
123.903618 120.0
124.025497 80.0
124.047668 100.0
124.074272 44.0
124.113243 276.0
124.187363 64.0
124.251694 160.0
124.484749 124.0
124.682465 76.0
124.798058 52.0
124.833633 52.0
124.920372 188.0
124.971542 152.0
125.016045 100.0
125.521713 120.0
125.56855 64.0
125.648849 96.0
125.88768 200.0
126.048515 228.0
126.090782 136.0
126.372734 152.0
126.531639 220.0
127.053818 168.0
127.417519 96.0
127.810982 44.0
128.049759 1484.0
128.182526 180.0
129.056656 720.0
129.182709 92.0
129.230225 64.0
129.279999 120.0
129.825958 168.0
129.996094 204.0
130.018799 188.0
130.065125 5492.0
130.152725 52.0
130.179977 100.0
130.239029 52.0
130.287704 140.0
130.382156 44.0
130.659561 36.0
130.800659 188.0
131.071411 840.0
131.514099 96.0
131.555191 172.0
131.918411 76.0
132.037308 56.0
132.082169 452.0
132.254669 192.0
132.424088 44.0
132.508804 188.0
132.517822 184.0
132.614258 192.0
132.861908 236.0
132.960587 144.0
133.048981 132.0
133.086838 152.0
133.341827 160.0
133.81691 124.0
133.836411 108.0
134.096573 840.0
134.128998 172.0
134.193542 36.0
134.232742 112.0
134.320053 120.0
134.601944 164.0
134.819092 124.0
134.83989 56.0
135.080353 104.0
135.104309 312.0
135.249268 200.0
135.365021 188.0
135.399765 136.0
135.501678 80.0
135.638092 176.0
135.680145 56.0
135.782166 40.0
136.112976 928.0
136.246399 44.0
136.297516 92.0
136.413727 84.0
136.469513 60.0
136.497421 200.0
136.643951 88.0
137.113525 132.0
137.219223 172.0
137.242538 204.0
137.289169 160.0
137.440796 180.0
137.494476 104.0
137.548157 88.0
137.655548 124.0
137.699921 152.0
137.733063 236.0
138.099579 64.0
138.13147 380.0
138.410217 196.0
139.046127 100.0
139.147064 244.0
139.313797 232.0
139.878174 164.0
139.920547 88.0
139.974701 140.0
140.050064 140.0
140.066559 56.0
140.156082 124.0
140.269211 156.0
140.342285 132.0
140.521545 176.0
140.729233 108.0
141.301193 156.0
141.355621 152.0
141.528412 208.0
141.585251 224.0
141.845871 164.0
141.881439 148.0
141.973907 76.0
142.066162 2664.0
142.403473 60.0
142.510376 64.0
142.61969 148.0
142.679123 92.0
142.802765 180.0
142.845581 156.0
142.935928 168.0
142.990723 112.0
143.072388 2316.0
143.276459 40.0
143.462357 168.0
143.870285 156.0
143.994446 180.0
144.080109 1716.0
144.439026 144.0
145.081482 160.0
145.253448 184.0
145.990799 136.0
146.061111 400.0
146.094528 184.0
146.154358 88.0
146.23378 112.0
146.267471 124.0
146.476974 100.0
146.98085 188.0
147.063858 204.0
147.442078 112.0
147.669342 116.0
147.959717 112.0
148.075943 148.0
148.116531 228.0
148.495239 200.0
148.742722 180.0
149.099762 152.0
149.172684 68.0
149.29425 192.0
149.725006 152.0
149.895523 184.0
150.088089 208.0
150.141739 188.0
150.622559 200.0
150.87915 180.0
150.906036 124.0
150.937836 196.0
151.128616 160.0
151.539948 88.0
152.035278 136.0
152.066666 412.0
152.14328 132.0
152.165375 116.0
153.067856 188.0
153.378159 48.0
153.407745 124.0
153.605011 128.0
153.99501 128.0
154.065765 3332.0
154.103699 144.0
154.16301 360.0
154.190186 104.0
154.23468 68.0
154.430618 280.0
154.454742 52.0
154.518219 140.0
154.912689 140.0
155.036575 128.0
155.071487 1004.0
155.153076 100.0
155.210861 144.0
155.480484 144.0
155.537582 168.0
155.72876 196.0
156.043381 400.0
156.080215 5960.0
156.171173 32.0
156.191086 148.0
156.218445 108.0
156.305527 52.0
156.34285 44.0
156.367737 44.0
156.417511 88.0
156.449875 104.0
156.520081 20.0
156.601776 80.0
156.63913 100.0
156.666534 72.0
156.806076 196.0
157.045425 264.0
157.087311 196.0
157.212585 72.0
157.389816 72.0
157.490631 184.0
157.562149 224.0
157.81958 56.0
157.9021 132.0
157.98465 92.0
158.059738 1076.0
158.094681 172.0
158.212372 140.0
158.33757 120.0
159.068085 892.0
159.094193 64.0
159.200272 192.0
159.745682 208.0
159.853867 64.0
160.040131 60.0
160.07312 484.0
160.091339 144.0
160.221481 168.0
160.60968 92.0
160.690414 108.0
161.047607 180.0
161.195404 224.0
161.85054 56.0
162.053177 196.0
162.385254 128.0
163.101257 172.0
163.548935 164.0
164.007416 108.0
164.134872 100.0
164.190979 36.0
164.474182 140.0
165.279205 120.0
166.006699 108.0
166.032333 112.0
166.066467 948.0
166.122238 1252.0
166.222168 160.0
166.286331 176.0
166.304291 144.0
166.699799 76.0
166.836014 136.0
167.072845 3328.0
167.097488 360.0
167.139511 148.0
168.031494 164.0
168.081085 4396.0
168.185822 124.0
168.207718 60.0
168.302002 76.0
168.345886 92.0
168.38205 52.0
168.562881 228.0
168.622314 92.0
169.078705 1092.0
169.142212 96.0
169.206924 52.0
169.235397 76.0
169.28978 52.0
169.776276 176.0
169.904068 160.0
169.922241 208.0
170.067596 444.0
170.096054 620.0
170.119476 128.0
170.293442 124.0
170.329803 76.0
170.483093 76.0
170.680664 188.0
170.724869 68.0
171.003235 52.0
171.067566 56.0
171.093201 320.0
171.143814 168.0
171.298645 176.0
171.910172 64.0
171.980637 56.0
172.076172 680.0
172.108551 168.0
172.605011 212.0
172.973907 60.0
173.04982 96.0
173.084534 176.0
173.689255 84.0
174.089737 284.0
174.12233 140.0
174.253677 208.0
174.537537 120.0
174.684814 188.0
175.598801 204.0
175.965591 144.0
176.597168 80.0
176.790298 120.0
176.962357 76.0
177.073563 100.0
177.155685 220.0
177.643448 128.0
177.837158 184.0
178.070801 216.0
178.166428 176.0
178.615677 60.0
178.8871 100.0
179.071609 160.0
180.081161 2008.0
180.207214 72.0
180.298065 156.0
180.691132 124.0
180.923965 208.0
180.969482 80.0
181.079971 740.0
181.148911 44.0
181.315033 88.0
181.604599 56.0
181.923904 56.0
182.02594 116.0
182.095795 1148.0
182.399368 20.0
182.633301 132.0
182.697861 124.0
182.748978 88.0
182.802795 44.0
182.910461 84.0
182.940063 140.0
183.001984 136.0
183.093033 824.0
183.260559 144.0
183.56514 208.0
183.967148 108.0
184.040039 44.0
184.076218 1660.0
184.113876 188.0
184.185883 68.0
184.366898 176.0
184.650772 40.0
185.029602 136.0
185.080765 316.0
185.102203 184.0
185.151443 128.0
185.305847 132.0
185.755875 104.0
186.08696 320.0
186.926849 152.0
187.109207 136.0
187.313446 32.0
187.506912 204.0
187.555969 164.0
187.629562 160.0
187.67865 100.0
188.702515 108.0
189.075485 164.0
189.112854 152.0
189.178543 196.0
190.077118 140.0
190.121414 100.0
190.607468 120.0
190.794373 80.0
191.077393 152.0
192.081345 948.0
192.696014 76.0
193.084961 392.0
193.456543 88.0
193.492523 140.0
193.705765 100.0
194.096954 1540.0
194.190826 56.0
195.099045 264.0
195.374146 48.0
195.457611 52.0
195.516052 148.0
195.727615 116.0
195.997803 92.0
196.113647 1012.0
196.18454 96.0
196.315582 232.0
196.346268 60.0
197.106842 1236.0
197.144699 200.0
197.359924 120.0
197.382294 64.0
197.603271 48.0
197.636841 176.0
197.656433 44.0
197.874741 36.0
198.028763 136.0
198.108704 288.0
198.57283 128.0
199.08606 164.0
199.137939 204.0
199.769058 116.0
200.487045 80.0
201.223251 40.0
201.559357 180.0
203.071091 48.0
203.147675 212.0
204.080795 988.0
204.127533 48.0
204.155975 96.0
204.232758 56.0
204.286804 148.0
204.460373 116.0
204.517303 204.0
204.887482 124.0
205.087219 688.0
206.098022 1404.0
206.134338 232.0
206.171494 60.0
206.50885 52.0
206.594666 140.0
206.803543 48.0
207.099854 448.0
208.010284 128.0
208.070572 80.0
208.107452 1168.0
208.15097 52.0
208.550293 136.0
208.599152 112.0
209.053589 196.0
209.085587 136.0
209.112274 464.0
209.206131 180.0
209.29538 48.0
210.1259 372.0
210.160095 248.0
210.304382 100.0
210.523788 56.0
211.093079 120.0
211.124222 184.0
211.761597 104.0
212.110123 112.0
212.750381 116.0
213.023346 120.0
213.087265 232.0
213.119232 124.0
214.127136 100.0
214.586136 136.0
214.857376 104.0
215.715942 108.0
217.089691 216.0
217.491043 124.0
218.096756 296.0
218.181351 140.0
218.428375 208.0
218.451904 32.0
218.860992 120.0
219.077866 176.0
219.102478 820.0
219.541687 184.0
219.880951 144.0
220.112 1080.0
220.176178 52.0
220.341599 172.0
220.805679 152.0
221.051224 36.0
221.108047 984.0
221.566406 140.0
221.773834 104.0
222.122101 668.0
222.310638 140.0
222.36702 76.0
222.681732 44.0
222.70549 76.0
222.800552 60.0
223.122635 1472.0
223.392136 124.0
224.124008 392.0
224.175186 148.0
224.553802 164.0
224.884979 88.0
225.105896 112.0
226.119339 184.0
226.170227 44.0
226.637405 120.0
227.156052 68.0
227.204056 168.0
227.771423 100.0
227.915619 168.0
228.101944 196.0
228.321442 140.0
230.097336 500.0
231.097641 112.0
231.447739 180.0
231.656708 68.0
231.938843 184.0
232.10582 432.0
232.976379 188.0
233.112869 408.0
234.125198 1284.0
234.403275 168.0
234.534317 144.0
235.089401 40.0
235.124054 1652.0
235.493164 188.0
236.002716 128.0
236.136612 992.0
236.394257 136.0
236.469513 92.0
237.104736 168.0
237.133835 404.0
237.540115 220.0
238.156891 384.0
238.768707 80.0
238.820999 96.0
238.993759 256.0
239.122513 100.0
239.147141 160.0
239.470428 116.0
239.710724 144.0
240.142975 132.0
240.457016 152.0
241.129272 136.0
241.260132 204.0
241.621964 124.0
243.248917 88.0
244.108841 148.0
245.326553 176.0
246.126556 292.0
246.825531 152.0
247.130249 164.0
247.686172 76.0
248.141159 1024.0
248.209549 164.0
248.441635 68.0
248.476151 132.0
248.501251 88.0
249.143433 572.0
249.352234 44.0
249.44339 168.0
250.155823 292.0
250.273941 84.0
250.462891 88.0
250.664536 40.0
252.137009 604.0
252.444901 160.0
252.584061 168.0
253.133514 112.0
253.63533 208.0
254.329971 88.0
254.803131 128.0
255.023605 84.0
255.162262 180.0
255.480286 120.0
256.098114 192.0
257.46283 108.0
258.204285 180.0
258.709839 140.0
258.805878 192.0
260.017609 176.0
260.146332 152.0
260.855927 104.0
261.125946 176.0
261.149811 448.0
262.142883 148.0
263.127106 128.0
263.156158 156.0
264.106232 152.0
264.633728 56.0
264.840973 184.0
265.172546 372.0
265.917419 60.0
266.115448 128.0
266.151337 480.0
266.22583 156.0
266.670929 92.0
267.186615 336.0
267.564178 144.0
268.194183 116.0
268.233276 32.0
268.97049 148.0
271.030823 80.0
271.289734 52.0
275.149811 248.0
275.340179 244.0
276.158112 208.0
276.265686 96.0
276.487366 92.0
276.659485 100.0
276.689301 176.0
276.722382 48.0
276.854858 60.0
276.891266 84.0
277.124847 136.0
277.170074 8468.0
277.223785 76.0
277.294128 80.0
277.321991 88.0
277.431366 128.0
277.517578 48.0
277.623688 188.0
277.766296 44.0
277.822693 48.0
278.171783 1204.0
278.44339 172.0
278.649353 92.0
278.677826 84.0
278.845398 32.0
278.921844 36.0
279.064789 88.0
279.171021 168.0
279.347473 204.0
279.57373 32.0
279.84668 36.0
280.246368 52.0
280.43631 72.0
280.763031 92.0
281.533936 96.0
282.152069 48.0
282.95166 56.0
284.513947 160.0
284.648224 92.0
285.727142 84.0
286.400421 148.0
287.243103 176.0
287.445526 136.0
288.168091 100.0
290.819611 192.0
291.047089 180.0
291.21347 120.0
291.400299 152.0
291.478455 92.0
291.624603 32.0
293.002747 128.0
293.156067 232.0
293.479889 44.0
293.781311 116.0
293.988159 56.0
294.14856 136.0
294.26123 112.0
294.449036 48.0
294.616394 160.0
294.660797 164.0
294.74826 88.0
294.971802 28.0
295.060791 128.0
295.098267 116.0
295.181152 26424.0
295.365021 44.0
295.433441 64.0
295.483856 60.0
295.512115 116.0
295.599152 84.0
295.653412 180.0
295.710602 116.0
295.739288 64.0
295.799591 100.0
295.885162 48.0
295.933105 36.0
295.974182 68.0
296.018707 44.0
296.087189 52.0
296.184418 4812.0
296.491455 68.0
296.525726 44.0
296.55658 56.0
296.727966 36.0
296.786255 48.0
296.820557 76.0
296.945251 88.0
296.988586 140.0
297.116211 100.0
297.185486 872.0
297.372864 56.0
297.473969 52.0
297.55481 68.0
297.681854 84.0
297.832947 48.0
297.899628 136.0
297.956635 120.0
298.036621 56.0
298.159363 104.0
298.204041 64.0
298.362152 124.0
298.413727 36.0
298.63382 48.0
298.915894 64.0
299.132721 80.0
299.170593 52.0
299.287659 104.0
299.511139 76.0
300.783875 60.0
303.68689 68.0
304.32193 84.0
304.940277 200.0
305.009796 124.0
307.765472 40.0
308.14267 104.0
308.67746 40.0
309.664337 76.0
311.934509 56.0
312.106781 68.0
312.52887 48.0
313.11673 64.0
328.501495 60.0
340.609009 100.0
341.4617 84.0
347.523651 100.0
356.474121 88.0
356.718414 80.0
356.865051 32.0
358.099335 84.0
358.144531 128.0
358.284119 68.0
392.857605 88.0
396.221863 112.0
444.324036 72.0
466.738525 64.0
469.835205 80.0
474.362915 48.0
476.832642 76.0
491.300201 68.0
493.455383 112.0
508.601898 96.0
518.578979 44.0
521.424622 52.0
534.67395 44.0
541.432678 124.0
595.679688 36.0
599.518494 92.0
602.260315 80.0
606.556458 100.0
615.59436 132.0
642.014282 100.0
650.549927 84.0
652.078857 156.0
655.23877 144.0
656.023621 32.0
698.537842 100.0
713.875916 232.0
730.730347 160.0
749.25708 80.0
808.168335 116.0
815.165405 232.0
826.615723 124.0
854.944702 204.0
855.36377 168.0
893.052673 48.0
903.132568 188.0
904.652466 184.0
913.004456 104.0
931.888184 184.0
934.758118 172.0
947.353638 44.0
953.200623 44.0
953.698364 216.0
968.370422 100.0
976.817993 144.0
986.470947 48.0
1012.121094 192.0
1026.43689 100.0
1027.017212 104.0
1029.250854 80.0
1029.838379 212.0
1032.656982 220.0
1058.741455 176.0
1066.039551 220.0
1089.594482 176.0
1092.789673 156.0
1093.046265 184.0
1100.071899 52.0
1103.99646 116.0
1104.472656 184.0
1114.031128 56.0
1135.698364 192.0
1141.937988 156.0
1142.018677 212.0
1151.987915 136.0
1153.075684 184.0
1154.840332 204.0
1160.115112 116.0
1164.029785 164.0
1169.611328 192.0
1171.933594 180.0
1177.254028 188.0
1179.187378 140.0
1181.984253 152.0
1190.841431 136.0
1199.63501 176.0
1206.607422 220.0
1208.267212 192.0
1210.759033 68.0
1213.406006 92.0
1214.251953 60.0
1216.07666 152.0
1216.979004 124.0
1217.499878 184.0
1217.93042 216.0
1219.820435 136.0
1227.722778 176.0
1231.456543 80.0
1241.737671 272.0
1241.906006 48.0
1252.153198 144.0
1254.259888 36.0
1254.584106 176.0
1255.827881 244.0
1260.117065 168.0
1260.79541 108.0
1263.383179 172.0
1268.595215 48.0
1270.304199 208.0
1274.194458 172.0
1277.107544 104.0
1277.862915 84.0
1278.403687 156.0
1278.852051 176.0
1279.891357 124.0
1289.153076 224.0
1289.450317 88.0
1294.092773 136.0
1295.933472 188.0
1296.227295 124.0
1299.195435 180.0
1300.889038 148.0
1302.016357 136.0
1305.242798 156.0
1310.49707 88.0
1313.171509 164.0
1313.813477 236.0
1314.15979 116.0
1319.676636 124.0
1322.079224 200.0
1324.193237 204.0
1327.664551 124.0
1328.440674 164.0
1337.210693 92.0
1339.33667 148.0
1343.506226 152.0
1349.948242 216.0
1355.687378 112.0
1360.72644 144.0
1364.906982 140.0
1366.024902 136.0
1369.616943 148.0
1370.898804 164.0
1380.46582 196.0
1380.828125 108.0
1385.180298 172.0
1387.329224 112.0
1387.40332 92.0
1388.634277 196.0
1396.695312 140.0
1397.488892 196.0
1399.178223 76.0
1399.262573 88.0
1403.559204 208.0
1403.969238 132.0
1404.513794 212.0
1404.730103 144.0
1407.842407 148.0
1410.62915 204.0
1411.122559 176.0
1413.336426 108.0
1414.212036 228.0
1414.975586 160.0
1415.83667 180.0
1417.469727 196.0
1417.956787 180.0
1418.44397 80.0
1421.361328 56.0
1422.674683 116.0
1425.077881 132.0
1427.799072 148.0
1428.618896 184.0
1437.524414 156.0
1437.622559 176.0
1439.366211 52.0
1443.953247 208.0
1444.399414 188.0
1445.761353 80.0
1448.714111 136.0
1449.032349 184.0
1449.759766 148.0
1450.873901 184.0
1452.344971 176.0
1455.707031 128.0
1457.036255 192.0
1458.099976 132.0
1460.867676 152.0
1461.06543 256.0
1462.975464 152.0
1464.696411 220.0
1465.892578 152.0
1466.708008 176.0
1466.967163 164.0
1478.898315 180.0
1479.679077 152.0
1481.662598 204.0
1483.931152 192.0
1489.648438 224.0
1491.684692 164.0
1495.007324 172.0
1495.923218 196.0
1499.134888 216.0
1501.825439 244.0
