>compound MLS002153284-01!
>formula C10H12ClN5O4
>ionization [M+H]+
>parentmass 302.06505799609056
#inchi InChI=1S/C10H12ClN5O4/c11-10-14-7(12)4-8(15-10)16(2-13-4)9-6(19)5(18)3(1-17)20-9/h2-3,5-6,9,17-19H,1H2,(H2,12,14,15)/t3-,5-,6-,9-/m1/s1
#inchikey BIXYYZIIJIXVFW
#Ion_Source LC-ESI
#Instrument qTof
#Compound_Source NIH Pharmacologically Active Library
#PI Dorrestein
#Data_Collector VP/LMS
#Scan -1
#Precursor_MZ 302.071
#ExactMass 301.058
#Charge 1
#CAS_Number N/A
#Pubmed_ID N/A
#Smiles Nc1nc(Cl)nc2n(cnc12)[C@@H]3O[C@H](CO)[C@@H](O)[C@H]3O
#INCHI_AUX N/A
#Library_Class 1
#SpectrumID CCMSLIB00000086051
#IonMode Positive
#UpdateWorkflowName UPDATE-SINGLE-ANNOTATED-GOLD
#LibraryQualityString Gold
#TaskID d252d724072548979f1f6f1ced849daf
##Scan# 1131
#SpectrumFile p5-C04_GC4_01_18449.mzXML
#LibraryName Pharm_Active_Library.mgf
#MQScore -1
#Organism Pharm_Active_Library
#TIC_Query 0
#RT_Query -1
#MZErrorPPM -1
#SharedPeaks 0
#MassDiff 0
#LibMZ -1
#SpecMZ 302.071
#SpecCharge 0
#internalFilename spec-00000.mgf

>collision 10
45.128704 68.0
45.654339 60.0
46.312946 108.0
46.615482 124.0
47.652561 212.0
47.824451 96.0
48.182976 204.0
48.441666 148.0
49.007092 140.0
49.185596 144.0
49.571594 140.0
50.051994 148.0
50.761333 184.0
50.897552 236.0
52.274101 128.0
53.701099 172.0
53.829521 204.0
54.635643 112.0
55.55896 184.0
57.836754 216.0
57.897316 128.0
58.469646 168.0
58.606697 168.0
58.792728 172.0
59.064682 144.0
59.587421 168.0
59.704239 160.0
60.811966 164.0
61.160118 56.0
62.011341 184.0
62.052097 248.0
62.87476 156.0
64.760231 176.0
65.008865 128.0
66.010826 152.0
66.169388 56.0
66.42868 116.0
66.940636 144.0
67.087265 144.0
69.147057 172.0
69.249702 148.0
70.795212 140.0
70.842102 248.0
71.254791 140.0
72.180115 176.0
72.822388 196.0
72.841072 188.0
73.128418 212.0
73.369492 176.0
73.428276 100.0
73.727036 148.0
73.877495 128.0
74.15831 112.0
74.312645 204.0
74.809311 120.0
75.309357 228.0
76.718346 188.0
77.504807 248.0
78.603775 128.0
78.93409 228.0
80.347885 148.0
80.608566 240.0
82.542732 120.0
82.568054 220.0
82.674789 200.0
83.420227 184.0
83.906288 160.0
85.207504 68.0
86.540955 152.0
86.939484 176.0
87.07872 144.0
87.255241 112.0
88.227058 112.0
88.683258 128.0
89.291557 180.0
90.092636 204.0
91.060547 164.0
91.416054 168.0
91.614059 48.0
92.02494 160.0
92.324081 212.0
92.902519 148.0
92.944725 120.0
94.493813 196.0
96.016701 108.0
96.391502 204.0
99.158432 216.0
99.897057 92.0
99.934853 244.0
100.726288 100.0
101.394554 188.0
101.422607 232.0
102.018784 156.0
102.30645 144.0
102.356781 140.0
103.042542 172.0
103.21434 128.0
104.118118 124.0
104.88311 192.0
105.405556 160.0
105.775726 124.0
105.888336 160.0
106.06044 140.0
107.035103 744.0
108.038582 188.0
108.088982 88.0
108.167625 120.0
108.880859 184.0
111.757225 88.0
111.845612 164.0
112.366112 112.0
113.309021 204.0
113.68856 136.0
114.049606 68.0
114.187798 304.0
114.255867 184.0
114.453804 212.0
114.905647 36.0
117.844879 224.0
118.435448 100.0
118.821304 52.0
119.340378 228.0
120.05677 160.0
121.311775 160.0
122.648232 184.0
123.478386 144.0
124.096191 144.0
124.142761 96.0
124.773338 164.0
127.037804 168.0
127.325096 164.0
128.001968 160.0
128.558762 80.0
128.82518 224.0
129.453934 112.0
130.002518 172.0
130.249985 60.0
131.46347 112.0
133.049637 188.0
133.318375 176.0
133.358017 204.0
133.48848 84.0
133.978714 160.0
134.047073 12100.0
134.116974 64.0
134.264526 60.0
134.336029 76.0
134.423706 64.0
134.668411 56.0
134.807953 72.0
135.045547 928.0
135.258011 56.0
135.32515 168.0
135.583038 72.0
135.92778 96.0
136.078644 92.0
136.764404 80.0
137.785767 156.0
138.286163 148.0
139.489426 148.0
140.122452 152.0
140.393524 92.0
140.891541 140.0
141.985077 204.0
143.063797 204.0
143.11142 148.0
143.259079 200.0
143.664322 136.0
144.483719 184.0
145.619904 220.0
146.143951 200.0
146.543625 48.0
151.914108 144.0
152.057785 1120.0
152.085876 44.0
152.125153 76.0
152.191437 76.0
152.997833 172.0
153.060638 300.0
153.594177 156.0
153.687912 36.0
153.808838 140.0
154.448792 216.0
157.588547 156.0
164.0495 64.0
164.103027 92.0
166.356888 20.0
168.654556 136.0
169.954559 180.0
170.023651 13852.0
170.245285 52.0
170.419327 52.0
170.466095 64.0
171.023483 1500.0
171.090317 52.0
171.194458 136.0
172.021347 3236.0
172.074402 76.0
172.308212 140.0
172.414551 128.0
172.773544 32.0
173.02623 224.0
173.105957 72.0
174.415085 72.0
175.874298 76.0
175.958771 192.0
177.801041 48.0
189.042542 132.0
190.891403 236.0
193.125244 140.0
193.343811 136.0
201.887863 100.0
211.116623 108.0
212.034332 92.0
212.054611 100.0
216.945724 136.0
221.865921 192.0
232.915543 184.0
246.293945 56.0
263.901855 112.0
280.635315 60.0
283.084534 184.0
331.000427 116.0
348.66864 60.0
387.358765 136.0
504.745605 40.0
777.509888 144.0
794.685364 136.0
895.104675 168.0
1058.408569 100.0
1067.570801 196.0
1086.709351 68.0
1100.867676 132.0
1165.153687 172.0
1175.721191 156.0
1182.144775 132.0
1183.547974 144.0
1185.959351 180.0
1193.380127 144.0
1214.019043 204.0
1224.150757 184.0
1250.853394 116.0
1274.253906 180.0
1295.484741 152.0
1320.960205 92.0
1341.598022 156.0
1345.20166 184.0
1346.362549 212.0
1349.21936 208.0
1357.932983 176.0
1358.783813 152.0
1373.975708 204.0
1375.909302 48.0
1387.427856 120.0
1389.266968 160.0
1392.540283 164.0
1402.920166 148.0
1406.978394 124.0
1412.126709 188.0
1422.886963 164.0
1425.598511 176.0
1427.282227 152.0
1435.678345 48.0
1437.737793 152.0
1439.828857 88.0
1444.136719 140.0
1450.792603 152.0
1462.147827 140.0
1463.822632 132.0
1467.022461 188.0
1478.724243 156.0
1483.856323 216.0
1485.121582 140.0
1486.126587 100.0
1488.413818 84.0
