>compound MLS001158978-01!(3S)-N-[(2R)-1-(1,3-benzodioxol-5-ylamino)-1-oxopropan-2-yl]-1,2,3,4-tetrahydroisoquinoline-3-carboxamide
>formula C20H21N3O4
>ionization [M+H]+
>parentmass 368.161
#inchi InChI=1S/C20H21N3O4/c1-12(19(24)23-15-6-7-17-18(9-15)27-11-26-17)22-20(25)16-8-13-4-2-3-5-14(13)10-21-16/h2-7,9,12,16,21H,8,10-11H2,1H3,(H,22,25)(H,23,24)/t12-,16+/m1/s1
#inchikey HWZNOCCEAGAHOW
#Ion_Source LC-ESI
#Instrument qTof
#Compound_Source NIH Natural Product Library
#PI Dorrestein
#Data_Collector VVP/LMS
#Scan -1
#Precursor_MZ 368.161
#ExactMass 367.153
#Charge 1
#CAS_Number N/A
#Pubmed_ID N/A
#Smiles C[C@@H](NC(=O)[C@@H]1Cc2ccccc2CN1)C(=O)Nc3ccc4OCOc4c3
#INCHI_AUX N/A
#Library_Class 1
#SpectrumID CCMSLIB00000080427
#IonMode Positive
#UpdateWorkflowName UPDATE-SINGLE-ANNOTATED-GOLD
#LibraryQualityString Gold
#TaskID b1d8e8f6646f4e71acdff9ca3d919d08
##Scan# 1459
#SpectrumFile p2-G08_GG8_01_18056.mzXML
#LibraryName NIH_Natural_Products_Library.mgf
#MQScore -1
#Organism NIH_Natural_Products_Library
#TIC_Query 0
#RT_Query -1
#MZErrorPPM -1
#SharedPeaks 0
#MassDiff 0
#LibMZ -1
#SpecMZ 368.161
#SpecCharge 0
#internalFilename spec-00000.mgf

>collision 10
95.006844 140.0
95.061172 188.0
95.088348 168.0
95.169876 160.0
95.207085 124.0
95.2631 92.0
95.321388 184.0
95.401077 124.0
95.445793 212.0
95.556664 132.0
95.710434 172.0
95.778595 120.0
95.809761 148.0
95.971535 160.0
96.024185 160.0
96.115875 72.0
96.137344 232.0
96.43029 132.0
96.510445 56.0
96.621933 176.0
96.708031 168.0
96.725647 52.0
96.888191 132.0
96.935211 100.0
96.962654 160.0
96.978333 168.0
97.003815 184.0
97.052826 68.0
97.141083 68.0
97.233307 208.0
97.253929 196.0
97.305931 52.0
97.339317 148.0
97.402161 156.0
97.465034 132.0
97.529884 92.0
97.612457 116.0
97.649826 92.0
97.773773 156.0
97.855431 160.0
98.084976 128.0
98.367058 148.0
98.440109 200.0
98.521095 228.0
98.556656 64.0
98.643616 108.0
98.782043 152.0
98.830528 168.0
98.877022 176.0
98.971062 152.0
99.039375 140.0
99.080978 224.0
99.215744 220.0
99.275223 128.0
99.342667 124.0
99.414093 216.0
99.437912 236.0
99.532394 148.0
99.596748 128.0
99.804077 224.0
99.843208 60.0
99.882988 40.0
99.97451 160.0
100.016312 176.0
100.095947 144.0
100.143738 184.0
100.183578 192.0
100.249336 48.0
100.364952 76.0
100.424782 100.0
100.439522 232.0
100.496597 156.0
100.554466 168.0
100.578423 140.0
100.610359 60.0
100.626335 200.0
100.739731 184.0
100.854073 164.0
100.950035 72.0
100.978035 76.0
101.014038 216.0
101.040047 200.0
101.062057 152.0
101.302307 148.0
101.31633 180.0
101.346382 204.0
101.401566 164.0
101.623077 112.0
101.715401 212.0
101.729446 172.0
101.986572 112.0
102.05291 92.0
102.081062 200.0
102.155479 92.0
102.185661 184.0
102.20578 124.0
102.282257 48.0
102.31044 176.0
102.380913 96.0
102.411125 144.0
102.431267 228.0
102.455444 124.0
102.699356 192.0
102.717514 100.0
102.731636 200.0
102.86319 168.0
102.921349 180.0
103.014259 212.0
103.053551 1908.0
103.125389 212.0
103.163795 72.0
103.191666 148.0
103.449043 164.0
103.483459 204.0
103.552307 224.0
103.568512 104.0
103.677917 204.0
103.706299 108.0
103.827942 132.0
103.862427 124.0
103.906067 176.0
103.976051 188.0
104.058014 240.0
104.177834 212.0
104.219734 156.0
104.300789 208.0
104.337616 164.0
104.366081 72.0
104.46167 140.0
104.571548 160.0
104.683525 96.0
104.78537 68.0
104.830757 232.0
104.915802 140.0
105.069931 3416.0
105.140182 96.0
105.154465 64.0
105.270836 80.0
105.323936 168.0
105.428139 96.0
105.475143 172.0
105.550789 212.0
105.585556 192.0
105.675568 120.0
105.716492 136.0
105.757423 156.0
105.872078 92.0
105.892555 168.0
106.031876 124.0
106.064613 148.0
106.070747 108.0
106.074921 364.0
106.265648 40.0
106.333366 136.0
106.444229 208.0
106.715454 128.0
106.795662 152.0
107.176521 168.0
107.236282 168.0
107.256897 100.0
107.430115 208.0
107.446617 148.0
107.492012 136.0
107.509315 52.0
107.547737 160.0
107.597092 176.0
107.729454 168.0
107.758377 148.0
107.793503 164.0
107.898918 208.0
107.965088 168.0
108.044838 332.0
108.166801 112.0
108.271378 220.0
108.366669 160.0
108.478584 176.0
108.532486 200.0
108.671455 148.0
108.766922 176.0
108.943436 172.0
109.018234 184.0
109.130699 192.0
109.145035 228.0
109.268433 196.0
109.294807 128.0
109.353073 180.0
109.382217 112.0
109.419685 160.0
109.446754 196.0
109.461334 144.0
109.511314 188.0
109.548805 32.0
109.586311 132.0
109.705101 208.0
109.728035 172.0
109.796852 148.0
109.863602 184.0
109.942886 36.0
109.979454 324.0
110.018593 140.0
110.047264 192.0
110.381584 112.0
110.425499 168.0
110.475708 152.0
110.531586 124.0
110.567772 372.0
110.603355 132.0
110.657784 20.0
110.827438 172.0
110.974159 132.0
111.009018 180.0
111.179733 136.0
111.27636 136.0
111.293091 152.0
111.353989 184.0
111.381294 184.0
111.463234 124.0
111.789177 196.0
111.850212 212.0
111.924767 208.0
111.963646 156.0
111.991295 156.0
112.09874 204.0
112.140892 200.0
112.199913 148.0
112.285225 184.0
112.54805 164.0
112.592392 244.0
112.620148 228.0
112.74028 156.0
112.932671 136.0
113.078873 204.0
113.245934 116.0
113.295349 220.0
113.42392 144.0
113.593559 160.0
113.614777 184.0
113.683769 232.0
113.717064 216.0
113.788803 44.0
113.895103 144.0
113.955254 260.0
114.037346 144.0
114.105377 56.0
114.286163 100.0
114.364906 152.0
114.413864 132.0
114.535248 144.0
114.5672 144.0
114.7313 216.0
114.754753 196.0
114.820854 228.0
114.844322 232.0
114.863518 112.0
114.89978 76.0
114.944588 176.0
114.986656 152.0
115.019997 216.0
115.054543 8632.0
115.149536 40.0
115.177299 164.0
115.412392 112.0
115.435913 188.0
115.527885 56.0
115.593231 236.0
115.615608 160.0
115.664841 48.0
115.681961 84.0
115.776176 152.0
115.870422 68.0
115.99472 308.0
116.057205 984.0
116.107117 76.0
116.18045 204.0
116.222054 128.0
116.243515 220.0
116.464645 160.0
116.499016 120.0
116.535538 224.0
116.554878 124.0
116.578514 168.0
116.612907 104.0
116.731148 120.0
116.789215 180.0
116.819328 172.0
117.02594 160.0
117.05748 7212.0
117.230827 68.0
117.275833 72.0
117.325417 72.0
117.394417 48.0
117.48069 128.0
117.506577 140.0
117.592896 52.0
117.610161 72.0
117.664131 164.0
117.776428 132.0
117.806671 132.0
117.826111 156.0
118.024963 56.0
118.060539 1116.0
118.092003 72.0
118.122284 172.0
118.143913 144.0
118.178535 88.0
118.275917 96.0
118.297569 40.0
118.409882 184.0
118.505478 208.0
118.561821 156.0
118.66153 180.0
118.728752 96.0
118.889297 136.0
118.936142 192.0
118.944618 172.0
118.975792 248.0
119.004723 92.0
119.023888 144.0
119.060799 160.0
119.084694 164.0
119.112389 192.0
119.173759 140.0
119.225914 152.0
119.395485 152.0
119.499901 192.0
119.55648 40.0
119.585381 216.0
119.682739 104.0
119.70887 176.0
119.887505 136.0
119.981232 144.0
120.003036 200.0
120.140434 180.0
120.194977 156.0
120.225533 136.0
120.240807 116.0
120.286644 204.0
120.313095 172.0
120.345589 168.0
120.426216 248.0
120.491928 52.0
120.54528 124.0
120.675514 168.0
120.797989 172.0
120.859245 156.0
120.927094 212.0
120.946793 136.0
121.008087 188.0
121.04969 348.0
121.299461 176.0
121.507797 164.0
121.560455 136.0
121.65834 188.0
121.68338 168.0
121.707527 76.0
121.725098 196.0
121.784393 256.0
121.86348 232.0
121.889847 208.0
121.927208 104.0
122.048897 112.0
122.206482 124.0
122.236778 208.0
122.538948 188.0
122.691017 208.0
122.710861 208.0
122.79245 76.0
122.829948 216.0
122.852013 152.0
122.867455 100.0
122.893929 44.0
123.130135 80.0
123.163261 188.0
123.222908 160.0
123.443947 124.0
123.536842 168.0
123.7006 216.0
123.727165 244.0
123.948654 68.0
123.988548 164.0
124.110474 148.0
124.205833 160.0
124.223579 152.0
124.250206 184.0
124.283485 136.0
124.347839 88.0
124.534348 104.0
125.090248 72.0
125.181534 184.0
125.309052 208.0
125.330772 132.0
125.500175 140.0
125.640686 128.0
125.787979 116.0
126.109627 180.0
126.351143 80.0
126.456314 272.0
126.626472 232.0
126.776581 204.0
126.80571 128.0
126.866234 164.0
126.922287 116.0
126.973862 312.0
126.994049 156.0
127.0793 208.0
127.137161 168.0
127.216202 128.0
127.254364 52.0
127.374207 176.0
127.654335 136.0
127.727074 284.0
127.933334 68.0
127.949097 184.0
128.044342 376.0
128.165314 60.0
128.235184 188.0
128.467438 132.0
128.562195 152.0
128.769913 140.0
128.829956 144.0
128.896576 236.0
128.91655 176.0
129.050903 116.0
129.248398 164.0
129.30574 204.0
129.380447 124.0
129.40535 208.0
129.427994 184.0
129.482346 204.0
129.528961 164.0
129.575211 240.0
129.64093 124.0
129.672653 240.0
129.692581 208.0
129.723068 116.0
129.776337 196.0
129.808685 212.0
129.86084 180.0
129.935379 276.0
129.962219 372.0
129.984161 168.0
129.988373 204.0
129.999893 152.0
130.006927 248.0
130.025787 172.0
130.065842 63384.0
130.098328 140.0
130.132385 188.0
130.14827 128.0
130.224121 148.0
130.246704 112.0
130.262619 80.0
130.280792 68.0
130.304077 196.0
130.340942 76.0
130.368118 144.0
130.404633 40.0
130.438919 252.0
130.47168 36.0
130.494415 56.0
130.527298 52.0
130.580139 216.0
130.596756 88.0
130.612671 28.0
130.667282 180.0
130.705048 60.0
130.730988 60.0
130.794724 80.0
130.876678 92.0
131.016556 212.0
131.069122 7736.0
131.132828 72.0
131.15918 96.0
131.188812 100.0
131.218445 112.0
131.245804 32.0
131.268616 80.0
131.312393 60.0
131.338715 68.0
131.360428 204.0
131.387924 172.0
131.460236 60.0
131.504639 192.0
131.522659 168.0
131.565231 72.0
131.599472 204.0
131.632309 196.0
131.695312 212.0
131.745026 208.0
131.773056 116.0
131.828094 168.0
131.846176 156.0
131.885803 192.0
131.910583 320.0
131.943192 152.0
131.964386 336.0
131.991577 332.0
132.023773 328.0
132.048813 384.0
132.081589 136548.0
132.154236 116.0
132.214584 188.0
132.229416 212.0
132.254196 168.0
132.272034 160.0
132.301819 132.0
132.328842 36.0
132.361252 156.0
132.395782 132.0
132.414719 40.0
132.419556 116.0
132.437286 88.0
132.457367 1524.0
132.490189 152.0
132.510483 92.0
132.556915 56.0
132.56601 52.0
132.60144 32.0
132.628265 80.0
132.658752 52.0
132.682434 60.0
132.703156 108.0
132.731689 100.0
132.75679 116.0
132.789444 44.0
132.814682 104.0
132.837204 48.0
132.865143 104.0
132.902725 84.0
132.94545 80.0
132.962952 192.0
133.025787 168.0
133.056351 228.0
133.084152 15904.0
133.124512 144.0
133.151428 100.0
133.176514 100.0
133.237061 136.0
133.285324 124.0
133.333572 112.0
133.34967 64.0
133.375946 148.0
133.435623 92.0
133.469208 56.0
133.501404 84.0
133.535751 60.0
133.571823 124.0
133.598007 52.0
133.638687 100.0
133.655533 84.0
133.680832 84.0
133.728638 156.0
133.748611 156.0
133.797195 120.0
133.822952 88.0
133.855942 184.0
133.920273 112.0
133.966339 120.0
133.983963 124.0
134.022324 80.0
134.042374 132.0
134.065048 124.0
134.086945 876.0
134.108719 168.0
134.120499 76.0
134.124908 104.0
134.131104 56.0
134.140289 116.0
134.197052 144.0
134.236008 68.0
134.253159 136.0
134.286758 44.0
134.453033 56.0
134.675598 60.0
134.750305 104.0
134.789124 100.0
134.813385 76.0
134.93103 48.0
134.954147 80.0
135.023514 52.0
135.074783 24.0
135.092911 136.0
135.129929 148.0
135.150757 92.0
135.296097 180.0
135.463303 136.0
135.572205 48.0
135.611603 48.0
135.762299 32.0
136.037384 56.0
136.056992 124.0
136.33107 104.0
136.419403 84.0
136.470551 52.0
137.986069 196.0
138.054581 804.0
138.11702 40.0
138.304214 92.0
138.524338 68.0
138.566498 80.0
138.739929 48.0
139.007324 112.0
139.05426 108.0
139.132584 76.0
139.874573 36.0
140.27739 76.0
140.508514 96.0
140.997299 40.0
141.406464 160.0
141.482208 32.0
141.605347 76.0
141.621933 72.0
142.06076 188.0
142.162491 156.0
142.461655 116.0
142.530563 40.0
142.620865 100.0
142.91188 136.0
143.070374 216.0
143.110931 40.0
143.13237 84.0
143.184753 68.0
143.635239 88.0
143.835693 192.0
144.005219 112.0
144.087112 156.0
144.373276 108.0
144.401978 60.0
144.611298 76.0
144.708282 48.0
144.940613 80.0
145.581116 60.0
145.653168 56.0
145.778091 56.0
146.054581 160.0
146.444519 88.0
146.721634 100.0
147.373291 92.0
149.84816 104.0
150.958771 100.0
154.070587 188.0
154.097763 76.0
154.186722 60.0
154.419113 84.0
154.995941 48.0
155.556458 84.0
156.105545 84.0
157.841141 76.0
158.098801 236.0
158.682449 92.0
159.098923 132.0
160.081635 196.0
161.411911 84.0
162.605133 48.0
163.349609 48.0
163.629562 40.0
163.909744 132.0
164.429977 112.0
165.214447 84.0
172.128769 104.0
174.863113 64.0
175.057938 152.0
175.55072 52.0
176.985596 92.0
178.088821 144.0
178.966415 112.0
181.901947 156.0
183.098465 148.0
185.107468 484.0
185.221436 228.0
185.676788 108.0
186.102844 148.0
186.649002 52.0
189.534256 196.0
190.49176 96.0
196.909836 160.0
198.507828 56.0
201.146927 32.0
201.663834 80.0
203.062515 124.0
203.119095 2356.0
203.630157 48.0
203.769348 44.0
204.122223 496.0
204.394882 64.0
206.368729 72.0
209.092804 492.0
210.937057 240.0
212.672134 68.0
214.093857 160.0
220.909515 160.0
226.574326 100.0
227.099518 88.0
229.641083 64.0
230.407822 84.0
231.114044 248.0
232.11795 148.0
233.125778 164.0
235.774094 100.0
241.96936 124.0
244.371628 92.0
244.888382 68.0
248.392365 48.0
258.736603 48.0
259.810211 88.0
264.007263 64.0
264.651215 72.0
264.988068 176.0
269.177551 108.0
270.302032 80.0
271.589569 64.0
272.104797 136.0
273.482178 52.0
278.936768 56.0
285.432953 40.0
286.51001 64.0
288.541718 64.0
289.414642 112.0
292.871857 116.0
297.103851 96.0
300.534088 56.0
319.031982 40.0
320.797729 76.0
330.726624 56.0
332.720398 44.0
333.119873 104.0
334.112335 212.0
337.902985 72.0
344.491089 148.0
350.121643 80.0
359.24884 148.0
359.486542 120.0
369.139435 176.0
376.398346 112.0
378.982208 164.0
379.137207 40.0
381.858795 40.0
396.27002 96.0
404.67807 44.0
409.92804 96.0
410.867523 136.0
415.852875 100.0
436.814362 116.0
441.038422 80.0
477.730804 108.0
488.549591 104.0
488.972015 76.0
526.718079 48.0
527.467468 96.0
531.080261 76.0
533.656555 96.0
555.719788 60.0
582.833557 84.0
587.35907 52.0
601.699402 64.0
610.76532 220.0
616.296692 108.0
620.260803 240.0
625.237549 152.0
638.389893 204.0
641.874573 180.0
657.142273 120.0
658.581848 56.0
658.827087 200.0
659.583374 76.0
670.10376 72.0
674.097534 44.0
679.244385 200.0
685.362915 124.0
692.310486 60.0
693.017639 64.0
698.919434 156.0
709.88031 92.0
712.242065 144.0
717.446411 128.0
717.489075 48.0
717.622375 44.0
718.689148 104.0
726.757874 204.0
728.389954 68.0
742.905823 56.0
747.937744 124.0
748.85791 172.0
749.457153 64.0
750.814514 224.0
752.719055 172.0
753.587524 40.0
754.926758 76.0
757.548462 224.0
763.751282 208.0
765.160095 220.0
767.898743 152.0
768.113892 176.0
776.027771 92.0
776.770874 140.0
776.870728 144.0
777.553223 96.0
783.202148 244.0
791.081238 204.0
796.868896 164.0
797.352173 160.0
804.22345 196.0
804.404114 60.0
806.737122 156.0
807.557068 136.0
810.041931 172.0
810.257202 200.0
813.807617 232.0
818.806091 192.0
819.022522 156.0
822.535034 196.0
828.075562 56.0
828.362 168.0
831.957581 176.0
835.457397 204.0
835.641479 144.0
837.66217 148.0
840.002563 140.0
840.544861 180.0
841.826355 104.0
843.530762 128.0
844.033752 168.0
844.13208 144.0
853.293396 176.0
853.409668 132.0
853.805054 176.0
857.507874 196.0
863.515625 164.0
865.440918 44.0
870.24884 152.0
872.064026 140.0
875.517578 204.0
876.507263 180.0
882.24408 48.0
890.985474 156.0
892.465393 124.0
892.86377 168.0
898.991821 152.0
900.020691 132.0
900.701477 144.0
902.207397 168.0
903.212036 160.0
908.177551 196.0
912.302856 168.0
916.570068 40.0
919.609497 148.0
921.535889 128.0
921.898438 156.0
923.095337 144.0
926.03656 236.0
927.775635 132.0
929.097717 220.0
930.105042 164.0
931.398438 140.0
937.372803 152.0
938.098145 148.0
941.765381 192.0
943.867676 124.0
945.017578 220.0
947.484924 180.0
954.1745 168.0
959.265686 176.0
962.263916 100.0
968.912415 80.0
970.703674 136.0
970.791077 224.0
978.738159 88.0
980.208252 168.0
985.924438 144.0
989.470093 128.0
991.281189 116.0
992.227661 92.0
995.019531 96.0
995.371094 96.0
997.255798 236.0
998.330872 80.0
1000.999023 96.0
1001.26355 184.0
1003.622559 244.0
1005.235168 168.0
1005.885193 144.0
1006.428162 152.0
1006.939636 64.0
1007.375488 36.0
1007.552368 136.0
1007.931458 176.0
1008.070496 220.0
1011.422485 120.0
1012.131531 120.0
1013.233582 192.0
1015.287292 204.0
1017.349426 48.0
1018.371765 152.0
1018.530579 216.0
1021.887146 184.0
1022.886292 148.0
1032.667969 192.0
1033.851562 128.0
1034.485107 184.0
1035.913208 144.0
1040.98645 192.0
1042.83667 140.0
1043.428101 128.0
1044.04541 192.0
1044.727173 164.0
1046.780396 160.0
1049.905762 96.0
1050.338013 84.0
1051.964111 248.0
1052.551636 112.0
1053.171631 88.0
1054.179443 192.0
1055.155396 204.0
1059.996948 184.0
1060.262573 80.0
1061.987183 184.0
1064.148193 164.0
1065.076782 148.0
1065.570557 120.0
1067.175903 164.0
1067.533447 188.0
1067.800171 68.0
1068.066772 84.0
1068.366089 168.0
1068.79541 264.0
1069.563354 184.0
1070.279541 152.0
1070.331543 136.0
1072.690063 112.0
1072.911743 60.0
1073.335449 164.0
1074.861816 160.0
1075.077148 140.0
1076.265259 64.0
1076.506836 184.0
1076.918335 176.0
1079.074707 212.0
1081.253052 252.0
1081.396973 148.0
1085.668579 76.0
1086.153931 136.0
1087.538452 136.0
1087.590942 244.0
1088.601929 128.0
1088.963135 204.0
1092.164062 188.0
1093.572144 132.0
1094.822998 160.0
1097.069824 192.0
1097.6698 116.0
1098.810913 140.0
1100.427856 152.0
1103.308472 168.0
1104.220947 136.0
1104.941895 268.0
1105.841919 136.0
1106.149414 188.0
1106.51709 236.0
1107.338135 176.0
1107.656128 96.0
1109.113892 228.0
1109.418823 148.0
1109.790039 76.0
1110.552734 164.0
1111.342163 260.0
1111.833252 64.0
1111.972534 100.0
1112.483643 92.0
1112.676147 204.0
1114.290039 64.0
1115.998169 380.0
1116.197632 152.0
1118.020386 124.0
1118.246704 184.0
1118.772461 120.0
1119.891235 132.0
1120.097656 40.0
1122.503662 160.0
1124.898804 148.0
1125.379517 168.0
1125.746704 152.0
1126.500732 168.0
1127.537109 180.0
1128.593384 80.0
1128.673584 48.0
1129.041382 152.0
1129.723633 180.0
1130.94812 200.0
1131.563965 156.0
1132.260376 184.0
1132.602051 132.0
1134.585571 96.0
1135.296265 204.0
1135.363403 144.0
1136.027344 56.0
1136.859375 80.0
1137.362671 80.0
1137.470093 220.0
1139.24292 168.0
1142.806152 152.0
1143.001343 144.0
1143.627197 208.0
1147.123047 172.0
1147.547852 160.0
1148.153198 196.0
1148.923584 44.0
1150.084229 188.0
1153.218262 148.0
1154.800415 176.0
1156.43103 160.0
1157.053711 124.0
1158.313354 176.0
1159.194092 172.0
1159.34314 168.0
1162.062256 180.0
1162.476196 212.0
1162.829102 156.0
1162.937622 144.0
1163.059814 72.0
1163.338135 228.0
1164.200439 204.0
1164.526489 152.0
1164.845703 144.0
1165.239746 108.0
1165.300903 128.0
1165.681396 156.0
1166.585327 192.0
1167.537231 140.0
1167.829712 160.0
1167.965698 128.0
1168.754883 84.0
1171.015015 112.0
1171.880127 184.0
1172.827393 248.0
1173.045532 196.0
1173.393188 164.0
1173.877319 164.0
1175.18689 120.0
1175.603149 44.0
1175.773804 76.0
1179.168091 188.0
1180.760986 216.0
1182.65625 144.0
1182.704102 196.0
1183.518799 156.0
1184.35437 152.0
1185.16272 60.0
1186.053589 112.0
1186.67749 112.0
1187.438599 172.0
1188.530151 172.0
1188.728394 144.0
1190.252197 144.0
1190.307129 48.0
1190.966431 184.0
1193.619263 80.0
1194.864136 224.0
1196.00647 112.0
1196.213013 152.0
1197.693481 144.0
1197.962036 120.0
1198.024048 156.0
1198.423706 128.0
1198.775146 204.0
1198.961182 152.0
1199.023193 192.0
1199.167969 204.0
1201.588257 112.0
1201.657349 148.0
1202.81665 172.0
1203.154907 144.0
1203.444946 176.0
1203.824707 248.0
1203.948975 192.0
1204.315063 120.0
1204.750244 140.0
1205.268433 44.0
1206.007812 120.0
1206.097656 160.0
1206.795898 148.0
1207.293823 172.0
1209.210083 188.0
1209.272461 180.0
1211.238892 168.0
1211.411987 112.0
1212.950317 60.0
1213.886353 152.0
1214.03894 176.0
1214.156738 176.0
1216.925537 124.0
1218.363159 60.0
1219.586182 228.0
1220.615112 176.0
1220.712402 172.0
1220.914062 112.0
1221.774048 88.0
1223.070923 152.0
1223.704346 152.0
1224.978882 184.0
1227.459961 96.0
1231.647339 192.0
1231.87793 84.0
1233.282471 140.0
1233.436157 276.0
1233.750732 184.0
1234.456909 124.0
1235.436157 68.0
1236.310791 36.0
1236.842651 144.0
1237.45166 120.0
1238.109985 164.0
1238.355103 172.0
1239.132568 248.0
1241.992798 120.0
1242.048828 152.0
1243.094238 100.0
1243.276733 108.0
1243.789062 120.0
1244.343628 136.0
1244.743896 100.0
1245.151123 128.0
1246.84436 136.0
1247.005981 124.0
1247.863525 108.0
1248.01123 200.0
1248.109619 204.0
1250.219971 240.0
1250.811157 180.0
1251.760254 180.0
1252.205322 204.0
1252.444824 88.0
1253.402954 156.0
1253.614258 244.0
1254.015991 212.0
1256.124268 200.0
1259.044067 228.0
1259.22998 244.0
1259.491333 188.0
1259.738525 148.0
1260.106323 144.0
1260.911377 132.0
1261.116455 196.0
1261.413208 48.0
1261.957642 140.0
1262.070801 216.0
1262.671875 156.0
1262.912354 136.0
1263.258911 36.0
1263.911011 164.0
1264.603271 284.0
1264.865234 112.0
1265.735962 76.0
1266.075928 208.0
1267.98877 140.0
1268.236816 208.0
1268.459717 36.0
1268.612549 72.0
1268.733032 32.0
1269.144287 72.0
1269.392456 172.0
1269.768311 124.0
1270.534302 224.0
1272.450562 72.0
1272.744873 176.0
1273.018555 100.0
1273.160645 212.0
1273.39502 88.0
1273.615112 48.0
1275.051025 204.0
1275.555054 180.0
1275.88916 48.0
1277.325562 120.0
1278.321655 188.0
1278.734375 172.0
1278.819824 156.0
1279.104492 176.0
1280.008667 128.0
1280.265015 152.0
1280.400391 180.0
1280.571289 192.0
1282.502197 188.0
1282.85144 208.0
1282.937012 168.0
1284.213379 36.0
1284.391724 204.0
1284.933838 132.0
1285.797241 188.0
1286.239746 184.0
1286.403931 168.0
1287.182251 176.0
1289.618286 236.0
1291.620361 152.0
1291.813477 132.0
1292.643433 144.0
1292.83667 216.0
1293.545288 148.0
1293.888794 216.0
1293.953247 196.0
1294.647827 100.0
1294.733765 184.0
1296.230957 144.0
1296.833008 144.0
1297.148315 136.0
1298.85498 196.0
1299.888062 140.0
1300.605713 184.0
1301.589355 80.0
1302.774414 160.0
1302.874878 84.0
1303.112061 176.0
1304.211548 208.0
1306.252808 176.0
1306.419067 140.0
1306.721191 116.0
1307.786255 184.0
1308.04541 168.0
1308.650146 152.0
1309.067749 260.0
1309.312622 184.0
1309.521484 228.0
1310.753296 112.0
1311.070435 224.0
1312.029053 152.0
1314.31543 240.0
1314.777222 172.0
1314.936035 240.0
1315.166992 216.0
1315.34021 116.0
1315.527954 152.0
1315.679443 152.0
1316.314819 200.0
1316.509888 168.0
1316.560425 156.0
1317.203247 172.0
1317.405518 192.0
1317.542725 112.0
1317.95459 232.0
1318.547119 152.0
1319.009644 212.0
1319.334961 20.0
1319.501221 164.0
1320.086914 96.0
1320.788452 208.0
1320.873169 136.0
1320.998291 136.0
1321.64209 136.0
1323.03894 148.0
1323.379272 204.0
1324.168579 144.0
1324.915039 140.0
1325.661011 124.0
1325.965332 128.0
1326.05957 140.0
1327.647217 136.0
1327.705322 172.0
1328.981934 136.0
1329.265015 124.0
1329.88916 144.0
1330.201172 112.0
1330.927246 208.0
1332.844849 64.0
1333.782349 160.0
1334.167603 108.0
1334.269409 148.0
1334.414795 204.0
1335.316528 168.0
1335.854736 132.0
1336.209839 176.0
1336.567749 140.0
1336.946167 184.0
1337.50647 164.0
1338.17627 112.0
1338.387451 164.0
1339.552734 164.0
1339.865967 208.0
1340.2229 168.0
1340.273926 156.0
1341.308838 212.0
1342.504517 108.0
1342.584717 204.0
1342.98584 128.0
1345.174927 116.0
1346.649902 184.0
1346.817871 156.0
1347.34375 208.0
1347.606812 168.0
1348.235229 232.0
1348.496826 228.0
1349.265869 164.0
1349.609497 136.0
1350.457764 216.0
1350.724854 184.0
1350.999146 176.0
1351.108765 208.0
1351.97229 184.0
1352.196655 208.0
1353.223877 232.0
1353.414307 188.0
1355.164795 132.0
1355.472534 232.0
1355.72168 216.0
1357.64978 176.0
1358.273193 124.0
1359.248901 124.0
1359.718628 136.0
1360.548096 40.0
1360.959229 152.0
1361.025269 176.0
1362.259155 252.0
1362.707275 144.0
1363.456787 136.0
1363.68457 188.0
1364.008057 176.0
1364.272705 68.0
1365.699219 68.0
1367.369385 52.0
1367.656372 152.0
1367.71521 136.0
1367.921387 156.0
1368.112793 140.0
1368.907959 140.0
1370.174805 212.0
1370.727417 172.0
1370.874756 172.0
1371.029541 216.0
1371.317017 140.0
1371.796143 156.0
1372.179443 100.0
1372.938965 232.0
1373.145386 176.0
1373.573242 152.0
1374.163452 164.0
1374.429077 144.0
1374.591431 124.0
1375.211304 188.0
1375.624634 164.0
1376.828125 176.0
1377.522461 316.0
1377.662842 132.0
1377.766235 320.0
1378.24646 196.0
1379.155396 148.0
1379.887329 204.0
1380.035156 132.0
1380.286621 52.0
1380.989136 144.0
1381.610474 148.0
1382.380005 232.0
1383.623413 176.0
1383.963989 116.0
1384.089844 212.0
1384.460205 112.0
1384.934204 352.0
1385.875 140.0
1386.241821 220.0
1386.779053 96.0
1387.935547 188.0
1388.076416 136.0
1388.640015 180.0
1388.758667 144.0
1388.840332 172.0
1388.966431 96.0
1389.448608 144.0
1390.012451 36.0
1392.588501 148.0
1392.974854 68.0
1393.049072 208.0
1393.212524 140.0
1393.308838 112.0
1394.05957 92.0
1394.646729 136.0
1395.4198 124.0
1395.672607 232.0
1396.74353 180.0
1397.383301 220.0
1397.613892 184.0
1398.291138 372.0
1398.975952 140.0
1399.11731 224.0
1399.355591 216.0
1400.629028 176.0
1400.964233 220.0
1402.730347 176.0
1402.812378 112.0
1402.916748 148.0
1403.423706 236.0
1403.863647 200.0
1403.945679 124.0
1404.035156 216.0
1404.400635 200.0
1404.53479 240.0
1405.689331 216.0
1406.348022 164.0
1406.616699 196.0
1406.758545 136.0
1406.83313 168.0
1406.937744 88.0
1407.042236 160.0
1407.161621 152.0
1407.273682 160.0
1408.655273 200.0
1409.043701 152.0
1409.140869 216.0
1409.20813 120.0
1409.731201 224.0
1410.261719 168.0
1410.433716 148.0
1410.777588 172.0
1410.86731 180.0
1411.315796 164.0
1411.457886 156.0
1411.966431 136.0
1412.198242 152.0
1412.370361 192.0
1412.938843 140.0
1413.689087 176.0
1413.754395 84.0
1414.098633 172.0
1415.056885 164.0
1416.000366 228.0
1416.996582 220.0
1417.071533 172.0
1417.588623 160.0
1418.682861 232.0
1418.885254 168.0
1418.982666 192.0
1419.701416 80.0
1420.662598 120.0
1420.842651 148.0
1421.442871 184.0
1422.30603 224.0
1422.366089 232.0
1422.456055 200.0
1422.786377 140.0
1423.041626 144.0
1423.296997 144.0
1423.37207 40.0
1423.619873 156.0
1423.717529 208.0
1423.852661 204.0
1423.950317 168.0
1424.258301 260.0
1424.468506 52.0
1424.566162 148.0
1424.882202 140.0
1425.370117 156.0
1426.362183 224.0
1426.467407 168.0
1426.790649 156.0
1426.903442 176.0
1427.249268 244.0
1427.309448 140.0
1428.083984 192.0
1428.25708 164.0
1428.416138 132.0
1428.633179 48.0
1428.768555 160.0
1428.911499 176.0
1429.092041 244.0
1431.289917 132.0
1432.171021 196.0
1432.615479 188.0
1433.32373 140.0
1433.753174 164.0
1433.858765 168.0
1434.032104 184.0
1434.084839 160.0
1434.25061 180.0
1434.74939 124.0
1435.276001 156.0
1435.396606 144.0
1435.969727 196.0
1436.346802 200.0
1437.35022 64.0
1437.523804 152.0
1437.704956 152.0
1437.833252 72.0
1438.089844 128.0
1438.716309 136.0
1439.2146 156.0
1439.336548 188.0
1439.418579 112.0
1439.471436 96.0
1440.022705 216.0
1440.498901 164.0
1441.526001 128.0
1443.325073 116.0
1445.700317 204.0
1446.252808 152.0
1447.608032 160.0
1448.759277 156.0
1449.153198 148.0
1449.221436 112.0
1450.479492 184.0
1450.835693 92.0
1450.941895 176.0
1452.079224 212.0
1452.268921 268.0
1452.541992 168.0
1452.906128 192.0
1453.64209 40.0
1454.188477 144.0
1454.681885 164.0
1454.780518 120.0
1455.038696 280.0
1455.31958 68.0
1455.661255 156.0
1455.744751 148.0
1455.93457 144.0
1456.38269 152.0
1457.157593 200.0
1457.545044 200.0
1457.63623 172.0
1457.970581 152.0
1458.152954 296.0
1458.783936 112.0
1458.837158 136.0
1458.95874 160.0
1459.262817 164.0
1459.39209 116.0
1459.985229 116.0
1460.106934 92.0
1460.160156 128.0
1462.480713 148.0
1462.577759 328.0
1462.716675 188.0
1462.876465 92.0
1463.150513 216.0
1463.249512 180.0
1463.576904 80.0
1465.237305 240.0
1465.686768 152.0
1465.740112 52.0
1467.546631 176.0
1467.645752 188.0
1467.7677 136.0
1467.99646 192.0
1468.324463 224.0
1469.529663 152.0
1470.36145 156.0
1470.544556 152.0
1471.178101 44.0
1471.498779 80.0
1471.750732 136.0
1471.834717 204.0
1471.949219 168.0
1472.39978 204.0
1472.483887 140.0
1472.92688 176.0
1473.493774 172.0
1473.576172 156.0
1473.660278 172.0
1473.744263 72.0
1473.927612 156.0
1475.418091 212.0
1475.547974 44.0
1475.968506 144.0
1476.075562 176.0
1476.316284 172.0
1476.809814 184.0
1477.169312 224.0
1478.378174 184.0
1478.526123 60.0
1478.760742 168.0
1478.83728 72.0
1478.890869 72.0
1479.051636 188.0
1479.363159 208.0
1480.452759 92.0
1480.667114 140.0
1480.824951 160.0
1480.927612 164.0
1481.371826 176.0
1481.555664 140.0
1481.632324 112.0
1482.07666 68.0
1482.229858 156.0
1482.344849 220.0
1482.590088 208.0
1482.674316 188.0
1483.080566 132.0
1483.195557 252.0
1483.348877 108.0
1483.697144 132.0
1484.44519 184.0
1484.575562 204.0
1484.905396 144.0
1485.078857 204.0
1485.480103 196.0
1485.787476 196.0
1486.194092 196.0
1486.608521 164.0
1486.769653 72.0
1487.11499 148.0
1487.222412 52.0
1487.291504 208.0
1487.414307 92.0
1488.051514 160.0
1488.135986 160.0
1488.535278 96.0
1489.418457 184.0
1490.04834 168.0
1490.401855 160.0
1490.578491 96.0
1490.824463 164.0
1491.63916 144.0
1492.192627 192.0
1492.653931 180.0
1492.81543 168.0
1493.046143 176.0
1493.969116 228.0
1494.869385 128.0
1495.023315 340.0
1495.23877 160.0
1495.461914 136.0
1496.046997 136.0
1496.732178 160.0
1496.847656 136.0
1497.171143 224.0
1497.240479 84.0
1497.340576 104.0
1497.779541 148.0
1498.156982 44.0
1499.281982 164.0
1499.586182 192.0
1500.037231 192.0
1500.098999 224.0
1500.337891 140.0
1500.692627 208.0
1501.062744 148.0
1501.363403 208.0
1501.571655 196.0
1501.671875 76.0
1502.150146 160.0
1502.497314 156.0
1503.184814 216.0
1503.801392 172.0
