>compound MLS002630965-01!2-hydroxy-4-methoxy-3-(3-methylbut-2-enyl)-6-(2-phenylethyl)benzoic acid
>formula C21H24O4
>ionization [M+H]+
>parentmass 341.175
#inchi InChI=1S/C21H24O4/c1-14(2)9-12-17-18(25-3)13-16(19(20(17)22)21(23)24)11-10-15-7-5-4-6-8-15/h4-9,13,22H,10-12H2,1-3H3,(H,23,24)
#inchikey CTNFTPUIYFUXBE
#Ion_Source LC-ESI
#Instrument qTof
#Compound_Source NIH Natural Product Library
#PI Dorrestein
#Data_Collector VVP/LMS
#Scan -1
#Precursor_MZ 341.175
#ExactMass 340.167
#Charge 1
#CAS_Number N/A
#Pubmed_ID N/A
#Smiles COc1cc(CCc2ccccc2)c(C(=O)O)c(O)c1CC=C(C)C
#INCHI_AUX N/A
#Library_Class 1
#SpectrumID CCMSLIB00000080075
#IonMode Positive
#UpdateWorkflowName UPDATE-SINGLE-ANNOTATED-GOLD
#LibraryQualityString Gold
#TaskID b1d8e8f6646f4e71acdff9ca3d919d08
##Scan# 2794
#SpectrumFile p2-G03_GG3_01_18051.mzXML
#LibraryName NIH_Natural_Products_Library.mgf
#MQScore -1
#Organism NIH_Natural_Products_Library
#TIC_Query 0
#RT_Query -1
#MZErrorPPM -1
#SharedPeaks 0
#MassDiff 0
#LibMZ -1
#SpecMZ 341.175
#SpecCharge 0
#internalFilename spec-00000.mgf

>collision 10
95.142471 144.0
95.16188 120.0
95.220139 196.0
95.492241 168.0
95.893326 108.0
95.92646 104.0
96.051262 116.0
96.135162 140.0
96.172241 104.0
96.635391 140.0
97.688934 152.0
97.828651 152.0
97.978325 184.0
98.2938 188.0
98.351036 156.0
98.382614 88.0
98.416183 44.0
98.532715 120.0
98.667107 208.0
99.556793 188.0
99.662071 208.0
100.028015 160.0
100.12159 188.0
101.145866 124.0
101.272018 112.0
101.580704 164.0
101.675011 232.0
101.701103 136.0
101.873795 132.0
101.887856 80.0
103.056175 572.0
103.741722 140.0
103.821609 132.0
104.016396 152.0
104.386169 180.0
104.819756 176.0
104.89109 168.0
105.033012 788.0
105.065804 180.0
105.079269 220.0
105.566902 40.0
105.947609 204.0
106.009079 40.0
106.039818 168.0
106.066467 44.0
106.156677 128.0
106.242828 180.0
106.308487 208.0
106.579544 200.0
107.053932 260.0
107.100037 124.0
107.646576 36.0
107.983444 120.0
108.310478 164.0
108.411507 168.0
108.754204 128.0
108.961868 176.0
109.057465 84.0
109.161415 128.0
109.388199 108.0
109.717354 104.0
109.915497 84.0
110.063492 200.0
110.234993 160.0
110.306053 144.0
110.539764 188.0
110.563324 60.0
110.887947 308.0
111.486084 164.0
111.816269 184.0
112.224945 200.0
112.438004 136.0
112.67662 172.0
112.771996 148.0
113.063583 196.0
115.052666 236.0
115.735207 76.0
116.528816 128.0
116.657768 160.0
116.769577 180.0
117.03212 204.0
117.094566 44.0
117.113953 144.0
117.228142 116.0
117.470406 176.0
117.998734 160.0
118.041351 208.0
118.509529 116.0
118.531197 116.0
119.027939 172.0
119.050148 88.0
119.114815 132.0
119.837097 160.0
120.240517 152.0
120.430473 116.0
120.677414 156.0
120.81739 236.0
121.443886 168.0
121.511894 64.0
121.683083 184.0
122.107193 224.0
122.203987 76.0
122.221588 116.0
122.305222 164.0
122.419708 120.0
122.8451 128.0
123.045753 160.0
123.094505 156.0
123.218193 200.0
123.372902 56.0
123.554245 224.0
123.662674 108.0
123.930634 120.0
124.021492 160.0
124.105736 128.0
124.18779 148.0
124.525162 204.0
124.571808 208.0
124.862991 144.0
125.13224 192.0
125.866768 236.0
125.961853 180.0
126.066864 156.0
126.203224 52.0
126.545555 124.0
126.765068 180.0
126.805412 176.0
127.045341 176.0
127.179977 20.0
127.525879 52.0
127.82724 48.0
127.847496 148.0
128.065887 212.0
128.792191 164.0
129.070297 348.0
129.090515 140.0
129.108612 236.0
129.133484 176.0
129.214813 168.0
129.269226 100.0
129.407303 156.0
129.522797 76.0
130.046585 124.0
130.52594 156.0
130.883194 192.0
131.017578 196.0
131.050201 1592.0
131.165695 252.0
131.455353 184.0
131.505554 180.0
132.024185 160.0
132.052002 232.0
132.307922 120.0
132.481964 152.0
132.523209 32.0
132.977264 152.0
133.018585 200.0
133.873886 168.0
134.256454 52.0
134.360245 204.0
135.044937 300.0
135.078705 176.0
135.280029 108.0
135.687775 208.0
136.112381 120.0
136.151855 180.0
136.912354 204.0
137.059204 164.0
137.170975 76.0
137.383194 152.0
137.434525 200.0
138.081604 188.0
138.154129 148.0
138.224319 184.0
138.25708 152.0
138.41626 184.0
138.582565 64.0
139.04454 124.0
139.075043 184.0
139.262894 292.0
139.408554 128.0
139.94252 240.0
140.001389 216.0
140.100311 148.0
140.682816 164.0
140.812683 156.0
141.069244 1272.0
141.110428 52.0
141.808762 168.0
141.830109 216.0
142.070282 184.0
142.105194 200.0
142.133667 196.0
142.371048 192.0
142.437561 120.0
142.722748 192.0
142.763184 168.0
142.796478 180.0
142.839294 168.0
143.034409 128.0
143.062973 52.0
143.083542 204.0
143.201096 124.0
143.233261 204.0
143.398849 48.0
143.718399 200.0
143.82579 144.0
144.059814 152.0
144.358582 204.0
144.616959 152.0
144.662445 152.0
144.679199 144.0
145.093674 92.0
145.136826 188.0
145.283127 120.0
145.355103 132.0
145.518326 112.0
146.038116 308.0
146.362289 172.0
146.796036 108.0
147.116943 108.0
147.375366 72.0
148.047836 48.0
148.072067 112.0
148.120499 92.0
148.261032 212.0
148.285263 88.0
148.319199 160.0
148.348297 124.0
148.498627 160.0
148.634491 80.0
148.823822 32.0
148.933105 248.0
149.057358 172.0
151.320557 60.0
152.062347 316.0
152.254822 156.0
152.571808 188.0
152.657852 92.0
152.815292 48.0
153.069839 188.0
153.21907 140.0
153.270798 40.0
153.33075 148.0
153.946716 148.0
154.07103 296.0
154.160339 92.0
154.225891 160.0
154.530075 172.0
155.048798 292.0
155.081375 656.0
155.243042 164.0
155.784546 164.0
155.916245 124.0
155.963455 180.0
156.050476 168.0
156.115128 116.0
156.219589 152.0
156.478409 216.0
156.545639 248.0
156.827179 184.0
157.028351 280.0
157.058807 196.0
157.198776 84.0
157.328568 148.0
158.877701 76.0
159.043945 1752.0
159.251724 164.0
159.99353 144.0
160.04744 180.0
160.510056 168.0
160.55545 64.0
160.767365 240.0
161.058136 476.0
161.988586 136.0
162.059525 56.0
163.038208 200.0
163.295807 96.0
163.817627 72.0
163.91571 20.0
164.044418 156.0
164.10817 232.0
164.164261 44.0
164.212723 64.0
164.327515 76.0
164.401505 72.0
164.460205 176.0
164.584152 72.0
164.6185 168.0
165.071518 2484.0
165.213226 176.0
165.572403 168.0
165.627563 64.0
165.936279 96.0
166.077774 5088.0
166.144012 112.0
166.169662 48.0
166.238953 52.0
166.452011 140.0
166.482834 44.0
166.523926 68.0
166.662643 104.0
166.744873 88.0
166.832275 56.0
166.996841 48.0
167.045715 140.0
167.082306 888.0
167.436966 56.0
167.586365 176.0
168.041733 200.0
168.058212 228.0
168.093018 344.0
168.306015 56.0
169.06488 184.0
169.100983 544.0
169.366348 144.0
169.762878 160.0
170.072357 156.0
170.098679 132.0
170.591141 120.0
171.002136 208.0
171.08577 180.0
171.55957 44.0
172.776566 104.0
173.887604 256.0
174.041214 188.0
174.562775 224.0
174.641678 40.0
175.033813 124.0
175.281418 180.0
175.484375 192.0
176.046127 404.0
176.080765 112.0
176.421631 148.0
176.810455 80.0
177.001068 168.0
177.1017 140.0
177.419693 36.0
177.499237 260.0
177.589401 148.0
177.698166 196.0
178.075562 1364.0
178.205292 56.0
178.250458 40.0
178.300949 68.0
178.500336 64.0
178.566818 32.0
178.619354 176.0
178.72377 132.0
179.003265 148.0
179.084366 6256.0
179.117798 52.0
179.179062 92.0
179.203049 80.0
179.237686 48.0
179.376266 44.0
179.504242 236.0
179.885788 80.0
180.088882 940.0
180.166183 176.0
180.3479 84.0
180.516327 128.0
180.944443 64.0
181.064743 940.0
181.102539 3040.0
181.300705 148.0
181.555389 36.0
181.609024 208.0
182.07872 152.0
182.09967 332.0
182.237213 52.0
182.274826 52.0
182.403839 152.0
182.468353 224.0
182.680817 60.0
182.869171 188.0
183.033386 128.0
183.080765 656.0
183.108887 304.0
183.993256 56.0
184.103958 148.0
184.578461 156.0
185.070847 180.0
185.150574 120.0
185.215576 148.0
185.242676 152.0
186.22731 64.0
186.270767 184.0
186.466415 252.0
187.015823 176.0
187.179169 200.0
187.203674 168.0
187.298996 176.0
188.166214 164.0
188.452988 128.0
188.778275 128.0
188.923248 140.0
189.054214 6668.0
189.13942 40.0
189.421463 76.0
189.524567 220.0
189.700989 144.0
189.773026 72.0
189.857269 76.0
189.974838 124.0
190.013626 180.0
190.0755 1168.0
190.170044 204.0
190.433624 56.0
190.587463 72.0
190.738617 40.0
191.085358 2524.0
191.17868 280.0
191.277496 120.0
191.39064 80.0
191.511826 60.0
191.773575 36.0
191.974838 72.0
192.090271 664.0
192.123779 100.0
192.167923 76.0
192.21759 32.0
192.366638 104.0
192.388718 48.0
192.446701 64.0
192.48259 176.0
192.590302 188.0
192.836212 88.0
192.89978 172.0
193.067276 276.0
193.09964 164.0
193.148651 60.0
193.168015 124.0
193.192917 56.0
193.246399 84.0
193.358932 152.0
193.649643 140.0
193.713364 172.0
193.869873 180.0
193.954437 80.0
194.018188 124.0
194.072052 2132.0
194.165161 96.0
194.301071 104.0
194.389862 88.0
194.517532 68.0
194.836899 236.0
195.07991 972.0
195.156525 136.0
195.178772 220.0
195.228821 164.0
195.431885 180.0
195.454147 84.0
195.868973 176.0
195.907974 56.0
196.024994 148.0
196.047287 288.0
196.087372 308.0
196.206177 168.0
196.284241 140.0
196.409744 80.0
196.655289 144.0
197.061264 180.0
197.093918 440.0
197.236267 84.0
197.473938 80.0
197.722946 144.0
198.058929 328.0
198.107208 64.0
198.179398 36.0
198.479309 36.0
198.745789 136.0
199.112305 156.0
199.355133 176.0
200.083649 272.0
200.48645 136.0
200.748627 96.0
201.06459 128.0
201.095627 132.0
201.931946 168.0
202.008316 168.0
202.073395 188.0
202.105164 68.0
202.551834 216.0
202.95993 220.0
203.079041 120.0
203.308853 148.0
203.348587 160.0
204.090042 156.0
204.36026 112.0
204.770172 68.0
205.071396 188.0
205.736832 176.0
206.071045 444.0
206.288193 44.0
206.333923 28.0
206.365372 44.0
206.565567 172.0
207.080338 1036.0
207.112305 164.0
207.264145 256.0
208.084549 976.0
208.14476 208.0
208.500977 100.0
208.676331 244.0
208.837372 184.0
209.001358 208.0
209.057312 324.0
209.095581 3816.0
209.289185 52.0
209.565704 88.0
210.067413 348.0
210.099594 416.0
210.45697 76.0
210.589813 176.0
211.049301 152.0
211.074921 468.0
211.111771 1224.0
211.445618 76.0
211.662735 56.0
211.735138 124.0
212.1185 208.0
212.14949 100.0
212.277069 156.0
212.364075 96.0
212.721771 232.0
213.090775 644.0
214.005997 76.0
214.078796 148.0
214.306 44.0
214.422562 44.0
214.740356 124.0
214.952026 184.0
215.096329 136.0
215.853043 212.0
216.040222 172.0
217.053619 92.0
217.34108 124.0
218.070984 276.0
218.251648 156.0
218.31929 92.0
218.504593 140.0
218.660553 108.0
219.025665 132.0
219.080643 1136.0
219.190643 148.0
219.261368 136.0
219.287903 76.0
219.500153 28.0
219.556183 52.0
219.895477 228.0
219.975174 60.0
220.048981 132.0
220.082092 876.0
220.323639 204.0
220.977036 56.0
221.091324 308.0
221.960403 76.0
222.067734 512.0
222.098526 284.0
222.206589 96.0
222.319351 52.0
222.417297 220.0
222.592453 112.0
223.002441 160.0
223.035141 168.0
223.076248 664.0
223.106277 180.0
223.189728 128.0
223.811615 124.0
223.996262 172.0
224.026062 144.0
224.082901 776.0
224.386658 96.0
224.443314 48.0
224.464188 84.0
224.765457 36.0
225.052017 176.0
225.088257 208.0
225.252106 40.0
225.401489 148.0
225.616699 48.0
225.682465 140.0
225.894806 64.0
226.029449 184.0
227.107971 52.0
227.594147 140.0
227.618164 200.0
228.089844 180.0
228.219116 132.0
229.87886 124.0
229.996567 132.0
230.06601 140.0
230.322678 32.0
230.858322 204.0
230.942322 208.0
231.411392 176.0
232.108292 164.0
232.238693 140.0
232.421204 128.0
232.915588 92.0
233.110031 136.0
233.803391 96.0
233.998215 128.0
234.06926 308.0
234.098694 128.0
234.391129 120.0
234.738632 156.0
234.775238 152.0
235.076035 1476.0
236.082474 496.0
236.158768 180.0
237.015961 72.0
237.048569 168.0
237.092041 4024.0
237.675217 120.0
238.095062 884.0
238.274963 204.0
238.581268 52.0
238.685806 80.0
238.830353 148.0
238.92572 132.0
239.014938 120.0
239.107544 1936.0
239.145493 152.0
239.218079 32.0
239.378174 72.0
239.535248 76.0
239.566055 44.0
239.636917 96.0
239.704712 92.0
239.800247 128.0
239.938965 88.0
240.071548 148.0
240.11084 660.0
241.128204 196.0
241.164474 148.0
241.195389 156.0
241.866623 200.0
242.166962 96.0
242.26918 148.0
243.159119 164.0
243.267761 116.0
243.705658 204.0
244.221725 88.0
244.722748 236.0
245.408218 88.0
245.901108 56.0
246.175842 100.0
246.875854 132.0
248.75264 180.0
249.092773 1196.0
249.371445 172.0
250.10817 180.0
250.668045 84.0
250.973816 68.0
251.066452 276.0
251.094803 96.0
251.683762 88.0
251.797455 44.0
252.077988 224.0
252.518051 168.0
253.075882 440.0
253.366394 164.0
253.48996 164.0
254.26059 40.0
254.301849 180.0
254.431992 160.0
254.952927 200.0
255.013306 140.0
255.436218 200.0
255.716217 136.0
257.99057 108.0
258.128052 132.0
261.59317 236.0
262.814636 100.0
263.790009 92.0
264.184509 108.0
264.242767 176.0
265.039276 180.0
265.083893 700.0
265.353668 196.0
265.392578 68.0
265.781799 52.0
265.82074 108.0
266.087341 148.0
266.224915 108.0
266.281738 84.0
266.310974 256.0
266.405182 116.0
266.463654 68.0
266.492889 56.0
266.782135 108.0
266.861267 176.0
266.888336 180.0
266.912201 352.0
266.951202 116.0
266.980042 180.0
267.027191 144.0
267.102325 45840.0
267.181183 148.0
267.202637 244.0
267.240265 64.0
267.29422 144.0
267.380646 68.0
267.426208 124.0
267.449005 40.0
267.520599 224.0
267.562927 48.0
267.614197 56.0
267.642456 84.0
267.694916 164.0
267.74527 128.0
267.770569 68.0
267.810425 72.0
267.912933 60.0
267.9505 40.0
268.001923 208.0
268.053406 148.0
268.105469 6340.0
268.154022 88.0
268.197906 52.0
268.227509 68.0
268.266602 92.0
268.335571 52.0
268.387238 104.0
268.474091 84.0
268.527466 120.0
268.563354 104.0
268.775391 116.0
268.883087 184.0
268.977753 56.0
269.00061 104.0
269.107666 1088.0
269.279938 72.0
269.513367 68.0
269.549713 96.0
269.612244 76.0
269.696381 80.0
269.729065 92.0
269.797699 32.0
269.846741 128.0
269.895782 92.0
269.942749 100.0
270.015381 140.0
270.112274 320.0
270.180328 96.0
270.203247 112.0
270.245789 88.0
270.333771 76.0
270.474854 88.0
270.602539 124.0
270.651642 120.0
270.985748 60.0
271.887512 36.0
272.261749 76.0
272.918976 76.0
273.129456 100.0
273.343323 192.0
273.767975 100.0
274.001831 76.0
274.143524 80.0
274.483063 104.0
274.766724 96.0
275.461761 60.0
276.862396 52.0
277.581512 36.0
278.132233 156.0
279.085693 144.0
279.634613 84.0
279.761078 88.0
280.28067 52.0
280.950836 100.0
281.000854 116.0
282.136383 72.0
283.260803 116.0
283.435028 48.0
285.109558 316.0
285.563416 56.0
286.128754 132.0
291.106018 204.0
292.115479 232.0
295.048309 176.0
297.381104 100.0
299.089386 148.0
301.203125 116.0
303.740417 64.0
315.107941 124.0
323.164429 1236.0
323.479736 68.0
324.163055 288.0
327.141357 148.0
337.105072 92.0
340.144989 152.0
341.264893 512.0
345.92511 92.0
350.366638 72.0
351.951782 48.0
356.957977 112.0
383.302185 68.0
389.644714 52.0
395.097198 68.0
397.081726 72.0
400.98996 76.0
427.63562 68.0
447.350494 88.0
457.09787 120.0
474.940887 88.0
478.547852 60.0
498.074768 36.0
505.251923 80.0
512.286682 52.0
520.790833 56.0
545.644043 52.0
550.952332 40.0
553.037903 112.0
577.23822 40.0
630.577515 60.0
635.801147 64.0
655.575256 60.0
672.371033 104.0
693.047424 40.0
721.486023 168.0
734.228027 196.0
736.748779 176.0
739.300903 100.0
748.845215 68.0
749.591614 196.0
753.170532 64.0
769.673889 176.0
789.015015 128.0
809.904053 144.0
810.260925 200.0
816.880798 228.0
823.024048 60.0
823.726501 136.0
837.314575 172.0
839.533325 128.0
847.997253 36.0
850.531982 160.0
862.221497 140.0
863.525269 148.0
871.632935 128.0
872.2677 76.0
874.844238 156.0
892.189758 44.0
892.635681 72.0
894.206238 40.0
906.137207 96.0
911.122803 68.0
914.520325 184.0
916.579895 116.0
929.016663 84.0
929.945007 176.0
931.967224 172.0
933.766602 152.0
936.962341 84.0
943.651428 48.0
951.954102 112.0
956.528381 256.0
967.813843 172.0
970.385132 152.0
971.203735 192.0
980.124878 204.0
996.976868 288.0
997.567688 204.0
1000.184509 160.0
1001.664246 192.0
1004.374695 144.0
1016.375977 196.0
1016.801147 116.0
1025.412476 52.0
1030.645386 148.0
1030.728394 140.0
1035.853027 148.0
1037.44873 128.0
1039.244507 184.0
1046.16626 240.0
1047.454102 164.0
1057.099854 172.0
1059.18457 228.0
1061.47229 188.0
1067.348877 180.0
1074.395996 136.0
1079.654175 92.0
1082.828247 208.0
1083.293335 124.0
1084.689087 172.0
1089.683105 200.0
1093.490479 164.0
1098.544434 168.0
1100.002686 132.0
1101.594238 172.0
1104.05957 60.0
1106.362183 164.0
1109.164307 176.0
1114.998413 136.0
1116.926514 124.0
1120.434692 136.0
1121.494263 108.0
1121.994263 216.0
1133.302734 200.0
1133.946045 96.0
1134.730347 32.0
1135.119263 108.0
1137.339844 140.0
1138.447632 180.0
1143.07251 196.0
1145.516479 224.0
1145.590576 144.0
1150.938843 96.0
1159.814819 128.0
1161.170898 176.0
1161.876343 40.0
1164.713867 104.0
1165.046631 152.0
1170.120117 168.0
1175.265991 132.0
1175.736816 104.0
1186.283813 288.0
1188.684326 216.0
1189.370605 68.0
1189.583374 128.0
1195.239746 176.0
1198.786011 120.0
1200.943848 84.0
1206.385132 172.0
1206.620117 108.0
1207.802734 44.0
1215.381714 156.0
1225.595947 148.0
1230.08728 116.0
1231.860962 60.0
1234.719727 164.0
1240.951904 168.0
1245.25354 76.0
1246.075439 144.0
1246.124634 144.0
1248.282471 136.0
1249.450073 196.0
1249.499268 40.0
1251.793823 176.0
1254.280884 176.0
1260.526855 220.0
1261.141602 176.0
1266.25 184.0
1267.114136 200.0
1272.575317 192.0
1280.290527 176.0
1281.71521 148.0
1281.793579 172.0
1286.372314 160.0
1292.082275 148.0
1293.298706 264.0
1295.633179 168.0
1296.887207 176.0
1297.711548 148.0
1298.084473 140.0
1298.579346 152.0
1304.783447 164.0
1305.516846 164.0
1306.315186 232.0
1317.67688 140.0
1325.781006 216.0
1329.138428 76.0
1331.185425 196.0
1341.021362 188.0
1341.276489 76.0
1343.807007 60.0
1346.507812 188.0
1351.822632 168.0
1354.399658 124.0
1355.974976 224.0
1358.460693 176.0
1360.405273 56.0
1361.727051 212.0
1362.439453 200.0
1363.034668 136.0
1367.608887 148.0
1368.14624 124.0
1368.337769 152.0
1369.479126 280.0
1369.97998 184.0
1374.772583 168.0
1374.942261 140.0
1375.458984 104.0
1376.57373 116.0
1382.065918 92.0
1383.96814 84.0
1384.212524 108.0
1385.60498 188.0
1387.161133 168.0
1387.939697 104.0
1393.14978 212.0
1393.305786 60.0
1402.272339 100.0
1403.040039 148.0
1404.2854 72.0
1405.240234 140.0
1405.562988 156.0
1406.635742 116.0
1412.127563 156.0
1413.638794 168.0
1416.146729 168.0
1416.289062 192.0
1416.85083 104.0
1417.899902 164.0
1424.803223 152.0
1425.539551 176.0
1427.230835 172.0
1435.936157 132.0
1437.965576 152.0
1441.227905 144.0
1442.361572 112.0
1442.815063 180.0
1443.593872 252.0
1445.023438 148.0
1445.83313 196.0
1446.552124 152.0
1451.848267 96.0
1452.61438 136.0
1453.81311 184.0
1457.017334 200.0
1460.126221 156.0
1461.137939 184.0
1462.979614 180.0
1464.822388 212.0
1467.184814 176.0
1476.775635 140.0
1478.313354 184.0
1481.873901 44.0
1482.663208 164.0
1491.735474 136.0
1492.327393 80.0
1492.927246 120.0
1494.473389 216.0
1496.343628 168.0
