>compound MLS002153781-01!Thioguanosine85-31-4
>formula C10H13N5O4S
>ionization [M+H]+
>parentmass 300.078
#inchi InChI=1S/C10H13N5O4S/c11-10-13-7-4(8(20)14-10)12-2-15(7)9-6(18)5(17)3(1-16)19-9/h2-3,5-6,9,16-18H,1H2,(H3,11,13,14,20)/t3-,5-,6-,9-/m1/s1
#inchikey OTDJAMXESTUWLO
#Ion_Source LC-ESI
#Instrument qTof
#Compound_Source NIH Pharmacologically Active Library
#PI Dorrestein
#Data_Collector VP/LMS
#Scan -1
#Precursor_MZ 300.078
#ExactMass 299.069
#Charge 1
#CAS_Number N/A
#Pubmed_ID N/A
#Smiles Nc1nc(S)c2ncn([C@@H]3O[C@H](CO)[C@@H](O)[C@H]3O)c2n1
#INCHI_AUX N/A
#Library_Class 1
#SpectrumID CCMSLIB00000085711
#IonMode Positive
#UpdateWorkflowName UPDATE-SINGLE-ANNOTATED-GOLD
#LibraryQualityString Gold
#TaskID d252d724072548979f1f6f1ced849daf
##Scan# 354
#SpectrumFile p4-E06_GE6_01_18378.mzXML
#LibraryName Pharm_Active_Library.mgf
#MQScore -1
#Organism Pharm_Active_Library
#TIC_Query 0
#RT_Query -1
#MZErrorPPM -1
#SharedPeaks 0
#MassDiff 0
#LibMZ -1
#SpecMZ 300.078
#SpecCharge 0
#internalFilename spec-00000.mgf

>collision 10
48.133434 164.0
50.673763 192.0
56.344116 140.0
58.496239 132.0
59.169491 144.0
60.016083 212.0
60.909073 120.0
61.502338 188.0
63.691128 160.0
63.883472 176.0
68.870575 192.0
69.40844 224.0
72.220467 128.0
72.941124 144.0
74.142746 204.0
75.352448 48.0
80.358727 236.0
80.412262 92.0
81.023827 152.0
81.436409 176.0
81.916687 124.0
82.827118 180.0
83.345985 280.0
83.522339 120.0
87.721115 132.0
88.333626 108.0
88.608826 68.0
89.67997 160.0
91.435738 188.0
92.493149 184.0
93.162407 200.0
93.922791 188.0
95.089523 188.0
95.293045 184.0
95.976624 148.0
98.251823 144.0
101.915443 124.0
103.930603 64.0
104.172203 96.0
108.978806 152.0
109.050667 192.0
109.196205 224.0
109.256531 40.0
112.325607 212.0
112.492317 212.0
112.574661 160.0
113.276863 104.0
116.704491 100.0
121.888969 192.0
122.811424 164.0
123.01664 136.0
124.711212 112.0
126.009605 544.0
126.542725 200.0
127.01783 224.0
128.004486 120.0
128.403381 164.0
130.632248 176.0
131.441055 244.0
131.516373 64.0
133.045532 152.0
133.80191 176.0
134.044586 668.0
134.089844 128.0
135.050705 360.0
136.502167 192.0
139.530167 140.0
140.139755 88.0
141.187851 144.0
141.391312 212.0
143.04808 164.0
144.422546 164.0
146.961853 164.0
150.359268 144.0
150.948013 200.0
151.006821 2196.0
151.043396 212.0
151.307693 52.0
152.007095 212.0
153.002075 192.0
153.248016 56.0
159.914886 60.0
160.33548 128.0
161.322418 128.0
162.865631 96.0
163.735489 152.0
165.07019 148.0
166.271683 172.0
166.484772 108.0
167.423462 112.0
167.9673 204.0
168.033234 4808.0
168.080811 36.0
168.184052 48.0
168.276978 68.0
168.295059 68.0
168.514603 40.0
168.566284 44.0
168.721359 40.0
169.033768 644.0
169.238831 104.0
169.389038 40.0
170.02948 152.0
179.455627 40.0
191.34874 96.0
192.929581 180.0
194.902969 216.0
212.914932 88.0
242.615768 136.0
242.935196 180.0
289.88446 196.0
304.205139 188.0
314.864014 100.0
350.866089 112.0
517.771912 76.0
975.667053 80.0
1043.065552 180.0
1058.537231 80.0
1089.454224 124.0
1096.633423 192.0
1196.44104 56.0
1248.132935 172.0
1348.590942 180.0
1376.287354 140.0
1379.227661 156.0
1386.518188 200.0
1407.511719 104.0
1415.992188 128.0
1420.842163 200.0
1463.227295 84.0
