>compound MLS000697747-01!2-methoxy-4-[(2S,3S)-7-methoxy-3-methyl-5-[(E)-prop-1-enyl]-2,3-dihydro-1-benzofuran-2-yl]phenol
>formula C20H22O4
>ionization [M+H]+
>parentmass 327.16
#inchi InChI=1S/C20H22O4/c1-5-6-13-9-15-12(2)19(24-20(15)18(10-13)23-4)14-7-8-16(21)17(11-14)22-3/h5-12,19,21H,1-4H3/b6-5+/t12-,19-/m0/s1
#inchikey ITDOFWOJEDZPCF
#Ion_Source LC-ESI
#Instrument qTof
#Compound_Source NIH Natural Product Library
#PI Dorrestein
#Data_Collector VVP/LMS
#Scan -1
#Precursor_MZ 327.16
#ExactMass 326.152
#Charge 1
#CAS_Number N/A
#Pubmed_ID N/A
#Smiles COc1cc(/C=C/C)cc2[C@H](C)[C@H](Oc21)c3ccc(O)c(OC)c3
#INCHI_AUX N/A
#Library_Class 1
#SpectrumID CCMSLIB00000080055
#IonMode Positive
#UpdateWorkflowName UPDATE-SINGLE-ANNOTATED-GOLD
#LibraryQualityString Gold
#TaskID b1d8e8f6646f4e71acdff9ca3d919d08
##Scan# 2516
#SpectrumFile p2-E03_GE3_01_18027.mzXML
#LibraryName NIH_Natural_Products_Library.mgf
#MQScore -1
#Organism NIH_Natural_Products_Library
#TIC_Query 0
#RT_Query -1
#MZErrorPPM -1
#SharedPeaks 0
#MassDiff 0
#LibMZ -1
#SpecMZ 327.16
#SpecCharge 0
#internalFilename spec-00000.mgf

>collision 10
95.002907 160.0
95.039772 156.0
95.090225 296.0
95.130981 160.0
95.14846 44.0
95.261093 136.0
95.51963 72.0
95.560486 160.0
95.930511 36.0
95.951958 196.0
96.98999 140.0
97.003708 88.0
97.964645 80.0
98.98774 180.0
99.221413 124.0
99.26516 216.0
99.604538 116.0
99.644272 144.0
100.877869 152.0
101.005852 144.0
101.113892 204.0
101.187958 192.0
101.562698 180.0
102.042412 172.0
102.449181 92.0
102.626534 168.0
103.054451 3352.0
103.123138 32.0
103.155479 40.0
103.5784 124.0
103.594604 124.0
104.060005 272.0
104.184937 164.0
104.498024 116.0
104.601814 176.0
104.666962 140.0
104.738243 160.0
105.037888 128.0
105.06749 356.0
105.509613 196.0
106.076668 184.0
106.386429 32.0
106.565102 240.0
107.050552 724.0
107.145416 128.0
107.411217 56.0
107.774567 156.0
108.022659 172.0
108.050209 340.0
108.797699 172.0
109.064384 532.0
109.413071 200.0
109.673454 64.0
109.76519 108.0
109.896599 128.0
110.475304 152.0
110.52552 80.0
110.567375 120.0
110.613419 76.0
110.85218 76.0
110.879425 268.0
111.736145 164.0
112.030884 120.0
112.178398 80.0
112.5476 192.0
113.196762 116.0
113.237 208.0
113.370468 140.0
114.434669 60.0
114.44957 100.0
114.649811 128.0
114.824623 100.0
115.008118 156.0
115.054451 1296.0
115.183205 180.0
115.22477 140.0
115.281487 200.0
115.533783 180.0
115.9599 192.0
115.979195 144.0
116.002769 100.0
116.060974 352.0
116.159309 164.0
116.676857 212.0
117.038307 148.0
117.069916 816.0
117.35289 112.0
117.389542 148.0
118.069801 104.0
118.279671 40.0
118.396591 160.0
118.888702 216.0
118.93428 48.0
119.048195 668.0
119.084099 88.0
119.793198 184.0
120.0494 212.0
120.377716 140.0
121.066338 296.0
121.119133 48.0
121.366776 176.0
121.468719 140.0
121.55761 100.0
121.581749 152.0
121.814491 124.0
121.854034 164.0
121.985893 176.0
122.037132 1444.0
122.329056 124.0
122.370888 68.0
123.043823 160.0
123.921356 48.0
124.05159 204.0
124.520294 208.0
124.586929 36.0
124.660255 204.0
125.024963 84.0
125.042763 44.0
125.428093 144.0
125.805641 64.0
125.988205 148.0
126.048248 192.0
126.482407 104.0
127.054504 156.0
127.676025 120.0
127.748001 112.0
127.867256 52.0
128.002335 220.0
128.061752 4124.0
128.498199 160.0
129.066284 1112.0
129.22345 72.0
129.449799 116.0
129.467911 80.0
129.726212 260.0
130.076416 208.0
130.55722 116.0
130.716461 176.0
130.839371 120.0
131.048737 2392.0
131.080811 192.0
131.09903 144.0
131.454773 132.0
131.687637 84.0
132.054962 492.0
132.083069 136.0
132.430984 152.0
132.999619 192.0
133.063477 916.0
133.213165 188.0
133.477463 96.0
134.039062 172.0
134.071381 160.0
134.382675 188.0
134.698959 200.0
135.044189 272.0
135.081055 236.0
135.302521 152.0
135.466949 180.0
135.682465 180.0
136.053528 132.0
136.081528 112.0
136.192993 172.0
136.557907 184.0
137.004822 216.0
137.060349 5516.0
137.112015 236.0
137.144638 44.0
137.342834 56.0
138.063354 512.0
138.335938 72.0
138.893631 168.0
138.985123 104.0
139.065811 420.0
139.231613 172.0
139.875839 124.0
140.066574 172.0
140.41069 152.0
140.84024 160.0
141.069626 716.0
141.213699 168.0
141.270462 164.0
142.076462 192.0
142.113876 136.0
142.177948 172.0
142.208801 172.0
142.514587 224.0
142.752838 184.0
143.050293 200.0
143.086014 2296.0
143.164536 60.0
143.228836 124.0
143.24968 96.0
143.567276 72.0
143.595901 72.0
143.631668 172.0
143.71994 92.0
143.865524 260.0
144.060028 520.0
144.088898 724.0
144.118683 164.0
144.905853 112.0
145.066132 1956.0
145.135956 64.0
145.212692 112.0
145.315842 60.0
145.815308 36.0
146.039154 152.0
146.072128 828.0
146.761368 188.0
146.852997 144.0
146.978455 236.0
147.012238 164.0
147.043594 540.0
147.079834 420.0
147.152237 56.0
147.28746 44.0
147.304367 104.0
147.459015 84.0
147.887115 48.0
148.008148 88.0
148.050003 1052.0
149.059097 868.0
149.095886 344.0
150.067932 160.0
150.105179 204.0
150.153946 96.0
150.673874 224.0
151.043167 188.0
151.074707 1508.0
151.106613 180.0
151.221619 88.0
151.615936 36.0
151.900345 216.0
152.062286 136.0
152.334839 60.0
153.04303 188.0
153.070557 680.0
153.733337 164.0
154.077667 180.0
154.395401 72.0
154.60321 96.0
155.057465 312.0
155.096466 204.0
155.153091 84.0
155.202682 52.0
155.609589 124.0
156.022003 160.0
156.057968 388.0
156.693954 136.0
157.067017 672.0
157.106705 184.0
157.314926 52.0
158.075989 160.0
158.370148 228.0
158.630753 148.0
158.904099 80.0
159.047302 212.0
159.081406 1048.0
159.396225 200.0
159.431412 96.0
159.536972 100.0
159.680298 144.0
160.055542 180.0
160.090057 264.0
160.218979 188.0
161.060272 1292.0
161.094009 660.0
161.309143 60.0
161.541794 40.0
161.610107 164.0
162.063766 788.0
162.111465 136.0
162.162155 76.0
162.438538 64.0
162.562851 164.0
162.961502 148.0
163.076721 1556.0
163.75264 148.0
164.084732 260.0
164.617172 216.0
165.063309 412.0
165.091843 516.0
166.072174 260.0
166.097534 380.0
167.089142 164.0
167.703506 160.0
168.05423 104.0
168.24263 172.0
168.880554 152.0
169.065857 284.0
169.191406 240.0
170.068741 152.0
170.090942 236.0
170.410355 92.0
170.977234 184.0
171.080444 2772.0
171.375305 152.0
171.495514 40.0
171.667587 128.0
171.918015 132.0
172.084396 616.0
172.134689 168.0
172.790741 240.0
173.00795 100.0
173.060226 1640.0
173.429688 240.0
173.466385 32.0
173.686661 80.0
174.06665 560.0
174.108734 220.0
174.343033 208.0
174.537552 48.0
174.576996 64.0
174.614334 100.0
174.829544 56.0
174.929565 64.0
175.073639 1008.0
175.116577 164.0
176.063324 188.0
176.116135 160.0
176.142548 140.0
176.75592 188.0
176.909424 180.0
177.090744 1088.0
177.349136 84.0
178.049576 104.0
178.08194 140.0
178.288666 112.0
178.54921 112.0
179.025574 192.0
179.08786 308.0
179.164078 184.0
179.318619 64.0
179.878754 44.0
180.054977 176.0
180.111069 96.0
180.964142 160.0
181.064285 352.0
181.089966 256.0
181.489304 164.0
182.070129 304.0
183.076797 320.0
183.721588 80.0
184.080566 168.0
184.558838 88.0
185.062103 336.0
185.091888 152.0
185.712494 132.0
185.967529 164.0
187.075195 1468.0
187.155518 32.0
187.869583 196.0
188.046936 260.0
188.08284 5076.0
188.117905 56.0
188.292664 76.0
188.341827 92.0
188.497543 52.0
189.090271 536.0
189.345596 44.0
189.414062 88.0
189.597641 64.0
190.091049 260.0
190.201035 104.0
190.308105 52.0
190.379501 84.0
190.442062 92.0
190.59375 96.0
191.085953 700.0
191.259933 136.0
191.812943 148.0
192.071518 160.0
192.092438 672.0
192.171448 76.0
193.067368 164.0
193.103928 344.0
193.492554 120.0
194.069809 236.0
194.107651 156.0
194.251877 80.0
195.080444 468.0
196.049622 292.0
196.075851 92.0
196.167831 56.0
196.817886 228.0
197.010605 168.0
197.044128 108.0
197.091248 148.0
197.625671 80.0
198.07074 184.0
198.928864 200.0
199.001846 160.0
200.078644 76.0
200.692841 108.0
201.104706 240.0
202.074356 92.0
202.094467 168.0
202.170181 168.0
203.106674 628.0
204.087296 152.0
204.107697 180.0
204.967285 64.0
205.061035 420.0
205.451981 60.0
205.483353 160.0
205.600357 72.0
205.651718 72.0
206.073349 364.0
206.111511 208.0
207.082016 268.0
207.11644 556.0
207.141449 56.0
207.316223 48.0
208.056244 132.0
208.087814 68.0
208.122269 116.0
209.053604 124.0
209.097809 236.0
210.099518 180.0
211.083633 280.0
212.048447 152.0
212.079605 224.0
212.141205 68.0
213.023376 220.0
213.061142 136.0
214.064606 40.0
215.085007 100.0
216.083588 200.0
216.248306 172.0
216.544022 100.0
217.05687 168.0
217.099228 144.0
219.078064 496.0
219.117264 64.0
220.086136 788.0
221.054199 52.0
221.093262 416.0
221.776825 92.0
221.889465 84.0
222.073288 184.0
223.070816 516.0
223.108154 308.0
223.130463 164.0
224.011337 144.0
224.083755 156.0
224.255676 48.0
224.64032 140.0
224.998444 172.0
225.055161 44.0
225.08696 160.0
227.070892 228.0
227.105087 116.0
227.849548 216.0
228.089951 172.0
228.598236 56.0
230.075119 152.0
231.076935 120.0
232.044647 120.0
232.093155 136.0
233.012802 128.0
233.061417 84.0
233.094833 188.0
234.001251 180.0
234.0672 264.0
234.10173 152.0
235.076126 304.0
235.111496 1468.0
235.60849 124.0
236.045563 152.0
236.083954 184.0
236.107925 152.0
236.838211 104.0
237.049103 148.0
237.091095 620.0
237.273346 136.0
237.656723 56.0
237.678207 36.0
237.776398 72.0
238.043488 104.0
238.069183 196.0
238.098358 284.0
238.134171 136.0
238.452072 48.0
239.074234 304.0
239.101593 124.0
239.141006 172.0
240.075607 256.0
240.345947 88.0
240.64534 68.0
240.948013 84.0
241.114334 184.0
241.173599 172.0
241.779785 52.0
243.118576 112.0
243.410385 44.0
245.1026 172.0
246.100983 148.0
247.07988 420.0
247.864777 152.0
248.082352 332.0
248.112381 244.0
248.658173 156.0
249.050644 156.0
249.09462 136.0
249.421417 132.0
250.059906 188.0
250.173218 104.0
250.642502 160.0
251.070679 344.0
251.104919 140.0
252.074585 156.0
252.108658 224.0
253.055618 108.0
253.084778 116.0
253.113342 52.0
254.047592 156.0
254.096558 128.0
254.946136 40.0
255.063156 232.0
255.10405 300.0
255.578934 64.0
256.069183 120.0
256.105865 160.0
256.164734 160.0
259.094177 160.0
261.097107 88.0
261.138916 88.0
261.206451 164.0
262.101715 148.0
263.108978 656.0
264.111633 212.0
265.088684 512.0
265.703278 68.0
265.800629 108.0
266.098572 392.0
266.735962 44.0
267.104675 404.0
267.13974 184.0
267.184723 136.0
268.084045 180.0
268.142059 100.0
268.866058 120.0
269.07489 176.0
269.110687 380.0
269.532227 36.0
270.079742 204.0
270.886688 148.0
271.804688 64.0
272.84256 52.0
277.137329 136.0
278.124695 176.0
279.106201 224.0
280.115601 496.0
281.116669 144.0
281.163391 128.0
282.128723 128.0
283.005249 172.0
283.095215 1024.0
283.189453 76.0
283.601562 76.0
284.101349 136.0
284.168304 132.0
285.10849 140.0
285.777649 64.0
286.134399 184.0
290.443024 104.0
291.332397 80.0
293.111725 172.0
293.520844 60.0
293.626556 132.0
294.133209 144.0
294.309052 48.0
295.149597 164.0
296.152313 164.0
297.114838 372.0
298.120514 536.0
298.437836 52.0
298.499725 68.0
298.647583 56.0
299.132751 104.0
309.464752 96.0
311.123077 116.0
312.131012 308.0
313.025208 80.0
313.130951 164.0
315.081512 92.0
319.015198 96.0
325.137329 172.0
325.173218 128.0
325.449615 56.0
357.24115 72.0
386.633789 48.0
441.760254 32.0
464.599701 104.0
518.678772 80.0
555.419922 96.0
627.861938 64.0
665.745056 68.0
722.185059 84.0
822.872009 188.0
823.334473 152.0
833.933472 144.0
860.797485 184.0
888.425476 148.0
896.63092 276.0
922.265137 72.0
940.97522 128.0
952.850464 144.0
957.599243 56.0
963.879272 148.0
987.108765 208.0
1002.658386 164.0
1034.071045 144.0
1040.737793 84.0
1048.192749 164.0
1058.521362 196.0
1066.760986 132.0
1078.74231 32.0
1083.998413 212.0
1095.265015 176.0
1099.695801 120.0
1104.254517 152.0
1105.200439 160.0
1107.994385 72.0
1115.526367 124.0
1119.924683 52.0
1124.291504 160.0
1134.706055 208.0
1140.774902 156.0
1140.983276 48.0
1143.36438 40.0
1147.446289 168.0
1149.61145 104.0
1151.670532 156.0
1156.674072 176.0
1156.822998 176.0
1159.925415 204.0
1163.289917 208.0
1163.405273 160.0
1172.287964 196.0
1173.5354 180.0
1176.243652 88.0
1180.31543 120.0
1184.620239 148.0
1185.874146 120.0
1186.957275 32.0
1195.110474 148.0
1195.839844 128.0
1204.64502 132.0
1208.267334 216.0
1209.547607 160.0
1217.1875 164.0
1223.632812 144.0
1225.924316 128.0
1227.618286 116.0
1233.329102 120.0
1236.259521 164.0
1242.046509 108.0
1249.738892 212.0
1251.963257 220.0
1253.822998 164.0
1258.605713 92.0
1259.98999 140.0
1265.265747 188.0
1265.350708 208.0
1267.015015 152.0
1272.348022 220.0
1286.057983 120.0
1292.797363 48.0
1293.463013 228.0
1296.356323 168.0
1298.887207 132.0
1301.599976 188.0
1302.174438 180.0
1302.224731 80.0
1304.782837 192.0
1316.982422 196.0
1318.073364 156.0
1318.225098 164.0
1318.311768 108.0
1321.449829 144.0
1322.962402 168.0
1325.66394 188.0
1341.4646 156.0
1343.615845 124.0
1345.257812 116.0
1348.742065 140.0
1349.7948 244.0
1352.304077 84.0
1354.903442 192.0
1358.209473 156.0
1358.275513 168.0
1358.994507 184.0
1362.621338 108.0
1368.218018 164.0
1368.54187 116.0
1371.142212 160.0
1371.820312 284.0
1372.550171 220.0
1373.07373 84.0
1376.867065 104.0
1377.516968 164.0
1380.000122 204.0
1381.294312 168.0
1383.751099 176.0
1384.173218 108.0
1384.417603 176.0
1386.284302 124.0
1387.21814 144.0
1397.444336 264.0
1398.255493 92.0
1403.037476 216.0
1403.827759 200.0
1405.670288 112.0
1409.919312 216.0
1412.640869 152.0
1412.760498 136.0
1414.107422 224.0
1417.125122 168.0
1419.043823 168.0
1430.214233 136.0
1433.16626 192.0
1433.565674 28.0
1435.284302 176.0
1438.581177 172.0
1441.844116 148.0
1443.182129 104.0
1443.461792 256.0
1445.178833 220.0
1454.560791 188.0
1455.942627 212.0
1457.598633 52.0
1458.259766 132.0
1458.974243 188.0
1459.194702 168.0
1460.091919 220.0
1462.130859 120.0
1464.970825 236.0
1467.127441 204.0
1468.576172 224.0
1469.7052 216.0
1470.178345 172.0
1470.491211 144.0
1471.338501 124.0
1477.100342 80.0
1477.459839 176.0
1481.440552 92.0
1487.083984 148.0
1488.112671 144.0
1492.492065 144.0
1493.391846 80.0
1493.599487 232.0
1493.822632 204.0
1495.954102 236.0
1497.12439 104.0
1497.332397 92.0
1498.33374 196.0
1503.129395 124.0
1504.140381 132.0
