>compound MLS001048955-01!2,2-dimethyl-4,10-dihydro-3H-pyrano[2,3-b]quinolin-5-one
>formula C14H15NO2
>ionization [M+H]+
>parentmass 230.117477
#inchi InChI=1S/C14H15NO2/c1-14(2)8-7-10-12(16)9-5-3-4-6-11(9)15-13(10)17-14/h3-6H,7-8H2,1-2H3,(H,15,16)
#inchikey WRCTUFLKPSXQDM
#Ion_Source LC-ESI
#Instrument qTof
#Compound_Source NIH Natural Product Library
#PI Dorrestein
#Data_Collector VVP/LMS
#Scan -1
#Precursor_MZ 230.118
#ExactMass 229.11
#Charge 1
#CAS_Number N/A
#Pubmed_ID N/A
#Smiles CC1(C)CCc2c(O)c3ccccc3nc2O1
#INCHI_AUX N/A
#Library_Class 1
#SpectrumID CCMSLIB00000079815
#IonMode Positive
#UpdateWorkflowName UPDATE-SINGLE-ANNOTATED-GOLD
#LibraryQualityString Gold
#TaskID b1d8e8f6646f4e71acdff9ca3d919d08
##Scan# 1639
#SpectrumFile p1-D11_GD11_01_17919.mzXML
#LibraryName NIH_Natural_Products_Library.mgf
#MQScore -1
#Organism NIH_Natural_Products_Library
#TIC_Query 0
#RT_Query -1
#MZErrorPPM -1
#SharedPeaks 0
#MassDiff 0
#LibMZ -1
#SpecMZ 230.118
#SpecCharge 0
#internalFilename spec-00000.mgf

>collision 10
94.979057 224.0
94.996513 160.0
95.078003 136.0
95.170082 140.0
95.186714 208.0
95.248856 176.0
95.26828 188.0
95.283821 132.0
95.306435 188.0
95.322685 184.0
95.342896 100.0
95.412491 192.0
95.437363 240.0
95.470421 164.0
95.493759 224.0
95.511261 324.0
95.532661 236.0
95.608543 68.0
95.787003 188.0
95.850006 148.0
95.885582 220.0
95.920166 188.0
96.01281 132.0
96.066414 100.0
96.090988 148.0
96.17569 208.0
96.303024 200.0
96.367065 184.0
96.412003 232.0
96.470642 120.0
96.527336 164.0
96.542984 132.0
96.569046 184.0
96.593834 152.0
96.638824 156.0
96.664635 148.0
96.775833 240.0
96.833298 244.0
96.907059 196.0
96.973335 224.0
96.997208 164.0
97.016808 196.0
97.049377 176.0
97.130539 128.0
97.201927 124.0
97.31926 192.0
97.452492 192.0
97.54879 136.0
97.564514 152.0
97.623497 192.0
97.713982 164.0
97.729721 132.0
97.751366 116.0
97.790726 160.0
97.816307 36.0
97.857971 148.0
97.924599 128.0
97.993546 204.0
98.056602 188.0
98.08223 100.0
98.109825 204.0
98.251816 208.0
98.285355 128.0
98.431419 108.0
98.52227 100.0
98.555855 140.0
98.571663 48.0
98.662788 188.0
98.769363 120.0
98.799034 188.0
98.824753 160.0
98.886101 124.0
98.955383 156.0
98.971222 200.0
99.080147 92.0
99.187157 108.0
99.261772 176.0
99.361664 184.0
99.408371 148.0
99.587509 160.0
99.641594 364.0
99.770767 112.0
99.792633 200.0
99.875015 264.0
99.941803 164.0
99.959717 128.0
99.987572 192.0
100.007088 164.0
100.033356 88.0
100.138885 204.0
100.184532 196.0
100.272369 176.0
100.405937 172.0
100.429871 128.0
100.445831 220.0
100.489716 40.0
100.571533 216.0
100.587502 188.0
100.676613 120.0
100.775223 188.0
100.801201 140.0
100.819183 48.0
100.914131 156.0
100.931129 56.0
101.0383 1636.0
101.081146 144.0
101.126801 260.0
101.160637 100.0
101.206177 120.0
101.261314 80.0
101.305382 188.0
101.319405 120.0
101.376869 276.0
101.481735 136.0
101.517227 120.0
101.565964 56.0
101.763634 192.0
101.792747 140.0
101.849701 200.0
101.879105 140.0
101.931343 124.0
101.985603 132.0
102.033051 832.0
102.113457 136.0
102.153419 184.0
102.182671 192.0
102.243042 172.0
102.258812 220.0
102.285301 156.0
102.31147 180.0
102.353752 188.0
102.420212 188.0
102.502869 140.0
102.518478 232.0
102.539085 144.0
102.558647 164.0
102.577377 176.0
102.658028 152.0
102.684242 116.0
102.728615 204.0
102.750809 204.0
102.775017 116.0
102.799232 200.0
102.82547 184.0
102.904022 192.0
102.989006 44.0
103.053879 1144.0
103.170868 240.0
103.261856 188.0
103.348839 120.0
103.375145 148.0
103.405502 180.0
103.513123 124.0
103.853104 52.0
103.870949 172.0
103.899277 348.0
103.928322 152.0
103.964844 132.0
104.02494 144.0
104.048759 524.0
104.086639 40.0
104.121162 516.0
104.157722 108.0
104.182098 44.0
104.198349 220.0
104.222725 204.0
104.259308 136.0
104.285728 168.0
104.305275 188.0
104.336403 172.0
104.395508 116.0
104.458557 32.0
104.480934 56.0
104.535866 160.0
104.572502 184.0
104.79213 140.0
104.926682 192.0
105.032433 348.0
105.054108 364.0
105.079895 144.0
105.163559 196.0
105.196213 160.0
105.210503 188.0
105.287468 144.0
105.308517 92.0
105.333031 168.0
105.36367 116.0
105.455429 172.0
105.635559 160.0
105.746048 56.0
105.771629 40.0
105.950806 188.0
105.972412 176.0
106.017754 172.0
106.03083 176.0
106.065102 2008.0
106.108612 168.0
106.161919 232.0
106.299362 172.0
106.360931 192.0
106.443047 164.0
106.460716 172.0
106.466194 104.0
106.474838 200.0
106.519035 180.0
106.564232 172.0
106.666985 164.0
106.736885 164.0
106.755394 152.0
106.798576 92.0
106.860291 168.0
106.880867 56.0
106.897331 184.0
106.922028 148.0
106.940544 100.0
106.965248 164.0
107.04554 184.0
107.070152 344.0
107.162941 192.0
107.189728 100.0
107.210335 136.0
107.290726 168.0
107.443176 108.0
107.503166 124.0
107.525864 188.0
107.620819 148.0
107.736473 116.0
107.804657 380.0
107.864288 160.0
107.972107 200.0
108.160385 216.0
108.208 136.0
108.406837 232.0
108.487671 216.0
108.510475 168.0
108.536514 132.0
108.724121 256.0
108.768745 156.0
108.809227 196.0
108.86084 168.0
108.955597 152.0
109.00531 276.0
109.054024 132.0
109.08136 204.0
109.199875 44.0
109.251877 216.0
109.322449 192.0
109.347595 128.0
109.36216 128.0
109.624573 120.0
109.672501 196.0
109.728783 196.0
109.785278 172.0
109.826797 128.0
109.887291 128.0
109.912331 160.0
109.957008 204.0
109.972733 148.0
110.12735 144.0
110.207962 228.0
110.28614 136.0
110.315407 156.0
110.404266 128.0
110.503502 144.0
110.508545 136.0
110.514694 192.0
110.540733 152.0
110.62291 228.0
110.639412 164.0
110.702469 96.0
110.769485 124.0
110.876343 116.0
110.897301 224.0
110.916168 120.0
110.943413 152.0
110.96019 164.0
110.981155 180.0
111.027283 160.0
111.083916 224.0
111.18882 152.0
111.281792 192.0
111.369377 104.0
111.390381 136.0
111.472321 172.0
111.508049 152.0
111.522758 128.0
111.537468 56.0
111.608948 164.0
111.644699 212.0
111.659416 260.0
111.688866 228.0
111.717751 120.0
111.745659 160.0
111.787743 172.0
111.852989 124.0
111.880348 160.0
112.002487 76.0
112.048828 104.0
112.109932 228.0
112.135223 160.0
112.168945 28.0
112.255386 208.0
112.468399 124.0
112.483017 152.0
112.552147 240.0
112.721893 160.0
112.778954 180.0
112.827568 180.0
112.852936 176.0
112.869858 156.0
112.931183 180.0
113.024261 156.0
113.051773 164.0
113.127968 164.0
113.212654 168.0
113.276833 168.0
113.308418 180.0
113.3228 200.0
113.386375 192.0
113.413925 208.0
113.509323 196.0
113.579308 192.0
113.596275 48.0
113.63871 176.0
113.746941 204.0
113.806381 192.0
113.867958 116.0
113.913483 168.0
113.934715 216.0
113.972923 224.0
114.063431 196.0
114.139969 160.0
114.159103 84.0
114.213966 176.0
114.235672 100.0
114.28035 128.0
114.301628 140.0
114.352699 188.0
114.403175 140.0
114.46553 228.0
114.489677 176.0
114.512375 200.0
114.548584 196.0
114.57415 112.0
114.610367 140.0
114.691353 112.0
114.808609 148.0
114.857666 64.0
114.9366 116.0
115.054207 912.0
115.129723 192.0
115.173225 76.0
115.216728 192.0
115.276115 196.0
115.319099 176.0
115.370499 200.0
115.402222 180.0
115.449265 132.0
115.599007 188.0
115.618263 164.0
115.738136 160.0
115.806175 52.0
115.87307 164.0
115.915924 124.0
116.023087 180.0
116.050087 1212.0
116.138298 192.0
116.158188 120.0
116.196625 196.0
116.251785 204.0
116.364204 76.0
116.450096 188.0
116.467278 120.0
116.518829 204.0
116.568253 180.0
116.588745 172.0
116.62413 164.0
116.66497 52.0
116.766029 136.0
116.783234 176.0
116.800438 160.0
116.871429 128.0
116.961815 192.0
117.019943 160.0
117.057983 1236.0
117.122154 180.0
117.192245 132.0
117.233185 100.0
117.315086 140.0
117.347923 144.0
117.457405 188.0
117.478973 196.0
117.49839 196.0
117.519547 144.0
117.541542 68.0
117.627869 60.0
117.65593 144.0
117.720703 220.0
117.781982 32.0
117.800613 144.0
117.850304 156.0
117.934586 28.0
117.949715 72.0
118.023216 164.0
118.037491 192.0
118.064476 4276.0
118.107559 232.0
118.163803 268.0
118.360497 164.0
118.39521 224.0
118.603394 180.0
118.634346 72.0
118.650879 208.0
118.691307 196.0
118.707458 164.0
118.722641 68.0
118.752998 184.0
118.829468 80.0
119.010979 136.0
119.048561 368.0
119.069542 448.0
119.098099 208.0
119.152405 200.0
119.252365 180.0
119.284767 220.0
119.339317 196.0
119.405952 168.0
119.439354 164.0
119.508965 140.0
119.53231 252.0
119.585129 168.0
119.661697 300.0
119.677635 184.0
119.739868 160.0
119.763664 92.0
119.778908 164.0
119.804794 168.0
119.852982 100.0
119.871017 240.0
119.898743 384.0
119.916176 172.0
119.97654 196.0
120.014801 132.0
120.044922 57772.0
120.125587 96.0
120.154945 152.0
120.173843 100.0
120.187675 204.0
120.217133 32.0
120.243187 64.0
120.304245 180.0
120.351982 180.0
120.403488 160.0
120.431084 48.0
120.559982 32.0
120.605873 140.0
120.636475 156.0
120.660522 184.0
120.675827 100.0
120.716316 248.0
120.778458 172.0
120.801033 48.0
120.86393 68.0
120.893982 120.0
120.938843 68.0
120.970528 68.0
121.047226 3432.0
121.078453 208.0
121.110573 96.0
121.119247 64.0
121.12561 136.0
121.185791 72.0
121.227417 96.0
121.251526 220.0
121.347977 140.0
121.385246 72.0
121.433495 36.0
121.475166 120.0
121.519043 204.0
121.554649 176.0
121.609016 168.0
121.669586 140.0
121.694626 164.0
121.712189 84.0
121.764893 156.0
121.792305 192.0
121.851601 144.0
121.87912 104.0
121.914284 108.0
121.932632 80.0
121.951645 136.0
121.976921 88.0
121.993408 144.0
122.013191 160.0
122.051605 148.0
122.101387 160.0
122.180328 56.0
122.19725 220.0
122.205399 152.0
122.210785 152.0
122.241119 140.0
122.27494 148.0
122.31456 112.0
122.391617 64.0
122.429047 104.0
122.448868 132.0
122.501732 124.0
122.631729 120.0
122.65377 196.0
122.702271 88.0
122.724319 72.0
122.777237 164.0
122.856064 152.0
122.896355 200.0
122.916214 92.0
122.973587 132.0
123.046432 124.0
123.072548 232.0
123.100471 200.0
123.143593 148.0
123.187767 48.0
123.245209 136.0
123.280563 104.0
123.311501 56.0
123.351288 136.0
123.48616 140.0
123.506073 84.0
123.556946 100.0
123.572433 188.0
123.592346 160.0
123.625542 168.0
123.70079 196.0
123.722923 172.0
123.788864 184.0
123.829147 144.0
123.908234 172.0
124.03083 172.0
124.061867 208.0
124.206001 52.0
124.292519 44.0
124.35466 164.0
124.375252 172.0
124.514511 116.0
124.547821 60.0
124.603355 60.0
124.647797 144.0
124.686272 152.0
124.712242 196.0
124.854935 132.0
124.872322 104.0
124.901237 32.0
125.005798 96.0
125.034332 148.0
125.054764 180.0
125.130447 220.0
125.199471 172.0
125.409492 208.0
125.524818 132.0
125.625183 200.0
125.643028 172.0
125.683189 140.0
125.698807 112.0
125.732277 176.0
125.790314 76.0
125.845032 172.0
125.87738 204.0
125.971184 180.0
126.006927 240.0
126.07843 224.0
126.230438 164.0
126.26622 152.0
126.308716 156.0
126.34227 136.0
126.485481 180.0
126.519058 212.0
126.648933 144.0
126.680298 188.0
126.707176 116.0
126.747505 192.0
126.767303 72.0
127.041611 188.0
127.095055 28.0
127.181076 192.0
127.2342 72.0
127.294823 224.0
127.344231 112.0
127.380165 136.0
127.406448 200.0
127.438576 180.0
127.465538 180.0
127.559929 120.0
127.60714 60.0
127.652107 92.0
127.726326 120.0
127.782127 184.0
127.787125 148.0
127.794296 188.0
127.83094 168.0
127.861374 180.0
127.888329 112.0
127.919563 192.0
127.957108 288.0
128.015778 320.0
128.049896 35432.0
128.097855 148.0
128.147614 76.0
128.190735 96.0
128.235184 36.0
128.250961 40.0
128.314072 64.0
128.349503 160.0
128.365936 68.0
128.385605 136.0
128.42514 296.0
128.465164 60.0
128.487732 92.0
128.53511 232.0
128.580246 80.0
128.602814 32.0
128.729233 44.0
128.756104 80.0
128.77626 248.0
128.887344 60.0
128.907684 124.0
128.989044 140.0
129.05101 2300.0
129.098694 204.0
129.149109 168.0
129.217453 144.0
129.250076 28.0
129.285339 64.0
129.307968 72.0
129.326065 40.0
129.355499 120.0
129.373611 188.0
129.39624 124.0
129.434738 156.0
129.455109 40.0
129.49588 84.0
129.566757 232.0
129.66806 88.0
129.687195 108.0
129.745132 72.0
129.774597 108.0
129.795013 204.0
129.82135 168.0
129.92012 220.0
129.937088 124.0
129.973526 200.0
129.982697 140.0
129.991241 164.0
130.028732 7652.0
130.065704 272.0
130.090744 148.0
130.160324 44.0
130.176224 76.0
130.248901 100.0
130.27388 84.0
130.292053 68.0
130.3125 40.0
130.357941 156.0
130.378403 236.0
130.464767 184.0
130.559967 92.0
130.59967 132.0
130.630768 272.0
130.678543 140.0
130.726334 120.0
130.753647 164.0
130.769577 148.0
130.785507 120.0
130.828751 120.0
130.849243 76.0
130.884399 172.0
131.033142 832.0
131.068634 176.0
131.1203 136.0
131.190964 100.0
131.243393 56.0
131.473785 136.0
131.496613 232.0
131.599701 124.0
131.619064 56.0
131.66098 40.0
131.694214 256.0
131.72493 104.0
131.756912 196.0
131.795761 132.0
131.876602 212.0
131.904434 152.0
131.928314 160.0
131.951172 212.0
131.994614 144.0
132.044922 4636.0
132.154724 192.0
132.168976 160.0
132.239395 156.0
132.26915 144.0
132.293427 164.0
132.333252 100.0
132.397537 244.0
132.455429 236.0
132.482101 112.0
132.506409 144.0
132.568924 192.0
132.610428 64.0
132.626465 48.0
132.658554 168.0
132.679184 52.0
132.725052 176.0
132.768616 216.0
132.786957 188.0
132.855774 156.0
132.900269 132.0
133.010788 296.0
133.050873 308.0
133.101349 72.0
133.317276 188.0
133.355392 328.0
133.393112 124.0
133.4207 120.0
133.436798 136.0
133.487381 184.0
133.54718 172.0
133.563278 168.0
133.588577 72.0
133.639191 204.0
133.682907 44.0
133.747345 168.0
133.763458 88.0
133.85556 136.0
134.039825 160.0
134.095139 96.0
134.208084 172.0
134.274963 52.0
134.311859 188.0
134.332626 48.0
134.394852 144.0
134.475677 76.0
134.606567 144.0
134.637283 192.0
134.683487 128.0
134.699646 184.0
134.722748 160.0
134.810547 176.0
134.826721 172.0
134.951553 152.0
134.979294 208.0
135.031754 164.0
135.062546 76.0
135.118073 160.0
135.15509 212.0
135.180542 196.0
135.312469 192.0
135.462997 244.0
135.479218 148.0
135.544083 128.0
135.562622 96.0
135.608475 184.0
135.667953 188.0
135.729523 156.0
135.759659 208.0
135.806046 120.0
135.86171 152.0
135.903473 64.0
135.980057 188.0
136.161148 72.0
136.226181 204.0
136.298203 188.0
136.560883 204.0
136.68605 140.0
136.703308 144.0
136.733047 120.0
136.786591 100.0
136.828491 176.0
136.916962 148.0
136.958893 136.0
137.041946 184.0
137.048889 120.0
137.087021 104.0
137.24527 144.0
137.285172 156.0
137.406464 172.0
137.460129 64.0
137.47879 148.0
137.569824 184.0
137.621674 152.0
137.815033 236.0
137.871124 76.0
137.899155 112.0
138.059555 232.0
138.238266 160.0
138.334213 188.0
138.751205 140.0
138.779343 36.0
138.873138 140.0
138.936478 128.0
138.957581 104.0
138.974014 164.0
139.008499 160.0
139.067871 92.0
139.105438 208.0
139.128906 228.0
139.294464 168.0
139.319122 140.0
139.370819 136.0
139.5233 172.0
139.549988 156.0
139.60965 192.0
139.715668 212.0
139.739944 280.0
139.827011 76.0
139.86937 144.0
139.901382 160.0
140.049698 204.0
140.095428 152.0
140.293381 204.0
140.34996 88.0
140.42543 188.0
140.536301 164.0
140.607086 36.0
140.649567 184.0
140.667191 112.0
140.880981 172.0
140.942413 172.0
140.961319 80.0
141.008575 196.0
141.033722 144.0
141.058563 188.0
141.099976 60.0
141.124405 208.0
141.167801 204.0
141.271027 52.0
141.356201 160.0
141.396439 88.0
141.41774 256.0
141.514786 180.0
141.555038 180.0
141.704269 140.0
141.730331 104.0
141.797836 220.0
141.822754 152.0
141.884384 164.0
141.972549 176.0
142.010056 188.0
142.063904 808.0
142.093079 56.0
142.137314 180.0
142.211731 136.0
142.398636 172.0
142.458679 164.0
142.544205 212.0
142.841385 192.0
142.953201 176.0
143.000809 236.0
143.024597 104.0
143.074142 172.0
143.112686 204.0
143.292816 120.0
143.447739 200.0
143.479034 172.0
143.522507 232.0
143.558273 144.0
143.775345 116.0
143.820694 108.0
144.009323 120.0
144.043686 1380.0
144.130463 168.0
144.166992 56.0
144.199936 216.0
144.32576 200.0
144.358231 232.0
144.394104 88.0
144.458679 172.0
144.566345 168.0
144.68602 128.0
144.740158 144.0
144.815338 96.0
144.903961 84.0
144.966858 224.0
144.999817 232.0
145.018982 240.0
145.048798 172.0
145.155624 140.0
145.209839 312.0
145.255112 176.0
145.302338 192.0
145.371521 144.0
145.455521 116.0
145.571045 172.0
145.645203 96.0
145.698059 136.0
145.731689 32.0
145.770966 196.0
145.814423 220.0
145.835022 124.0
145.918549 156.0
145.950409 176.0
145.982239 188.0
146.024933 1948.0
146.060089 24420.0
146.101379 176.0
146.136017 116.0
146.170258 72.0
146.19577 44.0
146.222656 188.0
146.241501 144.0
146.269669 188.0
146.288193 120.0
146.378067 140.0
146.412979 124.0
146.44133 72.0
146.465424 172.0
146.482285 184.0
146.525635 44.0
146.566605 140.0
146.619614 120.0
146.689514 40.0
146.713608 116.0
146.735306 152.0
146.805237 60.0
146.841415 152.0
146.892059 140.0
146.94754 120.0
146.97818 132.0
147.028046 200.0
147.063385 1288.0
147.106827 52.0
147.164764 88.0
147.188904 164.0
147.205811 156.0
147.382568 252.0
147.456223 128.0
147.494614 172.0
147.536819 60.0
147.585175 108.0
147.611771 200.0
147.638367 156.0
147.694 164.0
147.715759 240.0
147.865784 188.0
147.887558 80.0
147.906921 188.0
147.956924 116.0
147.99408 112.0
148.022949 208.0
148.044922 120.0
148.132111 144.0
148.192932 172.0
148.210815 280.0
148.236298 60.0
148.254242 216.0
148.298187 216.0
148.379303 56.0
148.565826 236.0
148.65889 192.0
148.756927 156.0
148.849991 124.0
148.925278 60.0
148.980713 156.0
148.996429 180.0
149.056458 140.0
149.187714 104.0
149.207153 164.0
149.564743 184.0
149.642639 168.0
149.741135 160.0
149.774139 164.0
149.796066 104.0
149.837479 84.0
149.859406 232.0
149.91301 148.0
149.93251 168.0
150.000748 188.0
150.103149 100.0
150.171432 224.0
150.322678 200.0
150.369049 80.0
150.427628 160.0
150.478897 164.0
150.554581 132.0
150.586334 196.0
150.666946 164.0
150.6987 60.0
150.730469 164.0
150.801331 168.0
150.918671 164.0
150.955353 160.0
150.988358 160.0
151.094772 180.0
151.15593 116.0
151.264893 212.0
151.300339 196.0
151.332169 196.0
151.530548 208.0
151.574539 184.0
151.677582 76.0
151.706879 168.0
151.790359 128.0
151.861481 108.0
151.883545 172.0
151.900726 140.0
151.925247 144.0
151.971863 180.0
152.03566 208.0
152.074936 168.0
152.140381 144.0
152.185852 108.0
152.224686 192.0
152.26889 116.0
152.372406 164.0
152.4478 260.0
152.553909 176.0
152.750626 112.0
152.802185 184.0
152.986862 220.0
153.408112 48.0
153.52356 184.0
153.553574 108.0
153.76329 136.0
153.800308 148.0
153.923737 140.0
153.941025 152.0
153.975601 148.0
154.000305 124.0
154.027466 200.0
154.05748 136.0
154.168289 148.0
154.2202 216.0
154.257828 140.0
154.279526 156.0
154.301773 172.0
154.430359 216.0
154.464661 216.0
154.598587 160.0
154.670349 120.0
154.687683 104.0
154.729767 152.0
154.870911 152.0
154.905594 128.0
154.938568 244.0
155.002213 232.0
155.026993 180.0
155.106003 168.0
155.252579 144.0
155.284821 160.0
155.314575 104.0
155.374115 92.0
155.413544 188.0
155.446075 100.0
155.635498 228.0
155.671967 232.0
155.71666 140.0
155.923065 316.0
155.967773 180.0
156.044495 33988.0
156.11586 116.0
156.168518 104.0
156.223724 52.0
156.305832 36.0
156.334717 184.0
156.361496 268.0
156.391602 92.0
156.417343 172.0
156.440842 116.0
156.470581 124.0
156.589615 40.0
156.636948 64.0
156.681183 200.0
156.706696 84.0
156.744064 72.0
156.768982 56.0
156.811356 76.0
156.889954 160.0
156.918533 124.0
156.947769 204.0
156.968414 136.0
157.046738 3520.0
157.100372 220.0
157.130524 52.0
157.152985 52.0
157.182922 84.0
157.228195 56.0
157.234894 92.0
157.243866 124.0
157.322693 164.0
157.365128 48.0
157.392593 284.0
157.455017 144.0
157.532455 196.0
157.574921 140.0
157.701111 108.0
157.724854 180.0
157.79985 156.0
157.88237 156.0
157.899872 32.0
157.947708 160.0
157.992004 144.0
158.051773 128.0
158.055313 252.0
158.104553 216.0
158.17009 104.0
158.217651 92.0
158.242691 80.0
158.319778 308.0
158.337845 56.0
158.385422 176.0
158.409286 152.0
158.440536 180.0
158.460587 188.0
158.518204 196.0
158.652283 192.0
158.907715 128.0
159.024567 180.0
159.056152 352.0
159.150299 164.0
159.255783 140.0
159.316055 132.0
159.393951 84.0
159.434158 192.0
159.46431 188.0
159.521606 116.0
159.610107 108.0
159.667953 140.0
159.703156 36.0
159.846558 156.0
159.866684 232.0
159.901917 52.0
160.206589 76.0
160.264542 140.0
160.473724 164.0
160.617477 100.0
160.671387 216.0
160.85466 32.0
160.902618 156.0
161.056656 148.0
161.076874 176.0
161.129913 188.0
161.230988 104.0
161.256256 180.0
161.40036 128.0
161.572342 148.0
161.612823 52.0
161.632675 160.0
161.759598 36.0
161.901382 156.0
162.020432 128.0
162.054443 2460.0
162.187683 128.0
162.205414 40.0
162.316971 204.0
162.36261 148.0
162.382904 204.0
162.552872 72.0
162.679077 176.0
162.720398 140.0
162.78894 172.0
162.839737 252.0
162.862595 180.0
162.954041 72.0
163.057877 808.0
163.079529 200.0
163.142105 232.0
163.223465 144.0
163.409134 148.0
163.454941 116.0
163.485474 124.0
163.635651 76.0
163.663651 200.0
163.684021 208.0
163.775711 164.0
163.917786 140.0
164.068741 144.0
164.103775 200.0
164.229385 172.0
164.678589 100.0
164.711807 96.0
164.79866 100.0
164.857422 76.0
164.944321 192.0
165.014099 244.0
165.087219 180.0
165.151428 208.0
165.177017 88.0
165.210266 176.0
165.263992 204.0
165.307495 136.0
165.335648 188.0
165.760727 160.0
165.90065 108.0
165.988861 140.0
166.052979 160.0
166.070923 160.0
166.129929 140.0
166.158142 116.0
166.283875 108.0
166.326752 164.0
166.345474 164.0
166.383987 160.0
166.620255 48.0
166.666504 132.0
166.694763 88.0
166.728104 152.0
166.769287 132.0
166.812988 188.0
166.885818 208.0
167.057281 132.0
167.075287 120.0
167.108734 192.0
167.162766 148.0
167.180786 128.0
167.265717 180.0
167.353317 124.0
167.489731 212.0
167.56958 108.0
167.871155 124.0
167.909836 48.0
167.945938 116.0
167.974319 136.0
168.082886 196.0
168.23494 80.0
168.27626 128.0
168.354477 108.0
168.550034 144.0
168.655991 76.0
168.764572 68.0
168.819565 340.0
168.847321 160.0
168.880936 172.0
168.979233 124.0
169.005112 244.0
169.023224 56.0
169.0905 88.0
169.157791 92.0
169.336456 160.0
169.353531 108.0
169.364456 64.0
169.368393 96.0
169.525513 200.0
169.561844 176.0
169.582581 112.0
169.608505 48.0
169.748505 132.0
169.84964 208.0
169.867798 56.0
169.904114 88.0
169.922287 128.0
170.007904 80.0
170.060287 1472.0
170.13768 160.0
170.348022 120.0
170.445145 136.0
170.540298 80.0
170.63649 88.0
170.698883 256.0
170.818527 40.0
170.89917 124.0
171.000656 120.0
171.031891 160.0
171.062668 308.0
171.151642 40.0
171.201111 148.0
171.274048 196.0
171.308212 136.0
171.344376 116.0
171.464706 200.0
171.518967 132.0
171.586746 224.0
171.672791 116.0
171.769287 212.0
171.850159 68.0
171.936264 100.0
172.024872 144.0
172.043289 168.0
172.070923 136.0
172.134155 144.0
172.163391 40.0
172.333176 96.0
172.401108 240.0
172.458618 160.0
172.526581 176.0
172.641617 164.0
172.680847 128.0
172.720078 116.0
172.785645 192.0
172.8535 216.0
172.917007 196.0
172.942474 132.0
172.98175 132.0
173.022079 232.0
173.102173 196.0
173.144791 88.0
173.187668 180.0
173.22789 284.0
173.296005 108.0
173.314346 144.0
173.377228 112.0
173.395676 104.0
173.41655 108.0
173.445633 204.0
173.468964 124.0
173.488495 124.0
173.510223 212.0
173.529114 136.0
173.551529 128.0
173.591003 468.0
173.612244 272.0
173.66391 252.0
173.68573 168.0
173.735291 176.0
173.771652 48.0
173.824951 352.0
173.861588 484.0
173.889877 144.0
173.897751 424.0
173.92424 248.0
173.941849 532.0
173.983643 320.0
174.024536 928.0
174.055923 241412.0
174.120956 216.0
174.157379 108.0
174.188797 108.0
174.224701 204.0
174.257675 52.0
174.264587 140.0
174.283905 220.0
174.308029 272.0
174.33519 248.0
174.355957 316.0
174.363129 320.0
174.405899 148.0
174.457596 420.0
174.487869 3688.0
174.515701 300.0
174.542923 160.0
174.591125 60.0
174.615448 128.0
174.656448 108.0
174.689087 180.0
174.725967 200.0
174.764511 64.0
174.797577 116.0
174.820343 116.0
174.850082 108.0
174.871323 204.0
174.902679 88.0
174.918457 192.0
174.93689 92.0
174.966797 112.0
174.99263 404.0
175.020721 228.0
175.058685 32936.0
175.107513 40.0
175.136505 52.0
175.192413 156.0
175.216522 108.0
175.251434 112.0
175.292648 168.0
175.337921 224.0
175.348282 76.0
175.408585 196.0
175.45108 56.0
175.488525 112.0
175.532608 52.0
175.574341 68.0
175.627487 40.0
175.676178 112.0
175.743515 88.0
175.766861 120.0
175.816284 144.0
175.834793 76.0
175.843689 76.0
175.870224 152.0
175.91304 100.0
175.983063 112.0
176.059631 2796.0
176.085358 176.0
176.125229 128.0
176.152771 152.0
176.156891 172.0
176.169357 160.0
176.18071 192.0
176.18895 100.0
176.233002 88.0
176.265503 192.0
176.299072 100.0
176.326706 276.0
176.374725 140.0
176.414932 212.0
176.444672 196.0
176.479523 124.0
176.515427 196.0
176.562698 56.0
176.591797 120.0
176.636749 64.0
176.716125 100.0
176.747864 88.0
176.766388 56.0
176.808731 92.0
176.837845 44.0
176.883041 52.0
176.946457 68.0
177.086716 44.0
177.105255 108.0
177.12645 72.0
177.233582 160.0
177.280106 92.0
177.30661 76.0
177.394073 48.0
177.444443 120.0
177.475418 112.0
177.554794 104.0
177.584991 236.0
177.611511 72.0
177.685791 80.0
177.799881 60.0
177.818466 96.0
177.850311 84.0
177.873611 72.0
177.959152 48.0
178.171616 52.0
178.256638 48.0
178.285873 72.0
178.408142 176.0
178.426743 124.0
178.469284 80.0
178.49588 104.0
178.533096 68.0
178.634171 68.0
178.92157 156.0
178.964172 52.0
179.671097 64.0
179.988037 52.0
180.436905 68.0
180.493042 72.0
180.84082 32.0
182.374985 64.0
182.501328 72.0
182.799896 116.0
182.818741 120.0
182.848343 72.0
183.107224 148.0
183.198364 136.0
183.33847 48.0
183.535263 88.0
183.564377 80.0
183.699768 112.0
183.915634 76.0
183.972321 120.0
184.000046 104.0
184.426117 56.0
184.46666 128.0
184.615372 56.0
184.660583 72.0
184.791183 100.0
184.929184 96.0
185.023926 68.0
185.172852 44.0
185.321838 96.0
185.630844 88.0
185.796295 100.0
185.874969 40.0
186.053329 576.0
186.089401 96.0
186.312088 60.0
186.434357 72.0
186.464264 152.0
186.673584 132.0
186.782364 84.0
187.027252 56.0
187.065872 148.0
187.147034 96.0
187.250519 92.0
187.272293 64.0
187.509323 84.0
187.691971 116.0
187.792877 152.0
188.069534 3496.0
188.15033 60.0
188.17218 68.0
188.224045 40.0
188.458954 72.0
188.666656 76.0
188.877213 44.0
189.075409 500.0
189.200119 76.0
189.421921 40.0
189.547943 112.0
189.720612 104.0
189.986618 76.0
190.075821 120.0
190.381866 104.0
190.769272 108.0
191.082779 92.0
191.195587 96.0
191.473648 152.0
192.063446 324.0
192.179321 104.0
192.366974 68.0
193.063232 188.0
193.492111 116.0
193.846634 88.0
194.873276 40.0
195.237411 108.0
196.071259 288.0
197.079193 380.0
197.379013 44.0
197.493668 100.0
197.949829 56.0
199.512619 128.0
199.799469 76.0
200.072891 292.0
200.303345 88.0
201.081543 168.0
202.084686 180.0
202.940033 96.0
202.965546 84.0
204.072876 292.0
204.109848 128.0
204.584976 144.0
208.523712 100.0
210.118942 60.0
210.387329 148.0
211.558121 72.0
213.339294 132.0
213.932724 80.0
214.089951 192.0
215.346909 96.0
216.663208 164.0
217.27005 88.0
218.674606 56.0
220.312241 144.0
221.921066 88.0
222.930283 68.0
228.6362 176.0
228.892746 72.0
229.169174 88.0
230.117477 2772.0
230.261154 40.0
230.297394 48.0
230.823242 76.0
231.056122 92.0
231.121384 556.0
231.231628 40.0
231.52832 72.0
231.59494 72.0
231.885803 48.0
232.025238 52.0
232.128326 156.0
232.853607 100.0
232.972076 28.0
233.473587 64.0
235.268219 56.0
235.323166 128.0
235.43309 92.0
235.491119 72.0
237.950027 76.0
241.537048 96.0
241.852661 116.0
243.933975 40.0
244.652557 96.0
246.061676 100.0
246.677094 100.0
247.709717 56.0
248.386795 128.0
249.284698 52.0
249.690231 52.0
251.085373 108.0
253.709778 52.0
253.931732 220.0
254.080811 96.0
255.077942 88.0
255.437256 52.0
256.405182 96.0
256.768616 60.0
256.877045 76.0
258.41687 116.0
259.797668 68.0
259.884277 64.0
260.051147 48.0
262.112518 48.0
262.218872 44.0
263.613007 64.0
269.105652 160.0
271.363159 100.0
273.649841 84.0
273.949524 52.0
274.585663 80.0
275.681702 116.0
277.015045 72.0
279.179016 84.0
282.113098 140.0
282.276917 100.0
282.678314 112.0
283.023102 88.0
283.813843 80.0
284.991943 120.0
285.0961 112.0
288.365143 72.0
289.721985 72.0
290.138824 76.0
291.982574 96.0
292.128815 152.0
292.918549 64.0
293.910645 108.0
294.224609 44.0
295.017181 76.0
295.095795 32.0
296.890045 80.0
298.923676 44.0
304.315826 36.0
307.542816 100.0
311.611908 80.0
314.764252 84.0
315.421387 104.0
315.792633 124.0
317.61673 136.0
319.930023 64.0
321.940948 80.0
323.41391 104.0
325.75177 112.0
327.089417 140.0
329.028839 120.0
333.11731 80.0
336.161041 92.0
337.794159 100.0
337.860016 56.0
338.079529 44.0
338.258881 112.0
341.101685 112.0
342.15744 92.0
344.46225 84.0
347.757629 136.0
350.096069 92.0
351.169373 84.0
354.92395 40.0
356.601959 132.0
359.158478 52.0
360.015198 72.0
362.553589 52.0
363.471252 64.0
363.93811 32.0
368.241211 76.0
369.349609 120.0
375.286682 88.0
380.144958 96.0
380.925323 124.0
383.629791 56.0
383.906616 48.0
391.146942 144.0
391.225677 72.0
393.575409 84.0
394.116547 172.0
395.140564 136.0
396.732574 104.0
399.269775 156.0
405.093109 28.0
406.139313 96.0
406.460236 44.0
406.853577 92.0
407.134644 148.0
407.335449 68.0
408.947784 32.0
411.309723 120.0
414.225128 56.0
415.445282 72.0
415.477722 64.0
423.098572 96.0
430.478943 52.0
430.813477 52.0
431.793091 120.0
432.268829 48.0
433.482086 116.0
436.566376 80.0
436.637085 132.0
436.936554 76.0
438.585571 40.0
439.419586 80.0
448.030762 72.0
453.468964 48.0
453.591888 76.0
454.015839 68.0
459.886993 56.0
460.27121 60.0
462.079132 128.0
462.233154 40.0
467.730804 140.0
468.540375 64.0
472.144501 52.0
472.300201 68.0
473.066101 64.0
479.111023 52.0
488.619843 72.0
490.632446 108.0
491.170441 100.0
500.43692 48.0
500.712982 64.0
505.820801 68.0
506.389435 100.0
524.872986 40.0
527.767822 20.0
534.330994 80.0
536.389465 108.0
536.730591 44.0
537.367126 76.0
537.805481 128.0
545.229675 64.0
549.928833 100.0
551.970337 56.0
560.852661 108.0
563.008728 192.0
564.511414 120.0
565.77478 68.0
584.344849 84.0
586.314209 128.0
592.654053 100.0
596.424744 104.0
602.833557 80.0
602.921509 52.0
603.649902 32.0
620.147217 64.0
621.039673 104.0
625.287598 56.0
632.755066 32.0
636.77002 64.0
636.841858 68.0
649.475403 152.0
651.04364 68.0
656.498901 104.0
672.825806 44.0
683.408936 80.0
697.056091 128.0
699.060303 140.0
700.88147 80.0
703.513184 88.0
712.393799 64.0
713.515137 168.0
715.962708 56.0
726.808777 88.0
734.431763 52.0
736.763672 48.0
737.860779 100.0
741.281494 144.0
742.729004 88.0
746.579651 44.0
747.392822 20.0
768.749878 80.0
772.556641 48.0
778.115112 124.0
779.059204 156.0
796.824707 104.0
798.584106 112.0
801.246643 176.0
802.249756 172.0
805.895508 200.0
806.211975 168.0
812.814636 52.0
812.894104 172.0
813.44458 68.0
818.652527 100.0
832.594666 192.0
835.859802 104.0
836.746155 128.0
837.32196 172.0
852.903137 160.0
853.031006 48.0
853.938049 220.0
858.486389 76.0
866.599487 84.0
866.66394 100.0
869.296692 176.0
871.610291 188.0
873.244507 152.0
879.808655 192.0
882.266174 180.0
882.479004 200.0
890.757263 164.0
896.129883 156.0
897.119141 168.0
903.939758 216.0
906.011353 160.0
906.604553 220.0
912.546997 204.0
913.202454 52.0
913.304688 80.0
913.773865 128.0
918.032349 116.0
918.834534 252.0
920.035522 128.0
921.442627 164.0
922.113342 68.0
923.582581 176.0
926.015686 88.0
930.921814 136.0
931.735718 148.0
931.917969 124.0
933.042297 152.0
935.031372 188.0
937.491638 124.0
938.637634 144.0
940.132141 104.0
942.544189 184.0
944.48822 184.0
944.604492 168.0
946.905823 32.0
950.136169 220.0
950.731323 108.0
954.632141 148.0
954.927368 76.0
956.059326 224.0
960.242432 220.0
961.815735 80.0
965.355774 140.0
967.484192 220.0
969.639709 120.0
969.757446 136.0
970.017761 164.0
971.245483 96.0
971.710754 164.0
971.841064 220.0
973.324524 84.0
973.380371 124.0
973.63501 92.0
976.039795 172.0
977.17804 184.0
977.738037 148.0
978.092834 196.0
980.927002 180.0
982.323792 164.0
983.496826 220.0
987.595581 152.0
989.610596 148.0
990.011353 156.0
991.464722 140.0
991.778076 180.0
992.273315 180.0
994.531555 140.0
994.989807 160.0
995.887756 192.0
996.528503 264.0
997.257446 184.0
998.238159 152.0
999.596863 128.0
1002.997681 132.0
1008.975708 144.0
1009.203308 132.0
1010.316406 160.0
1012.392456 96.0
1013.71637 152.0
1014.153687 168.0
1014.572021 88.0
1018.131592 20.0
1020.406372 152.0
1020.756042 60.0
1023.129211 152.0
1024.141724 144.0
1024.434692 128.0
1027.462769 132.0
1029.716064 152.0
1030.635864 156.0
1030.77002 76.0
1034.377075 160.0
1035.31189 48.0
1035.862671 232.0
1038.881958 172.0
1040.101074 100.0
1041.012817 216.0
1041.629272 228.0
1043.049316 164.0
1043.930176 276.0
1045.435425 196.0
1049.699829 164.0
1050.454468 148.0
1050.899536 136.0
1051.654541 124.0
1052.564819 212.0
1054.528687 124.0
1054.703247 168.0
1055.582397 140.0
1056.921387 160.0
1057.193115 156.0
1057.974365 188.0
1059.744385 172.0
1060.275757 132.0
1062.045654 144.0
1062.142944 180.0
1063.693726 204.0
1064.706665 188.0
1064.901489 160.0
1065.783691 148.0
1066.649292 88.0
1066.961304 268.0
1068.372437 196.0
1068.489624 64.0
1070.898071 112.0
1071.744873 232.0
1071.888306 112.0
1074.444092 324.0
1074.939941 164.0
1076.767822 132.0
1079.649902 168.0
1080.33667 152.0
1080.61145 104.0
1080.879639 156.0
1082.758423 200.0
1085.196045 212.0
1085.746826 192.0
1085.976318 132.0
1087.288452 188.0
1088.181152 144.0
1088.3125 192.0
1088.417603 76.0
1088.752441 136.0
1089.192505 104.0
1090.197754 152.0
1092.242432 176.0
1092.821289 180.0
1093.176636 160.0
1093.742798 164.0
1094.782837 288.0
1096.673584 40.0
1096.80542 148.0
1097.451538 192.0
1099.463379 184.0
1099.608521 164.0
1099.878174 124.0
1100.189453 176.0
1101.232666 136.0
1101.37146 136.0
1102.18457 224.0
1104.372192 172.0
1105.060181 172.0
1105.86084 192.0
1106.873657 136.0
1107.489624 240.0
1108.364014 136.0
1109.252075 88.0
1109.344849 208.0
1109.716187 192.0
1109.948242 104.0
1110.690918 140.0
1112.270142 156.0
1112.436157 200.0
1112.880981 128.0
1112.960571 76.0
1114.28894 168.0
1115.006592 236.0
1116.130005 152.0
1116.209839 208.0
1116.482422 104.0
1117.247314 188.0
1117.879395 188.0
1119.184082 180.0
1120.223022 220.0
1121.222412 120.0
1121.595581 148.0
1122.335571 68.0
1123.089233 164.0
1123.255981 120.0
1125.052002 132.0
1125.37146 164.0
1126.206177 68.0
1126.626953 68.0
1126.920898 56.0
1127.208252 40.0
1127.488892 104.0
1127.729492 88.0
1127.976807 180.0
1130.210571 44.0
1130.578613 188.0
1130.966675 52.0
1131.102417 160.0
1132.519653 168.0
1132.808105 160.0
1133.565186 172.0
1133.725952 204.0
1138.44873 220.0
1140.20874 60.0
1143.053345 100.0
1143.255249 152.0
1144.190796 184.0
1145.039185 64.0
1146.588745 40.0
1146.918945 168.0
1147.57959 140.0
1148.122559 172.0
1148.422485 128.0
1149.029663 164.0
1150.075562 276.0
1150.190308 168.0
1150.743896 112.0
1151.108521 124.0
1151.716309 196.0
1153.074341 264.0
1153.331177 44.0
1153.858398 232.0
1154.865845 172.0
1156.205566 48.0
1156.266479 196.0
1156.659058 108.0
1156.855347 164.0
1157.010986 64.0
1157.173462 184.0
1158.467041 108.0
1158.954712 48.0
1159.246094 176.0
1159.395264 120.0
1159.530762 88.0
1160.072998 132.0
1161.232422 160.0
1161.422363 52.0
1162.209351 176.0
1162.270386 172.0
1162.758911 176.0
1163.132202 116.0
1163.410522 128.0
1163.712769 204.0
1164.171021 116.0
1164.225342 128.0
1164.748291 192.0
1166.018799 260.0
1167.262817 180.0
1167.480469 196.0
1168.038208 192.0
1168.704834 156.0
1168.854492 148.0
1169.351318 192.0
1169.494263 112.0
1170.018433 204.0
1170.127319 132.0
1171.12146 172.0
1171.196411 84.0
1171.734619 160.0
1173.049805 176.0
1173.111206 148.0
1173.540649 92.0
1174.304443 128.0
1174.631836 176.0
1176.296753 56.0
1177.163818 120.0
1177.518921 176.0
1179.43042 120.0
1180.279663 108.0
1180.860962 184.0
1181.161865 136.0
1181.572388 220.0
1183.009521 160.0
1183.406494 60.0
1183.502441 168.0
1183.7146 132.0
1184.563843 268.0
1185.351807 212.0
1185.646484 148.0
1185.995972 192.0
1187.723877 128.0
1187.826782 116.0
1190.166992 136.0
1190.379761 248.0
1191.4375 120.0
1193.197998 184.0
1193.898193 220.0
1195.026245 68.0
1196.361328 68.0
1196.71936 128.0
1197.098145 168.0
1197.559448 116.0
1197.910767 184.0
1199.157959 156.0
1199.943726 48.0
1201.509277 176.0
1201.799072 152.0
1202.916992 180.0
1204.201294 112.0
1205.044067 176.0
1205.811035 72.0
1207.961426 184.0
1208.321045 184.0
1208.452515 160.0
1210.224365 228.0
1210.307495 112.0
1210.667603 124.0
1211.290894 120.0
1212.454834 56.0
1212.641968 84.0
1212.849976 160.0
1213.071777 188.0
1214.382202 172.0
1214.437744 160.0
1215.166138 196.0
1215.29834 216.0
1215.957153 100.0
1216.734497 52.0
1216.803955 112.0
1217.227539 136.0
1218.498535 192.0
1218.859863 196.0
1220.354248 232.0
1222.08606 60.0
1222.990723 108.0
1224.271851 164.0
1224.731323 236.0
1224.93335 244.0
1225.372192 208.0
1226.292114 412.0
1226.619629 156.0
1227.337769 140.0
1228.530273 188.0
1228.683838 176.0
1229.095459 96.0
1229.981689 156.0
1230.72876 168.0
1230.952148 144.0
1231.399048 212.0
1232.251343 192.0
1233.593018 96.0
1234.250244 128.0
1234.397095 160.0
1234.467041 72.0
1234.760742 164.0
1235.628052 152.0
1236.852661 188.0
1237.153687 84.0
1237.251709 236.0
1238.042969 180.0
1238.414062 176.0
1238.687256 212.0
1238.842896 188.0
1239.338745 152.0
1239.506958 44.0
1239.696167 120.0
1241.161133 152.0
1241.988647 212.0
1242.339355 136.0
1242.591919 136.0
1242.711182 68.0
1243.07605 116.0
1243.36377 176.0
1243.693726 136.0
1244.009521 40.0
1244.262329 244.0
1244.515015 160.0
1244.802856 56.0
1245.069702 96.0
1247.381348 164.0
1248.358521 192.0
1249.075928 144.0
1249.427612 88.0
1249.561279 196.0
1250.532349 116.0
1251.70105 128.0
1251.764404 104.0
1251.820679 184.0
1252.130615 188.0
1252.285522 172.0
1252.355957 68.0
1252.764526 184.0
1252.954712 152.0
1253.102661 152.0
1254.568481 208.0
1254.949219 140.0
1257.001709 108.0
1257.509888 212.0
1258.060425 92.0
1259.373779 140.0
1259.995361 192.0
1260.044922 176.0
1260.525269 176.0
1260.617188 168.0
1261.104858 80.0
1261.429932 168.0
1262.25708 220.0
1263.042114 192.0
1263.098755 156.0
1263.204834 92.0
1263.707153 120.0
1264.018433 72.0
1264.202393 152.0
1264.386353 128.0
1264.598755 72.0
1264.733154 152.0
1265.065918 108.0
1265.327881 128.0
1265.462402 148.0
1265.604004 152.0
1265.653564 84.0
1266.064209 208.0
1266.227051 192.0
1266.72998 164.0
1267.027466 184.0
1267.268433 188.0
1267.502197 76.0
1267.729004 112.0
1268.324341 208.0
1268.735474 176.0
1269.401855 188.0
1272.495483 124.0
1272.644531 180.0
1272.928589 192.0
1272.992554 68.0
1273.226807 120.0
1274.157349 156.0
1274.214111 260.0
1274.690186 192.0
1275.223145 128.0
1276.054932 128.0
1277.44165 140.0
1278.145996 168.0
1278.345215 60.0
1278.722412 112.0
1279.00708 204.0
1279.092529 116.0
1279.185059 164.0
1279.230347 96.0
1280.402588 252.0
1280.70874 128.0
1280.787109 172.0
1280.844116 164.0
1281.770264 180.0
1282.176514 132.0
1282.539917 140.0
1282.974731 116.0
1283.609253 156.0
1283.837524 208.0
1284.072876 140.0
1284.208374 160.0
1284.265381 116.0
1284.743286 188.0
1284.914551 196.0
1284.98584 140.0
1286.177612 164.0
1286.284668 160.0
1287.041382 204.0
1287.469849 92.0
1287.691284 116.0
1287.862671 200.0
1288.619873 204.0
1288.927124 56.0
1289.398682 188.0
1289.963379 176.0
1290.041992 184.0
1290.46228 164.0
1290.87854 84.0
1291.1073 168.0
1291.243286 108.0
1291.879883 168.0
1292.394897 88.0
1292.473633 176.0
1292.716919 180.0
1292.921143 232.0
1293.003174 96.0
1293.396851 212.0
1293.819214 220.0
1294.821655 192.0
1295.841553 268.0
1296.512329 160.0
1297.092896 112.0
1297.282593 192.0
1297.57312 160.0
1297.773926 172.0
1297.824097 156.0
1298.361938 104.0
1298.67749 168.0
1298.863892 168.0
1298.964355 268.0
1299.208252 188.0
1299.315918 232.0
1299.401978 208.0
1300.284546 128.0
1300.442383 160.0
1300.751099 72.0
1301.038208 68.0
1302.237305 148.0
1302.495972 164.0
1303.15686 156.0
1303.480225 208.0
1303.954468 108.0
1304.421631 228.0
1304.845825 120.0
1305.392212 176.0
1306.21936 232.0
1306.866821 76.0
1307.910278 184.0
1308.169434 172.0
1308.320557 224.0
1308.39978 172.0
1309.075439 176.0
1309.487061 120.0
1309.85437 108.0
1310.31543 168.0
1311.10083 172.0
1311.461182 76.0
1311.619751 116.0
1312.001831 68.0
1312.167603 136.0
1312.41272 80.0
1312.859741 160.0
1313.119385 148.0
1313.242065 92.0
1313.667603 188.0
1314.064331 104.0
1314.21814 144.0
1314.468384 164.0
1314.648804 188.0
1314.951904 164.0
1315.818115 152.0
1315.933594 144.0
1317.146851 208.0
1317.890991 100.0
1319.603882 92.0
1319.79187 180.0
1320.203979 140.0
1321.064697 172.0
1321.194946 120.0
1321.404785 64.0
1321.672485 128.0
1321.911255 160.0
1322.258545 120.0
1322.917236 84.0
1323.185059 128.0
1325.452148 180.0
1326.488403 184.0
1326.571777 20.0
1327.271484 220.0
1328.141724 156.0
1328.961426 172.0
1329.353271 196.0
1330.710571 148.0
1330.884766 120.0
1331.37854 184.0
1332.598877 116.0
1332.780518 96.0
1333.033813 168.0
1333.136597 172.0
1333.191772 140.0
1333.260132 140.0
1333.405518 136.0
1334.154175 72.0
1334.815796 244.0
1335.036011 172.0
1335.113892 52.0
1335.34668 140.0
1335.492065 160.0
1335.897461 204.0
1337.442017 172.0
1338.264648 160.0
1339.094849 84.0
1339.335205 128.0
1339.662964 124.0
1339.888794 96.0
1340.359619 128.0
1340.787354 216.0
1341.178589 48.0
1341.550293 148.0
1341.637817 132.0
1342.308594 192.0
1343.11084 104.0
1343.32959 280.0
1343.78186 156.0
1344.022705 168.0
1344.110229 152.0
1345.460449 200.0
1346.110352 196.0
1346.533813 188.0
1347.256958 100.0
1347.651978 236.0
1348.426025 140.0
1348.50647 192.0
1349.084839 148.0
1349.807739 92.0
1350.400024 400.0
1350.802368 52.0
1351.621094 136.0
1352.221802 196.0
1353.338013 188.0
1353.393066 100.0
1353.473633 56.0
1353.575073 176.0
1354.118042 196.0
1354.440308 184.0
1354.580566 164.0
1354.638062 160.0
1354.887085 212.0
1355.304688 136.0
1355.383423 240.0
1355.737061 172.0
1355.890991 208.0
1355.99707 152.0
1356.140137 156.0
1357.452393 192.0
1358.08313 104.0
1358.530518 184.0
1358.772583 140.0
1359.528442 80.0
1359.733887 52.0
1360.012817 132.0
1360.666138 152.0
1361.244019 244.0
1361.422363 108.0
1362.14209 176.0
1362.340454 128.0
1362.619629 140.0
1363.288208 96.0
1364.648071 148.0
1364.817139 160.0
1365.023071 196.0
1365.258423 136.0
1366.324951 132.0
1367.112183 224.0
1367.340332 100.0
1367.568481 164.0
1368.179443 140.0
1368.584351 180.0
1368.768433 140.0
1368.937866 100.0
1369.210327 120.0
1369.814209 132.0
1369.910034 152.0
1370.072021 176.0
1370.189941 108.0
1370.374146 116.0
1370.609863 128.0
1371.789062 160.0
1372.201904 168.0
1372.25354 92.0
1372.917114 120.0
1374.008789 92.0
1374.32605 176.0
1374.576904 356.0
1375.04187 208.0
1375.130371 200.0
1375.24353 136.0
1375.477295 172.0
1375.69873 64.0
1375.858765 224.0
1375.920166 148.0
1376.961304 104.0
1377.478394 156.0
1378.268921 164.0
1379.015259 164.0
1379.185181 144.0
1379.436523 132.0
1380.242432 204.0
1380.419678 132.0
1380.445312 128.0
1380.466553 188.0
1380.797607 232.0
1380.944946 184.0
1381.943604 152.0
1383.238647 164.0
1383.519897 168.0
1383.823486 156.0
1384.067749 172.0
1384.215942 348.0
1384.541748 48.0
1384.726929 164.0
1384.949097 176.0
1385.704712 148.0
1386.327026 124.0
1386.519775 216.0
1386.659546 140.0
1386.823608 200.0
1387.475952 116.0
1387.75769 180.0
1388.054199 140.0
1388.106079 216.0
1388.662354 160.0
1388.899658 128.0
1389.00354 88.0
1389.856689 176.0
1390.220215 172.0
1390.472534 204.0
1390.524536 168.0
1390.727905 156.0
1391.044067 136.0
1391.920166 96.0
1391.984863 236.0
1393.071289 176.0
1393.970337 192.0
1394.141235 260.0
1394.193237 204.0
1394.906738 136.0
1395.241211 184.0
1395.977295 128.0
1396.118652 272.0
1396.62439 192.0
1396.988892 128.0
1397.538574 160.0
1397.67334 176.0
1398.529663 180.0
1398.648193 224.0
1398.812012 168.0
1399.117188 140.0
1399.221436 128.0
1399.735107 108.0
1400.107422 56.0
1400.31604 136.0
1400.606445 104.0
1400.934204 112.0
1401.180054 184.0
1401.731445 176.0
1401.895386 176.0
1401.962402 116.0
1402.036987 204.0
1402.827026 144.0
1403.773804 196.0
1404.057251 160.0
1404.683716 136.0
1405.109009 184.0
1405.258179 140.0
1405.758057 176.0
1405.877441 160.0
1406.011841 156.0
1406.228271 176.0
1406.564087 196.0
1408.184326 148.0
1409.461792 116.0
1409.624146 132.0
1410.650024 52.0
1411.023804 228.0
1411.577148 248.0
1412.070679 180.0
1412.133789 160.0
1412.182861 160.0
1412.78125 152.0
1413.132935 196.0
1413.402222 168.0
1413.521973 164.0
1413.776367 208.0
1414.000854 220.0
1414.128174 48.0
1414.262817 128.0
1414.697021 144.0
1415.033936 208.0
1415.797607 116.0
1416.366821 168.0
1416.816284 176.0
1417.124023 252.0
1417.318237 72.0
1417.393188 168.0
1417.550537 44.0
1417.707886 148.0
1418.022705 244.0
1418.824707 144.0
1419.469482 172.0
1419.615967 168.0
1420.506104 148.0
1420.752075 220.0
1421.052124 244.0
1421.763428 40.0
1422.58313 148.0
1422.875854 160.0
1423.514038 232.0
1423.589111 152.0
1423.731812 188.0
1424.129883 152.0
1424.272583 176.0
1424.370239 212.0
1424.610596 88.0
1424.993774 132.0
1425.061401 140.0
1425.369385 236.0
1425.497192 56.0
1425.714722 176.0
1426.54187 124.0
1426.910278 140.0
1427.444092 76.0
1427.556885 108.0
1427.699707 108.0
1427.797485 152.0
1427.94043 172.0
1428.156616 196.0
1428.58728 132.0
1429.979248 128.0
1430.304077 188.0
1430.385742 156.0
1430.513672 120.0
1430.7771 164.0
1431.319214 212.0
1432.072266 172.0
1432.592041 136.0
1432.825562 164.0
1433.209839 112.0
1433.526245 380.0
1434.860352 140.0
1435.003662 112.0
1435.358032 160.0
1436.647705 136.0
1438.066284 224.0
1440.965942 172.0
1441.449463 152.0
1441.978516 132.0
1442.243042 188.0
1442.429443 136.0
1442.741943 368.0
1443.185059 180.0
1443.550903 116.0
1443.61145 148.0
1443.807983 116.0
1443.921509 212.0
1444.163452 152.0
1444.337402 124.0
1445.404175 44.0
1445.593262 188.0
1445.696289 180.0
1446.10791 128.0
1446.319824 76.0
1446.827026 180.0
1447.016357 200.0
1447.28125 144.0
1447.394897 124.0
1447.531128 200.0
1447.697754 180.0
1448.4021 200.0
1448.758179 260.0
1449.004761 176.0
1449.515747 140.0
1449.940186 124.0
1450.690552 160.0
1450.796631 132.0
1451.251465 180.0
1451.779419 196.0
1451.856445 248.0
1452.246216 212.0
1453.193115 160.0
1453.57251 68.0
1453.920532 196.0
1454.202393 120.0
1454.604614 292.0
1454.733765 188.0
1455.241821 168.0
1455.318237 140.0
1455.546021 68.0
1455.766235 52.0
1456.624512 184.0
1456.685303 104.0
1456.913208 184.0
1457.315796 180.0
1458.516479 128.0
1459.033447 104.0
1459.223511 188.0
1459.276733 52.0
1459.398315 196.0
1460.40979 224.0
1461.101685 200.0
1461.25415 172.0
1461.718262 232.0
1461.771484 180.0
1462.63147 128.0
1462.844604 148.0
1463.141479 40.0
1463.202393 160.0
1464.626465 224.0
1465.190063 196.0
1465.258667 176.0
1465.372925 148.0
1465.929199 148.0
1466.195923 164.0
1466.317871 128.0
1466.439819 192.0
1466.995483 176.0
1467.316406 176.0
1467.583252 184.0
1468.147461 100.0
1468.391602 48.0
1468.595459 212.0
1468.955933 176.0
1469.421265 156.0
1469.48999 164.0
1469.700928 160.0
1469.87146 148.0
1470.150146 216.0
1470.718628 96.0
1471.718628 100.0
1471.917114 176.0
1472.276001 164.0
1472.518555 164.0
1472.589111 220.0
1472.917603 144.0
1473.200195 72.0
1473.399658 204.0
1473.648682 188.0
1473.765625 140.0
1474.162964 244.0
1474.254639 128.0
1474.407471 100.0
1474.483887 148.0
1474.575562 176.0
1475.118286 176.0
1475.355225 56.0
1476.364502 144.0
1476.43335 120.0
1476.486816 108.0
1477.075806 164.0
1477.473511 120.0
1478.243164 172.0
1478.414673 176.0
1478.483521 196.0
1478.697876 132.0
1479.203003 176.0
1479.616333 172.0
1479.899658 216.0
1480.037476 124.0
1480.282471 148.0
1481.101929 184.0
1481.293457 176.0
1481.707153 64.0
1482.086548 176.0
1482.174438 48.0
1483.040405 124.0
1484.021729 120.0
1484.405029 188.0
1484.857544 152.0
1484.945801 168.0
1485.310059 348.0
1485.570801 236.0
1485.869995 180.0
1485.954468 48.0
1486.123169 172.0
1486.291992 164.0
1486.606567 196.0
1486.798462 168.0
1487.573608 192.0
1488.064941 144.0
1488.96814 148.0
1489.053467 208.0
1489.209106 184.0
1489.416504 224.0
1489.608521 116.0
1489.862061 128.0
1490.252441 132.0
1490.561157 176.0
1491.237427 136.0
1491.29895 152.0
1491.560303 228.0
1491.860107 168.0
1492.11377 172.0
1492.206055 224.0
1493.282593 208.0
1493.970703 224.0
1494.213379 192.0
1494.705688 188.0
1495.30603 168.0
1495.606201 52.0
1496.275879 120.0
1496.387573 256.0
1496.637695 108.0
1497.392334 96.0
1498.671143 156.0
1498.748169 208.0
1499.410889 176.0
1500.412842 44.0
1500.539429 196.0
1500.644165 132.0
1501.260986 152.0
1502.2771 196.0
1502.811401 132.0
1503.575439 172.0
1504.131104 184.0
1504.254639 200.0
