>compound NCGC00160322-01!DESMOTROPOSANTONIN
>formula C15H18O3
>ionization [M+H]+
>parentmass 247.133
#inchi InChI=1S/C15H18O3/c1-7-6-12(16)9(3)13-10(7)4-5-11-8(2)15(17)18-14(11)13/h6,8,11,14,16H,4-5H2,1-3H3/t8-,11-,14-/m0/s1
#inchikey ZLKGXNSQDUJSAU
#Ion_Source LC-ESI
#Instrument qTOF
#Compound_Source Prestwick Phytochem Lib
#PI Dorrestein
#Data_Collector VVP/LMS
#Scan -1
#Precursor_MZ 247.133
#ExactMass 246.126
#Charge 1
#CAS_Number N/A
#Pubmed_ID N/A
#Smiles C[C@H]1[C@@H]2CCC3=C([C@H]2OC1=O)C(C)=C(O)C=C3C
#INCHI_AUX N/A
#Library_Class 1
#SpectrumID CCMSLIB00000078689
#IonMode Positive
#UpdateWorkflowName UPDATE-SINGLE-ANNOTATED-GOLD
#LibraryQualityString Gold
#TaskID 67c915c6594c435cadc1fe2b5358144d
##Scan# 2028
#SpectrumFile p1-B02_GB2_01_17886.mzXML
#LibraryName phytochem_lib.mgf
#MQScore -1
#Organism phytochem_lib
#TIC_Query 0
#RT_Query -1
#MZErrorPPM -1
#SharedPeaks 0
#MassDiff 0
#LibMZ -1
#SpecMZ 247.133
#SpecCharge 0
#internalFilename spec-00000.mgf

>collision 10
94.953323 196.0
95.308563 44.0
95.495186 36.0
95.510742 216.0
95.814423 152.0
96.134186 216.0
96.3685 136.0
96.485764 168.0
97.067276 72.0
97.424477 112.0
97.481461 188.0
97.656425 112.0
97.735115 132.0
98.547455 164.0
98.583015 84.0
98.640335 208.0
98.812386 128.0
99.152962 96.0
99.251732 160.0
99.265961 164.0
99.281822 208.0
99.341324 148.0
99.422676 120.0
100.020912 88.0
100.066704 132.0
100.090591 72.0
100.527138 112.0
100.686844 100.0
100.826691 136.0
100.974106 228.0
101.24881 204.0
101.477242 120.0
102.154022 116.0
102.30294 140.0
102.575386 60.0
102.705948 48.0
102.804802 264.0
102.970345 224.0
103.056282 148.0
103.073372 176.0
103.172409 196.0
103.348366 160.0
103.639923 196.0
103.777756 192.0
104.058022 200.0
104.197876 180.0
104.236481 180.0
105.070312 616.0
105.120232 136.0
105.287628 132.0
105.446976 100.0
105.530792 44.0
106.013863 124.0
106.075348 164.0
106.274277 124.0
106.380997 148.0
106.931854 200.0
107.084206 124.0
107.115105 152.0
107.436684 196.0
107.484138 140.0
107.84967 188.0
108.25103 216.0
108.387741 156.0
108.474785 136.0
108.808777 48.0
108.958305 104.0
109.186951 136.0
109.517876 188.0
110.108109 124.0
110.413239 224.0
110.898956 76.0
110.938782 156.0
111.117043 240.0
111.159004 64.0
111.749435 256.0
112.573593 180.0
112.725693 64.0
112.750168 196.0
112.846169 136.0
112.879997 208.0
112.970947 152.0
113.58313 160.0
113.725288 192.0
113.963135 108.0
114.107658 152.0
114.629128 184.0
114.889244 204.0
115.054024 2548.0
115.12249 216.0
115.226555 64.0
115.354774 168.0
115.735588 148.0
115.791267 68.0
115.939087 148.0
116.062057 348.0
116.344475 96.0
116.789276 148.0
117.069351 1252.0
117.08844 120.0
117.206924 168.0
117.724625 60.0
117.901764 172.0
118.53582 156.0
119.021698 48.0
119.060791 144.0
119.558624 36.0
119.782883 140.0
119.917969 68.0
120.727928 140.0
120.87011 156.0
121.040848 200.0
121.64595 140.0
122.072182 208.0
122.468323 264.0
122.496956 156.0
122.560844 192.0
122.832008 208.0
123.72699 108.0
123.753555 248.0
124.203423 144.0
124.347641 176.0
124.525253 128.0
124.651878 140.0
125.32386 132.0
125.43306 64.0
125.555687 164.0
125.687294 204.0
125.881493 80.0
126.230087 144.0
126.431419 176.0
126.722519 184.0
127.052704 320.0
127.25631 156.0
127.651772 188.0
127.860985 144.0
128.063705 1156.0
128.30246 216.0
128.948029 188.0
129.069519 3344.0
129.611084 180.0
129.692673 120.0
129.980682 128.0
130.077637 2032.0
130.250839 48.0
130.416718 64.0
130.519012 40.0
130.596329 124.0
130.835266 52.0
130.873962 156.0
131.01062 132.0
131.049347 152.0
131.085556 684.0
131.781738 208.0
131.969147 212.0
132.005737 232.0
132.086441 368.0
132.131531 204.0
132.18187 80.0
133.101044 224.0
133.45488 272.0
134.076401 120.0
134.708588 156.0
134.821808 176.0
134.967438 40.0
135.078445 268.0
135.256622 164.0
135.905502 112.0
136.091187 160.0
137.212616 64.0
137.756348 32.0
137.99707 188.0
138.296494 192.0
138.70874 184.0
139.054199 296.0
139.215515 84.0
139.248398 96.0
140.060883 1052.0
140.617416 240.0
140.757919 112.0
140.857101 124.0
140.979965 228.0
140.996506 96.0
141.068268 716.0
141.550064 172.0
141.988464 224.0
142.035065 136.0
142.114182 196.0
142.19487 112.0
142.843521 152.0
143.014847 228.0
143.084473 708.0
143.374466 148.0
143.610489 180.0
143.954163 44.0
143.975647 144.0
144.055328 812.0
144.093643 404.0
144.494339 172.0
144.719315 124.0
145.065689 1052.0
145.101425 5272.0
145.150604 84.0
145.172195 232.0
145.232147 56.0
145.4505 72.0
145.541718 100.0
145.87085 52.0
145.962219 216.0
146.024734 156.0
146.073746 404.0
146.104675 1008.0
146.129379 56.0
146.243683 152.0
146.489288 64.0
146.588074 140.0
146.778488 76.0
147.075226 176.0
147.321533 156.0
147.47908 80.0
147.727646 160.0
148.085892 168.0
148.94693 96.0
149.029541 124.0
149.090286 184.0
149.883575 132.0
150.820709 160.0
151.844131 184.0
152.063171 568.0
153.070206 1836.0
153.89888 116.0
154.07692 720.0
154.259583 200.0
154.407928 128.0
154.586044 272.0
154.732086 100.0
155.060471 160.0
155.085083 4068.0
155.127319 96.0
155.136566 132.0
155.235062 48.0
155.306976 132.0
155.423584 88.0
155.74382 52.0
155.845688 148.0
155.875504 84.0
155.952545 136.0
156.089752 436.0
156.313141 152.0
156.908417 92.0
157.064026 2832.0
157.091873 320.0
157.185272 52.0
157.389954 28.0
157.437393 20.0
157.59726 152.0
157.62291 200.0
157.764709 176.0
157.854721 132.0
158.003204 220.0
158.072983 19672.0
158.156601 76.0
158.17334 80.0
158.217361 68.0
158.262589 136.0
158.286316 100.0
158.356705 116.0
158.375275 36.0
158.632141 156.0
158.663452 60.0
158.748688 72.0
158.954391 44.0
158.989517 128.0
159.016724 200.0
159.077423 3008.0
159.160217 68.0
159.343567 40.0
159.460678 92.0
159.904312 192.0
159.939545 124.0
160.035217 68.0
160.086655 344.0
160.148529 72.0
160.166168 56.0
160.27449 36.0
160.355133 44.0
160.382858 180.0
160.400497 84.0
160.521515 64.0
160.571945 156.0
160.718262 204.0
161.095612 552.0
161.160126 84.0
161.334808 168.0
161.582352 76.0
161.788132 216.0
162.705048 124.0
162.852325 72.0
163.307281 84.0
163.920822 272.0
164.025314 52.0
165.565964 200.0
166.07341 176.0
166.82576 48.0
167.090652 180.0
168.051651 128.0
168.095734 180.0
168.674026 88.0
168.717972 136.0
168.986938 156.0
169.074921 124.0
169.126678 196.0
169.683624 176.0
170.090912 180.0
170.145416 176.0
170.901733 72.0
170.998016 60.0
171.076645 644.0
171.122955 88.0
171.396439 88.0
172.089432 1136.0
172.192078 56.0
172.542221 196.0
172.594513 168.0
172.636353 168.0
173.002975 160.0
173.054031 184.0
173.0961 16588.0
173.195923 124.0
173.288116 44.0
173.31955 52.0
173.364105 64.0
173.395554 52.0
173.421753 56.0
173.519577 76.0
173.617142 84.0
173.670837 76.0
173.896484 48.0
173.914856 80.0
173.94635 204.0
174.019867 88.0
174.100449 1768.0
174.193192 72.0
174.517151 44.0
174.84787 144.0
174.868927 72.0
175.003189 40.0
175.104767 572.0
175.282379 60.0
175.332458 88.0
175.651474 76.0
175.817703 64.0
176.044724 36.0
176.085663 176.0
176.30098 56.0
177.076126 88.0
177.126724 188.0
178.674088 116.0
178.812454 188.0
181.062195 248.0
182.165436 68.0
182.988358 164.0
183.0905 124.0
183.114914 188.0
183.179565 40.0
184.083069 60.0
185.091751 156.0
185.108139 196.0
185.704132 100.0
186.104736 1124.0
186.143768 84.0
186.222519 56.0
186.589371 40.0
186.883102 44.0
187.110809 280.0
187.656601 92.0
188.114929 136.0
188.858154 44.0
190.082748 164.0
200.033203 148.0
201.126038 736.0
202.130157 268.0
207.043579 88.0
221.023956 180.0
224.296722 80.0
231.556 92.0
251.085983 80.0
251.827652 112.0
257.040405 144.0
258.452728 120.0
260.864471 64.0
264.823639 76.0
283.68399 60.0
290.07196 132.0
294.850677 136.0
307.407806 80.0
307.603271 32.0
308.651337 76.0
310.580994 80.0
379.890686 112.0
381.898865 40.0
390.145752 88.0
415.062134 20.0
466.709595 64.0
478.038391 120.0
526.039673 48.0
533.722656 116.0
561.827698 44.0
599.802002 56.0
697.939087 200.0
705.943604 148.0
710.350098 44.0
771.080811 184.0
772.026123 64.0
799.321777 140.0
812.180054 48.0
827.950378 60.0
830.053467 160.0
830.168152 72.0
877.385315 120.0
901.716675 104.0
904.414124 180.0
917.021179 228.0
932.351196 136.0
938.956604 132.0
940.817627 152.0
959.387329 208.0
969.858704 116.0
972.153442 176.0
977.69043 144.0
992.28186 168.0
1013.161316 220.0
1016.508972 228.0
1027.025269 224.0
1044.826904 84.0
1054.350586 184.0
1057.111938 236.0
1057.636108 160.0
1060.272095 192.0
1063.638306 156.0
1068.947998 196.0
1070.966187 196.0
1076.125 200.0
1088.00415 80.0
1097.889893 152.0
1103.753784 184.0
1104.86499 128.0
1106.466431 124.0
1110.196899 112.0
1118.421875 268.0
1120.286377 100.0
1138.660522 144.0
1138.922363 72.0
1150.031982 176.0
1153.213257 176.0
1163.618042 172.0
1170.648682 188.0
1178.861816 108.0
1184.156982 232.0
1185.18103 20.0
1185.753296 164.0
1188.79126 192.0
1189.868896 20.0
1202.375977 132.0
1203.708252 184.0
1204.357422 208.0
1206.209229 180.0
1215.572754 204.0
1222.299194 148.0
1223.134277 132.0
1228.583618 52.0
1233.842163 212.0
1236.122314 176.0
1241.488281 180.0
1243.578857 120.0
1243.782471 180.0
1244.01416 120.0
1245.165649 160.0
1250.107788 160.0
1261.682129 148.0
1267.230713 152.0
1271.400024 136.0
1273.352417 184.0
1276.934326 232.0
1278.414185 48.0
1279.182739 180.0
1280.044312 220.0
1281.148193 212.0
1289.518066 20.0
1293.545044 148.0
1296.796875 200.0
1299.249146 184.0
1299.313721 184.0
1301.790039 132.0
1303.219482 152.0
1307.598755 184.0
1310.471924 136.0
1312.136719 116.0
1317.462769 156.0
1318.676636 168.0
1318.871826 164.0
1326.167603 160.0
1329.155396 156.0
1329.307861 136.0
1330.527222 152.0
1335.162964 192.0
1335.642944 164.0
1336.174072 64.0
1337.775024 84.0
1344.159546 188.0
1346.232666 160.0
1346.458984 168.0
1347.78125 192.0
1352.600708 144.0
1352.915405 152.0
1359.22583 152.0
1359.967041 140.0
1361.317871 152.0
1366.043701 112.0
1366.683838 192.0
1367.088501 140.0
1373.240112 104.0
1374.715576 192.0
1374.966431 164.0
1376.819458 160.0
1378.223022 168.0
1380.544067 208.0
1381.616455 180.0
1385.510498 168.0
1389.328369 44.0
1390.396851 192.0
1392.523193 204.0
1393.396729 208.0
1396.206421 192.0
1396.541138 140.0
1401.752319 176.0
1404.018555 200.0
1404.384033 280.0
1404.742065 68.0
1413.408447 208.0
1414.269043 184.0
1414.673218 132.0
1415.48938 96.0
1420.450684 144.0
1422.191528 180.0
1425.781494 184.0
1427.074463 144.0
1428.99231 184.0
1430.851196 112.0
1433.20105 144.0
1436.654053 256.0
1436.887939 160.0
1437.951904 160.0
1441.085693 160.0
1441.728027 140.0
1443.92041 88.0
1444.374146 64.0
1447.348389 172.0
1457.398438 144.0
1461.616333 168.0
1462.942627 172.0
1463.171021 136.0
1469.168701 148.0
1470.595581 176.0
1472.328613 204.0
1472.87854 268.0
1476.707764 128.0
1480.335327 160.0
1480.411865 72.0
1489.984253 220.0
1490.836182 176.0
1495.174438 200.0
1497.977051 172.0
1500.180908 120.0
