>compound MLS002472889-01!4,9-bis(3-methylbut-2-enoxy)furo[3,2-g]chromen-7-one
>formula C21H22O5
>ionization [M+H]+
>parentmass 355.155
#inchi InChI=1S/C21H22O5/c1-13(2)7-10-23-18-15-5-6-17(22)26-20(15)21(25-11-8-14(3)4)19-16(18)9-12-24-19/h5-9,12H,10-11H2,1-4H3
#inchikey HJMDOAWWVCOEDW
#Ion_Source LC-ESI
#Instrument qTof
#Compound_Source NIH Natural Product Library
#PI Dorrestein
#Data_Collector VVP/LMS
#Scan -1
#Precursor_MZ 355.155
#ExactMass 354.147
#Charge 1
#CAS_Number N/A
#Pubmed_ID N/A
#Smiles CC(=CCOc1c2ccoc2c(OCC=C(C)C)c3oc(=O)ccc13)C
#INCHI_AUX N/A
#Library_Class 1
#SpectrumID CCMSLIB00000080237
#IonMode Positive
#UpdateWorkflowName UPDATE-SINGLE-ANNOTATED-GOLD
#LibraryQualityString Gold
#TaskID b1d8e8f6646f4e71acdff9ca3d919d08
##Scan# 2716
#SpectrumFile p2-H05_GH5_01_18065.mzXML
#LibraryName NIH_Natural_Products_Library.mgf
#MQScore -1
#Organism NIH_Natural_Products_Library
#TIC_Query 0
#RT_Query -1
#MZErrorPPM -1
#SharedPeaks 0
#MassDiff 0
#LibMZ -1
#SpecMZ 355.155
#SpecCharge 0
#internalFilename spec-00000.mgf

>collision 10
95.013245 868.0
95.110245 128.0
95.141304 184.0
95.188599 124.0
95.220924 148.0
95.306396 52.0
95.469688 196.0
95.498863 164.0
95.6409 144.0
95.662315 124.0
95.714699 212.0
95.749939 76.0
95.788895 128.0
95.93895 192.0
95.998825 152.0
96.025642 260.0
96.055954 180.0
96.100822 172.0
96.167175 272.0
96.229645 220.0
96.368317 192.0
96.424988 156.0
96.491455 168.0
96.570976 204.0
96.597061 116.0
96.671524 140.0
96.696854 144.0
96.902466 232.0
96.969093 204.0
97.047508 188.0
97.326134 140.0
97.347733 144.0
97.367371 72.0
97.442017 88.0
97.55999 160.0
97.620895 188.0
97.701538 60.0
97.740379 232.0
97.780243 148.0
97.916092 168.0
97.935791 124.0
97.988747 240.0
97.994331 212.0
98.07766 172.0
98.164413 208.0
98.490059 232.0
98.515739 184.0
98.569084 128.0
98.608612 436.0
98.679779 148.0
98.787666 172.0
98.804375 176.0
98.87561 60.0
98.91124 124.0
99.250023 200.0
99.285721 232.0
99.359108 136.0
99.416656 156.0
99.543709 96.0
99.654945 140.0
99.73642 52.0
99.758286 148.0
99.794075 40.0
99.811974 148.0
99.923355 252.0
99.947235 220.0
100.098465 160.0
100.124405 112.0
100.343597 216.0
100.403419 168.0
100.60096 164.0
100.654869 92.0
100.826675 128.0
100.872643 156.0
100.90863 168.0
101.142693 216.0
101.186737 256.0
101.224777 148.0
101.431145 264.0
101.709969 176.0
101.794289 132.0
101.810356 172.0
101.83847 128.0
101.95858 180.0
102.021332 220.0
102.055511 140.0
102.071602 160.0
102.103775 120.0
102.166618 216.0
102.307007 184.0
102.333183 92.0
102.371437 120.0
102.474983 148.0
102.52253 80.0
102.580986 204.0
102.673737 292.0
102.863403 356.0
103.028992 212.0
103.049202 48.0
103.095673 188.0
103.196747 128.0
103.233147 132.0
103.251343 220.0
103.320122 88.0
103.411179 116.0
103.486084 176.0
103.660286 296.0
103.67852 72.0
103.719063 168.0
103.80201 144.0
103.887375 80.0
103.952301 136.0
103.968536 80.0
104.019279 168.0
104.063416 200.0
104.147202 212.0
104.161423 84.0
104.236595 184.0
104.250824 112.0
104.279274 108.0
104.549774 208.0
104.708572 128.0
104.88176 56.0
104.910301 160.0
104.983704 284.0
105.033524 1212.0
105.122421 92.0
105.273491 180.0
105.287781 144.0
105.336807 80.0
105.396057 240.0
105.424591 248.0
105.512558 180.0
105.643448 48.0
105.667992 196.0
105.698685 48.0
105.809212 48.0
105.870644 140.0
105.891121 148.0
106.038643 364.0
106.11039 152.0
106.19857 68.0
106.354507 152.0
106.457169 204.0
106.759262 208.0
106.79422 200.0
106.839478 248.0
106.925903 160.0
106.975304 112.0
107.048637 2432.0
107.139816 172.0
107.179199 44.0
107.249275 176.0
107.357056 216.0
107.395668 152.0
107.628876 208.0
107.684631 136.0
107.75074 140.0
107.779663 128.0
107.804459 60.0
107.872665 104.0
107.909882 164.0
107.94503 40.0
108.000877 108.0
108.047028 220.0
108.20575 164.0
108.394234 64.0
108.408745 48.0
108.462631 260.0
108.485435 112.0
108.553856 80.0
108.605705 176.0
108.638893 112.0
108.748871 220.0
108.78624 44.0
108.871368 168.0
108.906677 44.0
108.921219 136.0
108.972176 128.0
109.029259 176.0
109.15815 56.0
109.235107 196.0
109.272552 92.0
109.32457 156.0
109.378685 144.0
109.453636 148.0
109.580696 136.0
109.597366 48.0
109.784973 184.0
109.868408 156.0
109.924744 116.0
109.947701 148.0
110.055092 184.0
110.15023 244.0
110.166946 140.0
110.202461 148.0
110.244255 228.0
110.557953 192.0
110.602348 132.0
110.67308 200.0
110.837204 136.0
110.890953 180.0
111.039818 64.0
111.064987 136.0
111.167793 328.0
111.186676 228.0
111.272743 212.0
111.316833 100.0
111.392448 172.0
111.51432 32.0
111.602615 196.0
111.65519 60.0
111.724602 164.0
111.804558 184.0
111.823502 248.0
111.907707 148.0
111.97509 100.0
112.002472 176.0
112.034073 148.0
112.069893 180.0
112.12468 288.0
112.153587 224.0
112.200569 172.0
112.284912 176.0
112.434708 140.0
112.530098 168.0
112.601494 240.0
112.810684 224.0
112.935448 192.0
112.960831 188.0
113.039116 84.0
113.16188 136.0
113.312256 84.0
113.356758 204.0
113.403381 140.0
113.418221 84.0
113.494537 64.0
113.519989 192.0
113.594536 188.0
113.659988 200.0
113.679092 156.0
113.723656 60.0
113.789467 216.0
113.859795 168.0
113.936012 124.0
113.982758 92.0
114.084641 200.0
114.137932 136.0
114.201729 160.0
114.261292 184.0
114.28257 84.0
114.308372 220.0
114.326714 172.0
114.397499 132.0
114.552956 160.0
114.57 208.0
114.658409 104.0
114.87912 224.0
114.917519 152.0
114.975136 100.0
115.325409 180.0
115.477219 248.0
115.515717 176.0
115.614143 188.0
115.636383 224.0
115.90538 184.0
116.025406 136.0
116.068291 156.0
116.132629 196.0
116.304283 140.0
116.321457 232.0
116.379425 136.0
116.594238 212.0
116.906075 172.0
116.998627 60.0
117.032669 860.0
117.183853 220.0
117.254967 124.0
117.354126 172.0
117.477058 232.0
117.500786 128.0
117.556892 152.0
117.647545 64.0
117.88298 140.0
118.03862 108.0
118.068687 208.0
118.220337 152.0
118.246307 156.0
118.482666 184.0
118.519165 140.0
118.538673 172.0
118.679565 180.0
118.759804 92.0
118.781502 144.0
118.909515 64.0
118.933395 104.0
119.048828 596.0
119.09407 172.0
119.370796 148.0
119.420105 116.0
119.45491 204.0
119.476662 88.0
119.5093 148.0
119.629005 136.0
119.787025 240.0
119.841179 152.0
120.015793 188.0
120.064789 132.0
120.143311 200.0
120.276543 224.0
120.443878 140.0
120.555992 224.0
120.669662 112.0
120.702461 100.0
120.726509 172.0
120.794319 188.0
120.831505 92.0
120.859955 40.0
120.928642 196.0
121.025391 612.0
121.089813 132.0
121.322083 192.0
121.475594 176.0
121.554581 132.0
121.611641 160.0
121.851006 160.0
121.980667 180.0
122.011444 132.0
122.034752 276.0
122.068611 48.0
122.121994 176.0
122.255821 160.0
122.328773 164.0
122.374466 224.0
122.477974 276.0
122.581528 128.0
122.698349 120.0
122.768906 96.0
122.801987 92.0
122.868164 180.0
123.009209 416.0
123.051773 104.0
123.060593 152.0
123.09993 104.0
123.287704 104.0
123.415916 120.0
123.488899 172.0
123.528709 128.0
123.685822 184.0
123.785454 212.0
123.800957 208.0
124.17527 168.0
124.330803 176.0
124.364098 140.0
124.555061 184.0
124.672813 132.0
124.723938 208.0
124.990814 260.0
125.062035 48.0
125.079842 32.0
125.107239 196.0
125.153313 68.0
125.214142 208.0
125.295853 140.0
125.320366 240.0
125.344872 136.0
125.380531 120.0
125.434021 68.0
125.650345 168.0
125.994164 212.0
126.199783 140.0
126.282524 184.0
126.302658 64.0
126.351875 228.0
126.394875 164.0
126.558716 204.0
126.620491 140.0
126.687691 48.0
126.803123 264.0
126.826622 188.0
126.873695 200.0
126.927505 244.0
127.003761 148.0
127.021706 232.0
127.041893 48.0
127.207962 128.0
127.350838 140.0
127.64608 212.0
127.688812 204.0
127.738297 192.0
127.877808 208.0
127.952927 204.0
128.012878 220.0
128.053421 136.0
128.116501 148.0
128.145782 208.0
128.19986 92.0
128.30806 144.0
128.348648 176.0
128.375702 164.0
128.54454 204.0
128.594543 196.0
128.901978 136.0
128.998871 188.0
129.035965 316.0
129.197876 196.0
129.471771 180.0
129.49115 180.0
129.665939 204.0
129.672913 144.0
129.680573 172.0
129.800369 152.0
129.82077 132.0
129.859329 152.0
129.975021 172.0
129.990906 44.0
130.04483 228.0
130.190689 92.0
130.447433 76.0
130.536102 104.0
130.606613 160.0
130.704437 312.0
130.734024 196.0
130.850113 268.0
130.982193 132.0
131.011871 156.0
131.049347 436.0
131.127899 152.0
131.438171 152.0
131.470123 148.0
131.506104 172.0
131.602524 160.0
131.764679 164.0
131.81723 84.0
131.833237 144.0
131.897232 100.0
132.041275 156.0
132.100754 144.0
132.160233 48.0
132.259689 200.0
132.279236 48.0
132.347931 168.0
132.446411 240.0
132.496796 188.0
132.764984 164.0
132.803986 160.0
132.83609 120.0
132.88678 212.0
132.92717 212.0
133.0289 2500.0
133.068741 184.0
133.164337 116.0
133.352737 192.0
133.371124 164.0
133.391815 244.0
133.430222 176.0
133.651703 96.0
133.677856 176.0
133.759872 136.0
133.803604 104.0
133.987793 148.0
134.035706 3236.0
134.16301 248.0
134.204514 40.0
134.264465 44.0
134.33136 216.0
134.460571 48.0
134.511353 180.0
134.601395 188.0
134.659134 160.0
134.765396 120.0
134.83934 164.0
134.858856 240.0
134.953796 176.0
135.010574 184.0
135.044052 3636.0
135.070557 268.0
135.145111 144.0
135.174683 168.0
135.202438 196.0
135.226639 132.0
135.278549 204.0
135.311234 140.0
135.431656 180.0
135.454193 88.0
135.494202 76.0
135.670334 128.0
135.822586 228.0
135.946365 48.0
135.962601 128.0
136.022415 172.0
136.046204 556.0
136.075058 208.0
136.094925 220.0
136.139038 220.0
136.42717 196.0
136.515518 132.0
136.699295 128.0
136.748169 20.0
136.83197 212.0
136.880875 228.0
136.964706 60.0
137.046249 192.0
137.155792 192.0
137.235931 200.0
137.307343 244.0
137.360992 144.0
137.377319 152.0
137.505661 100.0
137.608368 148.0
137.629379 152.0
137.659744 188.0
137.697098 244.0
137.727463 196.0
137.771851 164.0
137.811569 52.0
137.860641 220.0
138.003235 196.0
138.029205 168.0
138.169296 212.0
138.321411 80.0
138.45018 148.0
138.471268 68.0
138.497025 156.0
138.562622 80.0
138.613525 192.0
138.724319 160.0
139.002487 164.0
139.022202 60.0
139.055069 224.0
139.224106 100.0
139.249939 152.0
139.534271 148.0
139.550735 148.0
139.600113 244.0
139.616577 184.0
139.731842 112.0
139.7836 188.0
139.825958 180.0
139.861267 40.0
139.910706 124.0
140.002533 132.0
140.299423 320.0
140.528198 88.0
140.705215 204.0
140.835098 152.0
140.969223 176.0
141.066666 372.0
141.090317 124.0
141.111588 124.0
141.218002 156.0
141.27478 216.0
141.329788 256.0
141.383621 168.0
141.483032 160.0
141.513809 172.0
141.648804 128.0
141.67012 40.0
141.753052 164.0
141.857346 200.0
141.911865 180.0
142.025696 168.0
142.074326 192.0
142.265381 144.0
142.315231 156.0
142.357971 136.0
142.559906 188.0
142.845215 60.0
142.904694 192.0
142.922134 232.0
142.939133 144.0
142.990356 164.0
143.007385 180.0
143.105362 196.0
143.154633 212.0
143.209412 64.0
143.254669 136.0
143.323761 88.0
143.383331 196.0
143.765152 168.0
143.865173 188.0
143.98114 236.0
144.019791 388.0
144.087265 160.0
144.235443 120.0
144.307159 188.0
144.383682 144.0
144.661148 112.0
144.711517 148.0
144.790543 144.0
144.892715 188.0
144.914032 224.0
144.967819 196.0
144.986038 232.0
145.028458 14564.0
145.06308 192.0
145.094864 180.0
145.11644 56.0
145.133224 116.0
145.185974 188.0
145.286713 180.0
145.320312 72.0
145.339508 160.0
145.361099 48.0
145.381744 408.0
145.519119 188.0
145.572342 176.0
145.605972 160.0
145.625183 56.0
145.690048 104.0
145.727142 180.0
145.834229 84.0
145.894318 60.0
146.032394 2092.0
146.103546 48.0
146.182953 100.0
146.219498 208.0
146.334595 140.0
146.379639 136.0
146.442963 56.0
146.476685 168.0
146.521698 204.0
146.604385 72.0
146.679092 84.0
146.734543 76.0
146.782166 112.0
146.833572 176.0
146.881653 200.0
146.900955 40.0
146.917831 188.0
147.006348 252.0
147.043808 2484.0
147.12056 68.0
147.168839 116.0
147.222809 132.0
147.255783 216.0
147.275101 172.0
147.366913 192.0
147.461151 188.0
147.487747 156.0
147.519165 148.0
147.623138 132.0
147.76265 212.0
147.903793 144.0
147.988525 256.0
148.012955 148.0
148.049072 704.0
148.182281 176.0
148.208939 164.0
148.548355 140.0
148.623566 108.0
148.691513 104.0
148.713364 140.0
148.769196 188.0
149.022705 1008.0
149.080093 120.0
149.097107 180.0
149.247833 128.0
149.325638 144.0
149.451508 168.0
149.58844 160.0
149.72966 180.0
149.771072 176.0
149.846588 148.0
149.990372 164.0
150.007431 132.0
150.028595 188.0
150.10582 68.0
150.151291 120.0
150.30986 124.0
150.441666 104.0
150.468521 164.0
150.671234 204.0
150.83252 492.0
150.881409 208.0
150.947433 60.0
151.030579 160.0
151.050156 176.0
151.09111 344.0
151.28508 144.0
151.576538 108.0
151.608398 128.0
151.84375 168.0
151.95282 160.0
151.971313 64.0
152.052582 208.0
152.452606 92.0
152.496841 96.0
152.55719 220.0
152.900208 136.0
153.052841 128.0
153.07254 152.0
153.161194 176.0
153.326279 116.0
153.456924 164.0
153.577759 176.0
153.644897 188.0
153.708527 56.0
153.738129 200.0
153.770218 176.0
153.809708 104.0
154.045929 176.0
154.076416 116.0
154.145599 144.0
154.199707 188.0
154.227158 84.0
154.286484 96.0
154.328522 196.0
154.365601 124.0
154.406647 196.0
154.518967 152.0
154.543701 188.0
154.712006 184.0
154.739716 148.0
154.813522 180.0
154.843246 160.0
155.004272 144.0
155.103409 148.0
155.420853 64.0
155.490341 220.0
155.693924 240.0
155.787796 308.0
155.89267 240.0
155.910065 152.0
155.999542 224.0
156.089493 156.0
156.178589 104.0
156.220871 184.0
156.529495 144.0
156.574326 140.0
156.636597 168.0
156.736252 136.0
156.845901 160.0
157.02861 452.0
157.092773 164.0
157.165131 104.0
157.21254 152.0
157.307388 144.0
157.457214 172.0
157.574615 132.0
157.617096 116.0
157.682068 36.0
157.716507 220.0
157.762054 216.0
157.900467 188.0
158.032166 160.0
158.32254 140.0
158.360107 108.0
158.402695 196.0
158.47728 228.0
158.705948 124.0
158.781174 200.0
158.934204 152.0
159.009476 156.0
159.045029 176.0
159.077255 136.0
159.320847 60.0
159.589783 168.0
159.682816 200.0
159.715515 92.0
159.844696 152.0
159.868988 64.0
160.033554 224.0
160.050247 184.0
160.072083 184.0
160.16893 156.0
160.198837 176.0
160.350021 184.0
160.405472 216.0
160.440765 216.0
160.498764 212.0
160.539108 112.0
160.603928 200.0
160.608429 140.0
160.645447 148.0
160.842575 232.0
160.880188 200.0
161.024002 6032.0
161.059631 216.0
161.101974 164.0
161.162613 100.0
161.220734 56.0
161.306671 168.0
161.420944 100.0
161.453888 160.0
161.598831 144.0
161.627869 148.0
161.825302 88.0
161.908859 212.0
162.029587 3888.0
162.064819 156.0
162.093796 140.0
162.154617 60.0
162.172363 116.0
162.235306 236.0
162.304184 220.0
162.32193 52.0
162.346375 100.0
162.370117 156.0
162.465149 180.0
162.652573 100.0
162.674606 100.0
162.829498 276.0
162.847275 184.0
162.898071 172.0
162.931107 148.0
162.954956 160.0
162.970779 204.0
163.002228 480.0
163.039078 20152.0
163.127045 80.0
163.149658 136.0
163.210083 152.0
163.252792 100.0
163.275818 176.0
163.295822 208.0
163.335297 96.0
163.373962 116.0
163.392319 184.0
163.420746 144.0
163.486877 160.0
163.625412 68.0
163.681427 44.0
163.700241 196.0
163.75528 48.0
163.845718 184.0
163.938721 144.0
163.987137 176.0
164.008408 196.0
164.041702 1452.0
164.064636 268.0
164.084015 84.0
164.117828 152.0
164.201309 52.0
164.394608 224.0
164.422089 152.0
164.441147 164.0
164.527939 52.0
164.990341 60.0
165.013351 172.0
165.040237 164.0
165.12587 68.0
165.164673 168.0
165.217957 124.0
165.320312 108.0
165.386856 224.0
165.481567 164.0
165.519989 184.0
165.626877 216.0
165.750519 156.0
165.945328 332.0
166.04277 132.0
166.227478 212.0
166.586945 132.0
166.717163 140.0
166.748825 128.0
166.843933 132.0
167.065094 192.0
167.085678 136.0
167.170258 92.0
167.291565 168.0
167.363647 136.0
167.389404 128.0
167.543945 132.0
167.647003 76.0
167.966721 144.0
168.10347 40.0
168.193802 148.0
168.27124 136.0
168.682007 148.0
168.767319 48.0
168.847488 152.0
168.886292 52.0
168.950958 168.0
169.073273 140.0
169.48172 208.0
169.603531 148.0
169.652786 132.0
169.673523 192.0
169.696854 144.0
169.77446 164.0
169.880997 192.0
169.995163 112.0
170.0289 172.0
170.067825 200.0
170.496872 124.0
170.618546 192.0
170.652344 144.0
170.696548 164.0
170.76416 96.0
170.837006 156.0
170.899963 200.0
170.974899 60.0
171.004395 644.0
171.042984 164.0
171.081284 92.0
171.386353 176.0
171.407196 144.0
171.47496 256.0
171.568802 216.0
171.589645 56.0
171.62355 68.0
171.680923 108.0
171.753952 112.0
171.790466 132.0
171.840042 172.0
171.964035 108.0
172.013916 644.0
172.048798 176.0
172.111862 236.0
172.242065 68.0
172.268188 80.0
172.31897 176.0
172.383163 168.0
172.466797 160.0
172.538193 140.0
172.582367 152.0
172.653107 304.0
172.709579 224.0
172.751816 224.0
172.78772 144.0
172.816055 108.0
172.860397 148.0
172.907822 220.0
172.932373 168.0
172.961868 348.0
172.981506 360.0
173.024246 112584.0
173.11293 128.0
173.136215 128.0
173.143173 116.0
173.182831 116.0
173.221558 116.0
173.247665 108.0
173.27771 220.0
173.310486 92.0
173.332291 72.0
173.379089 64.0
173.397476 136.0
173.430023 32.0
173.453064 192.0
173.474594 68.0
173.502182 92.0
173.530197 96.0
173.573807 252.0
173.651321 116.0
173.680634 64.0
173.698395 140.0
173.728973 96.0
173.75444 68.0
173.778824 272.0
173.810776 92.0
173.849213 164.0
173.903793 96.0
173.946777 104.0
173.986694 236.0
174.027359 8792.0
174.105942 84.0
174.113617 96.0
174.144424 104.0
174.175232 132.0
174.238022 84.0
174.264557 48.0
174.288773 56.0
174.34845 152.0
174.403839 108.0
174.516876 32.0
174.612915 112.0
174.664154 36.0
174.705307 112.0
174.74556 136.0
174.777283 96.0
174.808533 64.0
174.815628 56.0
174.828598 40.0
174.833786 76.0
174.872025 84.0
174.897415 236.0
174.937836 76.0
174.992874 132.0
175.038101 5464.0
175.084412 120.0
175.093048 92.0
175.139511 152.0
175.160645 124.0
175.203812 116.0
175.246902 96.0
175.284271 180.0
175.294418 92.0
175.306885 116.0
175.364716 96.0
175.386276 100.0
175.446274 116.0
175.500381 168.0
175.541199 140.0
175.57811 168.0
175.638779 72.0
175.669556 180.0
175.706406 120.0
175.773331 176.0
176.042007 964.0
176.113907 136.0
176.169373 100.0
176.220383 144.0
176.267136 88.0
176.301483 52.0
176.341125 72.0
176.362274 48.0
176.420425 136.0
176.489166 44.0
176.592316 56.0
176.655258 196.0
176.732513 68.0
177.016647 604.0
177.046204 356.0
177.148178 64.0
177.244385 168.0
177.551071 88.0
177.965042 76.0
178.024689 268.0
178.275833 128.0
178.307724 128.0
178.576263 200.0
178.733215 96.0
178.903564 212.0
179.145905 116.0
179.460388 248.0
179.527054 244.0
179.556396 212.0
179.772491 104.0
179.913956 196.0
179.983368 168.0
180.045593 188.0
180.557922 128.0
180.865616 32.0
181.018219 200.0
181.061081 196.0
181.114639 172.0
181.154816 124.0
181.310226 104.0
181.712463 100.0
181.822479 112.0
182.068665 160.0
182.24408 172.0
182.38652 188.0
182.612381 172.0
182.668869 168.0
182.717285 148.0
182.749573 132.0
182.801987 184.0
182.983734 64.0
183.043182 148.0
183.076767 176.0
183.401291 56.0
183.6008 212.0
183.646652 88.0
183.676331 184.0
183.743774 68.0
184.052429 360.0
184.456726 40.0
184.543747 104.0
184.678452 88.0
184.716324 180.0
184.73526 88.0
184.91925 148.0
185.022903 308.0
185.054611 192.0
185.101395 228.0
185.130432 76.0
185.412186 104.0
185.436569 180.0
186.249008 240.0
186.461197 108.0
186.492401 88.0
186.603851 52.0
186.704468 160.0
186.758865 44.0
187.005066 332.0
187.03923 1008.0
187.29509 80.0
187.344131 176.0
187.393158 204.0
187.442215 172.0
187.464005 132.0
187.589386 176.0
187.665726 72.0
187.703903 232.0
187.731171 204.0
187.905746 132.0
188.18959 180.0
188.514648 56.0
188.738815 140.0
188.857483 224.0
188.948029 172.0
189.018692 6028.0
189.06308 188.0
189.084213 76.0
189.102249 80.0
189.162872 160.0
189.184769 152.0
189.39563 124.0
189.483292 172.0
189.521652 136.0
189.732697 124.0
189.776566 52.0
189.904999 120.0
189.982254 72.0
190.023071 2068.0
190.051514 200.0
190.223755 200.0
190.406784 152.0
190.481888 72.0
190.542313 144.0
190.638489 132.0
190.679718 124.0
190.808914 76.0
190.84465 236.0
190.964935 224.0
191.033142 2052.0
191.353668 192.0
191.413559 144.0
191.513306 124.0
191.557465 88.0
191.648376 156.0
191.788925 104.0
191.921265 64.0
192.034241 368.0
192.478653 184.0
192.600037 168.0
192.812912 232.0
193.039612 116.0
193.068039 172.0
193.191727 192.0
193.280273 156.0
193.435257 68.0
193.617996 148.0
193.667862 88.0
193.956024 96.0
193.9767 172.0
194.349838 80.0
194.369263 108.0
194.444199 56.0
194.563553 148.0
194.946869 148.0
195.044144 152.0
195.320358 264.0
195.580994 40.0
195.728546 144.0
195.759171 120.0
196.266327 76.0
196.327682 128.0
196.95845 212.0
197.21553 144.0
197.282608 228.0
197.489532 80.0
198.061569 316.0
198.399628 100.0
198.540222 168.0
198.893356 160.0
199.000031 168.0
199.037308 468.0
199.075851 72.0
199.303375 160.0
199.418594 112.0
199.958618 72.0
200.008987 416.0
200.046417 328.0
200.078247 112.0
200.127518 112.0
200.259872 132.0
200.383835 120.0
200.454269 112.0
200.592377 112.0
200.614929 44.0
200.662857 136.0
200.727707 120.0
200.792572 180.0
201.01915 4368.0
201.051315 244.0
201.365509 48.0
201.646851 76.0
201.894012 116.0
202.021042 324.0
202.063736 188.0
202.109009 36.0
202.205215 36.0
202.338257 144.0
202.734818 100.0
202.79306 160.0
202.837646 100.0
202.958771 184.0
203.034409 6328.0
203.08638 68.0
203.163834 112.0
203.199707 76.0
203.239578 48.0
203.308533 40.0
203.475159 216.0
203.554657 72.0
203.639862 76.0
203.739288 96.0
203.972305 164.0
204.005951 148.0
204.035721 708.0
204.103088 148.0
204.168488 60.0
204.259506 188.0
204.305023 144.0
204.438766 152.0
204.53775 200.0
204.592468 64.0
204.660797 144.0
204.939941 224.0
205.032928 404.0
205.066116 196.0
205.615784 48.0
205.644318 156.0
205.964111 44.0
206.075531 92.0
206.492889 192.0
206.621628 148.0
206.887772 132.0
207.214264 176.0
207.58403 80.0
207.681549 228.0
207.919678 208.0
208.045975 116.0
208.258469 48.0
208.499817 104.0
208.519943 48.0
208.637787 164.0
208.715424 160.0
208.73555 96.0
208.893738 68.0
208.922501 228.0
209.046234 116.0
209.20166 144.0
209.746109 60.0
209.91333 140.0
209.99408 144.0
210.135422 192.0
210.196014 148.0
210.299911 120.0
210.57132 212.0
210.637863 108.0
211.062332 348.0
211.450241 104.0
211.754257 104.0
211.913574 184.0
212.049774 288.0
212.238205 76.0
212.536972 132.0
212.615326 140.0
212.815628 172.0
212.867889 156.0
213.020325 216.0
213.056686 404.0
213.077026 140.0
213.10318 412.0
213.12352 108.0
213.152573 32.0
213.265915 192.0
213.286255 128.0
213.414291 164.0
213.571213 68.0
213.841812 136.0
214.036865 32.0
214.095108 132.0
214.124237 204.0
214.398087 120.0
214.575897 144.0
214.75087 176.0
214.886383 292.0
214.931747 84.0
215.019287 52.0
215.073044 424.0
215.378418 116.0
215.448532 116.0
215.468979 160.0
215.623856 100.0
215.673538 148.0
215.728424 160.0
215.777786 188.0
215.948395 176.0
216.003967 100.0
216.044922 160.0
216.402771 184.0
216.428329 140.0
216.475723 160.0
216.571533 76.0
216.639206 196.0
216.6978 136.0
216.721237 136.0
216.74176 176.0
216.768127 188.0
216.800369 144.0
216.882431 144.0
216.905884 124.0
216.957138 192.0
217.013428 27568.0
217.112823 96.0
217.140442 56.0
217.179657 120.0
217.208893 60.0
217.299561 224.0
217.334061 44.0
217.358597 44.0
217.419159 64.0
217.453186 88.0
217.477859 140.0
217.504272 88.0
217.564163 216.0
217.620819 204.0
217.722656 80.0
217.752884 144.0
217.758148 96.0
217.772629 92.0
217.806732 48.0
217.84993 156.0
217.907242 148.0
217.981674 344.0
218.021301 21772.0
218.075577 136.0
218.104752 180.0
218.150543 60.0
218.20166 152.0
218.229919 136.0
218.270401 184.0
218.318344 176.0
218.374023 116.0
218.415192 172.0
218.446075 144.0
218.524765 228.0
218.58725 108.0
218.635864 120.0
218.673279 152.0
218.684662 200.0
218.73912 144.0
218.771255 60.0
218.799454 124.0
218.834595 164.0
218.901917 172.0
219.029922 117760.0
219.083313 176.0
219.089584 164.0
219.109436 84.0
219.11441 72.0
219.167007 64.0
219.206635 88.0
219.229095 220.0
219.265472 156.0
219.29599 88.0
219.325836 68.0
219.358551 144.0
219.368912 100.0
219.384018 120.0
219.433304 56.0
219.444244 84.0
219.472946 160.0
219.518967 368.0
219.558899 84.0
219.602066 72.0
219.661896 152.0
219.688507 48.0
219.718292 116.0
219.751343 108.0
219.799896 228.0
219.813782 68.0
219.820389 148.0
219.847107 80.0
219.873672 48.0
219.911469 152.0
219.935654 104.0
219.96843 224.0
220.033691 9768.0
220.075577 332.0
220.122787 176.0
220.169098 144.0
220.204865 112.0
220.230927 48.0
220.254547 36.0
220.292953 112.0
220.369965 72.0
220.405685 92.0
220.437439 84.0
220.461487 108.0
220.50827 244.0
220.582993 80.0
220.612122 104.0
220.66188 112.0
220.704849 120.0
220.745163 152.0
220.783615 56.0
220.857559 100.0
220.902267 68.0
220.937424 52.0
221.007416 116.0
221.034637 1812.0
221.110855 72.0
221.159363 108.0
221.194107 108.0
221.219482 128.0
221.251129 92.0
221.283691 36.0
221.316269 124.0
221.355423 124.0
221.381409 68.0
221.431763 76.0
221.469421 56.0
221.511734 120.0
221.54512 148.0
221.578537 116.0
221.618393 176.0
221.665909 136.0
221.702164 88.0
221.729156 180.0
221.774506 88.0
221.80188 96.0
221.838654 124.0
221.895462 108.0
221.950363 48.0
222.032562 156.0
222.098648 52.0
222.321167 56.0
222.380539 52.0
222.828934 160.0
223.075607 204.0
223.16777 40.0
223.313492 48.0
223.908752 76.0
223.932571 28.0
224.078537 88.0
224.120255 92.0
224.269257 80.0
224.457077 56.0
224.507782 96.0
224.644989 68.0
224.67482 20.0
225.047882 144.0
225.092819 176.0
225.292801 32.0
225.890686 64.0
225.947525 36.0
226.062302 212.0
226.16597 132.0
226.429459 60.0
226.468399 92.0
226.567245 80.0
227.029541 176.0
227.072357 392.0
227.490921 44.0
227.602005 48.0
227.890366 52.0
228.091721 84.0
228.347305 108.0
228.371353 36.0
228.708359 76.0
229.003265 152.0
229.057648 104.0
229.084763 124.0
229.292679 152.0
229.660507 44.0
229.923004 116.0
229.974319 112.0
230.034683 104.0
230.125259 156.0
230.282288 64.0
231.028824 3740.0
231.074295 196.0
231.113632 136.0
231.159027 40.0
232.030334 716.0
232.777786 72.0
232.941788 72.0
232.975204 76.0
233.029892 336.0
233.142334 104.0
233.45546 56.0
233.543655 40.0
234.188934 116.0
234.527145 108.0
235.026901 1036.0
235.228729 60.0
235.390549 60.0
236.028534 208.0
236.298355 60.0
236.995224 184.0
237.049118 172.0
238.048599 228.0
238.411102 116.0
241.00885 216.0
241.045929 120.0
241.083252 148.0
243.068008 148.0
243.139389 48.0
245.041672 464.0
246.04277 136.0
246.540253 44.0
246.990479 132.0
251.064163 200.0
251.357544 88.0
254.065948 120.0
255.072617 276.0
256.658112 112.0
258.082214 96.0
259.055145 132.0
259.430115 48.0
261.061218 140.0
264.837341 124.0
265.27478 100.0
266.816833 92.0
267.187592 80.0
267.933136 92.0
268.506836 84.0
268.575348 80.0
269.080505 160.0
270.702972 76.0
271.056763 84.0
271.794556 88.0
274.963654 68.0
275.881927 60.0
277.061432 108.0
277.563873 104.0
278.941711 200.0
278.968292 64.0
282.82782 108.0
284.880035 72.0
287.098877 132.0
287.1409 96.0
291.709808 68.0
293.003357 164.0
293.432434 56.0
295.58429 68.0
296.454102 120.0
297.054108 48.0
299.360382 80.0
300.829193 84.0
303.156952 44.0
303.590302 40.0
307.472839 72.0
309.164337 152.0
314.478424 104.0
316.667023 48.0
317.75177 84.0
319.841339 72.0
325.996643 172.0
326.093689 136.0
330.630829 72.0
331.677582 60.0
332.791321 72.0
337.835449 80.0
338.512573 52.0
339.109741 124.0
339.953247 108.0
340.184479 112.0
340.845581 52.0
345.343292 120.0
350.555817 72.0
354.726959 68.0
357.954376 124.0
369.455231 96.0
373.052399 48.0
382.257812 52.0
384.213806 80.0
389.695068 136.0
392.130951 100.0
395.325958 48.0
396.105957 48.0
396.35553 120.0
402.557159 44.0
405.337311 96.0
405.918579 80.0
418.505859 84.0
420.560516 40.0
423.565887 60.0
428.615143 56.0
429.014954 96.0
432.782928 48.0
433.768921 40.0
444.794128 48.0
453.055298 68.0
455.609222 40.0
463.339783 52.0
463.892639 48.0
470.940979 56.0
471.75769 76.0
489.463501 96.0
491.160278 72.0
496.485474 52.0
506.918365 80.0
512.047668 48.0
513.12915 76.0
522.872925 60.0
529.854797 32.0
531.711914 100.0
532.75885 88.0
540.079041 48.0
541.222168 48.0
550.190918 116.0
551.433472 48.0
560.702881 148.0
572.632812 76.0
579.162109 116.0
606.041199 96.0
626.132324 88.0
629.039246 48.0
635.490234 68.0
657.028748 128.0
660.845276 88.0
674.597595 148.0
682.618469 132.0
691.298889 48.0
713.091064 92.0
720.663513 100.0
720.8078 144.0
721.598877 40.0
731.992249 140.0
738.987671 80.0
756.008789 104.0
757.947327 88.0
760.371216 92.0
778.57373 76.0
790.945862 44.0
791.085815 116.0
799.572693 72.0
808.155701 64.0
811.945435 156.0
823.116455 128.0
827.009705 100.0
834.168335 104.0
836.066406 60.0
838.675415 48.0
840.428589 144.0
841.923645 216.0
848.995605 84.0
858.212402 68.0
858.334839 108.0
871.334595 72.0
875.340088 208.0
880.783691 180.0
882.887817 140.0
883.573975 84.0
884.047302 160.0
904.258362 172.0
904.952759 60.0
907.69104 136.0
915.671753 104.0
916.250061 152.0
926.356323 192.0
941.874695 168.0
949.188232 76.0
951.771545 32.0
958.125 60.0
972.40918 144.0
978.544617 168.0
980.27002 176.0
982.33374 196.0
982.708069 148.0
983.113647 96.0
984.905518 240.0
985.205322 116.0
986.292664 168.0
997.619873 156.0
998.242371 136.0
999.903198 168.0
1006.206726 60.0
1008.177429 188.0
1011.777222 184.0
1012.574341 108.0
1017.89502 28.0
1024.522461 184.0
1028.915039 68.0
1028.980347 44.0
1030.276855 148.0
1036.611206 164.0
1039.291504 56.0
1042.772095 148.0
1042.958496 172.0
1044.192993 164.0
1046.664062 80.0
1047.855713 112.0
1052.247803 220.0
1058.564941 48.0
1058.6427 196.0
1064.719238 136.0
1065.063477 132.0
1065.121948 168.0
1066.317505 156.0
1067.481201 148.0
1068.046997 236.0
1069.06189 120.0
1071.998901 200.0
1074.496216 180.0
1076.519653 252.0
1077.65625 236.0
1077.806519 48.0
1087.977905 192.0
1088.43103 136.0
1090.539795 180.0
1095.00061 116.0
1096.351196 188.0
1099.595947 96.0
1101.834473 180.0
1102.290283 144.0
1102.481934 128.0
1103.71814 180.0
1104.240601 52.0
1106.205688 64.0
1107.106201 228.0
1109.597656 40.0
1109.710327 144.0
1113.678711 136.0
1124.738525 164.0
1124.805176 216.0
1125.399414 132.0
1126.300903 224.0
1127.055908 92.0
1127.557007 128.0
1133.110962 176.0
1133.312012 128.0
1135.504028 188.0
1136.584106 108.0
1140.317993 120.0
1145.512451 148.0
1146.442261 188.0
1146.644409 200.0
1150.71875 204.0
1153.245239 56.0
1154.455444 204.0
1154.922119 176.0
1168.197021 156.0
1168.870483 148.0
1169.026978 108.0
1169.210815 168.0
1173.495483 72.0
1173.986328 56.0
1176.838623 164.0
1176.954712 132.0
1179.332153 72.0
1180.861572 248.0
1182.984863 148.0
1185.005127 204.0
1187.088867 180.0
1188.63916 212.0
1190.101196 148.0
1191.907715 196.0
1193.027954 128.0
1194.05249 48.0
1194.83667 176.0
1196.185547 236.0
1196.956543 168.0
1200.891724 68.0
1202.623535 164.0
1207.646606 128.0
1210.456299 156.0
1211.654541 204.0
1211.813965 220.0
1214.323364 172.0
1216.328613 164.0
1216.391113 260.0
1216.689575 36.0
1217.932617 164.0
1222.082886 180.0
1224.352173 212.0
1227.334595 196.0
1228.094727 80.0
1228.276123 180.0
1232.639648 164.0
1235.07251 196.0
1237.528931 128.0
1239.09082 148.0
1239.483887 176.0
1239.87561 208.0
1243.094482 80.0
1244.252563 48.0
1245.61499 116.0
1245.790527 124.0
1246.177002 168.0
1246.612549 132.0
1247.357666 192.0
1251.839355 136.0
1254.227661 176.0
1254.340454 184.0
1256.14563 220.0
1256.434937 136.0
1259.300781 116.0
1259.73877 220.0
1260.480591 188.0
1262.325562 120.0
1266.069092 184.0
1266.940308 128.0
1267.393799 212.0
1268.081177 108.0
1268.15918 192.0
1271.542236 152.0
1274.759277 116.0
1275.8396 192.0
1276.500854 116.0
1278.357544 224.0
1278.59436 72.0
1281.369507 76.0
1281.690063 104.0
1281.761353 196.0
1282.338623 208.0
1282.609375 164.0
1285.148193 244.0
1285.940308 244.0
1287.196777 188.0
1288.325317 160.0
1289.104126 76.0
1291.71814 208.0
1292.185913 156.0
1294.361816 160.0
1295.643799 208.0
1296.231323 176.0
1296.503662 104.0
1296.840454 196.0
1297.59314 100.0
1297.994751 244.0
1298.618652 172.0
1298.833862 168.0
1298.977295 128.0
1300.448242 164.0
1301.256836 56.0
1302.334595 176.0
1304.736694 172.0
1305.23999 196.0
1306.124512 76.0
1309.125732 48.0
1311.178955 224.0
1311.633057 92.0
1316.950806 116.0
1318.735474 104.0
1319.537842 132.0
1320.109131 208.0
1320.347778 224.0
1320.420044 164.0
1322.207031 184.0
1322.424194 136.0
1323.596924 132.0
1324.914307 144.0
1325.183228 144.0
1326.125244 48.0
1326.734131 132.0
1327.053101 204.0
1329.149292 188.0
1329.410522 92.0
1332.56189 148.0
1332.74353 188.0
1336.335327 160.0
1337.732666 188.0
1340.34729 164.0
1340.544067 192.0
1340.864746 120.0
1341.732178 108.0
1342.767578 152.0
1343.270874 192.0
1343.620972 164.0
1344.080688 92.0
1345.306763 152.0
1345.949341 104.0
1347.154419 172.0
1347.921509 96.0
1348.308838 228.0
1349.580811 172.0
1350.209717 120.0
1351.467896 188.0
1351.831665 168.0
1353.759033 160.0
1354.996826 184.0
1355.97876 180.0
1356.579834 204.0
1356.733765 140.0
1357.562256 180.0
1359.19812 164.0
1359.851318 32.0
1360.29895 152.0
1362.149536 136.0
1362.487427 236.0
1362.60498 216.0
1362.766602 48.0
1363.854248 104.0
1364.207031 144.0
1364.479126 124.0
1365.192261 196.0
1366.119019 104.0
1371.619751 156.0
1371.767212 172.0
1372.312744 264.0
1374.171387 188.0
1375.868896 160.0
1376.489014 140.0
1376.821411 164.0
1377.567383 236.0
1378.683105 220.0
1379.082153 136.0
1379.592163 68.0
1379.976685 208.0
1380.183716 152.0
1380.878784 152.0
1381.270874 116.0
1381.455811 192.0
1382.661865 224.0
1384.771851 180.0
1385.164429 156.0
1385.379272 204.0
1386.57959 176.0
1387.039185 152.0
1387.261475 132.0
1387.520996 36.0
1388.922607 184.0
1389.27124 164.0
1389.338013 120.0
1389.523438 176.0
1389.710815 176.0
1389.961182 168.0
1391.095825 140.0
1392.44812 44.0
1392.648682 104.0
1392.953125 168.0
1393.265137 88.0
1394.342651 156.0
1394.558105 208.0
1394.834595 224.0
1396.253296 76.0
1396.379761 212.0
1396.855713 120.0
1397.064087 180.0
1397.607178 28.0
1397.733643 160.0
1397.942017 224.0
1399.802979 108.0
1400.659546 188.0
1402.589355 160.0
1404.013428 176.0
1404.938354 160.0
1405.863525 132.0
1407.505859 160.0
1408.999634 192.0
1410.232544 184.0
1410.539062 188.0
1410.598877 292.0
1412.580444 60.0
1414.024536 200.0
1416.525391 100.0
1416.772583 176.0
1416.862549 76.0
1418.293823 40.0
1418.77356 224.0
1420.033325 156.0
1420.895996 140.0
1421.203613 76.0
1423.4104 72.0
1424.544434 148.0
1424.604492 168.0
1425.423462 60.0
1425.528687 172.0
1425.911987 68.0
1426.124634 180.0
1427.031982 184.0
1429.383301 124.0
1431.606934 292.0
1432.232056 76.0
1433.181274 72.0
1433.761597 92.0
1433.972534 252.0
1434.251465 124.0
1435.895142 224.0
1435.955444 148.0
1436.611694 160.0
1439.38916 180.0
1444.39978 180.0
1444.596558 76.0
1444.89917 88.0
1446.768433 56.0
1447.237793 208.0
1448.404053 208.0
1449.292969 244.0
1450.245361 196.0
1451.003296 220.0
1451.132202 192.0
1451.693359 164.0
1452.011841 160.0
1453.187622 168.0
1454.090698 216.0
1455.654541 112.0
1457.097656 148.0
1460.427246 136.0
1460.556519 152.0
1461.880371 132.0
1462.222778 216.0
1464.175781 176.0
1464.263184 112.0
1465.032471 60.0
1465.550781 168.0
1466.625122 156.0
1468.53125 168.0
1470.018921 232.0
1471.507324 136.0
1473.523682 148.0
1474.646973 116.0
1475.579468 104.0
1476.818359 72.0
1477.69043 64.0
1478.072998 100.0
1481.150635 196.0
1482.307495 84.0
1482.614014 44.0
1483.779053 140.0
1484.653198 184.0
1484.952271 172.0
1487.468994 148.0
1488.659058 228.0
1489.388672 208.0
1489.596069 144.0
1489.780396 132.0
1490.172241 92.0
1490.756226 324.0
1492.251343 140.0
1492.931763 212.0
1493.174072 220.0
1493.347046 388.0
1493.547119 184.0
1494.393311 164.0
1495.716919 168.0
1495.817017 160.0
1496.017212 140.0
1496.201904 48.0
1496.486816 64.0
1498.28894 216.0
1499.098022 148.0
1499.285278 68.0
1500.331177 200.0
1501.850342 224.0
1502.783813 132.0
1503.56311 220.0
