>compound MLS000863653-01!(E)-3-phenyl-N-(2-phenylethyl)prop-2-enamide
>formula C17H17NO
>ionization [M+H]+
>parentmass 252.139
#inchi InChI=1S/C17H17NO/c19-17(12-11-15-7-3-1-4-8-15)18-14-13-16-9-5-2-6-10-16/h1-12H,13-14H2,(H,18,19)/b12-11+
#inchikey BOSUEWCVNFFBGV
#Ion_Source LC-ESI
#Instrument qTof
#Compound_Source NIH Natural Product Library
#PI Dorrestein
#Data_Collector VVP/LMS
#Scan -1
#Precursor_MZ 252.139
#ExactMass 251.131
#Charge 1
#CAS_Number N/A
#Pubmed_ID N/A
#Smiles O=C(NCCc1ccccc1)/C=C/c2ccccc2
#INCHI_AUX N/A
#Library_Class 1
#SpectrumID CCMSLIB00000079528
#IonMode Positive
#UpdateWorkflowName UPDATE-SINGLE-ANNOTATED-GOLD
#LibraryQualityString Gold
#TaskID b1d8e8f6646f4e71acdff9ca3d919d08
##Scan# 2221
#SpectrumFile p1-F07_GF7_01_17939.mzXML
#LibraryName NIH_Natural_Products_Library.mgf
#MQScore -1
#Organism NIH_Natural_Products_Library
#TIC_Query 0
#RT_Query -1
#MZErrorPPM -1
#SharedPeaks 0
#MassDiff 0
#LibMZ -1
#SpecMZ 252.139
#SpecCharge 0
#internalFilename spec-00000.mgf

>collision 10
94.970619 188.0
95.42308 120.0
95.491142 156.0
95.51059 76.0
95.631012 184.0
96.130135 184.0
96.213135 260.0
96.487572 128.0
96.882896 196.0
97.004395 160.0
97.061249 120.0
97.088699 152.0
97.261353 192.0
97.74482 232.0
97.985023 132.0
98.160446 136.0
98.432762 156.0
99.313431 220.0
99.400726 220.0
99.513863 124.0
99.68866 148.0
99.770149 188.0
100.004875 152.0
100.050659 156.0
100.190063 164.0
100.229912 164.0
100.343521 176.0
100.521042 84.0
100.558952 112.0
100.696716 156.0
100.710701 88.0
100.776619 152.0
101.368896 120.0
101.453079 168.0
101.605492 140.0
101.689774 192.0
101.731926 144.0
102.045769 884.0
102.125771 132.0
102.566727 212.0
102.661484 144.0
102.685684 100.0
102.705856 124.0
102.837006 108.0
102.853149 148.0
102.89756 120.0
102.929871 220.0
102.972275 188.0
102.999733 304.0
103.020752 208.0
103.05426 28104.0
103.090462 160.0
103.133911 108.0
103.152611 48.0
103.302223 84.0
103.321976 200.0
103.344231 112.0
103.388329 92.0
103.418007 148.0
103.461617 108.0
103.48996 48.0
103.670341 76.0
103.749283 88.0
103.818222 76.0
103.91153 52.0
103.935356 104.0
104.016769 56.0
104.05838 2496.0
104.110451 76.0
104.191696 52.0
104.3116 48.0
104.352257 52.0
104.380722 88.0
104.468178 96.0
104.645233 120.0
104.725212 132.0
104.747063 140.0
104.795776 136.0
104.863197 92.0
104.881546 120.0
104.924431 108.0
104.94474 44.0
104.979401 164.0
105.003876 84.0
105.030396 152.0
105.047264 132.0
105.070076 25472.0
105.092827 184.0
105.113136 136.0
105.167099 56.0
105.248756 40.0
105.263054 80.0
105.316246 84.0
105.342705 124.0
105.389694 224.0
105.479614 68.0
105.592072 68.0
105.671844 80.0
105.757797 72.0
105.776215 152.0
105.808968 144.0
105.829445 44.0
105.858109 120.0
105.899071 112.0
105.915459 60.0
105.935944 148.0
105.96257 116.0
106.003555 108.0
106.073143 2276.0
106.130638 160.0
106.282425 76.0
106.483597 104.0
106.591209 84.0
106.709641 76.0
106.826859 148.0
106.865952 104.0
107.048119 152.0
107.07386 48.0
107.240738 124.0
107.294334 84.0
107.329384 180.0
107.496468 48.0
107.779358 48.0
108.275833 84.0
108.557678 112.0
108.958267 64.0
109.216034 116.0
109.440788 200.0
110.097641 60.0
110.218803 60.0
110.371391 116.0
110.500145 184.0
110.553375 108.0
110.875885 48.0
111.110733 140.0
111.186272 92.0
111.350029 180.0
112.023109 124.0
113.254593 124.0
113.455902 116.0
113.903656 96.0
113.956764 160.0
117.071251 216.0
118.301964 72.0
119.643578 156.0
120.029221 216.0
120.245186 200.0
121.268761 152.0
121.531914 204.0
121.588966 260.0
122.862991 52.0
122.971115 192.0
123.718239 156.0
123.778015 180.0
124.752007 132.0
125.156929 192.0
126.751778 164.0
127.24073 96.0
128.057007 156.0
129.3508 160.0
130.06459 280.0
130.496445 120.0
130.537384 96.0
130.612427 164.0
130.801285 232.0
130.851379 52.0
130.947006 200.0
131.017715 220.0
131.049271 22756.0
131.099655 76.0
131.115601 68.0
131.149796 64.0
131.186264 136.0
131.205795 164.0
131.250107 180.0
131.272369 68.0
131.366409 72.0
131.423447 28.0
131.471375 96.0
131.517014 48.0
131.980774 136.0
132.053955 1208.0
132.342285 36.0
132.974976 56.0
133.025482 120.0
133.051666 228.0
133.135681 68.0
133.199997 100.0
133.526367 52.0
133.643692 52.0
134.016693 48.0
135.023148 152.0
139.037354 88.0
141.313644 216.0
141.427231 104.0
142.064651 108.0
143.019897 140.0
144.47551 52.0
144.712448 120.0
145.628494 56.0
145.67894 88.0
146.065964 112.0
146.37883 44.0
147.015228 144.0
147.0466 112.0
148.025696 240.0
148.081146 312.0
149.2827 20.0
150.052124 32.0
152.844345 92.0
152.923096 120.0
153.038788 184.0
160.074768 200.0
160.56488 200.0
166.510269 140.0
171.042862 236.0
171.092316 140.0
175.095993 180.0
177.013229 240.0
181.045029 116.0
190.091797 88.0
192.058884 116.0
195.102173 180.0
200.110153 20.0
202.102814 216.0
204.01152 148.0
204.037109 128.0
209.175034 76.0
212.428818 56.0
220.09111 132.0
225.049728 140.0
227.057632 148.0
234.983154 132.0
252.141724 160.0
253.138489 104.0
255.057922 172.0
264.061554 124.0
265.272522 76.0
275.915741 60.0
290.901703 144.0
293.078339 164.0
322.730774 88.0
346.22702 40.0
346.856873 124.0
367.554993 96.0
369.790588 116.0
402.135834 40.0
412.135345 48.0
459.424561 36.0
541.934814 68.0
573.656067 540.0
585.100891 48.0
640.313599 68.0
681.700378 84.0
738.896973 56.0
740.114746 96.0
743.182556 32.0
820.868347 136.0
837.885925 244.0
848.079407 176.0
853.722534 108.0
872.045105 128.0
885.668274 196.0
889.552795 180.0
895.177246 72.0
899.350464 40.0
905.946045 196.0
910.270386 224.0
920.018188 144.0
920.579712 152.0
922.609863 168.0
925.447327 184.0
932.927856 172.0
936.518005 148.0
936.609375 32.0
942.69812 168.0
943.003723 176.0
946.600891 92.0
952.28595 212.0
953.053833 172.0
954.627441 56.0
959.097107 176.0
962.008606 184.0
962.79895 144.0
964.578369 144.0
965.511963 172.0
978.219116 208.0
980.438171 208.0
983.567444 40.0
987.110779 196.0
990.884033 156.0
996.844849 120.0
997.159058 136.0
999.271912 140.0
1001.185425 168.0
1002.785706 136.0
1005.390381 172.0
1008.630371 132.0
1009.395386 188.0
1010.755371 100.0
1015.792053 108.0
1016.242493 196.0
1020.466187 224.0
1023.322876 144.0
1028.02063 188.0
1028.384399 140.0
1033.381592 252.0
1035.058594 184.0
1039.975708 160.0
1041.259766 196.0
1043.23877 208.0
1044.389771 200.0
1048.658569 204.0
1051.335083 124.0
1052.109619 152.0
1052.897339 200.0
1053.343018 188.0
1057.617065 148.0
1059.099854 152.0
1059.209961 224.0
1060.091064 144.0
1060.758667 188.0
1064.684082 168.0
1064.787964 176.0
1065.372559 212.0
1068.994019 220.0
1069.117676 128.0
1069.338989 136.0
1070.022461 116.0
1070.074585 216.0
1073.945435 136.0
1074.689087 136.0
1075.987915 196.0
1081.282593 140.0
1085.848999 160.0
1092.009521 140.0
1096.288818 92.0
1096.420532 160.0
1098.227051 148.0
1100.219849 136.0
1101.580322 196.0
1101.837891 168.0
1102.34668 208.0
1107.666016 36.0
1109.733643 140.0
1114.366333 156.0
1116.180908 156.0
1117.198486 172.0
1118.602661 96.0
1123.1604 56.0
1125.850098 76.0
1128.001465 168.0
1128.081665 60.0
1128.141846 148.0
1131.660889 272.0
1136.909424 212.0
1140.717651 52.0
1145.832275 120.0
1150.013062 260.0
1151.822632 160.0
1152.17395 192.0
1155.912842 220.0
1157.381714 184.0
1159.386841 204.0
1164.108398 224.0
1165.398926 164.0
1172.680298 156.0
1174.739624 168.0
1175.544678 168.0
1178.760986 128.0
1186.982056 124.0
1187.180908 200.0
1188.827271 144.0
1189.953003 104.0
1190.536621 200.0
1191.182251 200.0
1192.522095 148.0
1193.787109 120.0
1197.579224 136.0
1198.385132 100.0
1199.432617 188.0
1199.866943 212.0
1201.197876 204.0
1202.260498 228.0
1203.254395 124.0
1206.549805 184.0
1209.468994 148.0
1209.600586 176.0
1214.270508 112.0
1218.345093 104.0
1226.619141 84.0
1229.401978 160.0
1230.072021 176.0
1233.571777 216.0
1235.564819 168.0
1235.739624 188.0
1236.572388 252.0
1237.55249 164.0
1242.570679 168.0
1242.633789 56.0
1243.967163 96.0
1247.493652 40.0
1248.449829 188.0
1248.674927 164.0
1250.159302 160.0
1251.834717 112.0
1252.088257 208.0
1253.483032 208.0
1256.169189 220.0
1257.7052 208.0
1258.935913 144.0
1260.221558 144.0
1264.273315 148.0
1265.682007 188.0
1266.269775 180.0
1268.154419 184.0
1268.21106 208.0
1273.219971 156.0
1274.825562 172.0
1275.34436 188.0
1276.496094 120.0
1276.638306 172.0
1276.986816 172.0
1278.430908 160.0
1278.587524 184.0
1279.370483 180.0
1281.685181 156.0
1283.253296 136.0
1284.401367 156.0
1289.656616 104.0
1291.122192 116.0
1294.598022 184.0
1296.169067 156.0
1296.276489 140.0
1296.728027 180.0
1296.835449 192.0
1299.087036 172.0
1299.424194 192.0
1302.855835 164.0
1304.825073 196.0
1306.248901 232.0
1307.090698 140.0
1307.392944 160.0
1309.293457 164.0
1309.372681 156.0
1310.388428 156.0
1311.238647 192.0
1312.529053 180.0
1314.346802 132.0
1314.938477 204.0
1318.115967 140.0
1318.621826 164.0
1319.706177 176.0
1319.77124 232.0
1323.714844 152.0
1327.359619 84.0
1328.856445 124.0
1331.285522 184.0
1331.793823 172.0
1333.290527 200.0
1335.973511 108.0
1336.264526 212.0
1338.317017 176.0
1340.261719 140.0
1340.852051 192.0
1342.339233 164.0
1348.917358 120.0
1349.057373 152.0
1349.546021 80.0
1349.626465 156.0
1350.174927 92.0
1350.606445 56.0
1351.396484 76.0
1352.442993 108.0
1357.520142 176.0
1357.608154 116.0
1358.796387 184.0
1359.640259 180.0
1361.152466 108.0
1362.342285 176.0
1362.907959 136.0
1365.171997 164.0
1365.760376 200.0
1366.562256 136.0
1368.063599 176.0
1369.418457 136.0
1370.729736 156.0
1371.732056 176.0
1372.432495 196.0
1373.914917 160.0
1374.763428 188.0
1375.516235 144.0
1375.619629 160.0
1378.5 148.0
1379.763916 160.0
1382.175049 80.0
1384.410645 188.0
1384.847534 172.0
1386.885132 216.0
1387.708008 232.0
1388.071289 164.0
1391.343384 200.0
1391.684937 120.0
1395.199097 184.0
1395.466675 128.0
1396.66394 116.0
1397.869263 188.0
1400.78772 208.0
1401.525269 60.0
1402.464233 164.0
1402.740112 132.0
1403.828613 180.0
1404.977295 140.0
1405.723389 152.0
1407.783691 196.0
1410.660156 228.0
1410.989136 200.0
1411.176025 80.0
1411.415283 296.0
1411.639648 40.0
1412.791504 196.0
1413.584595 124.0
1413.883911 212.0
1416.197388 128.0
1416.77417 144.0
1417.890625 200.0
1418.5802 140.0
1420.154785 132.0
1421.295288 204.0
1422.623535 180.0
1424.125244 228.0
1428.454834 200.0
1428.861084 224.0
1430.125244 72.0
1431.33728 156.0
1431.834351 56.0
1432.210938 236.0
1433.612305 140.0
1434.938843 220.0
1435.685425 176.0
1436.416992 144.0
1440.115479 196.0
1440.168457 164.0
1441.112671 136.0
1441.513184 120.0
1442.571289 152.0
1443.236572 164.0
1444.11377 192.0
1444.794556 176.0
1445.664673 232.0
1448.299438 204.0
1449.13269 172.0
1451.080566 224.0
1451.171509 152.0
1451.725098 144.0
1451.92981 152.0
1452.180054 152.0
1454.061646 156.0
1455.509033 156.0
1455.754517 232.0
1458.550415 232.0
1458.778442 84.0
1459.211792 152.0
1462.201294 176.0
1467.327759 132.0
1467.525879 244.0
1468.387573 188.0
1468.502075 216.0
1469.783691 140.0
1470.913208 44.0
1471.485718 160.0
1471.959106 144.0
1472.157593 148.0
1472.440186 188.0
1472.52417 140.0
1472.68457 80.0
1475.901855 212.0
1477.202026 164.0
1479.260498 164.0
1480.033691 72.0
1480.891479 152.0
1481.381714 136.0
1481.557861 136.0
1482.170776 204.0
1483.251343 248.0
1483.343384 204.0
1483.427734 168.0
1483.619385 128.0
1484.140625 72.0
1484.869141 180.0
1488.314697 112.0
1489.02124 188.0
1492.479248 172.0
1492.87146 188.0
1493.240601 132.0
1494.302124 112.0
1496.557251 196.0
1497.373535 120.0
1497.8125 156.0
1498.644531 168.0
1499.099121 92.0
1499.214722 176.0
1500.178223 188.0
1500.702393 164.0
1501.25769 48.0
1502.754028 172.0
1503.162964 148.0
1503.247925 100.0
1503.332764 188.0
1504.143188 156.0
