>compound MLS001203376-01!1-methyl-9H-pyrido[3,4-b]indole-3-carboxylic acid
>formula C13H10N2O2
>ionization [M+H]+
>parentmass 227.08150401209053
#inchi InChI=1S/C13H10N2O2/c1-7-12-9(6-11(14-7)13(16)17)8-4-2-3-5-10(8)15-12/h2-6,15H,1H3,(H,16,17)
#inchikey MFEZJNMQTQMDRQ
#Ion_Source LC-ESI
#Instrument qTof
#Compound_Source NIH Natural Product Library
#PI Dorrestein
#Data_Collector VVP/LMS
#Scan -1
#Precursor_MZ 227.082
#ExactMass 226.074
#Charge 1
#CAS_Number N/A
#Pubmed_ID N/A
#Smiles Cc1nc(cc2c3ccccc3[nH]c12)C(=O)O
#INCHI_AUX N/A
#Library_Class 1
#SpectrumID CCMSLIB00000080347
#IonMode Positive
#UpdateWorkflowName UPDATE-SINGLE-ANNOTATED-GOLD
#LibraryQualityString Gold
#TaskID b1d8e8f6646f4e71acdff9ca3d919d08
##Scan# 1393
#SpectrumFile p2-E07_GE7_01_18031.mzXML
#LibraryName NIH_Natural_Products_Library.mgf
#MQScore -1
#Organism NIH_Natural_Products_Library
#TIC_Query 0
#RT_Query -1
#MZErrorPPM -1
#SharedPeaks 0
#MassDiff 0
#LibMZ -1
#SpecMZ 227.082
#SpecCharge 0
#internalFilename spec-00000.mgf

>collision 10
94.966606 168.0
95.040329 148.0
95.098541 236.0
95.182022 144.0
95.236397 108.0
95.329651 152.0
95.378242 64.0
95.440453 116.0
95.481293 28.0
95.526024 156.0
95.592178 372.0
95.734283 196.0
95.755707 140.0
96.032471 172.0
96.11245 56.0
96.137405 132.0
96.19442 224.0
96.233528 124.0
96.299866 80.0
96.342834 152.0
96.383865 164.0
96.434677 88.0
96.448357 160.0
96.524605 156.0
96.575455 288.0
96.625488 136.0
96.74765 340.0
96.79464 136.0
96.82402 212.0
97.077888 280.0
97.273026 144.0
97.575554 100.0
97.624718 172.0
97.677818 172.0
97.754547 80.0
97.831306 92.0
97.941582 108.0
97.959312 208.0
98.007935 176.0
98.061775 204.0
98.107109 184.0
98.158371 140.0
98.174149 184.0
98.270805 148.0
98.470177 124.0
98.598595 244.0
98.655922 104.0
98.705345 160.0
98.758743 160.0
98.788101 152.0
98.808197 136.0
98.824028 128.0
99.002182 116.0
99.033867 216.0
99.174545 112.0
99.345078 136.0
99.382774 144.0
99.640877 108.0
99.722351 180.0
99.819763 156.0
99.889374 312.0
99.913246 184.0
99.929169 112.0
100.004784 168.0
100.072472 196.0
100.086403 224.0
100.14814 36.0
100.201927 144.0
100.304443 172.0
100.327484 104.0
100.403252 184.0
100.500999 88.0
100.57666 136.0
100.587372 172.0
100.720604 56.0
100.780533 220.0
100.894455 124.0
101.038544 176.0
101.180542 184.0
101.298698 160.0
101.350784 156.0
101.507133 200.0
101.553261 184.0
101.655579 156.0
101.67765 224.0
101.882462 164.0
101.932693 180.0
102.046188 292.0
102.10759 80.0
102.125694 140.0
102.14782 196.0
102.258484 188.0
102.29673 160.0
102.312836 100.0
102.337532 164.0
102.627136 112.0
102.659401 172.0
102.788498 152.0
102.81675 172.0
102.962112 188.0
102.978271 196.0
103.024727 152.0
103.054375 5936.0
103.078407 388.0
103.125763 72.0
103.261436 192.0
103.346191 44.0
103.38868 192.0
103.500015 112.0
103.532417 128.0
103.858727 240.0
103.882286 248.0
104.059692 512.0
104.081963 176.0
104.199768 44.0
104.348137 164.0
104.388802 72.0
104.521019 220.0
104.588181 196.0
104.618713 104.0
104.791824 156.0
104.842979 152.0
104.895897 176.0
104.952843 164.0
104.985474 176.0
105.046661 220.0
105.103783 132.0
105.124191 140.0
105.152763 120.0
105.187462 236.0
105.222168 224.0
105.34626 220.0
105.39373 136.0
105.408035 148.0
105.565437 32.0
105.722954 156.0
105.752258 176.0
105.774124 136.0
105.821213 232.0
105.91951 140.0
105.983017 172.0
106.132645 188.0
106.198273 184.0
106.49794 148.0
106.684929 120.0
106.740341 164.0
106.905006 104.0
106.952347 160.0
107.257195 184.0
107.310799 176.0
107.381737 160.0
107.593445 80.0
107.8806 228.0
108.000534 156.0
108.021225 196.0
108.395966 92.0
108.437408 156.0
108.592911 152.0
108.655136 96.0
108.925011 152.0
108.951904 148.0
109.053841 124.0
109.082939 60.0
109.211723 120.0
109.236816 172.0
109.347099 192.0
109.436607 92.0
109.582405 180.0
109.661591 208.0
109.705368 52.0
109.809624 88.0
109.932373 220.0
110.141495 60.0
110.212524 104.0
110.268944 132.0
110.327477 200.0
110.394379 148.0
110.448761 60.0
110.49897 136.0
110.754364 108.0
111.142204 136.0
111.253433 176.0
111.362625 120.0
111.545433 192.0
111.606606 164.0
111.649605 184.0
111.692627 156.0
111.732597 128.0
111.755737 120.0
112.10318 124.0
112.16008 180.0
112.280258 160.0
112.362526 152.0
112.54615 152.0
112.579933 144.0
112.613731 204.0
112.85041 128.0
112.956146 156.0
113.034431 220.0
113.241898 80.0
113.284264 112.0
113.307564 164.0
113.326637 176.0
113.451675 152.0
113.542854 104.0
113.585274 72.0
113.608604 196.0
113.644676 88.0
113.69136 140.0
113.808105 128.0
113.950409 84.0
113.995033 164.0
114.035416 152.0
114.06942 108.0
114.111938 168.0
114.294861 36.0
114.362961 216.0
114.4907 228.0
114.52478 160.0
114.607864 124.0
114.825302 144.0
114.884758 192.0
115.053757 308.0
115.307808 136.0
115.397591 52.0
115.457458 120.0
115.476707 136.0
115.609352 204.0
115.724945 156.0
115.770332 204.0
115.898438 196.0
116.047699 312.0
116.063484 192.0
116.232933 120.0
116.353134 164.0
116.460503 176.0
116.509903 168.0
116.552879 132.0
116.664635 172.0
116.70549 184.0
116.739891 148.0
116.944275 224.0
116.985176 152.0
117.057495 3184.0
117.166069 196.0
117.252258 112.0
117.370827 156.0
117.515343 160.0
117.549866 200.0
117.599503 124.0
117.700966 200.0
117.774307 196.0
117.942932 116.0
118.060028 164.0
118.120239 156.0
118.161346 200.0
118.300644 164.0
118.505989 196.0
118.546761 36.0
118.581436 176.0
118.661644 144.0
118.752968 152.0
118.780914 184.0
118.824013 120.0
118.831818 224.0
118.859016 204.0
118.980568 224.0
119.004448 168.0
119.028328 56.0
119.180382 152.0
119.269485 152.0
119.37384 92.0
119.467361 192.0
119.52877 72.0
120.042366 196.0
120.07357 156.0
120.175423 176.0
120.199425 132.0
120.243073 184.0
120.286728 152.0
120.572853 104.0
120.59034 172.0
120.651543 48.0
120.747757 80.0
120.894333 184.0
120.916214 204.0
121.019104 124.0
121.051949 268.0
121.119843 128.0
121.198708 176.0
121.43766 156.0
121.536377 132.0
121.608551 176.0
121.7537 164.0
121.82399 228.0
121.86573 260.0
121.927971 172.0
122.041565 192.0
122.175728 232.0
122.191124 128.0
122.239532 208.0
122.316566 180.0
122.3694 144.0
122.580856 84.0
122.620522 196.0
122.665489 160.0
122.686646 216.0
122.752792 128.0
123.006516 140.0
123.105873 180.0
123.258293 204.0
123.54129 196.0
123.636436 152.0
123.705048 116.0
123.747116 96.0
123.769066 244.0
124.221375 124.0
124.281273 100.0
124.333824 188.0
124.536575 152.0
124.620987 108.0
124.794357 160.0
124.814362 252.0
124.945587 176.0
125.005669 152.0
125.033768 208.0
125.160408 136.0
125.201569 256.0
125.308487 232.0
125.341911 120.0
125.413223 172.0
125.526924 200.0
125.685303 128.0
125.747787 208.0
125.783005 200.0
125.864906 220.0
125.944267 204.0
126.044754 440.0
126.102905 320.0
126.156548 180.0
126.245987 196.0
126.319794 204.0
126.398102 108.0
126.429428 76.0
126.57663 164.0
126.682442 164.0
126.733971 160.0
126.832573 204.0
126.879654 356.0
126.946915 152.0
127.053658 9612.0
127.191467 52.0
127.254326 144.0
127.361839 64.0
127.425018 88.0
127.447487 56.0
127.526138 92.0
127.568848 84.0
127.58683 160.0
127.646416 232.0
127.703766 164.0
127.80275 68.0
127.890511 124.0
127.94072 172.0
127.979462 184.0
128.007584 148.0
128.050095 6404.0
128.142731 52.0
128.160751 64.0
128.18103 160.0
128.259918 64.0
128.316269 36.0
128.401962 180.0
128.591476 132.0
128.623077 44.0
128.647507 92.0
128.733704 160.0
128.789261 184.0
128.927979 100.0
129.053101 832.0
129.071182 616.0
129.108841 48.0
129.163116 172.0
129.185745 36.0
129.362259 200.0
129.43924 232.0
129.491318 148.0
129.620453 164.0
129.649902 112.0
129.745102 148.0
129.82901 208.0
129.94696 52.0
129.986282 108.0
130.064575 4824.0
130.093918 312.0
130.126251 52.0
130.162582 72.0
130.223907 68.0
130.332947 76.0
130.410217 140.0
130.482956 200.0
130.535248 180.0
130.630768 48.0
130.653519 72.0
130.721512 204.0
130.771851 184.0
130.801376 164.0
130.849243 156.0
131.049316 428.0
131.156784 40.0
131.332352 112.0
131.389374 100.0
131.450989 156.0
131.574234 100.0
131.683838 88.0
131.816345 40.0
131.846817 144.0
131.926056 88.0
132.006073 160.0
132.048462 184.0
132.125015 120.0
132.310394 120.0
132.40657 116.0
132.514221 116.0
132.562347 128.0
132.601303 208.0
132.631104 144.0
132.654022 204.0
132.784714 180.0
132.817902 144.0
132.839767 132.0
132.876465 176.0
132.94072 164.0
132.970551 160.0
133.163406 64.0
133.213943 140.0
133.29097 232.0
133.45842 128.0
133.515045 224.0
133.595551 164.0
133.623154 168.0
133.639267 176.0
133.740524 120.0
133.811874 164.0
133.844116 144.0
133.970795 144.0
134.090607 164.0
134.114319 208.0
134.224319 72.0
134.323486 204.0
134.369629 156.0
134.394455 184.0
134.431931 60.0
134.572723 120.0
134.623535 176.0
134.799088 136.0
134.884613 168.0
134.919281 148.0
135.092941 176.0
135.217667 156.0
135.26799 168.0
135.294052 144.0
135.395935 188.0
135.432999 140.0
135.456635 216.0
135.680954 160.0
135.818878 184.0
136.026596 140.0
136.205399 184.0
136.221664 152.0
136.312271 148.0
136.340164 116.0
136.449402 128.0
136.679672 200.0
136.70993 176.0
137.019608 88.0
137.313309 124.0
137.505951 192.0
137.539642 180.0
137.616669 184.0
137.770813 96.0
137.871033 180.0
137.986862 180.0
138.42572 92.0
138.449127 128.0
138.487778 144.0
138.50972 216.0
138.59436 140.0
138.678726 84.0
138.702164 76.0
138.739685 44.0
138.901489 168.0
138.920258 164.0
139.052032 296.0
139.103592 152.0
139.143204 216.0
139.201904 192.0
139.251221 148.0
139.288803 176.0
139.59198 100.0
139.709579 116.0
139.730759 204.0
139.928452 176.0
140.050232 880.0
140.086243 116.0
140.154556 104.0
140.30069 152.0
140.34549 48.0
140.373779 88.0
140.893036 160.0
140.909576 188.0
140.985199 148.0
141.011185 132.0
141.057663 2456.0
141.162491 40.0
141.183777 220.0
141.202698 124.0
141.226349 124.0
141.290222 228.0
141.391968 224.0
141.415634 136.0
141.439301 68.0
141.592758 64.0
141.683212 96.0
141.807327 188.0
141.887024 148.0
141.982239 128.0
142.054443 384.0
142.098099 92.0
142.513596 68.0
142.530228 140.0
142.606277 244.0
142.656204 140.0
142.696609 132.0
142.718018 136.0
142.741791 56.0
142.882126 204.0
143.027283 164.0
143.048706 172.0
143.077271 128.0
143.127274 216.0
143.184418 196.0
143.226654 180.0
143.265411 196.0
143.313065 164.0
143.332123 176.0
143.372635 156.0
143.394073 104.0
143.735107 108.0
143.761353 104.0
143.828171 60.0
143.935608 84.0
143.957108 156.0
144.052643 132.0
144.098022 144.0
144.425537 128.0
144.470978 212.0
144.524124 76.0
144.597794 40.0
144.739044 92.0
144.779755 180.0
144.851608 164.0
145.016937 116.0
145.065155 2092.0
145.15358 148.0
145.177567 36.0
145.205307 112.0
145.36467 212.0
145.472687 176.0
145.513672 104.0
145.55191 156.0
145.640762 124.0
145.664795 108.0
145.692322 224.0
145.706467 160.0
145.739258 196.0
145.859421 116.0
145.885864 140.0
145.935699 160.0
145.989059 148.0
146.013306 144.0
146.060806 1324.0
146.119141 220.0
146.193207 128.0
146.275574 44.0
146.310699 160.0
146.398361 204.0
146.569397 68.0
146.608749 144.0
146.752579 104.0
146.862534 168.0
146.923813 148.0
147.065338 340.0
147.136185 124.0
147.273834 112.0
147.556564 152.0
147.736374 148.0
147.839569 212.0
147.87587 200.0
147.953339 176.0
148.040497 176.0
148.08168 88.0
148.123413 172.0
148.290039 80.0
148.433075 192.0
148.605286 104.0
148.661087 152.0
148.748474 104.0
148.840729 108.0
148.891724 172.0
149.018036 132.0
149.139542 116.0
149.165421 192.0
149.197876 244.0
149.258667 160.0
149.689362 100.0
149.740509 152.0
149.911041 172.0
149.979279 140.0
150.047531 152.0
150.164581 220.0
150.393936 120.0
150.425674 164.0
150.447632 56.0
150.484253 96.0
150.525772 168.0
150.542862 104.0
150.630783 112.0
150.691864 168.0
150.748062 112.0
150.826141 156.0
150.894714 192.0
151.207825 188.0
151.361679 156.0
151.469818 184.0
151.496765 112.0
151.619278 48.0
151.651138 236.0
151.977295 212.0
152.014099 144.0
152.049118 1052.0
152.168732 200.0
152.232574 184.0
152.266953 60.0
152.289062 112.0
152.335739 136.0
152.429092 208.0
152.468414 100.0
152.485611 92.0
152.628204 48.0
152.689682 92.0
152.721649 108.0
152.82251 56.0
152.881561 132.0
152.916016 148.0
152.95787 100.0
152.999405 160.0
153.056671 7352.0
153.11348 40.0
153.134567 184.0
153.231125 220.0
153.273102 80.0
153.312531 112.0
153.397247 172.0
153.504822 108.0
153.524536 164.0
153.554138 168.0
153.599609 92.0
153.606689 132.0
153.638 168.0
153.689819 200.0
153.726837 156.0
153.804657 172.0
153.844086 260.0
153.862305 144.0
153.909637 216.0
153.948685 180.0
153.973373 284.0
154.013428 240.0
154.06572 81192.0
154.116196 332.0
154.142181 220.0
154.16507 140.0
154.186279 92.0
154.212479 160.0
154.247375 148.0
154.290573 360.0
154.327072 88.0
154.373611 212.0
154.383224 164.0
154.412933 176.0
154.471405 624.0
154.510086 176.0
154.527405 84.0
154.558792 76.0
154.608017 76.0
154.656097 76.0
154.682343 92.0
154.7155 68.0
154.779877 36.0
154.804642 132.0
154.831879 44.0
154.868698 244.0
154.931244 68.0
154.968567 220.0
155.026764 120.0
155.064453 11232.0
155.111862 144.0
155.156479 128.0
155.18454 88.0
155.224136 112.0
155.257034 108.0
155.292862 216.0
155.333206 76.0
155.4077 136.0
155.476044 144.0
155.559402 168.0
155.600571 48.0
155.65271 52.0
155.738052 144.0
155.758255 44.0
155.793259 136.0
155.861359 76.0
155.888687 80.0
155.928452 84.0
155.970306 172.0
156.015457 140.0
156.06633 620.0
156.102478 140.0
156.119888 88.0
156.147247 104.0
156.202469 116.0
156.246887 132.0
156.254623 72.0
156.262909 144.0
156.29837 272.0
156.341293 48.0
156.377686 116.0
156.392197 132.0
156.439819 116.0
156.542938 64.0
156.59523 96.0
156.679932 164.0
156.739731 320.0
156.814484 188.0
156.871811 76.0
156.925201 96.0
156.963196 160.0
157.070923 128.0
157.101242 56.0
157.16861 84.0
157.201035 124.0
157.23848 48.0
157.335831 68.0
157.485657 184.0
157.518127 148.0
157.610565 72.0
157.633057 160.0
157.753021 148.0
157.868027 224.0
158.468781 44.0
158.626663 224.0
158.651932 244.0
158.752029 136.0
158.82225 56.0
158.905029 156.0
159.1259 184.0
159.415237 144.0
159.81456 124.0
159.891754 184.0
160.018433 112.0
160.048645 108.0
160.250153 176.0
160.276123 168.0
160.489594 220.0
160.590469 124.0
160.756973 204.0
160.908417 76.0
160.963959 136.0
161.052353 228.0
161.998398 196.0
162.122559 76.0
162.343109 132.0
162.55365 128.0
162.586639 92.0
162.718643 108.0
162.806366 88.0
162.896408 100.0
163.001511 152.0
163.191208 148.0
163.328537 108.0
163.37941 164.0
163.471008 168.0
163.542267 160.0
163.575363 136.0
163.644104 68.0
163.733215 64.0
163.898804 40.0
164.191956 40.0
164.21492 164.0
164.271027 168.0
164.51091 180.0
164.615585 36.0
164.727966 172.0
164.850601 124.0
164.904266 144.0
165.042313 184.0
165.149719 120.0
165.400482 188.0
165.602753 116.0
165.817978 84.0
166.055374 660.0
166.092316 164.0
166.115402 44.0
166.202927 172.0
166.220016 88.0
166.341217 68.0
166.687943 144.0
166.747055 256.0
166.767609 76.0
166.837021 148.0
166.955292 212.0
167.12854 140.0
167.161087 56.0
167.191971 76.0
167.233154 212.0
167.27948 40.0
167.516388 128.0
167.622025 180.0
168.261688 100.0
168.362396 140.0
168.46312 244.0
168.644012 60.0
168.837906 112.0
168.976898 104.0
169.050049 92.0
169.074265 184.0
169.091446 180.0
169.453979 104.0
169.625015 100.0
169.648346 112.0
170.03743 200.0
170.067474 220.0
170.213959 196.0
170.317841 160.0
170.380188 136.0
170.606277 212.0
170.692078 120.0
170.710281 132.0
170.736282 88.0
171.06337 268.0
171.097961 216.0
171.308914 144.0
171.551254 92.0
171.814651 164.0
171.919022 200.0
172.073837 280.0
172.32637 176.0
172.362946 144.0
172.415222 184.0
172.961853 240.0
173.074417 204.0
173.472656 160.0
173.588013 208.0
173.703415 192.0
173.729645 152.0
174.055084 188.0
174.622131 264.0
174.814774 208.0
174.879929 244.0
174.984573 152.0
175.046432 132.0
175.54184 112.0
175.675842 104.0
175.74231 148.0
175.919128 76.0
176.016815 112.0
176.053787 160.0
176.278336 92.0
176.43956 216.0
176.606155 120.0
176.632599 56.0
176.705261 112.0
176.931641 136.0
176.95546 232.0
177.172638 80.0
177.289215 176.0
177.790436 96.0
177.867416 64.0
177.904572 240.0
178.085144 100.0
178.239227 128.0
178.297684 88.0
178.430786 160.0
178.616745 172.0
178.812027 188.0
178.91745 152.0
178.952057 100.0
179.024475 204.0
179.059357 6524.0
179.107025 276.0
179.188309 108.0
179.229065 56.0
179.375641 208.0
179.482285 68.0
179.575623 132.0
179.722351 76.0
179.776672 156.0
179.855774 80.0
179.927856 136.0
179.975922 188.0
180.002625 120.0
180.025177 88.0
180.066742 5940.0
180.181564 84.0
180.202942 92.0
180.238068 168.0
180.284317 88.0
180.30983 248.0
180.398743 136.0
180.454178 112.0
180.512024 228.0
180.562744 180.0
180.622665 228.0
180.753494 164.0
180.810165 284.0
180.847427 132.0
180.879547 148.0
180.913483 380.0
180.936859 88.0
180.956131 308.0
181.00119 156.0
181.034012 540.0
181.076843 84960.0
181.159729 160.0
181.188477 44.0
181.216187 88.0
181.263947 68.0
181.288071 60.0
181.330215 172.0
181.366409 40.0
181.403122 104.0
181.484497 172.0
181.517303 452.0
181.564209 104.0
181.649689 168.0
181.686157 36.0
181.734344 100.0
181.783127 56.0
181.822998 72.0
181.888214 148.0
181.939117 200.0
181.960068 132.0
181.999313 140.0
182.042236 96.0
182.079224 9892.0
182.147873 96.0
182.189102 104.0
182.231155 60.0
182.268768 44.0
182.306396 44.0
182.344025 60.0
182.375259 64.0
182.425293 64.0
182.462296 48.0
182.518753 44.0
182.579742 124.0
182.655914 180.0
182.68013 72.0
182.728546 104.0
182.82811 132.0
182.922318 172.0
182.968079 44.0
182.986923 152.0
183.01503 56.0
183.084091 580.0
183.13504 60.0
183.163132 184.0
183.22467 120.0
183.250092 160.0
183.27243 76.0
183.308319 92.0
183.34787 68.0
183.383255 96.0
183.41362 148.0
183.442261 200.0
183.47995 144.0
183.5177 136.0
183.548187 104.0
183.5905 56.0
183.618713 96.0
183.692993 64.0
183.898071 40.0
183.916962 152.0
184.087524 244.0
184.21669 64.0
184.265747 124.0
184.392319 68.0
184.486923 96.0
184.581558 128.0
184.71138 200.0
184.806061 136.0
185.048477 92.0
185.193176 32.0
185.282562 76.0
185.380112 48.0
186.210266 128.0
186.555344 120.0
186.577103 76.0
186.90892 48.0
187.058609 40.0
187.167511 44.0
187.854309 80.0
189.41243 28.0
189.480927 96.0
190.188431 80.0
190.430038 92.0
190.567398 96.0
190.604324 136.0
190.96875 44.0
191.373276 36.0
191.847137 76.0
192.167053 104.0
192.236038 104.0
192.302277 40.0
192.365768 60.0
192.625336 116.0
192.672302 120.0
193.17543 60.0
193.263962 76.0
193.99234 100.0
194.100479 112.0
194.289078 76.0
194.52774 64.0
194.622131 76.0
194.844315 44.0
194.941574 176.0
194.983261 32.0
195.739929 108.0
196.18013 80.0
196.431107 132.0
196.513718 144.0
196.730103 84.0
197.087418 148.0
197.6604 32.0
197.876968 172.0
198.01033 204.0
198.136383 112.0
198.33255 120.0
198.497955 48.0
198.584885 136.0
198.767242 184.0
198.972137 112.0
199.009247 172.0
199.086777 21100.0
199.154663 44.0
199.193985 88.0
199.213654 52.0
199.233307 40.0
199.264221 72.0
199.300735 64.0
199.326035 36.0
199.345703 116.0
199.391541 116.0
199.438446 128.0
199.463043 48.0
199.498947 136.0
199.549011 84.0
199.723602 96.0
199.798386 80.0
199.834961 68.0
199.930634 72.0
200.090683 2696.0
200.124863 160.0
200.162308 84.0
200.367081 52.0
200.403702 56.0
200.478485 52.0
200.589706 88.0
200.631989 56.0
200.71376 108.0
200.840668 84.0
201.018402 72.0
201.094864 496.0
201.142578 48.0
201.292221 68.0
201.337402 140.0
201.608597 84.0
201.854538 80.0
202.097794 76.0
202.420486 56.0
203.137543 116.0
203.503632 120.0
204.012192 68.0
205.807083 60.0
206.913559 140.0
209.069397 548.0
209.962296 80.0
210.070038 312.0
210.785034 60.0
211.455963 68.0
212.928772 52.0
213.233826 68.0
215.115463 100.0
215.156326 40.0
215.299408 92.0
216.094482 88.0
216.492569 56.0
218.785751 56.0
220.741943 76.0
222.097687 124.0
222.935593 144.0
227.07933 236.0
227.793808 44.0
227.919983 52.0
229.620834 112.0
230.435867 140.0
233.48114 96.0
233.850418 52.0
242.12175 84.0
248.866821 116.0
255.36412 64.0
260.240662 108.0
262.135223 148.0
282.762543 64.0
285.2883 48.0
287.491089 52.0
291.364685 124.0
291.405457 44.0
292.211212 56.0
293.546417 64.0
295.418091 76.0
296.61319 56.0
301.849762 40.0
303.071625 140.0
303.619324 68.0
313.770477 156.0
313.848053 116.0
319.68573 88.0
320.387177 116.0
321.214203 88.0
321.281982 64.0
322.628326 48.0
325.002869 60.0
325.670593 100.0
331.123962 84.0
338.286194 80.0
342.450134 36.0
347.021301 120.0
359.617157 108.0
364.25174 112.0
364.836945 156.0
365.787964 32.0
374.795776 52.0
385.517609 96.0
395.820221 96.0
396.592743 92.0
400.311371 100.0
402.556458 64.0
402.72818 80.0
410.239899 48.0
410.429382 60.0
411.841858 100.0
417.503784 44.0
419.661926 100.0
420.518585 28.0
423.02832 84.0
424.089203 56.0
429.207428 44.0
441.909271 48.0
445.283722 68.0
445.552551 56.0
462.977936 164.0
469.044556 60.0
484.900909 48.0
491.559021 124.0
504.457031 56.0
514.222107 28.0
515.522705 40.0
515.952087 68.0
526.991699 100.0
538.300537 56.0
544.427124 80.0
558.796143 52.0
563.73291 100.0
566.690308 84.0
575.818848 68.0
576.401672 56.0
584.659363 72.0
589.612183 68.0
608.492859 96.0
619.619263 120.0
619.653931 96.0
622.208069 28.0
626.763977 64.0
634.280396 144.0
644.355164 104.0
646.468689 48.0
657.435242 68.0
662.604675 76.0
668.092712 56.0
691.804138 88.0
721.708008 64.0
769.73114 40.0
778.025085 60.0
794.572388 84.0
802.203674 96.0
803.641785 196.0
823.128052 124.0
826.351685 20.0
839.171021 116.0
843.263794 184.0
852.071594 184.0
853.082764 48.0
854.949829 124.0
865.503784 120.0
869.666016 76.0
872.873657 60.0
885.911255 132.0
891.536011 196.0
899.791626 196.0
908.667114 168.0
909.543213 48.0
912.240295 68.0
917.68866 92.0
928.955444 164.0
932.227966 124.0
935.932373 172.0
938.954895 140.0
940.095703 208.0
943.785156 208.0
945.008423 208.0
945.57135 124.0
948.750366 220.0
951.52948 160.0
951.842651 200.0
953.083374 196.0
953.624146 224.0
956.46582 92.0
958.368713 160.0
967.911743 144.0
968.760193 144.0
981.582031 196.0
983.035461 152.0
992.74408 48.0
996.503906 156.0
1015.739502 104.0
1016.266052 56.0
1019.974792 128.0
1023.976868 192.0
1025.57605 52.0
1037.568115 96.0
1041.000732 120.0
1041.694458 184.0
1042.735352 192.0
1044.889404 48.0
1047.219604 160.0
1047.412842 236.0
1048.637085 212.0
1055.143677 176.0
1062.792725 108.0
1063.811646 152.0
1064.395874 80.0
1064.60376 208.0
1064.714111 160.0
1071.928467 200.0
1072.912598 172.0
1075.04541 148.0
1078.755249 100.0
1079.977905 148.0
1081.738159 152.0
1083.283569 216.0
1086.279175 140.0
1087.053345 108.0
1088.668213 100.0
1094.830078 176.0
1097.762573 128.0
1099.583374 108.0
1102.033203 88.0
1102.680786 128.0
1104.042725 188.0
1104.54541 236.0
1108.550781 188.0
1110.506592 152.0
1113.05481 196.0
1113.114624 88.0
1115.526367 164.0
1120.171021 132.0
1127.730957 116.0
1127.924683 164.0
1130.325684 136.0
1130.519653 212.0
1133.680542 168.0
1134.089355 228.0
1134.659058 120.0
1137.409424 176.0
1142.583862 180.0
1143.768188 368.0
1143.828735 68.0
1145.855713 176.0
1149.159302 204.0
1150.502319 204.0
1151.440918 200.0
1154.272339 132.0
1157.865723 164.0
1157.913086 44.0
1163.799072 88.0
1168.243774 212.0
1171.668945 148.0
1172.615234 208.0
1173.153687 188.0
1173.828613 116.0
1175.88208 204.0
1185.168457 120.0
1190.429565 184.0
1191.157593 140.0
1192.86853 216.0
1194.023682 244.0
1197.203125 204.0
1204.520752 84.0
1205.971802 96.0
1206.130737 144.0
1207.824829 72.0
1209.582397 56.0
1209.651611 188.0
1210.150024 144.0
1210.738647 192.0
1210.974121 68.0
1211.202637 168.0
1212.823975 192.0
1217.264038 136.0
1218.590698 208.0
1219.125732 240.0
1220.564575 228.0
1224.050781 184.0
1224.231812 164.0
1224.433716 184.0
1226.105713 44.0
1227.053711 148.0
1228.343872 220.0
1231.09375 72.0
1233.762695 168.0
1238.009766 220.0
1238.387939 172.0
1239.2146 112.0
1239.992432 40.0
1241.675049 132.0
1242.291504 200.0
1242.874512 180.0
1242.95874 56.0
1243.864014 196.0
1244.060669 180.0
1244.785889 136.0
1246.539917 164.0
1247.601196 160.0
1248.212891 148.0
1250.316162 148.0
1252.139526 200.0
1252.87207 40.0
1253.435791 92.0
1254.732666 188.0
1255.910278 148.0
1257.362427 224.0
1257.631836 140.0
1258.013062 128.0
1260.817017 140.0
1261.276489 56.0
1261.333008 192.0
1265.945801 208.0
1266.569092 116.0
1267.709717 160.0
1271.01416 160.0
1272.028931 48.0
1272.107056 160.0
1274.230469 216.0
1274.486206 192.0
1274.997803 92.0
1275.72998 124.0
1277.429443 172.0
1277.813599 180.0
1278.681763 100.0
1278.909546 124.0
1279.799316 164.0
1280.369019 132.0
1282.877075 152.0
1285.380371 192.0
1286.158325 148.0
1287.63623 140.0
1287.907593 248.0
1288.929199 172.0
1289.015015 156.0
1289.230225 156.0
1289.372314 136.0
1289.522339 48.0
1290.072754 180.0
1291.102295 136.0
1291.273926 160.0
1291.345459 168.0
1291.674561 180.0
1291.971313 104.0
1292.575928 216.0
1300.530762 120.0
1304.848022 176.0
1305.624512 60.0
1305.991333 152.0
1308.063599 156.0
1308.365967 180.0
1310.447266 176.0
1311.095825 156.0
1312.270752 48.0
1313.446167 176.0
1314.117065 148.0
1316.564087 104.0
1317.849854 108.0
1318.449585 40.0
1319.678345 212.0
1320.220703 40.0
1320.719727 100.0
1321.82666 200.0
1323.100464 216.0
1323.353882 120.0
1323.860718 152.0
1324.570435 140.0
1324.88916 112.0
1325.164551 120.0
1325.222534 140.0
1325.765869 204.0
1326.106567 148.0
1326.157227 200.0
1326.650146 132.0
1326.744385 180.0
1328.056885 112.0
1329.798218 144.0
1333.298706 72.0
1333.633057 164.0
1334.592651 228.0
1335.218018 140.0
1335.807129 244.0
1337.175049 216.0
1337.377808 168.0
1338.492676 200.0
1338.630981 160.0
1338.900513 204.0
1339.803589 104.0
1340.350098 140.0
1341.785889 160.0
1341.873413 160.0
1342.959961 176.0
1343.164185 132.0
1343.536133 172.0
1343.9375 132.0
1344.747437 128.0
1344.81543 168.0
1344.915283 188.0
1345.229248 196.0
1346.94519 132.0
1348.446167 136.0
1349.773438 184.0
1350.490112 296.0
1353.094482 200.0
1353.534302 172.0
1353.864014 128.0
1355.431641 108.0
1356.853516 164.0
1357.124756 216.0
1359.061157 140.0
1362.49707 188.0
1362.680786 224.0
1364.635742 88.0
1367.681274 92.0
1368.122925 216.0
1368.63916 168.0
1369.212646 80.0
1369.779785 112.0
1370.008179 144.0
1371.290283 216.0
1371.857788 128.0
1372.049438 252.0
1373.612793 140.0
1374.061157 160.0
1375.442749 200.0
1375.900513 208.0
1376.513306 228.0
1377.820557 260.0
1378.118408 176.0
1378.286011 132.0
1378.478149 180.0
1383.241089 124.0
1383.729614 40.0
1384.57373 124.0
1384.973755 76.0
1386.188721 116.0
1386.373779 168.0
1386.403198 164.0
1387.485718 160.0
1389.295288 188.0
1389.903564 184.0
1390.719971 148.0
1391.484497 168.0
1391.548462 256.0
1393.066284 168.0
1394.708496 136.0
1394.953735 188.0
1398.702759 140.0
1398.799561 208.0
1399.313232 160.0
1400.094971 200.0
1403.530273 168.0
1404.208862 68.0
1404.410278 144.0
1406.335205 144.0
1406.529297 92.0
1407.784668 192.0
1407.843262 192.0
1408.112183 176.0
1408.732056 136.0
1409.576294 140.0
1409.935059 156.0
1410.64502 136.0
1411.18335 200.0
1411.796509 160.0
1411.848877 164.0
1411.923584 208.0
1412.626709 152.0
1412.978271 96.0
1413.95105 192.0
1414.370117 180.0
1416.032349 148.0
1418.407471 156.0
1420.612061 176.0
1421.122192 96.0
1422.150269 192.0
1423.313843 168.0
1423.786987 172.0
1426.37146 168.0
1428.394165 168.0
1428.980957 144.0
1429.95166 92.0
1430.418335 208.0
1431.931763 204.0
1432.28186 228.0
1434.576416 184.0
1435.277588 152.0
1435.903564 156.0
1435.994019 144.0
1436.786011 120.0
1439.903442 152.0
1442.925903 188.0
1444.740967 160.0
1446.890137 56.0
1447.692749 132.0
1447.866943 136.0
1448.306152 200.0
1450.351929 112.0
1450.412598 168.0
1451.921387 180.0
1452.520508 40.0
1452.695068 160.0
1452.861938 152.0
1453.089478 156.0
1454.910889 136.0
1456.953735 180.0
1457.538696 160.0
1458.215088 60.0
1458.306274 128.0
1458.686279 168.0
1458.845947 220.0
1458.952393 56.0
1459.476929 252.0
1461.2948 120.0
1462.390503 124.0
1462.557983 144.0
1463.342041 248.0
1463.71521 128.0
1464.301514 140.0
1465.444092 160.0
1465.642212 184.0
1466.434814 208.0
1467.43335 164.0
1468.348022 160.0
1468.523804 64.0
1468.958618 128.0
1469.278931 212.0
1470.156372 108.0
1470.850952 120.0
1471.202026 116.0
1471.759399 160.0
1473.722412 128.0
1474.050903 152.0
1475.556641 192.0
1477.338501 172.0
1480.170288 128.0
1481.227173 140.0
1482.77478 112.0
1482.98938 204.0
1483.089111 128.0
1483.17334 132.0
1483.380371 132.0
1484.194824 132.0
1484.622437 80.0
1485.004395 196.0
1486.801147 60.0
1486.969971 112.0
1489.572754 216.0
1490.049072 52.0
1490.102905 192.0
1490.663696 40.0
1491.539917 140.0
1492.616211 148.0
1492.74353 136.0
1493.269897 156.0
1493.639038 232.0
1494.131348 184.0
1494.49292 228.0
1495.862793 176.0
1497.495117 140.0
1498.796997 156.0
1499.035889 164.0
1500.315308 152.0
1501.834351 60.0
1501.934692 128.0
1502.482422 68.0
1503.076416 160.0
1503.253906 180.0
1504.15686 140.0
