>compound MLS000728638-01!2-(1H-indol-3-yl)-2-oxo-N-[(1R)-1-phenylethyl]acetamide
>formula C18H16N2O2
>ionization [M+H]+
>parentmass 293.129
#inchi InChI=1S/C18H16N2O2/c1-12(13-7-3-2-4-8-13)20-18(22)17(21)15-11-19-16-10-6-5-9-14(15)16/h2-12,19H,1H3,(H,20,22)/t12-/m1/s1
#inchikey JCQKMELKMGOGMR
#Ion_Source LC-ESI
#Instrument qTof
#Compound_Source NIH Natural Product Library
#PI Dorrestein
#Data_Collector VVP/LMS
#Scan -1
#Precursor_MZ 293.129
#ExactMass 292.121
#Charge 1
#CAS_Number N/A
#Pubmed_ID N/A
#Smiles C[C@@H](NC(=O)C(=O)c1c[nH]c2ccccc12)c3ccccc3
#INCHI_AUX N/A
#Library_Class 1
#SpectrumID CCMSLIB00000080110
#IonMode Positive
#UpdateWorkflowName UPDATE-SINGLE-ANNOTATED-GOLD
#LibraryQualityString Gold
#TaskID b1d8e8f6646f4e71acdff9ca3d919d08
##Scan# 2253
#SpectrumFile p2-C04_GC4_01_18004.mzXML
#LibraryName NIH_Natural_Products_Library.mgf
#MQScore -1
#Organism NIH_Natural_Products_Library
#TIC_Query 0
#RT_Query -1
#MZErrorPPM -1
#SharedPeaks 0
#MassDiff 0
#LibMZ -1
#SpecMZ 293.129
#SpecCharge 0
#internalFilename spec-00000.mgf

>collision 10
95.100105 192.0
95.255447 56.0
96.792282 228.0
97.147026 204.0
97.846642 188.0
98.550743 180.0
99.41011 108.0
100.020264 196.0
100.840027 48.0
101.550789 56.0
101.639053 68.0
102.72345 168.0
102.854614 212.0
103.055031 1720.0
104.059441 204.0
104.134254 220.0
104.323227 108.0
104.528648 168.0
104.642632 188.0
104.860588 148.0
104.874855 180.0
105.070854 6380.0
105.12571 80.0
105.229805 64.0
105.274727 56.0
105.524017 60.0
105.548546 28.0
105.933311 152.0
105.970192 84.0
106.015266 100.0
106.07444 832.0
106.119804 76.0
106.390617 36.0
106.733727 216.0
106.906517 112.0
107.452553 40.0
108.103416 52.0
108.12825 44.0
109.088593 60.0
112.75676 176.0
113.451027 176.0
114.092148 176.0
114.209106 172.0
115.157578 40.0
115.630074 76.0
115.687866 176.0
115.955612 72.0
116.050781 1112.0
118.063286 128.0
119.136192 140.0
119.558014 160.0
121.061653 360.0
123.144829 196.0
124.98259 64.0
128.137344 252.0
129.664871 188.0
129.916565 200.0
130.384308 268.0
130.923477 188.0
135.195862 196.0
135.24678 148.0
135.575653 152.0
136.313599 144.0
142.952393 140.0
143.795761 144.0
143.843765 196.0
143.984634 152.0
144.045395 9020.0
144.123184 36.0
144.209381 56.0
144.24028 56.0
144.775589 80.0
144.833694 116.0
144.963074 56.0
145.048401 1204.0
145.09729 80.0
145.123672 56.0
145.277161 156.0
145.421127 64.0
145.461929 36.0
145.879913 120.0
145.976074 84.0
146.043411 164.0
146.676682 60.0
147.511871 216.0
149.454483 224.0
154.709259 104.0
155.663803 256.0
156.521683 132.0
156.870483 176.0
159.07431 148.0
159.458618 84.0
163.024551 144.0
170.05896 156.0
171.067764 156.0
173.072815 52.0
174.087616 152.0
178.075485 152.0
179.838043 152.0
181.086655 156.0
186.773773 96.0
189.076523 140.0
197.795517 152.0
198.078323 172.0
204.0793 500.0
204.118088 28.0
205.083588 176.0
206.087357 244.0
207.576111 260.0
209.077225 156.0
215.054764 72.0
220.033356 136.0
222.644974 148.0
225.053986 220.0
225.09877 140.0
228.937164 200.0
230.110107 108.0
232.075317 292.0
233.082748 1244.0
234.085602 192.0
235.075912 188.0
237.357864 76.0
241.088776 156.0
243.067535 188.0
246.180405 188.0
248.104233 552.0
250.111923 196.0
258.074829 132.0
265.088806 76.0
268.114258 180.0
270.092804 188.0
276.161377 96.0
281.091461 164.0
283.123901 168.0
290.865173 72.0
303.098907 140.0
313.121521 168.0
314.097839 216.0
315.103943 116.0
316.115173 200.0
324.679291 44.0
325.041595 136.0
326.101196 144.0
326.321716 128.0
327.097321 116.0
327.248505 64.0
327.309723 60.0
328.087952 120.0
336.121643 168.0
341.073059 136.0
342.044128 140.0
343.075531 164.0
344.108521 88.0
351.084473 96.0
356.095642 132.0
359.28009 20.0
367.09726 232.0
374.4823 60.0
420.141113 104.0
448.369263 108.0
471.285828 124.0
632.982422 108.0
734.007812 56.0
772.663818 76.0
772.702515 44.0
894.464233 152.0
901.459961 140.0
910.187439 132.0
910.229492 200.0
981.751404 212.0
1011.583313 140.0
1042.979858 164.0
1048.34082 156.0
1060.341553 96.0
1070.091553 76.0
1071.100952 72.0
1101.669434 212.0
1109.53125 176.0
1118.578857 168.0
1133.425049 180.0
1138.845459 140.0
1143.087524 184.0
1156.510498 172.0
1172.19812 236.0
1172.320801 204.0
1172.510498 116.0
1182.380005 116.0
1184.057251 156.0
1186.558228 20.0
1197.435669 144.0
1201.164429 116.0
1201.674927 144.0
1212.981567 92.0
1220.500122 148.0
1228.676636 140.0
1231.070679 152.0
1242.781128 224.0
1245.554077 108.0
1247.064697 224.0
1260.736816 164.0
1262.62439 168.0
1265.787476 188.0
1265.97168 144.0
1275.336304 164.0
1286.419556 132.0
1286.762207 64.0
1288.111938 104.0
1299.379639 112.0
1313.248291 168.0
1313.414185 156.0
1317.991089 152.0
1335.170898 136.0
1354.482788 232.0
1355.970215 164.0
1359.504883 160.0
1369.982178 148.0
1376.679077 164.0
1390.070068 140.0
1401.513428 176.0
1402.005249 128.0
1405.353271 76.0
1408.824707 136.0
1410.528442 160.0
1415.608398 176.0
1424.578369 128.0
1432.740479 196.0
1433.154785 180.0
1451.158081 252.0
1452.879639 168.0
1456.561157 216.0
1461.319946 188.0
1465.918945 120.0
1485.284058 48.0
1486.212402 144.0
1493.687256 152.0
1494.733521 128.0
