>compound MLS001304065-01!
>formula C20H22ClN3O
>ionization [M+H]+
>parentmass 356.152
#inchi InChI=1S/C20H22ClN3O/c1-3-24(4-2)13-14-11-16(6-8-20(14)25)23-18-9-10-22-19-12-15(21)5-7-17(18)19/h5-12,25H,3-4,13H2,1-2H3,(H,22,23)
#inchikey OVCDSSHSILBFBN
#Ion_Source LC-ESI
#Instrument qTof
#Compound_Source NIH Pharmacologically Active Library
#PI Dorrestein
#Data_Collector VP/LMS
#Scan -1
#Precursor_MZ 356.152
#ExactMass 355.145
#Charge 1
#CAS_Number N/A
#Pubmed_ID N/A
#Smiles CCN(CC)Cc1cc(Nc2ccnc3cc(Cl)ccc23)ccc1O
#INCHI_AUX N/A
#Library_Class 1
#SpectrumID CCMSLIB00000085194
#IonMode Positive
#UpdateWorkflowName UPDATE-SINGLE-ANNOTATED-GOLD
#LibraryQualityString Gold
#TaskID d252d724072548979f1f6f1ced849daf
##Scan# 1223
#SpectrumFile p3-F10_GF10_01_18291.mzXML
#LibraryName Pharm_Active_Library.mgf
#MQScore -1
#Organism Pharm_Active_Library
#TIC_Query 0
#RT_Query -1
#MZErrorPPM -1
#SharedPeaks 0
#MassDiff 0
#LibMZ -1
#SpecMZ 356.152
#SpecCharge 0
#internalFilename spec-00000.mgf

>collision 10
45.008801 232.0
45.199963 96.0
45.540508 144.0
45.751644 124.0
46.382553 108.0
46.496494 156.0
46.527714 160.0
46.907291 172.0
47.413052 220.0
48.1022 176.0
48.392544 172.0
49.415623 204.0
49.964233 112.0
50.07122 140.0
51.286983 152.0
51.565327 244.0
51.982101 176.0
52.588032 128.0
52.838043 152.0
52.994419 196.0
53.718479 124.0
54.603249 172.0
54.877163 220.0
55.375202 172.0
55.489311 112.0
57.512047 196.0
58.494358 216.0
58.718353 136.0
58.988632 160.0
59.017681 148.0
59.179882 164.0
59.23502 180.0
59.386776 148.0
59.660126 92.0
60.612488 100.0
61.016064 192.0
61.673954 168.0
62.410824 204.0
63.066685 144.0
63.095139 136.0
63.438694 136.0
63.595745 116.0
64.206734 112.0
64.318428 132.0
64.575691 124.0
64.769379 140.0
64.7854 72.0
64.929665 40.0
65.31678 160.0
65.753448 172.0
66.420105 148.0
66.762833 108.0
67.607941 148.0
67.932381 108.0
67.979378 56.0
68.638 224.0
69.60276 168.0
69.740654 160.0
70.260239 112.0
70.308632 140.0
70.636131 212.0
70.812912 148.0
71.100281 168.0
71.481773 200.0
71.570992 144.0
71.87104 60.0
72.077057 48.0
72.281677 144.0
72.428978 176.0
72.457771 76.0
73.899956 40.0
74.204842 224.0
74.271729 156.0
74.369537 172.0
74.785515 240.0
74.937065 204.0
76.205376 64.0
76.469719 164.0
77.296974 152.0
78.338188 148.0
78.436874 148.0
78.595604 108.0
81.306068 180.0
81.385063 136.0
81.465881 112.0
81.78598 148.0
81.942657 176.0
82.108505 144.0
82.922134 192.0
83.059944 208.0
83.098045 172.0
83.245079 124.0
83.263237 136.0
83.619606 188.0
83.920197 140.0
84.084381 60.0
85.017799 84.0
85.094894 124.0
85.217957 168.0
85.357658 120.0
85.801422 184.0
85.862274 216.0
85.958206 188.0
86.805481 172.0
86.948334 156.0
87.063446 160.0
87.390625 116.0
88.121544 124.0
88.396423 236.0
88.510612 128.0
88.570549 148.0
88.741096 192.0
88.754219 132.0
89.154083 176.0
89.229271 204.0
89.80365 140.0
90.141602 264.0
90.893402 168.0
91.391258 36.0
91.67881 164.0
91.758873 68.0
92.519287 168.0
92.827782 116.0
96.431358 196.0
96.489609 172.0
96.51503 160.0
96.706757 184.0
97.106468 124.0
97.143745 108.0
97.259521 52.0
97.312531 184.0
97.530602 164.0
98.468513 104.0
98.73336 152.0
98.800613 180.0
98.829842 140.0
99.06987 200.0
99.927567 164.0
100.441574 216.0
102.17852 144.0
102.430176 160.0
103.014809 84.0
103.182945 156.0
104.046051 172.0
104.060265 164.0
104.829178 156.0
105.030907 396.0
105.811707 228.0
105.844467 192.0
106.125198 136.0
106.566513 240.0
106.587059 84.0
106.6446 124.0
107.11171 140.0
107.377609 88.0
108.125549 232.0
108.278763 72.0
108.707916 164.0
109.341797 144.0
109.39592 100.0
110.155014 152.0
110.426758 216.0
110.797287 40.0
111.542297 172.0
111.794701 188.0
112.559952 180.0
112.786018 92.0
112.830414 32.0
112.980576 140.0
113.425301 108.0
113.936752 172.0
114.079147 120.0
114.758324 168.0
115.157402 176.0
115.29628 176.0
115.330475 136.0
115.437378 160.0
115.576424 112.0
115.92334 184.0
116.096985 156.0
116.354485 100.0
117.367928 200.0
117.67865 136.0
118.390099 100.0
119.105865 228.0
119.682205 176.0
120.043945 128.0
120.17701 184.0
120.29705 160.0
120.590988 192.0
120.937546 108.0
121.06234 168.0
121.0952 80.0
121.830063 156.0
121.933342 108.0
122.135635 156.0
122.190628 152.0
122.32048 128.0
122.366707 188.0
123.461235 144.0
123.693565 200.0
123.855217 152.0
123.895088 128.0
124.041359 44.0
125.421806 116.0
126.485107 136.0
126.514206 160.0
126.769562 144.0
126.917511 160.0
127.256332 148.0
128.046875 372.0
128.404037 160.0
128.435608 112.0
128.534882 172.0
128.828415 92.0
129.097397 140.0
129.766098 276.0
129.784821 192.0
130.910675 252.0
132.044968 220.0
132.31041 196.0
132.415756 128.0
132.642609 152.0
132.667816 192.0
133.046371 128.0
133.627853 124.0
133.708389 200.0
134.376678 140.0
135.178513 176.0
136.205627 208.0
136.510117 152.0
136.719482 220.0
136.961639 132.0
137.325272 180.0
137.623978 152.0
137.771133 220.0
138.007187 136.0
138.904205 100.0
139.263351 176.0
139.425476 120.0
140.258698 164.0
140.289352 128.0
140.93605 52.0
141.522675 144.0
141.721634 124.0
142.063919 188.0
142.146103 160.0
143.142151 208.0
143.16597 116.0
143.77153 104.0
143.867004 132.0
144.01268 128.0
145.214249 140.0
145.451797 132.0
145.843338 68.0
147.052521 184.0
147.721863 156.0
147.929977 288.0
148.620728 152.0
148.77121 164.0
148.805206 112.0
149.376343 232.0
149.597794 192.0
150.009506 56.0
150.053391 156.0
150.326584 76.0
150.612244 56.0
150.947083 60.0
151.385132 124.0
151.446365 112.0
151.742889 44.0
152.012726 168.0
152.521133 156.0
153.663849 180.0
153.842773 200.0
153.890915 168.0
154.00946 172.0
154.06604 356.0
154.714249 112.0
155.041229 180.0
155.160202 148.0
155.204834 168.0
155.227158 152.0
155.524887 124.0
155.711105 28.0
156.036636 44.0
157.050217 124.0
157.382141 116.0
158.289856 164.0
158.690781 180.0
158.873871 88.0
158.891434 52.0
159.132385 284.0
159.154984 128.0
159.80098 112.0
159.969604 216.0
160.040253 244.0
160.123199 136.0
160.533997 108.0
160.806686 240.0
161.023621 252.0
161.160034 172.0
161.435577 176.0
161.465927 112.0
161.551926 208.0
161.587357 112.0
162.007629 420.0
162.633987 144.0
162.654297 60.0
163.020416 140.0
163.355682 164.0
164.02417 624.0
164.050919 204.0
164.41568 120.0
164.985306 132.0
165.02594 180.0
165.131073 224.0
165.315277 116.0
165.707062 136.0
165.740372 212.0
165.999283 140.0
166.023438 172.0
166.058273 112.0
166.173706 208.0
166.25325 92.0
166.379028 116.0
166.674423 168.0
166.723236 164.0
166.813202 132.0
167.006073 136.0
167.071609 1220.0
167.577591 104.0
167.959152 240.0
168.074356 668.0
168.248184 60.0
168.589142 140.0
168.824402 140.0
169.080536 176.0
169.33168 152.0
169.520813 116.0
170.060272 136.0
170.153732 164.0
170.304352 180.0
170.340714 68.0
170.426453 168.0
170.740997 156.0
170.785217 132.0
170.847656 188.0
171.087097 44.0
171.634247 44.0
171.79335 124.0
171.822052 280.0
172.43573 176.0
173.2836 136.0
174.141434 48.0
175.401855 204.0
175.961151 176.0
176.984421 128.0
177.032059 1124.0
177.130081 200.0
177.376526 48.0
177.517059 84.0
177.673553 96.0
177.803574 108.0
178.032669 192.0
178.116898 164.0
179.034286 1124.0
179.090469 72.0
179.274307 68.0
179.490234 52.0
180.012253 64.0
180.038483 168.0
180.088058 196.0
180.189575 56.0
180.349915 156.0
180.579865 148.0
180.807297 140.0
181.027435 144.0
181.048248 192.0
181.085739 140.0
181.490417 136.0
181.519913 164.0
182.000244 40.0
182.045242 196.0
182.052139 148.0
182.612991 172.0
182.750183 124.0
182.987045 128.0
183.620331 144.0
185.231339 140.0
186.020477 136.0
186.417038 52.0
187.053497 128.0
188.02536 776.0
188.305084 176.0
188.367905 176.0
188.392502 168.0
188.564651 172.0
189.024734 224.0
189.106216 48.0
190.024841 376.0
190.065414 136.0
190.375626 60.0
190.56517 156.0
190.620117 76.0
190.688828 228.0
191.019775 312.0
191.070435 396.0
191.522552 232.0
191.767776 116.0
192.00766 176.0
192.029724 84.0
192.077377 268.0
192.360855 152.0
192.416061 136.0
192.523758 232.0
193.048843 72.0
193.086472 728.0
193.228653 124.0
193.433441 116.0
194.721115 172.0
194.795044 184.0
195.004593 196.0
195.306534 180.0
195.776917 136.0
196.013702 172.0
196.76683 172.0
197.009811 124.0
197.613724 296.0
197.662201 196.0
197.748047 136.0
197.787231 100.0
198.465225 124.0
198.930969 220.0
199.658737 144.0
200.01944 448.0
200.063934 204.0
200.145584 152.0
201.0345 496.0
201.10463 68.0
201.403442 176.0
201.847168 164.0
202.039108 1572.0
202.277222 60.0
202.934509 188.0
202.977036 44.0
203.002563 172.0
203.033813 308.0
203.051926 384.0
203.06488 328.0
203.113174 64.0
203.433853 136.0
203.607056 168.0
203.791702 52.0
204.0383 512.0
204.075821 636.0
204.175476 40.0
204.397385 136.0
205.029602 172.0
205.073044 1016.0
205.657089 116.0
206.025467 152.0
206.085464 200.0
206.185486 128.0
206.385605 128.0
207.06369 156.0
207.372131 228.0
207.410553 116.0
207.579712 72.0
208.064636 180.0
208.084732 32.0
208.627731 92.0
209.044815 220.0
209.284866 196.0
210.480408 144.0
210.928238 72.0
211.356277 140.0
211.645752 176.0
211.793457 144.0
212.057129 160.0
212.103516 84.0
212.904327 148.0
213.020294 108.0
213.031082 100.0
213.036255 172.0
214.041519 404.0
214.650436 120.0
215.037445 208.0
215.464813 212.0
215.622604 40.0
215.874039 124.0
216.045135 300.0
216.149017 112.0
217.029358 180.0
217.051254 244.0
217.071793 112.0
217.194962 64.0
218.037369 312.0
218.080399 348.0
218.390488 144.0
218.767151 44.0
218.80542 176.0
218.846649 112.0
218.914383 88.0
219.090714 2308.0
219.247284 60.0
219.288544 64.0
219.757446 116.0
220.05957 200.0
220.09729 1628.0
220.250473 148.0
221.09552 448.0
221.347748 44.0
221.552109 132.0
221.7388 120.0
221.993774 128.0
222.081787 252.0
222.14801 60.0
223.089417 152.0
223.211334 72.0
223.559387 160.0
223.696304 132.0
224.071564 112.0
224.617126 100.0
224.658432 132.0
224.676788 184.0
224.93045 160.0
225.02301 136.0
225.315704 140.0
226.045288 124.0
226.961929 132.0
227.045715 196.0
227.072891 136.0
227.219894 120.0
227.435959 156.0
228.009644 188.0
228.054398 1508.0
229.050461 476.0
229.318924 76.0
229.50885 116.0
230.045609 820.0
230.079697 132.0
230.45665 208.0
231.041275 268.0
231.091629 200.0
231.179382 64.0
231.594162 60.0
232.052368 184.0
232.182816 76.0
232.288345 60.0
232.767883 56.0
233.067154 124.0
233.457733 128.0
233.588516 148.0
234.456314 132.0
234.752029 192.0
235.11203 100.0
235.160858 160.0
236.022385 128.0
236.095779 68.0
236.242599 80.0
236.427597 200.0
236.772156 100.0
237.415756 52.0
237.931274 76.0
238.041641 1064.0
238.216888 220.0
238.499603 176.0
239.040207 264.0
239.601318 128.0
239.625961 36.0
239.724564 180.0
240.043045 1756.0
240.239502 160.0
240.332062 72.0
240.446243 84.0
240.591324 156.0
240.702484 88.0
240.773514 48.0
240.949585 48.0
241.027802 332.0
241.038864 144.0
241.595749 64.0
241.74736 140.0
242.040985 348.0
242.134354 228.0
243.042694 264.0
243.182343 88.0
243.225174 120.0
243.707184 100.0
243.893646 128.0
244.041656 580.0
244.114395 180.0
244.316589 116.0
244.344589 108.0
245.010849 48.0
245.038269 296.0
245.141724 44.0
245.381744 80.0
245.506485 52.0
245.706116 144.0
246.052551 180.0
246.452347 108.0
246.83371 104.0
247.046768 156.0
247.082214 416.0
247.221619 108.0
248.088837 800.0
248.211548 40.0
248.286819 164.0
248.625656 212.0
248.958435 152.0
249.091812 148.0
249.241165 116.0
250.036514 172.0
250.584747 52.0
250.871552 120.0
251.044968 44.0
251.120667 120.0
251.205841 104.0
252.052002 60.0
252.266922 92.0
252.300827 196.0
252.706543 236.0
252.823624 128.0
253.052429 1048.0
253.203552 112.0
253.358765 56.0
254.05571 776.0
254.795975 220.0
254.899246 140.0
254.954865 32.0
255.008896 128.0
255.067017 5416.0
255.123337 252.0
255.358643 60.0
255.489075 60.0
255.59407 120.0
255.880539 100.0
255.969696 116.0
256.058502 1116.0
256.109833 168.0
256.291412 148.0
256.916351 204.0
257.018463 188.0
257.062744 1528.0
257.158875 52.0
257.283386 76.0
257.583557 60.0
257.743317 76.0
257.983032 48.0
258.048126 284.0
258.110931 32.0
258.210052 124.0
258.597198 116.0
259.490997 48.0
259.795685 320.0
260.145477 132.0
260.222534 136.0
260.45697 132.0
261.148071 132.0
261.244568 164.0
262.081696 184.0
262.484619 220.0
263.065399 268.0
263.443237 92.0
264.209442 164.0
264.241821 40.0
264.996216 200.0
265.054871 200.0
265.628418 48.0
265.800385 228.0
266.042633 308.0
266.051392 236.0
266.446533 40.0
266.583008 32.0
266.885315 168.0
267.039551 592.0
267.838898 88.0
268.037872 1284.0
268.536438 52.0
269.039276 380.0
269.068359 184.0
269.094482 124.0
269.319824 80.0
269.692322 212.0
269.754425 172.0
270.033539 292.0
270.398834 96.0
271.076752 48.0
271.23407 108.0
271.588226 76.0
272.336609 216.0
272.523865 172.0
272.675049 236.0
273.84967 184.0
274.1297 152.0
274.627563 180.0
275.010315 232.0
276.891663 132.0
277.431763 128.0
278.237976 84.0
278.889099 152.0
278.948914 48.0
279.175018 56.0
279.890503 44.0
280.736938 152.0
281.0672 168.0
281.157288 144.0
281.337555 124.0
281.377625 88.0
281.444397 48.0
281.557953 124.0
281.588013 136.0
281.711578 156.0
281.775055 120.0
281.851929 144.0
281.915405 80.0
281.962189 68.0
282.056122 460.0
282.255554 176.0
282.36676 120.0
282.410767 152.0
282.517273 56.0
282.564117 64.0
282.597595 68.0
282.724731 120.0
282.83313 348.0
282.905792 88.0
282.960114 128.0
282.989197 152.0
283.062531 39140.0
283.119354 200.0
283.148254 32.0
283.174103 132.0
283.255646 72.0
283.290619 92.0
283.317566 92.0
283.391632 168.0
283.410278 56.0
283.444275 184.0
283.485718 160.0
283.512909 60.0
283.566589 108.0
283.605011 64.0
283.694702 176.0
283.867126 88.0
283.964386 52.0
284.005402 196.0
284.064728 5592.0
284.148895 32.0
284.202026 72.0
284.266815 84.0
284.30661 112.0
284.434174 72.0
284.476959 48.0
284.544952 108.0
284.571808 88.0
284.733002 40.0
284.773315 48.0
284.860626 148.0
284.922394 188.0
285.059326 9876.0
285.146271 204.0
285.22641 52.0
285.293518 84.0
285.409851 88.0
285.475739 156.0
285.505005 68.0
285.596802 132.0
285.622253 92.0
285.732117 152.0
285.771759 52.0
285.832336 80.0
285.900635 160.0
285.957489 268.0
286.020813 144.0
286.061554 2700.0
286.147217 68.0
286.179993 204.0
286.296906 80.0
286.438354 68.0
286.839355 96.0
286.86972 92.0
287.059387 108.0
287.092255 132.0
287.159698 76.0
287.260895 60.0
287.416107 68.0
287.466705 40.0
287.89209 80.0
288.047455 140.0
288.314392 68.0
288.369812 80.0
288.574677 68.0
288.740387 48.0
288.960266 40.0
289.014404 64.0
289.603485 56.0
289.999908 68.0
290.528931 124.0
290.759674 136.0
290.79361 88.0
292.387665 92.0
292.775787 36.0
293.058533 32.0
295.818115 120.0
296.338715 60.0
296.465485 32.0
296.633453 136.0
296.791168 76.0
297.439606 44.0
298.618195 88.0
298.83493 80.0
299.103363 60.0
302.244385 92.0
303.470276 84.0
304.23703 88.0
304.782349 56.0
307.854858 48.0
309.218384 76.0
325.948425 44.0
332.448792 20.0
351.980072 64.0
384.139923 48.0
389.683716 104.0
412.344971 48.0
418.092041 152.0
423.403656 88.0
426.460358 60.0
426.896179 100.0
429.424957 112.0
430.886322 52.0
436.952087 44.0
439.460358 44.0
444.532043 128.0
445.754059 72.0
452.985931 128.0
460.331482 32.0
463.484192 68.0
477.928558 80.0
501.531769 28.0
509.245911 36.0
517.2724 80.0
518.722046 144.0
562.190674 104.0
574.518372 40.0
608.482849 96.0
629.718262 108.0
634.286743 136.0
634.321838 40.0
643.22583 84.0
657.907593 80.0
660.227417 96.0
661.906006 68.0
707.889709 60.0
715.307129 44.0
716.01532 124.0
743.424744 60.0
748.43689 96.0
758.347168 64.0
786.039795 72.0
792.767334 76.0
796.762573 112.0
1006.754822 52.0
1041.876099 20.0
1085.19873 52.0
1106.348389 208.0
1157.561035 48.0
1283.977417 124.0
1332.352783 140.0
1335.093262 232.0
1354.391602 144.0
1375.046021 184.0
1399.257324 40.0
1405.011108 160.0
1406.302124 144.0
1447.92749 120.0
1480.907959 72.0
1489.130371 88.0
