>compound MLS001159164-01!(2R)-2-[[(2S)-3-methyl-2-[(3-oxo-2,4-dihydroquinoxaline-1-carbonyl)amino]butanoyl]amino]-3-phenylpropanoic acid
>formula C23H26N4O5
>ionization [M+H]+
>parentmass 439.198
#inchi InChI=1S/C23H26N4O5/c1-14(2)20(21(29)25-17(22(30)31)12-15-8-4-3-5-9-15)26-23(32)27-13-19(28)24-16-10-6-7-11-18(16)27/h3-11,14,17,20H,12-13H2,1-2H3,(H,24,28)(H,25,29)(H,26,32)(H,30,31)/t17-,20+/m1/s1
#inchikey VBFXAALSKCTOAO
#Ion_Source LC-ESI
#Instrument qTof
#Compound_Source NIH Natural Product Library
#PI Dorrestein
#Data_Collector VVP/LMS
#Scan -1
#Precursor_MZ 439.198
#ExactMass 438.19
#Charge 1
#CAS_Number N/A
#Pubmed_ID N/A
#Smiles CC(C)[C@H](NC(=O)N1CC(=O)Nc2ccccc12)C(=O)N[C@H](Cc3ccccc3)C(=O)O
#INCHI_AUX N/A
#Library_Class 1
#SpectrumID CCMSLIB00000080558
#IonMode Positive
#UpdateWorkflowName UPDATE-SINGLE-ANNOTATED-GOLD
#LibraryQualityString Gold
#TaskID b1d8e8f6646f4e71acdff9ca3d919d08
##Scan# 1870
#SpectrumFile p2-E10_GE10_01_18034.mzXML
#LibraryName NIH_Natural_Products_Library.mgf
#MQScore -1
#Organism NIH_Natural_Products_Library
#TIC_Query 0
#RT_Query -1
#MZErrorPPM -1
#SharedPeaks 0
#MassDiff 0
#LibMZ -1
#SpecMZ 439.198
#SpecCharge 0
#internalFilename spec-00000.mgf

>collision 10
94.957581 172.0
95.009949 164.0
95.066017 192.0
95.08757 240.0
95.122505 136.0
95.231239 168.0
95.359474 124.0
95.435295 200.0
95.507248 152.0
95.528641 116.0
95.602318 148.0
95.636551 100.0
95.674599 184.0
95.692123 216.0
95.785599 136.0
95.859634 152.0
95.892761 160.0
95.90641 172.0
95.922005 172.0
95.968788 104.0
95.996086 48.0
96.058502 132.0
96.161919 104.0
96.197052 136.0
96.226334 188.0
96.411903 140.0
96.50769 136.0
96.525284 192.0
96.660255 180.0
96.72876 156.0
96.765953 176.0
96.803154 152.0
97.344391 188.0
97.609673 52.0
97.704079 196.0
97.828064 52.0
98.059258 748.0
98.0802 188.0
98.198502 80.0
98.283333 180.0
98.332664 64.0
98.567673 108.0
98.729774 172.0
98.935555 152.0
98.985054 164.0
99.018723 100.0
99.034561 224.0
99.068237 168.0
99.09201 164.0
99.111824 160.0
99.165329 48.0
99.298172 220.0
99.403313 156.0
99.536308 124.0
99.691254 132.0
99.705559 184.0
99.77076 104.0
99.798599 176.0
99.866211 140.0
99.985588 120.0
100.063644 204.0
100.148849 156.0
100.162788 80.0
100.206902 140.0
100.300278 144.0
100.370056 196.0
100.395981 36.0
100.449837 144.0
100.467789 112.0
100.615471 136.0
100.653404 104.0
100.693291 148.0
100.801224 100.0
100.941154 300.0
101.06517 148.0
101.185257 120.0
101.235313 120.0
101.385567 204.0
101.437675 152.0
101.473763 188.0
101.513863 144.0
101.582062 140.0
101.616165 160.0
101.828949 168.0
101.931404 84.0
101.953506 188.0
101.976639 204.0
102.003754 192.0
102.027878 224.0
102.054016 168.0
102.1063 220.0
102.18335 164.0
102.204872 100.0
102.345772 144.0
102.369934 156.0
102.505966 136.0
102.545204 144.0
102.641968 164.0
102.799316 128.0
102.968895 184.0
103.052368 1088.0
103.124466 44.0
103.265999 152.0
103.297333 136.0
103.32061 164.0
103.429886 64.0
103.557449 160.0
103.571632 192.0
103.656723 112.0
103.670906 160.0
103.762115 164.0
103.820923 44.0
103.913528 208.0
104.00573 136.0
104.049683 292.0
104.084724 156.0
104.182968 184.0
104.247238 216.0
104.334633 132.0
104.407837 172.0
104.447395 232.0
104.483101 200.0
104.519722 160.0
104.558388 152.0
104.67646 160.0
104.88427 216.0
105.054749 492.0
105.070976 208.0
105.153503 96.0
105.24128 108.0
105.255577 104.0
105.35157 244.0
105.425125 104.0
105.5989 144.0
105.684822 200.0
105.733932 152.0
105.801483 248.0
106.180557 244.0
106.248253 176.0
106.363167 164.0
106.415321 148.0
106.471985 124.0
106.508957 88.0
106.547989 156.0
106.619904 132.0
106.718575 288.0
106.829987 300.0
106.876953 108.0
107.043472 196.0
107.070457 136.0
107.169334 176.0
107.227036 176.0
107.26001 192.0
107.274445 96.0
107.377541 184.0
107.709846 112.0
107.767693 52.0
107.82399 148.0
107.95166 120.0
108.125435 196.0
108.30764 56.0
108.58123 128.0
108.606117 224.0
108.667938 160.0
108.726456 132.0
108.759659 172.0
108.905006 160.0
108.983948 180.0
109.212624 168.0
109.258392 168.0
109.426971 168.0
109.649857 196.0
109.693634 144.0
109.72699 132.0
109.812485 152.0
109.841682 184.0
109.883408 104.0
109.973137 168.0
110.050377 160.0
110.110939 40.0
110.332428 140.0
110.366226 220.0
110.424438 116.0
110.554146 200.0
110.669281 136.0
110.709061 152.0
110.76561 196.0
110.895523 196.0
110.93116 220.0
111.004539 144.0
111.033897 108.0
111.086334 104.0
111.132492 200.0
111.271011 112.0
111.405426 216.0
111.434837 144.0
111.804924 128.0
111.895439 140.0
111.924911 164.0
112.079208 192.0
112.141899 188.0
112.21801 192.0
112.384415 84.0
112.464607 160.0
112.553276 40.0
112.603958 152.0
112.743393 128.0
112.85936 168.0
112.977409 196.0
113.203156 212.0
113.323196 192.0
113.454597 132.0
113.579712 236.0
113.711258 148.0
113.781311 168.0
113.887482 52.0
113.917221 212.0
113.978836 184.0
114.015587 164.0
114.102112 132.0
114.140381 128.0
114.161919 160.0
114.312683 96.0
114.346733 144.0
114.363762 152.0
114.411621 124.0
114.504288 28.0
114.678993 128.0
114.715233 104.0
114.930634 36.0
115.120621 128.0
115.193237 148.0
115.240234 108.0
115.452499 140.0
115.503189 256.0
115.558807 180.0
115.618729 128.0
115.637985 112.0
115.71933 120.0
115.807129 188.0
116.034279 192.0
116.072876 180.0
116.132973 180.0
116.298134 32.0
116.347511 132.0
116.377563 188.0
116.439842 208.0
116.665459 276.0
116.672676 180.0
116.711716 188.0
116.822449 144.0
116.846107 244.0
116.977386 120.0
117.104424 168.0
117.488121 112.0
117.514008 84.0
117.563637 208.0
117.608963 164.0
117.747147 136.0
117.993477 176.0
118.012939 136.0
118.063469 284.0
118.125397 80.0
118.195831 252.0
118.346924 144.0
118.372131 172.0
118.590942 204.0
118.692833 132.0
118.775246 228.0
118.825142 188.0
118.844666 184.0
118.873535 172.0
118.930435 156.0
119.005287 136.0
119.022652 124.0
119.060066 15784.0
119.096497 164.0
119.127342 296.0
119.146454 124.0
119.198601 136.0
119.235542 92.0
119.25293 112.0
119.300751 56.0
119.32032 204.0
119.337715 40.0
119.383377 140.0
119.416183 48.0
119.503014 164.0
119.535217 180.0
119.659721 164.0
119.688026 124.0
119.705574 184.0
119.740288 48.0
119.903694 128.0
119.986519 64.0
120.003967 60.0
120.027946 188.0
120.080414 8540.0
120.114189 96.0
120.136681 216.0
120.290642 216.0
120.346519 140.0
120.444794 56.0
120.462265 112.0
120.576744 112.0
120.632721 176.0
120.680817 140.0
120.754814 124.0
120.814224 40.0
120.83712 336.0
120.860168 56.0
120.905891 188.0
120.976166 172.0
121.019951 172.0
121.076126 30840.0
121.157936 112.0
121.206139 44.0
121.228523 160.0
121.254349 52.0
121.289413 184.0
121.314041 68.0
121.338646 140.0
121.415176 156.0
121.437538 84.0
121.515297 48.0
121.539429 60.0
121.574539 40.0
121.627213 88.0
121.673317 80.0
121.796288 92.0
121.853409 80.0
121.906143 36.0
121.947899 72.0
121.966423 140.0
122.0793 1544.0
122.150192 136.0
122.178841 164.0
122.284409 188.0
122.392281 56.0
122.453941 76.0
122.511208 88.0
122.526634 76.0
122.568497 28.0
122.691925 132.0
122.724991 128.0
122.744835 104.0
122.835266 44.0
122.901451 72.0
122.927925 148.0
122.951843 124.0
122.981941 228.0
123.078033 308.0
123.093491 228.0
123.138519 112.0
123.161949 84.0
123.27021 232.0
123.50898 184.0
123.575348 76.0
123.672714 44.0
123.716988 180.0
123.852066 268.0
123.889725 56.0
123.983482 140.0
124.223335 204.0
124.444176 460.0
124.460846 164.0
124.517456 168.0
124.684082 168.0
124.735207 164.0
124.873062 172.0
124.901978 152.0
124.980225 164.0
125.077766 112.0
125.313828 68.0
125.36953 56.0
125.438629 92.0
125.746437 152.0
125.817863 68.0
125.833496 84.0
125.927284 176.0
125.976425 148.0
126.072502 140.0
126.161911 188.0
126.365425 240.0
126.41465 156.0
126.450462 140.0
126.475082 160.0
126.737099 120.0
126.802086 72.0
126.954536 184.0
127.19236 200.0
127.412437 164.0
127.46109 104.0
127.510056 180.0
127.641693 44.0
127.992722 232.0
128.013779 80.0
128.046936 488.0
128.085052 120.0
128.451035 56.0
128.506622 152.0
128.763962 176.0
129.044174 148.0
129.143677 220.0
129.376755 156.0
129.481644 184.0
129.585114 112.0
129.619095 152.0
129.730148 52.0
129.780029 124.0
129.802704 204.0
129.836716 124.0
129.968292 156.0
130.040909 144.0
130.058716 228.0
130.199829 156.0
130.281601 236.0
130.36795 148.0
130.392944 280.0
130.465683 112.0
130.58847 36.0
130.611221 196.0
130.633972 212.0
130.652161 156.0
130.825119 56.0
130.943527 180.0
131.059845 648.0
131.114395 244.0
131.149384 148.0
131.196457 188.0
131.305908 32.0
131.341812 216.0
131.463318 148.0
131.545486 112.0
131.64595 160.0
131.776154 88.0
131.986435 172.0
132.004715 72.0
132.044403 604.0
132.067444 608.0
132.187729 32.0
132.231201 72.0
132.336502 144.0
132.366943 108.0
132.419861 168.0
132.487671 56.0
132.533493 132.0
132.551819 188.0
132.618286 84.0
132.684082 148.0
132.700806 180.0
132.762711 148.0
133.045044 476.0
133.076996 172.0
133.152863 116.0
133.401016 196.0
133.58728 152.0
133.746063 216.0
133.953308 28.0
134.100769 144.0
134.116898 112.0
134.299057 116.0
134.386719 176.0
134.580704 188.0
134.67067 164.0
134.751526 240.0
134.89711 140.0
134.947968 60.0
135.058548 152.0
135.183914 124.0
135.32048 160.0
135.612366 228.0
135.693497 124.0
135.760742 136.0
135.897598 148.0
136.043808 100.0
136.087921 124.0
136.157593 96.0
136.284592 132.0
136.466644 176.0
136.56897 236.0
136.687622 136.0
136.722519 88.0
136.836578 224.0
136.957672 180.0
137.022903 88.0
137.223343 196.0
137.304398 184.0
137.332947 140.0
137.41925 160.0
137.58963 192.0
137.673691 100.0
137.725067 204.0
137.965759 152.0
138.117142 168.0
138.349426 112.0
138.47261 216.0
138.496948 160.0
138.56488 272.0
138.607056 192.0
138.775818 96.0
138.857895 152.0
138.911453 168.0
139.103867 164.0
139.419006 164.0
139.475403 216.0
139.650467 156.0
140.019287 148.0
140.186172 68.0
140.292252 132.0
140.312469 200.0
140.436081 148.0
140.591797 184.0
140.884857 176.0
140.962555 152.0
141.019272 124.0
141.241531 216.0
141.305405 188.0
141.572876 108.0
141.70079 160.0
141.736328 156.0
142.602524 144.0
142.626297 76.0
142.645309 200.0
142.719009 216.0
142.826035 176.0
142.854584 152.0
142.983063 160.0
143.054474 132.0
143.304535 132.0
143.457062 64.0
143.507126 136.0
143.530975 128.0
143.681229 152.0
144.059387 208.0
144.120544 40.0
144.247208 104.0
144.426544 220.0
144.486359 152.0
144.560532 168.0
144.689774 68.0
144.749634 284.0
144.783157 152.0
144.934082 120.0
144.991592 152.0
145.082672 28.0
145.14502 108.0
145.238541 136.0
145.341705 120.0
145.389694 224.0
145.588959 220.0
145.704254 40.0
145.723465 140.0
145.829208 164.0
145.882095 56.0
145.901321 128.0
145.95903 236.0
146.007126 184.0
146.060623 1876.0
146.194763 208.0
146.262161 156.0
146.281418 160.0
146.363266 196.0
146.419312 176.0
146.452377 200.0
146.543915 100.0
146.606567 152.0
146.630676 52.0
146.668411 128.0
146.700867 196.0
146.743149 168.0
146.750549 60.0
146.761429 200.0
146.821136 164.0
146.850006 156.0
146.888657 156.0
146.918808 356.0
146.948318 184.0
147.002182 168.0
147.055847 80200.0
147.1194 236.0
147.17128 76.0
147.21553 204.0
147.223969 156.0
147.233307 132.0
147.276688 128.0
147.320145 112.0
147.327667 100.0
147.380295 136.0
147.410507 192.0
147.452896 980.0
147.49202 120.0
147.517792 180.0
147.561813 80.0
147.581787 32.0
147.6185 100.0
147.639175 136.0
147.670258 152.0
147.718597 176.0
147.76561 60.0
147.806732 52.0
147.8638 48.0
147.886597 172.0
147.913223 72.0
147.930176 164.0
147.948395 68.0
147.995529 44.0
148.012482 112.0
148.058167 9476.0
148.116623 68.0
148.150543 40.0
148.177063 80.0
148.185806 100.0
148.213593 168.0
148.235336 56.0
148.288651 40.0
148.320435 72.0
148.347458 124.0
148.397736 32.0
148.430481 112.0
148.485046 76.0
148.554382 164.0
148.594193 72.0
148.616028 48.0
148.692963 148.0
148.73056 84.0
148.759033 104.0
148.823959 132.0
148.850952 92.0
148.887909 100.0
148.920731 64.0
148.961517 200.0
148.994781 96.0
149.069977 3272.0
149.104736 124.0
149.123062 104.0
149.140594 96.0
149.174103 140.0
149.224197 220.0
149.251724 140.0
149.30835 60.0
149.330246 152.0
149.371582 76.0
149.447006 208.0
149.604599 96.0
149.631989 56.0
149.661194 260.0
149.705032 224.0
149.782974 120.0
149.809769 176.0
150.004715 148.0
150.053467 60.0
150.077209 684.0
150.12175 184.0
150.172958 80.0
150.236374 32.0
150.270538 148.0
150.297379 172.0
150.626968 36.0
150.722244 192.0
150.802887 56.0
150.917786 200.0
150.959351 92.0
151.062073 152.0
151.079208 132.0
151.226532 96.0
151.294556 92.0
151.328842 160.0
151.461075 164.0
151.537018 160.0
151.703674 172.0
151.747803 256.0
151.944016 232.0
152.076523 144.0
152.12561 180.0
152.253296 152.0
152.299957 156.0
152.693207 100.0
152.77388 156.0
152.872803 152.0
153.249542 68.0
153.481232 80.0
153.888351 96.0
154.162537 152.0
155.016281 64.0
155.189804 52.0
155.276596 100.0
155.306351 156.0
155.328674 116.0
155.348526 216.0
155.496155 144.0
156.138397 152.0
156.208038 28.0
156.611282 128.0
156.673553 160.0
156.847992 64.0
156.992599 116.0
157.102341 336.0
157.344421 120.0
157.416824 236.0
157.444305 88.0
157.574188 92.0
158.046753 152.0
158.08287 128.0
158.089142 140.0
158.275681 140.0
158.580154 44.0
158.665375 40.0
158.876038 192.0
158.933746 56.0
158.97641 156.0
159.056717 164.0
159.094162 188.0
159.420898 84.0
159.805618 32.0
160.009491 164.0
160.410049 36.0
160.478119 172.0
160.823715 104.0
160.901978 172.0
161.048431 52.0
161.154541 200.0
161.18486 88.0
161.660263 180.0
161.710876 180.0
162.073013 148.0
162.179459 116.0
162.38736 112.0
162.491364 80.0
162.54718 80.0
162.66394 84.0
162.722321 208.0
162.978851 132.0
164.660156 156.0
164.93866 212.0
165.260895 152.0
165.309509 180.0
165.460526 160.0
165.552704 44.0
165.578308 88.0
165.685898 72.0
165.92424 172.0
165.957565 160.0
165.980652 152.0
166.083252 204.0
166.124268 140.0
166.856186 156.0
167.088104 160.0
167.20015 212.0
167.499542 164.0
167.548492 80.0
167.6129 232.0
167.661865 196.0
168.084778 224.0
168.198334 160.0
168.239639 116.0
168.371323 188.0
168.472061 172.0
168.64003 40.0
168.795135 216.0
168.92186 208.0
168.994308 92.0
169.090057 160.0
169.336761 164.0
169.452576 184.0
169.608063 72.0
169.797333 168.0
170.165817 84.0
170.656876 60.0
171.831512 84.0
172.270111 144.0
172.332809 148.0
172.813904 164.0
173.062546 72.0
173.108688 420.0
173.196106 52.0
173.379517 176.0
173.40834 140.0
173.499283 184.0
173.657425 36.0
173.812195 228.0
173.835815 84.0
173.877808 176.0
174.058624 164.0
174.099548 104.0
174.127121 660.0
174.1745 112.0
174.623962 96.0
174.694977 132.0
174.789688 116.0
174.834427 148.0
174.873901 92.0
174.892334 320.0
174.934448 172.0
174.984467 164.0
175.010071 204.0
175.05011 36044.0
175.122116 1012.0
175.157089 80.0
175.165939 44.0
175.172562 76.0
175.220123 108.0
175.248306 68.0
175.291687 44.0
175.321274 88.0
175.435532 76.0
175.457108 268.0
175.484406 88.0
175.519333 68.0
175.564163 88.0
175.606369 32.0
175.642929 88.0
175.680222 52.0
175.820068 48.0
175.85173 72.0
175.907166 188.0
175.96788 80.0
176.018173 84.0
176.05191 2512.0
176.083466 568.0
176.125809 284.0
176.145798 76.0
176.179169 180.0
176.205582 48.0
176.22937 104.0
176.30336 104.0
176.459305 124.0
176.513382 80.0
176.607391 68.0
176.702789 64.0
176.951416 64.0
176.969955 60.0
176.991135 40.0
177.052704 416.0
177.105011 168.0
177.127487 164.0
177.181824 124.0
177.231003 100.0
177.261322 176.0
177.285629 68.0
177.351334 120.0
177.365005 132.0
177.396484 48.0
177.441559 84.0
177.481323 64.0
177.507843 76.0
177.544968 48.0
177.574142 96.0
177.627197 104.0
177.669632 60.0
178.091705 176.0
178.508957 216.0
178.594055 36.0
178.697815 56.0
178.852158 112.0
178.90274 56.0
179.017227 68.0
179.323593 108.0
179.528885 56.0
179.611557 32.0
179.779648 180.0
180.993256 72.0
181.081635 124.0
182.953217 104.0
183.058212 64.0
183.20636 160.0
184.10173 156.0
184.618011 180.0
184.963074 104.0
185.329926 56.0
185.362442 76.0
185.403091 52.0
185.9048 196.0
186.121506 100.0
186.447479 140.0
186.475113 176.0
187.084 308.0
187.127975 124.0
189.055099 36.0
189.101624 200.0
189.139954 152.0
189.87149 100.0
190.062988 188.0
190.395676 196.0
190.519287 56.0
190.590714 168.0
190.637436 192.0
190.967346 148.0
191.594955 140.0
191.859528 168.0
192.071854 104.0
193.061142 108.0
193.780319 56.0
194.954056 136.0
195.30159 172.0
195.501907 156.0
196.265152 116.0
196.960068 216.0
197.071808 168.0
199.014023 208.0
199.201004 92.0
199.913177 148.0
200.069962 128.0
200.117828 188.0
200.450195 92.0
200.898499 56.0
200.980316 72.0
201.031097 140.0
201.100143 720.0
201.146042 204.0
201.398132 36.0
202.063919 292.0
202.1082 208.0
202.144501 156.0
202.645676 168.0
203.066238 540.0
203.117905 1700.0
203.243942 76.0
203.31488 100.0
203.371643 56.0
203.615814 188.0
203.854446 184.0
203.914139 104.0
204.073227 308.0
204.120743 136.0
204.226883 60.0
204.790451 108.0
204.945023 220.0
205.680069 44.0
205.954178 36.0
207.683014 60.0
208.869293 140.0
209.591904 64.0
210.061844 140.0
211.071213 212.0
211.54718 188.0
211.706421 60.0
212.114944 168.0
212.242508 176.0
212.286011 200.0
213.046463 88.0
213.098755 56.0
214.090652 148.0
214.192596 128.0
214.312042 188.0
214.396545 204.0
214.653076 120.0
215.067352 160.0
215.280487 176.0
215.338882 96.0
215.414841 160.0
215.636902 80.0
215.908798 184.0
216.353546 172.0
216.681564 60.0
217.133881 1520.0
217.19458 32.0
217.438095 108.0
217.684692 48.0
217.97258 152.0
218.082443 156.0
218.128799 2724.0
218.198898 76.0
218.245941 40.0
218.981628 124.0
219.055267 180.0
219.093567 208.0
219.134201 648.0
219.786438 104.0
220.140656 152.0
220.297195 180.0
220.338547 68.0
220.492203 168.0
220.705048 156.0
221.122162 184.0
222.886642 124.0
224.72377 80.0
225.619751 132.0
226.463608 140.0
227.555161 224.0
227.679535 160.0
227.79541 148.0
228.306366 92.0
228.604187 60.0
228.68544 116.0
228.796814 256.0
228.99556 100.0
229.098633 1436.0
229.182327 52.0
229.489777 124.0
229.758194 204.0
229.912079 148.0
230.050919 268.0
230.103088 260.0
230.319672 232.0
230.410294 56.0
230.437485 152.0
230.51001 204.0
230.633911 156.0
230.830429 84.0
231.584 68.0
231.611252 128.0
232.44194 104.0
234.570908 48.0
234.842285 136.0
235.129074 136.0
235.150436 192.0
235.941589 116.0
236.109756 104.0
237.006683 160.0
238.625366 140.0
238.987152 88.0
239.932678 156.0
242.123459 164.0
242.619232 104.0
242.904526 120.0
243.14183 164.0
243.280014 164.0
243.422836 36.0
243.6185 112.0
243.808044 208.0
244.13446 116.0
244.398865 92.0
244.423767 168.0
244.473557 172.0
244.504669 80.0
244.598053 32.0
244.806641 204.0
244.828003 56.0
244.853363 148.0
244.977951 200.0
245.021561 44.0
245.127716 3636.0
245.203857 128.0
245.27243 64.0
245.391769 184.0
245.467285 164.0
245.571716 148.0
245.654419 240.0
245.682495 56.0
245.719925 168.0
245.74176 144.0
245.763611 80.0
245.797928 40.0
245.826965 144.0
245.879166 136.0
245.925888 60.0
245.967621 216.0
246.037308 496.0
246.124069 40028.0
246.199005 196.0
246.24292 76.0
246.300766 64.0
246.330246 32.0
246.378662 48.0
246.410538 40.0
246.441147 48.0
246.478027 164.0
246.513016 164.0
246.533112 80.0
246.564056 160.0
246.636246 56.0
246.699432 56.0
246.721268 64.0
246.775589 52.0
246.844376 164.0
246.870895 52.0
246.915085 76.0
246.940353 116.0
246.952896 80.0
247.000748 64.0
247.04454 40.0
247.125443 5276.0
247.208359 200.0
247.272964 36.0
247.298004 48.0
247.366867 40.0
247.412186 84.0
247.418869 72.0
247.457657 88.0
247.49855 64.0
247.567245 60.0
247.628311 40.0
247.712143 88.0
247.736389 32.0
247.843094 64.0
247.930649 112.0
247.977661 76.0
248.124573 512.0
248.19397 28.0
248.252762 144.0
248.281769 92.0
248.314529 64.0
248.341354 36.0
248.382629 72.0
248.430054 72.0
248.501343 192.0
248.554688 124.0
248.580597 92.0
248.673935 48.0
248.742996 108.0
248.812057 64.0
248.893692 80.0
248.918808 128.0
248.969055 72.0
249.147415 56.0
249.248627 104.0
249.300095 32.0
249.377487 180.0
249.459198 152.0
249.500076 72.0
249.534653 44.0
249.682449 48.0
249.81456 80.0
250.01593 88.0
250.063126 104.0
250.22052 88.0
250.526001 72.0
250.866348 40.0
251.061844 32.0
251.557205 68.0
252.258484 124.0
257.130981 76.0
258.818848 76.0
259.091095 56.0
259.414764 100.0
259.693726 72.0
260.859314 112.0
262.008179 104.0
262.243408 52.0
264.125854 160.0
265.667786 92.0
271.968994 120.0
273.138763 140.0
274.047363 168.0
274.117493 272.0
274.558319 56.0
274.713348 44.0
277.819672 72.0
282.858246 140.0
284.897125 96.0
285.135681 212.0
286.370453 72.0
286.542236 96.0
290.551941 120.0
291.128235 260.0
292.143127 212.0
292.505951 48.0
297.599884 28.0
298.60675 80.0
299.625641 28.0
303.673492 72.0
305.730225 52.0
310.229004 88.0
313.956055 44.0
316.72345 176.0
319.104645 56.0
322.634186 124.0
322.805786 64.0
325.173828 56.0
327.892792 96.0
331.96347 80.0
334.798004 28.0
341.444092 104.0
343.510406 48.0
343.857239 88.0
347.576416 84.0
348.200073 112.0
352.932739 44.0
360.43161 100.0
362.296875 140.0
367.429199 68.0
372.812805 108.0
376.016998 108.0
396.512329 80.0
397.404541 112.0
398.488434 44.0
406.016907 116.0
410.190399 48.0
414.903992 80.0
433.737427 56.0
435.812439 48.0
439.030151 28.0
440.854462 124.0
441.602814 72.0
442.088104 76.0
450.438141 72.0
459.369537 76.0
464.519897 128.0
470.907532 48.0
474.45578 72.0
474.902435 52.0
492.997681 104.0
502.143188 32.0
528.687317 64.0
536.929077 124.0
542.20874 56.0
550.545532 88.0
558.36731 40.0
567.476318 52.0
574.071411 72.0
579.123047 96.0
579.410461 48.0
586.508118 44.0
600.49646 60.0
613.116028 60.0
638.607971 100.0
675.556946 88.0
714.023499 76.0
722.718628 120.0
728.36377 56.0
741.957275 128.0
773.302307 192.0
776.876282 48.0
783.363586 76.0
789.827576 220.0
800.530334 76.0
819.295349 116.0
820.914062 176.0
836.480835 60.0
838.859863 140.0
849.337585 112.0
866.241943 80.0
868.176086 60.0
877.973572 176.0
886.28479 164.0
904.56842 208.0
908.583496 136.0
911.261108 132.0
914.309753 44.0
920.029907 232.0
924.369507 204.0
925.253174 156.0
926.155457 176.0
926.331116 184.0
927.50061 152.0
930.843445 116.0
934.63031 164.0
937.931091 188.0
939.650818 172.0
941.249939 32.0
943.186584 172.0
945.382202 72.0
946.465637 148.0
949.032959 236.0
949.670715 108.0
954.257874 48.0
959.225952 60.0
970.415527 172.0
974.89093 180.0
990.238037 84.0
990.344482 40.0
993.459839 212.0
995.097778 164.0
996.379028 172.0
1001.58136 176.0
1012.856262 152.0
1015.036377 92.0
1020.63678 140.0
1027.253906 236.0
1038.473145 36.0
1050.527222 40.0
1053.516113 188.0
1053.600098 72.0
1061.45752 172.0
1064.643677 192.0
1074.641968 148.0
1076.894043 80.0
1079.979004 168.0
1081.320312 128.0
1081.398804 104.0
1084.719604 160.0
1085.25061 108.0
1086.752686 168.0
1087.98645 196.0
1091.054443 84.0
1094.126709 84.0
1097.143921 140.0
1097.414307 180.0
1100.185181 188.0
1104.744995 140.0
1105.135254 76.0
1109.77832 128.0
1117.369629 172.0
1120.998413 128.0
1122.344849 184.0
1122.604858 164.0
1122.818359 40.0
1122.958374 88.0
1124.499512 128.0
1124.552979 164.0
1125.921631 156.0
1129.403687 188.0
1130.407227 160.0
1130.561157 248.0
1130.728394 44.0
1133.634888 180.0
1135.438232 68.0
1138.740234 192.0
1141.192993 116.0
1144.031982 108.0
1147.56897 156.0
1149.052734 124.0
1149.126953 160.0
1153.698975 28.0
1155.93103 172.0
1156.34375 192.0
1160.855591 68.0
1161.5271 176.0
1161.893433 116.0
1161.940918 68.0
1162.911255 208.0
1165.009399 148.0
1165.362671 168.0
1166.721924 188.0
1170.865723 152.0
1171.580933 144.0
1172.003296 212.0
1172.896118 104.0
1174.839478 152.0
1176.177002 276.0
1177.453735 152.0
1177.911377 176.0
1179.079712 224.0
1179.476074 220.0
1180.58374 168.0
1181.424927 124.0
1185.231567 184.0
1185.834595 228.0
1187.212646 228.0
1187.548706 132.0
1189.147339 132.0
1191.152222 68.0
1196.213257 136.0
1197.087524 80.0
1200.19519 136.0
1200.353882 108.0
1201.167603 184.0
1202.409546 216.0
1204.308228 164.0
1205.385986 180.0
1205.434326 108.0
1205.938843 240.0
1206.560913 180.0
1207.065674 192.0
1208.026978 132.0
1215.218018 108.0
1215.877319 160.0
1216.245117 168.0
1216.335327 140.0
1216.800415 176.0
1217.557373 200.0
1218.734131 184.0
1219.217651 32.0
1220.197754 140.0
1224.727905 48.0
1225.786865 164.0
1227.592285 100.0
1228.219971 184.0
1229.47583 184.0
1229.713135 216.0
1232.233887 196.0
1233.192749 208.0
1233.624634 204.0
1235.443848 140.0
1236.163452 168.0
1236.720581 180.0
1236.858887 240.0
1237.395386 128.0
1238.494751 184.0
1241.258667 136.0
1241.529419 128.0
1243.072754 128.0
1243.606079 96.0
1245.529907 132.0
1246.689209 144.0
1247.012451 180.0
1248.066895 204.0
1248.812378 144.0
1249.543945 132.0
1251.120361 136.0
1251.542847 168.0
1253.064087 172.0
1253.261353 168.0
1255.108032 116.0
1255.636963 160.0
1258.713745 192.0
1258.883179 128.0
1260.953125 144.0
1261.27832 60.0
1261.900391 192.0
1263.873657 200.0
1264.139404 252.0
1264.319458 84.0
1268.406128 260.0
1268.569214 72.0
1269.242676 220.0
1271.470093 68.0
1275.46167 172.0
1276.492554 52.0
1279.395386 120.0
1279.445312 96.0
1280.840942 168.0
1281.07605 140.0
1281.140137 116.0
1281.353882 172.0
1281.520752 116.0
1283.656128 68.0
1284.219482 196.0
1284.504761 112.0
1284.875732 152.0
1284.982788 192.0
1286.081665 200.0
1287.209717 108.0
1287.338257 224.0
1288.06665 200.0
1288.159546 192.0
1288.695312 176.0
1291.44043 196.0
1291.805176 172.0
1294.274292 204.0
1294.41748 168.0
1294.811401 156.0
1295.885864 160.0
1297.046753 148.0
1297.269043 92.0
1297.777954 136.0
1298.244141 204.0
1299.958618 156.0
1302.88855 240.0
1304.260498 180.0
1304.670288 216.0
1305.684082 144.0
1306.036499 216.0
1308.09436 40.0
1308.411133 172.0
1308.864746 132.0
1309.296753 144.0
1309.91626 232.0
1311.573486 180.0
1312.294434 132.0
1313.045288 208.0
1313.729492 124.0
1314.768555 152.0
1315.237671 152.0
1315.5625 124.0
1316.335083 28.0
1320.757935 180.0
1320.852051 100.0
1321.278809 172.0
1321.517578 40.0
1321.60437 132.0
1324.731934 216.0
1327.246826 144.0
1328.37085 188.0
1328.63208 108.0
1328.70459 208.0
1329.096436 192.0
1329.800293 180.0
1331.383179 180.0
1333.140991 200.0
1335.183716 252.0
1336.820557 136.0
1337.592041 164.0
1339.055542 120.0
1339.696533 36.0
1340.148193 148.0
1340.643677 204.0
1340.804077 160.0
1341.948486 152.0
1342.422363 184.0
1342.765137 192.0
1345.399292 184.0
1346.034424 152.0
1347.546387 152.0
1348.540161 80.0
1349.951172 248.0
1350.22168 172.0
1352.401978 188.0
1352.555664 192.0
1352.745972 124.0
1352.833862 132.0
1355.382568 256.0
1356.408569 156.0
1358.879883 216.0
1359.011963 164.0
1359.092651 48.0
1359.965942 164.0
1360.20813 144.0
1360.296265 184.0
1361.412231 100.0
1362.668335 152.0
1364.174805 148.0
1364.946777 192.0
1365.27771 124.0
1365.351318 168.0
1365.54248 96.0
1365.866089 36.0
1366.14563 200.0
1367.278687 156.0
1367.747437 188.0
1368.235596 176.0
1369.148682 148.0
1369.494751 140.0
1370.165161 144.0
1370.400879 148.0
1370.887207 96.0
1371.447266 128.0
1372.140259 44.0
1374.67749 204.0
1374.965332 200.0
1375.371216 144.0
1376.397461 248.0
1376.582031 144.0
1378.221802 212.0
1378.303101 176.0
1378.817505 164.0
1379.83313 88.0
1380.91272 260.0
1381.363892 156.0
1381.585815 148.0
1381.885864 188.0
1382.148071 136.0
1382.273926 36.0
1382.333008 76.0
1385.205688 220.0
1386.205811 92.0
1386.79126 152.0
1386.880249 40.0
1387.525146 156.0
1388.096069 96.0
1390.618408 216.0
1391.04895 192.0
1391.397827 200.0
1391.73938 148.0
1392.37793 152.0
1393.633301 160.0
1394.398682 152.0
1394.822388 228.0
1396.324219 168.0
1396.7854 56.0
1397.559082 128.0
1398.839111 120.0
1401.77356 152.0
1401.974731 168.0
1402.623169 108.0
1403.540161 60.0
1403.927856 196.0
1404.255981 128.0
1405.098999 140.0
1406.098633 180.0
1406.166016 136.0
1408.36853 136.0
1409.466675 124.0
1409.578735 200.0
1409.645996 204.0
1409.915039 108.0
1410.034668 28.0
1410.09436 264.0
1410.856812 148.0
1410.983887 128.0
1411.926025 136.0
1413.250122 220.0
1414.073242 204.0
1414.230347 200.0
1414.993896 152.0
1415.450684 64.0
1415.742676 240.0
1417.098511 156.0
1417.503052 212.0
1418.657349 64.0
1419.084595 188.0
1419.947021 164.0
1420.524536 148.0
1420.884644 136.0
1421.267212 164.0
1422.483032 136.0
1422.760742 84.0
1423.466553 212.0
1424.315186 220.0
1424.442871 204.0
1425.442139 200.0
1426.937866 124.0
1428.035645 152.0
1428.125977 188.0
1428.42688 252.0
1428.735229 152.0
1428.991089 168.0
1429.156616 164.0
1429.261963 116.0
1429.916626 200.0
1430.420898 208.0
1431.203857 156.0
1432.453979 140.0
1432.981323 160.0
1433.780029 76.0
1434.571533 124.0
1434.767456 160.0
1436.358643 184.0
1438.290283 64.0
1439.626587 160.0
1440.041992 144.0
1442.399292 136.0
1442.890747 192.0
1443.011719 156.0
1444.456055 164.0
1444.773804 144.0
1445.015869 140.0
1445.696899 188.0
1446.461304 132.0
1447.18042 124.0
1448.437622 192.0
1448.6875 180.0
1449.013306 124.0
1449.968018 128.0
1450.293945 164.0
1451.901245 132.0
1452.159058 96.0
1452.356323 256.0
1453.350098 184.0
1453.615723 228.0
1454.465698 192.0
1454.792114 188.0
1455.520874 148.0
1456.644897 156.0
1456.834839 164.0
1457.207153 372.0
1457.381836 228.0
1457.989746 52.0
1459.829468 176.0
1459.966309 216.0
1460.262939 212.0
1460.354126 204.0
1460.486572 200.0
1460.719238 168.0
1460.94751 216.0
1461.038818 156.0
1461.130005 168.0
1462.195312 144.0
1462.507324 72.0
1462.903198 104.0
1463.337158 152.0
1463.976685 176.0
1465.33252 136.0
1467.504639 136.0
1468.480713 176.0
1469.480103 132.0
1471.036865 120.0
1471.685791 84.0
1472.189697 184.0
1472.395996 96.0
1472.762573 112.0
1473.68689 160.0
1474.825562 120.0
1474.978394 148.0
1475.053833 152.0
1475.544067 184.0
1475.612915 216.0
1475.956909 176.0
1476.415771 236.0
1476.843994 168.0
1477.723755 208.0
1478.749146 96.0
1479.828491 92.0
1480.310913 152.0
1481.750854 180.0
1481.827393 88.0
1482.149292 188.0
1483.774048 136.0
1484.260254 236.0
1484.410522 144.0
1485.161987 204.0
1485.39978 68.0
1485.461182 108.0
1486.05957 208.0
1486.166992 232.0
1486.588989 192.0
1486.734863 108.0
1487.348755 132.0
1487.5177 184.0
1487.932251 164.0
1488.60022 196.0
1491.657959 116.0
1491.773315 108.0
1491.988525 136.0
1492.249878 172.0
1492.46521 56.0
1492.780518 184.0
1492.915649 220.0
1494.865112 80.0
1495.781006 188.0
1497.574951 136.0
1498.245117 188.0
1498.299072 44.0
1498.484009 156.0
1498.977051 148.0
1499.2854 192.0
1499.701538 164.0
1500.827026 60.0
1501.004395 160.0
1502.091797 172.0
1502.307739 128.0
1503.4729 168.0
1503.835571 180.0
1504.198364 112.0
