>compound MLS001141386-01!(2S)-2-[3-[(10aS)-1,3-dioxo-10,10a-dihydro-5H-imidazo[1,5-b]isoquinolin-2-yl]propanoylamino]-3-phenylpropanoic acid
>formula C23H23N3O5
>ionization [M+H]+
>parentmass 422.172
#inchi InChI=1S/C23H23N3O5/c27-20(24-18(22(29)30)12-15-6-2-1-3-7-15)10-11-25-21(28)19-13-16-8-4-5-9-17(16)14-26(19)23(25)31/h1-9,18-19H,10-14H2,(H,24,27)(H,29,30)/t18-,19-/m0/s1
#inchikey FMSWDQKKHNMTCT
#Ion_Source LC-ESI
#Instrument qTof
#Compound_Source NIH Natural Product Library
#PI Dorrestein
#Data_Collector VVP/LMS
#Scan -1
#Precursor_MZ 422.172
#ExactMass 421.164
#Charge 1
#CAS_Number N/A
#Pubmed_ID N/A
#Smiles OC(=O)[C@H](Cc1ccccc1)NC(=O)CCN2C(=O)[C@@H]3Cc4ccccc4CN3C2=O
#INCHI_AUX N/A
#Library_Class 1
#SpectrumID CCMSLIB00000079718
#IonMode Positive
#UpdateWorkflowName UPDATE-SINGLE-ANNOTATED-GOLD
#LibraryQualityString Gold
#TaskID b1d8e8f6646f4e71acdff9ca3d919d08
##Scan# 1949
#SpectrumFile p1-B10_GB10_01_17894.mzXML
#LibraryName NIH_Natural_Products_Library.mgf
#MQScore -1
#Organism NIH_Natural_Products_Library
#TIC_Query 0
#RT_Query -1
#MZErrorPPM -1
#SharedPeaks 0
#MassDiff 0
#LibMZ -1
#SpecMZ 422.172
#SpecCharge 0
#internalFilename spec-00000.mgf

>collision 10
94.975616 152.0
95.064865 160.0
95.092033 156.0
95.225998 52.0
95.387268 120.0
95.608986 164.0
96.681702 136.0
96.71756 156.0
96.805656 220.0
96.923187 128.0
96.960014 192.0
96.98394 160.0
97.080002 128.0
97.093727 168.0
97.229095 208.0
97.75576 136.0
97.952637 180.0
98.022713 340.0
98.171402 104.0
98.829178 212.0
98.872711 224.0
98.989502 96.0
99.003365 156.0
99.114296 84.0
99.181679 168.0
99.25106 116.0
99.298653 132.0
99.405777 260.0
99.687759 204.0
99.781174 80.0
99.878616 140.0
100.051735 52.0
100.139351 112.0
100.181183 200.0
100.310707 208.0
100.348587 68.0
100.388466 156.0
100.454277 212.0
100.599953 116.0
100.679817 44.0
100.711769 144.0
100.779694 144.0
101.121643 112.0
101.23175 120.0
101.518311 176.0
101.728973 124.0
101.75106 80.0
101.869545 88.0
102.010208 204.0
102.114761 68.0
102.138893 212.0
102.426735 160.0
102.662537 68.0
102.678673 156.0
102.787895 140.0
102.832001 168.0
102.856224 136.0
103.029884 172.0
103.055794 1056.0
103.128899 108.0
103.153152 200.0
103.193588 140.0
103.339211 96.0
103.38372 160.0
103.503151 148.0
103.815216 172.0
103.831436 168.0
103.894318 148.0
103.943008 136.0
104.054642 148.0
104.14196 200.0
104.276054 44.0
104.581131 168.0
104.913155 164.0
105.029388 168.0
105.067146 500.0
105.117111 172.0
105.60128 132.0
105.72403 156.0
105.783386 120.0
105.818184 104.0
105.84919 120.0
105.979988 212.0
106.240356 236.0
106.441498 144.0
106.616104 168.0
107.00074 184.0
107.048386 296.0
107.136665 232.0
107.375763 156.0
107.4851 232.0
107.559395 128.0
107.722519 164.0
107.778305 56.0
108.063843 196.0
108.280975 128.0
108.579414 100.0
108.714256 112.0
109.71888 160.0
110.025551 204.0
110.063126 176.0
110.149567 188.0
110.198891 192.0
110.309875 184.0
110.562729 148.0
110.772102 152.0
110.834953 116.0
110.858002 188.0
110.996353 180.0
111.031998 156.0
111.241814 120.0
111.3069 56.0
111.338402 128.0
111.647324 216.0
111.967201 136.0
112.196877 180.0
112.268562 176.0
112.333946 32.0
112.540764 100.0
112.602005 176.0
112.752007 148.0
112.800613 156.0
112.872498 148.0
112.969788 160.0
113.230125 184.0
113.251312 100.0
113.268257 68.0
113.321503 176.0
113.463211 184.0
113.749596 84.0
113.809036 96.0
113.889732 224.0
113.917351 224.0
114.257484 52.0
114.340469 184.0
114.560272 224.0
114.578949 144.0
114.638611 112.0
114.79422 140.0
114.888069 172.0
114.937134 128.0
114.992622 196.0
115.05381 596.0
115.377106 204.0
115.398483 168.0
115.527229 220.0
115.710846 144.0
116.002197 204.0
116.059738 376.0
116.109398 156.0
116.135139 172.0
116.19091 132.0
116.250984 120.0
116.306786 176.0
116.341133 192.0
116.390213 260.0
116.425407 128.0
116.537201 204.0
116.67411 192.0
116.942993 128.0
117.061195 692.0
117.070816 348.0
117.113083 116.0
117.291924 148.0
117.535675 152.0
117.637054 164.0
117.831413 164.0
118.071342 92.0
118.099457 52.0
118.194649 204.0
118.261734 200.0
118.352654 136.0
118.66465 192.0
118.757896 96.0
118.894577 168.0
119.048706 408.0
119.070427 100.0
119.442085 164.0
119.699196 144.0
119.931999 160.0
119.984314 132.0
120.045364 172.0
120.080772 3276.0
120.113998 160.0
120.150055 92.0
120.44912 88.0
120.59333 156.0
120.746368 180.0
120.763863 44.0
121.015518 176.0
121.048363 136.0
121.082497 372.0
121.25209 128.0
121.383621 144.0
121.398972 80.0
121.418709 240.0
121.697388 196.0
121.752289 88.0
122.158905 176.0
122.185303 204.0
122.268913 48.0
122.522133 160.0
122.616882 148.0
123.013901 128.0
123.086754 140.0
123.420403 192.0
123.484528 160.0
123.524345 264.0
123.564163 172.0
123.805428 200.0
124.134087 244.0
124.173317 96.0
124.244293 136.0
124.306419 100.0
124.43071 192.0
124.448479 204.0
124.71727 144.0
124.819534 164.0
125.106544 152.0
125.344856 184.0
125.541016 72.0
125.911469 156.0
126.253395 160.0
126.374184 132.0
126.604736 156.0
126.687607 176.0
126.739136 180.0
126.862404 104.0
126.905266 172.0
126.949844 188.0
127.021614 216.0
127.070969 224.0
127.158478 196.0
127.708931 160.0
127.724678 104.0
127.762917 128.0
128.20874 224.0
128.558273 84.0
128.632751 196.0
128.720154 124.0
128.887955 184.0
128.951233 156.0
129.021301 132.0
129.125076 176.0
129.193176 116.0
129.251999 192.0
129.313095 200.0
129.591629 152.0
129.64827 156.0
129.745743 168.0
129.781677 188.0
129.884064 128.0
129.911285 144.0
129.999771 180.0
130.03006 104.0
130.034897 184.0
130.06546 23180.0
130.131424 84.0
130.172287 56.0
130.210892 32.0
130.247238 164.0
130.281891 124.0
130.446762 124.0
130.490387 52.0
130.576797 156.0
130.617737 152.0
130.669495 80.0
130.677795 60.0
130.682404 104.0
130.756531 216.0
130.778427 96.0
130.817978 100.0
130.874283 104.0
131.049988 488.0
131.068405 3360.0
131.162003 128.0
131.187012 32.0
131.305588 184.0
131.394547 32.0
131.472122 96.0
131.604507 152.0
131.78038 32.0
131.919785 120.0
131.935791 240.0
131.983795 128.0
132.00209 128.0
132.052002 136.0
132.081573 14196.0
132.163254 252.0
132.215302 140.0
132.304108 76.0
132.430038 72.0
132.455246 112.0
132.475861 88.0
132.529343 104.0
132.558334 188.0
132.952759 200.0
132.99408 68.0
133.083847 1956.0
133.350067 108.0
133.446625 60.0
133.73877 76.0
133.914658 148.0
134.022018 148.0
134.087097 236.0
134.217941 184.0
134.259445 144.0
134.363251 124.0
134.529404 36.0
134.825043 180.0
134.968369 88.0
135.019241 260.0
135.06781 116.0
135.431198 156.0
135.48912 176.0
135.519226 192.0
135.7603 152.0
135.799728 48.0
136.549896 128.0
136.582458 84.0
136.985153 76.0
137.241516 204.0
137.379105 172.0
137.495773 140.0
137.652176 136.0
137.768951 100.0
137.878769 116.0
137.979279 44.0
138.40979 200.0
138.580765 212.0
139.298645 200.0
139.352676 180.0
139.540695 160.0
139.606522 116.0
139.721786 156.0
139.900635 172.0
139.959488 164.0
140.650238 196.0
140.695084 160.0
140.829681 188.0
140.992691 152.0
141.314285 76.0
141.348709 188.0
141.894531 136.0
142.069275 408.0
142.212387 156.0
142.718384 116.0
142.757751 212.0
142.776489 148.0
142.882492 176.0
143.067612 148.0
143.132401 52.0
143.151459 124.0
143.239578 60.0
143.470718 108.0
143.659439 144.0
143.735458 168.0
143.76886 260.0
143.845245 180.0
143.890594 144.0
143.969391 164.0
144.038651 44.0
144.080841 2400.0
144.165283 184.0
144.318268 168.0
144.466537 52.0
144.643616 108.0
144.693893 160.0
144.928604 48.0
145.083328 732.0
145.137131 136.0
145.161102 124.0
145.597855 164.0
145.703552 112.0
145.828491 168.0
145.859741 132.0
145.93187 148.0
146.059814 412.0
146.319214 172.0
147.204086 216.0
147.421494 140.0
147.576187 180.0
148.014145 216.0
148.048035 76.0
148.074677 216.0
148.346054 108.0
148.447876 116.0
148.554596 112.0
148.600693 144.0
148.695328 100.0
149.062027 464.0
149.261337 168.0
149.368347 196.0
149.550842 144.0
150.059967 180.0
150.264832 124.0
150.36731 160.0
150.606583 160.0
150.677429 176.0
150.838715 44.0
150.973175 112.0
151.310837 160.0
151.472458 148.0
151.548416 180.0
151.621918 184.0
151.78862 92.0
151.88916 168.0
152.051102 80.0
152.097733 196.0
152.149277 184.0
152.598877 124.0
152.719376 88.0
152.756271 108.0
152.901428 176.0
153.500046 96.0
153.909653 88.0
154.339584 188.0
154.822113 88.0
154.859253 112.0
154.963303 168.0
155.052505 136.0
155.255783 76.0
155.578339 216.0
155.764587 100.0
155.846573 172.0
156.086777 348.0
156.154816 172.0
156.216995 208.0
156.23938 140.0
156.398636 36.0
156.869415 128.0
156.941711 220.0
156.966644 160.0
157.208618 88.0
157.33342 208.0
157.70311 160.0
157.825592 120.0
157.918121 188.0
158.003174 100.0
158.060287 11820.0
158.094009 172.0
158.140076 56.0
158.217087 92.0
158.30603 40.0
158.326065 52.0
158.468842 208.0
158.488876 52.0
158.614182 140.0
158.634247 112.0
158.724503 268.0
158.784683 88.0
158.819794 128.0
159.064056 1932.0
159.099915 152.0
159.135986 76.0
159.20134 136.0
159.266571 76.0
159.286667 188.0
159.372086 236.0
159.540466 100.0
159.756729 40.0
159.839752 52.0
159.890091 204.0
159.91777 88.0
160.029449 120.0
160.07457 628.0
160.119186 112.0
160.156967 172.0
160.242401 220.0
160.29451 300.0
160.304321 180.0
160.313507 208.0
160.350967 56.0
160.386246 168.0
160.428101 160.0
160.845322 244.0
160.89328 96.0
161.037216 84.0
161.079422 168.0
161.444107 192.0
161.476974 200.0
162.023727 204.0
162.117477 188.0
162.589157 88.0
163.127197 128.0
163.50914 184.0
164.064423 56.0
164.792068 168.0
165.710266 212.0
165.74614 72.0
166.081711 504.0
166.130707 192.0
166.179443 176.0
166.448944 152.0
166.523422 180.0
166.597916 152.0
166.770081 180.0
166.852325 108.0
166.960327 112.0
167.0867 240.0
167.480209 188.0
167.75592 100.0
167.779129 140.0
167.988007 200.0
168.499146 116.0
168.760193 116.0
168.801559 180.0
169.080948 160.0
169.212952 220.0
169.368332 132.0
169.938644 152.0
170.063202 148.0
170.117706 256.0
170.333237 52.0
170.361816 264.0
170.603485 204.0
170.712692 128.0
170.754303 136.0
170.863541 164.0
171.235779 220.0
171.319122 52.0
171.566696 148.0
171.603195 132.0
171.626663 172.0
171.728363 176.0
171.793579 172.0
172.025818 184.0
172.070206 160.0
172.658112 136.0
172.7052 140.0
173.027054 136.0
173.212982 152.0
173.496002 60.0
174.046951 148.0
174.097092 208.0
174.625092 116.0
174.714523 188.0
174.832916 132.0
175.085571 5056.0
175.18837 28.0
175.414993 108.0
175.618027 144.0
175.649673 160.0
175.749924 144.0
175.858124 152.0
175.992752 140.0
176.01915 40.0
176.089523 484.0
176.20932 136.0
176.330872 188.0
176.394318 124.0
176.980667 156.0
177.016037 136.0
177.093857 152.0
177.190857 36.0
177.24263 244.0
177.323349 96.0
177.416122 228.0
177.461182 92.0
177.768875 76.0
177.914856 220.0
178.18042 196.0
178.568512 188.0
178.627533 148.0
179.401932 80.0
179.540573 128.0
179.575256 176.0
180.288071 236.0
180.651688 148.0
180.838989 164.0
181.385391 212.0
181.487274 196.0
181.951416 72.0
182.058823 172.0
182.214615 224.0
182.410782 124.0
182.946091 64.0
182.978409 148.0
183.061874 88.0
183.333954 124.0
183.77887 188.0
183.803146 140.0
184.024155 168.0
184.067673 296.0
184.210815 56.0
184.448608 180.0
184.610825 184.0
185.069916 884.0
185.287491 40.0
185.374191 52.0
185.409424 168.0
185.615448 144.0
185.672394 40.0
186.091278 800.0
186.319061 76.0
186.428925 124.0
186.625519 132.0
186.764206 184.0
186.832214 180.0
186.998199 96.0
187.017242 180.0
187.037766 96.0
187.08725 49096.0
187.143509 156.0
187.186035 84.0
187.262283 64.0
187.316757 148.0
187.34108 108.0
187.373962 188.0
187.409378 56.0
187.439713 92.0
187.471634 52.0
187.512939 112.0
187.546036 88.0
187.591644 64.0
187.656815 200.0
187.697281 132.0
187.741943 28.0
187.7883 96.0
187.844162 92.0
187.976532 44.0
188.012009 80.0
188.089279 4864.0
188.122665 184.0
188.181244 196.0
188.227661 168.0
188.249512 108.0
188.306854 92.0
188.366943 36.0
188.407928 80.0
188.459839 80.0
188.487152 40.0
188.681213 104.0
188.738632 184.0
188.779648 68.0
188.903671 80.0
188.960175 48.0
189.012146 32.0
189.088959 736.0
189.182831 132.0
189.2229 44.0
189.370773 92.0
189.393723 132.0
189.481705 120.0
189.524185 116.0
189.557053 48.0
189.589691 44.0
189.598984 40.0
189.631058 160.0
189.813736 232.0
190.095673 288.0
190.141174 76.0
190.207047 48.0
190.333328 120.0
190.572281 120.0
191.069916 152.0
191.116684 108.0
191.49881 64.0
191.66185 60.0
191.813431 224.0
192.641266 144.0
192.959061 152.0
193.006073 140.0
193.515167 120.0
193.578857 188.0
194.002762 136.0
194.266205 216.0
194.58812 180.0
194.699188 48.0
194.851959 160.0
195.611145 156.0
196.37738 52.0
196.494537 120.0
196.846222 160.0
197.10321 176.0
197.245743 128.0
198.116013 100.0
198.404663 64.0
198.575699 104.0
199.027496 100.0
199.089844 160.0
199.707565 108.0
200.149399 132.0
200.245132 140.0
200.498688 128.0
200.639633 116.0
200.828552 72.0
200.963959 40.0
201.028854 84.0
201.064865 428.0
201.099823 1064.0
201.16716 100.0
201.20668 52.0
202.109543 368.0
202.133728 164.0
202.164856 188.0
202.278076 128.0
202.558395 100.0
202.647324 120.0
202.700058 204.0
202.768066 52.0
202.884277 76.0
202.909805 128.0
202.987717 108.0
203.027267 160.0
203.082245 38736.0
203.158646 48.0
203.207596 68.0
203.230286 40.0
203.258667 44.0
203.281357 72.0
203.301224 124.0
203.35144 104.0
203.457336 112.0
203.503235 120.0
203.540619 36.0
203.599304 60.0
203.623489 124.0
203.671906 64.0
203.761215 48.0
203.783936 64.0
203.846451 48.0
203.880554 112.0
203.923172 76.0
203.964005 188.0
203.984634 180.0
204.015915 64.0
204.083878 5796.0
204.127869 64.0
204.170074 80.0
204.204651 64.0
204.233093 48.0
204.275757 52.0
204.320007 72.0
204.346878 180.0
204.446472 72.0
204.500534 100.0
204.611557 48.0
204.634323 44.0
204.699814 56.0
205.055923 36.0
205.084702 328.0
205.241211 44.0
205.262634 124.0
205.326752 196.0
205.383804 132.0
205.449402 104.0
205.51503 56.0
205.54071 120.0
205.572098 116.0
205.61792 204.0
205.646805 92.0
205.669128 164.0
205.711945 132.0
205.740494 76.0
205.760468 100.0
205.823288 112.0
206.291824 116.0
206.348999 124.0
206.369019 68.0
206.689362 232.0
206.952698 64.0
207.17894 116.0
207.307877 44.0
208.415482 36.0
208.892715 128.0
209.802704 132.0
210.140121 68.0
210.307495 220.0
210.402756 188.0
210.723328 108.0
210.911163 148.0
212.358841 136.0
212.663498 152.0
212.974167 68.0
213.029358 172.0
213.099075 196.0
214.092896 120.0
214.189987 164.0
214.265717 100.0
214.347305 196.0
214.805222 176.0
214.872116 152.0
214.895462 160.0
215.032608 100.0
215.081223 9052.0
215.14061 96.0
215.193161 44.0
215.213593 40.0
215.300171 68.0
215.330399 44.0
215.397583 36.0
215.982178 40.0
216.084824 804.0
216.189896 76.0
216.280624 56.0
216.304047 84.0
216.362595 72.0
216.746262 44.0
216.948486 44.0
217.062836 40.0
217.096344 272.0
217.291611 120.0
217.684921 140.0
217.805328 76.0
217.834702 80.0
218.087402 124.0
218.543213 144.0
218.605011 64.0
218.763931 140.0
220.093582 204.0
220.542618 56.0
221.080872 148.0
222.076309 140.0
223.207779 104.0
223.790955 60.0
223.996445 96.0
224.118591 108.0
224.145401 108.0
224.729813 124.0
226.182175 180.0
227.072052 124.0
228.255234 100.0
229.096176 1884.0
229.155182 148.0
229.257629 52.0
229.453552 116.0
229.788315 52.0
230.101776 380.0
230.366211 92.0
230.927567 84.0
231.111664 164.0
232.970123 96.0
233.024811 192.0
233.091141 1228.0
233.87323 136.0
234.090698 316.0
234.287354 164.0
234.924484 92.0
235.104507 76.0
235.816086 76.0
235.935303 128.0
239.6427 136.0
240.035568 140.0
240.564819 100.0
242.237747 60.0
242.339981 60.0
242.591003 136.0
242.637512 132.0
246.318909 120.0
247.263138 80.0
247.757874 60.0
248.1026 136.0
248.174698 116.0
249.521606 268.0
251.212723 88.0
251.383087 40.0
251.477768 160.0
252.340134 164.0
254.094696 160.0
255.075958 136.0
255.108887 168.0
255.887161 112.0
256.030457 144.0
256.106903 152.0
256.18335 132.0
256.237488 124.0
256.537048 168.0
256.696472 124.0
256.785767 200.0
256.808075 240.0
256.881439 132.0
257.0466 204.0
257.09201 23136.0
257.150787 68.0
257.211945 160.0
257.243835 64.0
257.325043 44.0
257.381287 116.0
257.460754 60.0
257.512329 92.0
257.542175 44.0
257.59967 56.0
257.685944 88.0
257.714691 40.0
257.852112 68.0
258.018524 60.0
258.053467 48.0
258.094421 3360.0
258.133423 60.0
258.392487 64.0
258.478882 56.0
258.50769 72.0
258.638885 72.0
258.779755 60.0
258.834167 68.0
259.098358 660.0
259.189728 96.0
259.269836 160.0
259.45575 44.0
259.583984 64.0
259.732025 100.0
259.836029 124.0
259.917603 40.0
259.940063 120.0
260.031219 164.0
260.087677 168.0
260.254608 40.0
260.482635 32.0
260.839294 76.0
260.942169 36.0
261.395691 72.0
266.072601 96.0
268.976318 84.0
270.587952 72.0
273.085114 152.0
275.101685 136.0
275.230438 32.0
275.904419 48.0
276.549469 136.0
277.06601 144.0
278.107239 116.0
282.77002 116.0
288.174988 268.0
288.281982 72.0
289.167786 160.0
297.845581 64.0
324.110168 168.0
328.178925 172.0
331.196411 104.0
342.01181 60.0
344.101959 164.0
345.029236 76.0
347.113739 136.0
350.973389 112.0
353.143066 76.0
373.640076 72.0
376.152618 172.0
376.187347 88.0
387.845398 88.0
389.772308 84.0
396.219238 64.0
397.630859 68.0
399.307434 92.0
420.145874 260.0
421.166382 132.0
421.513641 64.0
422.339447 100.0
433.107117 48.0
437.100891 104.0
453.644867 120.0
457.39566 48.0
457.949188 72.0
461.790405 80.0
466.618805 52.0
485.907074 88.0
507.718353 100.0
514.354675 96.0
516.324585 100.0
520.371033 44.0
538.495972 112.0
547.903015 88.0
570.169617 120.0
579.431396 116.0
592.530884 60.0
606.546143 144.0
607.826172 88.0
613.196228 84.0
626.007446 148.0
634.722107 36.0
662.895752 64.0
686.109924 148.0
687.231262 32.0
694.833191 40.0
700.394836 20.0
703.062561 172.0
722.033936 48.0
736.308044 116.0
784.354736 188.0
784.505249 104.0
798.514771 76.0
799.673767 56.0
803.775391 108.0
818.901245 124.0
829.036072 172.0
832.196655 212.0
844.734558 124.0
854.576111 232.0
860.194031 196.0
864.62439 72.0
866.632874 236.0
867.013733 176.0
869.388794 56.0
872.795776 100.0
898.095276 44.0
899.163269 60.0
911.265076 236.0
916.90332 44.0
935.973206 72.0
943.153625 220.0
943.508179 56.0
948.062012 220.0
951.011963 132.0
982.471863 168.0
984.275574 248.0
990.886658 148.0
1009.947937 128.0
1021.88031 244.0
1025.554565 88.0
1031.10083 132.0
1035.143799 128.0
1063.413208 124.0
1065.731445 196.0
1065.887451 176.0
1070.909546 200.0
1072.232178 220.0
1072.398315 20.0
1073.203491 72.0
1083.117188 196.0
1091.846313 136.0
1092.504028 152.0
1092.701416 256.0
1094.946045 112.0
1111.678101 104.0
1116.82019 48.0
1119.355713 112.0
1119.402344 208.0
1121.86084 108.0
1122.334229 40.0
1123.081055 64.0
1134.173706 192.0
1135.23291 164.0
1145.542969 108.0
1147.8479 76.0
1149.514038 184.0
1150.263184 48.0
1154.49939 224.0
1156.996094 152.0
1166.941895 180.0
1172.414673 72.0
1182.029419 264.0
1189.101685 216.0
1190.797485 156.0
1191.305054 192.0
1192.741821 140.0
1199.335815 184.0
1205.754517 212.0
1205.865112 144.0
1207.054077 36.0
1209.48938 56.0
1213.278442 108.0
1216.018311 204.0
1225.566162 220.0
1226.137451 40.0
1227.190063 204.0
1234.116211 216.0
1235.955688 188.0
1242.969604 208.0
1246.628052 168.0
1249.264648 156.0
1253.81311 44.0
1254.073975 164.0
1262.588379 176.0
1266.884644 196.0
1269.50708 128.0
1272.480103 120.0
1274.269897 152.0
1274.475952 160.0
1274.817017 128.0
1275.342896 208.0
1280.843018 140.0
1290.505615 88.0
1292.064697 192.0
1297.278076 140.0
1297.622192 180.0
1297.930542 168.0
1301.712036 212.0
1306.354858 208.0
1308.045898 204.0
1310.335938 180.0
1311.438477 112.0
1312.101685 188.0
1313.421265 232.0
1313.587158 140.0
1313.904541 156.0
1314.965332 48.0
1318.944946 124.0
1323.227539 148.0
1324.501953 188.0
1324.914917 36.0
1327.125366 248.0
1328.169678 156.0
1329.62793 188.0
1329.867432 216.0
1331.573608 168.0
1332.002197 136.0
1332.968384 180.0
1336.327637 36.0
1337.601196 212.0
1337.943359 160.0
1338.65686 92.0
1339.625488 20.0
1339.800293 196.0
1340.179199 160.0
1343.489136 140.0
1346.058228 152.0
1347.000366 148.0
1348.176636 112.0
1348.249634 128.0
1348.673584 300.0
1351.145142 200.0
1353.890015 156.0
1356.710938 116.0
1357.605469 272.0
1357.840088 176.0
1358.933105 164.0
1360.415527 160.0
1361.546265 52.0
1371.146851 140.0
1372.046143 220.0
1379.857056 196.0
1380.611206 144.0
1380.921753 284.0
1383.008301 228.0
1384.822266 92.0
1386.378052 180.0
1387.897583 156.0
1389.751831 128.0
1390.180908 160.0
1392.231079 164.0
1393.025879 144.0
1393.887695 160.0
1394.06604 88.0
1394.831543 152.0
1395.017334 80.0
1395.896851 68.0
1397.225952 200.0
1398.788696 160.0
1401.596436 84.0
1405.578125 176.0
1409.670166 160.0
1410.036255 184.0
1410.088623 232.0
1411.217407 188.0
1411.688477 152.0
1412.802856 176.0
1414.928223 136.0
1417.677124 208.0
1417.976807 160.0
1422.199463 196.0
1423.333008 128.0
1426.322998 180.0
1426.428223 192.0
1428.0448 164.0
1430.987183 32.0
1431.295776 220.0
1431.87561 212.0
1433.766602 132.0
1435.477783 200.0
1435.952881 188.0
1439.431885 168.0
1443.270386 196.0
1446.856567 192.0
1447.393921 168.0
1448.893677 168.0
1449.992432 52.0
1452.350342 208.0
1453.450317 132.0
1453.503418 168.0
1456.304688 148.0
1457.239014 168.0
1457.801392 168.0
1462.242554 200.0
1467.445312 160.0
1469.115479 132.0
1471.19873 152.0
1473.971191 44.0
1475.637329 132.0
1475.858398 204.0
1476.164917 152.0
1477.388672 168.0
1477.993042 164.0
1478.375732 192.0
1485.501099 196.0
1487.703491 124.0
1489.331299 48.0
1489.446533 144.0
1489.945923 204.0
1492.881958 244.0
1493.581909 156.0
1494.081909 120.0
1494.758911 136.0
1495.243774 152.0
1501.630493 116.0
1502.370972 208.0
1503.503906 164.0
