>compound MLS002153177-01!5,6-Dichlorobenzimidazole 1-beta-D-ribofuranoside53-85-0
>formula C12H12Cl2N2O4
>ionization [M+H]+
>parentmass 319.02468867609053
#inchi InChI=1S/C12H12Cl2N2O4/c13-5-1-7-8(2-6(5)14)16(4-15-7)12-11(19)10(18)9(3-17)20-12/h1-2,4,9-12,17-19H,3H2/t9-,10-,11-,12-/m1/s1
#inchikey XHSQDZXAVJRBMX
#Ion_Source LC-ESI
#Instrument qTof
#Compound_Source NIH Pharmacologically Active Library
#PI Dorrestein
#Data_Collector VP/LMS
#Scan -1
#Precursor_MZ 319.022
#ExactMass 318.017
#Charge 1
#CAS_Number N/A
#Pubmed_ID N/A
#Smiles OC[C@H]1O[C@H]([C@H](O)[C@@H]1O)n2cnc3cc(Cl)c(Cl)cc23
#INCHI_AUX N/A
#Library_Class 1
#SpectrumID CCMSLIB00000085973
#IonMode Positive
#UpdateWorkflowName UPDATE-SINGLE-ANNOTATED-GOLD
#LibraryQualityString Gold
#TaskID d252d724072548979f1f6f1ced849daf
##Scan# 1454
#SpectrumFile p4-H10_GH10_01_18418.mzXML
#LibraryName Pharm_Active_Library.mgf
#MQScore -1
#Organism Pharm_Active_Library
#TIC_Query 0
#RT_Query -1
#MZErrorPPM -1
#SharedPeaks 0
#MassDiff 0
#LibMZ -1
#SpecMZ 319.022
#SpecCharge 0
#internalFilename spec-00000.mgf

>collision 10
44.910854 68.0
44.949543 116.0
44.964222 64.0
45.083084 152.0
45.271713 164.0
45.382935 176.0
45.447319 40.0
45.496979 152.0
45.514435 152.0
45.549351 168.0
45.664948 204.0
45.71069 48.0
45.78204 164.0
45.850746 52.0
45.92625 228.0
46.17342 204.0
46.238361 228.0
46.307411 176.0
46.40905 196.0
46.479584 152.0
46.502655 48.0
46.638481 204.0
46.732315 68.0
46.909367 148.0
46.923 108.0
46.973457 156.0
47.019852 176.0
47.198811 160.0
47.238472 128.0
47.271309 116.0
47.365593 148.0
47.490513 220.0
47.508347 140.0
47.710125 160.0
47.853313 88.0
47.927692 180.0
47.942848 132.0
47.953876 132.0
47.986961 248.0
48.424583 176.0
48.494301 140.0
48.549759 276.0
48.567791 172.0
48.610798 168.0
48.621902 180.0
48.742722 212.0
48.945808 160.0
49.061188 288.0
49.170254 220.0
49.220512 156.0
49.235874 168.0
49.386822 128.0
49.563217 132.0
49.573029 168.0
49.606667 176.0
49.646278 192.0
49.775032 188.0
49.849483 168.0
49.888836 128.0
50.143616 156.0
50.181679 140.0
50.269131 212.0
50.345364 136.0
50.363724 196.0
50.423069 100.0
50.495174 148.0
50.505074 192.0
50.526295 116.0
50.687706 176.0
50.733063 92.0
50.774185 108.0
50.887707 136.0
50.931732 200.0
51.026943 164.0
51.26038 160.0
51.375874 128.0
51.540066 136.0
51.564358 132.0
51.58437 184.0
51.614128 128.0
51.733147 160.0
51.896477 148.0
52.002632 116.0
52.014118 72.0
52.084476 160.0
52.186512 188.0
52.392326 40.0
52.578339 140.0
52.812401 200.0
52.973076 56.0
53.073078 228.0
53.118038 160.0
53.145603 168.0
53.192043 60.0
53.389648 156.0
53.47694 52.0
53.571331 224.0
53.682365 272.0
53.696949 44.0
53.72612 240.0
53.739254 108.0
53.752384 196.0
53.829754 116.0
54.015369 160.0
54.051945 160.0
54.196911 136.0
54.337669 152.0
54.367016 144.0
54.406647 152.0
54.544735 148.0
54.580021 116.0
54.653568 88.0
54.721272 208.0
54.758087 124.0
54.864182 172.0
55.069298 96.0
55.107704 212.0
55.294029 184.0
55.373981 132.0
55.394718 164.0
55.419186 216.0
55.445095 180.0
55.581528 40.0
55.727043 136.0
55.820686 76.0
55.954899 160.0
55.96949 144.0
56.100605 104.0
56.5173 120.0
56.776459 144.0
56.875484 216.0
56.994129 108.0
57.015167 184.0
57.117409 124.0
57.237808 172.0
57.655449 184.0
57.714634 172.0
57.756981 152.0
57.857891 164.0
57.935608 144.0
58.021992 192.0
58.069664 264.0
58.196476 32.0
58.242512 204.0
58.302807 136.0
58.453362 172.0
58.489887 180.0
58.76268 68.0
58.814564 124.0
58.864948 140.0
58.883274 152.0
58.973419 160.0
58.987175 80.0
59.129425 112.0
59.218227 108.0
59.25959 168.0
59.27338 180.0
59.325489 284.0
59.621735 140.0
59.654011 148.0
59.758591 140.0
59.829388 176.0
60.213345 84.0
60.281319 132.0
60.310684 216.0
60.538116 60.0
60.849789 104.0
60.995819 144.0
61.079788 132.0
61.163818 168.0
61.207409 104.0
61.218311 156.0
61.341396 172.0
61.509869 128.0
61.714531 100.0
61.947723 192.0
62.041752 116.0
62.167233 140.0
62.17979 104.0
62.259857 144.0
62.355694 132.0
62.539719 156.0
62.635769 148.0
62.651524 64.0
62.672005 88.0
62.903538 188.0
63.094994 176.0
63.216789 192.0
63.329197 52.0
63.425854 240.0
63.451218 216.0
63.525753 96.0
63.546379 184.0
63.62891 52.0
63.892735 168.0
63.964348 108.0
64.139565 188.0
64.447578 192.0
64.503517 128.0
64.546684 176.0
64.559479 180.0
64.660271 156.0
64.990387 144.0
65.04174 232.0
65.137566 196.0
65.16861 200.0
65.202362 84.0
65.223251 164.0
65.277916 264.0
65.289177 148.0
65.424339 88.0
65.440437 236.0
65.525795 148.0
65.572533 140.0
65.695076 144.0
65.767693 92.0
66.06826 160.0
66.2593 200.0
66.30143 72.0
66.463593 172.0
66.772217 200.0
66.817802 172.0
66.900803 132.0
66.944763 156.0
66.987106 136.0
67.254532 148.0
67.506134 144.0
67.602654 136.0
67.625565 160.0
67.748383 140.0
67.774597 212.0
67.82048 148.0
67.849991 140.0
67.892624 152.0
67.904099 224.0
68.032089 84.0
68.594704 156.0
68.671562 144.0
68.746445 132.0
68.776146 164.0
68.828979 144.0
68.900002 64.0
69.068619 116.0
69.277199 156.0
69.494385 164.0
69.640472 176.0
69.786888 188.0
69.86322 156.0
70.279739 112.0
70.314789 132.0
70.428322 152.0
70.717583 168.0
70.8013 200.0
70.957138 40.0
71.082939 48.0
71.124893 192.0
71.200447 176.0
71.484558 200.0
71.57209 160.0
71.58725 140.0
71.668106 164.0
71.804649 168.0
71.82489 140.0
71.841759 172.0
71.889008 120.0
72.176178 52.0
72.230293 196.0
72.270897 180.0
72.443588 124.0
72.718285 168.0
72.906807 48.0
72.947601 128.0
73.390251 88.0
73.480652 120.0
73.569397 212.0
73.687325 160.0
73.764145 160.0
73.83596 144.0
73.858192 148.0
73.880432 204.0
73.96257 52.0
74.041328 196.0
74.1287 132.0
74.404854 108.0
74.432144 184.0
74.57148 44.0
74.889793 84.0
74.993172 80.0
75.112152 160.0
75.625343 192.0
75.793327 240.0
75.87999 44.0
75.895592 164.0
75.90947 152.0
75.935478 132.0
75.983658 124.0
76.137642 176.0
76.225403 100.0
76.279282 144.0
76.35231 196.0
76.378395 140.0
76.524582 136.0
76.630829 204.0
76.773766 120.0
76.929054 52.0
76.981094 204.0
77.072273 108.0
77.128197 208.0
77.350349 152.0
77.401123 56.0
77.450157 92.0
77.467674 176.0
77.481689 96.0
77.499214 160.0
77.813171 176.0
78.067955 188.0
78.15239 252.0
78.201668 152.0
78.217506 52.0
78.257996 176.0
78.397156 156.0
78.480011 156.0
78.584076 108.0
78.665253 144.0
78.698799 72.0
78.735886 160.0
78.801239 188.0
78.825981 136.0
78.859558 92.0
78.962967 140.0
79.153236 164.0
79.231171 188.0
79.351685 176.0
79.461647 164.0
79.928955 172.0
80.123024 132.0
80.171135 112.0
80.197868 244.0
80.367294 168.0
80.383347 132.0
80.479744 164.0
80.597633 172.0
80.930328 64.0
81.022926 148.0
81.039589 160.0
81.169006 100.0
81.331902 200.0
81.565422 180.0
81.587921 128.0
81.606766 128.0
81.642731 172.0
81.742889 208.0
81.792068 132.0
81.910912 216.0
81.972168 124.0
82.033455 176.0
82.490166 132.0
82.510056 200.0
82.699997 112.0
82.747063 132.0
82.763359 160.0
82.808632 152.0
82.939095 192.0
83.134384 220.0
83.289299 208.0
83.327446 120.0
83.361969 144.0
83.432854 144.0
83.549248 176.0
83.654327 200.0
83.711243 252.0
83.758598 164.0
83.774994 112.0
83.793213 160.0
83.931732 108.0
84.006516 112.0
84.092278 124.0
84.170776 164.0
84.357132 192.0
84.428444 108.0
84.45771 140.0
84.52906 116.0
84.582138 180.0
84.737801 188.0
84.811104 100.0
84.866096 116.0
84.921829 220.0
85.110138 152.0
85.216667 112.0
85.244232 272.0
85.580849 188.0
85.619522 144.0
85.676628 104.0
85.908913 60.0
85.942123 164.0
86.190643 168.0
86.436829 244.0
86.502113 168.0
86.735512 216.0
86.837494 128.0
87.017494 124.0
87.149368 80.0
87.169807 44.0
87.201401 192.0
87.245972 172.0
87.456215 184.0
87.554893 144.0
87.594009 160.0
87.711403 184.0
87.752419 152.0
87.784119 144.0
87.797173 100.0
88.069664 120.0
88.101425 148.0
88.237854 92.0
88.30143 124.0
88.320137 80.0
88.338844 172.0
88.421173 136.0
88.846527 240.0
89.025261 216.0
89.05114 108.0
89.096222 128.0
89.265381 176.0
89.323685 204.0
89.384262 204.0
89.47612 124.0
89.519432 164.0
89.613609 256.0
89.673912 200.0
89.702187 88.0
89.813438 144.0
89.896454 248.0
89.945526 28.0
90.08149 136.0
90.135681 176.0
90.162735 72.0
90.23835 152.0
90.378319 208.0
90.408592 156.0
90.447243 76.0
90.525124 216.0
90.616882 108.0
90.64341 184.0
90.711647 180.0
90.730598 96.0
90.768524 44.0
91.033752 104.0
91.091171 176.0
91.106369 216.0
91.188301 172.0
91.203094 140.0
91.209579 128.0
91.21524 180.0
91.277252 172.0
91.40107 108.0
91.500046 232.0
91.694206 224.0
91.814453 304.0
91.976631 208.0
92.058731 156.0
92.221123 156.0
92.301422 204.0
92.37027 96.0
92.412361 220.0
92.481255 172.0
92.532944 124.0
92.557831 268.0
92.582726 128.0
92.969986 136.0
93.252304 156.0
93.373436 144.0
93.408058 112.0
93.510033 144.0
93.671776 140.0
93.759605 180.0
93.808594 52.0
93.837517 128.0
94.094116 116.0
94.414886 304.0
94.438095 196.0
94.596764 100.0
94.625801 148.0
94.931961 152.0
94.972687 256.0
95.04641 100.0
95.168694 128.0
95.186172 184.0
95.207535 140.0
95.300774 120.0
95.347412 124.0
95.475723 172.0
95.777405 180.0
95.855339 220.0
96.00544 172.0
96.019943 192.0
96.348984 156.0
96.370476 144.0
96.460373 156.0
96.599525 224.0
96.638802 120.0
96.646538 148.0
96.674568 164.0
96.745987 212.0
96.9105 120.0
96.939896 208.0
96.983582 152.0
97.031204 496.0
97.086922 112.0
97.179115 48.0
97.21051 104.0
97.444176 164.0
97.4599 192.0
97.536545 140.0
97.896919 120.0
97.969467 212.0
97.991142 108.0
98.004936 180.0
98.16066 92.0
98.401382 132.0
98.511978 196.0
98.644379 88.0
98.889656 196.0
98.927261 68.0
98.968842 192.0
98.982704 164.0
98.997711 260.0
99.030235 156.0
99.054001 92.0
99.085701 176.0
99.25219 64.0
99.395012 120.0
99.517487 268.0
99.56176 172.0
99.83403 64.0
99.971298 180.0
99.993935 284.0
100.040962 152.0
100.242126 80.0
100.299927 220.0
100.335335 168.0
100.379669 76.0
100.405594 108.0
100.495361 160.0
100.52729 148.0
100.625099 180.0
100.673019 152.0
100.796875 124.0
100.910805 120.0
100.944801 172.0
100.984802 164.0
101.136864 180.0
101.154877 132.0
101.232964 216.0
101.283035 172.0
101.34314 220.0
101.496651 204.0
101.539589 192.0
101.945129 96.0
101.989342 176.0
102.268929 144.0
102.291077 208.0
102.389732 152.0
102.506577 200.0
102.625504 176.0
102.978661 156.0
103.041512 212.0
103.253532 164.0
103.31826 80.0
103.362778 156.0
103.45993 204.0
103.735443 152.0
103.846962 128.0
103.91188 288.0
103.962608 172.0
104.078316 224.0
104.277405 200.0
104.584526 100.0
104.682251 104.0
104.802437 128.0
104.959389 148.0
105.032806 128.0
105.22464 128.0
105.341049 96.0
105.359428 180.0
105.385284 228.0
105.848267 180.0
105.889229 152.0
105.921997 48.0
105.93634 132.0
106.114639 124.0
106.239746 188.0
106.278725 156.0
106.433174 164.0
106.500443 148.0
106.53331 132.0
106.665932 176.0
106.701836 152.0
106.792313 220.0
106.83757 172.0
106.853783 200.0
106.946632 124.0
107.026924 220.0
107.121658 208.0
107.278275 128.0
107.39994 152.0
107.459763 108.0
107.519608 188.0
107.690224 176.0
107.721954 52.0
107.738487 96.0
107.812874 36.0
107.883148 140.0
108.129295 256.0
108.228615 180.0
108.255585 128.0
108.270081 80.0
108.33429 204.0
108.421318 164.0
108.454475 44.0
108.649406 200.0
108.84243 196.0
109.02108 100.0
109.100067 204.0
109.206116 136.0
109.418373 200.0
109.453773 172.0
109.69545 132.0
109.730896 156.0
109.770508 72.0
109.878975 136.0
109.983315 184.0
110.100235 136.0
110.190056 128.0
110.252747 84.0
110.325905 60.0
110.399086 112.0
110.593658 132.0
110.815643 124.0
110.882698 168.0
110.930908 188.0
111.258209 224.0
111.279167 88.0
111.354767 188.0
111.508141 88.0
111.837509 148.0
111.897301 48.0
111.954155 176.0
111.992065 164.0
112.217552 188.0
112.318779 136.0
112.652306 100.0
112.804459 164.0
112.904808 148.0
112.982101 180.0
113.090019 124.0
113.361107 204.0
113.759857 228.0
113.808685 92.0
113.832047 136.0
113.910629 88.0
113.967995 152.0
114.023247 200.0
114.138039 132.0
114.308212 60.0
114.323112 100.0
114.338005 180.0
114.357162 184.0
114.555191 204.0
114.574364 244.0
114.796043 148.0
114.911224 156.0
115.038704 840.0
115.131088 128.0
115.188759 180.0
115.248573 240.0
115.276352 156.0
115.344101 176.0
115.415298 192.0
115.562431 168.0
115.702003 136.0
116.034035 212.0
116.235115 248.0
116.351234 184.0
116.452538 244.0
116.489052 224.0
116.648071 176.0
116.830864 156.0
116.95137 124.0
117.043892 172.0
117.151627 160.0
117.174019 236.0
117.291702 124.0
117.384407 184.0
117.453423 100.0
117.53756 160.0
117.623894 108.0
117.870102 188.0
118.073311 160.0
118.231247 236.0
118.306999 204.0
118.525757 88.0
118.592941 212.0
118.608109 116.0
118.8228 136.0
118.992088 112.0
119.02285 600.0
119.115875 176.0
119.187576 112.0
119.252769 132.0
119.544197 220.0
119.600784 88.0
119.648674 68.0
119.670448 172.0
119.8703 160.0
120.176117 200.0
120.398773 120.0
120.529846 68.0
120.647873 120.0
120.959991 160.0
121.092079 136.0
121.175316 180.0
121.276123 176.0
121.295853 124.0
121.396706 152.0
121.669662 100.0
121.857666 84.0
122.167656 104.0
122.246864 108.0
122.411972 184.0
122.460419 184.0
122.60363 112.0
122.674164 108.0
122.69841 136.0
122.775589 72.0
122.81749 244.0
122.88147 156.0
122.910149 80.0
123.106613 60.0
123.303238 72.0
123.623909 100.0
123.747871 176.0
123.772224 36.0
123.969383 152.0
123.995689 2072.0
124.027 196.0
124.095726 136.0
124.254662 224.0
124.326424 108.0
124.750664 44.0
124.777344 148.0
124.792908 172.0
124.850723 64.0
125.000435 540.0
125.22908 264.0
125.244667 208.0
125.269173 176.0
125.393951 120.0
125.616928 52.0
125.666008 96.0
125.686089 244.0
125.755272 264.0
125.993462 336.0
126.152161 136.0
126.208771 164.0
126.235611 172.0
126.401146 124.0
126.598137 136.0
126.643829 160.0
126.750465 80.0
126.768394 40.0
127.003044 400.0
127.075592 184.0
127.149643 72.0
127.63488 148.0
127.745079 200.0
127.763077 104.0
127.778831 116.0
127.830582 192.0
127.911606 144.0
127.99057 168.0
128.114273 88.0
128.184128 148.0
128.206665 188.0
128.294571 32.0
128.330643 132.0
128.443405 160.0
128.793274 104.0
128.96048 136.0
129.202438 132.0
129.372177 60.0
129.406128 184.0
129.560135 136.0
129.761841 216.0
129.965515 156.0
129.981857 104.0
130.011368 184.0
130.515671 152.0
130.713562 116.0
130.802322 128.0
130.836472 168.0
130.948059 176.0
131.257996 92.0
131.299042 124.0
131.445038 188.0
131.522629 184.0
131.88353 152.0
131.963547 148.0
132.066452 148.0
132.306732 72.0
132.341064 200.0
132.396027 120.0
132.606812 128.0
132.748947 52.0
132.776474 156.0
132.792526 192.0
132.863632 156.0
132.954407 152.0
133.010498 72.0
133.052261 664.0
133.279205 248.0
133.490692 140.0
133.532089 208.0
133.619492 160.0
133.732254 104.0
133.831238 164.0
133.90033 148.0
133.930267 180.0
133.951004 168.0
134.042511 140.0
134.066208 184.0
134.121521 112.0
134.206818 168.0
134.252945 180.0
134.326752 188.0
134.515976 72.0
134.545975 172.0
134.623016 184.0
134.834717 108.0
134.957123 192.0
135.079819 180.0
135.107071 184.0
135.146912 180.0
135.255676 244.0
135.510422 180.0
135.626297 140.0
135.698151 172.0
135.932434 232.0
136.034561 128.0
136.129745 116.0
136.475983 212.0
136.771439 156.0
136.904144 76.0
136.948395 104.0
137.284012 124.0
137.349319 188.0
137.615356 40.0
137.65506 148.0
137.701767 76.0
137.989182 224.0
138.010239 52.0
138.21373 104.0
138.230118 92.0
138.384598 112.0
138.403336 40.0
138.431427 112.0
138.513397 244.0
138.5298 72.0
138.832169 56.0
138.884201 192.0
138.914261 152.0
138.97525 156.0
139.026886 76.0
139.052231 184.0
139.09964 164.0
139.141891 136.0
139.273407 108.0
139.325089 136.0
139.367371 132.0
139.470779 160.0
139.550705 224.0
139.722397 188.0
139.992569 92.0
140.016632 140.0
140.184387 136.0
140.304108 168.0
140.587158 180.0
140.679214 40.0
140.768936 160.0
140.825623 148.0
141.01123 192.0
141.173035 148.0
141.258179 196.0
141.340988 176.0
141.390686 204.0
141.426193 224.0
141.596664 132.0
141.628159 200.0
141.779083 84.0
141.79805 248.0
141.990082 168.0
142.009064 72.0
142.02803 132.0
142.111069 116.0
142.144287 152.0
142.336563 204.0
142.861832 120.0
142.91655 144.0
143.035538 180.0
143.076019 136.0
143.495331 112.0
143.698059 144.0
143.87706 156.0
143.996445 196.0
144.149353 152.0
144.591766 144.0
144.773727 184.0
144.946198 128.0
144.965363 52.0
145.173935 200.0
145.578857 136.0
145.860611 164.0
145.9207 124.0
145.961578 156.0
146.110703 216.0
146.14679 224.0
146.228622 160.0
146.377884 156.0
146.45253 220.0
146.489746 188.0
147.019119 296.0
147.27504 40.0
147.616501 184.0
147.719818 152.0
147.993286 188.0
148.034454 188.0
148.206436 164.0
148.25975 192.0
148.473099 84.0
148.810394 152.0
149.077591 184.0
149.330429 180.0
149.47641 152.0
149.54454 192.0
149.568893 180.0
149.707672 160.0
149.880615 120.0
149.998367 380.0
150.100006 204.0
150.153656 156.0
150.21463 244.0
150.51239 212.0
150.539246 160.0
150.561234 124.0
150.578323 132.0
150.732224 188.0
150.819168 188.0
150.864212 164.0
150.968353 196.0
151.00563 2940.0
151.427017 176.0
151.569107 124.0
151.647522 152.0
151.679382 128.0
151.770096 116.0
151.81424 108.0
151.964157 188.0
152.014343 17956.0
152.049301 336.0
152.145493 184.0
152.187225 68.0
152.208008 56.0
152.238785 52.0
152.3302 184.0
152.364059 144.0
152.413208 76.0
152.452515 60.0
152.479782 168.0
152.523788 156.0
152.555756 56.0
152.657608 140.0
152.667709 60.0
152.675369 172.0
152.754944 232.0
152.789383 80.0
152.841049 60.0
152.978882 64.0
153.010925 696.0
153.163559 148.0
153.225159 52.0
153.336044 160.0
153.353287 180.0
153.370544 160.0
153.434647 52.0
153.723526 168.0
153.896011 164.0
153.976135 108.0
154.010513 3148.0
154.073853 80.0
154.157852 84.0
154.274017 128.0
154.575775 160.0
154.662399 164.0
154.994659 284.0
155.015762 564.0
155.197144 188.0
155.348801 200.0
155.398422 428.0
155.445557 68.0
156.009369 216.0
156.031754 144.0
156.198364 148.0
156.265305 164.0
156.41983 216.0
156.45163 192.0
156.599121 200.0
156.693771 136.0
156.743607 96.0
156.78598 260.0
156.823364 132.0
157.000381 156.0
157.077698 120.0
157.107925 200.0
157.347214 136.0
157.482071 160.0
157.786942 76.0
157.819443 152.0
158.042053 184.0
158.077087 168.0
158.267319 172.0
158.324921 60.0
158.385025 212.0
158.402573 112.0
158.520325 152.0
158.582977 32.0
158.786057 212.0
159.006851 56.0
159.092194 88.0
159.200165 148.0
159.257919 184.0
159.375992 160.0
159.401123 212.0
159.587128 160.0
159.765701 140.0
159.972366 860.0
160.201233 160.0
160.352417 68.0
160.475937 72.0
160.821548 92.0
161.127106 124.0
161.402603 60.0
161.610016 56.0
161.693527 212.0
161.967178 512.0
162.075912 44.0
162.10379 172.0
162.124054 184.0
162.227982 184.0
162.352219 32.0
162.385193 128.0
162.593231 180.0
162.836975 152.0
162.864914 192.0
163.078339 80.0
163.09613 52.0
163.309723 152.0
163.775513 44.0
163.808624 96.0
163.828262 164.0
164.147598 104.0
164.249619 256.0
164.321045 112.0
164.39505 144.0
164.440994 104.0
164.654434 120.0
164.775513 132.0
164.951843 88.0
165.056671 180.0
166.011841 128.0
166.055862 120.0
166.093903 220.0
166.41983 176.0
166.486603 128.0
166.559448 224.0
166.640732 112.0
166.722946 224.0
166.800064 136.0
166.998596 544.0
167.116394 92.0
167.250214 80.0
167.410339 204.0
167.765411 160.0
168.062012 128.0
168.090393 96.0
168.261383 224.0
168.503525 96.0
168.557114 156.0
168.583618 92.0
168.624969 116.0
168.793015 60.0
168.849899 172.0
168.968887 164.0
169.016418 832.0
169.408997 104.0
169.533371 108.0
169.771881 88.0
170.00795 144.0
170.140335 76.0
170.314316 56.0
170.335098 200.0
170.618362 128.0
171.011154 164.0
171.279343 188.0
171.446091 228.0
171.546448 196.0
171.858109 244.0
172.116516 36.0
172.184418 124.0
172.346375 248.0
172.424774 204.0
172.597321 108.0
172.691467 140.0
172.817032 152.0
172.885071 148.0
173.099731 136.0
173.445557 116.0
173.518967 228.0
173.545181 176.0
173.84581 204.0
174.05423 184.0
174.222321 64.0
174.240707 80.0
174.261734 196.0
174.395752 152.0
174.619232 184.0
174.671844 156.0
175.095612 188.0
175.23259 144.0
175.290558 60.0
175.754654 48.0
175.873413 124.0
176.15596 212.0
176.235214 216.0
176.444016 164.0
176.557709 128.0
176.803757 192.0
176.891098 164.0
177.010239 104.0
177.304291 96.0
177.34671 124.0
177.367905 176.0
177.423584 184.0
177.566772 148.0
177.858627 228.0
178.613281 160.0
178.735657 124.0
179.01062 2844.0
179.06044 76.0
179.190964 88.0
179.236267 308.0
179.299271 112.0
179.420166 92.0
179.804276 148.0
179.943085 172.0
180.011444 220.0
180.063263 120.0
180.138046 136.0
180.285004 236.0
180.395889 164.0
180.854675 120.0
181.009064 396.0
181.363602 116.0
181.586136 132.0
181.860397 164.0
181.967194 160.0
181.993713 188.0
182.001709 112.0
182.240189 168.0
182.273392 120.0
182.354019 144.0
182.414612 188.0
182.474991 176.0
182.832748 108.0
183.180084 96.0
183.314804 112.0
183.341751 64.0
183.643707 204.0
183.783569 180.0
184.00354 300.0
184.248383 196.0
184.310532 116.0
184.57814 208.0
184.802643 152.0
184.902771 104.0
185.000214 140.0
185.35231 124.0
185.403793 172.0
185.525772 236.0
185.602798 184.0
185.734573 192.0
185.781464 28.0
186.065659 260.0
186.084656 164.0
186.15004 416.0
186.231293 92.0
186.250305 44.0
186.291061 92.0
186.31279 160.0
186.334534 220.0
186.354996 180.0
186.38887 128.0
186.41362 180.0
186.46907 216.0
186.501404 184.0
186.546112 196.0
186.606323 208.0
186.641663 132.0
186.671082 220.0
186.681793 180.0
186.712921 220.0
186.761322 172.0
186.793701 168.0
186.805786 128.0
186.859253 184.0
186.903671 436.0
186.92543 400.0
186.944977 364.0
186.983566 110928.0
187.062164 112.0
187.09346 72.0
187.106506 52.0
187.128845 156.0
187.18158 68.0
187.199234 148.0
187.238419 96.0
187.279999 188.0
187.329834 116.0
187.357483 52.0
187.394043 124.0
187.43103 764.0
187.494583 76.0
187.53009 116.0
187.56044 84.0
187.589127 44.0
187.610077 128.0
187.631302 76.0
187.688461 108.0
187.711655 68.0
187.715042 172.0
187.73848 72.0
187.769714 140.0
187.845459 148.0
187.872742 44.0
187.935257 144.0
187.985458 8584.0
188.019485 148.0
188.058289 60.0
188.129272 100.0
188.152878 68.0
188.176773 64.0
188.214828 172.0
188.268524 56.0
188.347733 60.0
188.372314 44.0
188.454269 76.0
188.490616 132.0
188.524048 112.0
188.563583 204.0
188.594971 140.0
188.661987 60.0
188.686584 72.0
188.722137 96.0
188.768616 76.0
188.814194 116.0
188.839584 156.0
188.863937 136.0
188.893753 220.0
188.917648 500.0
188.937622 172.0
188.980118 67504.0
189.049194 184.0
189.074463 68.0
189.12529 128.0
189.149185 40.0
189.169205 88.0
189.225128 144.0
189.258698 112.0
189.283066 196.0
189.304459 84.0
189.314484 68.0
189.324341 116.0
189.337265 76.0
189.354416 200.0
189.40387 284.0
189.448608 100.0
189.48526 128.0
189.537018 152.0
189.546753 108.0
189.556396 72.0
189.568436 92.0
189.665695 200.0
189.727417 248.0
189.811935 96.0
189.924881 236.0
189.983093 3536.0
190.042343 64.0
190.086243 152.0
190.123383 64.0
190.147858 80.0
190.174072 44.0
190.19603 72.0
190.248184 116.0
190.319565 72.0
190.40744 148.0
190.426666 28.0
190.448639 96.0
190.467865 52.0
190.520935 76.0
190.577759 88.0
190.643707 76.0
190.673935 56.0
190.715164 80.0
190.737152 48.0
190.770142 60.0
190.85495 52.0
190.937866 84.0
190.978485 376.0
191.017639 112.0
191.048843 116.0
191.121674 108.0
191.166214 76.0
191.193726 104.0
191.246033 44.0
191.283005 120.0
191.30304 120.0
191.348251 148.0
191.383667 92.0
191.428589 116.0
191.474548 100.0
191.511459 100.0
191.560745 96.0
191.59024 80.0
191.857559 80.0
191.912704 56.0
191.932007 96.0
192.141632 92.0
192.268555 124.0
192.597122 96.0
192.635788 104.0
192.655121 96.0
192.843033 56.0
193.454346 80.0
193.487564 80.0
193.515244 84.0
194.327347 96.0
194.61879 104.0
195.138367 60.0
195.171722 160.0
195.216217 76.0
195.235687 48.0
195.711533 100.0
196.062531 116.0
196.148926 44.0
196.547745 80.0
196.785004 116.0
196.868774 68.0
197.184464 48.0
197.609528 64.0
197.934204 56.0
198.085449 68.0
198.791992 100.0
198.811646 88.0
199.020554 76.0
199.975174 56.0
200.290543 52.0
200.329971 72.0
200.60614 40.0
200.696365 100.0
201.156235 60.0
201.6138 68.0
201.712723 128.0
202.106491 140.0
202.907394 60.0
204.945297 92.0
204.988037 132.0
205.193253 104.0
206.283813 128.0
206.641296 124.0
207.962372 124.0
208.39888 240.0
209.074646 104.0
209.771683 52.0
214.867172 44.0
214.975128 44.0
216.152786 40.0
217.97673 140.0
218.032578 124.0
218.116898 104.0
219.180252 152.0
231.643005 76.0
232.049103 136.0
235.100082 160.0
238.539719 84.0
241.066238 252.0
242.751114 40.0
243.123383 40.0
243.88121 60.0
245.528244 132.0
248.521927 68.0
251.710571 40.0
251.87796 64.0
252.63031 112.0
256.255951 92.0
256.84256 48.0
259.067444 172.0
261.057434 184.0
261.30191 80.0
263.064758 84.0
266.73175 56.0
266.803284 64.0
269.969391 120.0
275.075287 96.0
275.580597 72.0
278.927826 80.0
282.20163 84.0
283.68811 48.0
284.493256 84.0
289.906891 72.0
296.885437 124.0
299.676636 92.0
304.169067 116.0
309.156708 104.0
309.758911 52.0
313.307037 68.0
313.511414 120.0
316.885223 180.0
317.087982 108.0
332.605499 44.0
336.778351 44.0
344.329895 84.0
346.167908 48.0
346.312347 32.0
347.710144 152.0
350.991272 128.0
352.06601 108.0
352.723602 108.0
359.703064 40.0
366.312714 104.0
373.159393 116.0
382.59967 72.0
383.869873 68.0
387.140778 72.0
388.956085 64.0
398.767731 56.0
408.753937 44.0
412.795929 88.0
421.907928 68.0
422.312744 116.0
425.439331 84.0
432.666382 132.0
433.656433 36.0
436.791351 108.0
438.250549 128.0
440.296692 36.0
443.618988 80.0
443.996368 88.0
451.061584 96.0
455.506744 56.0
455.706421 40.0
462.722534 112.0
470.357574 56.0
474.012177 72.0
489.24292 100.0
492.091003 72.0
504.745819 120.0
516.751099 52.0
534.363098 60.0
541.032166 64.0
541.495178 64.0
545.058044 56.0
568.596313 80.0
571.385681 44.0
582.567993 28.0
590.705322 120.0
611.330017 128.0
635.345154 56.0
666.270325 104.0
673.022644 60.0
673.151733 76.0
677.610474 112.0
703.752747 76.0
721.84613 68.0
737.215515 52.0
750.776855 52.0
762.020325 28.0
781.026733 100.0
784.958679 60.0
813.343567 68.0
821.383911 32.0
841.937988 136.0
871.419983 132.0
880.976074 72.0
890.566406 132.0
919.401489 160.0
938.747986 156.0
939.266418 136.0
940.865234 180.0
959.96637 184.0
971.470764 152.0
983.780212 92.0
996.280273 56.0
1004.381958 240.0
1024.846802 40.0
1026.937744 152.0
1030.653198 40.0
1058.305908 180.0
1058.500122 180.0
1059.45874 168.0
1061.033569 104.0
1076.774536 92.0
1078.205322 172.0
1086.810059 148.0
1095.929932 164.0
1101.920898 156.0
1111.302979 84.0
1113.0354 88.0
1113.242554 96.0
1121.044556 104.0
1123.598389 152.0
1124.866333 124.0
1129.202881 200.0
1146.517822 168.0
1147.023315 188.0
1149.923706 80.0
1152.098022 144.0
1155.268677 208.0
1158.734863 196.0
1174.943237 236.0
1188.250244 188.0
1199.742554 144.0
1215.207031 160.0
1220.979614 136.0
1222.44751 124.0
1223.039185 124.0
1224.731201 200.0
1229.863037 104.0
1233.124878 92.0
1235.026733 196.0
1237.700195 128.0
1240.846191 164.0
1242.389038 152.0
1256.283325 120.0
1257.362915 88.0
1257.553467 192.0
1259.671753 28.0
1261.2052 148.0
1262.506104 136.0
1264.60022 192.0
1265.081665 40.0
1269.056152 116.0
1271.638428 164.0
1275.36731 96.0
1277.436646 108.0
1278.375854 152.0
1280.013062 180.0
1286.67981 56.0
1292.190186 128.0
1292.261719 120.0
1292.905762 148.0
1294.573853 148.0
1298.049438 100.0
1302.858398 120.0
1309.886719 160.0
1312.834595 216.0
1317.157959 132.0
1319.88269 132.0
1321.285767 132.0
1324.275513 140.0
1328.777222 160.0
1329.502808 184.0
1329.872925 64.0
1332.131226 84.0
1336.180664 176.0
1342.605347 196.0
1351.883301 152.0
1353.918579 112.0
1357.678101 240.0
1361.009766 120.0
1363.051758 136.0
1367.221436 148.0
1368.531738 108.0
1369.51123 152.0
1373.734985 164.0
1375.867798 40.0
1380.130859 204.0
1380.278809 172.0
1381.669312 68.0
1385.200562 160.0
1388.180054 92.0
1388.231934 248.0
1388.380249 52.0
1388.528564 188.0
1391.021729 96.0
1391.808716 108.0
1392.573608 72.0
1393.294189 196.0
1394.41626 88.0
1397.301392 156.0
1397.688354 156.0
1398.469727 52.0
1398.990845 140.0
1401.277222 140.0
1404.393311 108.0
1406.452759 32.0
1408.603271 152.0
1408.730225 116.0
1412.131348 128.0
1413.567749 156.0
1414.525757 224.0
1415.207031 240.0
1417.687378 164.0
1419.440674 132.0
1424.837402 232.0
1426.55835 164.0
1429.830322 36.0
1431.991211 144.0
1434.507935 132.0
1443.885864 176.0
1444.642334 132.0
1445.247559 196.0
1446.110229 148.0
1450.154907 236.0
1451.064575 164.0
1452.095825 92.0
1452.619263 64.0
1453.370361 184.0
1455.526123 144.0
1456.824829 128.0
1460.435547 124.0
1462.3302 208.0
1462.535645 80.0
1466.49646 136.0
1466.755615 144.0
1467.90686 128.0
1471.012085 152.0
1471.546509 156.0
1471.653442 176.0
1472.012329 116.0
1476.368286 140.0
1477.791016 160.0
1479.63562 172.0
1481.305054 152.0
1481.427612 172.0
1481.772339 144.0
1482.393066 188.0
1482.592285 180.0
1485.820435 84.0
1486.365234 56.0
1486.595459 168.0
1488.000122 200.0
1490.726929 80.0
1492.694946 172.0
1495.102783 172.0
1495.164307 192.0
1496.557739 184.0
1499.038086 180.0
1504.769165 160.0
1504.908081 132.0
