>compound MLS000697600-01!
>formula C22H24O4
>ionization [M+H]+
>parentmass 353.175
#inchi InChI=1S/C22H24O4/c1-22(2)10-9-18-19(26-22)8-5-14-11-15(13-25-21(14)18)17-7-6-16(23-3)12-20(17)24-4/h5-10,12,15H,11,13H2,1-4H3/t15-/m0/s1
#inchikey MQSZHVFJSFLOMO
#Ion_Source LC-ESI
#Instrument qTof
#Compound_Source NIH Natural Product Library
#PI Dorrestein
#Data_Collector VVP/LMS
#Scan -1
#Precursor_MZ 353.175
#ExactMass 352.167
#Charge 1
#CAS_Number N/A
#Pubmed_ID N/A
#Smiles COc1ccc([C@@H]2COc3c(C2)ccc4OC(C)(C)C=Cc43)c(OC)c1
#INCHI_AUX N/A
#Library_Class 1
#SpectrumID CCMSLIB00000080062
#IonMode Positive
#UpdateWorkflowName UPDATE-SINGLE-ANNOTATED-GOLD
#LibraryQualityString Gold
#TaskID b1d8e8f6646f4e71acdff9ca3d919d08
##Scan# 2921
#SpectrumFile p2-F03_GF3_01_18039.mzXML
#LibraryName NIH_Natural_Products_Library.mgf
#MQScore -1
#Organism NIH_Natural_Products_Library
#TIC_Query 0
#RT_Query -1
#MZErrorPPM -1
#SharedPeaks 0
#MassDiff 0
#LibMZ -1
#SpecMZ 353.175
#SpecCharge 0
#internalFilename spec-00000.mgf

>collision 10
95.086983 192.0
95.220947 128.0
95.368614 136.0
95.664284 32.0
96.063774 228.0
96.640114 192.0
96.765373 148.0
96.894638 192.0
96.924026 140.0
97.006348 144.0
97.03183 224.0
97.045555 156.0
97.09066 60.0
97.171082 60.0
97.202477 176.0
97.465599 68.0
97.510803 164.0
97.994888 204.0
98.2145 200.0
98.750961 120.0
99.055786 176.0
99.09343 168.0
99.674797 128.0
99.752304 204.0
99.889519 188.0
100.004929 140.0
100.351555 216.0
100.401405 140.0
100.438393 220.0
100.732735 168.0
100.85862 204.0
101.038597 132.0
101.11264 72.0
101.344933 148.0
101.423088 176.0
101.575485 100.0
101.69989 192.0
102.048172 272.0
102.673683 132.0
102.780602 164.0
103.052742 448.0
103.099663 136.0
103.384811 160.0
103.494125 188.0
103.650093 48.0
103.767654 128.0
103.785904 160.0
104.027336 148.0
104.063232 540.0
104.080124 208.0
104.126831 192.0
104.364586 76.0
104.714607 344.0
104.796097 40.0
104.840927 124.0
105.029671 160.0
105.069008 660.0
105.101944 60.0
105.122353 68.0
105.165207 124.0
105.181534 176.0
105.369415 96.0
105.457283 152.0
105.551331 188.0
105.651306 152.0
105.706795 48.0
105.932632 200.0
105.987328 152.0
106.0429 604.0
106.077896 208.0
106.175919 100.0
106.413956 196.0
106.722153 184.0
106.790016 148.0
106.84967 176.0
106.866135 104.0
107.049461 708.0
107.082283 232.0
107.199715 148.0
107.218262 180.0
107.740303 56.0
107.82296 176.0
108.056549 176.0
108.083519 140.0
108.292618 148.0
108.385841 160.0
108.80896 116.0
108.925255 212.0
108.997971 108.0
109.028252 316.0
109.064362 624.0
109.110207 152.0
109.239151 64.0
109.359833 200.0
109.478508 176.0
109.928795 164.0
109.976799 180.0
110.49086 168.0
110.729492 192.0
110.796524 156.0
110.930641 196.0
111.04689 292.0
111.390205 204.0
111.409111 152.0
111.42382 124.0
111.709732 144.0
111.852249 204.0
112.137177 160.0
112.225716 48.0
112.415565 136.0
112.489433 132.0
112.749229 136.0
113.273964 212.0
113.674683 156.0
113.73835 40.0
113.829643 132.0
114.056969 132.0
114.090988 176.0
114.148392 144.0
114.610306 68.0
114.663025 184.0
114.725395 172.0
114.810684 172.0
114.957886 52.0
114.9963 84.0
115.017647 148.0
115.054047 1468.0
115.113716 160.0
115.455643 148.0
115.536926 52.0
115.57972 44.0
116.020279 212.0
116.062302 468.0
116.456535 132.0
116.643478 172.0
116.768936 184.0
116.817657 48.0
116.901573 64.0
116.927399 60.0
116.976898 172.0
117.028572 216.0
117.070923 1308.0
117.36039 92.0
117.37764 48.0
117.591217 108.0
117.729385 60.0
118.071083 148.0
118.298042 168.0
118.555786 160.0
118.7379 200.0
118.948364 188.0
118.991783 232.0
119.048187 1108.0
119.086014 988.0
119.156845 60.0
119.176399 152.0
119.363335 156.0
119.404655 184.0
119.648369 88.0
119.907578 132.0
120.014397 80.0
120.031845 148.0
120.052109 444.0
120.671608 108.0
120.730644 240.0
120.763451 172.0
120.929733 72.0
120.953102 148.0
121.010735 136.0
121.065002 13988.0
121.102707 112.0
121.118042 44.0
121.161156 60.0
121.19072 68.0
121.221016 60.0
121.326225 160.0
121.342216 216.0
121.411736 92.0
121.620171 216.0
121.648705 48.0
121.714569 72.0
121.947441 64.0
122.011185 48.0
122.06813 1384.0
122.165131 80.0
122.266594 72.0
122.325775 64.0
122.400635 100.0
122.759819 96.0
122.828194 80.0
122.916443 112.0
122.988167 120.0
123.006927 136.0
123.047539 212.0
123.078644 424.0
123.347115 72.0
123.417854 48.0
123.442184 60.0
123.473145 168.0
123.528442 156.0
123.875984 160.0
124.539223 168.0
124.792564 144.0
124.923782 44.0
125.062325 168.0
125.115166 156.0
125.271057 236.0
125.286652 148.0
125.732605 56.0
126.241966 64.0
126.264328 36.0
126.857697 160.0
127.052124 364.0
127.508629 172.0
127.999054 88.0
128.06218 752.0
128.107162 48.0
128.244614 180.0
128.271667 148.0
128.537796 88.0
129.065903 656.0
129.704803 72.0
129.861252 136.0
129.911163 192.0
130.042389 172.0
130.075027 188.0
130.417542 200.0
130.672226 68.0
130.699539 60.0
130.952225 180.0
130.975006 148.0
131.000061 172.0
131.049179 1732.0
131.086639 172.0
131.166412 56.0
131.189209 200.0
131.762039 192.0
132.057022 816.0
132.393356 136.0
132.480392 32.0
132.590378 212.0
132.645386 136.0
132.75766 128.0
133.028473 212.0
133.065796 952.0
133.102539 208.0
133.251236 152.0
133.373047 44.0
133.563889 176.0
133.869995 36.0
134.04277 224.0
134.073074 1144.0
134.104996 152.0
134.335571 216.0
134.360947 184.0
134.478638 168.0
134.564056 208.0
134.580215 48.0
134.774231 152.0
134.83432 132.0
135.042465 396.0
135.076828 364.0
135.461365 60.0
135.49379 112.0
135.704712 60.0
136.01326 112.0
136.049377 476.0
136.117722 112.0
136.236176 88.0
136.489517 88.0
136.801285 144.0
136.982925 212.0
137.015533 176.0
137.059448 984.0
137.204315 144.0
137.542572 144.0
137.731705 184.0
138.063477 260.0
138.933868 252.0
139.077408 352.0
139.143814 52.0
139.531464 120.0
139.646698 148.0
140.082153 180.0
141.067368 180.0
141.50386 188.0
141.634109 228.0
142.073334 360.0
142.105881 188.0
142.286255 88.0
142.858994 136.0
143.039856 152.0
143.084763 940.0
143.429077 172.0
143.723846 76.0
143.773956 116.0
144.05661 244.0
144.094193 576.0
144.160828 96.0
144.361649 64.0
144.629608 148.0
145.064621 2028.0
145.091934 84.0
145.439774 160.0
145.600647 204.0
146.072632 3904.0
146.09996 180.0
146.14151 44.0
146.323135 212.0
146.626572 120.0
146.726776 136.0
146.873871 160.0
147.044907 6008.0
147.079926 6540.0
147.14415 72.0
147.187622 48.0
147.219009 80.0
147.289047 132.0
147.434769 64.0
147.459259 72.0
147.504105 232.0
147.550049 44.0
147.566971 104.0
147.615158 56.0
147.685257 48.0
147.743515 68.0
147.799164 84.0
148.045868 780.0
148.08551 304.0
148.43866 36.0
148.576904 72.0
149.06868 176.0
149.094864 896.0
149.305618 104.0
149.344528 48.0
149.424805 72.0
149.4832 144.0
149.799713 144.0
149.83139 92.0
149.850876 196.0
149.962982 88.0
150.064865 156.0
150.09462 160.0
150.126328 152.0
150.367844 136.0
150.619339 160.0
150.706192 128.0
150.8246 180.0
150.963959 116.0
150.99086 392.0
151.037994 412.0
151.075439 12788.0
151.103378 228.0
151.152313 60.0
151.272247 68.0
151.320099 116.0
151.348129 84.0
151.389771 156.0
151.443649 48.0
151.475494 36.0
151.52449 72.0
151.647003 68.0
151.669067 96.0
151.816177 68.0
152.079697 1788.0
152.267746 88.0
153.029236 252.0
153.074005 184.0
153.195068 112.0
153.254196 92.0
153.357697 120.0
153.387283 208.0
153.929703 84.0
154.076843 260.0
154.201813 48.0
154.27597 56.0
154.355087 108.0
155.060638 40.0
155.081955 344.0
155.278809 136.0
155.588989 88.0
155.785172 92.0
156.018784 68.0
156.06105 172.0
156.337158 156.0
156.720642 148.0
157.092117 176.0
157.663895 164.0
158.070999 136.0
158.331879 176.0
158.50473 128.0
158.905914 200.0
159.013809 100.0
159.048889 176.0
159.079117 288.0
159.117767 172.0
159.252335 156.0
159.279968 172.0
160.049728 212.0
160.092346 160.0
160.767975 112.0
160.988983 160.0
161.058731 1000.0
161.097275 1360.0
161.117645 156.0
161.738495 60.0
161.942169 216.0
162.066772 2496.0
162.100662 272.0
162.17923 92.0
162.529205 56.0
162.546967 232.0
162.987076 112.0
163.039627 112.0
163.074371 344.0
163.360001 164.0
164.071228 160.0
164.32811 96.0
164.509308 128.0
164.718704 168.0
165.08931 132.0
165.352814 168.0
165.572998 144.0
165.939423 124.0
166.026611 116.0
167.083588 292.0
167.530273 132.0
167.677139 256.0
168.089752 140.0
169.063202 220.0
169.098801 240.0
169.444641 40.0
169.62085 164.0
170.069595 132.0
170.103348 340.0
170.225372 164.0
171.046951 132.0
171.080139 2172.0
171.518417 216.0
172.087555 752.0
173.060089 2984.0
173.09494 440.0
173.247269 204.0
174.067551 1320.0
174.392441 72.0
174.642227 132.0
174.692215 44.0
174.744827 168.0
175.07135 504.0
175.274063 132.0
176.044327 48.0
176.074753 348.0
176.271515 64.0
176.432739 76.0
176.641663 208.0
176.707794 80.0
176.900986 156.0
177.036026 176.0
177.09111 13400.0
177.16301 136.0
177.198441 104.0
177.224106 68.0
177.314194 60.0
177.58728 32.0
177.735855 44.0
177.76239 52.0
178.033157 52.0
178.097275 1604.0
178.168625 80.0
178.35199 116.0
178.418442 80.0
178.710999 96.0
179.087845 220.0
179.344818 48.0
179.43811 80.0
179.462112 132.0
180.313675 96.0
181.064438 212.0
182.073486 360.0
183.077881 160.0
184.558441 152.0
185.063507 200.0
185.0979 188.0
185.335281 148.0
186.105606 104.0
186.214233 64.0
187.051697 68.0
187.073959 140.0
187.114441 180.0
188.073883 176.0
188.123016 192.0
188.264999 208.0
188.595581 52.0
188.75415 136.0
188.877228 48.0
189.090775 7636.0
189.139908 56.0
189.235626 116.0
189.293228 72.0
189.389084 104.0
189.51236 92.0
189.573242 128.0
189.728882 96.0
189.822098 104.0
190.09288 904.0
190.181503 80.0
190.513763 88.0
190.66214 52.0
191.644531 148.0
193.464584 32.0
194.40976 148.0
194.448608 48.0
194.490234 52.0
196.940536 64.0
197.094925 704.0
197.477173 52.0
197.686996 156.0
199.066223 168.0
200.085037 704.0
203.087967 152.0
207.094696 168.0
210.945602 112.0
211.10173 152.0
212.257141 148.0
212.370239 140.0
212.541412 180.0
213.095978 336.0
213.255814 72.0
213.633835 172.0
215.108429 852.0
216.108398 276.0
219.423828 52.0
224.088928 104.0
227.084259 100.0
227.111267 148.0
228.081116 96.0
233.764099 180.0
238.065308 56.0
238.430893 104.0
241.136871 160.0
244.464584 184.0
244.912918 152.0
249.093582 140.0
254.295639 92.0
257.086761 156.0
257.441132 36.0
259.992615 100.0
266.09024 96.0
267.58252 84.0
268.080902 188.0
269.118195 120.0
277.127411 172.0
277.740692 152.0
278.25174 56.0
279.08902 172.0
282.086243 132.0
285.634033 76.0
294.330688 40.0
309.228119 92.0
314.408569 84.0
321.142578 156.0
334.58432 60.0
337.138458 344.0
338.143311 172.0
355.283936 452.0
397.037323 80.0
399.014801 48.0
443.719635 48.0
507.265594 76.0
671.14563 40.0
696.317749 64.0
858.387512 172.0
872.474792 132.0
872.774658 44.0
874.8927 80.0
885.681335 124.0
911.532532 160.0
913.137634 44.0
913.378235 168.0
929.909668 128.0
945.371216 156.0
950.530884 112.0
959.769836 112.0
963.442078 128.0
963.94873 140.0
975.992615 172.0
976.850891 100.0
1007.02002 80.0
1010.939636 124.0
1027.810791 120.0
1029.240601 108.0
1035.558838 152.0
1036.603149 188.0
1048.459595 192.0
1055.955078 148.0
1061.362427 92.0
1068.3573 132.0
1074.729004 168.0
1077.536499 180.0
1081.31604 188.0
1084.204224 240.0
1091.326416 64.0
1098.861206 124.0
1102.446533 156.0
1110.689331 148.0
1115.290894 108.0
1124.188599 204.0
1130.262695 204.0
1131.293457 192.0
1137.192017 208.0
1142.52063 112.0
1151.695068 140.0
1155.12207 148.0
1170.998169 196.0
1179.212646 184.0
1179.916748 188.0
1180.258667 236.0
1183.221191 180.0
1183.953857 172.0
1185.680176 112.0
1186.249146 236.0
1187.229614 160.0
1189.102539 160.0
1190.633423 48.0
1190.805176 152.0
1191.663818 228.0
1191.73938 180.0
1201.322754 204.0
1204.290894 148.0
1205.610474 52.0
1217.276123 192.0
1221.251343 168.0
1226.243408 204.0
1226.598877 156.0
1227.045044 172.0
1227.121704 196.0
1227.693481 164.0
1230.205322 52.0
1230.505493 100.0
1231.95813 192.0
1233.726074 124.0
1239.500244 228.0
1240.194092 200.0
1242.136353 152.0
1244.648804 108.0
1247.205933 188.0
1248.478516 188.0
1248.54187 156.0
1251.990234 184.0
1253.525879 232.0
1254.547852 124.0
1256.197998 236.0
1262.187012 216.0
1263.184204 100.0
1263.240845 156.0
1265.19397 176.0
1272.162598 208.0
1277.691406 176.0
1279.662842 140.0
1279.741211 208.0
1286.050049 136.0
1287.670776 48.0
1290.736572 180.0
1291.008301 56.0
1293.641235 160.0
1294.099487 220.0
1296.126465 184.0
1303.035889 208.0
1307.033569 192.0
1307.911499 60.0
1308.977051 200.0
1309.567505 148.0
1313.733887 144.0
1318.101929 116.0
1324.229248 228.0
1327.200439 172.0
1327.874878 148.0
1334.686523 220.0
1334.911987 196.0
1340.976196 80.0
1341.027222 120.0
1343.389771 76.0
1344.199585 112.0
1346.323853 164.0
1347.748291 164.0
1350.67981 140.0
1354.87439 148.0
1355.189453 160.0
1357.755005 116.0
1359.456909 200.0
1359.60376 144.0
1360.117554 104.0
1364.444214 156.0
1365.253052 60.0
1367.121582 176.0
1369.558594 168.0
1370.339355 176.0
1374.682373 128.0
1380.015381 216.0
1381.91626 208.0
1382.338013 128.0
1382.404541 52.0
1382.841187 140.0
1385.314331 100.0
1385.514404 212.0
1389.577148 104.0
1390.296875 104.0
1393.051392 136.0
1394.649048 128.0
1396.559937 152.0
1397.474854 224.0
1402.881714 112.0
1403.977783 144.0
1405.588989 216.0
1406.215942 80.0
1406.521973 160.0
1406.895142 224.0
1407.25354 180.0
1407.589478 136.0
1408.134644 180.0
1408.672485 96.0
1408.918945 80.0
1409.262695 200.0
1409.486816 100.0
1410.293945 156.0
1411.841553 92.0
1412.499634 180.0
1413.098145 176.0
1415.665527 180.0
1423.043823 112.0
1424.035034 132.0
1425.086792 192.0
1428.221558 160.0
1428.356934 264.0
1430.584351 204.0
1431.405029 88.0
1432.36145 232.0
1433.683716 20.0
1434.094482 108.0
1434.607056 132.0
1436.907227 140.0
1437.359863 184.0
1437.85791 152.0
1440.02478 84.0
1441.777466 196.0
1446.330566 160.0
1448.488525 180.0
1448.541626 160.0
1449.541626 128.0
1450.269165 172.0
1452.339111 168.0
1452.68042 224.0
1454.273926 156.0
1455.982178 160.0
1456.202393 176.0
1458.512207 216.0
1461.957397 144.0
1469.028076 156.0
1471.034912 148.0
1473.043213 100.0
1473.417603 188.0
1473.623901 176.0
1474.158691 128.0
1474.479736 108.0
1474.953613 180.0
1478.242188 68.0
1479.061035 160.0
1482.16272 48.0
1484.186279 216.0
1487.784546 104.0
1488.014893 232.0
1491.202759 180.0
1493.578613 172.0
1493.655518 176.0
1499.484009 144.0
