>compound MLS001157889-01!N-cyclopropyl-3-(7-hydroxy-4,8-dimethyl-2-oxochromen-3-yl)propanamide
>formula C17H19NO4
>ionization [M+H]+
>parentmass 302.139
#inchi InChI=1S/C17H19NO4/c1-9-12-5-7-14(19)10(2)16(12)22-17(21)13(9)6-8-15(20)18-11-3-4-11/h5,7,11,19H,3-4,6,8H2,1-2H3,(H,18,20)
#inchikey JRYNNKSSMKSHIQ
#Ion_Source LC-ESI
#Instrument qTof
#Compound_Source NIH Natural Product Library
#PI Dorrestein
#Data_Collector VVP/LMS
#Scan -1
#Precursor_MZ 302.139
#ExactMass 301.131
#Charge 1
#CAS_Number N/A
#Pubmed_ID N/A
#Smiles Cc1c(O)ccc2c(C)c(CCC(=O)NC3CC3)c(=O)oc12
#INCHI_AUX N/A
#Library_Class 1
#SpectrumID CCMSLIB00000080293
#IonMode Positive
#UpdateWorkflowName UPDATE-SINGLE-ANNOTATED-GOLD
#LibraryQualityString Gold
#TaskID b1d8e8f6646f4e71acdff9ca3d919d08
##Scan# 1624
#SpectrumFile p2-G06_GG6_01_18054.mzXML
#LibraryName NIH_Natural_Products_Library.mgf
#MQScore -1
#Organism NIH_Natural_Products_Library
#TIC_Query 0
#RT_Query -1
#MZErrorPPM -1
#SharedPeaks 0
#MassDiff 0
#LibMZ -1
#SpecMZ 302.139
#SpecCharge 0
#internalFilename spec-00000.mgf

>collision 10
95.076576 232.0
95.583778 148.0
96.29731 160.0
96.457535 136.0
96.709862 116.0
96.923332 72.0
97.227287 228.0
97.478661 72.0
97.801201 164.0
97.976463 224.0
98.073021 180.0
98.161736 224.0
98.234718 204.0
98.301796 96.0
99.063011 216.0
99.36039 160.0
99.435791 132.0
99.580734 164.0
99.662178 116.0
99.800835 164.0
99.833138 196.0
99.870926 156.0
100.386757 124.0
100.448586 112.0
100.516418 124.0
100.632187 164.0
100.871925 152.0
101.007904 176.0
101.111954 140.0
101.350258 144.0
101.502594 56.0
101.546715 124.0
101.669098 252.0
101.869888 240.0
101.893997 100.0
101.978394 112.0
102.095001 152.0
102.129196 100.0
102.481499 108.0
102.715363 168.0
103.05645 168.0
103.137383 52.0
103.45295 112.0
103.517746 156.0
103.586609 196.0
103.610916 60.0
103.850121 72.0
104.055077 44.0
104.073349 164.0
104.522568 176.0
104.553093 152.0
104.746521 104.0
104.862671 176.0
105.069649 264.0
105.129837 176.0
105.646782 112.0
106.341438 164.0
106.364014 244.0
106.577606 52.0
106.67141 224.0
107.056732 196.0
107.372215 116.0
107.774765 212.0
108.051819 44.0
108.41626 208.0
108.646416 220.0
108.826981 208.0
108.916283 192.0
109.355011 144.0
109.41954 136.0
109.592415 184.0
109.819649 188.0
110.130646 156.0
110.829391 132.0
111.311844 168.0
111.759575 184.0
112.271461 172.0
112.303093 336.0
112.351616 116.0
112.82045 136.0
113.025612 144.0
113.226723 140.0
113.544624 240.0
113.625237 204.0
113.705872 224.0
114.498886 188.0
114.718361 196.0
114.86113 164.0
115.054955 996.0
115.106674 32.0
115.140839 52.0
115.155792 136.0
115.487083 184.0
115.559822 180.0
115.604759 428.0
115.63044 68.0
115.739616 296.0
115.835991 148.0
115.928123 176.0
115.964561 108.0
116.060097 776.0
116.086761 216.0
116.112495 80.0
116.183281 64.0
116.402214 40.0
116.758949 148.0
116.862206 100.0
116.982727 260.0
117.069588 1000.0
117.096848 180.0
117.262749 168.0
117.305862 148.0
117.355446 72.0
117.60569 256.0
117.849724 236.0
118.069962 160.0
118.102661 132.0
118.145927 184.0
118.583336 168.0
118.602844 168.0
118.704742 248.0
118.769806 164.0
118.802345 148.0
118.958595 124.0
119.023727 100.0
119.050781 152.0
119.083275 1300.0
119.142067 132.0
119.321396 140.0
119.447533 180.0
119.558495 164.0
119.695641 192.0
119.739197 112.0
120.007233 144.0
120.173004 104.0
120.2341 120.0
120.273392 168.0
121.065292 552.0
121.16124 180.0
121.209442 92.0
121.294914 144.0
121.832558 176.0
122.072144 172.0
122.157921 140.0
122.373596 200.0
122.549805 172.0
122.58506 140.0
122.836403 216.0
123.041641 208.0
123.189606 160.0
123.357559 196.0
123.470322 140.0
123.83049 120.0
124.549728 164.0
124.565277 104.0
125.09008 92.0
125.292732 176.0
125.433128 84.0
125.578064 140.0
125.640526 184.0
125.863716 120.0
126.317413 64.0
126.653183 132.0
126.848137 128.0
126.960243 224.0
126.989395 72.0
127.269913 156.0
127.355255 200.0
127.91291 136.0
128.062653 1032.0
128.210403 148.0
128.273331 104.0
128.31842 108.0
128.871399 152.0
129.069748 1184.0
129.14267 80.0
129.45726 40.0
129.597702 132.0
129.917374 76.0
130.058075 184.0
130.078445 304.0
130.198837 84.0
130.389679 224.0
130.810486 176.0
131.048477 360.0
131.082214 320.0
131.163559 144.0
131.213715 208.0
131.288956 176.0
131.437241 188.0
131.649536 124.0
131.955734 228.0
131.990021 132.0
132.055923 2012.0
132.097519 36.0
132.253128 152.0
132.330963 76.0
132.530228 116.0
132.603561 176.0
132.995773 128.0
133.063583 172.0
133.102844 204.0
133.184052 116.0
133.694473 140.0
134.001068 132.0
134.105072 200.0
134.258896 176.0
134.59581 232.0
134.884613 120.0
134.956284 124.0
135.053406 140.0
135.750519 144.0
135.908264 136.0
135.97789 192.0
136.005737 132.0
136.084366 136.0
136.368073 148.0
136.477341 56.0
136.644806 208.0
136.714615 180.0
136.84729 140.0
136.907837 136.0
137.056931 136.0
137.103531 212.0
137.385666 120.0
137.425339 148.0
137.584045 144.0
138.058365 156.0
138.777267 116.0
138.974289 144.0
139.02356 100.0
139.474503 48.0
139.577957 60.0
139.650864 96.0
140.064285 188.0
140.112244 112.0
140.404541 168.0
140.758514 216.0
141.032578 112.0
141.068054 872.0
141.143692 44.0
141.47493 172.0
141.536484 80.0
141.87056 68.0
141.970139 224.0
141.989105 96.0
142.074127 204.0
142.732422 280.0
143.039322 192.0
143.081177 420.0
143.144089 88.0
143.172668 124.0
143.378769 176.0
143.78537 144.0
143.973984 164.0
144.007416 168.0
144.057175 5644.0
144.091019 172.0
144.234406 160.0
144.258316 148.0
144.554901 132.0
144.74408 128.0
144.916458 152.0
145.065094 1028.0
145.099594 324.0
145.400864 148.0
145.614532 92.0
145.681793 120.0
145.720642 48.0
145.749069 60.0
145.79953 188.0
145.934143 56.0
146.013504 84.0
146.073196 624.0
146.105392 200.0
146.273361 136.0
146.29744 172.0
146.381714 156.0
146.786545 140.0
146.846832 184.0
146.8806 220.0
147.050385 224.0
147.079437 3644.0
147.114731 172.0
147.399689 36.0
147.735764 132.0
147.929367 176.0
147.965668 176.0
148.045578 164.0
148.080521 476.0
148.843948 236.0
149.020721 132.0
149.042587 192.0
149.082703 168.0
149.115494 136.0
149.570328 28.0
149.699371 136.0
149.757828 132.0
150.020996 148.0
150.05513 80.0
150.191681 172.0
150.386887 176.0
150.650604 160.0
151.276657 80.0
151.521561 200.0
152.414658 80.0
152.436783 136.0
153.268509 44.0
153.619034 256.0
153.704956 128.0
153.759247 36.0
153.781464 156.0
154.082733 164.0
154.109558 140.0
154.472778 196.0
155.057693 164.0
155.086426 328.0
155.189072 168.0
155.566177 176.0
155.807068 128.0
155.961151 40.0
156.013351 168.0
156.052216 248.0
156.466141 72.0
156.598114 116.0
156.78746 80.0
156.877197 200.0
157.064026 380.0
157.151535 156.0
157.753433 180.0
157.863449 108.0
157.991013 232.0
158.072327 848.0
158.58699 212.0
159.044113 208.0
159.07753 488.0
159.209198 216.0
159.324738 216.0
159.364944 92.0
159.842697 100.0
159.945877 216.0
159.988678 160.0
160.051422 2172.0
160.432068 28.0
160.532913 100.0
160.570755 188.0
160.681747 196.0
160.777634 32.0
160.992218 208.0
161.056732 384.0
161.096771 444.0
161.270126 200.0
161.560928 132.0
161.578644 192.0
161.755783 140.0
161.857056 184.0
162.001419 140.0
162.094055 128.0
162.678528 64.0
162.787704 64.0
162.962967 104.0
163.374847 132.0
163.415543 108.0
163.840729 152.0
163.922256 172.0
164.235855 220.0
164.388931 156.0
164.53952 100.0
164.815369 156.0
164.966171 148.0
165.244934 132.0
165.733963 156.0
166.21347 148.0
166.359756 196.0
166.382874 148.0
166.447052 184.0
166.493286 152.0
167.030472 184.0
167.341858 188.0
168.022278 56.0
168.205505 160.0
168.285538 132.0
168.554169 152.0
169.174911 160.0
169.576401 188.0
169.87117 136.0
170.686935 208.0
170.814972 136.0
170.861801 144.0
171.077927 160.0
171.189758 152.0
171.50296 188.0
171.734467 96.0
171.924927 120.0
172.089371 200.0
172.115479 148.0
172.397614 112.0
172.504776 136.0
172.664276 184.0
172.787216 116.0
173.058365 588.0
173.088211 140.0
173.140594 252.0
173.313477 108.0
173.431412 224.0
173.517929 176.0
173.633301 84.0
174.040054 132.0
174.068176 768.0
174.355286 64.0
174.78656 108.0
174.889206 184.0
174.933945 72.0
174.975327 112.0
175.075806 16592.0
175.129166 148.0
175.221008 112.0
175.24736 100.0
175.28688 32.0
175.452927 140.0
175.624344 72.0
175.774719 72.0
176.030777 108.0
176.07901 1536.0
176.197174 68.0
176.236816 80.0
176.361023 68.0
176.731262 52.0
176.848129 124.0
176.887405 116.0
177.0802 168.0
177.123077 124.0
177.184006 68.0
177.323883 56.0
177.350952 76.0
177.751419 56.0
177.812469 128.0
178.160309 192.0
178.774521 148.0
178.960861 112.0
179.036362 204.0
179.205902 212.0
179.779205 168.0
180.118301 164.0
180.674332 140.0
181.402756 140.0
181.472458 136.0
181.970764 72.0
182.97435 216.0
183.383804 204.0
183.704697 180.0
183.853088 176.0
183.983459 188.0
184.58519 152.0
185.015381 176.0
185.074951 136.0
185.248291 156.0
185.833893 40.0
185.928864 192.0
186.360626 184.0
186.58078 116.0
187.239288 184.0
187.280136 212.0
187.310104 180.0
187.642578 188.0
187.716202 208.0
187.888031 232.0
188.581635 192.0
188.61171 156.0
188.729263 160.0
188.830444 108.0
189.000061 164.0
189.021942 124.0
189.091858 1412.0
189.320328 68.0
189.372375 160.0
189.561401 140.0
189.602509 180.0
189.654587 112.0
190.0495 60.0
190.095734 132.0
190.868042 188.0
191.085342 156.0
191.220169 168.0
191.699371 152.0
191.746216 140.0
192.272995 136.0
192.466232 208.0
192.734161 136.0
193.115677 168.0
193.223557 148.0
193.372986 156.0
193.519699 32.0
193.550156 96.0
193.644318 116.0
194.69545 160.0
194.817429 240.0
195.398712 144.0
195.841324 204.0
195.897049 204.0
196.306763 144.0
196.37648 164.0
196.515961 120.0
196.702942 116.0
196.761566 160.0
197.046448 176.0
197.639206 188.0
197.71196 212.0
198.272079 88.0
198.443069 120.0
199.14183 176.0
199.172729 48.0
199.276672 140.0
199.518372 152.0
199.706436 140.0
200.078232 128.0
200.24437 200.0
200.469757 128.0
200.867294 156.0
201.053024 208.0
201.060272 172.0
201.157944 180.0
201.437515 256.0
202.056152 140.0
202.093414 144.0
202.175476 196.0
202.217926 132.0
202.257156 172.0
202.384949 104.0
202.451553 248.0
202.518051 196.0
202.574707 80.0
202.615448 168.0
202.644897 176.0
202.656784 136.0
202.660294 172.0
202.699371 148.0
202.899551 96.0
202.936523 132.0
202.962936 232.0
202.991455 332.0
203.071579 75936.0
203.149872 100.0
203.194 72.0
203.242706 100.0
203.254639 44.0
203.266907 176.0
203.302246 128.0
203.337448 60.0
203.358734 96.0
203.378235 76.0
203.410629 124.0
203.475967 176.0
203.538025 104.0
203.645386 96.0
203.698059 40.0
203.717941 36.0
203.765289 80.0
203.793365 212.0
203.853027 96.0
203.88559 28.0
203.908325 48.0
203.982224 108.0
204.07338 9684.0
204.152817 92.0
204.179504 84.0
204.217773 100.0
204.301788 88.0
204.38324 52.0
204.433029 80.0
204.465759 68.0
204.508453 32.0
204.659332 80.0
204.887192 76.0
204.918533 52.0
204.944168 124.0
204.97551 88.0
205.036865 76.0
205.075943 1560.0
205.126373 128.0
205.160782 100.0
205.194366 92.0
205.249039 116.0
205.302933 136.0
205.355927 92.0
205.361343 120.0
205.400314 60.0
205.428848 72.0
205.468781 116.0
205.503021 136.0
205.540802 100.0
205.585083 148.0
205.631439 116.0
205.668549 48.0
205.779877 120.0
205.845551 88.0
206.042633 80.0
206.100876 52.0
206.32843 68.0
206.531464 40.0
206.580093 60.0
206.90921 72.0
206.972198 48.0
207.175552 60.0
207.602631 160.0
207.760391 64.0
208.463852 96.0
208.788696 156.0
209.044739 68.0
209.629318 120.0
209.981033 148.0
210.436981 56.0
210.650696 136.0
213.444641 72.0
214.119797 48.0
214.702682 68.0
214.918549 172.0
215.175385 92.0
215.721695 140.0
216.034607 152.0
216.901398 68.0
217.024536 144.0
217.08609 8376.0
217.14476 216.0
217.168228 64.0
217.273834 44.0
217.335449 76.0
217.44696 32.0
217.479248 80.0
217.570251 76.0
217.602066 104.0
217.825745 152.0
217.978516 96.0
218.089737 1220.0
218.290115 56.0
218.401871 64.0
218.481293 52.0
218.57251 60.0
218.799149 72.0
219.092606 168.0
219.400146 44.0
219.550522 100.0
219.577072 80.0
221.400558 80.0
222.759018 40.0
224.580734 84.0
229.212692 108.0
231.541855 188.0
232.961395 112.0
233.389938 60.0
235.581284 72.0
236.094788 128.0
244.997086 144.0
245.080811 1752.0
245.396011 80.0
245.442795 32.0
246.081497 160.0
246.916779 172.0
247.279709 144.0
248.897339 188.0
251.756668 44.0
252.562607 76.0
263.124786 72.0
264.220398 144.0
266.840942 144.0
270.167542 104.0
275.06073 236.0
278.129211 72.0
284.931763 148.0
301.988068 64.0
315.917908 124.0
325.10733 156.0
326.914948 124.0
335.627045 100.0
344.453705 32.0
349.02713 56.0
352.99469 56.0
357.9104 104.0
361.409424 52.0
363.743988 80.0
372.281311 68.0
374.496582 44.0
377.046875 136.0
386.414551 124.0
400.333069 84.0
406.81842 152.0
424.628571 40.0
432.051392 64.0
434.197052 112.0
442.0625 100.0
451.853973 64.0
485.053406 52.0
511.985474 56.0
527.288513 44.0
540.468445 48.0
551.761414 56.0
577.085815 100.0
603.340088 80.0
659.383179 104.0
662.945068 44.0
702.543274 92.0
702.907349 64.0
750.97168 52.0
763.194885 44.0
872.691895 168.0
888.63916 160.0
898.527344 212.0
907.043091 136.0
956.258545 192.0
962.528137 140.0
973.470032 72.0
1019.526733 112.0
1045.272705 136.0
1098.802856 100.0
1112.415771 32.0
1113.418457 48.0
1113.464966 184.0
1120.509277 76.0
1130.083374 52.0
1141.425781 168.0
1142.858521 240.0
1143.053589 124.0
1156.659546 152.0
1165.272095 56.0
1173.609741 184.0
1174.093994 124.0
1180.253418 264.0
1184.133545 168.0
1184.30481 104.0
1193.989014 212.0
1199.724609 196.0
1204.196045 164.0
1215.660645 152.0
1221.058472 140.0
1221.802856 48.0
1229.935059 80.0
1230.605225 108.0
1230.682007 152.0
1232.512085 72.0
1263.610962 120.0
1267.157959 184.0
1274.053955 160.0
1280.747681 72.0
1297.189697 164.0
1301.020386 260.0
1310.722778 192.0
1312.834961 108.0
1323.341309 180.0
1326.586914 100.0
1327.710815 76.0
1328.414307 120.0
1332.399902 184.0
1333.591553 120.0
1340.476196 160.0
1343.655151 116.0
1345.019897 148.0
1345.487061 204.0
1346.209839 196.0
1348.883911 200.0
1355.859131 48.0
1360.950073 228.0
1362.014893 180.0
1364.285522 56.0
1371.02771 108.0
1371.08667 188.0
1380.032471 156.0
1381.046509 156.0
1382.289307 100.0
1383.858521 176.0
1384.636108 148.0
1392.683228 256.0
1394.786011 264.0
1398.79541 92.0
1400.306885 240.0
1402.124756 104.0
1406.711914 168.0
1406.793945 180.0
1409.094116 224.0
1411.141968 164.0
1412.039307 156.0
1412.159058 160.0
1412.7948 176.0
1415.001587 156.0
1420.585693 140.0
1421.898804 160.0
1423.783203 104.0
1425.045166 36.0
1426.533203 164.0
1428.49585 204.0
1430.414673 152.0
1440.035889 152.0
1442.234619 140.0
1442.400879 168.0
1442.491577 172.0
1445.297363 272.0
1449.075562 244.0
1449.38623 140.0
1449.681763 216.0
1449.878784 196.0
1452.706909 188.0
1452.775146 132.0
1453.298706 252.0
1456.145386 200.0
1461.831909 104.0
1465.806763 108.0
1467.666626 260.0
1467.781006 132.0
1469.130981 140.0
1472.955444 144.0
1475.11792 148.0
1478.705322 92.0
1481.69165 216.0
1482.189697 168.0
1483.998535 228.0
1485.923584 152.0
1486.031006 200.0
1498.486328 140.0
1498.987183 68.0
1502.57251 128.0
