>compound MLS000697598-01!
>formula C21H22O5
>ionization [M+H]+
>parentmass 355.155
#inchi InChI=1S/C21H22O5/c1-11(2)4-5-14-16(23)7-6-13-15-10-25-18-9-12(22)8-17(24-3)19(18)21(15)26-20(13)14/h4,6-9,15,21-23H,5,10H2,1-3H3/t15-,21+/m0/s1
#inchikey YKTZRMXYANFKQR
#Ion_Source LC-ESI
#Instrument qTof
#Compound_Source NIH Natural Product Library
#PI Dorrestein
#Data_Collector VVP/LMS
#Scan -1
#Precursor_MZ 355.155
#ExactMass 354.147
#Charge 1
#CAS_Number N/A
#Pubmed_ID N/A
#Smiles COc1cc(O)cc2OC[C@@H]3[C@@H](Oc4c3ccc(O)c4CC=C(C)C)c12
#INCHI_AUX N/A
#Library_Class 1
#SpectrumID CCMSLIB00000079494
#IonMode Positive
#UpdateWorkflowName UPDATE-SINGLE-ANNOTATED-GOLD
#LibraryQualityString Gold
#TaskID b1d8e8f6646f4e71acdff9ca3d919d08
##Scan# 2266
#SpectrumFile p1-B07_GB7_01_17891.mzXML
#LibraryName NIH_Natural_Products_Library.mgf
#MQScore -1
#Organism NIH_Natural_Products_Library
#TIC_Query 0
#RT_Query -1
#MZErrorPPM -1
#SharedPeaks 0
#MassDiff 0
#LibMZ -1
#SpecMZ 355.155
#SpecCharge 0
#internalFilename spec-00000.mgf

>collision 10
95.050026 396.0
95.340897 164.0
95.552841 136.0
95.71244 168.0
95.860481 144.0
96.402969 204.0
96.41571 96.0
96.774612 56.0
96.811821 172.0
96.882332 152.0
96.901917 76.0
97.025391 152.0
97.06852 180.0
97.33342 168.0
97.380554 220.0
97.415909 152.0
97.677345 212.0
97.77179 176.0
98.035675 148.0
98.126343 204.0
98.319649 156.0
98.892792 56.0
99.120529 172.0
99.281097 68.0
99.727798 276.0
100.09185 112.0
100.502457 144.0
100.560326 176.0
100.913902 224.0
101.592819 104.0
102.046692 120.0
102.227722 156.0
102.668892 172.0
103.05513 2092.0
103.090805 100.0
103.521683 100.0
103.541931 108.0
104.046829 52.0
104.270264 244.0
104.518349 88.0
104.565155 72.0
104.581436 208.0
104.756554 120.0
104.827858 152.0
104.897156 88.0
105.033539 208.0
105.069084 452.0
105.391037 180.0
105.66909 180.0
105.820541 164.0
106.052025 176.0
106.0755 184.0
106.433594 164.0
106.68013 136.0
106.706856 52.0
106.739754 236.0
106.774712 196.0
106.935188 164.0
106.964005 56.0
107.050041 1476.0
107.133827 68.0
107.518433 128.0
107.574158 208.0
107.747627 192.0
107.791016 172.0
107.872894 160.0
108.053841 176.0
108.076363 136.0
108.261108 192.0
108.767471 212.0
108.832893 156.0
108.874428 112.0
109.066658 320.0
109.144081 120.0
109.35675 156.0
109.408791 164.0
109.517075 160.0
109.662918 36.0
109.7463 212.0
110.029671 132.0
110.581886 152.0
110.780807 176.0
111.006943 464.0
111.111816 176.0
111.395439 208.0
111.550934 180.0
111.978065 132.0
112.243591 168.0
112.543213 180.0
112.671837 204.0
113.130943 112.0
113.662918 32.0
113.743561 136.0
113.873077 104.0
114.240799 120.0
114.321648 136.0
114.532425 196.0
114.617348 148.0
114.922539 148.0
115.477943 156.0
115.539978 60.0
115.668373 152.0
116.053719 192.0
116.369385 168.0
116.405884 104.0
116.526169 172.0
116.833595 228.0
116.982079 176.0
117.035004 184.0
117.436729 152.0
117.518707 168.0
117.544594 204.0
117.68058 96.0
117.952774 196.0
118.076019 152.0
118.344345 196.0
118.439629 140.0
118.491615 188.0
118.784271 204.0
118.93399 160.0
119.052284 400.0
119.08815 172.0
119.109871 184.0
119.577332 184.0
119.836464 244.0
120.051048 180.0
120.132957 124.0
120.517197 196.0
120.560898 144.0
120.748909 196.0
121.029015 120.0
121.064697 1072.0
121.326973 216.0
121.515579 28.0
121.563858 84.0
121.675797 184.0
122.060295 116.0
122.315498 160.0
123.009842 108.0
123.043869 1496.0
123.129074 152.0
123.266037 188.0
123.781433 44.0
123.918762 188.0
124.071678 56.0
124.331192 180.0
124.646523 68.0
124.768768 224.0
124.793221 172.0
124.933334 128.0
125.020103 104.0
125.059036 144.0
125.086876 56.0
125.536926 144.0
125.666298 188.0
125.931938 168.0
126.034698 88.0
126.636467 180.0
126.905373 144.0
126.970398 180.0
127.253136 200.0
127.333969 180.0
128.060822 288.0
128.078445 48.0
128.339859 100.0
128.360153 132.0
128.393967 144.0
128.412018 116.0
128.520294 144.0
128.782166 164.0
129.035248 208.0
129.068207 320.0
129.116653 80.0
129.521774 128.0
129.623734 20.0
129.7892 152.0
130.440063 168.0
130.923111 204.0
131.049652 1632.0
131.088501 152.0
131.381241 36.0
131.431427 156.0
131.787628 204.0
132.009338 208.0
132.053818 460.0
132.859085 116.0
132.886612 168.0
133.032562 220.0
133.061935 384.0
133.345871 148.0
133.626404 168.0
133.70694 196.0
133.881912 204.0
133.939484 264.0
133.976334 152.0
134.03685 364.0
134.211426 112.0
134.372864 188.0
134.795395 156.0
134.913269 136.0
134.973389 212.0
135.044495 21900.0
135.080048 376.0
135.128006 212.0
135.211655 76.0
135.246368 104.0
135.262573 48.0
135.408447 32.0
135.454529 80.0
135.505722 68.0
135.598419 128.0
135.670273 96.0
135.802444 32.0
135.881317 104.0
135.90683 112.0
136.018234 176.0
136.046753 1372.0
136.094574 208.0
136.210953 44.0
136.601471 144.0
136.636368 44.0
136.708496 224.0
136.878418 92.0
136.906372 132.0
136.952942 168.0
137.05835 2204.0
137.113708 48.0
137.174301 176.0
137.190628 36.0
137.503174 60.0
137.778702 232.0
137.911896 40.0
138.031128 152.0
138.064026 136.0
138.747574 136.0
138.993835 120.0
139.041092 120.0
139.061905 132.0
139.085373 72.0
139.748077 160.0
140.044678 180.0
140.287384 36.0
140.348679 140.0
140.372253 144.0
140.466599 184.0
141.054794 1480.0
141.125488 72.0
141.163315 76.0
141.280472 88.0
141.499298 52.0
141.534821 156.0
141.570328 164.0
141.60112 168.0
141.961334 164.0
142.055161 280.0
142.078537 360.0
142.250793 140.0
142.26741 156.0
142.457382 124.0
142.763992 80.0
142.790146 40.0
142.863876 128.0
143.05426 356.0
143.087555 272.0
143.280487 124.0
143.356735 104.0
143.671463 148.0
144.036697 196.0
144.053406 84.0
144.089249 128.0
144.192001 76.0
144.648834 140.0
144.938614 212.0
145.061615 404.0
145.411026 112.0
146.030884 188.0
146.078995 128.0
146.192078 136.0
146.490616 104.0
146.649658 116.0
146.902832 176.0
147.001541 204.0
147.04451 2880.0
147.134506 64.0
147.296295 68.0
147.368439 124.0
147.496857 144.0
147.852386 64.0
147.968567 188.0
148.007309 84.0
148.047485 344.0
148.85408 232.0
148.938553 40.0
148.974991 168.0
149.023239 448.0
149.059341 2636.0
149.208298 100.0
149.691238 160.0
149.746063 68.0
149.789902 168.0
149.955582 180.0
149.977524 164.0
150.031464 204.0
150.06041 172.0
150.161285 76.0
150.677353 188.0
151.038559 1144.0
151.062897 176.0
151.68364 72.0
151.736404 100.0
151.872452 212.0
152.040237 188.0
152.061172 428.0
152.193924 132.0
152.739502 60.0
152.938141 104.0
153.000336 156.0
153.054199 4348.0
153.192734 96.0
153.26387 320.0
153.401886 132.0
153.754593 144.0
153.934799 64.0
154.057434 508.0
154.085464 48.0
154.221375 96.0
154.446365 124.0
154.619568 84.0
154.929855 240.0
154.995956 80.0
155.018265 204.0
155.054977 216.0
155.084473 296.0
155.216568 48.0
155.29097 112.0
155.310806 116.0
156.08812 196.0
156.585831 52.0
156.673019 172.0
156.874863 184.0
157.06839 836.0
157.101791 180.0
158.081207 164.0
158.716782 168.0
159.043976 4540.0
159.080383 288.0
159.128922 180.0
159.249451 56.0
159.312256 40.0
159.34491 160.0
159.40773 56.0
159.502472 80.0
159.56105 120.0
159.583679 72.0
159.661621 208.0
159.689957 180.0
159.87294 228.0
159.925797 204.0
160.048218 1140.0
160.077988 176.0
160.230484 152.0
160.394287 104.0
160.491119 68.0
161.059113 1684.0
161.097809 168.0
161.174103 164.0
161.267868 116.0
161.340912 60.0
162.029266 376.0
162.064255 548.0
162.102753 184.0
162.131332 144.0
162.386673 136.0
163.039581 916.0
163.071091 188.0
163.402756 200.0
164.044693 668.0
164.166885 72.0
164.393921 128.0
165.056778 1108.0
165.972183 220.0
166.057144 260.0
166.082458 176.0
166.611252 36.0
166.688324 144.0
166.829681 164.0
167.033707 360.0
167.083603 256.0
167.290161 116.0
167.991074 228.0
168.052826 192.0
168.156219 200.0
168.298187 180.0
168.760681 224.0
168.902924 244.0
169.037445 148.0
169.066406 352.0
169.213455 200.0
169.278183 136.0
169.384369 200.0
169.511322 80.0
169.573517 28.0
169.799072 208.0
169.853531 180.0
170.071136 528.0
170.814621 244.0
171.042831 516.0
171.078613 196.0
171.215439 88.0
171.283157 112.0
171.867126 52.0
172.055374 228.0
172.088791 204.0
172.154266 76.0
173.057922 568.0
173.086716 196.0
173.091766 176.0
173.441452 196.0
173.805984 160.0
173.900452 100.0
174.036972 200.0
174.067978 716.0
175.012436 60.0
175.039093 1584.0
175.070618 188.0
175.112503 168.0
175.404968 60.0
175.428696 96.0
175.518326 132.0
175.602722 28.0
175.689758 124.0
175.911423 52.0
175.972153 40.0
176.046783 496.0
176.257401 96.0
176.352539 180.0
176.844482 68.0
177.055374 964.0
177.095001 168.0
177.252319 168.0
177.326523 132.0
177.355667 160.0
177.700409 124.0
178.063843 3212.0
178.133133 48.0
178.178299 88.0
178.366959 76.0
178.425446 80.0
178.664795 68.0
178.832428 196.0
178.912292 160.0
179.063339 516.0
179.084091 368.0
179.178604 76.0
179.229691 96.0
180.064178 112.0
180.090897 92.0
181.064056 580.0
181.777496 132.0
182.072296 728.0
182.139923 28.0
182.223206 152.0
182.575333 152.0
183.019333 52.0
183.054337 244.0
183.082092 484.0
183.911636 140.0
183.962921 204.0
184.053085 508.0
184.081863 396.0
184.143829 148.0
185.059143 1116.0
185.09845 148.0
185.366608 116.0
185.602432 92.0
186.06543 168.0
186.096252 40.0
186.742996 84.0
187.034119 160.0
187.074295 716.0
187.181137 32.0
187.360901 92.0
187.859772 140.0
187.993469 192.0
188.039856 112.0
188.076935 300.0
188.323807 88.0
188.918488 136.0
189.052155 512.0
189.092667 840.0
189.218933 196.0
189.297394 148.0
189.933212 104.0
190.031967 108.0
190.060471 336.0
190.092331 208.0
190.204849 68.0
190.745987 56.0
191.034714 200.0
191.066055 420.0
191.108398 1636.0
191.772659 60.0
192.056641 164.0
192.11058 396.0
192.42366 180.0
192.694321 116.0
193.05983 276.0
193.60434 144.0
194.065323 188.0
194.394394 192.0
195.038712 192.0
195.081207 392.0
195.366837 80.0
195.500397 140.0
195.564407 152.0
196.023911 128.0
196.467224 76.0
196.874725 88.0
197.060638 932.0
197.090118 292.0
197.282654 156.0
197.926147 56.0
198.062851 372.0
198.228668 144.0
198.273499 204.0
199.033707 132.0
199.07605 852.0
199.612549 96.0
200.047012 264.0
200.083221 600.0
200.188141 124.0
200.423203 196.0
201.056229 668.0
201.086197 932.0
201.354095 100.0
201.390076 56.0
202.065247 296.0
202.092834 256.0
202.479111 236.0
202.826416 204.0
202.993042 192.0
203.06839 428.0
203.103958 188.0
203.355743 116.0
203.64534 52.0
204.068756 160.0
205.042267 120.0
205.087875 208.0
205.4814 100.0
205.955261 148.0
206.026672 140.0
206.046677 152.0
206.249557 260.0
207.0392 60.0
207.076233 160.0
207.850449 156.0
207.907837 164.0
209.063217 176.0
209.618866 44.0
209.783142 140.0
210.065659 572.0
210.799072 172.0
211.07312 1192.0
211.218277 92.0
212.011581 148.0
212.043457 156.0
212.081161 460.0
213.000931 160.0
213.051483 1208.0
213.125854 68.0
213.338013 224.0
213.436859 168.0
214.061783 664.0
214.697739 136.0
215.039078 128.0
215.069382 1288.0
215.108459 152.0
215.436188 36.0
215.500458 44.0
216.073181 676.0
216.105682 236.0
216.418854 152.0
216.527191 72.0
217.053268 172.0
217.085464 288.0
217.239441 116.0
217.474182 152.0
217.982254 92.0
218.070404 152.0
218.096863 228.0
219.084061 160.0
219.710541 92.0
220.041077 124.0
220.303909 116.0
221.054062 592.0
221.377548 168.0
221.501938 80.0
221.540451 36.0
222.069717 488.0
222.17485 164.0
222.664612 48.0
223.03006 272.0
223.062759 116.0
223.342255 156.0
223.50885 96.0
223.705276 164.0
223.84819 136.0
224.031082 140.0
224.053696 144.0
224.074554 160.0
224.828949 96.0
225.051727 704.0
225.093811 940.0
225.246933 220.0
225.922516 84.0
226.05777 332.0
226.077545 152.0
226.096268 292.0
227.030182 196.0
227.067444 760.0
227.351715 44.0
228.037964 104.0
228.076843 1592.0
228.204788 104.0
228.273941 64.0
228.391235 188.0
229.084152 932.0
229.475342 68.0
230.049469 476.0
230.087265 212.0
230.809082 168.0
231.097046 212.0
231.333282 80.0
231.530075 148.0
232.278702 72.0
233.235184 148.0
234.068756 144.0
235.073318 368.0
235.486816 164.0
235.862625 76.0
236.089767 164.0
236.884644 164.0
237.053848 124.0
237.092987 360.0
237.399551 128.0
237.878174 156.0
238.060562 632.0
238.836868 72.0
238.883011 132.0
239.068954 1240.0
239.199951 40.0
239.566391 96.0
239.951614 144.0
240.028702 172.0
240.07663 412.0
240.364914 164.0
240.392685 120.0
240.60257 116.0
241.047607 1320.0
241.085541 308.0
241.195663 76.0
241.579102 40.0
241.842117 144.0
241.86998 232.0
242.053604 532.0
242.092896 120.0
242.216766 72.0
242.325195 56.0
242.428513 128.0
243.065659 208.0
243.072906 492.0
243.100296 1012.0
243.215195 28.0
243.628189 96.0
243.736938 116.0
244.073318 228.0
244.105713 232.0
245.080872 708.0
245.408371 224.0
246.082291 196.0
248.169159 204.0
248.197388 64.0
249.053314 300.0
249.176636 208.0
250.062057 344.0
250.211319 128.0
251.069595 688.0
251.257629 128.0
251.758026 112.0
252.036575 184.0
252.070099 696.0
252.233398 200.0
252.347214 48.0
253.048676 684.0
253.085739 1224.0
253.131897 52.0
253.524704 104.0
254.022476 160.0
254.055069 132.0
254.087357 648.0
254.480392 68.0
255.062576 312.0
255.098618 112.0
255.31456 168.0
255.496475 96.0
255.62056 84.0
255.684204 104.0
255.891098 188.0
256.072266 2176.0
256.833374 44.0
257.079041 1440.0
257.175751 52.0
257.466309 80.0
258.038269 72.0
258.086823 172.0
258.684479 120.0
258.860565 144.0
258.882965 104.0
259.072876 124.0
259.398804 116.0
259.499359 76.0
260.05957 152.0
260.155853 72.0
260.592621 104.0
261.084412 80.0
261.209869 64.0
263.067871 160.0
264.078064 120.0
264.698639 104.0
265.080872 132.0
265.975983 256.0
266.056915 668.0
266.183777 32.0
267.063782 2044.0
267.113251 148.0
267.18158 56.0
267.305206 244.0
267.917328 88.0
268.070892 1460.0
268.813934 180.0
269.046631 1512.0
269.078461 480.0
269.117493 136.0
269.186066 164.0
269.264435 68.0
269.408142 56.0
269.819916 92.0
269.88205 84.0
270.049957 752.0
270.08139 200.0
270.736084 124.0
271.01123 60.0
271.053314 148.0
271.095093 2580.0
271.154388 44.0
271.611176 108.0
271.670227 112.0
271.972107 96.0
272.103333 484.0
272.188782 32.0
272.293854 84.0
272.346405 76.0
273.106659 400.0
273.532501 72.0
273.648621 140.0
273.905487 100.0
274.152588 76.0
276.596619 72.0
276.752197 136.0
277.65683 116.0
278.842072 236.0
280.076416 248.0
280.519592 120.0
280.956451 172.0
281.08078 1016.0
281.260101 56.0
281.507172 128.0
281.974854 136.0
282.085785 636.0
282.837769 52.0
283.058716 1832.0
283.832764 124.0
284.000458 132.0
284.067139 4604.0
284.18161 52.0
284.557495 96.0
285.069427 484.0
285.125183 200.0
286.066467 160.0
287.057465 40.0
287.101318 132.0
287.173706 112.0
288.6716 80.0
289.321198 52.0
289.55484 156.0
289.588715 128.0
290.056305 164.0
291.68219 96.0
292.835632 148.0
294.291748 180.0
294.493225 140.0
296.384979 112.0
296.614594 140.0
297.07251 368.0
297.122131 144.0
297.247589 156.0
298.021637 64.0
298.082794 176.0
298.595703 52.0
298.753937 148.0
299.09079 11472.0
299.174774 148.0
299.638702 56.0
299.770721 176.0
299.828217 56.0
299.955719 32.0
300.02243 136.0
300.091125 1616.0
300.722473 80.0
301.104736 500.0
301.635071 92.0
301.740479 72.0
301.96524 188.0
301.996368 128.0
302.100128 144.0
302.183167 44.0
302.221222 92.0
302.370026 76.0
302.515381 60.0
303.124939 124.0
303.204651 152.0
303.329437 80.0
303.461151 148.0
306.269012 72.0
306.387451 72.0
307.109009 56.0
311.322754 84.0
311.761871 96.0
312.66568 64.0
315.225861 100.0
321.20105 172.0
327.142303 52.0
338.144318 100.0
340.134552 48.0
358.056915 64.0
404.895935 52.0
413.568298 100.0
428.275818 64.0
447.04895 108.0
480.047424 84.0
515.128357 60.0
516.330627 84.0
550.796814 80.0
559.321411 132.0
570.998535 96.0
609.69397 60.0
635.882751 20.0
661.900085 60.0
716.612732 216.0
730.187866 60.0
747.776733 168.0
771.981812 52.0
772.468506 48.0
772.623413 84.0
772.900024 160.0
797.887329 88.0
851.381653 180.0
886.066406 172.0
912.656128 184.0
926.319519 84.0
957.131531 72.0
957.944519 120.0
967.937317 164.0
972.804199 188.0
975.525024 144.0
979.326904 172.0
991.484802 228.0
1004.021423 176.0
1011.520142 36.0
1015.289917 124.0
1021.730591 168.0
1031.487305 140.0
1032.900513 64.0
1037.376465 152.0
1043.21167 120.0
1043.275879 136.0
1047.825806 28.0
1094.010986 20.0
1113.035522 120.0
1121.59082 204.0
1128.306274 116.0
1132.220703 196.0
1144.805542 156.0
1149.510742 184.0
1150.880981 64.0
1154.070068 140.0
1170.000122 192.0
1174.327026 148.0
1176.592407 100.0
1184.997681 128.0
1186.251831 44.0
1189.311035 120.0
1196.583984 52.0
1197.162354 104.0
1199.890869 164.0
1202.042847 120.0
1211.480225 160.0
1212.04834 108.0
1212.10376 56.0
1214.828491 124.0
1220.732056 172.0
1221.726685 144.0
1226.176025 148.0
1228.149048 184.0
1229.432739 128.0
1230.828857 216.0
1231.729736 216.0
1232.190796 228.0
1235.252808 60.0
1236.883179 152.0
1241.591431 124.0
1248.382202 156.0
1250.964233 132.0
1255.360718 200.0
1255.572266 256.0
1257.455933 112.0
1257.695923 204.0
1257.928833 152.0
1260.421875 208.0
1261.361816 160.0
1263.037598 196.0
1263.794556 240.0
1269.971802 160.0
1275.055298 180.0
1285.395264 156.0
1295.576416 168.0
1295.805664 104.0
1310.498291 172.0
1314.824829 160.0
1316.470825 144.0
1316.622437 220.0
1321.082031 224.0
1323.390625 172.0
1325.389771 160.0
1326.600098 144.0
1329.581055 232.0
1332.42749 216.0
1337.102905 152.0
1337.57605 104.0
1344.22998 144.0
1345.923462 172.0
1346.41272 140.0
1346.785156 204.0
1348.129395 216.0
1348.845703 144.0
1350.578613 124.0
1350.739502 36.0
1351.566162 160.0
1352.488281 176.0
1352.671265 56.0
1357.660767 136.0
1359.259888 212.0
1363.342773 136.0
1363.555908 172.0
1368.594849 72.0
1371.947021 172.0
1374.277466 128.0
1374.461914 60.0
1382.236084 184.0
1388.457886 200.0
1388.865723 176.0
1390.676147 200.0
1391.180908 128.0
1394.820801 156.0
1395.497192 140.0
1399.492676 144.0
1409.36792 84.0
1422.414917 128.0
1430.509521 84.0
1437.722534 36.0
1440.440552 192.0
1441.891235 196.0
1443.993042 216.0
1446.081177 104.0
1450.201294 140.0
1456.673584 144.0
1458.649292 140.0
1460.953369 188.0
1462.292603 184.0
1463.449585 132.0
1466.466187 256.0
1467.586792 148.0
1469.608032 272.0
1472.997559 44.0
1473.765259 236.0
1474.021362 232.0
1475.741089 108.0
1476.842285 164.0
1477.232422 192.0
1479.574097 136.0
1481.427368 220.0
1481.749023 36.0
1482.040161 124.0
1482.139771 160.0
1482.50769 296.0
