>compound MLS000028529-01!SILYBIN22888-70-6
>formula C25H22O10
>ionization [M+H]+
>parentmass 483.12857335609056
#inchi InChI=1S/C25H22O10/c1-32-17-6-11(2-4-14(17)28)24-20(10-26)33-16-5-3-12(7-18(16)34-24)25-23(31)22(30)21-15(29)8-13(27)9-19(21)35-25/h2-9,20,23-29,31H,10H2,1H3
#inchikey SEBFKMXJBCUCAI
#Ion_Source LC-ESI
#Instrument qTof
#Compound_Source NIH Pharmacologically Active Library
#PI Dorrestein
#Data_Collector VP/LMS
#Scan -1
#Precursor_MZ 483.132
#ExactMass 482.121
#Charge 1
#CAS_Number N/A
#Pubmed_ID N/A
#Smiles COc1cc(ccc1O)C2Oc3cc(ccc3OC2CO)C4Oc5cc(O)cc(O)c5C(=O)C4O
#INCHI_AUX N/A
#Library_Class 1
#SpectrumID CCMSLIB00000084923
#IonMode Positive
#UpdateWorkflowName UPDATE-SINGLE-ANNOTATED-GOLD
#LibraryQualityString Gold
#TaskID d252d724072548979f1f6f1ced849daf
##Scan# 1806
#SpectrumFile p3-C08_GC8_01_18253.mzXML
#LibraryName Pharm_Active_Library.mgf
#MQScore -1
#Organism Pharm_Active_Library
#TIC_Query 0
#RT_Query -1
#MZErrorPPM -1
#SharedPeaks 0
#MassDiff 0
#LibMZ -1
#SpecMZ 483.132
#SpecCharge 0
#internalFilename spec-00000.mgf

>collision 10
44.935364 160.0
45.270882 88.0
45.280254 144.0
45.363335 248.0
46.520836 128.0
47.427994 184.0
47.449928 56.0
47.648941 120.0
47.804321 132.0
48.389595 176.0
49.353851 72.0
49.831818 212.0
50.266922 184.0
50.976398 192.0
51.104378 124.0
51.573574 164.0
52.308014 92.0
52.524166 192.0
52.750881 124.0
53.118702 184.0
53.339428 156.0
53.460148 164.0
54.063618 232.0
54.213715 256.0
54.470482 152.0
54.489582 204.0
55.191181 164.0
55.583721 120.0
55.669518 156.0
55.715866 168.0
56.058094 196.0
57.136192 128.0
57.271679 128.0
57.301807 248.0
57.413353 84.0
57.426929 72.0
58.371971 152.0
58.448029 188.0
58.524136 164.0
58.671928 156.0
58.708523 156.0
58.722248 152.0
59.032276 220.0
59.452034 96.0
59.777832 176.0
60.282101 172.0
60.478519 220.0
61.259602 168.0
61.698132 200.0
62.17432 192.0
62.221409 124.0
63.018368 68.0
63.06736 120.0
63.282509 140.0
63.445698 72.0
63.48534 152.0
63.555138 172.0
63.9604 196.0
63.989056 152.0
64.054352 112.0
64.220123 80.0
64.386116 52.0
64.422852 124.0
64.448418 140.0
64.737953 132.0
65.1036 108.0
65.137329 172.0
65.381721 148.0
65.628189 208.0
66.00927 228.0
67.11673 128.0
67.736145 148.0
68.355118 180.0
68.539551 152.0
69.152237 108.0
70.013924 164.0
70.033905 52.0
70.232262 192.0
70.268959 88.0
70.70845 148.0
70.777084 184.0
70.937927 220.0
71.139229 184.0
71.152664 52.0
71.386223 164.0
71.487152 76.0
71.638458 260.0
71.977699 156.0
72.079056 124.0
72.544167 184.0
72.624191 96.0
73.367317 84.0
73.982338 208.0
74.959648 168.0
75.068245 236.0
75.109642 168.0
75.714584 152.0
76.101639 140.0
76.532501 144.0
76.602165 172.0
77.307556 148.0
77.389824 180.0
77.591316 180.0
77.786041 140.0
78.047821 128.0
78.623863 220.0
79.473267 100.0
79.640144 168.0
79.689888 184.0
79.89257 152.0
80.045639 40.0
80.127571 128.0
80.686195 148.0
80.827492 176.0
81.131981 180.0
81.796661 152.0
82.218422 56.0
82.24369 180.0
82.296043 164.0
82.417061 108.0
82.809631 212.0
83.166824 144.0
83.273949 160.0
83.595741 116.0
85.147873 164.0
85.522949 176.0
85.699745 116.0
85.930214 196.0
86.210892 184.0
87.089081 128.0
87.260048 188.0
87.695648 156.0
87.796326 216.0
87.856018 196.0
87.947456 120.0
88.519547 112.0
88.628189 184.0
89.0578 184.0
89.550591 176.0
89.750351 136.0
90.02774 228.0
90.042854 100.0
90.056076 120.0
90.107079 156.0
90.324478 88.0
90.598969 148.0
90.849686 240.0
91.18531 128.0
91.219521 252.0
91.282265 204.0
91.510605 92.0
91.981491 200.0
92.35601 148.0
92.392357 204.0
92.560783 72.0
92.660385 128.0
92.875092 144.0
93.033417 172.0
94.568771 152.0
94.981491 148.0
95.198868 180.0
95.290161 68.0
95.319305 136.0
95.636314 116.0
95.790138 108.0
96.475105 212.0
96.839066 176.0
96.907631 44.0
97.031105 164.0
97.164474 100.0
97.881889 228.0
98.309662 192.0
98.457726 120.0
99.106567 140.0
99.201698 196.0
99.735672 196.0
100.865883 52.0
101.035866 156.0
101.43438 148.0
102.047386 348.0
102.330383 132.0
102.997894 240.0
103.020119 168.0
103.053436 500.0
103.315277 128.0
103.584518 192.0
103.658691 196.0
103.756767 92.0
103.791237 240.0
103.876419 100.0
104.050949 216.0
104.07531 160.0
104.95433 188.0
105.032646 268.0
105.070587 192.0
105.313507 244.0
105.472885 164.0
105.92511 148.0
105.970177 224.0
106.039848 180.0
106.061646 192.0
106.435783 172.0
107.053032 420.0
108.033104 200.0
108.049652 168.0
108.828957 160.0
108.912025 76.0
109.031792 216.0
109.06163 120.0
109.656906 168.0
109.965584 112.0
110.214096 156.0
111.004227 160.0
111.043617 80.0
111.224892 124.0
112.014183 136.0
112.058426 104.0
112.666039 232.0
112.780151 148.0
112.868942 192.0
113.169403 32.0
114.02005 196.0
114.209274 232.0
114.236931 164.0
114.993362 68.0
115.051468 324.0
115.080887 68.0
115.341522 184.0
115.880821 116.0
115.98568 172.0
116.341927 136.0
116.913673 156.0
117.072159 168.0
118.035431 144.0
118.074356 144.0
118.180351 172.0
118.243111 188.0
118.817337 100.0
119.049881 620.0
119.403831 220.0
119.954712 160.0
120.022293 252.0
120.054092 296.0
120.543999 144.0
120.828247 168.0
121.02681 984.0
121.065872 304.0
121.12159 52.0
122.034058 544.0
122.401993 40.0
122.512115 176.0
122.580421 216.0
122.611275 56.0
122.789856 36.0
123.044792 368.0
123.162865 60.0
123.399323 204.0
124.015602 184.0
124.053497 180.0
124.125587 128.0
124.460648 76.0
124.513939 144.0
124.571693 148.0
124.627235 128.0
124.665009 180.0
124.787262 212.0
125.050621 132.0
125.95726 176.0
126.089081 160.0
127.031853 164.0
127.251678 140.0
127.35498 56.0
127.462814 156.0
127.56395 48.0
127.635895 152.0
127.793343 180.0
127.874359 148.0
128.058975 168.0
128.327148 68.0
128.410583 184.0
128.927597 200.0
129.008957 124.0
129.76059 184.0
130.041061 664.0
130.323471 244.0
130.453018 152.0
130.603088 76.0
130.739609 224.0
130.873917 40.0
130.930832 188.0
131.049728 1888.0
131.160965 48.0
131.236191 48.0
131.367691 140.0
131.514511 176.0
131.704025 40.0
132.054199 524.0
132.142944 168.0
132.390167 164.0
132.779755 100.0
133.029816 836.0
133.062927 548.0
133.349152 72.0
133.425003 140.0
133.604385 44.0
133.963516 132.0
134.033173 404.0
134.9328 148.0
135.044128 736.0
136.05069 304.0
136.639771 184.0
136.965683 124.0
137.022751 180.0
137.058426 1896.0
137.231354 92.0
137.990158 36.0
138.063568 92.0
138.144516 152.0
138.315338 120.0
139.037903 1184.0
139.074783 32.0
139.118103 88.0
139.250351 140.0
139.370697 64.0
139.68338 36.0
139.761017 52.0
139.852798 164.0
140.04071 172.0
140.23671 156.0
140.611725 92.0
141.103058 40.0
141.536041 132.0
142.01001 100.0
142.358887 112.0
144.480255 64.0
144.516129 132.0
144.571167 140.0
144.939941 88.0
145.06163 308.0
145.134094 176.0
145.421982 176.0
145.534805 124.0
146.03656 460.0
146.711304 48.0
146.733002 164.0
147.045288 2168.0
147.085205 64.0
147.589127 116.0
147.679611 32.0
147.986954 48.0
148.048477 280.0
148.086227 220.0
148.105606 228.0
148.345505 180.0
148.802185 180.0
148.915726 48.0
148.942444 192.0
149.02356 3140.0
149.059875 1760.0
149.090652 208.0
149.173294 44.0
149.22435 64.0
149.324051 88.0
149.343506 116.0
149.384857 40.0
149.637955 72.0
149.903458 64.0
149.961945 44.0
150.024857 836.0
150.06633 864.0
150.174072 100.0
150.244812 68.0
150.381454 40.0
150.601212 64.0
150.635406 32.0
150.93602 72.0
151.035965 288.0
151.074997 776.0
151.124359 76.0
151.146378 144.0
151.19043 96.0
151.474442 128.0
151.538147 112.0
151.824936 64.0
152.026108 88.0
152.043289 152.0
152.062881 272.0
152.08255 48.0
152.231094 64.0
152.507477 48.0
152.82225 76.0
152.907135 164.0
152.952682 116.0
153.018433 7916.0
153.068268 196.0
153.109131 52.0
153.236862 92.0
153.415802 44.0
153.536621 36.0
153.721649 68.0
153.840118 156.0
153.896896 136.0
153.970978 168.0
154.022461 1052.0
154.171097 84.0
154.302094 72.0
154.368851 72.0
154.816772 104.0
155.043869 160.0
155.233093 60.0
155.488617 64.0
156.036972 204.0
156.102234 104.0
156.199234 52.0
156.385849 264.0
156.617416 96.0
156.921448 92.0
156.976303 148.0
157.061371 108.0
157.482925 176.0
158.070419 152.0
158.353317 92.0
158.440994 116.0
158.636459 136.0
159.043716 464.0
159.093033 68.0
159.774094 52.0
159.806793 68.0
159.937653 108.0
160.043396 164.0
160.229767 60.0
160.249924 276.0
161.023819 132.0
161.061218 972.0
161.448944 164.0
161.998199 176.0
162.020996 136.0
162.04126 164.0
162.067886 2344.0
162.223724 252.0
162.24147 84.0
162.261765 52.0
162.320084 68.0
162.467178 44.0
163.037033 128.0
163.072708 380.0
164.007431 508.0
164.087219 176.0
164.281036 92.0
164.337158 104.0
164.771194 52.0
165.016556 148.0
165.055893 440.0
166.025452 204.0
166.29483 52.0
166.525909 144.0
166.88826 160.0
167.035706 1020.0
167.08667 184.0
167.402893 68.0
167.500763 148.0
168.036087 208.0
169.065399 140.0
169.433075 108.0
170.216385 92.0
170.759537 172.0
171.037354 144.0
171.087387 112.0
171.535461 84.0
171.694504 72.0
172.049377 156.0
172.127701 148.0
172.849167 108.0
173.035416 200.0
173.061661 500.0
173.621948 116.0
174.03656 200.0
174.068375 196.0
175.041092 316.0
176.043091 184.0
177.016983 176.0
177.052292 1008.0
177.238739 32.0
177.803589 152.0
178.023926 180.0
178.056671 360.0
178.909348 204.0
179.031296 340.0
179.063782 384.0
179.087753 144.0
179.866348 192.0
179.943756 216.0
180.079956 824.0
181.018646 32.0
181.064926 152.0
181.450043 196.0
181.777267 52.0
182.01886 168.0
182.07402 176.0
182.518661 124.0
183.038574 168.0
183.081284 164.0
183.57692 48.0
184.048325 108.0
184.090775 164.0
184.178772 76.0
185.025192 124.0
185.058899 340.0
185.857269 220.0
186.066498 180.0
186.73201 56.0
187.034698 400.0
187.063965 168.0
187.76149 32.0
187.90062 104.0
188.110748 120.0
189.050583 344.0
189.174133 132.0
189.530182 64.0
191.05397 240.0
191.814011 152.0
191.910507 48.0
192.142181 124.0
192.470627 132.0
193.061981 104.0
193.93132 140.0
194.250198 96.0
194.724838 48.0
194.78595 144.0
195.027206 2296.0
195.059753 312.0
195.081589 528.0
195.130157 92.0
195.35025 84.0
195.411453 176.0
195.43927 48.0
195.725967 48.0
196.030014 132.0
196.085327 320.0
196.166168 52.0
196.428284 128.0
196.553833 88.0
197.035812 348.0
197.059509 228.0
197.889908 160.0
198.069138 120.0
198.408203 160.0
198.671829 132.0
198.978287 100.0
199.038864 192.0
199.064774 124.0
199.087234 32.0
200.04155 156.0
200.299454 252.0
200.657349 276.0
200.795532 176.0
201.012756 136.0
201.055145 1076.0
201.210327 168.0
202.058197 136.0
202.116058 136.0
202.233643 132.0
203.039093 232.0
203.068878 136.0
204.387619 48.0
204.461609 128.0
204.897263 116.0
205.036896 144.0
205.061661 192.0
205.193665 156.0
205.233582 60.0
206.084167 96.0
206.478653 20.0
207.074677 156.0
208.295837 184.0
209.056427 168.0
209.711517 112.0
210.069061 132.0
210.105759 112.0
211.033661 176.0
211.07608 316.0
211.360504 68.0
212.044693 124.0
212.084518 192.0
212.330963 48.0
213.057922 1912.0
213.111832 44.0
213.175766 40.0
213.245514 88.0
213.60025 200.0
214.063339 280.0
215.029724 364.0
215.057144 644.0
215.081833 212.0
215.568237 116.0
216.037903 88.0
216.117966 32.0
216.363815 96.0
217.002502 188.0
217.075806 188.0
218.056351 96.0
219.029648 196.0
219.095062 252.0
220.904709 116.0
221.058167 180.0
221.407883 172.0
221.43158 92.0
222.056931 100.0
223.04567 324.0
223.074417 504.0
224.075333 176.0
224.659668 56.0
225.062576 192.0
225.083481 108.0
226.096878 156.0
226.324387 212.0
227.061523 152.0
227.106552 124.0
227.832993 68.0
228.041794 184.0
228.089279 184.0
228.133514 176.0
229.050095 1772.0
229.135666 60.0
229.539566 56.0
229.774826 52.0
230.048218 412.0
230.260818 56.0
231.062057 396.0
231.272903 156.0
231.397797 36.0
232.068619 180.0
232.698471 136.0
232.731873 256.0
233.052231 380.0
233.315216 152.0
234.059784 216.0
234.474945 104.0
235.079834 340.0
236.062408 112.0
236.083817 124.0
236.806091 228.0
237.056366 172.0
237.091019 176.0
237.265732 136.0
238.059586 300.0
238.496689 160.0
238.576614 44.0
239.03595 376.0
239.071457 616.0
239.358109 56.0
240.032944 168.0
240.080887 168.0
240.779755 196.0
241.051468 860.0
241.097961 152.0
241.506073 116.0
242.054321 1096.0
242.143646 40.0
243.061691 148.0
244.033478 56.0
244.070786 132.0
244.101883 212.0
244.400497 140.0
247.080597 44.0
249.036652 160.0
250.065338 136.0
250.984665 96.0
251.068237 856.0
251.628311 52.0
251.877792 168.0
251.925674 152.0
252.075531 436.0
252.370804 36.0
253.086792 236.0
253.196716 108.0
254.059814 216.0
254.090134 164.0
255.030563 228.0
255.062393 384.0
255.104141 584.0
255.373947 120.0
255.863998 204.0
256.029572 140.0
256.071533 188.0
256.097717 192.0
256.160156 36.0
256.360901 100.0
256.931641 120.0
257.044281 1400.0
257.07254 292.0
257.681915 120.0
258.047455 252.0
258.074829 184.0
258.084778 168.0
258.196533 148.0
259.056274 168.0
260.077271 136.0
261.0495 312.0
262.103333 120.0
263.078339 408.0
263.145142 32.0
264.08551 144.0
265.043762 160.0
265.09259 176.0
266.048462 144.0
266.05481 116.0
267.066956 428.0
268.072601 136.0
268.163544 136.0
268.900665 68.0
269.041779 356.0
269.097717 292.0
270.050415 116.0
270.072723 132.0
270.106323 44.0
270.440063 192.0
270.983673 184.0
271.049042 168.0
271.094055 404.0
273.080688 144.0
273.091644 116.0
273.098663 160.0
274.296326 112.0
275.059601 136.0
275.081421 124.0
276.059387 60.0
276.707916 64.0
277.055664 152.0
277.089417 152.0
278.043793 124.0
279.066345 416.0
279.097595 136.0
279.412811 48.0
279.615784 116.0
279.698975 88.0
280.072998 208.0
281.048706 324.0
281.080627 180.0
281.492676 228.0
282.050598 132.0
282.086456 148.0
282.334778 68.0
282.6091 192.0
282.870117 116.0
282.927032 104.0
283.063324 272.0
283.094421 952.0
283.959106 148.0
284.029541 104.0
284.099884 280.0
284.321442 108.0
284.569824 128.0
284.845215 40.0
285.035217 108.0
285.078644 524.0
286.039337 280.0
286.080688 160.0
287.049683 48.0
287.073303 40.0
289.052643 156.0
289.083282 76.0
290.038361 128.0
291.225922 132.0
293.079987 148.0
294.038239 152.0
294.082611 212.0
295.063019 476.0
296.054535 140.0
296.085205 180.0
296.997803 140.0
297.030823 152.0
297.066406 136.0
297.093842 212.0
298.092987 156.0
298.192627 180.0
299.049042 104.0
299.076569 160.0
299.117889 200.0
300.062469 116.0
300.106628 176.0
301.062469 112.0
301.128082 148.0
302.087219 156.0
302.736237 56.0
303.047333 148.0
303.1315 160.0
303.640747 80.0
304.060394 84.0
305.064392 128.0
305.224304 68.0
307.057648 380.0
308.082275 116.0
309.089203 260.0
311.060028 280.0
312.014404 192.0
312.060089 100.0
313.073517 100.0
313.16507 84.0
314.077972 152.0
314.406097 92.0
315.048737 280.0
315.101715 124.0
315.522278 52.0
316.098816 132.0
317.086853 132.0
318.092651 144.0
321.080017 144.0
322.725616 172.0
323.055237 120.0
324.064789 156.0
325.086395 164.0
327.060333 160.0
327.095276 64.0
328.52951 32.0
329.023926 120.0
329.067657 68.0
329.103333 60.0
330.071716 116.0
330.104248 144.0
332.100708 168.0
333.091583 180.0
333.20694 84.0
333.624878 36.0
334.818359 112.0
335.090027 184.0
336.09787 180.0
336.378876 64.0
337.102051 96.0
337.964996 188.0
338.096741 212.0
341.065216 300.0
342.071198 176.0
342.565216 172.0
343.087891 120.0
345.079193 164.0
346.076813 140.0
347.077881 60.0
348.094604 188.0
348.480896 224.0
349.094208 180.0
350.113892 140.0
351.083344 116.0
351.12384 184.0
351.403625 124.0
351.937347 148.0
352.082977 168.0
353.080841 116.0
353.106995 164.0
355.110748 168.0
357.097595 208.0
357.281921 148.0
358.034729 196.0
359.093811 144.0
360.087463 296.0
361.101196 164.0
363.074554 216.0
363.127441 176.0
363.774384 96.0
364.085022 88.0
366.101288 112.0
369.773956 88.0
370.068726 116.0
371.07254 152.0
371.099396 124.0
372.039337 160.0
373.075592 184.0
373.103485 304.0
374.103729 136.0
374.234619 176.0
375.083435 256.0
376.088898 132.0
376.753082 88.0
377.108276 104.0
379.115295 764.0
379.276123 68.0
379.799561 80.0
380.032318 164.0
380.118408 388.0
381.119507 96.0
381.49649 76.0
381.718109 40.0
382.336639 76.0
383.05307 112.0
386.093567 124.0
387.078033 456.0
387.424408 128.0
388.098511 184.0
389.102936 156.0
390.069336 132.0
390.108643 112.0
391.119171 600.0
391.993896 40.0
392.126801 144.0
393.536194 68.0
398.058105 80.0
401.049835 108.0
402.094818 128.0
403.087524 168.0
405.104492 244.0
407.08255 140.0
407.12677 308.0
408.11972 180.0
409.130035 320.0
412.316132 72.0
415.094727 168.0
416.062927 152.0
418.088623 144.0
418.315094 72.0
419.106842 1072.0
419.194824 116.0
420.042847 148.0
420.112122 192.0
429.980621 60.0
431.091522 204.0
432.046631 128.0
432.079742 96.0
432.708801 32.0
433.083679 632.0
433.137421 144.0
433.222351 96.0
433.694733 52.0
433.893707 60.0
434.088989 356.0
434.432831 132.0
435.103394 220.0
435.478882 32.0
435.74057 52.0
435.952484 76.0
436.297485 144.0
437.119995 284.0
437.516418 108.0
438.120636 136.0
439.12619 188.0
445.285675 76.0
447.101532 144.0
450.939789 40.0
453.106354 120.0
465.145294 164.0
465.763611 36.0
467.29834 136.0
473.973633 64.0
480.23819 88.0
481.538818 80.0
482.351532 128.0
491.557129 108.0
521.698853 72.0
525.150391 44.0
525.921509 84.0
531.692932 76.0
533.015503 84.0
534.220093 72.0
606.892761 104.0
713.365356 96.0
741.237976 104.0
746.068481 36.0
752.939514 56.0
756.011963 180.0
758.739746 96.0
811.687683 60.0
854.051575 188.0
859.119446 200.0
861.635681 60.0
887.22522 176.0
925.845276 220.0
929.87085 96.0
978.479431 156.0
979.450928 160.0
982.062561 184.0
991.960938 76.0
1020.077698 196.0
1027.879639 112.0
1028.664673 156.0
1037.018433 160.0
1067.770996 112.0
1073.991089 88.0
1083.797363 120.0
1085.199951 112.0
1104.052612 172.0
1109.130859 68.0
1134.287842 160.0
1137.769531 176.0
1144.459229 136.0
1150.567627 132.0
1152.911499 228.0
1166.630371 128.0
1167.480347 192.0
1189.089722 200.0
1204.167725 64.0
1211.971069 188.0
1213.766357 168.0
1233.8396 100.0
1238.843384 100.0
1243.541504 56.0
1249.078369 216.0
1252.203491 120.0
1256.27063 160.0
1260.309082 184.0
1264.488403 140.0
1274.593994 192.0
1279.174194 184.0
1290.889404 200.0
1297.871094 152.0
1305.547485 136.0
1310.564819 140.0
1313.037354 40.0
1319.456787 152.0
1320.100342 148.0
1323.421631 216.0
1323.834351 180.0
1335.264648 208.0
1346.145142 192.0
1346.5979 156.0
1348.176025 80.0
1353.032837 156.0
1353.289062 184.0
1355.230103 180.0
1372.422241 180.0
1374.767944 116.0
1379.938599 196.0
1385.430176 136.0
1394.928955 164.0
1410.77002 116.0
1412.684448 212.0
1414.323242 164.0
1414.862183 160.0
1418.413086 144.0
1423.912964 204.0
1428.994507 168.0
1429.047119 104.0
1432.080933 128.0
1433.663086 156.0
1433.949463 164.0
1442.493896 172.0
1442.955078 48.0
1445.572144 260.0
1452.671509 156.0
1456.945435 152.0
1459.963135 160.0
1480.277588 204.0
1480.691162 156.0
1487.039307 196.0
1487.108398 132.0
1495.640137 160.0
