>compound MLS002702945-01!
>formula C14H19NO4
>ionization [M+H]+
>parentmass 266.139099
#inchi InChI=1S/C14H19NO4/c1-9(16)19-14-12(15-8-13(14)17)7-10-3-5-11(18-2)6-4-10/h3-6,12-15,17H,7-8H2,1-2H3
#inchikey YKJYKKNCCRKFSL
#Ion_Source LC-ESI
#Instrument qTof
#Compound_Source NIH Natural Product Library
#PI Dorrestein
#Data_Collector VVP/LMS
#Scan -1
#Precursor_MZ 266.139
#ExactMass 265.131
#Charge 1
#CAS_Number N/A
#Pubmed_ID N/A
#Smiles COc1ccc(CC2NCC(O)C2OC(=O)C)cc1
#INCHI_AUX N/A
#Library_Class 1
#SpectrumID CCMSLIB00000079696
#IonMode Positive
#UpdateWorkflowName UPDATE-SINGLE-ANNOTATED-GOLD
#LibraryQualityString Gold
#TaskID b1d8e8f6646f4e71acdff9ca3d919d08
##Scan# 1334
#SpectrumFile p1-H09_GH9_01_17965.mzXML
#LibraryName NIH_Natural_Products_Library.mgf
#MQScore -1
#Organism NIH_Natural_Products_Library
#TIC_Query 0
#RT_Query -1
#MZErrorPPM -1
#SharedPeaks 0
#MassDiff 0
#LibMZ -1
#SpecMZ 266.139
#SpecCharge 0
#internalFilename spec-00000.mgf

>collision 10
95.078186 152.0
95.109238 104.0
95.15583 128.0
95.431725 68.0
95.764496 164.0
95.885124 140.0
95.986664 248.0
96.226662 120.0
96.394646 164.0
96.468918 164.0
97.111176 176.0
97.140602 208.0
97.228897 144.0
97.252449 132.0
97.476334 140.0
98.050972 184.0
98.60556 180.0
98.658928 48.0
98.922798 228.0
99.050751 172.0
99.165672 136.0
99.308426 112.0
99.546692 148.0
99.854622 320.0
100.274719 180.0
100.369919 212.0
100.524002 132.0
100.555931 124.0
100.669731 148.0
100.877525 64.0
100.9655 176.0
101.023506 160.0
101.889565 44.0
101.982002 168.0
102.043259 776.0
102.066437 124.0
102.29982 108.0
102.878387 112.0
103.053314 756.0
103.120781 48.0
103.138977 88.0
103.418106 140.0
103.661133 72.0
103.796951 236.0
104.058136 344.0
104.994736 100.0
105.031898 164.0
105.069084 440.0
105.094696 164.0
105.204903 164.0
105.250259 168.0
105.441849 92.0
105.478638 184.0
105.587845 136.0
105.652458 188.0
105.977989 140.0
106.040245 1000.0
106.07238 140.0
106.597679 124.0
106.653168 144.0
106.749794 208.0
106.895645 160.0
106.937012 128.0
107.048424 604.0
107.075096 172.0
107.25251 184.0
107.687508 152.0
107.890015 168.0
108.014091 120.0
108.056961 364.0
108.152725 152.0
108.52977 152.0
108.585762 196.0
108.905396 124.0
109.030052 228.0
109.06562 212.0
109.196381 140.0
109.483582 152.0
109.614822 132.0
110.418564 208.0
110.580421 220.0
110.833054 136.0
110.923172 144.0
111.50248 68.0
111.737991 184.0
112.154953 176.0
112.416473 152.0
113.003899 148.0
113.14782 172.0
113.476212 36.0
113.802956 144.0
114.02388 152.0
114.841461 208.0
114.862785 212.0
115.017548 148.0
115.053413 1240.0
115.430893 108.0
115.454422 100.0
116.061058 684.0
116.090454 168.0
116.266373 104.0
116.28569 84.0
116.427383 208.0
116.880966 112.0
116.943375 164.0
117.064903 984.0
117.317322 160.0
117.799416 188.0
117.890167 228.0
118.041199 320.0
118.063698 444.0
118.171265 120.0
118.350914 60.0
118.5177 212.0
118.753998 144.0
118.866806 240.0
119.047318 228.0
119.072365 488.0
119.112144 152.0
119.168625 148.0
119.283806 228.0
119.375122 156.0
119.849663 92.0
119.943375 136.0
120.05349 132.0
120.077324 160.0
120.266197 32.0
120.47364 148.0
120.571968 116.0
120.609123 100.0
120.685638 56.0
120.770065 264.0
120.856247 120.0
120.897827 120.0
120.928467 160.0
120.943787 384.0
121.016708 136.0
121.064507 48160.0
121.101761 168.0
121.133743 48.0
121.166862 60.0
121.181847 136.0
121.214867 72.0
121.223495 56.0
121.238983 184.0
121.295654 108.0
121.312943 84.0
121.377563 60.0
121.42643 208.0
121.443359 68.0
121.45871 72.0
121.512001 108.0
121.601334 64.0
121.702171 124.0
121.740913 44.0
121.812126 92.0
121.836288 124.0
122.067635 3532.0
122.101608 108.0
122.126266 48.0
122.26506 44.0
122.313484 36.0
122.342468 72.0
122.410355 104.0
122.449997 56.0
122.465416 72.0
122.540192 72.0
122.615234 104.0
122.637276 40.0
122.683571 64.0
122.727661 56.0
122.762947 148.0
122.790306 128.0
122.852585 56.0
122.917358 128.0
122.932808 76.0
122.985092 80.0
123.015427 136.0
123.037987 104.0
123.06958 312.0
123.11705 108.0
123.140327 112.0
123.162415 204.0
123.202179 124.0
123.330345 132.0
123.381187 60.0
123.936722 160.0
124.242691 48.0
124.451317 116.0
124.544586 160.0
124.842407 80.0
125.082695 72.0
126.043938 72.0
127.051529 572.0
127.430901 128.0
127.500557 200.0
127.59272 140.0
127.709656 144.0
127.777138 200.0
128.061111 860.0
128.970078 20.0
129.066193 568.0
129.083374 184.0
130.038788 620.0
130.066315 836.0
130.241226 128.0
130.827911 60.0
131.049774 812.0
131.070084 1076.0
131.263092 48.0
131.283615 44.0
131.42276 96.0
131.525467 52.0
131.788086 108.0
132.053284 848.0
132.078659 484.0
132.1138 60.0
132.266068 116.0
132.577545 36.0
132.836639 144.0
133.064651 476.0
133.438324 96.0
134.059723 452.0
134.338806 136.0
134.359573 168.0
134.534958 152.0
134.906891 100.0
135.038696 144.0
135.072693 536.0
135.133545 40.0
135.214539 84.0
135.327972 148.0
136.079086 184.0
136.192978 124.0
136.327728 228.0
136.697479 56.0
137.072388 176.0
137.751312 172.0
138.078552 216.0
138.942902 236.0
139.046158 160.0
140.010071 40.0
141.068222 172.0
141.729797 184.0
142.019028 108.0
142.068848 168.0
142.265808 100.0
142.68631 52.0
143.047928 140.0
143.068008 132.0
143.209839 88.0
143.376617 152.0
143.421906 128.0
143.443359 60.0
143.755798 148.0
144.055695 4520.0
144.102036 40.0
144.190445 192.0
144.295624 156.0
144.341049 40.0
144.458252 104.0
144.632935 48.0
144.673615 112.0
144.879349 172.0
144.985001 136.0
145.062119 3320.0
145.087128 920.0
145.215164 60.0
145.457504 188.0
145.656815 100.0
145.714478 128.0
146.067337 780.0
146.212219 108.0
146.248322 108.0
146.291656 40.0
146.349442 52.0
146.438538 44.0
146.995438 176.0
147.019577 156.0
147.036469 176.0
147.076996 820.0
147.244095 108.0
147.378586 196.0
147.420456 92.0
147.848495 116.0
148.076828 424.0
148.188614 72.0
148.369278 92.0
149.093689 668.0
149.177689 40.0
149.413574 72.0
149.776291 136.0
149.912735 96.0
150.091248 412.0
150.202866 68.0
150.312653 56.0
150.422485 128.0
151.061722 216.0
151.091766 220.0
151.36377 28.0
151.478882 104.0
152.330093 100.0
153.257599 224.0
153.383286 100.0
154.059433 92.0
155.057404 300.0
156.054382 132.0
156.079636 688.0
156.111725 44.0
156.320679 160.0
156.671753 132.0
156.955887 164.0
157.058136 168.0
157.085663 712.0
157.444992 92.0
158.029922 132.0
158.059082 536.0
158.090637 244.0
159.077789 1444.0
159.135254 52.0
159.539749 60.0
160.010193 84.0
160.07579 1032.0
160.39563 124.0
160.65033 48.0
160.996124 64.0
161.050217 144.0
161.093033 540.0
162.092712 1204.0
163.070038 452.0
163.091248 428.0
163.363495 64.0
164.079117 116.0
164.170898 152.0
165.082581 180.0
165.433121 172.0
167.016388 140.0
167.608521 112.0
171.077301 1156.0
171.545441 76.0
172.077393 232.0
173.080399 1468.0
173.165497 128.0
173.251938 72.0
173.409149 60.0
173.805145 44.0
174.066498 148.0
174.090652 352.0
174.335587 48.0
175.09845 312.0
176.066422 164.0
176.436356 132.0
177.087311 244.0
178.119125 128.0
178.31366 72.0
179.092651 132.0
179.687119 84.0
183.285385 64.0
185.070816 136.0
185.333557 184.0
186.086243 472.0
187.089554 340.0
188.107132 1940.0
188.145844 100.0
189.094879 284.0
189.114273 188.0
190.085556 324.0
190.872055 128.0
191.04808 60.0
191.093201 284.0
191.210419 60.0
192.04248 48.0
192.095001 344.0
199.972488 112.0
203.012405 172.0
205.983841 204.0
206.115646 3200.0
206.246719 28.0
206.432556 56.0
207.11647 472.0
207.641098 48.0
209.80632 48.0
215.845657 100.0
224.130661 400.0
225.135559 148.0
229.28009 104.0
229.943588 48.0
232.877441 140.0
238.081757 140.0
241.094711 164.0
266.139099 468.0
267.128113 308.0
268.979004 112.0
269.325134 92.0
277.619202 80.0
295.853455 40.0
303.096741 52.0
322.243469 88.0
345.16037 72.0
345.434052 36.0
345.533936 60.0
345.959961 148.0
369.066986 48.0
380.588196 104.0
425.002502 52.0
437.946594 76.0
444.537628 20.0
448.134918 92.0
550.243713 84.0
606.704163 104.0
606.738464 72.0
634.067383 180.0
692.871094 80.0
711.721802 160.0
716.924255 152.0
729.599304 192.0
778.519653 40.0
801.252197 48.0
846.453247 144.0
847.304688 100.0
855.027649 156.0
856.419128 48.0
880.590515 20.0
905.625305 136.0
909.516724 240.0
912.430298 216.0
925.377747 288.0
955.565918 200.0
963.920776 44.0
972.269165 208.0
985.007629 156.0
988.39624 268.0
988.921875 196.0
991.72168 160.0
992.50531 136.0
995.015015 140.0
997.873657 192.0
999.811096 140.0
1014.160706 80.0
1017.586304 188.0
1026.086304 200.0
1030.151489 252.0
1031.512695 80.0
1038.870605 192.0
1046.96936 180.0
1054.601807 212.0
1066.02124 176.0
1066.5802 144.0
1066.742676 168.0
1069.448608 224.0
1076.685669 200.0
1085.467896 224.0
1089.064331 204.0
1099.704468 136.0
1100.443848 104.0
1101.817505 160.0
1105.070435 172.0
1107.228394 188.0
1108.738892 136.0
1112.015259 240.0
1115.681885 280.0
1119.021729 172.0
1122.513184 188.0
1124.494629 224.0
1131.372925 264.0
1135.205444 216.0
1137.486572 156.0
1141.537964 156.0
1147.308228 136.0
1147.416138 104.0
1147.591431 156.0
1148.542358 44.0
1149.095459 208.0
1150.674805 240.0
1151.498657 224.0
1160.031006 180.0
1166.228394 208.0
1167.193848 188.0
1167.996338 180.0
1178.795776 144.0
1178.973389 304.0
1185.96814 144.0
1189.637939 220.0
1192.296143 132.0
1195.734863 100.0
1206.447144 128.0
1212.871094 188.0
1213.390991 156.0
1215.8396 184.0
1217.998901 168.0
1221.551025 216.0
1222.337158 140.0
1227.394287 164.0
1228.935791 240.0
1231.92395 148.0
1232.615601 232.0
1232.706543 176.0
1238.513306 152.0
1238.779541 164.0
1239.241943 176.0
1239.613281 212.0
1241.302734 152.0
1242.951172 120.0
1245.626099 132.0
1247.207031 168.0
1248.331909 108.0
1252.435059 176.0
1252.632324 32.0
1252.801392 180.0
1253.322754 180.0
1259.11438 244.0
1261.841919 148.0
1263.666626 168.0
1266.95874 204.0
1269.049561 188.0
1272.307739 200.0
1272.859863 176.0
1273.115479 156.0
1281.217163 148.0
1283.369507 120.0
1284.51062 204.0
1287.479736 140.0
1288.522705 160.0
1291.553711 156.0
1293.843628 124.0
1295.125488 144.0
1297.15332 168.0
1298.45105 132.0
1300.093994 100.0
1300.818848 152.0
1301.615845 172.0
1302.901489 120.0
1303.476318 192.0
1305.172729 72.0
1305.819946 188.0
1306.380981 176.0
1306.870239 192.0
1307.071655 52.0
1309.55542 176.0
1311.003418 132.0
1311.580078 188.0
1311.833618 120.0
1311.954956 148.0
1312.394653 128.0
1312.712036 96.0
1313.404297 120.0
1314.046387 164.0
1315.922974 240.0
1316.363403 132.0
1319.889648 160.0
1321.690796 184.0
1325.687988 96.0
1326.282349 120.0
1326.398315 204.0
1330.424316 180.0
1331.963867 108.0
1332.392456 136.0
1333.068237 172.0
1334.078491 216.0
1334.878296 156.0
1335.154663 156.0
1335.58374 144.0
1339.36145 204.0
1339.4198 232.0
1343.064331 232.0
1344.742554 156.0
1346.224609 80.0
1346.297607 156.0
1347.502808 212.0
1348.584351 148.0
1353.258911 92.0
1354.496582 48.0
1357.45752 152.0
1360.032593 40.0
1363.043701 176.0
1363.197998 168.0
1364.668091 164.0
1364.969604 196.0
1365.050537 76.0
1367.110229 152.0
1371.440796 96.0
1371.544067 116.0
1372.782715 156.0
1376.442749 188.0
1376.723389 168.0
1377.727905 60.0
1380.263062 132.0
1381.564819 124.0
1383.459229 208.0
1384.021973 128.0
1387.4375 120.0
1388.483032 148.0
1388.816772 200.0
1389.580933 132.0
1390.003784 48.0
1392.178833 164.0
1392.579956 132.0
1395.136108 140.0
1395.924194 216.0
1396.653076 160.0
1398.275146 184.0
1398.572754 64.0
1398.989624 224.0
1400.128906 168.0
1403.832764 68.0
1405.406616 204.0
1405.749878 104.0
1407.563843 144.0
1408.721436 192.0
1410.470093 136.0
1411.187744 136.0
1411.546631 200.0
1411.778442 204.0
1411.935547 232.0
1412.623657 164.0
1415.467773 204.0
1417.602661 148.0
1417.797485 188.0
1418.344604 192.0
1418.607422 156.0
1423.671631 180.0
1423.724121 168.0
1424.858398 156.0
1430.965454 184.0
1432.742798 196.0
1437.228882 120.0
1439.05542 176.0
1442.529419 216.0
1443.649658 92.0
1444.232056 184.0
1444.663208 76.0
1445.366821 196.0
1447.130493 60.0
1449.145142 124.0
1451.075439 188.0
1451.161255 196.0
1451.783081 232.0
1454.90918 200.0
1455.121704 144.0
1455.9646 120.0
1458.654297 136.0
1459.140869 212.0
1459.234741 196.0
1459.338501 120.0
1461.78772 172.0
1462.099731 224.0
1462.959839 196.0
1464.003052 144.0
1464.878906 88.0
1465.678955 196.0
1466.719482 232.0
1467.264282 200.0
1467.363403 136.0
1468.064819 84.0
1468.331787 160.0
1471.460449 236.0
1472.529419 40.0
1473.155762 92.0
1473.438477 64.0
1475.662476 112.0
1476.121338 160.0
1479.082153 152.0
1480.046753 284.0
1482.121338 196.0
1482.222168 168.0
1482.275757 52.0
1484.705933 208.0
1485.818115 96.0
1489.433838 136.0
1491.700684 136.0
1493.953857 140.0
1494.415405 136.0
1496.509033 104.0
1497.679565 192.0
1499.035522 92.0
1499.528687 52.0
1502.613159 196.0
1503.230469 152.0
1503.608643 160.0
1504.210693 244.0
