>compound MLS001141359-01!1-[2-(4-ethyl-2-oxochromen-7-yl)oxyacetyl]piperidine-4-carboxylic acid
>formula C19H21NO6
>ionization [M+H]+
>parentmass 360.144623
#inchi InChI=1S/C19H21NO6/c1-2-12-9-18(22)26-16-10-14(3-4-15(12)16)25-11-17(21)20-7-5-13(6-8-20)19(23)24/h3-4,9-10,13H,2,5-8,11H2,1H3,(H,23,24)
#inchikey YAROIDGLTJEGGQ
#Ion_Source LC-ESI
#Instrument qTof
#Compound_Source NIH Natural Product Library
#PI Dorrestein
#Data_Collector VVP/LMS
#Scan -1
#Precursor_MZ 360.145
#ExactMass 359.137
#Charge 1
#CAS_Number N/A
#Pubmed_ID N/A
#Smiles CCc1cc(=O)oc2cc(OCC(=O)N3CCC(CC3)C(=O)O)ccc12
#INCHI_AUX N/A
#Library_Class 1
#SpectrumID CCMSLIB00000079669
#IonMode Positive
#UpdateWorkflowName UPDATE-SINGLE-ANNOTATED-GOLD
#LibraryQualityString Gold
#TaskID b1d8e8f6646f4e71acdff9ca3d919d08
##Scan# 1774
#SpectrumFile p1-E09_GE9_01_17929.mzXML
#LibraryName NIH_Natural_Products_Library.mgf
#MQScore -1
#Organism NIH_Natural_Products_Library
#TIC_Query 0
#RT_Query -1
#MZErrorPPM -1
#SharedPeaks 0
#MassDiff 0
#LibMZ -1
#SpecMZ 360.145
#SpecCharge 0
#internalFilename spec-00000.mgf

>collision 10
94.990158 132.0
95.005676 52.0
95.087051 184.0
95.259979 172.0
95.450447 172.0
95.65667 124.0
95.911842 216.0
96.081482 1720.0
96.122467 164.0
96.446655 96.0
97.08725 364.0
97.133942 108.0
97.624947 220.0
97.674118 144.0
98.060883 152.0
98.090187 160.0
98.286812 200.0
98.575104 140.0
98.592888 148.0
98.753029 184.0
98.836113 192.0
99.044968 1772.0
99.101433 160.0
99.555672 148.0
99.658958 160.0
99.808037 156.0
99.917419 56.0
100.046471 232.0
100.25193 136.0
100.732765 192.0
101.046074 180.0
101.904724 104.0
102.011238 168.0
102.105736 164.0
102.730141 236.0
102.774521 60.0
102.80883 204.0
103.055176 80.0
103.808151 180.0
104.147072 112.0
104.327927 168.0
104.677872 80.0
104.781754 80.0
104.848991 208.0
104.938683 84.0
105.070007 528.0
105.24881 176.0
105.379532 168.0
105.57576 184.0
106.077385 244.0
106.14299 76.0
106.272209 164.0
106.378929 76.0
106.55143 176.0
106.859818 152.0
106.981239 196.0
107.014183 32.0
107.045845 204.0
107.088852 228.0
107.121269 216.0
107.317055 56.0
107.475868 208.0
107.665779 200.0
107.758736 56.0
107.797989 160.0
108.079208 356.0
108.246872 160.0
108.831604 168.0
109.080902 184.0
109.436646 192.0
109.51786 208.0
109.615776 164.0
109.684547 188.0
109.722076 196.0
109.949432 48.0
110.06163 344.0
111.045708 44.0
111.064049 204.0
111.198868 180.0
111.371033 96.0
111.398338 136.0
111.673691 176.0
111.837807 44.0
111.947281 204.0
112.037849 184.0
112.076279 1216.0
112.101059 196.0
112.358292 196.0
112.970932 152.0
113.061913 236.0
113.078461 532.0
113.246101 192.0
113.322365 72.0
113.375481 176.0
113.525848 180.0
113.638268 140.0
113.653122 188.0
113.786835 80.0
114.055489 2112.0
114.087944 184.0
114.171432 56.0
114.369293 108.0
114.399094 80.0
114.754868 132.0
114.81884 92.0
114.872162 116.0
114.998055 236.0
115.023666 56.0
115.055847 1252.0
115.094116 180.0
115.331245 56.0
115.476639 172.0
115.6157 56.0
115.658501 132.0
115.690613 204.0
115.77626 92.0
116.005516 116.0
116.063194 348.0
116.219978 108.0
116.29509 100.0
116.666695 216.0
116.892532 212.0
116.995842 128.0
117.07016 3036.0
117.290955 48.0
117.433258 28.0
118.042419 120.0
118.074394 500.0
118.280243 88.0
118.319214 128.0
118.379837 116.0
118.776451 92.0
119.087311 1044.0
119.944107 176.0
120.050941 136.0
120.789146 244.0
121.061699 184.0
121.404587 132.0
121.922684 156.0
121.973228 196.0
122.179939 188.0
122.303169 160.0
122.474907 116.0
122.521172 172.0
122.946724 92.0
123.198433 188.0
123.244827 188.0
123.627373 104.0
124.075562 944.0
124.676308 136.0
124.720757 180.0
125.082039 444.0
125.294876 196.0
125.499924 56.0
125.957413 204.0
126.091331 4180.0
126.171944 48.0
126.198769 52.0
126.487358 168.0
126.57019 176.0
126.632896 88.0
126.686653 212.0
126.865929 180.0
127.056549 152.0
127.090248 184.0
127.215881 136.0
127.80471 92.0
127.865463 92.0
127.917236 132.0
127.948753 152.0
128.032059 160.0
128.070206 12628.0
128.144241 60.0
128.168304 100.0
128.210037 136.0
128.271194 60.0
128.295685 76.0
128.767273 52.0
129.072952 980.0
129.104004 212.0
129.248779 84.0
129.377792 60.0
129.74025 64.0
130.041931 196.0
130.085205 1012.0
130.112305 80.0
130.150909 140.0
130.368973 168.0
130.917206 44.0
131.047409 100.0
131.086655 428.0
131.676636 88.0
132.05246 176.0
132.09491 212.0
132.138382 148.0
132.633011 100.0
133.027557 176.0
133.062454 296.0
133.46637 116.0
133.718842 260.0
133.961182 68.0
134.011856 156.0
134.233139 140.0
134.33461 196.0
134.509995 48.0
134.570007 216.0
135.043732 160.0
135.081406 208.0
135.108505 160.0
135.356155 204.0
135.708344 148.0
135.743118 200.0
135.759354 184.0
135.80806 140.0
135.933334 84.0
136.081879 224.0
136.144577 200.0
136.567566 108.0
136.653641 124.0
138.092926 88.0
138.146729 92.0
139.469223 136.0
139.683197 140.0
139.87851 188.0
140.097504 172.0
140.753174 156.0
141.069763 192.0
141.408005 156.0
141.50032 172.0
141.590302 124.0
141.651886 132.0
141.841446 96.0
141.858032 236.0
142.00267 144.0
142.086212 11844.0
142.156876 60.0
142.296921 168.0
142.344406 52.0
142.406158 48.0
142.482162 148.0
142.520172 76.0
142.650894 52.0
142.782455 72.0
142.962463 88.0
142.998154 108.0
143.014816 84.0
143.089951 1632.0
143.283905 44.0
143.856247 92.0
144.173904 160.0
144.283859 88.0
144.52063 156.0
144.671417 112.0
145.064835 2380.0
145.119415 56.0
145.409668 116.0
145.544098 140.0
145.570511 140.0
145.887665 132.0
146.068787 544.0
146.908707 168.0
147.042877 984.0
147.081726 984.0
147.548676 64.0
148.042267 176.0
148.07782 236.0
148.599777 168.0
148.937195 56.0
149.014938 116.0
149.061096 140.0
149.233673 92.0
149.262863 36.0
149.284744 76.0
149.722778 68.0
149.747131 160.0
150.573914 44.0
152.730759 208.0
153.348755 148.0
153.987762 136.0
154.202713 100.0
154.816254 152.0
155.058914 168.0
155.212723 88.0
155.346649 140.0
155.542679 88.0
156.063446 716.0
157.069565 308.0
157.102921 200.0
157.170288 104.0
157.212708 192.0
157.799698 160.0
158.030823 116.0
158.184952 48.0
158.743652 144.0
159.084885 180.0
159.30838 144.0
159.378723 136.0
159.640137 236.0
159.68541 152.0
159.942047 236.0
160.052124 176.0
161.05394 292.0
162.067108 544.0
163.040314 280.0
163.066055 152.0
164.678482 196.0
165.40976 208.0
165.478882 204.0
166.848877 180.0
167.255325 116.0
168.699844 208.0
169.266449 236.0
170.010422 88.0
170.078751 412.0
170.116837 228.0
170.244064 48.0
170.607819 172.0
170.831467 104.0
170.992783 136.0
171.08548 968.0
171.115128 156.0
172.513443 48.0
172.60495 92.0
172.743561 196.0
173.060257 5084.0
173.294571 76.0
173.421738 108.0
173.466293 44.0
173.626236 108.0
173.655075 84.0
173.783615 52.0
173.920074 88.0
174.063126 348.0
174.140839 52.0
174.164276 116.0
174.25621 88.0
174.455948 144.0
174.490112 120.0
175.035217 152.0
175.075256 3640.0
175.143646 104.0
175.203323 96.0
175.263916 120.0
175.335068 56.0
175.509048 144.0
175.836151 56.0
176.047348 108.0
176.083603 404.0
176.996658 188.0
177.082382 204.0
177.441772 96.0
178.642136 68.0
178.817749 68.0
180.621414 128.0
182.643875 160.0
182.783768 172.0
185.812607 200.0
185.988998 144.0
186.067719 100.0
186.779694 188.0
187.11441 168.0
187.430359 116.0
188.658524 116.0
189.041428 112.0
190.06044 200.0
190.225433 120.0
190.511032 160.0
191.066895 392.0
192.737152 172.0
192.880859 108.0
193.068863 112.0
193.957596 172.0
195.012329 176.0
196.108932 96.0
196.753296 108.0
197.975174 60.0
198.670273 172.0
198.757248 168.0
199.211777 188.0
199.262634 80.0
199.456543 124.0
199.613983 56.0
200.086151 108.0
200.675491 76.0
201.065628 448.0
201.872711 124.0
202.370712 112.0
202.733276 320.0
202.798462 136.0
202.849487 68.0
202.952057 180.0
203.013931 140.0
203.069214 10148.0
203.110367 124.0
203.161423 60.0
203.184113 124.0
203.218155 60.0
203.257889 48.0
203.377075 48.0
203.411133 96.0
203.564453 176.0
203.71669 60.0
203.742401 104.0
203.945145 48.0
203.982086 124.0
204.072021 1004.0
204.28067 80.0
204.422928 64.0
204.479843 116.0
204.610779 100.0
204.841446 76.0
204.929764 68.0
205.023788 100.0
205.080627 492.0
205.408707 120.0
205.985306 68.0
206.165298 48.0
206.568436 68.0
206.617065 40.0
206.814514 64.0
207.295654 96.0
210.8526 72.0
214.69928 204.0
214.91806 44.0
215.072723 128.0
215.250809 60.0
217.086838 172.0
217.308487 200.0
217.704742 168.0
217.760803 180.0
221.080154 212.0
227.10434 184.0
228.020065 152.0
228.125259 36.0
229.055084 164.0
229.076172 128.0
229.115326 180.0
229.220779 84.0
229.739365 116.0
230.080368 136.0
231.066055 964.0
231.095856 124.0
232.06427 424.0
232.896545 84.0
233.148712 128.0
237.646637 84.0
239.137039 120.0
239.771469 76.0
240.132187 116.0
241.011978 124.0
241.562286 188.0
243.099136 416.0
243.744904 64.0
244.040176 132.0
244.094711 828.0
245.104675 220.0
246.13089 20.0
247.212448 100.0
248.092972 640.0
248.120789 44.0
248.519089 124.0
250.099792 164.0
255.103973 144.0
256.023499 168.0
257.117554 172.0
258.276764 80.0
258.487885 160.0
260.091919 492.0
261.092743 128.0
268.460297 148.0
268.626648 144.0
269.106354 72.0
270.869049 156.0
271.094482 464.0
272.093231 664.0
272.634186 168.0
273.091187 216.0
273.124054 152.0
274.049133 128.0
274.098541 80.0
274.398468 116.0
278.073547 132.0
279.828674 56.0
282.083862 80.0
282.21759 108.0
283.114349 136.0
283.529755 180.0
283.677246 188.0
284.106476 136.0
286.142273 2700.0
286.240692 44.0
286.267639 156.0
286.887604 44.0
287.03595 88.0
287.142792 572.0
287.325989 120.0
288.140991 276.0
296.127838 152.0
308.878632 68.0
309.20401 52.0
312.396118 80.0
312.446228 156.0
314.137451 3672.0
314.207733 116.0
314.303009 88.0
314.398285 76.0
314.564148 84.0
314.595917 72.0
314.670074 56.0
314.910187 76.0
314.963165 64.0
315.137421 508.0
315.309418 68.0
315.482605 84.0
316.15625 176.0
316.519257 232.0
317.12149 28.0
317.444092 88.0
325.22876 160.0
325.918274 192.0
341.720856 152.0
342.134735 1088.0
342.195648 140.0
343.090881 200.0
343.141571 208.0
344.148621 292.0
359.775116 116.0
360.144623 1216.0
361.143127 412.0
361.381317 96.0
363.184509 128.0
392.034973 80.0
428.946411 128.0
464.18045 72.0
470.850677 88.0
477.029297 40.0
485.837402 52.0
489.353271 40.0
518.249146 88.0
540.845581 64.0
607.788147 80.0
668.145996 112.0
686.867798 180.0
695.170776 44.0
696.977112 172.0
776.922363 136.0
816.200684 156.0
848.532959 68.0
853.782043 96.0
924.264771 20.0
924.304077 184.0
946.301392 40.0
964.986755 164.0
969.740845 120.0
976.489624 184.0
1013.483643 204.0
1021.24176 164.0
1021.763367 124.0
1037.678833 200.0
1040.694336 200.0
1042.835205 240.0
1048.174805 164.0
1056.710571 48.0
1073.012207 120.0
1075.634644 128.0
1084.458252 156.0
1089.116699 188.0
1091.607544 196.0
1094.028687 144.0
1096.61084 128.0
1098.424072 184.0
1117.829468 120.0
1117.889282 204.0
1120.739258 152.0
1125.147827 176.0
1126.897583 136.0
1134.915894 176.0
1139.674683 124.0
1142.310059 164.0
1144.160645 140.0
1166.029297 52.0
1171.84729 156.0
1174.799316 196.0
1181.535156 180.0
1189.484375 156.0
1191.056763 56.0
1191.523926 200.0
1191.915527 192.0
1200.630371 144.0
1202.161865 208.0
1202.741577 132.0
1208.311279 176.0
1209.619263 164.0
1213.062012 232.0
1223.113281 100.0
1233.087158 200.0
1234.19165 168.0
1237.704102 184.0
1238.845703 176.0
1242.610352 72.0
1255.101807 200.0
1256.350098 100.0
1257.048584 180.0
1258.170898 144.0
1258.269653 136.0
1258.573242 180.0
1259.060547 164.0
1266.28125 176.0
1272.038696 260.0
1275.995605 152.0
1277.055176 192.0
1278.80542 192.0
1282.694336 124.0
1285.818359 112.0
1289.525024 200.0
1307.397095 136.0
1314.596191 128.0
1316.711304 108.0
1322.806519 208.0
1333.672363 176.0
1336.806885 136.0
1340.367676 128.0
1344.181274 176.0
1347.203857 180.0
1347.634888 148.0
1349.228149 120.0
1349.988647 212.0
1354.269897 68.0
1356.94458 164.0
1357.773193 200.0
1357.831909 180.0
1359.100952 180.0
1360.355835 132.0
1361.809692 152.0
1365.519165 176.0
1370.099731 152.0
1376.19165 152.0
1377.484009 144.0
1377.653931 164.0
1382.223022 128.0
1385.532593 48.0
1388.905396 156.0
1390.649048 156.0
1395.172729 204.0
1395.447754 224.0
1401.00708 132.0
1401.163574 124.0
1401.215698 244.0
1406.241577 120.0
1410.663452 144.0
1410.790527 156.0
1413.933594 100.0
1418.493408 140.0
1425.510742 160.0
1427.487793 188.0
1431.204956 236.0
1432.236694 40.0
1433.841431 204.0
1434.127808 164.0
1440.16394 168.0
1448.075195 76.0
1450.545288 164.0
1452.236084 220.0
1452.979492 176.0
1458.538086 164.0
1459.807739 120.0
1460.454224 100.0
1464.000732 52.0
1465.783325 152.0
1465.874756 64.0
1466.74353 144.0
1471.297607 188.0
1471.809204 164.0
1476.462891 156.0
1477.671387 204.0
1477.862671 160.0
1479.929199 140.0
1481.997192 204.0
1486.375366 140.0
1486.674683 140.0
1491.336426 172.0
1495.466675 168.0
1496.67334 236.0
1501.854004 144.0
1502.347656 104.0
1502.478882 148.0
1502.694824 76.0
1504.176514 208.0
