>compound MLS001148169-01!
>formula C22H26NO3
>ionization [M+H]+
>parentmass 353.19854514409053
#inchi InChI=1S/C22H26NO3/c1-23-14-12-17(13-15-23)20(16-23)26-21(24)22(25,18-8-4-2-5-9-18)19-10-6-3-7-11-19/h2-11,17,20,25H,12-16H2,1H3/q+1
#inchikey HOOSGZJRQIVJSZ
#origInchi InChI=1S/C22H26NO3.BrH/c1-23-14-12-17(13-15-23)20(16-23)26-21(24)22(25,18-8-4-2-5-9-18)19-10-6-3-7-11-19;/h2-11,17,20,25H,12-16H2,1H3;1H/q+1;/p-1
#Ion_Source LC-ESI
#Instrument qTof
#Compound_Source NIH Pharmacologically Active Library
#PI Dorrestein
#Data_Collector VP/LMS
#Scan -1
#Precursor_MZ 352.191
#ExactMass 352.191
#Charge 1
#CAS_Number N/A
#Pubmed_ID N/A
#Smiles C[N+]1(CCC2CC1)CC2OC(=O)C(O)(c3ccccc3)c4ccccc4.[Br-]
#INCHI_AUX N/A
#Library_Class 1
#SpectrumID CCMSLIB00000084969
#IonMode Positive
#UpdateWorkflowName UPDATE-SINGLE-ANNOTATED-GOLD
#LibraryQualityString Gold
#TaskID d252d724072548979f1f6f1ced849daf
##Scan# 1575
#SpectrumFile p3-D04_GD4_01_18261.mzXML
#LibraryName Pharm_Active_Library.mgf
#MQScore -1
#Organism Pharm_Active_Library
#TIC_Query 0
#RT_Query -1
#MZErrorPPM -1
#SharedPeaks 0
#MassDiff 0
#LibMZ -1
#SpecMZ 352.191
#SpecCharge 0
#internalFilename spec-00000.mgf

>collision 10
44.908157 180.0
44.981548 168.0
45.00024 200.0
45.053665 128.0
45.127174 128.0
45.21814 36.0
45.254288 80.0
45.28241 160.0
45.413765 104.0
45.478172 152.0
45.825138 172.0
45.87096 152.0
45.895229 152.0
45.927597 136.0
45.962677 132.0
46.132858 180.0
46.169365 84.0
46.277626 140.0
46.356194 140.0
46.502666 140.0
46.531174 200.0
46.542038 236.0
46.586857 148.0
46.609955 176.0
46.625858 204.0
46.6465 176.0
46.692883 188.0
46.842613 144.0
46.882126 136.0
46.906662 132.0
46.92984 132.0
46.943474 236.0
46.996677 144.0
47.030796 172.0
47.077217 200.0
47.138691 196.0
47.290501 140.0
47.346638 192.0
47.368553 80.0
47.382252 132.0
47.420624 164.0
47.666286 184.0
47.714832 176.0
47.776283 136.0
47.821697 188.0
47.831329 152.0
47.857491 164.0
47.885033 156.0
47.931873 148.0
47.953922 116.0
47.963573 176.0
48.062874 168.0
48.077572 164.0
48.118084 144.0
48.145702 128.0
48.24934 36.0
48.395515 204.0
48.46526 64.0
48.48605 124.0
48.49575 148.0
48.523476 56.0
48.54705 128.0
48.588661 136.0
48.60421 196.0
48.660168 108.0
48.763634 196.0
48.787266 192.0
48.820637 212.0
48.856998 200.0
48.877674 160.0
48.934746 228.0
48.944492 136.0
49.015533 96.0
49.067108 136.0
49.145012 164.0
49.175919 112.0
49.192669 108.0
49.335163 220.0
49.361732 192.0
49.377113 60.0
49.455467 116.0
49.503071 160.0
49.533886 152.0
49.582928 216.0
49.651222 152.0
49.662193 232.0
49.704937 160.0
49.728794 200.0
49.765293 116.0
49.784954 140.0
49.801807 132.0
49.814449 104.0
49.858009 104.0
49.888935 160.0
49.993023 192.0
50.018356 216.0
50.039474 60.0
50.12719 192.0
50.183189 76.0
50.259361 44.0
50.287586 152.0
50.352531 120.0
50.365246 60.0
50.427418 164.0
50.541969 120.0
50.601418 132.0
50.619827 116.0
50.679321 104.0
50.694908 244.0
50.728928 116.0
50.743103 212.0
50.76012 40.0
50.894924 140.0
50.911968 40.0
50.961685 176.0
50.977596 204.0
51.008587 172.0
51.052662 196.0
51.076843 180.0
51.159382 184.0
51.264786 192.0
51.276188 120.0
51.327511 80.0
51.380283 124.0
51.520199 116.0
51.598804 152.0
51.640274 216.0
51.676037 120.0
51.801739 200.0
51.819218 216.0
51.846447 48.0
51.872246 180.0
51.961163 140.0
52.110485 172.0
52.132038 164.0
52.16708 196.0
52.305439 208.0
52.34063 140.0
52.353588 88.0
52.392876 176.0
52.477516 188.0
52.564064 100.0
52.59293 120.0
52.725811 200.0
52.744602 172.0
52.780746 316.0
53.074696 196.0
53.0863 164.0
53.192215 208.0
53.263371 140.0
53.288067 104.0
53.313675 116.0
53.360741 192.0
53.370918 232.0
53.423279 136.0
53.439735 232.0
53.501865 56.0
53.526619 116.0
53.552147 188.0
53.646305 140.0
53.657757 84.0
53.777382 228.0
53.809498 40.0
53.822639 132.0
53.888367 296.0
53.932209 248.0
54.043358 196.0
54.0858 180.0
54.100437 240.0
54.213226 52.0
54.264805 192.0
54.356941 216.0
54.38776 228.0
54.417927 136.0
54.528767 156.0
54.568459 200.0
54.596397 148.0
54.621403 152.0
54.644943 128.0
54.687618 148.0
54.705284 216.0
54.747986 152.0
54.764481 220.0
54.792175 44.0
54.861443 148.0
54.890934 124.0
54.918396 216.0
54.944031 100.0
54.964691 148.0
54.976494 132.0
54.997158 60.0
55.029636 128.0
55.135998 80.0
55.208439 84.0
55.28389 164.0
55.420124 92.0
55.454212 184.0
55.464588 124.0
55.480892 176.0
55.606983 180.0
55.627762 64.0
55.657455 144.0
55.770367 176.0
55.819427 160.0
55.990089 432.0
56.024834 216.0
56.056122 132.0
56.245541 184.0
56.393417 228.0
56.408367 136.0
56.448734 104.0
56.474159 156.0
56.631325 252.0
56.785027 168.0
56.976353 168.0
57.014668 136.0
57.122177 196.0
57.272709 156.0
57.295303 168.0
57.319012 180.0
57.323704 132.0
57.328716 160.0
57.351288 212.0
57.390259 108.0
57.421928 156.0
57.501892 104.0
57.538124 240.0
57.657787 220.0
57.745148 160.0
57.78323 184.0
57.79961 164.0
57.913639 164.0
57.93285 168.0
57.955578 192.0
58.022266 144.0
58.034397 156.0
58.045013 88.0
58.077278 116.0
58.140587 176.0
58.222569 164.0
58.251427 36.0
58.288826 248.0
58.351734 148.0
58.391079 32.0
58.411045 152.0
58.426258 208.0
58.442993 168.0
58.511486 148.0
58.563263 132.0
58.622681 144.0
58.650116 232.0
58.663834 156.0
58.767544 40.0
58.856075 128.0
58.895786 140.0
58.906479 148.0
58.978298 188.0
59.001228 124.0
59.022636 216.0
59.077698 180.0
59.111359 172.0
59.144272 548.0
59.178711 152.0
59.264484 128.0
59.293602 224.0
59.385597 152.0
59.459244 240.0
59.614357 160.0
59.632797 152.0
59.654053 184.0
59.774288 52.0
59.869736 160.0
59.894379 152.0
59.993805 160.0
60.03001 196.0
60.063942 136.0
60.094795 56.0
60.110226 220.0
60.139549 200.0
60.159077 148.0
60.192043 76.0
60.227562 140.0
60.239922 184.0
60.29813 252.0
60.423897 144.0
60.501278 128.0
60.536892 228.0
60.724422 212.0
60.741482 248.0
60.766647 164.0
60.860989 180.0
60.906025 60.0
60.98061 200.0
61.002373 228.0
61.049019 196.0
61.141445 132.0
61.164154 48.0
61.182835 84.0
61.304329 124.0
61.329266 176.0
61.374477 168.0
61.427505 184.0
61.455589 216.0
61.530506 260.0
61.575794 104.0
61.610157 96.0
61.730515 144.0
61.761795 180.0
61.777435 208.0
61.789951 192.0
61.884083 172.0
61.943375 148.0
61.993515 164.0
62.012516 160.0
62.093853 196.0
62.158173 108.0
62.213108 232.0
62.255184 216.0
62.290058 156.0
62.392208 184.0
62.434662 176.0
62.466122 100.0
62.557396 128.0
62.616947 288.0
62.676552 220.0
62.76218 180.0
62.976849 148.0
63.049526 228.0
63.08588 204.0
63.119083 132.0
63.152298 164.0
63.199757 140.0
63.242485 132.0
63.294731 164.0
63.427814 168.0
63.47855 208.0
63.495888 116.0
63.559452 84.0
63.632469 164.0
63.65152 160.0
63.723 172.0
63.778622 120.0
63.799286 136.0
63.826317 164.0
63.926537 200.0
63.945633 172.0
63.996574 156.0
64.077805 128.0
64.139961 168.0
64.151115 200.0
64.226067 188.0
64.238739 144.0
64.263588 184.0
64.366516 212.0
64.519905 116.0
64.540688 164.0
64.579071 176.0
64.60466 200.0
64.633461 204.0
64.669472 128.0
64.676476 224.0
64.828827 72.0
64.851265 144.0
64.900963 144.0
64.923416 112.0
65.042145 156.0
65.069443 180.0
65.186974 164.0
65.202766 88.0
65.231705 244.0
65.282288 200.0
65.339455 192.0
65.386116 208.0
65.47467 116.0
65.510101 156.0
65.534927 236.0
65.622917 144.0
65.67614 172.0
65.739059 140.0
65.772957 88.0
65.856918 168.0
65.886002 156.0
65.944176 96.0
66.012077 180.0
66.036331 164.0
66.055748 140.0
66.107521 156.0
66.285652 156.0
66.313202 152.0
66.421844 104.0
66.519211 88.0
66.577415 212.0
66.642639 124.0
66.686516 236.0
66.727158 192.0
66.751549 144.0
66.845901 176.0
66.88398 200.0
66.924034 192.0
66.943573 196.0
66.954971 180.0
67.021767 180.0
67.153816 176.0
67.181549 164.0
67.271301 124.0
67.315384 156.0
67.401962 164.0
67.441193 176.0
67.493507 184.0
67.558929 132.0
67.599831 120.0
67.636223 172.0
67.653542 168.0
67.657394 144.0
67.662445 192.0
67.675133 204.0
67.696419 116.0
67.714432 112.0
67.729179 184.0
67.843887 164.0
68.055328 160.0
68.07196 204.0
68.100639 208.0
68.134377 196.0
68.234627 44.0
68.256004 248.0
68.356346 184.0
68.371162 136.0
68.398773 144.0
68.474884 164.0
68.581985 148.0
68.690811 96.0
68.738663 140.0
68.763412 196.0
68.816238 208.0
68.867439 164.0
69.050903 168.0
69.079018 244.0
69.147606 160.0
69.178314 244.0
69.261108 112.0
69.292587 168.0
69.309158 80.0
69.332359 200.0
69.406952 208.0
69.458366 184.0
69.496529 128.0
69.518097 152.0
69.581177 124.0
69.62767 224.0
69.680824 176.0
69.787201 200.0
69.919182 200.0
69.936722 196.0
70.011848 152.0
70.076813 156.0
70.153442 188.0
70.17849 184.0
70.278564 76.0
70.400429 136.0
70.527367 172.0
70.574219 88.0
70.590935 164.0
70.647804 172.0
70.716415 136.0
70.801804 176.0
70.828598 172.0
70.863785 176.0
70.895622 144.0
70.935844 156.0
70.986145 212.0
71.068344 188.0
71.192558 204.0
71.224472 200.0
71.272049 176.0
71.32193 156.0
71.39312 200.0
71.444527 204.0
71.463203 172.0
71.667976 220.0
71.695587 36.0
71.805054 116.0
71.840591 128.0
71.914841 160.0
72.071899 124.0
72.125984 148.0
72.139503 100.0
72.259583 220.0
72.293427 152.0
72.378067 200.0
72.393303 256.0
72.472923 200.0
72.501732 244.0
72.535629 244.0
72.584801 216.0
72.654335 180.0
72.701851 144.0
72.744286 160.0
72.771446 168.0
72.893745 164.0
72.943039 172.0
73.01445 40.0
73.184624 152.0
73.198692 152.0
73.220383 148.0
73.286819 144.0
73.343063 32.0
73.679245 128.0
73.709999 128.0
73.768112 112.0
73.798889 132.0
73.855324 140.0
73.915199 60.0
73.964836 88.0
74.002495 188.0
74.017906 200.0
74.117065 104.0
74.204674 160.0
74.316162 176.0
74.34877 56.0
74.369362 148.0
74.470673 112.0
74.48613 136.0
74.547981 140.0
74.577202 148.0
74.592667 196.0
74.670044 164.0
74.699287 176.0
74.774994 160.0
74.787354 200.0
74.928253 220.0
74.948158 208.0
75.038559 152.0
75.066788 164.0
75.131691 72.0
75.219704 196.0
75.268051 156.0
75.280136 148.0
75.390701 164.0
75.601685 192.0
75.774849 136.0
75.873634 164.0
75.911781 224.0
75.941269 228.0
75.97596 260.0
76.022812 48.0
76.039391 224.0
76.2173 136.0
76.34594 180.0
76.410301 80.0
76.424217 216.0
76.476425 164.0
76.546066 104.0
76.582642 224.0
76.661041 128.0
76.722046 204.0
76.802261 196.0
76.826683 168.0
76.851112 144.0
77.009979 200.0
77.129066 156.0
77.155014 48.0
77.216217 140.0
77.315941 152.0
77.415733 100.0
77.533112 168.0
77.554146 124.0
77.629532 216.0
77.76638 132.0
77.850647 168.0
77.92794 144.0
78.063126 128.0
78.091431 184.0
78.113991 208.0
78.176537 96.0
78.218117 204.0
78.337868 188.0
78.3731 64.0
78.478859 216.0
78.526474 132.0
78.563232 172.0
78.582924 72.0
78.616455 52.0
78.688828 192.0
78.778893 132.0
78.870789 140.0
78.900841 172.0
78.976875 96.0
79.061806 156.0
79.091896 160.0
79.109596 172.0
79.150314 168.0
79.246201 184.0
79.345146 188.0
79.377136 72.0
79.389549 32.0
79.460503 176.0
79.487122 136.0
79.511963 132.0
79.707314 100.0
79.778404 164.0
79.819298 220.0
79.851311 132.0
79.877991 180.0
79.956284 124.0
80.054199 192.0
80.139702 192.0
80.221687 48.0
80.287659 176.0
80.314415 208.0
80.337601 140.0
80.361214 208.0
80.380424 148.0
80.460747 188.0
80.628654 104.0
80.762749 196.0
80.855789 176.0
80.875481 180.0
80.893379 176.0
80.916656 108.0
80.934555 224.0
81.21743 196.0
81.23745 184.0
81.332558 156.0
81.354103 144.0
81.40258 168.0
81.431313 100.0
81.495987 180.0
81.513954 168.0
81.540916 136.0
81.576866 188.0
81.603828 128.0
81.700951 108.0
81.727936 164.0
81.77066 244.0
81.798126 228.0
81.839134 180.0
82.03952 128.0
82.13871 164.0
82.154709 156.0
82.169373 188.0
82.192833 172.0
82.293915 180.0
82.322807 64.0
82.373375 132.0
82.407707 148.0
82.489029 132.0
82.595718 192.0
82.612 168.0
82.818367 140.0
82.966957 228.0
83.041306 28.0
83.25547 160.0
83.282707 164.0
83.324493 108.0
83.404564 200.0
83.473541 48.0
83.49173 128.0
83.57177 48.0
83.713753 80.0
83.781143 156.0
83.820755 184.0
83.912041 200.0
83.93972 100.0
83.987137 196.0
83.999908 136.0
84.078362 236.0
84.092422 188.0
84.14225 156.0
84.176949 196.0
84.191551 240.0
84.280403 220.0
84.409019 128.0
84.451088 96.0
84.546227 64.0
84.588326 204.0
84.617615 160.0
84.670715 196.0
84.742157 136.0
84.765984 140.0
84.798973 64.0
84.850296 224.0
84.896141 108.0
85.019051 120.0
85.077789 136.0
85.092476 144.0
85.109001 164.0
85.165932 148.0
85.227608 112.0
85.252289 180.0
85.30191 228.0
85.379135 28.0
85.406731 140.0
85.441681 192.0
85.454559 156.0
85.480316 172.0
85.5429 124.0
85.695068 204.0
85.708656 212.0
85.745514 148.0
85.810745 104.0
85.867195 152.0
85.90522 188.0
85.959442 188.0
86.033272 184.0
86.092354 96.0
86.11821 156.0
86.260498 208.0
86.287857 192.0
86.462105 88.0
86.488022 204.0
86.628754 48.0
86.749207 168.0
86.799271 84.0
86.838219 244.0
86.866035 276.0
87.005226 204.0
87.073929 156.0
87.246742 48.0
87.293228 72.0
87.33786 172.0
87.381134 260.0
87.447639 168.0
87.510933 196.0
87.544449 156.0
87.686043 156.0
87.790443 200.0
87.891182 192.0
87.921036 152.0
87.962608 192.0
87.991974 120.0
88.036781 180.0
88.083481 176.0
88.104027 252.0
88.145134 156.0
88.161949 96.0
88.176903 136.0
88.227371 28.0
88.24794 192.0
88.275986 180.0
88.316101 252.0
88.391968 216.0
88.420044 180.0
88.449989 44.0
88.575447 176.0
88.618538 180.0
88.684128 184.0
88.869789 220.0
88.999306 100.0
89.048126 100.0
89.074593 184.0
89.181534 156.0
89.200325 140.0
89.2696 152.0
89.399696 112.0
89.450516 220.0
89.586105 232.0
89.606827 120.0
89.625671 152.0
89.842499 48.0
89.931183 160.0
89.961739 172.0
90.021576 228.0
90.069023 148.0
90.172951 168.0
90.222092 148.0
90.237976 180.0
90.267471 128.0
90.411247 284.0
90.426392 52.0
90.447212 188.0
90.496811 240.0
90.539986 128.0
90.611717 180.0
90.748436 188.0
90.761703 56.0
90.885002 48.0
90.898285 56.0
90.921059 260.0
90.953323 116.0
91.012177 128.0
91.10524 164.0
91.148941 244.0
91.173645 124.0
91.186951 344.0
91.449425 100.0
91.525574 196.0
91.662727 156.0
91.693214 112.0
91.767563 184.0
91.805702 136.0
91.878181 236.0
91.897507 156.0
91.93924 104.0
92.004143 176.0
92.032784 172.0
92.090073 60.0
92.246758 184.0
92.290733 100.0
92.317505 152.0
92.353844 212.0
92.367233 192.0
92.392105 128.0
92.40741 148.0
92.53756 176.0
92.567192 192.0
92.669716 144.0
92.717621 144.0
92.746376 108.0
92.872925 132.0
92.892105 152.0
93.018761 128.0
93.070595 152.0
93.114723 180.0
93.353073 72.0
93.445404 184.0
93.551254 244.0
93.603241 112.0
93.73423 156.0
93.793686 132.0
93.880737 200.0
93.896164 152.0
93.975258 116.0
94.064507 300.0
94.135475 52.0
94.158646 140.0
94.216599 280.0
94.303551 368.0
94.361549 156.0
94.378952 224.0
94.428223 92.0
94.607254 252.0
94.673088 56.0
94.731194 188.0
94.806763 64.0
94.868782 176.0
94.895927 200.0
94.940529 152.0
94.959923 140.0
95.039803 68.0
95.073891 164.0
95.077545 160.0
95.140388 136.0
95.196693 136.0
95.278671 136.0
95.622459 276.0
95.686699 152.0
95.741219 76.0
95.803551 140.0
95.863724 168.0
95.90818 156.0
95.973114 124.0
96.058929 116.0
96.080322 5004.0
96.17601 160.0
96.229813 64.0
96.261909 120.0
96.316597 68.0
96.332222 140.0
96.488647 196.0
96.601997 80.0
96.670479 60.0
96.705711 180.0
96.768349 60.0
96.797722 188.0
96.825142 68.0
96.868233 236.0
96.970123 184.0
97.044617 208.0
97.060303 160.0
97.082458 372.0
97.188721 120.0
97.301643 124.0
97.352692 200.0
97.378227 184.0
97.466629 152.0
97.494141 56.0
97.536812 180.0
97.653389 188.0
97.671097 144.0
97.716339 152.0
97.950615 116.0
97.999863 176.0
98.060959 152.0
98.095856 812.0
98.111137 200.0
98.335114 204.0
98.412605 188.0
98.511765 224.0
98.54641 172.0
98.625458 192.0
98.655113 168.0
98.729767 164.0
98.943954 140.0
99.011276 204.0
99.029106 52.0
99.099182 208.0
99.133301 208.0
99.221321 224.0
99.242683 88.0
99.302628 104.0
99.338333 156.0
99.36412 112.0
99.423653 156.0
99.477242 156.0
99.514961 64.0
99.663933 172.0
99.701691 172.0
99.71759 52.0
99.767281 160.0
99.89257 164.0
99.934349 192.0
99.976135 164.0
100.033859 172.0
100.10952 36.0
100.282852 116.0
100.345665 168.0
100.371307 140.0
100.400482 116.0
100.46431 56.0
100.691864 176.0
100.731812 112.0
100.797363 104.0
100.821724 192.0
100.855705 312.0
100.919678 180.0
100.939674 192.0
100.997482 128.0
101.099709 204.0
101.141739 160.0
101.223824 80.0
101.271889 124.0
101.550606 144.0
101.572563 224.0
101.622711 228.0
101.676895 136.0
101.787308 92.0
101.83149 164.0
101.913857 164.0
101.964096 140.0
101.994247 156.0
102.114883 64.0
102.132988 160.0
102.175232 92.0
102.221512 108.0
102.245659 152.0
102.297997 132.0
102.359833 208.0
102.527878 152.0
102.664703 140.0
102.811974 140.0
102.963394 152.0
103.00985 232.0
103.032074 128.0
103.102791 172.0
103.167473 56.0
103.208832 256.0
103.361641 180.0
103.404144 180.0
103.481064 236.0
103.519539 152.0
103.533714 144.0
103.612717 104.0
103.635002 120.0
103.683632 164.0
103.776886 80.0
103.793106 64.0
103.827469 148.0
103.906693 160.0
104.009865 228.0
104.085304 148.0
104.158417 160.0
104.306755 144.0
104.420624 160.0
104.577293 224.0
104.71228 168.0
104.734077 220.0
104.800613 200.0
104.884644 224.0
104.888123 200.0
104.896698 144.0
104.903542 172.0
104.964371 124.0
104.99292 64.0
105.032928 5616.0
105.064316 72.0
105.115326 184.0
105.145935 40.0
105.176552 200.0
105.229996 120.0
105.248009 128.0
105.309273 144.0
105.325615 220.0
105.427773 200.0
105.469193 240.0
105.532021 168.0
105.591324 72.0
105.66906 184.0
105.709984 156.0
105.750465 164.0
105.78981 124.0
105.916771 180.0
106.008965 204.0
106.043022 104.0
106.06958 216.0
106.090958 76.0
106.203735 200.0
106.261307 196.0
106.279648 236.0
106.314529 64.0
106.345314 36.0
106.452072 124.0
106.466446 132.0
106.620529 228.0
106.643143 192.0
106.752106 172.0
106.772667 144.0
106.794136 164.0
106.836433 124.0
106.914627 152.0
106.939323 132.0
107.071877 220.0
107.161728 196.0
107.295692 156.0
107.343117 232.0
107.369926 168.0
107.419434 192.0
107.510216 96.0
107.605171 168.0
107.700165 196.0
107.73735 164.0
107.857201 188.0
107.871674 200.0
107.945129 144.0
108.08242 368.0
108.136436 160.0
108.229599 172.0
108.244095 100.0
108.363373 204.0
108.391167 176.0
108.579819 132.0
108.656563 124.0
108.732483 176.0
108.757278 180.0
108.90567 340.0
108.99501 144.0
109.088768 212.0
109.128036 128.0
109.207062 180.0
109.377686 192.0
109.458 208.0
109.513023 68.0
109.529694 132.0
109.671379 212.0
109.685974 196.0
109.829849 96.0
109.865318 168.0
109.879921 220.0
109.923737 216.0
109.950867 196.0
110.011398 160.0
110.067772 184.0
110.095642 272.0
110.256912 192.0
110.282951 164.0
110.299675 64.0
110.341484 156.0
110.418861 248.0
110.471397 136.0
110.536232 188.0
110.577866 160.0
110.722328 120.0
110.818687 156.0
110.912994 208.0
110.975891 224.0
111.003151 164.0
111.072258 164.0
111.114319 48.0
111.238136 200.0
111.254929 148.0
111.311623 244.0
111.345222 212.0
111.431343 272.0
111.450752 136.0
111.780388 200.0
111.801437 44.0
111.81617 104.0
111.906685 64.0
111.929848 40.0
112.076202 324.0
112.112411 392.0
112.313416 180.0
112.350319 164.0
112.542137 212.0
112.618874 168.0
112.837143 184.0
112.873085 64.0
112.909927 208.0
112.964027 64.0
113.086761 88.0
113.124069 160.0
113.194733 128.0
113.478668 164.0
113.555008 104.0
113.591461 216.0
113.631371 196.0
113.646225 172.0
113.67981 160.0
113.720505 168.0
113.799164 188.0
113.98597 148.0
114.09034 192.0
114.170914 220.0
114.185364 212.0
114.41349 144.0
114.58387 80.0
114.649925 164.0
114.735191 200.0
114.779961 140.0
114.895142 164.0
115.057335 212.0
115.089363 156.0
115.125664 128.0
115.199501 188.0
115.302986 176.0
115.5382 160.0
115.636635 196.0
115.782219 128.0
115.994339 132.0
116.043648 184.0
116.2603 140.0
116.27533 124.0
116.443817 184.0
116.481453 112.0
116.515823 144.0
116.563095 48.0
116.730766 144.0
116.752274 236.0
116.801743 116.0
116.842613 156.0
116.868431 220.0
116.900383 184.0
116.984657 68.0
117.085411 176.0
117.100929 132.0
117.163399 136.0
117.228043 112.0
117.342285 200.0
117.40799 136.0
117.486778 272.0
117.588921 144.0
117.758766 136.0
117.819252 88.0
117.897041 240.0
118.033226 136.0
118.11541 164.0
118.191132 184.0
118.238747 212.0
118.314507 156.0
118.342651 44.0
118.388123 188.0
118.411949 76.0
118.505096 208.0
118.524597 140.0
118.552765 156.0
118.592079 260.0
118.98558 156.0
119.019157 164.0
119.034355 148.0
119.055641 140.0
119.284218 204.0
119.310303 184.0
119.332954 172.0
119.429901 48.0
119.476585 156.0
119.497345 100.0
119.535553 184.0
119.557785 216.0
119.601799 228.0
119.680176 188.0
119.856613 80.0
119.932991 164.0
119.995476 128.0
120.109505 136.0
120.190231 68.0
120.229507 168.0
120.349571 196.0
120.373589 184.0
120.391724 176.0
120.519943 196.0
120.629219 132.0
120.70356 80.0
120.734169 272.0
120.900436 84.0
120.926704 160.0
120.974861 48.0
120.99675 204.0
121.026443 192.0
121.128151 64.0
121.185112 160.0
121.404312 188.0
121.432823 180.0
121.52491 176.0
121.731293 244.0
121.790596 80.0
121.82135 148.0
121.843315 252.0
121.863091 224.0
121.905182 204.0
121.931213 168.0
122.076309 184.0
122.095512 572.0
122.151093 172.0
122.176544 84.0
122.30072 108.0
122.355751 148.0
122.371162 136.0
122.397591 128.0
122.461456 104.0
122.542961 196.0
122.631111 152.0
122.772209 160.0
122.867058 140.0
122.94429 156.0
122.995056 224.0
123.020378 152.0
123.036995 160.0
123.070114 100.0
123.145203 132.0
123.237984 168.0
123.386063 124.0
123.419228 272.0
123.454613 264.0
123.472305 168.0
123.52581 212.0
123.569633 160.0
123.602028 192.0
123.693565 52.0
123.737015 192.0
123.777695 32.0
123.79763 200.0
123.824203 220.0
123.888443 124.0
123.981506 140.0
124.053589 268.0
124.111473 5684.0
124.147774 176.0
124.185478 80.0
124.223183 136.0
124.238716 228.0
124.303062 100.0
124.329689 148.0
124.518402 44.0
124.62059 188.0
124.653915 428.0
124.698364 164.0
124.738373 152.0
124.798401 200.0
125.117233 900.0
125.158867 156.0
125.279137 248.0
125.430672 80.0
125.555527 196.0
125.642525 144.0
125.723267 216.0
125.783112 248.0
125.818832 200.0
125.890282 124.0
125.914848 244.0
126.007477 160.0
126.028778 188.0
126.044418 232.0
126.084648 116.0
126.11132 172.0
126.125771 476.0
126.153938 160.0
126.186607 192.0
126.261269 120.0
126.438011 184.0
126.471581 160.0
126.610672 196.0
126.702232 136.0
126.782898 204.0
127.027458 112.0
127.097145 120.0
127.188858 148.0
127.231514 76.0
127.359512 92.0
127.426277 200.0
127.503311 208.0
127.879227 200.0
127.903664 220.0
128.059036 184.0
128.07692 196.0
128.085129 184.0
128.223511 176.0
128.306915 128.0
128.327194 56.0
128.45575 52.0
128.48056 76.0
128.570816 148.0
128.588882 200.0
128.674652 204.0
128.792084 140.0
128.828232 144.0
128.886002 112.0
128.947983 84.0
128.963806 188.0
129.09494 112.0
129.113037 204.0
129.244232 72.0
129.300812 80.0
129.393967 184.0
129.577072 260.0
129.604263 160.0
129.731186 168.0
129.767456 408.0
129.799194 216.0
129.851364 260.0
129.908066 144.0
129.939835 180.0
130.010178 172.0
130.028336 168.0
130.046478 144.0
130.171356 128.0
130.446274 52.0
130.54631 184.0
130.574432 236.0
130.781097 164.0
130.873993 188.0
130.996964 140.0
131.022034 152.0
131.124573 120.0
131.202072 212.0
131.279602 184.0
131.640167 92.0
131.674423 128.0
131.690399 232.0
131.857193 252.0
131.934906 112.0
132.042389 100.0
132.090408 220.0
132.242798 128.0
132.29866 204.0
132.316971 272.0
132.345367 120.0
132.603317 176.0
132.692719 120.0
132.970276 176.0
133.025864 372.0
133.078171 212.0
133.220566 188.0
133.275711 140.0
133.310623 184.0
133.388321 172.0
133.464188 132.0
133.648209 248.0
133.673508 180.0
133.710342 168.0
133.892212 128.0
134.000488 140.0
134.111099 236.0
134.143372 220.0
134.179398 252.0
134.309387 140.0
134.325546 156.0
134.343994 196.0
134.4086 152.0
134.461044 220.0
134.491684 172.0
134.61174 120.0
134.79422 144.0
134.930603 148.0
134.99826 168.0
135.10405 56.0
135.240585 160.0
135.337814 160.0
135.43045 140.0
135.462875 168.0
135.703903 176.0
135.730911 160.0
135.83609 156.0
135.926575 152.0
136.056198 180.0
136.061142 152.0
136.310471 176.0
136.34227 208.0
136.388748 128.0
136.467285 200.0
136.551514 156.0
136.646881 152.0
136.870331 204.0
137.045029 176.0
137.173203 128.0
137.467087 168.0
137.504425 208.0
137.658508 160.0
137.723892 244.0
137.751007 232.0
138.018372 192.0
138.060455 144.0
138.090866 156.0
138.125946 220.0
138.144653 176.0
138.161041 188.0
138.20549 88.0
138.32016 180.0
138.374008 124.0
138.395081 52.0
138.575439 152.0
138.645737 164.0
138.755905 220.0
138.805145 132.0
138.938843 116.0
139.009232 36.0
139.08902 80.0
139.152405 172.0
139.192322 100.0
139.222855 132.0
139.274521 136.0
139.340302 176.0
139.394348 104.0
139.518921 200.0
139.542435 172.0
139.558884 104.0
139.591812 164.0
139.758865 192.0
139.782349 188.0
139.812943 276.0
140.034256 124.0
140.106094 372.0
140.177963 100.0
140.227448 208.0
140.246307 184.0
140.276947 176.0
140.324097 196.0
140.397202 220.0
140.427856 124.0
140.502304 216.0
140.543457 152.0
140.588287 192.0
140.647293 152.0
140.685059 232.0
140.746445 192.0
140.814941 56.0
140.885803 152.0
140.907059 120.0
140.93306 148.0
140.975586 152.0
141.025223 180.0
141.070129 152.0
141.10817 304.0
141.141068 96.0
141.164703 192.0
141.219101 184.0
141.252213 184.0
141.285141 140.0
141.362595 192.0
141.42746 176.0
141.474731 132.0
141.503067 164.0
141.536972 228.0
141.573761 196.0
141.608337 240.0
141.669998 116.0
141.67662 160.0
141.711456 228.0
141.74704 328.0
141.783554 168.0
141.79245 340.0
141.843582 240.0
141.872665 80.0
141.893723 208.0
141.900024 184.0
141.909454 160.0
141.952988 212.0
141.983093 240.0
142.008087 272.0
142.035324 296.0
142.069977 868.0
142.122986 221960.0
142.210434 156.0
142.237701 136.0
142.269409 220.0
142.300858 140.0
142.319839 180.0
142.336075 252.0
142.351791 288.0
142.367493 100.0
142.399094 240.0
142.419724 52.0
142.425308 36.0
142.445648 268.0
142.487015 180.0
142.512711 2168.0
142.539261 232.0
142.584351 140.0
142.611145 120.0
142.656326 60.0
142.681992 228.0
142.744843 88.0
142.773849 180.0
142.796448 120.0
142.837326 164.0
142.866592 92.0
142.88913 60.0
142.918686 68.0
142.948273 60.0
142.964294 192.0
143.014587 56.0
143.046982 180.0
143.08609 188.0
143.125381 18456.0
143.187912 116.0
143.230988 40.0
143.266235 148.0
143.300232 24.0
143.319336 104.0
143.37294 68.0
143.400101 84.0
143.444794 72.0
143.479309 60.0
143.501236 52.0
143.559418 144.0
143.608383 56.0
143.646713 112.0
143.662613 168.0
143.707108 64.0
143.752991 88.0
143.792847 216.0
143.818726 108.0
143.845627 56.0
143.873428 104.0
143.897293 44.0
143.915024 92.0
143.940231 164.0
143.955353 348.0
143.971573 392.0
143.995987 148.0
144.023865 192.0
144.039108 208.0
144.059387 188.0
144.09079 260.0
144.127884 1664.0
144.175949 104.0
144.206467 104.0
144.245316 380.0
144.283188 124.0
144.313034 116.0
144.340363 176.0
144.389557 88.0
144.42543 120.0
144.442184 180.0
144.545654 80.0
144.628815 188.0
144.647964 76.0
144.664719 124.0
144.743729 56.0
144.806 176.0
144.861099 52.0
144.930573 40.0
144.988083 68.0
145.024841 96.0
145.052795 260.0
145.080414 108.0
145.144791 152.0
145.3022 56.0
145.337128 84.0
145.383789 76.0
145.458832 76.0
145.508606 32.0
145.544632 84.0
145.712753 104.0
145.859344 68.0
146.174423 64.0
146.22496 144.0
146.629578 96.0
146.846558 84.0
146.882751 108.0
147.804688 152.0
147.883087 92.0
147.93634 124.0
148.110703 36.0
148.263336 124.0
148.559158 108.0
148.612534 128.0
148.940262 68.0
149.343765 144.0
149.638214 76.0
149.682037 116.0
149.957336 108.0
150.098724 128.0
150.145065 200.0
150.270889 76.0
150.757828 64.0
150.779831 88.0
150.822784 112.0
151.33757 52.0
151.553116 84.0
151.633987 100.0
151.741852 52.0
151.759003 56.0
151.930695 168.0
152.019028 96.0
152.063751 160.0
152.161392 76.0
152.1884 64.0
152.298904 48.0
152.335754 72.0
152.733978 128.0
152.861725 108.0
152.923431 36.0
153.061295 72.0
153.233719 136.0
153.295319 108.0
153.786102 72.0
154.272736 96.0
154.384003 84.0
154.653671 84.0
154.770035 156.0
154.918625 64.0
155.074738 140.0
155.270615 132.0
155.305328 88.0
155.593185 48.0
156.060287 48.0
156.500687 28.0
156.879379 160.0
156.934235 72.0
157.227402 144.0
157.388351 88.0
158.183395 84.0
158.433823 32.0
158.506485 120.0
158.704498 184.0
159.574051 248.0
160.217545 72.0
160.504868 112.0
160.578003 84.0
160.789932 120.0
161.087875 108.0
161.651703 32.0
162.072052 112.0
162.424438 52.0
162.939774 76.0
163.65448 116.0
164.707748 148.0
164.863602 56.0
164.95816 156.0
165.069183 132.0
165.357193 168.0
165.579941 136.0
165.802826 96.0
166.077164 192.0
166.695892 148.0
166.746155 36.0
166.958115 64.0
167.084396 1052.0
167.109879 164.0
167.488312 84.0
167.854279 52.0
168.086777 504.0
168.32135 68.0
169.197861 44.0
169.296249 128.0
169.474991 204.0
169.568283 52.0
169.832748 112.0
170.117233 1532.0
170.157135 236.0
171.119278 308.0
171.773239 36.0
172.219589 176.0
172.352829 128.0
172.561935 44.0
173.824448 152.0
173.91893 68.0
175.181122 116.0
175.592331 148.0
176.04097 72.0
176.609192 96.0
176.712372 52.0
178.02182 52.0
178.550674 184.0
179.38942 192.0
179.656097 100.0
179.88826 136.0
179.989716 168.0
180.882675 60.0
181.289795 68.0
181.681259 88.0
181.866425 72.0
181.928162 84.0
183.081528 1592.0
183.371979 200.0
183.987656 216.0
184.087555 256.0
184.430679 36.0
185.081436 156.0
185.302063 132.0
185.428436 152.0
185.446686 152.0
185.551407 136.0
185.72496 116.0
188.614029 260.0
190.227463 116.0
191.734772 60.0
191.947037 200.0
193.355942 120.0
193.771301 68.0
193.918182 92.0
194.076187 176.0
195.565231 72.0
196.047058 56.0
196.086075 44.0
196.258911 172.0
196.93985 84.0
197.258392 84.0
197.529633 64.0
197.949463 164.0
198.504303 180.0
198.911118 116.0
201.174423 68.0
201.552887 176.0
202.098602 180.0
202.336349 152.0
202.715897 120.0
204.095474 164.0
204.158035 48.0
204.949387 104.0
205.374161 168.0
206.485214 132.0
206.957397 100.0
207.25528 160.0
208.561066 80.0
208.682098 200.0
208.92627 28.0
209.222702 152.0
209.254364 132.0
209.441559 172.0
209.994965 164.0
210.228653 112.0
210.707962 132.0
212.674255 96.0
212.729401 168.0
214.066849 220.0
214.257065 224.0
214.281128 156.0
215.963882 160.0
217.129562 144.0
218.836884 172.0
219.983719 132.0
220.610001 144.0
220.932343 60.0
222.951599 112.0
223.121033 108.0
223.376785 168.0
223.406525 64.0
223.585052 132.0
225.201004 140.0
225.380249 232.0
226.026123 140.0
227.026657 172.0
227.290634 88.0
228.224808 56.0
228.962067 104.0
229.631149 112.0
230.118103 136.0
230.180405 100.0
231.532166 148.0
232.453751 224.0
233.568771 108.0
234.454773 52.0
237.59201 216.0
238.670074 152.0
238.771545 132.0
239.260803 188.0
239.870773 60.0
240.422867 184.0
240.450638 156.0
242.268814 140.0
242.581802 140.0
242.631409 184.0
243.590332 168.0
244.159134 76.0
246.141098 108.0
246.300385 120.0
246.434723 72.0
246.694122 108.0
247.14949 280.0
248.187531 164.0
248.837006 92.0
250.840988 176.0
250.866211 72.0
251.213104 60.0
252.05925 200.0
253.229782 204.0
254.456985 40.0
255.028793 144.0
255.178207 156.0
255.633057 208.0
256.4133 164.0
258.444305 84.0
258.591522 48.0
258.732361 96.0
260.142914 220.0
261.106873 196.0
261.34491 60.0
262.894867 136.0
263.741058 256.0
265.774872 104.0
266.01178 64.0
267.084106 80.0
268.308533 120.0
269.460632 132.0
270.43512 92.0
270.585693 164.0
270.664276 228.0
271.040985 152.0
271.286804 136.0
272.340118 180.0
273.043488 168.0
274.34082 172.0
275.218414 136.0
276.646698 124.0
277.295929 52.0
279.075256 88.0
279.690704 248.0
279.917084 228.0
280.12027 84.0
281.327454 124.0
283.883728 56.0
284.048065 136.0
284.366821 96.0
286.168671 112.0
286.360596 184.0
290.246979 124.0
291.451996 224.0
292.121765 148.0
292.182983 196.0
292.312286 36.0
292.47226 108.0
293.085266 36.0
295.095642 236.0
296.248993 180.0
297.644897 132.0
299.543365 100.0
299.802582 140.0
300.115479 116.0
300.405182 124.0
301.658722 172.0
302.703583 64.0
302.939117 256.0
303.386169 32.0
304.09726 124.0
305.661133 184.0
306.190277 176.0
306.486389 76.0
307.03717 100.0
307.089478 172.0
307.448822 112.0
307.728088 84.0
307.773468 116.0
308.136719 176.0
308.489685 208.0
308.682007 116.0
308.744934 108.0
309.003784 92.0
309.371277 124.0
310.162964 136.0
310.278625 160.0
310.846863 148.0
311.208405 80.0
311.552582 72.0
312.10437 160.0
313.664001 156.0
313.706299 52.0
313.812073 76.0
316.887024 164.0
317.936646 156.0
318.19223 112.0
319.571228 112.0
319.681549 116.0
320.062439 204.0
321.331329 180.0
322.005981 168.0
322.223877 172.0
324.518097 100.0
324.75119 64.0
325.357635 168.0
327.399994 52.0
329.145355 52.0
329.56076 116.0
330.645599 124.0
331.630737 164.0
332.428619 72.0
334.175873 176.0
334.438446 100.0
334.802521 56.0
335.10849 128.0
335.182312 188.0
335.833954 100.0
336.238922 64.0
336.46524 100.0
338.110138 132.0
338.600739 116.0
338.72525 88.0
339.249298 148.0
339.634308 96.0
339.674683 92.0
340.280182 84.0
342.460876 112.0
342.884583 160.0
343.965302 160.0
344.050201 176.0
344.744598 52.0
344.910919 160.0
345.702393 120.0
347.302917 112.0
349.766449 48.0
349.930267 116.0
350.414459 76.0
350.459167 56.0
350.56723 72.0
350.619385 120.0
350.727478 64.0
350.805756 84.0
350.854218 168.0
350.902679 96.0
350.943695 88.0
351.075867 204.0
351.163727 132.0
351.193573 144.0
351.346497 72.0
351.377625 108.0
351.443512 108.0
351.518127 68.0
351.54425 140.0
351.604919 80.0
351.686768 152.0
351.824493 184.0
351.867035 152.0
351.954865 128.0
351.997589 164.0
352.025818 80.0
352.055267 172.0
352.091095 252.0
352.190155 46676.0
352.268585 112.0
352.341217 52.0
352.384399 84.0
352.43399 192.0
352.466614 64.0
352.522675 36.0
352.593109 160.0
352.623566 60.0
352.67215 120.0
352.710388 88.0
352.784302 60.0
352.829163 160.0
352.915771 48.0
352.988617 124.0
353.035645 72.0
353.094666 200.0
353.192963 8832.0
353.311127 128.0
353.38504 108.0
353.47998 72.0
353.562317 96.0
353.595978 68.0
353.655884 96.0
353.700806 68.0
353.828064 28.0
353.861755 52.0
353.895477 56.0
354.090179 56.0
354.141449 164.0
354.197449 956.0
354.406342 112.0
354.479797 68.0
354.536011 48.0
354.584747 40.0
354.610962 68.0
354.662659 76.0
354.798401 84.0
354.847137 80.0
354.888855 64.0
354.922119 84.0
354.955872 84.0
354.993378 52.0
355.10965 76.0
355.210358 136.0
355.300293 68.0
355.322021 272.0
355.365967 72.0
355.422272 72.0
355.473541 44.0
355.537323 56.0
355.567352 52.0
355.593628 96.0
355.631165 140.0
355.709991 76.0
355.746857 68.0
355.818848 48.0
355.968201 188.0
356.679138 44.0
356.773102 100.0
356.968628 44.0
357.088989 80.0
357.130341 44.0
357.183014 84.0
357.480225 108.0
357.551727 60.0
358.210663 40.0
358.930511 32.0
358.956909 48.0
359.775665 56.0
361.369934 96.0
362.13147 56.0
362.642944 68.0
365.388458 136.0
365.772827 84.0
368.132874 40.0
369.593903 76.0
369.857147 40.0
370.887543 60.0
372.026825 76.0
372.134338 88.0
379.949921 76.0
380.974823 52.0
385.736908 148.0
388.839081 108.0
392.134949 48.0
398.601532 80.0
401.946411 48.0
403.508148 164.0
404.964752 80.0
409.78537 164.0
410.402039 96.0
448.748535 80.0
449.406525 68.0
449.714569 64.0
472.873505 116.0
473.813171 92.0
474.680054 104.0
478.042328 84.0
495.727173 64.0
499.332062 152.0
501.549377 84.0
518.553467 84.0
529.364441 100.0
529.680481 76.0
532.533508 136.0
537.560913 48.0
539.274292 88.0
541.990845 32.0
546.787903 76.0
548.697754 44.0
550.312073 84.0
557.995972 56.0
561.90979 52.0
575.178772 48.0
576.750305 96.0
581.021851 76.0
583.4375 88.0
590.64209 92.0
599.683167 64.0
621.429626 36.0
623.038269 32.0
627.716919 60.0
638.931641 88.0
646.353638 44.0
647.614197 56.0
651.454163 36.0
653.019714 52.0
657.533813 92.0
659.219116 76.0
659.530884 88.0
669.077576 96.0
670.860046 128.0
676.434021 140.0
683.73175 44.0
701.203735 140.0
725.77533 196.0
734.601074 76.0
738.029968 72.0
742.660828 100.0
747.120667 140.0
747.713745 196.0
748.710022 160.0
750.224792 48.0
752.494385 120.0
765.060303 244.0
769.310669 228.0
771.299316 168.0
777.197449 60.0
778.002258 252.0
779.112976 48.0
779.896484 88.0
780.71936 148.0
781.74292 68.0
783.034546 116.0
789.357483 52.0
796.919067 92.0
803.95166 204.0
805.013489 92.0
809.345032 100.0
810.630859 64.0
824.162537 220.0
825.025513 72.0
826.09491 164.0
826.255127 176.0
829.93219 144.0
831.854126 200.0
833.577148 188.0
844.13208 36.0
845.937256 168.0
847.118591 168.0
849.257568 200.0
852.590149 172.0
853.991333 368.0
861.879028 60.0
864.87915 48.0
871.165344 268.0
873.005066 188.0
875.476746 168.0
878.500427 152.0
880.153015 136.0
882.297729 112.0
886.67804 180.0
887.86969 128.0
888.55188 204.0
892.323242 116.0
892.507568 148.0
895.04834 132.0
898.600769 148.0
898.720093 148.0
899.155762 148.0
899.818359 44.0
900.70813 124.0
900.971008 96.0
901.652161 172.0
901.95105 172.0
902.178162 184.0
905.026062 172.0
906.829224 216.0
912.327698 36.0
915.227661 212.0
918.476013 80.0
921.651611 104.0
921.947693 156.0
922.552124 140.0
922.751648 252.0
923.531738 152.0
924.112488 200.0
927.03717 140.0
929.086609 140.0
930.482483 124.0
930.688904 176.0
930.98645 200.0
932.213623 196.0
933.380737 136.0
939.935059 208.0
947.455566 176.0
953.567261 148.0
953.720947 176.0
953.770081 164.0
955.092102 248.0
958.317993 28.0
961.777649 140.0
962.438232 252.0
963.895996 64.0
965.930115 188.0
967.062439 132.0
967.180054 40.0
971.970703 120.0
973.845581 228.0
973.9104 184.0
974.472961 112.0
974.591064 140.0
975.374084 116.0
978.11731 216.0
979.225586 152.0
980.072815 104.0
982.84137 184.0
982.916199 124.0
987.138977 136.0
989.253784 108.0
990.656494 124.0
994.990051 164.0
996.61676 136.0
998.288818 56.0
1000.239258 196.0
1002.506653 188.0
1007.333374 128.0
1008.306458 68.0
1008.420166 204.0
1009.381104 176.0
1010.01355 116.0
1010.190674 180.0
1010.298218 92.0
1011.576538 112.0
1014.528625 196.0
1014.668091 140.0
1016.431396 132.0
1018.399475 140.0
1018.640808 152.0
1022.315796 108.0
1022.742249 220.0
1023.42981 180.0
1024.155762 156.0
1025.608521 116.0
1026.188721 148.0
1026.545776 200.0
1027.170776 112.0
1027.903809 192.0
1030.151978 168.0
1030.458618 140.0
1030.880371 180.0
1031.040039 180.0
1031.289307 204.0
1033.009399 160.0
1033.086182 168.0
1034.775757 144.0
1035.159912 36.0
1038.819702 196.0
1039.012207 140.0
1039.339355 112.0
1041.156006 136.0
1045.064453 160.0
1046.100586 188.0
1047.03418 212.0
1048.754517 148.0
1050.082764 156.0
1053.762207 88.0
1053.930298 192.0
1054.485962 156.0
1056.555298 168.0
1059.572144 196.0
1060.109985 264.0
1060.252563 180.0
1061.030396 64.0
1061.510254 176.0
1063.904419 164.0
1065.118774 196.0
1068.733398 164.0
1069.501343 88.0
1069.670654 100.0
1070.204468 240.0
1071.520142 144.0
1071.898071 156.0
1072.047974 104.0
1072.660645 160.0
1072.764893 204.0
1073.547363 172.0
1082.218628 196.0
1082.978271 188.0
1083.391602 268.0
1083.489136 80.0
1083.908569 260.0
1084.268921 280.0
1088.342651 160.0
1091.766357 152.0
1092.628052 188.0
1092.851685 136.0
1097.713013 156.0
1097.798706 176.0
1101.435303 156.0
1101.791992 180.0
1103.173218 56.0
1105.435303 176.0
1106.110352 232.0
1107.010742 156.0
1107.083618 136.0
1107.189575 160.0
1108.415161 144.0
1109.555176 160.0
1110.112183 200.0
1110.178467 116.0
1112.28833 188.0
1113.722656 280.0
1113.908569 64.0
1114.386963 52.0
1114.513184 180.0
1116.454224 56.0
1118.350464 84.0
1118.956177 88.0
1119.069336 216.0
1120.228271 180.0
1120.747925 176.0
1121.007812 64.0
1121.161011 180.0
1123.714966 196.0
1124.702637 180.0
1125.538086 168.0
1125.704102 120.0
1126.879639 140.0
1128.309937 68.0
1128.523926 164.0
1129.995361 228.0
1130.825195 228.0
1131.943115 120.0
1132.371826 168.0
1133.91272 120.0
1134.241211 132.0
1134.509277 156.0
1135.635864 164.0
1137.568359 120.0
1138.226318 160.0
1140.483643 44.0
1143.490234 112.0
1145.85376 204.0
1146.237915 56.0
1146.743286 152.0
1147.55896 128.0
1148.665039 164.0
1149.096802 156.0
1150.18335 156.0
1150.561401 156.0
1150.946167 116.0
1152.52002 152.0
1153.161987 136.0
1153.885376 196.0
1153.966431 72.0
1154.040894 156.0
1157.126099 232.0
1157.457886 84.0
1157.525635 84.0
1158.792236 148.0
1159.436035 132.0
1162.426636 232.0
1162.664185 156.0
1162.983154 244.0
1163.363281 176.0
1164.049072 152.0
1164.300293 180.0
1164.891235 140.0
1164.938843 100.0
1165.441528 220.0
1166.202637 136.0
1166.766968 256.0
1168.392334 148.0
1169.501587 160.0
1169.801025 140.0
1170.522705 72.0
1172.498291 140.0
1172.648315 216.0
1173.207275 168.0
1173.54126 196.0
1175.819702 120.0
1176.570557 156.0
1177.362671 104.0
1177.574341 204.0
1177.622192 96.0
1178.906616 172.0
1181.436523 160.0
1181.758057 96.0
1182.634033 180.0
1183.619873 180.0
1187.046143 116.0
1187.217529 156.0
1187.443848 112.0
1187.937744 112.0
1188.52771 160.0
1189.056152 172.0
1193.356445 192.0
1193.59021 172.0
1197.499146 208.0
1197.788452 144.0
1197.967529 160.0
1198.146606 144.0
1199.676636 152.0
1199.724854 164.0
1200.504028 148.0
1200.828125 144.0
1202.041992 228.0
1204.189331 104.0
1205.232544 28.0
1205.564209 152.0
1205.674805 148.0
1206.538818 180.0
1206.753174 156.0
1207.949585 180.0
1208.579224 172.0
1208.932129 88.0
1209.444214 72.0
1210.191895 212.0
1210.344238 168.0
1211.68103 160.0
1211.999756 172.0
1212.117554 172.0
1212.554199 208.0
1213.164062 196.0
1213.247314 224.0
1214.765991 168.0
1216.188599 216.0
1216.466187 192.0
1218.313477 172.0
1218.431519 80.0
1218.514893 28.0
1220.224609 112.0
1220.440186 40.0
1220.49585 200.0
1220.648804 152.0
1220.871338 132.0
1221.413818 200.0
1221.817383 172.0
1222.067749 164.0
1222.520142 116.0
1222.819336 252.0
1223.132568 188.0
1223.417969 116.0
1223.598999 208.0
1225.438599 164.0
1226.009155 172.0
1227.97522 184.0
1228.09375 204.0
1228.847168 188.0
1230.983032 176.0
1231.248413 132.0
1231.890015 168.0
1232.7854 128.0
1233.365479 72.0
1236.079102 148.0
1236.212036 56.0
1236.883911 144.0
1238.032227 124.0
1242.03418 128.0
1242.735718 60.0
1243.262085 228.0
1243.718262 188.0
1243.992065 52.0
1244.195557 200.0
1244.848633 108.0
1245.220825 64.0
1245.944336 168.0
1246.829712 156.0
1246.991333 128.0
1247.694336 164.0
1248.031738 220.0
1249.107788 220.0
1250.332153 184.0
1251.803467 112.0
1251.89502 116.0
1252.599365 176.0
1253.296753 164.0
1253.353149 124.0
1254.537231 140.0
1254.994263 204.0
1255.453857 224.0
1255.594849 120.0
1257.633911 200.0
1258.085693 64.0
1259.144897 188.0
1259.201416 148.0
1259.328491 204.0
1260.211548 164.0
1260.911133 212.0
1260.981812 168.0
1261.589722 164.0
1261.900879 104.0
1262.204834 124.0
1262.968628 52.0
1263.541626 172.0
1263.591187 128.0
1263.994507 256.0
1264.468628 192.0
1264.567749 100.0
1265.919922 164.0
1268.910156 168.0
1270.087402 168.0
1271.300537 204.0
1271.683838 108.0
1275.355957 228.0
1276.536133 280.0
1276.735352 204.0
1277.268799 148.0
1278.478271 128.0
1278.947998 68.0
1279.298706 248.0
1279.887817 172.0
1280.941772 196.0
1281.561646 156.0
1281.665161 164.0
1282.210083 244.0
1282.409668 92.0
1283.172485 72.0
1283.707275 140.0
1284.085205 224.0
1284.784302 172.0
1285.290771 28.0
1286.668335 156.0
1286.825439 212.0
1287.225342 184.0
1289.239868 228.0
1289.747314 160.0
1290.397827 168.0
1290.97229 208.0
1291.162964 224.0
1291.806641 120.0
1292.214478 156.0
1292.393311 168.0
1293.302246 200.0
1293.774658 224.0
1293.940918 220.0
1294.641113 144.0
1295.328735 152.0
1296.510864 72.0
1296.796387 216.0
1297.134521 124.0
1297.614746 148.0
1298.475342 136.0
1298.755005 172.0
1299.458008 92.0
1300.599121 208.0
1301.661621 152.0
1302.7677 164.0
1302.911377 160.0
1303.292236 144.0
1303.601196 240.0
1304.190552 204.0
1304.41333 104.0
1304.752808 76.0
1306.470093 120.0
1306.585205 112.0
1306.911621 176.0
1307.097534 76.0
1307.664551 120.0
1309.104492 140.0
1309.925537 40.0
1310.004761 144.0
1310.220947 156.0
1310.285767 160.0
1310.552368 220.0
1310.862183 92.0
1310.977417 88.0
1311.849609 252.0
1312.044312 184.0
1312.809448 156.0
1313.645264 140.0
1313.984375 232.0
1314.532715 148.0
1314.684204 152.0
1315.391602 52.0
1316.893433 204.0
1317.030762 208.0
1318.39624 136.0
1320.702637 148.0
1321.028076 176.0
1321.549072 180.0
1321.795044 60.0
1323.220947 128.0
1323.343994 84.0
1324.640381 116.0
1325.451904 112.0
1325.596802 124.0
1325.982788 140.0
1326.26355 48.0
1326.394043 132.0
1326.491699 180.0
1326.713013 140.0
1327.858643 128.0
1327.916748 176.0
1328.80896 112.0
1328.888794 188.0
1329.026611 208.0
1329.316895 180.0
1329.759644 148.0
1330.006348 84.0
1330.347534 232.0
1330.666992 132.0
1331.022827 244.0
1331.886963 164.0
1332.569946 200.0
1333.205078 176.0
1334.219727 228.0
1334.511841 196.0
1335.034058 140.0
1335.506836 196.0
1336.350708 136.0
1336.809082 220.0
1337.020142 184.0
1337.42041 240.0
1337.733521 132.0
1337.973755 172.0
1338.534302 156.0
1338.81189 184.0
1339.058716 160.0
1339.218994 196.0
1339.277222 176.0
1339.488403 196.0
1339.577026 152.0
1339.765259 192.0
1340.68335 176.0
1340.836426 164.0
1341.550781 200.0
1341.696533 192.0
1341.900635 116.0
1342.236084 116.0
1342.301758 76.0
1342.849609 160.0
1343.337402 132.0
1343.512451 208.0
1343.865967 216.0
1344.030518 112.0
1344.753052 228.0
1346.673218 200.0
1346.790161 220.0
1346.899658 156.0
1347.016602 176.0
1347.411011 184.0
1347.871338 204.0
1348.068726 156.0
1348.916504 44.0
1349.172363 116.0
1353.877319 100.0
1354.448608 60.0
1354.529175 68.0
1356.566284 108.0
1356.859619 164.0
1356.991577 148.0
1357.548828 40.0
1357.75415 148.0
1358.663696 200.0
1358.905884 140.0
1359.162598 116.0
1359.463501 240.0
1360.190063 176.0
1360.425049 188.0
1360.696655 148.0
1360.78479 44.0
1361.651245 136.0
1363.091187 124.0
1363.63501 120.0
1364.098145 104.0
1364.267212 164.0
1364.348022 180.0
1365.215698 104.0
1365.708496 180.0
1366.370483 100.0
1366.995972 168.0
1367.459595 192.0
1367.592041 180.0
1367.798218 136.0
1368.247192 196.0
1368.519653 180.0
1368.762695 168.0
1369.093994 160.0
1369.499146 128.0
1370.213623 128.0
1371.768677 212.0
1372.365845 44.0
1372.874634 188.0
1373.140137 228.0
1373.796631 124.0
1374.121216 276.0
1374.497559 152.0
1374.814819 152.0
1374.962402 192.0
1375.228149 52.0
1375.83374 232.0
1375.988525 60.0
1377.068604 216.0
1377.325195 152.0
1379.031982 224.0
1379.734253 224.0
1380.33313 216.0
1380.518066 224.0
1380.984009 100.0
1381.154053 140.0
1381.516602 176.0
1381.938232 184.0
1382.286011 176.0
1382.537598 124.0
1382.863281 152.0
1383.188965 200.0
1383.477661 184.0
1383.78125 120.0
1384.453003 164.0
1385.003174 76.0
1385.069824 332.0
1385.521729 140.0
1385.729126 184.0
1385.99585 248.0
1386.440552 96.0
1386.551636 180.0
1387.070557 236.0
1387.1521 148.0
1388.175293 152.0
1388.516357 140.0
1388.575684 160.0
1388.894653 148.0
1389.094971 208.0
1389.347168 152.0
1389.859131 212.0
1391.046631 236.0
1391.922729 200.0
1392.123169 164.0
1393.125854 252.0
1393.608765 176.0
1393.913452 216.0
1394.114136 64.0
1394.21814 228.0
1394.604614 80.0
1395.511597 132.0
1396.32959 160.0
1396.433716 160.0
1396.880005 212.0
1397.095703 52.0
1397.214722 176.0
1397.281738 108.0
1397.690918 160.0
1398.338379 128.0
1398.405396 248.0
1398.539307 144.0
1398.904053 144.0
1399.283813 200.0
1399.395508 156.0
1399.581665 188.0
1400.623535 176.0
1400.832886 52.0
1400.959473 168.0
1401.86853 200.0
1401.965332 200.0
1402.464722 180.0
1402.651123 184.0
1402.934326 152.0
1403.113281 200.0
1403.23999 180.0
1403.560669 108.0
1404.753906 164.0
1404.821045 140.0
1405.708984 180.0
1405.985107 116.0
1406.149292 144.0
1407.498901 192.0
1407.597534 184.0
1407.936035 188.0
1408.157715 168.0
1408.904663 208.0
1409.793823 96.0
1409.861084 172.0
1410.227295 252.0
1410.660889 244.0
1410.840332 72.0
1411.236572 120.0
1411.76001 132.0
1412.320923 192.0
1412.485474 184.0
1412.82959 148.0
1413.661255 188.0
1414.917603 176.0
1415.404297 196.0
1415.696289 208.0
1415.936035 108.0
1416.834839 200.0
1418.236206 168.0
1419.383301 212.0
1419.623169 68.0
1420.15564 176.0
1420.485718 192.0
1421.933838 204.0
1422.842163 128.0
1423.127441 180.0
1423.405273 124.0
1424.238892 168.0
1424.900024 144.0
1425.110352 164.0
1425.734131 88.0
1425.989624 140.0
1426.741333 204.0
1426.981934 160.0
1427.064575 140.0
1427.81665 196.0
1427.929443 180.0
1428.004639 48.0
1428.076904 204.0
1428.200195 192.0
1428.373169 220.0
1429.02771 124.0
1429.087891 128.0
1430.502808 184.0
1430.864136 140.0
1430.992188 116.0
1431.699951 132.0
1432.91272 100.0
1434.089478 156.0
1434.178711 168.0
1434.284302 144.0
1435.13623 128.0
1435.430298 132.0
1435.897827 184.0
1436.184448 132.0
1437.202881 184.0
1437.349487 196.0
1437.776367 260.0
1438.229248 56.0
1438.417969 208.0
1439.490112 152.0
1439.799683 136.0
1439.875244 124.0
1440.305786 148.0
1440.426636 80.0
1440.638184 196.0
1440.781738 144.0
1440.947876 32.0
1441.038574 112.0
1441.363525 144.0
1441.484375 156.0
1441.620361 144.0
1441.748901 100.0
1442.330811 224.0
1442.813965 136.0
1442.928101 44.0
1443.608643 40.0
1444.251465 100.0
1444.546509 244.0
1444.599365 68.0
1444.939819 224.0
1445.265259 284.0
1445.401367 96.0
1445.772217 168.0
1446.08252 168.0
1446.766235 172.0
1447.078613 248.0
1447.658203 168.0
1447.861694 164.0
1448.013184 212.0
1448.210083 164.0
1448.285889 172.0
1448.57373 220.0
1448.778198 188.0
1450.832031 204.0
1450.991211 156.0
1451.180786 144.0
1453.175537 176.0
1454.071045 116.0
1454.587158 224.0
1454.685791 132.0
1457.002075 136.0
1458.31665 196.0
1458.377441 68.0
1460.529297 148.0
1461.769409 192.0
1462.26416 152.0
1462.682739 196.0
1462.827393 180.0
1463.010132 152.0
1463.223267 168.0
1463.977051 124.0
1464.060913 328.0
1464.44165 124.0
1464.606812 216.0
1465.694946 172.0
1466.212769 176.0
1466.315918 144.0
1467.306885 168.0
1467.871216 340.0
1468.130493 188.0
1468.580444 176.0
1468.954224 124.0
1469.289917 228.0
1470.136841 216.0
1470.213135 228.0
1470.617676 208.0
1470.777954 108.0
1471.136719 212.0
1472.098755 372.0
1472.778442 84.0
1473.825195 48.0
1474.436523 200.0
1474.566406 128.0
1475.590698 148.0
1475.751343 44.0
1476.286621 136.0
1476.722534 192.0
1477.166138 184.0
1477.40332 184.0
1477.602173 152.0
1477.977173 212.0
1478.107178 160.0
1478.246338 176.0
1478.352051 128.0
1478.505127 184.0
1478.696533 128.0
1479.109863 116.0
1479.622681 200.0
1479.852417 176.0
1480.296509 160.0
1480.419067 112.0
1481.034302 244.0
1481.299805 168.0
1481.943359 160.0
1482.081299 88.0
1482.893677 160.0
1483.184937 148.0
1483.537476 116.0
1483.614136 160.0
1483.897827 216.0
1484.16626 56.0
1485.42395 148.0
1486.206543 156.0
1486.352295 164.0
1486.521118 116.0
1486.866455 236.0
1487.388428 232.0
1487.549683 152.0
1488.028809 236.0
1489.000854 200.0
1489.669067 292.0
1490.544922 228.0
1491.913086 176.0
1491.98999 124.0
1492.343628 116.0
1493.404907 156.0
1493.651001 192.0
1494.058716 148.0
1494.674316 140.0
1494.74353 184.0
1495.059082 192.0
1495.128296 144.0
1495.705566 132.0
1496.36853 144.0
1496.953003 192.0
1498.023438 208.0
1498.655151 180.0
1499.109863 140.0
1499.587646 200.0
1499.680176 144.0
1500.77478 248.0
1500.921387 188.0
1501.029297 116.0
1501.176636 196.0
1501.358643 196.0
1501.962524 164.0
1502.641357 120.0
1502.726196 144.0
1502.888306 192.0
1503.004028 148.0
1503.345337 224.0
1503.860596 148.0
1504.107666 112.0
1504.393311 200.0
1504.97998 128.0
