>compound Ritonavir
>formula C37H48N6O5S2 
>ionization [M+H]+
>parentmass 721.322
#inchi InChI=1S/C37H48N6O5S2/c1-24(2)33(42-36(46)43(5)20-29-22-49-35(40-29)25(3)4)34(45)39-28(16-26-12-8-6-9-13-26)18-32(44)31(17-27-14-10-7-11-15-27)41-37(47)48-21-30-19-38-23-50-30/h6-15,19,22-25,28,31-33,44H,16-18,20-21H2,1-5H3,(H,39,45)(H,41,47)(H,42,46)/t28-,31-,32-,33-/m0/s1
#inchikey NCDNCNXCDXHOMX
#Ion_Source LC-ESI
#Instrument qTof
#Compound_Source Isolated
#PI Sirenas
#Data_Collector Ed Esquenazi 
#Scan -1
#Precursor_MZ 721.322
#ExactMass 0.0
#Charge 1
#CAS_Number N/A
#Pubmed_ID N/A
#Smiles N/A
#INCHI_AUX N/A
#Library_Class 3
#SpectrumID CCMSLIB00000005595
#IonMode Positive
#UpdateWorkflowName UPDATE-SINGLE-ANNOTATED-BRONZE
#LibraryQualityString Bronze
#TaskID d19310cd93df49b68e9fcbec27720eb5
##Scan# 3
#SpectrumFile Ritonavir.mgf
#LibraryName fda_library.mgf
#MQScore -1
#Organism fda_library
#TIC_Query 0
#RT_Query -1
#MZErrorPPM -1
#SharedPeaks 0
#MassDiff 0
#LibMZ -1
#SpecMZ 721.322
#SpecCharge 0
#internalFilename spec-00000.mgf

>collision 10
100.019775 53.781109
100.036652 22.0
100.043167 9.669871
100.077171 12.68542
100.311432 5.852594
100.394775 7.234486
100.961052 5.511111
103.053345 30.50511
104.650116 10.58265
105.06929 646.187927
105.831726 5.227904
106.06218 4.761905
107.073601 17.26882
107.437386 5.265351
113.015083 25.05867
113.039421 21.25359
114.37381 5.668056
114.666145 18.58709
115.032143 325.231506
115.052635 91.517242
115.08606 50.849121
115.150475 6.092803
115.371277 8.382762
115.435722 16.148491
115.475471 4.833896
115.72258 5.602134
116.015953 329.439911
116.044411 1.668056
116.083084 16.95833
116.277306 14.23666
116.490822 7.276136
116.712433 12.83839
116.934288 9.171569
117.070007 1161.562012
117.17141 6.222685
117.586006 7.333333
118.54007 5.501389
119.44175 7.170494
119.498222 4.222994
120.08062 1499.755005
120.279671 5.206731
120.297516 5.420027
120.325462 6.314134
120.348358 4.364268
120.373199 6.104167
120.508705 7.531565
121.597382 9.014423
124.018112 15.12604
125.03035 17.02832
125.104996 73.156708
125.23278 12.13268
125.250511 6.126894
126.349113 5.372024
126.473793 21.08
127.086441 17.15789
128.054993 11.83477
129.069138 390.703003
129.100082 22.564211
129.236511 10.02778
129.357498 7.224385
131.048813 15.51524
131.085648 178.074799
131.311539 6.008539
131.331467 5.041667
132.081757 124.667801
132.277542 7.017045
132.406601 6.826666
132.500198 1.820076
133.06723 15.85
133.088531 144.419006
134.09404 128.073395
134.366821 5.167046
134.621048 4.142045
134.641159 5.669445
137.110443 10.01786
137.800079 4.171474
139.121704 10.87894
139.212265 10.72439
139.265106 7.820076
139.279465 22.92647
139.28952 16.61742
139.298447 34.746552
139.309174 23.346769
139.319336 2.1875
139.352875 19.082649
139.370819 37.290161
139.391968 28.554331
139.410324 21.27244
139.430115 8.531746
139.44043 22.29948
139.455688 10.20038
139.47438 10.72024
139.484299 5.573412
139.494568 5.180556
139.511261 23.28245
139.537186 14.2339
139.569824 11.68065
139.57814 6.399193
139.590195 13.61538
139.621933 18.31669
139.638443 11.11949
139.661438 21.95656
139.712952 11.01479
139.727188 7.538691
139.748932 12.36939
139.760696 6.405357
139.788498 37.742802
139.815002 11.62586
139.838837 10.30769
139.849182 41.56617
139.92308 6.0
139.93692 36.067879
139.958237 4.963542
139.985306 7.71423
140.025375 38.728271
140.053162 47900.558594
140.1129 0.833333
140.134171 5.3075
140.163437 11.75291
140.183777 12.83394
140.201263 15.83365
140.242065 9.07714
140.266571 5.527412
140.339554 11.36819
140.404419 33.405121
140.417557 23.83646
140.425629 38.816292
140.44072 76.531761
140.457474 36.030079
140.464386 10.07692
140.47226 30.08007
140.486053 39.947102
140.505814 15.5086
140.513733 20.25782
140.53299 57.514721
140.5457 4.980183
140.573181 25.55702
140.582809 7.837906
140.594238 10.86855
140.605042 17.12162
140.625443 33.53426
140.640182 25.78668
140.648849 8.949074
140.656738 33.075588
140.673645 20.320829
140.701279 26.134041
140.712845 11.50536
140.724854 35.015961
140.740616 4.855511
140.767548 6.666667
140.800613 19.81856
140.811737 16.142811
140.829803 5.354167
140.855621 12.84992
140.871796 9.845834
140.886917 1.020833
140.958069 15.00694
141.148712 32.349319
141.181763 4.714881
141.210449 5.667439
141.317993 7.253925
141.341599 5.908333
141.362778 8.214286
141.376556 10.88672
141.501419 12.22807
141.558594 9.760417
141.570374 8.35645
141.616852 11.53371
141.765244 7.751488
141.777832 7.56813
141.794022 6.653486
141.802979 6.224385
141.832016 4.815104
141.985291 7.541667
142.035416 8.926907
142.066055 12.58088
142.219604 5.148284
142.233429 5.208333
142.384247 15.04613
143.018677 1.667892
143.081741 659.869324
143.286865 4.653409
143.630264 5.586805
143.822769 5.00947
144.073517 8.451388
145.065308 18.046671
145.098541 51.10849
145.252029 10.32353
146.056686 15.21365
146.095047 613.056091
146.198105 10.9142
146.246445 6.0
146.348587 6.994971
147.344452 4.522685
147.810257 7.731771
148.073273 66.901939
148.111343 70.932213
149.113403 25.66811
149.19632 8.65661
150.091827 81.364166
150.456558 9.776136
150.883133 5.681159
151.280884 5.026175
155.082275 48.16354
156.080811 20.00333
157.087952 11.92857
157.368271 7.1875
158.060013 12.50298
158.096802 313.122009
158.386734 5.111111
158.423355 5.0
158.506561 6.463141
158.875061 5.449253
159.023254 12.78788
159.078323 17.22401
159.328781 26.426161
160.109314 53.375351
160.276825 13.52604
160.902603 4.704167
161.095718 16.40341
162.093124 10.1773
164.070084 132.723404
164.103195 20.106741
164.679886 7.061869
167.083099 31.61582
167.896103 8.862319
168.009109 7.380208
168.077637 12.79592
168.120743 4.685606
168.157898 2.201389
168.185104 8.501985
168.216995 6.526175
168.312088 9.642858
168.454742 1.074405
168.609375 4.343137
168.645523 6.012112
168.801743 7.428572
169.052933 20.881941
169.078781 1675.749023
169.139343 31.85585
169.165466 4.346036
169.201675 8.336408
169.224976 4.782407
169.269562 6.141902
169.278305 7.338401
169.306671 12.64068
169.332306 9.364583
169.358002 6.211111
169.463547 10.25947
169.509521 4.515625
169.690842 4.695513
169.717941 4.17937
169.935593 8.20119
169.985565 11.44592
170.017151 6.561484
170.031921 19.08209
170.050339 9.056327
170.060883 103.801102
170.091217 67.874748
170.101425 44.994381
170.11702 45.477058
170.138962 18.51796
170.154388 92.090874
170.167145 6.834723
170.180695 33.490009
170.202988 11.37917
170.221848 50.402309
170.235001 4.544445
170.249908 70.768333
170.283417 47.060452
170.315765 8.241072
170.325821 84.953568
170.343811 20.940479
170.372787 67.388893
170.404022 9.0625
170.437775 35.616039
170.463257 15.01617
170.487503 29.390369
170.498367 4.835145
170.51825 128.450104
170.542389 11.00288
170.571411 4.194079
170.648575 10.66451
170.657684 7.704166
170.703918 15.2807
170.839203 13.66882
170.890976 7.122459
170.90741 4.481482
170.92453 4.449074
171.006805 24.17778
171.039093 27.29953
171.095322 68514.226562
171.269562 15.35417
171.331406 20.564831
171.389725 11.86825
171.406754 10.20685
171.451981 22.03326
171.464539 10.14938
171.485352 60.372879
171.537643 24.743191
171.556534 62.676762
171.576126 79.506523
171.595703 66.626747
171.625015 60.884499
171.658356 38.877769
171.676636 92.635849
171.696335 54.985039
171.709045 20.05899
171.718124 22.51512
171.738678 28.26536
171.773636 42.57642
171.786377 19.68178
171.810318 15.08763
171.820358 44.534908
171.843521 23.288589
171.858261 4.871069
171.875031 42.562851
171.901337 16.96944
171.917984 70.589523
171.927719 4.416667
171.970367 30.928431
171.991623 40.958611
172.02919 12.83333
172.055786 7.903409
172.21666 20.63442
172.248322 26.823299
172.308609 28.42557
172.334808 16.27083
172.354782 10.93006
172.43335 34.21801
172.472244 40.52079
172.634232 16.5135
172.835541 12.7417
172.891403 6.061274
172.946274 6.501389
173.038361 13.03086
173.060791 7.031746
173.08342 9.868055
173.271439 4.833776
173.380585 6.31579
173.396439 46.93504
173.60437 7.900463
173.748016 5.004167
173.789703 5.7075
173.807678 5.530935
173.848938 7.765369
173.868317 4.669445
174.037918 4.926006
174.060043 8.228436
174.089844 22.20356
174.18219 9.321647
174.243622 6.246116
174.261932 7.551445
174.354675 4.815104
174.380188 11.01096
174.808914 4.558624
175.120468 41.764511
175.942261 5.841346
176.066864 5.025641
176.107391 355.013702
176.24704 7.7
176.798294 11.69147
177.088516 5.201754
177.098557 22.82431
179.140671 5.735703
179.970367 7.00926
180.498215 5.334677
180.933929 14.23047
181.09668 28.181709
182.650513 25.66679
182.673416 3.667572
183.094635 53.20219
184.074997 17.28657
184.111053 22.020029
186.035568 115.693703
186.420212 43.459351
186.944061 11.19531
187.156616 6.130952
188.052811 195.359802
190.06778 161.556198
190.11087 2.208333
190.120667 30.33333
190.442001 5.002451
191.082535 19.57202
191.97023 9.592642
192.081711 32.02655
193.248871 5.5625
193.894547 1.854167
194.101288 84.250847
194.205658 4.5125
194.685989 9.626302
194.752609 12.87034
194.914764 4.401389
195.389801 8.513392
195.637924 7.000393
195.75058 10.7815
195.769211 7.225291
195.788803 6.922222
195.813156 4.679487
195.839752 65.031769
195.872101 68.049683
195.887436 33.313141
195.913422 46.315331
195.928391 3.482143
195.939941 75.656662
195.956985 68.98983
195.967743 16.527269
195.983521 123.334396
195.998169 3.0625
196.012192 34.134621
196.024673 20.151779
196.038879 103.946701
196.061005 40.742619
196.077042 58.052738
196.091141 50.614712
196.119553 54.346901
196.144531 32.890308
196.162155 43.000511
196.173553 4.886968
196.184036 13.93987
196.198364 42.446789
196.216049 7.354167
196.235291 14.34927
196.264832 30.640619
196.29509 58.97168
196.314468 7.072024
196.327499 18.32094
196.407578 27.71925
196.442734 9.248547
196.456512 7.1875
196.506363 49.23035
196.711258 8.060648
196.759995 22.81452
196.784454 30.059509
197.041824 5.578526
197.074722 93976.9375
197.280365 22.46726
197.316483 19.38196
197.375519 22.949579
197.42308 24.349461
197.447357 5.744907
197.469025 16.02083
197.488464 111.085503
197.521957 114.242401
197.535614 7.092079
197.548187 24.790159
197.55719 39.762341
197.577805 107.242699
197.58783 14.10556
197.607162 45.326351
197.642059 70.388741
197.656311 9.456018
197.670441 26.526699
197.683792 23.68461
197.711227 10.85852
197.732025 62.959801
197.740158 31.225321
197.764114 61.582611
197.776657 22.87476
197.793076 7.483553
197.804306 18.18062
197.814545 52.921021
197.835815 28.71937
197.846786 43.3195
197.869858 42.749908
197.974228 44.30518
198.00975 19.94532
198.158844 10.45721
198.176651 15.97468
198.208267 10.70175
198.249878 39.985611
198.287689 19.530939
198.353683 15.24395
198.404007 21.587561
198.438217 20.86882
198.455887 4.469445
198.65509 5.871795
198.702286 12.12674
198.988342 10.7234
199.054016 2.833965
199.128937 19.369671
199.152267 4.808712
199.294586 9.334523
199.333221 8.21007
199.380112 5.527243
199.506073 6.607456
199.599976 7.26
199.717209 0.8375
199.781097 4.024899
199.90274 6.229167
199.987701 11.33961
200.050018 66.30378
200.061478 7.88436
200.196381 14.19464
200.445511 2.0
200.500732 4.483477
200.599365 7.520833
200.648376 8.657577
200.738556 6.221154
200.983093 4.858135
201.029282 5.6075
201.591202 5.914216
202.065491 81.049103
203.024963 4.717948
203.11586 18.83523
203.156464 14.49103
204.467896 4.815476
206.41449 4.06813
207.099396 11.84964
207.115707 9.9375
209.093719 10.74405
209.611252 8.571759
210.039383 4.677778
211.05368 5.026175
211.125763 650.948486
211.164795 11.68116
211.367035 4.738095
211.64296 7.544445
211.892822 5.388889
212.050476 12.55442
212.129944 52.343491
212.171722 10.35632
213.067749 43.7869
214.06897 195.333206
214.099747 44.2827
214.158264 88.127892
214.213974 5.166667
214.383514 7.748724
216.081787 15.50298
216.798813 5.297861
216.85025 5.183435
217.078796 744.819092
217.130371 25.54344
217.178162 7.362938
217.35495 8.9392
217.438904 2.500992
217.746811 4.174603
218.096481 22.167681
218.414688 4.460022
218.851913 1.843202
220.68721 4.530637
223.088089 16.1145
224.147919 8.695833
225.142563 91.576736
225.483856 4.734848
226.0737 28.168779
227.080154 24.78537
227.111389 23.592171
228.083878 183.884995
228.313614 9.00139
229.766739 4.833868
230.102982 10.41667
231.113098 32.465031
232.082581 15.4746
232.825745 6.592803
232.904495 5.942345
233.110306 9.960023
233.131912 393.172485
233.260315 3.836538
233.280258 7.817876
233.680267 6.340015
233.701523 4.583333
233.735153 9.39457
235.701111 13.86422
235.96962 5.565188
236.683899 1.347756
237.051315 136.400803
237.105164 78.043556
237.803818 5.170343
238.067749 9.234722
240.076889 55.179798
241.131058 9.020833
243.097961 186.092499
243.285645 3.528846
243.665771 10.05103
244.293915 4.953373
245.074371 33.36174
245.123718 137.5681
245.286652 8.33507
246.089859 17.927231
246.106949 62.443619
246.287994 7.428442
247.091064 89.994812
247.218033 6.006465
247.670715 8.25
248.048187 4.815587
248.143494 503.552307
248.294464 4.948994
248.396729 5.546997
248.493744 8.4907
248.543045 7.096491
248.599518 6.703869
248.632675 6.003788
248.660202 4.817876
248.789169 12.31341
248.823334 15.22969
248.845642 1.526786
248.863144 4.874167
248.926056 20.89963
248.961685 15.76019
248.978363 6.001389
249.006775 14.79267
249.044006 7.675495
249.115936 4.869933
249.198837 5.59375
249.274261 4.722222
249.443436 4.388889
249.681274 2.009868
250.105515 40.48732
250.159348 5712.740234
250.225769 66.87645
250.247604 23.12199
250.274307 4.870833
250.304565 17.61364
250.344116 14.06818
250.363464 24.76178
250.38858 14.6875
250.429565 43.021019
250.455078 13.50914
250.480606 9.460784
250.494156 10.26875
250.509598 10.84776
250.589828 26.718519
250.649704 4.167175
250.679535 10.30303
250.749832 14.96261
250.787415 7.671568
250.994644 20.314939
251.068466 6.666667
251.621567 9.390625
251.690735 4.4375
251.730377 7.546944
252.079788 9.963542
252.631287 16.06521
254.004059 7.369867
254.725357 5.66827
255.154495 15.09547
255.814575 7.672024
256.101074 72.702606
256.616608 10.66931
257.135254 12.51122
257.155396 19.59223
258.126862 24.769171
259.133392 13.2
259.148743 6.096491
260.139832 11.36694
261.062317 14.22222
261.769348 5.206731
262.155914 65.353737
262.913208 5.201106
263.426788 4.169872
263.811157 5.235577
264.823669 4.788075
265.944794 6.724856
266.095978 15.32783
266.153259 824.025574
266.239868 10.3381
266.314301 7.053572
266.358521 19.17313
266.382446 23.365561
266.410919 6.182449
266.428772 30.137951
266.443695 18.6749
266.476257 43.66172
266.491302 30.77717
266.521454 37.546082
266.532349 76.010033
266.555054 73.277191
266.586456 63.37114
266.619049 142.255493
266.68277 46.326191
266.7164 43.424431
266.731567 22.5651
266.748932 48.474651
266.774628 54.92989
266.793304 66.813629
266.836884 98.33342
266.875763 77.312553
266.913727 89.17524
266.952332 61.733131
267.069916 7.676771
267.183228 168.4431
267.397827 48.899899
267.506622 15.99551
267.667267 15.0058
267.700623 12.19504
267.843903 14.69728
267.991669 4.667659
268.008179 17.775789
268.056763 28.11174
268.094849 1053.037964
268.148682 81810.09375
268.218384 4.230263
268.331329 39.217171
268.351593 16.40015
268.479156 19.87446
268.598267 13.55263
268.640717 16.20833
268.662659 12.95385
268.682922 114.830803
268.727509 92.318138
268.748016 27.03982
268.787476 15.70452
268.802704 118.152702
268.855682 111.274101
268.900116 32.195148
268.912872 70.900017
268.93576 54.04734
268.983124 112.697197
269.013306 55.762039
269.029999 13.51852
269.061371 12.2466
269.098053 121.109497
269.264465 17.790859
269.288177 35.31422
269.535065 35.317829
269.564362 31.61554
269.601837 14.96002
269.640076 10.96094
269.70932 5.400833
269.765472 17.21044
269.865204 23.783859
269.914307 6.334167
269.965576 23.203779
270.049408 26.858089
270.126007 27.828541
270.200073 19.54261
270.242859 10.4742
270.269287 10.66216
270.360779 7.34157
270.394745 5.16886
270.424622 11.28241
270.505341 11.74888
270.664459 9.145833
270.829681 1.508333
270.850952 12.99052
270.932159 9.588443
270.98999 5.184524
271.133179 6.234722
271.379303 17.801769
271.580597 4.838542
271.655823 4.981771
271.711792 11.08028
271.73703 9.241667
271.786621 0.836309
271.818604 28.50655
271.978607 15.57749
272.032349 14.08844
272.082031 9.273809
272.44104 9.880208
272.613098 5.695833
272.794098 6.791667
273.110107 41.807388
273.147644 9.505555
273.223328 20.627701
273.510132 16.0383
274.183258 4.200758
274.488892 4.231304
274.568787 7.133928
274.875732 18.72477
274.993225 12.33891
276.142151 36.496651
276.164551 22.179029
276.77597 4.786765
277.1716 15.16482
278.153717 253.048294
278.207489 5.167385
278.329376 8.942983
278.364166 6.953869
279.119232 3.833896
280.172058 35.236111
281.496063 5.813406
283.142792 7.719298
286.160431 80.847992
286.711639 10.70452
288.129913 20.39707
289.095612 277.284485
289.598267 5.840278
291.149384 1.340278
292.131165 49.69709
292.444885 4.529167
292.716431 4.887821
292.93576 10.08333
293.463165 5.522727
293.654083 5.052632
293.677704 6.75511
294.068878 115.923698
294.147278 171.792603
294.184662 5.565217
294.261993 6.016768
294.297089 5.553728
294.318542 8.361111
294.423798 20.73509
294.495697 36.240471
294.530975 20.02269
294.547791 4.046875
294.596619 4.840833
294.706116 6.541103
294.859589 3.490385
294.97287 3.35
295.122223 5.408245
295.178436 286.886688
295.468964 6.019737
295.606506 5.351191
295.82785 4.377778
296.079956 58.13747
296.143066 7435.160156
296.242828 30.86561
296.303436 20.90204
296.337494 7.833929
296.36319 22.393299
296.394958 8.3
296.420532 18.524269
296.457642 39.470329
296.513245 36.897079
296.55835 23.739531
296.601654 18.33547
296.630219 8.177296
296.649658 13.73448
296.68515 10.34694
296.72226 19.259279
296.774017 6.358232
296.839447 28.115259
296.903107 21.389561
297.038055 4.374167
297.47702 5.929825
297.632324 8.725962
297.822784 4.407738
300.163849 7.061769
303.117767 8.7
309.158844 60.81636
309.217072 12.83226
309.591187 13.28736
310.158539 47.279202
310.177856 11.4428
310.350464 5.056018
310.417877 5.221491
310.436401 9.835227
311.176453 1459.765015
311.301117 7.544225
311.333252 6.59375
311.412567 5.894571
311.565491 6.044445
311.670685 3.568055
311.859161 5.100833
311.921387 7.102273
312.038971 17.10417
314.149048 33.60759
314.172394 24.956181
315.971161 4.17937
318.126312 26.98827
319.151398 5.227941
320.141357 60.503971
321.159332 57.124001
323.179749 19.249371
325.139465 4.843137
326.162781 6.681667
328.106934 28.205021
330.128448 312.056305
330.420868 12.45139
330.474396 5.041159
331.174591 13.72276
331.215454 26.649879
332.192566 18.61846
339.168396 95.293137
342.125549 55.720428
342.587097 6.261824
344.175903 21.694929
344.482605 11.83906
345.037018 12.59524
345.122101 6.673611
345.145599 47.962269
345.226196 4.727273
345.884766 6.738691
346.219696 12.59583
346.24115 12.83906
346.432892 4.726852
346.454742 7.736842
346.564819 4.839382
346.772095 4.689352
347.158478 2838.60791
347.205109 120.179199
347.322998 8.003537
347.350952 5.595109
347.379578 4.095238
347.41095 16.18306
347.439697 6.505747
347.46991 15.95761
347.517517 6.729167
347.54361 22.50494
347.576263 8.647059
347.731781 58.917278
347.751007 5.868421
347.841858 12.36896
347.996429 4.486413
348.658936 11.23852
348.873779 9.509804
348.945831 11.76224
349.633514 1.0375
349.838531 7.233797
352.379425 15.02218
353.169556 7.504167
354.084961 1.0
357.776337 5.235577
360.467102 6.25
362.176514 2.0125
362.758881 4.711051
362.911774 6.822387
363.089478 12.3704
363.159729 7.517045
363.323669 17.738689
363.383118 11.05148
363.412079 9.319592
363.622223 4.840278
363.78067 11.19482
364.120575 5.929825
364.185455 264.944397
364.504089 7.66449
365.131073 20.026291
365.167938 2608.572021
365.247345 20.2845
365.268311 1.666667
365.336395 19.835409
365.377869 15.10849
365.402649 20.64427
365.438324 2.583333
365.494537 24.11376
365.562683 12.05577
365.588684 13.31016
365.607574 11.50676
365.660706 8.901389
365.69693 36.780479
365.767181 9.045455
365.798279 6.705128
365.960114 6.002193
366.474335 8.463141
366.786011 5.729167
366.831207 7.55787
366.890137 8.927338
367.119751 9.986209
367.238831 11.37906
370.15863 9.080808
371.303589 6.172413
371.840088 2.1875
372.15564 11.1702
372.177429 52.641338
372.988098 1.168561
373.140686 51.54277
374.218109 14.75347
374.481415 9.100278
375.147919 65.235077
375.205292 305.751007
375.43988 5.460227
375.476349 6.426006
377.239746 8.20119
379.688904 13.39338
380.320343 7.333742
381.158203 14.35048
381.270081 11.13315
381.793976 5.667298
382.106598 16.682261
382.194702 1598.28894
382.337494 15.4125
382.372192 7.21627
382.4133 8.512703
382.494476 7.502884
382.542084 9.363334
382.902557 7.857073
383.011841 9.336871
383.154724 4.673611
385.091125 6.6125
388.875641 4.083333
389.208527 108.663101
389.706268 8.265368
390.180176 4.167438
390.26355 4.760417
391.147186 188.636597
391.227325 45.612881
391.955139 4.84316
392.142487 9.707108
392.182709 44.659809
392.235138 302.013214
392.285858 6.368421
392.972992 3.092803
393.340729 3.581317
401.195312 20.948271
401.714264 6.818182
404.226776 6.449275
405.45163 6.02374
405.809235 6.653409
406.482086 3.166667
406.678772 5.052632
406.853027 5.07337
408.075806 6.504167
408.17514 1058.761963
408.349915 4.1875
408.697205 5.884804
408.856262 7.833726
409.123596 2.018518
409.156311 228.298798
410.238556 40.56707
410.355957 5.511574
416.197693 5.313516
418.161194 25.55398
420.229401 149.102097
423.255676 11.83628
423.360168 4.740036
423.479248 8.1075
423.518433 4.898551
423.55423 5.578526
423.647308 8.491228
423.671234 3.080044
423.89801 8.18109
423.996643 11.85553
424.085907 8.370536
424.331635 7.794872
424.377991 8.334876
424.449585 4.731771
424.586273 9.087258
424.707153 4.527554
424.729248 7.819445
425.51825 4.861111
426.14566 23.8734
426.18396 2815.249023
426.310852 46.98407
426.351807 7.185957
426.387695 22.360821
426.44809 24.28314
426.486694 29.119881
426.555176 10.28237
426.601776 34.8414
426.626526 6.630952
426.681793 4.880952
426.719025 12.04167
426.782196 11.33622
426.85202 21.43833
426.900085 8.169642
427.030914 4.909091
427.250305 5.375
427.582306 16.918871
427.717041 7.810714
428.234283 41.127399
428.400818 4.854167
428.530884 7.355392
428.631256 8.546401
433.202454 13.17239
434.194641 8.339799
434.225464 14.64828
436.167938 59.217468
436.22287 20.608009
443.223175 4.868421
443.552795 5.670494
446.232239 18.03261
448.173279 7.886905
450.224609 19.27083
453.231934 4.746795
454.191986 21.512819
460.205383 18.651581
460.743652 6.500341
461.685028 4.16713
463.248901 54.831921
463.773163 9.734375
466.691559 4.668056
471.208893 19.613741
472.204559 97.723763
472.339355 6.0375
472.371918 6.708333
480.218628 8.030682
480.251953 7.173611
486.497711 4.834559
487.711243 7.401389
489.231018 657.981628
489.402802 2.060049
489.518219 8.694368
489.550262 6.817581
489.702972 8.735043
489.832916 5.802778
490.322571 12.27079
491.297882 4.333333
491.405823 7.341872
492.069275 2.0
492.155731 11.57143
504.216675 9.380787
504.517975 9.862268
505.143799 11.56694
505.302551 8.926907
507.241943 402.458801
507.742554 7.6875
507.880402 10.29762
508.131287 14.15163
512.218323 12.47335
513.890686 6.871913
521.243164 7.350636
529.848877 6.525
533.222046 156.8228
551.208191 7.003827
556.252869 4.855511
612.623718 5.002976
659.115601 4.815587
664.296326 17.37047
721.30957 5.209936
721.973145 12.5225
764.553772 4.175926
814.619019 11.87674
947.062805 9.535
1206.553589 20.780239
1340.711182 4.463141
1402.406372 17.5928
