>compound MLS001148146-01!
>formula C17H18N2O6
>ionization [M+H]+
>parentmass 347.1237627480905
#inchi InChI=1S/C17H18N2O6/c1-9-13(16(20)24-3)15(14(10(2)18-9)17(21)25-4)11-7-5-6-8-12(11)19(22)23/h5-8,15,20H,1-4H3/b16-13+
#inchikey HZAYOBLZTKMKJT
#Ion_Source LC-ESI
#Instrument qTof
#Compound_Source NIH Pharmacologically Active Library
#PI Dorrestein
#Data_Collector VP/LMS
#Scan -1
#Precursor_MZ 347.117
#ExactMass 346.116
#Charge 1
#CAS_Number N/A
#Pubmed_ID N/A
#Smiles CO/C(=C\1/C(C(=C(C)N=C1C)C(=O)OC)c2ccccc2[N+](=O)[O-])/O
#INCHI_AUX N/A
#Library_Class 1
#SpectrumID CCMSLIB00000085332
#IonMode Positive
#UpdateWorkflowName UPDATE-SINGLE-ANNOTATED-GOLD
#LibraryQualityString Gold
#TaskID d252d724072548979f1f6f1ced849daf
##Scan# 2072
#SpectrumFile p3-H06_GH6_01_18311.mzXML
#LibraryName Pharm_Active_Library.mgf
#MQScore -1
#Organism Pharm_Active_Library
#TIC_Query 0
#RT_Query -1
#MZErrorPPM -1
#SharedPeaks 0
#MassDiff 0
#LibMZ -1
#SpecMZ 347.117
#SpecCharge 0
#internalFilename spec-00000.mgf

>collision 10
45.37133 164.0
45.813503 192.0
49.201622 180.0
50.723873 152.0
50.747974 152.0
51.278244 92.0
51.38805 168.0
51.745384 136.0
52.122631 212.0
53.415237 124.0
54.165581 80.0
54.436928 176.0
54.453083 152.0
54.654491 88.0
55.681965 96.0
56.388206 204.0
56.563217 192.0
57.452892 176.0
58.4286 132.0
59.904484 160.0
61.165051 132.0
61.51424 152.0
62.297268 156.0
62.810471 136.0
63.592155 248.0
63.746212 152.0
64.709686 208.0
66.003403 188.0
66.07943 128.0
67.226662 196.0
68.708412 156.0
69.583961 140.0
70.9739 152.0
71.318069 76.0
71.654648 104.0
73.386917 96.0
74.181938 152.0
74.621452 172.0
75.0364 196.0
75.122627 124.0
75.176117 188.0
77.285797 148.0
77.495911 168.0
77.602837 292.0
77.913498 224.0
78.805023 172.0
79.456596 216.0
80.075218 168.0
81.142067 168.0
82.188911 180.0
82.43811 136.0
83.713463 200.0
87.423233 68.0
88.014168 188.0
88.520943 164.0
88.68956 128.0
88.984093 160.0
89.465401 128.0
89.904594 112.0
90.225716 216.0
92.407288 228.0
93.520355 88.0
94.143112 272.0
94.640091 204.0
95.943817 212.0
97.789139 88.0
100.177269 152.0
103.024078 156.0
103.05481 172.0
103.173637 104.0
104.776978 116.0
106.101357 140.0
106.123909 172.0
106.402954 188.0
107.244339 172.0
108.716949 152.0
108.831123 168.0
109.180237 96.0
109.246803 136.0
109.550751 132.0
109.617424 128.0
109.986588 140.0
110.072182 124.0
110.536255 176.0
111.095695 160.0
111.334984 60.0
112.689484 132.0
114.043671 168.0
114.42659 156.0
114.650261 72.0
115.054161 364.0
115.508606 48.0
115.553535 196.0
115.962555 32.0
116.048302 136.0
116.071892 132.0
116.247795 160.0
116.499016 88.0
116.670944 184.0
116.886032 144.0
117.056091 160.0
118.068237 40.0
119.060852 192.0
119.399895 92.0
119.419464 192.0
119.510841 164.0
119.602486 160.0
119.748131 160.0
120.040169 156.0
120.055435 124.0
121.850403 136.0
122.021675 168.0
122.195587 112.0
123.064011 216.0
123.539192 136.0
123.948799 144.0
124.638916 168.0
126.134407 176.0
126.870918 132.0
127.012199 164.0
127.070526 200.0
127.949318 80.0
128.05217 184.0
128.086685 172.0
128.129501 44.0
128.348129 200.0
129.050369 36.0
129.072861 152.0
130.064636 200.0
130.085754 128.0
131.059189 140.0
131.503891 48.0
131.65686 208.0
132.047684 56.0
132.06369 224.0
132.278778 120.0
135.739487 72.0
136.517441 124.0
137.08548 184.0
137.750443 252.0
138.433411 104.0
138.920944 48.0
139.052353 116.0
139.679718 160.0
139.773834 160.0
139.877396 120.0
140.053513 216.0
140.228149 228.0
141.065811 572.0
142.065338 360.0
143.071259 184.0
143.2901 192.0
143.523682 108.0
143.557068 156.0
143.903076 116.0
144.048874 160.0
144.089371 216.0
144.337952 28.0
144.4384 204.0
145.077789 116.0
145.173706 160.0
145.207275 100.0
145.500046 120.0
145.966187 180.0
146.399353 176.0
147.705124 164.0
148.053665 140.0
149.315689 192.0
150.871429 200.0
151.05629 156.0
151.934326 64.0
152.049103 364.0
152.97142 52.0
154.034256 296.0
154.06752 616.0
155.060165 372.0
155.68634 128.0
156.036713 200.0
156.0578 240.0
157.055679 328.0
157.297302 152.0
157.609482 108.0
157.936996 56.0
158.056793 168.0
158.227295 112.0
158.267349 48.0
158.924072 148.0
159.099762 116.0
159.677719 132.0
160.037201 132.0
160.077866 176.0
160.915024 192.0
161.157501 48.0
161.304077 120.0
161.610107 48.0
161.706268 260.0
162.215408 132.0
162.870102 140.0
163.35817 200.0
165.853043 224.0
166.06575 1236.0
166.450836 132.0
166.58696 60.0
167.029984 152.0
167.072342 1124.0
167.335358 160.0
167.358536 152.0
168.040436 264.0
168.080994 1068.0
168.798401 204.0
168.912201 176.0
169.048996 340.0
169.065872 248.0
169.085007 176.0
169.279739 92.0
169.391113 64.0
170.060501 876.0
170.280807 88.0
170.527634 100.0
170.766846 120.0
171.053772 120.0
171.086914 152.0
171.905365 176.0
171.926239 172.0
172.001938 156.0
172.054153 180.0
172.080261 128.0
173.126221 140.0
174.78006 56.0
175.098587 200.0
175.269836 148.0
177.068893 128.0
177.694489 148.0
178.068802 160.0
179.062317 388.0
179.943527 144.0
180.0672 436.0
181.07457 840.0
181.801239 160.0
182.081909 272.0
182.13533 56.0
182.470093 108.0
182.835938 152.0
183.024384 124.0
183.048615 128.0
183.092682 608.0
183.995041 168.0
184.039383 192.0
184.066605 168.0
184.097 184.0
184.481323 172.0
185.0224 112.0
185.046768 264.0
185.073853 136.0
185.103638 144.0
185.266144 84.0
185.683594 128.0
186.182968 108.0
186.786377 152.0
188.037048 112.0
188.463074 124.0
188.648926 172.0
190.06218 212.0
191.37883 56.0
191.703873 180.0
192.06987 496.0
193.075241 828.0
193.106995 180.0
193.205963 88.0
193.33049 64.0
194.027542 204.0
194.081528 2424.0
194.189362 52.0
194.234604 44.0
194.425186 184.0
194.641724 72.0
194.866714 140.0
194.977859 36.0
195.055542 308.0
195.090042 3352.0
195.511841 52.0
195.603699 36.0
195.826462 144.0
195.84874 108.0
196.060303 228.0
196.098557 908.0
196.936569 116.0
197.070465 396.0
197.565536 44.0
197.593506 32.0
198.090408 220.0
198.181488 72.0
198.31601 252.0
199.086014 232.0
200.021042 176.0
200.067963 144.0
200.985397 116.0
201.035706 56.0
201.100632 72.0
202.26236 184.0
202.412415 144.0
203.07843 224.0
203.308243 32.0
204.675598 224.0
205.6763 100.0
207.263596 108.0
208.081314 300.0
209.074875 800.0
209.1073 124.0
210.069 48.0
210.093903 336.0
211.031464 188.0
211.060883 200.0
211.086304 1224.0
211.50592 136.0
211.853424 164.0
212.06488 184.0
212.0896 588.0
213.065964 176.0
213.0952 164.0
213.676651 80.0
214.048386 268.0
215.063797 152.0
215.884796 220.0
218.079773 148.0
218.822098 144.0
220.154938 96.0
220.473999 92.0
220.509476 152.0
221.071152 412.0
221.284515 152.0
221.53923 76.0
221.829651 32.0
222.07666 500.0
222.5298 96.0
223.049347 164.0
223.084305 3120.0
224.016846 160.0
224.090073 496.0
224.359558 104.0
224.469879 88.0
224.493744 120.0
224.630951 60.0
225.07019 380.0
226.029205 116.0
226.082214 596.0
226.412399 108.0
226.705994 132.0
227.082504 240.0
228.060059 76.0
228.087372 148.0
228.802612 144.0
229.887741 56.0
231.562653 148.0
232.050552 68.0
232.863831 168.0
234.046829 176.0
236.053452 184.0
236.080704 216.0
237.072601 124.0
237.098648 200.0
237.610748 144.0
238.076126 360.0
239.079788 1264.0
239.48288 100.0
239.609192 84.0
240.082825 656.0
240.537445 64.0
240.753586 48.0
241.093338 316.0
242.085571 176.0
242.36528 52.0
242.470642 196.0
242.696945 72.0
243.109512 184.0
243.86734 108.0
244.100922 132.0
249.019714 40.0
252.044083 148.0
252.069351 124.0
252.154678 116.0
253.096664 2024.0
253.956268 88.0
254.1035 3076.0
254.171997 76.0
254.457657 220.0
254.978622 104.0
255.067627 120.0
255.104004 476.0
255.325165 64.0
255.420593 92.0
255.5224 136.0
256.079132 160.0
256.366211 112.0
256.949738 128.0
257.085999 160.0
258.608276 72.0
259.050171 80.0
266.058167 28.0
268.087463 288.0
268.120453 132.0
269.095825 152.0
270.073792 1016.0
270.491791 60.0
271.055115 124.0
271.085052 148.0
271.274719 76.0
272.331329 64.0
272.646759 72.0
279.23941 116.0
281.091736 144.0
281.702728 76.0
282.107605 204.0
282.856445 104.0
284.091309 540.0
285.098572 116.0
286.096893 452.0
286.1633 108.0
288.998535 44.0
299.095734 152.0
327.168274 180.0
330.199371 56.0
335.865662 164.0
348.218811 144.0
348.471405 104.0
374.938202 100.0
377.196198 64.0
392.288635 100.0
401.479828 32.0
438.274872 124.0
476.074768 76.0
524.241699 68.0
570.823242 48.0
594.881714 20.0
614.756897 20.0
798.750061 80.0
952.77594 20.0
958.374878 48.0
1041.146484 72.0
1053.533203 76.0
1060.450684 84.0
1072.643311 168.0
1113.83374 200.0
1214.37085 188.0
1214.606689 76.0
1241.58606 144.0
1248.841309 144.0
1257.105591 176.0
1271.798706 200.0
1376.678711 124.0
1377.47644 136.0
1377.727661 52.0
1384.162476 164.0
1405.078857 80.0
1412.5271 180.0
1454.584717 160.0
1486.896606 136.0
1500.765625 128.0
