>compound MLS002473214-01!(2E,4E)-5-(1,3-benzodioxol-5-yl)-N-(2-methylpropyl)penta-2,4-dienamide
>formula C16H19NO3
>ionization [M+H]+
>parentmass 274.14328
#inchi InChI=1S/C16H19NO3/c1-12(2)10-17-16(18)6-4-3-5-13-7-8-14-15(9-13)20-11-19-14/h3-9,12H,10-11H2,1-2H3,(H,17,18)/b5-3+,6-4+
#inchikey WHAAPCGHVWVUEX
#Ion_Source LC-ESI
#Instrument qTof
#Compound_Source NIH Natural Product Library
#PI Dorrestein
#Data_Collector VVP/LMS
#Scan -1
#Precursor_MZ 274.144
#ExactMass 273.137
#Charge 1
#CAS_Number N/A
#Pubmed_ID N/A
#Smiles CC(C)CNC(=O)/C=C/C=C/c1ccc2OCOc2c1
#INCHI_AUX N/A
#Library_Class 1
#SpectrumID CCMSLIB00000080181
#IonMode Positive
#UpdateWorkflowName UPDATE-SINGLE-ANNOTATED-GOLD
#LibraryQualityString Gold
#TaskID b1d8e8f6646f4e71acdff9ca3d919d08
##Scan# 2183
#SpectrumFile p2-C05_GC5_01_18005.mzXML
#LibraryName NIH_Natural_Products_Library.mgf
#MQScore -1
#Organism NIH_Natural_Products_Library
#TIC_Query 0
#RT_Query -1
#MZErrorPPM -1
#SharedPeaks 0
#MassDiff 0
#LibMZ -1
#SpecMZ 274.144
#SpecCharge 0
#internalFilename spec-00000.mgf

>collision 10
95.050316 296.0
95.118446 144.0
95.196976 196.0
95.313522 48.0
95.3349 172.0
95.416534 180.0
95.556564 248.0
95.760956 40.0
95.813553 148.0
95.831085 32.0
95.862259 132.0
95.981171 192.0
96.044418 196.0
96.312935 96.0
96.510315 188.0
96.610054 312.0
96.780365 184.0
96.805779 112.0
96.839073 184.0
96.915474 140.0
96.946823 176.0
97.036995 180.0
97.109543 168.0
97.14093 152.0
97.180168 160.0
97.227264 152.0
97.362724 200.0
97.401283 132.0
97.413788 164.0
97.451111 128.0
97.486481 264.0
97.510063 168.0
97.538567 104.0
97.563141 80.0
97.580833 184.0
97.704735 260.0
97.74408 176.0
98.049316 72.0
98.101448 172.0
98.179428 180.0
98.280029 208.0
98.362923 204.0
98.489288 200.0
98.728439 64.0
99.007469 140.0
99.144165 224.0
99.195702 56.0
99.247246 112.0
99.348389 52.0
99.40593 212.0
99.431679 164.0
99.562759 64.0
99.697029 236.0
99.749519 104.0
99.777351 168.0
99.81115 52.0
99.930496 68.0
99.948402 152.0
100.018051 236.0
100.202156 200.0
100.219193 188.0
100.475159 184.0
100.585396 204.0
100.697952 200.0
100.753883 164.0
100.915771 192.0
100.933762 152.0
100.954399 264.0
101.051773 224.0
101.095795 208.0
101.221909 176.0
101.37014 212.0
101.588676 188.0
101.694115 160.0
101.889809 276.0
102.045296 164.0
102.168121 164.0
102.253761 164.0
102.306091 112.0
102.352402 184.0
102.376564 140.0
102.739372 216.0
102.939186 108.0
102.965439 128.0
102.989677 160.0
103.019974 168.0
103.055634 2172.0
103.139198 220.0
103.383919 88.0
103.483101 204.0
103.517525 60.0
103.766747 156.0
103.945236 196.0
103.993942 60.0
104.059357 212.0
104.109665 164.0
104.168564 152.0
104.253899 232.0
104.349434 156.0
104.477066 184.0
104.546738 172.0
104.664803 196.0
104.768669 192.0
104.890884 160.0
104.923553 72.0
104.939865 264.0
105.03418 3012.0
105.067467 148.0
105.088753 112.0
105.333733 204.0
105.42363 32.0
105.491074 164.0
105.654678 136.0
105.861404 204.0
106.036072 548.0
106.080627 192.0
106.392441 152.0
106.490059 208.0
106.548523 128.0
106.573174 144.0
106.587555 132.0
106.603996 160.0
106.632767 140.0
106.65332 176.0
106.768456 92.0
106.885712 300.0
107.013329 192.0
107.053413 272.0
107.097755 164.0
107.163673 136.0
107.293518 156.0
107.316193 184.0
107.334755 40.0
107.363625 152.0
107.378059 192.0
107.683876 160.0
107.747543 128.0
107.817802 144.0
107.914955 64.0
108.047318 176.0
108.101112 120.0
108.140434 160.0
108.17704 140.0
108.229446 156.0
108.310219 128.0
108.457329 144.0
108.488426 200.0
108.542328 152.0
108.901352 156.0
109.009384 56.0
109.069649 120.0
109.367088 116.0
109.458694 88.0
109.564919 208.0
109.777512 140.0
109.915192 156.0
109.946487 192.0
110.004929 232.0
110.042511 148.0
110.128128 152.0
110.307823 104.0
110.345451 208.0
110.479301 184.0
110.523232 224.0
110.619507 172.0
110.797508 156.0
110.881325 148.0
110.942108 48.0
111.034851 172.0
111.082611 180.0
111.233688 136.0
111.323975 240.0
111.342873 72.0
111.407982 76.0
111.483627 132.0
111.531967 52.0
111.569801 192.0
111.603439 116.0
111.834846 32.0
111.948532 180.0
112.127602 456.0
112.157104 84.0
112.188728 160.0
112.205589 168.0
112.283607 168.0
112.435509 148.0
112.566391 260.0
112.769196 164.0
112.845299 40.0
112.997574 80.0
113.037781 188.0
113.200775 188.0
113.3321 136.0
113.486824 176.0
113.787758 220.0
114.047264 168.0
114.10466 80.0
114.155693 152.0
114.242889 220.0
114.33226 144.0
114.374825 164.0
114.509857 124.0
114.56221 192.0
114.579254 152.0
114.730568 136.0
114.805191 144.0
114.837608 100.0
114.867577 148.0
114.905327 224.0
114.943901 152.0
114.9972 132.0
115.023445 108.0
115.055412 50468.0
115.10804 148.0
115.141693 76.0
115.169373 144.0
115.195778 32.0
115.212868 144.0
115.252441 168.0
115.293381 100.0
115.360977 52.0
115.381699 40.0
115.404541 84.0
115.47773 44.0
115.527122 60.0
115.610565 40.0
115.637428 84.0
115.680252 236.0
115.706886 52.0
115.773262 48.0
115.801102 128.0
115.87822 188.0
116.058868 6956.0
116.124733 88.0
116.208397 76.0
116.229851 60.0
116.269279 96.0
116.304962 104.0
116.330719 56.0
116.435936 96.0
116.455261 200.0
116.500061 28.0
116.667992 52.0
116.710991 56.0
116.744835 236.0
116.80777 100.0
116.874458 136.0
116.967003 132.0
116.988525 104.0
117.010986 156.0
117.032951 192.0
117.070518 3256.0
117.11557 108.0
117.207695 184.0
117.240532 128.0
117.264236 64.0
117.341835 80.0
117.393585 160.0
117.417313 52.0
117.561852 112.0
117.613647 148.0
117.641708 152.0
117.667618 60.0
117.73455 116.0
117.77343 208.0
117.79071 284.0
118.037086 164.0
118.069916 352.0
118.091148 196.0
118.35733 28.0
118.832001 204.0
118.962212 40.0
119.05011 184.0
119.090324 84.0
119.114212 136.0
119.209808 172.0
119.342407 160.0
119.407639 108.0
119.514236 160.0
119.971596 184.0
120.050087 144.0
120.180962 164.0
120.242065 128.0
120.451668 232.0
120.469147 196.0
120.567467 164.0
120.92614 124.0
120.980354 156.0
121.061874 112.0
121.138535 168.0
121.193306 164.0
121.61216 164.0
121.715332 204.0
121.794395 60.0
121.899849 228.0
122.03833 180.0
122.130692 168.0
122.36615 100.0
122.418999 176.0
122.436615 264.0
122.69442 36.0
122.7341 152.0
123.018661 196.0
123.046074 368.0
123.13131 164.0
123.166649 160.0
123.259438 140.0
123.343422 164.0
123.515892 160.0
123.60881 84.0
123.698669 284.0
123.850128 160.0
123.940956 80.0
124.13176 196.0
124.375626 44.0
124.437782 196.0
124.495514 64.0
124.57103 180.0
124.586578 168.0
124.608795 100.0
124.85553 88.0
125.093597 160.0
125.167068 184.0
125.204926 80.0
125.244827 236.0
125.291794 244.0
125.447792 180.0
125.900726 132.0
125.992302 244.0
126.054863 236.0
126.171089 120.0
126.211334 128.0
126.564857 152.0
126.705963 176.0
126.728363 136.0
126.770157 184.0
126.779602 120.0
126.782784 168.0
127.055733 996.0
127.174782 232.0
127.307083 164.0
127.349754 212.0
127.369202 164.0
127.450844 40.0
127.518265 140.0
127.594688 152.0
127.637405 40.0
127.84436 216.0
127.878113 56.0
128.058121 404.0
128.121307 156.0
128.249741 156.0
128.274536 192.0
128.434631 172.0
128.802551 228.0
129.034271 168.0
129.051147 164.0
129.072403 300.0
129.141602 188.0
129.521851 136.0
129.657791 80.0
129.716736 248.0
129.91629 172.0
130.038818 144.0
130.061508 168.0
130.136429 128.0
130.281769 228.0
130.338577 216.0
130.379471 288.0
130.406754 204.0
130.436295 176.0
130.581818 152.0
130.700104 256.0
130.750168 156.0
130.775208 180.0
130.86171 132.0
130.961914 176.0
131.048462 384.0
131.082657 228.0
131.118164 144.0
131.141907 228.0
131.194336 64.0
131.287811 188.0
131.306061 192.0
132.052505 236.0
132.076599 296.0
132.162689 216.0
132.373276 140.0
132.419083 128.0
132.451141 212.0
132.648209 208.0
132.753677 112.0
132.847717 68.0
132.8936 152.0
133.070328 260.0
133.148392 60.0
133.221893 200.0
133.334488 144.0
133.371262 204.0
133.437927 56.0
133.477005 124.0
133.529907 68.0
133.615005 152.0
133.633408 176.0
133.667923 108.0
133.688644 108.0
133.72316 128.0
133.863586 144.0
133.923462 204.0
134.029434 148.0
134.073227 140.0
134.174637 200.0
134.253036 124.0
134.273788 92.0
134.338379 120.0
134.519791 168.0
134.619949 368.0
134.649063 252.0
134.710037 184.0
134.752075 140.0
134.777023 144.0
134.802444 144.0
134.832932 124.0
134.869476 76.0
134.890274 156.0
134.919449 424.0
134.940308 100.0
134.971054 144.0
135.007111 192.0
135.045609 66176.0
135.113464 124.0
135.145874 52.0
135.163177 64.0
135.186081 64.0
135.214081 68.0
135.245789 140.0
135.262695 36.0
135.306671 108.0
135.322876 96.0
135.338821 68.0
135.401749 76.0
135.426117 192.0
135.45488 56.0
135.489624 72.0
135.516876 56.0
135.533646 92.0
135.570663 132.0
135.685654 96.0
135.746902 64.0
135.783264 148.0
135.961624 108.0
135.990494 92.0
136.006744 84.0
136.04863 5472.0
136.07489 180.0
136.178558 64.0
136.272491 192.0
136.299362 72.0
136.32724 148.0
136.378937 132.0
136.447311 184.0
136.569031 40.0
136.603928 176.0
136.641144 52.0
136.783096 160.0
136.822678 80.0
136.848969 108.0
136.870712 76.0
136.913483 152.0
136.941437 88.0
137.014328 108.0
137.050125 176.0
137.066864 100.0
137.070877 92.0
137.097519 116.0
137.136414 140.0
137.162781 64.0
137.183044 136.0
137.228058 148.0
137.244385 48.0
137.34465 72.0
137.545319 200.0
137.613022 60.0
137.827911 72.0
137.872299 72.0
137.912033 88.0
137.947098 156.0
138.092072 376.0
138.424377 100.0
138.590683 112.0
139.005722 64.0
139.064392 108.0
139.09845 364.0
139.146545 140.0
139.665878 260.0
139.703522 60.0
139.729401 80.0
139.858826 164.0
140.049805 176.0
140.129639 156.0
141.045258 180.0
141.064178 156.0
141.120911 180.0
141.151657 192.0
141.329056 144.0
141.402405 160.0
141.774231 132.0
141.793182 192.0
141.852448 116.0
142.066742 508.0
142.234344 212.0
142.659546 128.0
142.745132 128.0
142.8759 176.0
142.916397 116.0
142.948975 180.0
143.01738 144.0
143.050156 25256.0
143.111252 92.0
143.159195 36.0
143.193695 228.0
143.268753 48.0
143.323685 116.0
143.390274 76.0
143.523773 128.0
143.547012 112.0
143.621552 68.0
143.738449 96.0
143.800491 32.0
143.927017 120.0
144.053375 3360.0
144.165894 44.0
144.253311 152.0
144.476715 56.0
144.505432 88.0
144.603043 236.0
144.633545 132.0
144.686356 180.0
144.747177 44.0
144.799042 176.0
144.852554 68.0
144.877701 56.0
144.993713 96.0
145.065216 2884.0
145.101776 144.0
145.168915 40.0
145.188095 72.0
145.226791 92.0
145.262573 160.0
145.312836 108.0
145.432816 44.0
145.677734 116.0
145.944504 132.0
146.031082 180.0
146.069565 424.0
146.177826 96.0
146.218735 60.0
146.266876 144.0
146.398666 108.0
146.529358 188.0
146.736633 40.0
147.044342 360.0
147.074829 204.0
147.448715 136.0
147.599854 104.0
147.874374 140.0
147.997833 196.0
148.051102 144.0
148.075317 128.0
148.470352 140.0
148.543121 132.0
148.839203 136.0
149.02269 44.0
149.05307 160.0
149.082108 112.0
149.155029 44.0
149.227097 216.0
149.502823 68.0
149.578278 188.0
149.863205 224.0
149.907059 68.0
149.939362 188.0
150.004547 216.0
150.055344 4320.0
150.102066 180.0
150.133774 68.0
150.194748 44.0
150.248413 88.0
150.973846 188.0
151.060608 236.0
151.411911 236.0
151.654465 72.0
151.723099 116.0
151.921738 184.0
152.479111 220.0
153.614197 148.0
153.828873 236.0
154.011597 136.0
154.306702 48.0
154.751007 208.0
154.892166 220.0
155.062256 332.0
155.353226 212.0
155.834854 224.0
155.959106 124.0
156.058548 236.0
156.713135 204.0
156.887589 40.0
158.033936 88.0
158.056458 120.0
158.078979 192.0
158.116516 72.0
158.174072 68.0
158.276718 172.0
158.574829 68.0
158.602402 176.0
159.044556 5372.0
159.077255 92.0
159.085495 224.0
159.440674 36.0
159.687057 144.0
159.812836 72.0
159.963837 120.0
160.021744 168.0
160.048904 668.0
160.080322 324.0
160.200546 176.0
160.346695 160.0
160.455078 44.0
161.057602 160.0
161.193573 88.0
161.437286 44.0
161.864944 172.0
161.963699 144.0
161.996643 116.0
162.052368 132.0
162.521423 124.0
162.541733 72.0
163.077576 184.0
163.169083 212.0
163.619385 136.0
163.812927 40.0
163.856842 192.0
163.937775 208.0
165.025146 168.0
165.373062 160.0
165.544586 168.0
165.746948 180.0
165.946869 68.0
165.980194 124.0
167.046021 108.0
167.143799 64.0
167.50679 104.0
167.609848 76.0
167.7052 60.0
167.893402 100.0
168.399246 84.0
168.585251 44.0
169.485748 40.0
170.063705 496.0
170.188309 176.0
170.544571 124.0
170.739563 132.0
170.783768 204.0
170.833191 164.0
170.871597 284.0
171.044968 12260.0
171.240692 96.0
171.282547 32.0
171.330414 104.0
171.353867 96.0
171.379913 40.0
171.549316 56.0
171.611877 68.0
171.65361 56.0
171.75531 208.0
171.862274 64.0
171.898804 112.0
171.995361 44.0
172.013641 204.0
172.049545 1656.0
172.282608 52.0
172.557022 104.0
172.818558 212.0
172.928467 100.0
172.94902 108.0
172.988678 152.0
173.029556 228.0
173.06012 4592.0
173.190292 96.0
173.242691 112.0
173.302948 48.0
173.410385 108.0
173.447083 60.0
173.465881 116.0
173.845718 84.0
174.064117 900.0
174.124008 52.0
174.954895 72.0
174.978592 56.0
175.069351 524.0
175.127487 132.0
175.23143 140.0
175.327881 112.0
175.434357 76.0
175.58728 68.0
176.038559 64.0
176.067596 140.0
176.14119 128.0
176.403152 48.0
176.612045 88.0
176.717865 120.0
176.836945 48.0
177.075226 92.0
177.621231 156.0
177.809601 76.0
178.067139 116.0
180.845291 152.0
181.0327 176.0
181.059479 88.0
182.057098 168.0
182.392929 80.0
182.59996 144.0
182.987457 152.0
183.574844 188.0
184.292847 80.0
186.027451 120.0
186.585739 204.0
187.067245 196.0
187.43219 88.0
187.557556 172.0
187.661148 140.0
188.068893 128.0
188.840836 132.0
189.055481 176.0
190.051086 176.0
190.080978 192.0
190.392029 88.0
192.592606 180.0
192.902084 220.0
195.092041 128.0
196.998138 168.0
197.20491 148.0
198.369324 104.0
198.545959 116.0
199.028625 160.0
199.258926 52.0
199.385376 156.0
199.41629 152.0
199.621521 140.0
199.677765 60.0
199.995682 136.0
200.073334 508.0
200.347672 60.0
200.542099 80.0
200.694336 208.0
200.745087 100.0
200.783447 212.0
200.837006 176.0
200.911499 188.0
200.939713 220.0
200.978912 232.0
201.01976 220.0
201.056122 28924.0
201.111542 116.0
201.149307 152.0
201.207825 56.0
201.299255 52.0
201.357468 120.0
201.397018 84.0
201.421722 64.0
201.473282 36.0
201.49588 52.0
201.521317 84.0
201.699341 40.0
201.761536 48.0
201.792633 108.0
201.873596 152.0
201.962311 64.0
202.058899 4264.0
202.225433 60.0
202.267899 52.0
202.45433 52.0
202.573715 48.0
202.723877 104.0
202.804367 72.0
202.828735 56.0
202.953476 76.0
203.013504 144.0
203.059647 448.0
203.152008 92.0
203.171112 76.0
203.220093 96.0
203.27684 132.0
203.379013 116.0
203.435776 60.0
203.574905 76.0
203.603302 100.0
203.708389 44.0
204.063629 176.0
204.473251 76.0
204.678207 100.0
205.156845 64.0
205.422058 72.0
205.479111 64.0
205.567566 44.0
205.598953 72.0
206.116653 528.0
206.158676 40.0
206.433105 116.0
207.114258 164.0
207.323395 56.0
207.650223 48.0
207.693237 48.0
208.416687 56.0
209.384186 60.0
210.248108 68.0
211.056931 208.0
215.068893 56.0
216.065353 92.0
216.129715 84.0
217.067047 200.0
217.671524 96.0
217.730255 160.0
218.085312 376.0
220.273544 136.0
224.146744 56.0
224.468658 84.0
230.073395 108.0
233.26326 116.0
237.740799 64.0
240.748444 72.0
244.123154 156.0
245.141083 140.0
246.108047 136.0
246.154892 132.0
248.722092 64.0
256.133942 176.0
256.162628 148.0
256.525879 68.0
263.916473 140.0
271.776093 76.0
272.176544 128.0
273.155914 148.0
274.024994 44.0
274.14328 392.0
274.905365 36.0
275.142761 164.0
276.607452 148.0
277.230103 100.0
280.96405 40.0
294.176636 84.0
295.040924 116.0
296.955048 56.0
299.088715 100.0
300.267029 60.0
300.453308 104.0
304.138641 84.0
312.670227 40.0
332.892151 120.0
338.39801 80.0
340.910614 96.0
355.914642 44.0
375.996674 80.0
380.296509 64.0
383.162384 128.0
393.678375 44.0
414.205231 84.0
423.639526 84.0
428.520111 64.0
429.901398 36.0
443.874512 36.0
466.114258 60.0
466.866516 48.0
467.752808 80.0
467.886261 76.0
477.896881 60.0
493.604401 52.0
511.594147 60.0
515.712402 52.0
531.180298 56.0
552.326416 84.0
563.80304 116.0
568.57196 144.0
569.30542 20.0
581.328003 72.0
583.874084 88.0
588.133118 60.0
669.71698 184.0
689.500061 200.0
732.454102 64.0
746.982544 112.0
760.775085 144.0
767.84552 180.0
790.634644 128.0
792.336853 164.0
797.504944 180.0
797.875916 56.0
811.09082 96.0
816.712036 192.0
825.111633 88.0
847.766968 168.0
847.934998 56.0
864.199036 216.0
875.934326 100.0
877.478271 136.0
880.564392 96.0
881.574585 136.0
882.679993 172.0
883.490234 128.0
888.175781 100.0
888.685974 132.0
894.962341 140.0
897.136902 156.0
900.842651 152.0
910.353577 168.0
911.044312 248.0
911.627136 40.0
912.089844 96.0
919.129944 148.0
921.04364 184.0
924.163025 192.0
927.360352 132.0
929.306946 136.0
934.428589 128.0
935.079651 148.0
951.909485 188.0
958.799255 180.0
959.156738 176.0
960.723022 136.0
963.958191 172.0
968.39386 92.0
969.236328 196.0
975.47345 184.0
976.393677 216.0
985.963135 188.0
986.419373 184.0
987.588623 164.0
988.451965 124.0
990.336304 76.0
993.206909 212.0
994.474365 248.0
995.817932 112.0
995.949829 248.0
996.358093 128.0
997.70929 196.0
997.803589 188.0
997.879028 192.0
1000.189941 232.0
1002.335205 188.0
1003.204895 84.0
1007.875122 124.0
1008.089966 168.0
1008.254272 92.0
1008.399658 216.0
1013.050293 196.0
1021.25116 136.0
1022.428162 192.0
1022.918213 40.0
1024.924316 76.0
1025.312988 200.0
1028.974365 188.0
1032.27124 180.0
1035.029053 28.0
1036.002563 60.0
1036.611206 76.0
1038.87439 244.0
1039.586548 136.0
1040.067871 164.0
1044.501465 160.0
1046.483521 208.0
1047.784424 104.0
1053.377441 188.0
1053.739136 148.0
1054.566284 140.0
1055.982178 224.0
1059.296143 92.0
1059.918091 148.0
1061.493164 84.0
1065.088501 176.0
1067.343628 188.0
1068.110962 56.0
1069.431763 164.0
1074.410156 184.0
1074.455811 56.0
1074.501465 64.0
1076.466064 196.0
1076.766479 144.0
1076.994995 208.0
1078.020752 220.0
1080.36145 192.0
1081.859985 216.0
1085.502686 228.0
1086.204468 220.0
1088.481812 192.0
1089.375 156.0
1090.11084 120.0
1090.367065 168.0
1092.227783 204.0
1092.333008 156.0
1094.860352 152.0
1095.110596 140.0
1097.028076 212.0
1099.415649 168.0
1103.596802 56.0
1104.072876 48.0
1104.14563 168.0
1104.363892 68.0
1108.95874 156.0
1109.535522 204.0
1109.608398 184.0
1111.020996 220.0
1112.514038 144.0
1113.390503 60.0
1122.247925 176.0
1123.147461 172.0
1123.86792 92.0
1124.068115 172.0
1125.182739 212.0
1125.583252 144.0
1126.792236 164.0
1128.703735 176.0
1129.947754 64.0
1130.28894 124.0
1130.543213 128.0
1131.326294 136.0
1131.446777 164.0
1131.768188 48.0
1132.364136 216.0
1136.191528 128.0
1137.486694 232.0
1137.855957 124.0
1137.956665 224.0
1139.917847 204.0
1141.161377 160.0
1141.41687 160.0
1141.605103 124.0
1145.138306 180.0
1146.020752 196.0
1146.485596 156.0
1146.60022 240.0
1148.191162 208.0
1148.77124 148.0
1149.614624 140.0
1152.004761 84.0
1152.119507 84.0
1152.254639 168.0
1154.498657 128.0
1155.141235 212.0
1157.252686 140.0
1157.435425 228.0
1157.618286 192.0
1159.13562 136.0
1161.176025 144.0
1161.318481 176.0
1162.091797 132.0
1166.240967 220.0
1166.59436 180.0
1168.573364 148.0
1169.471558 28.0
1169.723389 100.0
1171.207764 164.0
1172.331909 148.0
1174.322632 112.0
1177.4552 128.0
1177.748901 196.0
1179.210938 200.0
1180.174805 32.0
1183.910889 124.0
1184.376587 132.0
1184.582031 184.0
1185.178101 176.0
1185.376831 100.0
1187.687134 168.0
1188.380005 164.0
1189.580933 136.0
1190.741333 124.0
1191.242798 196.0
1192.397095 216.0
1192.596313 224.0
1194.2052 88.0
1196.152344 220.0
1196.379517 188.0
1197.281494 156.0
1197.563843 148.0
1198.266479 200.0
1198.50769 180.0
1199.107178 188.0
1200.341064 152.0
1201.872437 176.0
1202.238159 168.0
1202.362305 112.0
1202.486572 200.0
1202.797119 76.0
1203.024902 208.0
1203.397705 132.0
1204.599365 208.0
1205.421509 168.0
1207.239502 184.0
1208.214722 124.0
1208.332275 124.0
1209.917114 68.0
1211.426758 200.0
1212.355225 212.0
1212.493774 124.0
1212.722534 168.0
1213.831665 116.0
1214.602173 188.0
1214.802612 180.0
1215.579712 148.0
1216.447266 188.0
1217.898438 144.0
1217.974854 200.0
1219.225464 180.0
1220.50354 152.0
1221.276367 156.0
1221.596313 40.0
1222.062378 128.0
1222.521606 148.0
1224.470947 176.0
1225.766602 208.0
1225.975708 144.0
1226.400757 168.0
1227.111816 176.0
1229.17627 116.0
1230.914429 172.0
1232.45105 124.0
1233.527344 36.0
1234.247314 192.0
1234.499146 176.0
1234.757812 132.0
1237.598877 228.0
1237.920898 44.0
1240.618408 156.0
1241.172241 160.0
1241.361572 72.0
1241.908569 48.0
1243.732788 216.0
1244.09082 144.0
1244.343506 136.0
1244.708618 208.0
1244.863159 220.0
1246.597412 196.0
1246.729736 164.0
1247.835205 172.0
1248.728271 128.0
1250.346313 132.0
1250.515259 124.0
1251.289551 180.0
1251.557129 120.0
1255.192871 244.0
1256.370728 192.0
1257.040894 212.0
1257.563232 148.0
1257.661987 120.0
1257.725464 48.0
1258.494995 220.0
1259.017456 136.0
1259.264648 160.0
1259.518921 188.0
1259.716675 132.0
1260.769409 156.0
1260.847168 216.0
1261.207642 56.0
1263.590698 220.0
1263.682617 232.0
1265.267944 116.0
1265.324097 172.0
1266.436279 220.0
1266.507812 92.0
1267.151733 176.0
1268.044556 160.0
1269.405762 128.0
1269.497925 132.0
1270.043945 216.0
1270.852661 208.0
1272.009399 148.0
1273.351318 172.0
1274.075806 160.0
1274.210815 196.0
1274.374268 164.0
1275.809814 120.0
1278.633545 156.0
1278.761719 60.0
1279.010742 100.0
1280.655518 176.0
1281.439087 80.0
1282.080444 152.0
1282.172974 176.0
1282.315552 156.0
1283.320679 148.0
1283.456177 132.0
1286.745239 176.0
1286.923706 144.0
1288.352051 208.0
1289.030762 188.0
1289.309448 196.0
1289.469849 188.0
1292.112305 220.0
1295.19043 136.0
1296.0 184.0
1296.315186 180.0
1297.21106 52.0
1297.863525 156.0
1299.620728 208.0
1300.079956 200.0
1301.465332 124.0
1302.341431 104.0
1304.209473 164.0
1307.064575 136.0
1307.417114 52.0
1308.050415 168.0
1310.109985 188.0
1311.298828 168.0
1311.583618 116.0
1312.365723 168.0
1312.553101 180.0
1312.618042 164.0
1313.021851 172.0
1313.137207 172.0
1313.808105 160.0
1314.572876 136.0
1315.251221 144.0
1315.30896 144.0
1315.807129 180.0
1318.046021 56.0
1318.340088 144.0
1321.277832 212.0
1321.552734 100.0
1321.704712 108.0
1322.956787 112.0
1323.412842 120.0
1323.608398 88.0
1323.890747 180.0
1325.585815 180.0
1327.049927 132.0
1328.17395 152.0
1328.355347 132.0
1328.971924 112.0
1329.030029 176.0
1329.131592 184.0
1329.813721 48.0
1330.183838 124.0
1332.878174 188.0
1333.009033 164.0
1333.227051 208.0
1333.659668 248.0
1333.992798 192.0
1334.564453 36.0
1334.884399 148.0
1335.633545 120.0
1335.895386 144.0
1336.499146 172.0
1338.551758 92.0
1339.870117 132.0
1340.2854 192.0
1340.46106 168.0
1340.686157 152.0
1341.393066 168.0
1342.690918 148.0
1344.857788 196.0
1345.040161 156.0
1346.697632 140.0
1347.698364 96.0
1348.304932 144.0
1349.825439 36.0
1350.900513 192.0
1350.988281 72.0
1351.43457 240.0
1351.866211 124.0
1352.437134 168.0
1353.264282 180.0
1355.502319 164.0
1356.260376 172.0
1356.452148 132.0
1358.533569 188.0
1358.804932 252.0
1359.003052 200.0
1360.55896 148.0
1361.594238 108.0
1363.019287 108.0
1363.614502 120.0
1363.930542 64.0
1364.092285 136.0
1364.342285 160.0
1365.996826 176.0
1366.217407 192.0
1368.447388 224.0
1368.734497 220.0
1369.529907 176.0
1370.119141 212.0
1370.458008 128.0
1370.760132 156.0
1371.718262 148.0
1372.55127 164.0
1373.325562 132.0
1373.635376 188.0
1374.852783 132.0
1375.133179 104.0
1375.421021 140.0
1375.568726 196.0
1375.708984 36.0
1375.989502 228.0
1377.392456 160.0
1378.840576 136.0
1379.601929 128.0
1379.712769 172.0
1380.038086 96.0
1382.072021 152.0
1383.04895 184.0
1384.922119 140.0
1385.12207 144.0
1386.277832 52.0
1387.241333 212.0
1388.983887 164.0
1389.236084 132.0
1389.948364 160.0
1390.193237 116.0
1391.781738 216.0
1391.974731 36.0
1392.152954 156.0
1392.62085 80.0
1392.851074 148.0
1393.656616 160.0
1394.671509 140.0
1394.723511 180.0
1395.704834 212.0
1396.835205 156.0
1397.229492 168.0
1398.181885 220.0
1398.851685 172.0
1399.648315 68.0
1400.556885 192.0
1401.681763 228.0
1401.748779 184.0
1403.671997 244.0
1403.806152 148.0
1404.328247 160.0
1404.760864 188.0
1405.775513 212.0
1406.678589 168.0
1407.089111 248.0
1407.141357 168.0
1407.268311 192.0
1407.484863 232.0
1407.917969 172.0
1409.673462 216.0
1409.97229 108.0
1410.091919 136.0
1410.368408 124.0
1410.444092 188.0
1411.29541 164.0
1412.304932 184.0
1414.377563 172.0
1415.537964 272.0
1415.672729 220.0
1416.803711 188.0
1418.414795 188.0
1418.744629 176.0
1419.816772 188.0
1420.394287 320.0
1421.024414 68.0
1421.076904 76.0
1421.39209 280.0
1423.373657 168.0
1424.124634 176.0
1424.958496 216.0
1425.785034 152.0
1427.68689 112.0
1427.942627 160.0
1428.168213 128.0
1428.484131 156.0
1428.566895 232.0
1428.890381 152.0
1429.304199 140.0
1429.367065 156.0
1429.499878 192.0
1429.560059 104.0
1429.913696 148.0
1430.22229 232.0
1430.372559 104.0
1430.666382 128.0
1431.351562 148.0
1431.630127 196.0
1432.616821 44.0
1432.775024 140.0
1434.05603 152.0
1434.561035 176.0
1434.643921 120.0
1434.696655 100.0
1435.503418 72.0
1435.691895 180.0
1435.910645 148.0
1436.272705 64.0
1437.472168 168.0
1437.675903 204.0
1439.064819 192.0
1440.144653 200.0
1440.522339 176.0
1441.307983 40.0
1441.632935 124.0
1441.867188 32.0
1442.041016 200.0
1442.109009 96.0
1442.282837 76.0
1442.494507 120.0
1443.227783 112.0
1443.295898 148.0
1445.005249 116.0
1445.307861 116.0
1447.101562 196.0
1447.555908 132.0
1448.108765 276.0
1448.623779 208.0
1448.994995 160.0
1450.066772 116.0
1450.275635 140.0
1450.965332 144.0
1451.473389 100.0
1452.428955 76.0
1452.815796 152.0
1453.437866 204.0
1453.756592 212.0
1453.847656 196.0
1454.485596 140.0
1455.456909 156.0
1456.345337 204.0
1456.413696 148.0
1456.945435 200.0
1457.484863 220.0
1459.970581 120.0
1460.122559 220.0
1460.525757 168.0
1460.868286 112.0
1461.157104 192.0
1461.773315 36.0
1462.039673 176.0
1462.709473 76.0
1463.044434 116.0
1463.630615 92.0
1464.12561 216.0
1464.666382 304.0
1465.153809 124.0
1465.519531 156.0
1465.847168 128.0
1466.845581 152.0
1467.097046 176.0
1467.28772 120.0
1467.654663 156.0
1469.567993 156.0
1469.896118 168.0
1470.369263 132.0
1470.644043 180.0
1470.979858 128.0
1471.254639 160.0
1472.365601 168.0
1472.484009 56.0
1472.797119 168.0
1474.646118 172.0
1474.783691 208.0
1474.957275 116.0
1475.127563 132.0
1476.985718 128.0
1477.283936 184.0
1478.026123 180.0
1479.908936 184.0
1480.261108 88.0
1480.529175 180.0
1481.563232 204.0
1482.076538 208.0
1482.229736 96.0
1482.390625 136.0
1482.819824 168.0
1483.333374 164.0
1483.409912 220.0
1483.463623 112.0
1484.253296 164.0
1484.675049 140.0
1484.85144 128.0
1485.395996 128.0
1485.534058 228.0
1486.117065 76.0
1486.170776 176.0
1486.546753 208.0
1486.669556 88.0
1487.022583 164.0
1487.298828 112.0
1487.483032 124.0
1487.613525 176.0
1487.790161 100.0
1487.859253 188.0
1489.341187 176.0
1489.656128 188.0
1490.186279 176.0
1490.631836 152.0
1491.546387 140.0
1492.445923 52.0
1492.922607 124.0
1493.784058 192.0
1494.307129 236.0
1494.838013 212.0
1495.091919 332.0
1496.200317 148.0
1499.265869 168.0
1500.368042 60.0
1500.676392 148.0
1500.776611 152.0
1501.007935 172.0
1501.216187 164.0
1501.285522 172.0
1501.35498 92.0
1502.11084 152.0
1502.164795 156.0
1503.515015 224.0
1503.893188 188.0
