>compound MLS000069661-01!1-(1-ADAMANTYL)ETHYLAMINE HYDROCHLORIDE
>formula C12H21N
>ionization [M+H]+
>parentmass 180.175049
#inchi InChI=1S/C12H21N/c1-8(13)12-5-9-2-10(6-12)4-11(3-9)7-12/h8-11H,2-7,13H2,1H3
#inchikey UBCHPRBFMUDMNC
#origInchi InChI=1S/C12H21N.ClH/c1-8(13)12-5-9-2-10(6-12)4-11(3-9)7-12;/h8-11H,2-7,13H2,1H3;1H/t8?,9-,10+,11-,12-;
#Ion_Source LC-ESI
#Instrument qTof
#Compound_Source NIH Pharmacologically Active Library
#PI Dorrestein
#Data_Collector VP/LMS
#Scan -1
#Precursor_MZ 180.177
#ExactMass 179.167
#Charge 1
#CAS_Number N/A
#Pubmed_ID N/A
#Smiles CC(N)[C@]1(C[C@@H]2C[C@H]3C[C@@H](C2)C1)C3.Cl
#INCHI_AUX N/A
#Library_Class 1
#SpectrumID CCMSLIB00000085739
#IonMode Positive
#UpdateWorkflowName UPDATE-SINGLE-ANNOTATED-GOLD
#LibraryQualityString Gold
#TaskID d252d724072548979f1f6f1ced849daf
##Scan# 1431
#SpectrumFile p4-E10_GE10_01_18382.mzXML
#LibraryName Pharm_Active_Library.mgf
#MQScore -1
#Organism Pharm_Active_Library
#TIC_Query 0
#RT_Query -1
#MZErrorPPM -1
#SharedPeaks 0
#MassDiff 0
#LibMZ -1
#SpecMZ 180.177
#SpecCharge 0
#internalFilename spec-00000.mgf

>collision 10
44.982292 148.0
44.998314 176.0
45.225574 148.0
45.348804 132.0
45.535301 80.0
45.654915 176.0
45.692581 136.0
45.904053 220.0
45.952614 184.0
45.979549 204.0
46.067371 92.0
46.126831 72.0
46.404366 172.0
46.420635 132.0
46.794312 192.0
46.809288 116.0
46.927837 240.0
47.142147 120.0
47.199562 88.0
47.372013 232.0
47.396675 132.0
47.4515 96.0
47.529686 164.0
47.616173 140.0
47.695866 160.0
47.719234 156.0
48.018063 228.0
48.04427 176.0
48.056686 232.0
48.169647 132.0
48.194767 164.0
48.247288 96.0
48.281857 192.0
48.54221 188.0
48.594921 216.0
48.621288 104.0
48.657379 172.0
48.811611 112.0
48.966087 196.0
49.137547 60.0
49.317696 168.0
49.541592 204.0
49.635498 248.0
49.65934 168.0
49.788464 112.0
50.006386 176.0
50.041843 148.0
50.092278 144.0
50.206448 148.0
50.252998 176.0
50.443661 184.0
50.477592 228.0
50.5271 236.0
50.620518 184.0
50.670094 132.0
50.733871 176.0
50.945328 188.0
50.975163 176.0
51.365276 128.0
51.559464 144.0
51.593769 112.0
51.672432 160.0
51.721088 56.0
51.838531 196.0
51.924549 160.0
52.162903 152.0
52.201511 188.0
52.29668 40.0
52.313953 168.0
52.788654 92.0
52.896992 196.0
52.923229 112.0
52.947845 72.0
53.044926 136.0
53.114532 192.0
53.191441 188.0
53.240807 192.0
53.271309 132.0
53.640934 192.0
53.890499 180.0
54.219757 184.0
54.253468 208.0
54.343781 180.0
54.409439 132.0
54.438347 208.0
54.541195 276.0
54.931419 184.0
54.952072 136.0
55.022919 160.0
55.064266 108.0
55.090855 144.0
55.120403 144.0
55.208179 252.0
55.35857 188.0
55.526039 160.0
55.616116 220.0
55.652176 140.0
55.729416 188.0
55.87661 140.0
55.903397 212.0
55.933163 200.0
56.079521 184.0
56.152195 192.0
56.162636 60.0
56.322353 184.0
56.395569 36.0
56.563099 156.0
56.615505 116.0
56.736877 136.0
57.166462 184.0
57.22517 164.0
57.317051 180.0
57.415039 432.0
57.469345 140.0
57.504055 156.0
57.64753 168.0
57.686829 160.0
57.844154 132.0
57.989567 160.0
58.378231 180.0
58.429947 156.0
58.570004 108.0
58.65686 92.0
58.710224 216.0
58.730053 176.0
58.821606 176.0
59.144142 212.0
59.172962 184.0
59.380104 108.0
59.41692 80.0
59.49519 176.0
59.842659 208.0
59.902721 164.0
60.089264 72.0
60.497276 248.0
60.539082 160.0
60.590195 132.0
60.655075 204.0
61.05743 168.0
61.111877 172.0
61.323669 220.0
61.410984 192.0
61.467148 40.0
61.562374 168.0
61.579552 252.0
61.712383 268.0
61.804672 220.0
61.923649 196.0
62.027065 164.0
62.201183 80.0
62.234154 188.0
62.280838 148.0
62.320541 164.0
62.339401 156.0
62.356686 136.0
62.378693 52.0
62.436871 188.0
62.457317 152.0
62.509235 144.0
62.573772 172.0
62.62574 140.0
62.723434 236.0
62.904842 68.0
62.955368 124.0
63.083351 128.0
63.290615 136.0
63.315952 176.0
63.563259 192.0
63.623573 44.0
63.693447 140.0
63.814159 188.0
63.861935 172.0
64.135803 248.0
64.367142 80.0
64.394295 248.0
64.455002 72.0
64.467781 144.0
64.486961 208.0
64.622894 128.0
65.066856 140.0
65.290215 164.0
65.620323 180.0
65.631607 408.0
65.673538 144.0
65.736465 104.0
65.77681 156.0
65.93187 48.0
65.97551 84.0
66.02726 120.0
66.255493 148.0
66.318695 148.0
66.36895 168.0
66.383545 160.0
66.40625 52.0
66.544189 144.0
66.719658 164.0
66.734291 148.0
66.761429 156.0
66.792831 56.0
66.809105 220.0
66.845207 172.0
67.13324 196.0
67.175644 140.0
67.249077 76.0
67.320915 40.0
67.567734 208.0
67.687218 92.0
68.052879 196.0
68.1465 236.0
68.317482 92.0
68.342163 180.0
68.401413 152.0
68.625465 52.0
68.707932 36.0
68.84494 212.0
68.937454 40.0
69.048218 164.0
69.107773 216.0
69.326355 104.0
69.477242 48.0
69.54528 164.0
69.902603 192.0
70.027466 200.0
70.132431 180.0
70.360977 188.0
70.466331 148.0
70.631699 168.0
70.802429 168.0
70.852676 160.0
70.97168 216.0
71.063934 148.0
71.204941 148.0
71.307426 200.0
71.916641 212.0
72.248756 52.0
72.295738 164.0
72.432625 180.0
72.466766 216.0
72.531166 176.0
72.580338 176.0
72.746605 176.0
72.99807 236.0
73.026978 136.0
73.137581 148.0
73.152901 96.0
73.195465 172.0
73.399948 136.0
73.415298 124.0
73.43576 148.0
73.463058 188.0
73.91069 52.0
74.253319 48.0
74.509087 160.0
74.57267 208.0
74.636276 140.0
74.665512 172.0
74.769592 180.0
74.820381 200.0
74.846207 188.0
74.906487 148.0
74.950005 184.0
74.966789 180.0
75.011604 164.0
75.030563 200.0
75.080574 192.0
75.208252 184.0
75.25486 176.0
75.382683 60.0
75.443184 92.0
75.501968 204.0
75.52446 132.0
75.64212 68.0
75.714844 156.0
75.737358 116.0
75.767441 188.0
75.820526 56.0
75.862129 100.0
76.205765 164.0
76.223145 156.0
76.391792 144.0
76.571075 208.0
76.902351 212.0
76.996635 48.0
77.253586 176.0
77.293823 192.0
77.719627 156.0
77.745949 188.0
77.958443 60.0
78.011177 168.0
78.305031 60.0
78.618851 136.0
78.715942 132.0
78.790131 152.0
78.804268 152.0
78.857925 196.0
78.917381 88.0
79.016434 228.0
79.069519 212.0
79.214714 60.0
79.507011 244.0
79.700836 52.0
79.72216 132.0
79.894638 256.0
80.038811 60.0
80.083328 208.0
80.131432 96.0
80.179543 108.0
80.281158 160.0
80.320404 148.0
80.550674 124.0
80.59713 152.0
80.75087 148.0
80.76339 160.0
80.867172 228.0
81.195045 40.0
81.268669 188.0
81.593681 164.0
81.631447 180.0
81.925613 216.0
81.969139 148.0
82.061798 176.0
82.123116 164.0
82.141151 220.0
82.381248 164.0
82.500519 220.0
82.82988 100.0
82.869736 184.0
82.925911 156.0
83.009659 184.0
83.085487 188.0
83.241585 108.0
83.292442 40.0
83.379654 172.0
83.403282 152.0
83.468735 164.0
83.586967 160.0
83.71804 148.0
83.794548 196.0
83.87838 180.0
84.040688 124.0
84.05529 136.0
84.13195 72.0
84.530403 148.0
84.552368 192.0
84.724487 144.0
84.823448 160.0
84.942642 272.0
85.050911 144.0
85.069267 76.0
85.320953 164.0
85.447662 156.0
85.573006 180.0
85.637466 184.0
85.711151 68.0
85.783035 148.0
85.889984 204.0
85.99147 332.0
86.091164 240.0
86.174294 160.0
86.577553 184.0
86.610886 92.0
86.731331 188.0
86.770264 176.0
86.875977 172.0
86.970612 132.0
87.054161 264.0
87.119171 212.0
87.279007 168.0
87.524628 188.0
87.563736 268.0
87.696022 56.0
87.746361 200.0
87.932899 168.0
88.074806 212.0
88.218689 164.0
88.246735 132.0
88.30658 216.0
88.437553 56.0
88.47686 64.0
88.607964 100.0
88.660431 148.0
88.921295 224.0
89.07885 88.0
89.15213 116.0
89.389076 120.0
89.485077 212.0
89.628227 168.0
89.769608 164.0
89.784691 84.0
90.160919 172.0
90.277603 64.0
90.368401 48.0
90.45546 152.0
90.508469 224.0
90.576653 220.0
90.593697 128.0
90.895164 160.0
90.952103 212.0
90.982475 212.0
90.999565 184.0
91.054314 4504.0
91.076675 180.0
91.128716 56.0
91.176399 176.0
91.271278 116.0
91.372086 92.0
91.558632 52.0
91.629112 92.0
91.648163 144.0
91.711052 168.0
91.85025 180.0
92.020096 120.0
92.057617 788.0
92.088844 132.0
92.12323 44.0
92.142334 196.0
92.271736 176.0
92.593781 140.0
92.628258 204.0
92.655075 124.0
92.773094 172.0
92.831421 44.0
92.850327 140.0
92.869774 160.0
92.940758 164.0
92.958031 152.0
92.996414 220.0
93.025208 296.0
93.050163 180.0
93.069717 7232.0
93.148033 104.0
93.217278 176.0
93.271088 104.0
93.303772 80.0
93.334534 200.0
93.399925 92.0
93.42878 212.0
93.561569 80.0
93.706017 140.0
93.731071 120.0
93.802376 176.0
93.869858 176.0
93.937363 152.0
94.072937 516.0
94.12072 56.0
94.186386 72.0
94.296516 144.0
94.395119 216.0
94.564575 128.0
94.59053 184.0
94.60601 124.0
94.809395 160.0
94.836533 160.0
94.90136 236.0
94.983894 156.0
95.026581 140.0
95.044044 28.0
95.085136 3056.0
95.124527 176.0
95.207108 56.0
95.220703 140.0
95.570793 44.0
95.831535 136.0
96.034279 184.0
96.089195 360.0
96.116211 160.0
96.235283 196.0
96.281494 84.0
96.381042 256.0
96.493187 140.0
96.536209 148.0
96.575325 172.0
96.624229 200.0
96.65358 44.0
96.694672 160.0
96.881493 176.0
96.990433 152.0
97.017883 224.0
97.08847 132.0
97.102196 180.0
97.16497 108.0
97.471275 124.0
97.66394 56.0
97.890274 220.0
98.043938 188.0
98.162216 212.0
98.256897 104.0
98.339775 200.0
98.472069 64.0
98.505646 124.0
98.538162 240.0
98.570847 32.0
98.610367 192.0
98.980316 176.0
99.182404 52.0
99.231964 80.0
99.537529 156.0
99.577248 172.0
99.869431 184.0
99.950996 172.0
100.112244 184.0
100.223793 128.0
100.257675 176.0
100.311485 160.0
100.457062 56.0
100.63868 144.0
100.688606 92.0
100.840446 36.0
101.040421 108.0
101.342751 160.0
101.454987 152.0
101.541206 144.0
101.749901 196.0
101.978905 172.0
102.077423 204.0
102.182014 40.0
102.290688 120.0
102.421577 196.0
102.71386 160.0
102.748154 224.0
102.937889 184.0
102.962128 104.0
103.052391 280.0
103.073235 192.0
103.491943 192.0
103.518272 184.0
103.73912 180.0
103.781693 128.0
104.071854 184.0
104.132774 184.0
104.335182 132.0
104.384781 144.0
104.451897 160.0
104.840782 188.0
104.926399 208.0
105.017403 204.0
105.048759 152.0
105.069618 3992.0
105.107269 260.0
105.158951 148.0
105.191605 36.0
105.326378 84.0
105.357025 136.0
105.408394 192.0
105.526657 268.0
105.557327 48.0
105.663696 276.0
105.821289 140.0
105.97081 48.0
106.073135 616.0
106.208618 172.0
106.227074 124.0
106.24144 52.0
106.348145 48.0
106.604866 124.0
106.680969 164.0
106.894821 112.0
106.973038 272.0
106.988914 168.0
107.085327 21216.0
107.145653 44.0
107.163689 56.0
107.220207 48.0
107.314064 68.0
107.335655 196.0
107.383087 96.0
107.431641 52.0
107.552277 80.0
107.725739 128.0
107.961372 96.0
108.027557 288.0
108.08783 2016.0
108.168274 76.0
108.227592 80.0
108.373306 116.0
108.42926 68.0
108.499741 220.0
108.518394 160.0
108.574387 92.0
108.613792 72.0
108.642838 88.0
108.669807 112.0
108.738289 52.0
108.765274 148.0
108.925163 200.0
108.985069 48.0
109.033211 192.0
109.060226 168.0
109.100616 1548.0
109.153786 44.0
109.845253 56.0
110.102493 232.0
110.206436 176.0
110.346474 160.0
110.522171 44.0
110.557747 76.0
110.620537 152.0
110.637283 348.0
110.716858 180.0
110.74408 176.0
110.943153 104.0
111.375443 104.0
111.518318 160.0
111.533035 172.0
111.701256 124.0
111.791733 96.0
111.943298 192.0
112.103401 144.0
112.198257 36.0
112.358543 188.0
112.474609 164.0
112.535828 176.0
112.656212 68.0
112.816826 252.0
112.983902 192.0
113.123573 144.0
113.195564 188.0
113.307289 112.0
113.460419 156.0
113.746811 144.0
113.80201 44.0
113.946434 256.0
114.418869 180.0
114.484596 124.0
114.710449 160.0
114.742432 272.0
114.887451 180.0
115.051781 148.0
115.128647 32.0
115.371132 196.0
115.500549 156.0
115.539055 44.0
115.922325 76.0
116.089539 188.0
116.30838 68.0
116.347023 44.0
116.424324 124.0
116.705826 48.0
117.066765 292.0
117.138412 180.0
117.623604 116.0
118.120613 196.0
118.135757 160.0
118.192009 76.0
118.607834 72.0
118.709732 220.0
118.75528 124.0
118.837715 144.0
118.896301 148.0
118.928856 168.0
119.085495 656.0
119.319885 140.0
119.537399 144.0
119.735504 176.0
119.864037 172.0
119.879295 148.0
119.9207 136.0
120.042793 132.0
120.092163 144.0
120.116943 172.0
120.16465 60.0
120.25441 220.0
120.298065 116.0
120.527397 156.0
120.606071 200.0
120.632301 172.0
120.700081 200.0
120.735069 156.0
120.778816 196.0
120.949493 140.0
120.98452 156.0
121.027901 196.0
121.063347 128.0
121.101189 19136.0
121.168488 28.0
121.227646 68.0
121.286819 184.0
121.305244 120.0
121.387672 120.0
121.42057 104.0
121.462242 132.0
121.679504 148.0
121.738792 160.0
121.791504 200.0
122.048637 196.0
122.104294 1416.0
122.321442 172.0
122.471184 152.0
122.795189 172.0
122.949623 108.0
123.086494 132.0
123.106369 264.0
123.922607 168.0
123.991302 212.0
124.077751 72.0
124.714859 168.0
124.899422 152.0
125.130859 184.0
125.375893 76.0
125.496269 156.0
125.651733 148.0
125.748352 144.0
125.822014 180.0
125.953773 128.0
126.958725 148.0
127.232475 76.0
127.297592 100.0
127.542488 64.0
127.992439 168.0
128.172653 60.0
128.188416 176.0
128.294357 128.0
128.49733 176.0
129.143417 208.0
129.42421 156.0
129.602982 36.0
129.650574 80.0
130.2155 64.0
130.317719 176.0
131.191681 180.0
131.422028 176.0
131.495056 152.0
131.894775 48.0
132.801514 164.0
132.877228 180.0
132.934586 176.0
133.07225 164.0
133.100296 380.0
133.212402 156.0
133.233078 40.0
133.433029 180.0
133.591721 168.0
133.745895 120.0
133.895554 112.0
134.106796 296.0
134.183594 68.0
134.261993 148.0
134.591995 84.0
134.60881 132.0
134.700546 52.0
134.816071 72.0
134.910843 280.0
135.017197 164.0
135.063461 140.0
135.116119 17348.0
135.161346 92.0
135.191406 148.0
135.211548 116.0
135.262466 56.0
135.301819 48.0
135.371277 92.0
135.503311 76.0
135.555893 92.0
135.72583 136.0
135.969406 216.0
136.071548 56.0
136.120819 1724.0
136.261215 168.0
136.39679 36.0
136.43631 52.0
136.468857 72.0
136.506058 48.0
136.603745 116.0
136.701462 100.0
136.780594 156.0
136.866745 160.0
136.966888 80.0
137.090363 124.0
137.239563 36.0
137.281525 84.0
137.458817 156.0
137.668915 64.0
137.907227 100.0
137.958649 84.0
138.169144 172.0
138.204239 148.0
138.738235 160.0
139.052567 52.0
140.32756 172.0
140.869629 200.0
140.917633 168.0
141.563385 76.0
141.743423 156.0
142.462341 104.0
142.519363 196.0
143.068771 84.0
143.15686 152.0
143.256912 136.0
143.461853 140.0
143.910385 192.0
144.163589 164.0
144.673065 188.0
145.202621 180.0
145.632248 80.0
146.939423 204.0
147.335358 64.0
147.448929 168.0
147.506943 156.0
147.567383 128.0
148.13855 140.0
148.555511 124.0
148.905045 128.0
148.934189 148.0
149.075104 120.0
149.130997 156.0
149.615082 152.0
149.649979 152.0
150.156052 252.0
150.41713 128.0
151.818497 208.0
152.054626 92.0
152.442657 180.0
153.055176 84.0
153.316299 144.0
153.540649 164.0
153.812057 108.0
153.844147 92.0
154.387741 196.0
154.692093 180.0
154.99176 168.0
155.989487 72.0
156.091431 192.0
156.302856 168.0
157.477081 148.0
159.941879 180.0
160.19873 248.0
160.279358 36.0
160.319687 136.0
160.367569 188.0
160.460846 108.0
160.604584 152.0
160.761002 72.0
160.952118 204.0
160.975586 72.0
161.129517 288.0
161.253494 100.0
161.64296 176.0
162.132294 208.0
162.220428 92.0
162.276199 148.0
162.293945 132.0
162.499405 28.0
162.580521 132.0
162.68721 152.0
162.715134 108.0
162.741638 184.0
162.765915 52.0
162.834488 196.0
162.872589 116.0
162.908142 140.0
162.968399 112.0
162.97319 60.0
163.026321 372.0
163.050858 192.0
163.097168 156.0
163.11821 364.0
163.147903 57100.0
163.218979 160.0
163.258377 76.0
163.2798 56.0
163.302139 60.0
163.358398 68.0
163.386093 44.0
163.431885 44.0
163.46225 60.0
163.496994 172.0
163.537323 112.0
163.56987 76.0
163.599991 88.0
163.632782 108.0
163.651932 80.0
163.684311 48.0
163.722092 28.0
163.76091 132.0
163.779388 64.0
163.841812 80.0
163.862183 72.0
163.882568 40.0
163.908051 32.0
163.943726 80.0
164.03804 68.0
164.060974 128.0
164.098145 200.0
164.150223 8184.0
164.203781 140.0
164.257339 44.0
164.333878 40.0
164.356842 88.0
164.44545 116.0
164.512527 44.0
164.563583 96.0
164.660629 108.0
164.683609 84.0
164.80368 80.0
164.857346 76.0
164.976746 112.0
165.061859 84.0
165.079758 148.0
165.118118 72.0
165.152664 824.0
165.173218 192.0
165.177628 104.0
165.216064 124.0
165.271393 48.0
165.315109 52.0
165.354919 144.0
165.444565 76.0
165.712006 56.0
165.753006 56.0
165.870895 60.0
165.976013 108.0
166.137604 140.0
166.163254 112.0
166.194046 104.0
166.345459 112.0
166.44928 184.0
166.517502 112.0
166.910706 80.0
167.35585 60.0
167.497498 72.0
169.170853 36.0
170.478119 88.0
171.016479 40.0
171.13884 124.0
171.47229 100.0
172.189774 64.0
172.268127 80.0
173.647598 64.0
173.936218 124.0
177.330978 36.0
178.150909 76.0
179.465683 112.0
180.175049 1384.0
180.905746 48.0
181.071762 80.0
181.177948 328.0
181.197662 176.0
181.886871 92.0
182.17421 160.0
183.47406 108.0
184.851578 88.0
188.511917 48.0
200.558594 72.0
214.360321 72.0
222.692444 84.0
232.696014 100.0
246.446808 64.0
246.681198 56.0
246.787506 100.0
256.107117 60.0
263.175507 76.0
264.465393 56.0
270.621582 96.0
272.740875 68.0
279.091858 160.0
288.084381 120.0
294.309967 52.0
303.278992 40.0
317.685211 88.0
320.201843 88.0
323.2435 84.0
332.233398 76.0
349.964722 92.0
376.012085 60.0
417.144897 32.0
442.419525 72.0
447.352295 56.0
448.704651 64.0
450.143494 48.0
453.184845 60.0
456.572357 96.0
478.789734 116.0
484.139648 72.0
573.590149 84.0
652.329163 64.0
672.238403 68.0
687.845642 56.0
691.159119 48.0
730.439087 112.0
740.159302 124.0
742.169556 144.0
742.516663 128.0
761.752258 108.0
768.330994 224.0
771.91571 76.0
779.899292 64.0
791.022095 144.0
798.451111 200.0
802.015137 148.0
807.356323 152.0
814.486511 324.0
814.764832 44.0
815.105774 144.0
820.319214 152.0
820.604309 176.0
824.771729 88.0
827.700989 152.0
828.577332 144.0
829.305115 72.0
836.755859 168.0
842.061096 216.0
843.020142 164.0
844.349854 120.0
859.798279 248.0
861.117737 228.0
861.573364 172.0
866.417542 192.0
876.871338 132.0
883.727478 180.0
892.934265 192.0
894.874207 144.0
895.416138 188.0
897.633057 176.0
898.903687 104.0
902.529602 208.0
903.253235 188.0
909.995361 192.0
914.106873 196.0
914.600342 88.0
914.720764 76.0
922.031189 144.0
924.105347 176.0
924.692322 200.0
924.7771 152.0
925.16449 100.0
925.491455 160.0
945.281067 152.0
949.029907 168.0
949.269043 136.0
949.391724 132.0
950.01123 128.0
953.154785 228.0
953.744812 132.0
963.537048 188.0
967.575684 132.0
970.134277 100.0
971.083069 172.0
973.192993 164.0
976.642151 112.0
977.469604 176.0
978.166626 128.0
980.820312 172.0
981.425049 104.0
986.963562 148.0
992.367188 148.0
992.580383 180.0
994.531555 176.0
995.498413 224.0
996.999878 192.0
997.112976 48.0
999.20697 164.0
999.282471 176.0
1001.851196 140.0
1003.7547 196.0
1006.341736 164.0
1006.50592 160.0
1008.262146 160.0
1016.107849 180.0
1018.532898 132.0
1018.736145 192.0
1019.155518 164.0
1024.206909 220.0
1024.735596 112.0
1030.784668 136.0
1032.22937 184.0
1032.677002 168.0
1033.32312 244.0
1033.707031 160.0
1034.769653 88.0
1035.160156 172.0
1037.383545 112.0
1039.390991 176.0
1041.548218 164.0
1043.289673 132.0
1044.087036 200.0
1046.049438 176.0
1046.416504 180.0
1048.59375 128.0
1049.909058 140.0
1051.238037 136.0
1051.373535 156.0
1051.68335 152.0
1054.725708 140.0
1055.191162 156.0
1055.708374 108.0
1056.322876 132.0
1058.821289 156.0
1061.231934 140.0
1069.515015 112.0
1070.250732 176.0
1071.142944 192.0
1072.309326 132.0
1072.622192 128.0
1076.817749 204.0
1079.516846 104.0
1084.872803 172.0
1087.437622 156.0
1088.192627 188.0
1088.987183 140.0
1095.222656 152.0
1095.953979 180.0
1097.621704 152.0
1099.646973 192.0
1102.401001 120.0
1102.58606 164.0
1103.015747 212.0
1104.073608 204.0
1105.026123 72.0
1106.025391 188.0
1106.495483 156.0
1109.490112 212.0
1109.974121 140.0
1111.128174 232.0
1112.860474 196.0
1116.06311 88.0
1118.245239 212.0
1118.997437 108.0
1119.796509 176.0
1121.202393 160.0
1122.188965 116.0
1123.009155 176.0
1124.223389 156.0
1125.805664 208.0
1126.767456 104.0
1129.414795 132.0
1129.963379 188.0
1130.552246 164.0
1132.379883 132.0
1133.160767 216.0
1133.592529 80.0
1134.390137 136.0
1135.194702 160.0
1136.227661 196.0
1137.073242 124.0
1137.66394 136.0
1138.180908 132.0
1138.241333 160.0
1139.013672 224.0
1139.813232 216.0
1140.673462 208.0
1144.784424 168.0
1146.313599 188.0
1146.610107 124.0
1148.983765 128.0
1149.442627 188.0
1149.618042 160.0
1150.536011 88.0
1152.954224 140.0
1153.319214 120.0
1153.454346 40.0
1156.112549 176.0
1156.505127 188.0
1157.053345 136.0
1157.222656 152.0
1157.730469 68.0
1158.421387 160.0
1158.821167 132.0
1159.28186 104.0
1159.634277 136.0
1160.393555 168.0
1161.499023 136.0
1162.136719 192.0
1163.915039 128.0
1163.983032 176.0
1164.145996 168.0
1164.47876 168.0
1164.777588 160.0
1165.694824 176.0
1167.231201 172.0
1169.333252 120.0
1170.19104 92.0
1172.329956 112.0
1172.711548 204.0
1172.991089 144.0
1173.079712 128.0
1173.447876 184.0
1174.272949 164.0
1175.15979 156.0
1176.866211 148.0
1177.112061 152.0
1178.683105 196.0
1179.264038 60.0
1179.441772 176.0
1179.722046 164.0
1180.248535 172.0
1185.450928 112.0
1187.055054 80.0
1188.056519 168.0
1188.255493 176.0
1188.584839 148.0
1191.248779 184.0
1191.351807 172.0
1191.640381 112.0
1193.956909 140.0
1194.142578 156.0
1194.727295 164.0
1194.995605 144.0
1195.188232 72.0
1195.552979 192.0
1199.175659 160.0
1199.671997 208.0
1200.940796 104.0
1202.306885 188.0
1203.128296 248.0
1204.39209 176.0
1205.877563 208.0
1208.477783 160.0
1208.9552 176.0
1209.315186 176.0
1209.488159 80.0
1209.571289 204.0
1210.886841 196.0
1211.787354 132.0
1213.721191 96.0
1215.719116 148.0
1217.232422 136.0
1217.406006 136.0
1218.038086 144.0
1219.066406 188.0
1219.240112 184.0
1221.49292 32.0
1222.119141 56.0
1223.817383 180.0
1225.036255 196.0
1226.903931 80.0
1230.846069 160.0
1235.396118 132.0
1235.773926 164.0
1238.266113 224.0
1239.975586 96.0
1240.550415 160.0
1241.567139 160.0
1242.591309 156.0
1242.78772 184.0
1243.86853 200.0
1245.118286 84.0
1245.455444 152.0
1245.785645 172.0
1248.829346 160.0
1249.328857 160.0
1250.546143 156.0
1250.665894 64.0
1251.299438 176.0
1251.51062 196.0
1252.581177 164.0
1253.095459 208.0
1253.736694 204.0
1254.138428 108.0
1254.653076 60.0
1257.150024 140.0
1258.357056 72.0
1260.857666 196.0
1261.684692 136.0
1262.038208 100.0
1264.662842 144.0
1265.002686 228.0
1265.816895 160.0
1266.765991 188.0
1267.063477 180.0
1267.750854 200.0
1268.643921 152.0
1268.700684 172.0
1269.7146 60.0
1271.99939 224.0
1275.103394 232.0
1275.664917 72.0
1277.570801 68.0
1278.673706 228.0
1278.844482 184.0
1280.33252 192.0
1280.880981 156.0
1281.45813 144.0
1282.097412 228.0
1282.605469 220.0
1283.421631 152.0
1285.71521 160.0
1286.079224 444.0
1286.12915 212.0
1287.257202 176.0
1289.829346 168.0
1290.365479 196.0
1293.527588 116.0
1293.914185 148.0
1295.647339 120.0
1296.944458 100.0
1297.080688 168.0
1297.252686 104.0
1297.446289 104.0
1298.442993 180.0
1299.12439 232.0
1299.490356 164.0
1299.899292 176.0
1302.778564 236.0
1303.238281 160.0
1305.941406 196.0
1306.603271 160.0
1306.660767 192.0
1309.46106 152.0
1309.921997 144.0
1310.123779 228.0
1310.275024 144.0
1310.462402 224.0
1311.082031 228.0
1311.154175 180.0
1311.471313 148.0
1312.242676 344.0
1312.934937 120.0
1314.428223 212.0
1314.69519 160.0
1316.593872 128.0
1316.723877 108.0
1316.911743 156.0
1317.30896 140.0
1318.298828 192.0
1318.414429 152.0
1318.703613 72.0
1318.898682 172.0
1319.556641 56.0
1320.004883 216.0
1320.735352 176.0
1321.45874 168.0
1321.856812 68.0
1325.136963 184.0
1325.876099 208.0
1325.984741 236.0
1326.204956 220.0
1326.702393 176.0
1327.710327 224.0
1329.13208 148.0
1329.407837 100.0
1329.647339 204.0
1330.017578 32.0
1330.228027 92.0
1330.344238 196.0
1331.20105 180.0
1331.93457 184.0
1332.486694 248.0
1332.828125 176.0
1333.26416 148.0
1333.533081 140.0
1337.431763 112.0
1338.188843 148.0
1338.647583 180.0
1338.858765 144.0
1338.917114 200.0
1339.499756 220.0
1341.248657 188.0
1341.532959 172.0
1342.29126 172.0
1342.349609 180.0
1343.064331 172.0
1343.15918 152.0
1343.895996 148.0
1344.012695 148.0
1346.268433 132.0
1346.633545 164.0
1347.174072 148.0
1347.619751 152.0
1348.255493 132.0
1350.163696 220.0
1350.573242 112.0
1351.560913 180.0
1352.46106 252.0
1352.8125 148.0
1353.141968 188.0
1354.064575 208.0
1354.782471 200.0
1355.156128 108.0
1355.984131 60.0
1356.035522 112.0
1356.401978 116.0
1357.611816 132.0
1357.780396 128.0
1358.169189 164.0
1359.761353 168.0
1360.223755 192.0
1360.517456 144.0
1360.818481 176.0
1361.024048 148.0
1361.295776 100.0
1361.787842 200.0
1363.0 92.0
1363.31604 92.0
1363.911377 144.0
1364.256836 104.0
1364.433228 144.0
1364.506836 132.0
1365.205322 176.0
1365.352417 196.0
1365.426025 220.0
1365.977661 120.0
1366.095337 132.0
1367.19165 152.0
1372.746338 188.0
1372.86438 180.0
1374.110962 136.0
1375.365479 180.0
1375.535278 204.0
1376.487671 272.0
1376.997314 140.0
1377.314941 168.0
1377.506958 200.0
1378.064087 208.0
1378.740967 136.0
1379.117798 120.0
1380.20459 48.0
1380.470825 128.0
1380.618774 72.0
1381.018066 188.0
1381.484131 76.0
1382.483032 48.0
1382.949341 176.0
1383.08252 140.0
1383.526978 132.0
1385.689331 232.0
1385.889404 160.0
1386.556274 244.0
1388.142822 36.0
1388.239258 184.0
1388.862183 136.0
1389.277588 156.0
1390.583618 212.0
1393.338623 136.0
1394.601929 176.0
1394.99585 124.0
1395.360229 208.0
1395.499878 188.0
1395.754272 220.0
1395.888062 136.0
1396.178101 136.0
1396.68396 160.0
1397.390625 180.0
1397.785034 184.0
1398.008301 144.0
1398.521851 200.0
1400.062988 288.0
1401.746582 212.0
1402.268311 132.0
1402.752808 200.0
1403.170288 152.0
1403.617676 156.0
1403.923462 184.0
1404.124756 148.0
1405.587036 172.0
1405.691406 132.0
1406.27356 152.0
1408.072998 128.0
1409.963135 232.0
1410.135132 176.0
1412.071533 112.0
1412.535278 160.0
1412.931763 44.0
1413.657593 68.0
1413.754883 120.0
1413.949463 168.0
1414.308716 164.0
1415.034912 212.0
1415.36438 180.0
1416.060791 164.0
1416.869873 136.0
1416.9823 124.0
1418.016357 124.0
1418.257202 220.0
1418.436157 228.0
1419.014038 216.0
1421.282104 172.0
1421.833862 148.0
1422.456909 124.0
1424.01123 132.0
1424.334229 160.0
1425.844482 176.0
1426.881836 120.0
1428.64917 104.0
1428.942627 116.0
1429.973511 200.0
1430.538086 136.0
1430.809082 160.0
1430.974731 132.0
1432.013916 80.0
1432.932983 280.0
1433.446411 156.0
1434.070923 104.0
1434.380005 48.0
1435.141479 144.0
1435.216797 192.0
1435.480713 248.0
1435.60144 196.0
1435.744751 184.0
1437.306274 240.0
1438.788696 148.0
1438.936646 172.0
1440.922974 132.0
1441.232788 176.0
1441.565308 164.0
1442.336182 184.0
1444.347534 164.0
1445.051147 148.0
1447.140137 172.0
1448.170044 184.0
1449.071533 200.0
1449.24585 196.0
1449.70813 132.0
1451.77771 176.0
1452.240356 120.0
1453.241699 128.0
1454.592651 140.0
1454.934204 36.0
1458.041016 176.0
1460.185059 128.0
1460.600098 144.0
1461.067383 176.0
1461.646118 148.0
1462.079468 112.0
1462.680786 272.0
1463.351562 168.0
1464.386353 80.0
1464.835815 120.0
1464.9729 164.0
1465.27002 144.0
1465.628174 172.0
1465.681396 112.0
1467.594727 108.0
1468.372559 84.0
1468.929321 184.0
1469.600708 216.0
1469.753296 100.0
1470.52417 156.0
1470.699707 192.0
1471.699707 172.0
1471.852539 180.0
1472.058716 108.0
1472.13501 32.0
1472.387085 176.0
1475.000244 204.0
1475.382446 140.0
1476.598267 156.0
1477.03418 224.0
1478.648682 192.0
1478.931885 184.0
1479.17688 60.0
1480.600952 168.0
1482.746216 220.0
1482.960815 192.0
1483.029785 48.0
1484.509521 172.0
1485.291748 84.0
1485.798096 228.0
1486.849365 224.0
1487.018188 180.0
1487.355957 184.0
1487.8396 128.0
1488.185059 168.0
1488.338623 148.0
1488.737915 248.0
1489.175781 160.0
1489.782593 156.0
1490.212769 220.0
1490.535522 184.0
1490.850586 228.0
1491.158081 140.0
1491.488525 192.0
1493.003174 204.0
1493.203247 200.0
1493.464722 192.0
1494.064697 64.0
1497.135986 84.0
1498.630371 132.0
1500.611206 176.0
1500.911987 72.0
1500.965942 164.0
1501.567505 264.0
1501.90686 168.0
1502.00708 176.0
1502.815674 140.0
1504.9552 188.0
