>compound MLS001140947-01!4-[[[2-(2-oxo-4-propylchromen-7-yl)oxyacetyl]amino]methyl]cyclohexane-1-carboxylic acid
>formula C22H27NO6
>ionization [M+H]+
>parentmass 402.192
#inchi InChI=1S/C22H27NO6/c1-2-3-16-10-21(25)29-19-11-17(8-9-18(16)19)28-13-20(24)23-12-14-4-6-15(7-5-14)22(26)27/h8-11,14-15H,2-7,12-13H2,1H3,(H,23,24)(H,26,27)/t14-,15-
#inchikey HVHOUBUTSQGNJT
#Ion_Source LC-ESI
#Instrument qTof
#Compound_Source NIH Natural Product Library
#PI Dorrestein
#Data_Collector VVP/LMS
#Scan -1
#Precursor_MZ 402.192
#ExactMass 401.184
#Charge 1
#CAS_Number N/A
#Pubmed_ID N/A
#Smiles CCCc1cc(=O)oc2cc(OCC(=O)NC[C@H]3CC[C@@H](CC3)C(=O)O)ccc12
#INCHI_AUX N/A
#Library_Class 1
#SpectrumID CCMSLIB00000080093
#IonMode Positive
#UpdateWorkflowName UPDATE-SINGLE-ANNOTATED-GOLD
#LibraryQualityString Gold
#TaskID b1d8e8f6646f4e71acdff9ca3d919d08
##Scan# 1999
#SpectrumFile p2-A04_GA4_01_17981.mzXML
#LibraryName NIH_Natural_Products_Library.mgf
#MQScore -1
#Organism NIH_Natural_Products_Library
#TIC_Query 0
#RT_Query -1
#MZErrorPPM -1
#SharedPeaks 0
#MassDiff 0
#LibMZ -1
#SpecMZ 402.192
#SpecCharge 0
#internalFilename spec-00000.mgf

>collision 10
94.967468 100.0
95.008202 200.0
95.048355 288.0
95.068108 188.0
95.085724 3060.0
95.153763 56.0
95.264465 36.0
95.287773 140.0
95.435493 168.0
95.519119 172.0
95.688431 172.0
95.809181 176.0
96.08844 764.0
96.138702 68.0
96.517677 76.0
96.652641 84.0
96.842545 140.0
97.011063 236.0
97.051292 172.0
97.097336 164.0
97.464432 192.0
97.480156 144.0
97.637428 216.0
97.661026 120.0
97.970078 136.0
98.059853 176.0
98.076492 52.0
98.198738 240.0
98.236214 40.0
98.250023 96.0
98.536293 132.0
98.577789 176.0
98.603485 168.0
98.652901 148.0
98.712212 152.0
98.822983 88.0
98.884331 152.0
99.332138 164.0
99.64978 56.0
99.725296 108.0
99.983849 112.0
100.173004 168.0
100.404221 168.0
100.764626 160.0
101.067436 184.0
101.137482 144.0
101.16951 156.0
101.484062 212.0
101.626472 172.0
101.642525 116.0
101.732841 108.0
101.81115 180.0
101.895515 136.0
101.913597 160.0
101.953789 188.0
102.040222 112.0
102.064354 216.0
102.179001 104.0
102.370216 76.0
102.762825 248.0
103.027763 116.0
103.055344 172.0
103.177322 180.0
103.561806 140.0
103.695526 176.0
103.736069 192.0
103.851646 144.0
104.036308 140.0
104.054581 116.0
104.379677 164.0
104.774544 192.0
104.888664 80.0
104.935555 172.0
104.972252 84.0
104.995049 224.0
105.03344 96.0
105.06958 780.0
105.133415 124.0
105.370277 252.0
105.570595 188.0
106.059921 172.0
106.363503 144.0
106.45179 188.0
106.58326 196.0
106.751816 88.0
106.899933 144.0
107.049667 576.0
107.086441 176.0
107.10994 68.0
107.278915 188.0
107.421204 100.0
107.456276 128.0
107.578041 112.0
108.009926 184.0
108.051628 152.0
108.082336 168.0
108.142357 192.0
108.215874 156.0
108.380508 144.0
108.395012 132.0
108.453041 168.0
108.575371 124.0
108.716446 140.0
108.784943 176.0
109.027962 140.0
109.082001 168.0
109.106949 204.0
109.163086 144.0
109.398201 64.0
109.650238 136.0
110.029884 204.0
110.062401 508.0
110.09581 688.0
110.211594 184.0
110.420647 56.0
110.493858 152.0
110.755531 168.0
110.854004 104.0
111.066994 196.0
111.104813 868.0
111.218933 68.0
111.351212 76.0
111.384819 160.0
111.727478 88.0
112.110046 964.0
112.154961 108.0
112.190796 120.0
112.51358 148.0
113.145714 96.0
113.188057 64.0
113.27066 204.0
113.296074 244.0
113.391434 120.0
113.414749 172.0
113.676636 164.0
113.916222 172.0
113.9729 108.0
114.087669 40.0
114.1791 204.0
114.202499 156.0
114.242912 160.0
114.262062 236.0
114.40963 212.0
114.668785 136.0
114.705017 124.0
114.854279 160.0
115.029259 168.0
115.053268 260.0
115.178734 156.0
115.450172 132.0
115.565689 168.0
115.634163 192.0
115.780716 248.0
115.914711 172.0
115.968292 48.0
116.013306 152.0
116.060165 140.0
116.29216 116.0
116.564911 176.0
116.620789 248.0
116.676682 64.0
116.713234 164.0
116.801407 140.0
116.87886 104.0
116.917595 200.0
117.014458 184.0
117.070007 336.0
117.163063 248.0
117.367821 52.0
117.402321 140.0
117.516647 192.0
117.531754 144.0
117.812431 184.0
117.968025 168.0
118.000458 128.0
118.076141 120.0
118.2146 152.0
118.385612 176.0
118.441925 168.0
118.602272 152.0
118.619614 116.0
118.823471 120.0
119.007957 180.0
119.051453 328.0
119.085083 488.0
119.309959 32.0
119.536163 156.0
119.636284 136.0
119.760406 64.0
119.82576 236.0
119.930962 144.0
119.95652 180.0
120.061172 220.0
120.096069 124.0
120.42347 140.0
120.472176 176.0
120.637611 128.0
120.679153 92.0
120.845383 200.0
120.891335 144.0
120.959183 68.0
121.024033 212.0
121.067383 400.0
121.09494 96.0
121.23954 220.0
121.498276 168.0
121.726547 232.0
121.77047 184.0
122.062759 176.0
122.09761 240.0
122.254143 208.0
122.344391 200.0
122.390625 196.0
122.483124 140.0
122.915245 52.0
123.021179 124.0
123.043427 420.0
123.147049 216.0
123.425499 236.0
123.443192 120.0
123.850418 156.0
123.882187 200.0
124.112381 976.0
124.193985 48.0
124.978203 160.0
125.071671 112.0
125.116241 188.0
125.227531 108.0
125.285446 100.0
125.301048 144.0
125.349258 144.0
125.526169 52.0
125.546242 184.0
125.865349 108.0
126.021706 96.0
126.061928 108.0
126.144623 148.0
126.365578 100.0
126.460014 160.0
126.549561 152.0
126.636894 116.0
126.791489 116.0
126.840797 152.0
126.921509 168.0
126.955147 168.0
126.984306 180.0
127.136864 156.0
127.356888 152.0
127.386093 136.0
127.649055 148.0
127.975327 208.0
128.055481 292.0
128.27272 148.0
128.673935 188.0
128.789444 116.0
128.911453 204.0
128.938568 44.0
128.95665 48.0
129.028992 180.0
129.071686 240.0
129.18277 120.0
129.250641 84.0
129.719467 164.0
129.964401 136.0
130.071075 168.0
130.245911 164.0
130.266357 192.0
130.373154 120.0
130.3936 128.0
130.630081 244.0
130.903412 192.0
130.978363 76.0
131.046127 488.0
131.086105 3280.0
131.242722 132.0
131.258682 148.0
131.335236 148.0
131.58725 72.0
131.790527 56.0
132.049011 180.0
132.069443 248.0
132.09137 688.0
132.135773 116.0
132.38298 124.0
132.800095 48.0
133.0112 156.0
133.067612 316.0
133.099289 1060.0
133.121414 172.0
133.282211 68.0
133.427002 160.0
133.578781 60.0
133.707642 60.0
133.790497 176.0
134.036957 172.0
134.087067 188.0
134.110229 128.0
134.438202 100.0
134.59584 164.0
134.900146 112.0
134.964874 224.0
135.03981 300.0
135.079849 176.0
135.09903 116.0
135.23555 84.0
135.291107 76.0
135.432358 48.0
135.45784 184.0
135.543564 128.0
135.907608 92.0
135.981873 108.0
136.04686 128.0
136.077805 232.0
136.181549 132.0
136.260529 140.0
136.972397 180.0
137.023651 160.0
137.09671 248.0
137.240402 152.0
137.478348 284.0
137.63475 180.0
137.807587 136.0
138.092545 332.0
138.664078 140.0
139.180176 160.0
139.372787 140.0
139.756058 128.0
140.014999 116.0
140.108215 1524.0
140.24353 196.0
140.557205 116.0
141.029526 132.0
141.069839 1240.0
141.109909 188.0
141.128815 164.0
141.23288 116.0
141.35199 196.0
141.398499 44.0
141.438736 52.0
141.635269 152.0
141.983688 92.0
142.066711 264.0
142.223328 232.0
142.491669 276.0
142.614426 228.0
142.679428 80.0
142.69606 84.0
142.96962 96.0
143.000565 168.0
143.057678 204.0
143.089722 804.0
143.150543 104.0
143.489624 152.0
143.727417 128.0
143.887329 72.0
144.059677 300.0
144.38913 128.0
144.448929 96.0
145.063431 268.0
145.09552 196.0
145.136292 140.0
145.894974 204.0
146.009567 264.0
146.071289 152.0
146.520706 172.0
146.64119 120.0
147.043182 1156.0
147.07753 472.0
147.193649 80.0
147.357895 40.0
147.846359 76.0
147.872971 216.0
148.001282 160.0
148.051712 1180.0
148.081192 372.0
148.180511 128.0
148.204742 144.0
148.299255 36.0
148.42775 104.0
149.029724 216.0
149.05867 672.0
149.097 1200.0
149.177979 152.0
149.221725 196.0
149.28981 120.0
150.098297 148.0
150.144623 120.0
150.454514 44.0
150.89917 144.0
151.048355 252.0
151.204941 80.0
151.224518 200.0
151.621292 140.0
151.6409 152.0
151.832138 212.0
151.849304 236.0
151.886093 152.0
151.905716 92.0
152.045578 164.0
152.109695 752.0
152.315659 64.0
152.362 172.0
152.380447 236.0
152.423767 304.0
152.554031 148.0
152.681686 100.0
152.711395 60.0
152.937759 112.0
152.999298 160.0
153.016541 128.0
153.114258 876.0
153.213562 84.0
153.42305 208.0
153.573471 124.0
153.85231 124.0
154.015289 144.0
154.111557 116.0
154.127121 152.0
154.213837 204.0
154.334091 140.0
154.742172 168.0
154.796814 140.0
155.042465 128.0
155.089172 228.0
155.188324 188.0
155.317291 244.0
155.545578 140.0
155.61261 148.0
155.80632 92.0
155.957916 136.0
155.995193 152.0
156.102112 144.0
156.136917 120.0
156.209061 120.0
156.701996 184.0
156.741852 96.0
156.854004 156.0
157.001114 156.0
157.303024 120.0
157.632706 100.0
157.802673 204.0
157.947723 260.0
158.000259 144.0
158.032776 128.0
158.070312 180.0
158.593735 144.0
158.63887 112.0
159.043457 180.0
159.079712 2828.0
159.354126 140.0
159.447098 172.0
159.530045 40.0
159.839401 120.0
159.957703 84.0
160.053375 212.0
160.084747 392.0
160.16922 192.0
160.280075 208.0
160.322906 156.0
160.587631 160.0
160.666992 188.0
160.774338 96.0
160.809662 56.0
160.832382 52.0
161.024277 100.0
161.058533 1352.0
161.09404 1324.0
161.145523 44.0
161.271881 108.0
161.507034 84.0
161.5298 64.0
161.552567 176.0
161.629044 192.0
161.760071 56.0
161.987183 112.0
162.033585 28.0
162.069763 172.0
162.09787 300.0
162.175491 200.0
162.19577 128.0
162.365646 76.0
162.403687 96.0
162.560989 192.0
162.61174 156.0
162.723434 152.0
162.743759 164.0
162.931702 152.0
163.013763 188.0
163.038864 3376.0
163.073532 956.0
163.10704 192.0
163.180771 48.0
163.206192 72.0
163.267227 72.0
163.43512 232.0
163.699844 100.0
163.817017 96.0
163.880707 60.0
163.901093 116.0
164.048355 256.0
164.071854 112.0
164.385895 228.0
164.510651 68.0
164.615341 92.0
164.909134 244.0
164.980713 136.0
165.00116 192.0
165.116226 136.0
165.192963 172.0
165.264603 132.0
165.407913 148.0
165.546173 180.0
165.569229 200.0
165.653915 204.0
165.69986 136.0
165.810059 104.0
166.274261 48.0
166.330734 164.0
166.366669 124.0
166.572113 124.0
166.969238 176.0
167.209778 148.0
167.44664 240.0
167.572861 184.0
167.701706 48.0
167.871872 132.0
168.046524 152.0
168.078232 96.0
168.912735 128.0
169.07103 136.0
169.199982 120.0
169.725952 136.0
170.013885 200.0
170.073593 216.0
170.117722 176.0
170.253601 60.0
170.478745 156.0
171.024918 132.0
171.082062 164.0
171.551102 196.0
171.57196 36.0
171.733643 84.0
171.830154 76.0
171.978897 132.0
172.05188 160.0
172.080719 492.0
172.300095 228.0
172.502151 164.0
172.658203 188.0
172.911987 68.0
172.993134 136.0
173.055969 140.0
173.08461 128.0
173.23143 60.0
173.291077 144.0
173.47908 152.0
173.56691 220.0
173.842346 148.0
173.963089 72.0
174.023468 148.0
174.068649 428.0
174.641037 76.0
175.039459 1204.0
175.071335 536.0
175.149048 52.0
175.180649 116.0
175.217529 176.0
175.502182 80.0
175.652512 124.0
175.816101 212.0
175.855682 140.0
176.046677 3000.0
176.081543 364.0
176.201614 176.0
176.558472 80.0
176.627243 188.0
177.054245 584.0
177.091354 852.0
177.138123 112.0
177.212967 80.0
177.283844 68.0
177.380051 68.0
177.411789 192.0
177.514481 204.0
177.711716 124.0
177.851425 68.0
177.949646 164.0
178.034622 152.0
178.095703 468.0
178.310913 136.0
178.38002 124.0
178.419907 92.0
178.534241 88.0
178.720444 164.0
178.829559 76.0
179.266327 56.0
179.343613 152.0
179.684952 232.0
179.746323 140.0
180.026627 176.0
180.06134 92.0
180.10199 1372.0
180.389999 140.0
180.852753 116.0
181.050873 40.0
181.096405 364.0
181.182129 80.0
181.455414 124.0
181.533264 136.0
181.651276 232.0
182.013596 136.0
182.05925 164.0
182.462296 144.0
182.696274 140.0
182.822739 272.0
183.108109 164.0
183.695724 208.0
183.7146 120.0
183.920883 172.0
184.176208 108.0
184.316681 180.0
185.106613 188.0
185.40184 120.0
185.437073 236.0
185.480438 164.0
185.694641 52.0
185.716339 160.0
185.960693 136.0
186.085403 136.0
186.234772 224.0
186.2565 252.0
186.346146 96.0
186.522034 216.0
186.710403 176.0
186.930756 72.0
186.960693 76.0
186.979736 168.0
187.042419 148.0
187.076065 8608.0
187.235657 160.0
187.341888 168.0
187.418182 40.0
187.445419 152.0
187.475403 160.0
187.584427 152.0
187.617142 92.0
187.70166 52.0
187.765137 160.0
187.835297 92.0
188.046036 136.0
188.079971 1036.0
188.162781 84.0
188.190079 188.0
188.291122 172.0
188.47142 36.0
188.627197 152.0
188.662735 44.0
188.69281 84.0
188.892441 148.0
189.007355 96.0
189.054245 332.0
189.090729 4316.0
189.170425 48.0
189.272873 40.0
189.346817 120.0
189.423508 72.0
189.442673 164.0
189.470078 84.0
189.544052 64.0
189.582413 84.0
189.744141 68.0
189.763336 32.0
189.807205 124.0
189.829147 176.0
189.947083 68.0
190.055847 192.0
190.095535 996.0
190.226974 52.0
190.562027 88.0
190.691177 188.0
191.036194 156.0
191.092636 224.0
191.127884 176.0
191.164215 188.0
191.337616 56.0
191.367905 120.0
191.406464 76.0
191.552429 44.0
191.706726 116.0
192.076172 160.0
192.46254 176.0
192.481873 88.0
192.512253 160.0
192.730484 148.0
192.826874 152.0
192.863129 192.0
193.103683 140.0
193.624008 152.0
193.643387 52.0
193.723724 128.0
193.859482 216.0
193.909363 312.0
194.711182 144.0
195.203064 68.0
195.258682 180.0
196.280716 160.0
196.668503 216.0
197.048294 172.0
197.492783 84.0
197.655045 180.0
197.820175 224.0
197.979767 104.0
198.114212 124.0
198.408478 144.0
198.579529 60.0
198.656357 164.0
198.784332 144.0
198.963959 120.0
199.079086 140.0
199.124023 180.0
199.239197 192.0
199.722702 52.0
199.79303 132.0
199.846481 64.0
200.119507 128.0
200.807098 204.0
201.029968 72.0
201.052551 60.0
201.094879 188.0
201.162628 96.0
201.337692 172.0
201.594772 136.0
201.755875 136.0
201.781326 220.0
201.979279 132.0
202.013229 104.0
202.068954 280.0
202.106598 88.0
202.24527 84.0
202.369827 68.0
202.740952 276.0
202.794754 160.0
202.848618 136.0
202.917358 208.0
203.02951 284.0
203.067123 196.0
203.109497 156.0
203.84198 212.0
204.009674 168.0
204.045776 120.0
204.080124 576.0
204.149002 136.0
204.319656 188.0
204.342422 260.0
204.369995 196.0
204.461929 156.0
204.481857 180.0
204.521194 176.0
204.689682 292.0
204.721008 116.0
204.770767 152.0
204.820679 196.0
204.880508 112.0
204.903305 208.0
204.95459 88.0
205.001602 160.0
205.024109 152.0
205.086945 65572.0
205.163589 60.0
205.192581 48.0
205.256729 108.0
205.306442 60.0
205.346405 168.0
205.394135 84.0
205.429688 84.0
205.453537 52.0
205.501633 92.0
205.555313 260.0
205.596207 44.0
205.630447 92.0
205.658997 52.0
205.70401 296.0
205.746826 52.0
205.770325 104.0
205.813156 132.0
205.833145 64.0
205.862976 72.0
205.896683 144.0
205.930237 116.0
205.967377 104.0
205.987732 276.0
206.035095 136.0
206.089233 9448.0
206.129288 180.0
206.161484 176.0
206.184998 60.0
206.210236 60.0
206.24855 72.0
206.272598 108.0
206.336014 156.0
206.378906 232.0
206.398926 56.0
206.450394 36.0
206.58197 52.0
206.739334 60.0
206.759369 68.0
206.826553 44.0
206.853821 56.0
206.9254 76.0
206.996979 88.0
207.063751 88.0
207.090073 1236.0
207.157364 36.0
207.231232 92.0
207.300247 124.0
207.330856 116.0
207.368088 104.0
207.373016 140.0
207.395203 104.0
207.426163 80.0
207.435699 64.0
207.507004 60.0
207.544281 64.0
207.626358 128.0
207.687668 60.0
207.719604 120.0
207.750778 144.0
207.813904 136.0
208.085617 172.0
208.2043 68.0
208.233017 80.0
208.320358 88.0
208.454224 96.0
208.632431 48.0
209.141586 112.0
209.225067 104.0
209.593735 144.0
209.890091 84.0
209.931 68.0
210.360916 212.0
210.615021 36.0
210.918427 108.0
211.04274 124.0
211.392746 108.0
211.52298 108.0
211.896561 136.0
212.331375 176.0
212.366394 164.0
212.473511 68.0
212.519928 120.0
213.644302 196.0
214.016846 96.0
214.526703 72.0
214.742477 156.0
214.774567 108.0
214.888336 100.0
215.031326 180.0
215.081802 700.0
215.37294 104.0
215.402145 72.0
215.565765 120.0
216.042343 152.0
216.074524 76.0
216.109634 144.0
216.282303 92.0
216.642487 88.0
216.674713 180.0
216.718658 156.0
216.742096 116.0
216.777267 76.0
216.844666 136.0
216.88414 172.0
216.991241 244.0
217.048889 276.0
217.086136 20300.0
217.13324 156.0
217.17012 48.0
217.23172 60.0
217.253922 84.0
217.298462 60.0
217.34787 136.0
217.393799 132.0
217.428314 156.0
217.469406 52.0
217.540863 116.0
217.598557 100.0
217.624985 84.0
217.645538 60.0
217.69252 108.0
217.774765 92.0
217.830566 68.0
217.944077 176.0
217.980408 40.0
218.018616 48.0
218.089249 3076.0
218.201843 48.0
218.240814 88.0
218.327301 68.0
218.439072 68.0
218.523468 64.0
218.592056 80.0
218.615601 48.0
218.801041 104.0
219.090103 364.0
219.331299 68.0
219.567169 108.0
219.629105 76.0
219.797272 112.0
219.891708 184.0
220.06813 404.0
220.101303 116.0
220.204666 32.0
220.426239 84.0
220.508987 68.0
220.736618 104.0
220.76915 152.0
220.792801 128.0
220.866745 112.0
221.081436 164.0
222.437241 88.0
225.063126 172.0
225.191528 116.0
225.588943 72.0
226.732346 52.0
226.996155 116.0
227.713409 64.0
228.105957 208.0
228.323517 88.0
228.34758 180.0
228.801956 60.0
229.085052 64.0
229.49794 200.0
230.185913 136.0
230.210083 180.0
230.252365 80.0
230.557495 124.0
230.929367 120.0
231.36763 100.0
232.116531 148.0
232.683914 104.0
233.06662 264.0
233.346252 196.0
233.513504 40.0
233.689941 64.0
235.094681 128.0
235.925491 148.0
236.102829 128.0
236.18541 168.0
236.815948 68.0
238.309921 56.0
238.829468 60.0
239.275681 112.0
240.231033 172.0
240.379135 148.0
240.962723 196.0
241.123398 112.0
241.689316 164.0
242.438705 60.0
243.052704 28.0
243.471771 96.0
243.770828 76.0
243.797165 76.0
244.034225 96.0
244.097382 264.0
244.600433 112.0
244.86821 136.0
244.930496 128.0
245.081711 8556.0
245.212738 164.0
245.263901 88.0
245.320023 124.0
245.388611 68.0
245.619385 68.0
245.64122 48.0
245.722321 124.0
245.794083 44.0
245.912674 40.0
246.082916 2116.0
246.137451 36.0
246.237381 80.0
246.343582 76.0
246.406067 44.0
246.949997 72.0
246.971893 40.0
247.091125 412.0
247.748215 128.0
247.94249 152.0
247.964417 132.0
248.324982 60.0
248.705673 144.0
248.914978 72.0
250.248184 52.0
250.452988 124.0
250.544235 76.0
250.680908 180.0
251.480789 120.0
253.314758 176.0
254.015335 88.0
254.618393 104.0
254.758163 68.0
255.238083 116.0
255.42572 156.0
256.986755 128.0
257.326874 108.0
258.245422 140.0
258.768311 176.0
259.11615 44.0
259.744476 56.0
259.859955 112.0
260.142395 184.0
260.530975 80.0
260.900543 60.0
261.186737 140.0
261.27359 172.0
261.35083 240.0
261.444153 172.0
261.479553 160.0
261.529083 140.0
261.592194 172.0
261.663025 100.0
261.714539 164.0
261.820801 164.0
261.904968 180.0
261.930328 200.0
262.023743 64.0
262.108215 28072.0
262.200958 120.0
262.244049 108.0
262.29303 92.0
262.362823 176.0
262.396027 72.0
262.42984 84.0
262.467377 64.0
262.536926 76.0
262.633942 68.0
262.736237 72.0
262.778168 100.0
262.810455 84.0
262.862976 84.0
262.904022 100.0
262.967102 80.0
263.111115 3984.0
263.168243 268.0
263.197784 152.0
263.220367 72.0
263.300476 80.0
263.459381 100.0
263.511078 112.0
263.608032 60.0
263.633881 48.0
263.659729 68.0
263.879547 52.0
264.113251 1096.0
264.303253 52.0
264.355011 52.0
264.500671 84.0
264.61911 88.0
264.776917 124.0
264.842682 108.0
264.882751 188.0
264.911926 112.0
264.993835 116.0
265.020447 128.0
265.052979 96.0
265.109558 140.0
265.342957 60.0
265.492096 72.0
265.576447 52.0
265.683472 76.0
265.719177 80.0
265.761353 80.0
265.913879 56.0
266.287231 112.0
267.519623 76.0
267.802917 36.0
267.920166 120.0
268.350372 88.0
268.676514 40.0
269.319611 92.0
269.650513 176.0
269.829407 176.0
270.113892 184.0
270.549133 76.0
272.885101 80.0
272.931122 44.0
273.187653 136.0
273.546356 72.0
274.107361 1304.0
275.109802 168.0
275.842285 56.0
276.024109 56.0
276.100189 144.0
276.126648 72.0
276.2854 36.0
277.003784 76.0
277.33844 56.0
278.745605 88.0
278.812073 152.0
280.616272 112.0
280.816345 112.0
282.543365 108.0
285.585907 92.0
287.19931 48.0
288.124268 204.0
289.368866 76.0
289.822723 108.0
298.499969 72.0
299.170868 184.0
301.799866 56.0
304.808594 72.0
305.970306 48.0
306.231476 120.0
307.430786 84.0
311.288574 72.0
312.293701 128.0
313.10672 40.0
314.139465 216.0
316.496826 28.0
318.703064 132.0
319.542175 120.0
326.359406 76.0
326.686707 84.0
327.158447 88.0
327.557861 84.0
327.712769 176.0
328.202972 112.0
328.516754 40.0
330.105957 36.0
331.108398 32.0
333.328552 140.0
333.990234 48.0
335.322876 108.0
337.688751 108.0
339.897827 136.0
340.944397 56.0
341.238586 140.0
341.849091 116.0
352.671478 36.0
352.869629 148.0
355.052704 96.0
355.979645 116.0
356.108368 100.0
356.186249 7760.0
356.259613 176.0
356.325195 176.0
356.606567 64.0
356.655884 40.0
356.828827 76.0
356.94162 76.0
357.18808 2424.0
357.291412 56.0
357.400513 64.0
357.63385 72.0
357.662659 160.0
357.972687 56.0
358.1922 492.0
358.454865 56.0
358.944916 116.0
359.088226 64.0
359.193817 164.0
359.55603 60.0
360.409485 64.0
362.017151 64.0
363.61319 152.0
365.20517 84.0
367.540466 100.0
373.467102 56.0
373.620972 56.0
380.667236 52.0
380.876953 80.0
381.899231 108.0
385.814301 108.0
393.319427 20.0
394.304871 84.0
400.183807 100.0
412.654144 68.0
412.98172 36.0
415.899048 128.0
417.621857 64.0
429.199493 68.0
459.473694 32.0
461.412659 20.0
463.578491 108.0
464.646149 56.0
465.465973 48.0
466.196228 100.0
467.219574 52.0
472.565125 132.0
472.630035 56.0
477.656097 20.0
500.888611 88.0
503.832855 32.0
512.050598 80.0
514.903259 96.0
529.775208 80.0
529.976746 88.0
539.06012 36.0
540.382568 96.0
542.777222 100.0
547.340271 96.0
555.561523 136.0
558.784424 116.0
586.608032 52.0
594.249207 72.0
596.11377 208.0
599.534851 64.0
605.108276 40.0
605.5 76.0
640.368835 44.0
666.066467 96.0
672.353088 52.0
719.042236 52.0
720.387817 92.0
763.906189 52.0
776.61084 108.0
778.875488 40.0
792.269226 156.0
796.611206 36.0
797.364136 124.0
798.117432 180.0
831.470947 176.0
846.169434 172.0
872.699463 72.0
882.759033 160.0
883.267639 172.0
885.688599 172.0
911.533997 56.0
912.489685 188.0
912.970703 144.0
935.162537 60.0
943.006042 168.0
949.845398 88.0
960.70282 132.0
963.697083 44.0
966.089722 56.0
966.510437 184.0
973.931152 212.0
980.781799 176.0
988.64502 176.0
1006.100037 28.0
1007.97583 88.0
1026.422363 208.0
1031.440308 152.0
1047.359985 136.0
1055.427002 56.0
1063.557373 160.0
1083.282715 104.0
1085.917725 204.0
1086.448975 84.0
1090.921143 112.0
1092.755981 60.0
1095.916382 156.0
1096.186523 100.0
1124.584839 144.0
1132.842896 164.0
1133.593384 56.0
1134.330566 72.0
1137.69812 92.0
1140.754639 176.0
1142.90686 172.0
1147.405884 144.0
1148.930054 48.0
1150.975098 244.0
1157.764404 192.0
1163.426025 76.0
1165.110229 128.0
1167.611694 164.0
1175.056885 156.0
1192.560059 164.0
1199.250122 84.0
1206.297729 84.0
1210.86438 176.0
1212.575562 164.0
1219.849731 168.0
1227.724487 188.0
1228.11499 180.0
1228.81958 136.0
1231.039185 224.0
1245.853027 152.0
1248.137207 208.0
1253.204956 216.0
1253.832153 256.0
1253.994263 168.0
1255.940186 140.0
1264.262939 112.0
1281.126221 224.0
1283.741943 120.0
1287.345703 44.0
1291.776978 120.0
1293.279663 80.0
1293.702026 68.0
1297.957764 132.0
1304.476685 92.0
1304.749878 144.0
1306.425537 48.0
1308.231812 60.0
1312.345459 148.0
1321.431519 160.0
1323.443604 220.0
1325.623901 112.0
1329.177002 236.0
1330.272949 208.0
1333.338013 124.0
1336.283081 184.0
1336.770508 152.0
1338.073486 108.0
1338.561279 156.0
1338.830688 112.0
1341.009033 124.0
1342.22644 48.0
1343.23291 84.0
1358.97644 132.0
1360.576416 96.0
1365.698242 156.0
1370.136963 136.0
1376.229004 136.0
1378.038574 236.0
1379.701416 192.0
1383.651978 256.0
1388.616699 108.0
1390.783203 156.0
1391.339966 208.0
1392.349854 224.0
1393.515991 184.0
1397.173828 212.0
1398.275146 124.0
1401.454834 140.0
1401.849731 132.0
1404.459106 180.0
1407.070923 224.0
1412.286865 140.0
1416.433594 148.0
1417.812256 140.0
1421.816895 200.0
1423.51355 68.0
1428.804932 172.0
1435.237061 180.0
1439.885498 120.0
1440.550171 192.0
1447.583984 168.0
1448.447388 124.0
1457.460205 180.0
1457.999756 240.0
1462.289062 200.0
1467.751099 132.0
1472.283936 104.0
1472.52063 212.0
1472.726929 144.0
1475.240845 200.0
1475.485474 144.0
1476.632446 116.0
1487.006104 48.0
1489.824097 160.0
1494.944824 176.0
1496.168701 184.0
1497.269775 164.0
1499.63501 236.0
1500.259399 96.0
1504.324829 192.0
