>compound MLS000860044-01!5-Methylurapidil
>formula C21H31N5O3
>ionization [M+H]+
>parentmass 402.24826
#inchi InChI=1S/C21H31N5O3/c1-16-19(23(2)21(28)24(3)20(16)27)22-10-7-11-25-12-14-26(15-13-25)17-8-5-6-9-18(17)29-4/h5-6,8-9,22H,7,10-15H2,1-4H3
#inchikey HIHZDNKKIUQQSC
#Ion_Source LC-ESI
#Instrument qTof
#Compound_Source NIH Pharmacologically Active Library
#PI Dorrestein
#Data_Collector VP/LMS
#Scan -1
#Precursor_MZ 402.248
#ExactMass 401.243
#Charge 1
#CAS_Number N/A
#Pubmed_ID N/A
#Smiles COc1ccccc1N2CCN(CCCNc3c(C)c(=O)n(C)c(=O)n3C)CC2
#INCHI_AUX N/A
#Library_Class 1
#SpectrumID CCMSLIB00000085253
#IonMode Positive
#UpdateWorkflowName UPDATE-SINGLE-ANNOTATED-GOLD
#LibraryQualityString Gold
#TaskID d252d724072548979f1f6f1ced849daf
##Scan# 1366
#SpectrumFile p3-G07_GG7_01_18300.mzXML
#LibraryName Pharm_Active_Library.mgf
#MQScore -1
#Organism Pharm_Active_Library
#TIC_Query 0
#RT_Query -1
#MZErrorPPM -1
#SharedPeaks 0
#MassDiff 0
#LibMZ -1
#SpecMZ 402.248
#SpecCharge 0
#internalFilename spec-00000.mgf

>collision 10
44.956787 168.0
45.044914 148.0
45.13179 144.0
45.209381 124.0
45.226784 136.0
45.24239 188.0
45.258915 144.0
45.284027 176.0
45.296417 160.0
45.345997 84.0
45.382195 140.0
45.406334 256.0
45.570076 132.0
45.689129 144.0
45.709969 60.0
45.76516 128.0
45.868904 140.0
45.881035 164.0
45.909355 172.0
45.928238 60.0
45.943077 216.0
46.016136 184.0
46.15379 164.0
46.195721 140.0
46.291824 156.0
46.325687 152.0
46.341946 140.0
46.378536 128.0
46.537273 268.0
46.666359 160.0
46.756145 184.0
46.784733 168.0
46.809242 68.0
46.874634 128.0
46.905983 140.0
46.959164 160.0
47.009644 220.0
47.053326 188.0
47.097031 208.0
47.225521 140.0
47.25425 124.0
47.292572 128.0
47.302826 112.0
47.414474 140.0
47.467945 132.0
47.494003 72.0
47.775631 132.0
47.789391 244.0
47.808414 184.0
47.825172 204.0
47.86097 180.0
47.913311 116.0
47.945004 212.0
47.976711 192.0
47.986362 124.0
48.019459 60.0
48.056709 204.0
48.151966 144.0
48.172684 140.0
48.29987 184.0
48.393982 84.0
48.429989 96.0
48.516968 168.0
48.585526 208.0
48.611622 244.0
48.627998 220.0
48.693535 180.0
48.813061 132.0
48.824188 196.0
48.857571 152.0
48.97451 136.0
49.059521 176.0
49.135944 236.0
49.152973 180.0
49.261883 104.0
49.306599 220.0
49.363922 156.0
49.424072 52.0
49.506668 160.0
49.519276 208.0
49.568871 156.0
49.680485 204.0
49.955849 208.0
49.998062 152.0
50.060009 100.0
50.144543 52.0
50.351955 168.0
50.440979 152.0
50.494713 160.0
50.517345 64.0
50.557888 172.0
50.622089 200.0
50.673084 192.0
50.758137 156.0
50.782246 152.0
50.836163 76.0
50.965389 168.0
50.989552 28.0
51.030777 156.0
51.045685 204.0
51.081978 212.0
51.100475 148.0
51.158829 160.0
51.183033 224.0
51.21769 192.0
51.472519 144.0
51.502514 132.0
51.581108 216.0
51.598263 196.0
51.659763 204.0
51.815823 136.0
51.845913 180.0
51.900391 116.0
52.006557 132.0
52.035271 144.0
52.055374 204.0
52.09272 188.0
52.222095 132.0
52.256626 124.0
52.275333 96.0
52.347313 204.0
52.383324 148.0
52.403492 56.0
52.432316 192.0
52.540524 104.0
52.631893 248.0
52.666183 196.0
52.678276 208.0
52.80917 152.0
52.869938 232.0
52.917709 256.0
52.966953 52.0
53.022015 76.0
53.049084 208.0
53.084354 124.0
53.161247 96.0
53.204681 156.0
53.239643 244.0
53.332634 148.0
53.357349 116.0
53.393703 96.0
53.553814 228.0
53.575665 204.0
53.60918 164.0
53.71854 136.0
53.747723 108.0
53.779831 76.0
53.854301 152.0
53.905437 220.0
53.91713 108.0
54.177601 184.0
54.262318 220.0
54.322742 156.0
54.353554 184.0
54.36676 92.0
54.396118 188.0
54.432827 188.0
54.497498 160.0
54.523914 188.0
54.622433 148.0
54.718094 228.0
54.859535 92.0
54.881649 120.0
54.93475 192.0
55.010014 160.0
55.0233 200.0
55.052834 48.0
55.085331 180.0
55.147396 92.0
55.17696 72.0
55.218369 132.0
55.240559 180.0
55.259792 148.0
55.45676 160.0
55.489372 148.0
55.538315 92.0
55.579201 116.0
55.699821 220.0
55.752125 208.0
55.775906 68.0
55.836872 200.0
55.927639 140.0
55.946991 168.0
56.103424 176.0
56.123962 260.0
56.170536 140.0
56.288448 188.0
56.330269 56.0
56.402 192.0
56.490303 168.0
56.530632 192.0
56.618965 60.0
56.672894 108.0
56.849606 196.0
56.878368 144.0
56.896385 128.0
56.965469 132.0
56.975986 168.0
57.034595 168.0
57.102261 176.0
57.123322 180.0
57.170948 208.0
57.216629 184.0
57.246746 156.0
57.31303 88.0
57.325085 140.0
57.380859 156.0
57.435154 128.0
57.58308 112.0
57.734222 180.0
57.772038 188.0
57.800785 220.0
57.911308 160.0
57.958275 184.0
58.032551 184.0
58.088039 216.0
58.117496 200.0
58.146328 232.0
58.187317 148.0
58.223763 160.0
58.261738 116.0
58.279972 164.0
58.311886 180.0
58.393993 184.0
58.447243 192.0
58.503559 164.0
58.547718 164.0
58.651329 140.0
58.668098 84.0
58.697071 168.0
58.825237 136.0
58.869518 172.0
58.948959 88.0
58.981056 168.0
59.212109 56.0
59.331638 148.0
59.369972 208.0
59.45282 176.0
59.50655 132.0
59.52037 160.0
59.681717 116.0
59.693974 132.0
59.732475 300.0
59.89257 116.0
59.914181 148.0
59.958828 120.0
60.032829 144.0
60.049797 136.0
60.103626 184.0
60.151638 136.0
60.281384 140.0
60.532001 84.0
60.605618 168.0
60.629604 140.0
60.676109 184.0
60.725731 304.0
60.776928 136.0
60.8297 152.0
60.856094 216.0
60.874729 156.0
60.947235 160.0
60.997166 160.0
61.046825 168.0
61.076786 140.0
61.131077 188.0
61.380497 132.0
61.427292 148.0
61.43977 100.0
61.562504 128.0
61.780361 144.0
61.828873 152.0
61.86644 44.0
61.974514 180.0
62.015263 192.0
62.034073 200.0
62.187805 48.0
62.234901 164.0
62.352726 156.0
62.368446 104.0
62.532032 144.0
62.590282 100.0
62.640686 128.0
62.673771 152.0
62.689335 192.0
62.714748 136.0
62.823559 144.0
62.84407 176.0
62.905624 116.0
63.001961 148.0
63.020924 132.0
63.139179 184.0
63.259388 140.0
63.312 164.0
63.342098 192.0
63.366508 176.0
63.446693 148.0
63.511715 80.0
63.590927 152.0
63.616451 212.0
63.63868 224.0
63.670441 136.0
63.763901 136.0
63.795975 176.0
63.886803 220.0
63.926407 180.0
63.963017 156.0
64.006004 112.0
64.030388 180.0
64.096802 192.0
64.131866 176.0
64.23233 212.0
64.261047 168.0
64.339256 124.0
64.39994 112.0
64.489418 168.0
64.663765 76.0
64.727058 188.0
64.783867 144.0
64.799889 200.0
64.819122 88.0
64.841553 40.0
64.85598 144.0
64.872009 164.0
64.937759 104.0
65.014771 164.0
65.061325 204.0
65.093437 84.0
65.209114 212.0
65.260559 120.0
65.291115 168.0
65.312027 152.0
65.3265 128.0
65.376381 184.0
65.411797 160.0
65.58094 144.0
65.66156 172.0
65.680916 144.0
65.782578 208.0
65.835861 212.0
65.856865 40.0
65.921486 164.0
65.978065 192.0
66.000702 180.0
66.026573 52.0
66.05246 116.0
66.107468 128.0
66.139839 32.0
66.222427 140.0
66.271027 72.0
66.303085 160.0
66.412071 88.0
66.514305 148.0
66.60849 152.0
66.634483 108.0
66.777542 252.0
66.852386 148.0
66.893082 196.0
66.96981 196.0
67.002197 48.0
67.021751 152.0
67.06086 56.0
67.261497 148.0
67.300682 148.0
67.413399 144.0
67.428108 172.0
67.621117 148.0
67.655487 84.0
67.696426 180.0
67.719353 172.0
67.770142 124.0
67.794724 156.0
67.807838 164.0
67.866852 116.0
67.909492 44.0
68.03421 144.0
68.140808 164.0
68.283989 172.0
68.33828 180.0
68.395882 180.0
68.509514 108.0
68.544113 140.0
68.555649 124.0
68.575432 180.0
68.634781 192.0
68.946793 196.0
69.045998 144.0
69.108856 108.0
69.138649 148.0
69.368347 220.0
69.501579 212.0
69.52813 244.0
69.591217 156.0
69.734085 144.0
69.793938 196.0
69.837181 188.0
69.865456 228.0
69.921707 184.0
70.051918 200.0
70.141907 136.0
70.17025 64.0
70.201935 148.0
70.295357 172.0
70.31205 164.0
70.382164 320.0
70.407837 192.0
70.4991 212.0
70.546936 172.0
70.66732 168.0
70.724899 148.0
70.822021 216.0
70.912682 172.0
70.94268 208.0
70.956093 152.0
70.982918 156.0
71.018143 192.0
71.060081 176.0
71.096184 76.0
71.199417 168.0
71.263252 164.0
71.315353 192.0
71.332161 148.0
71.391014 140.0
71.535721 96.0
71.547501 228.0
71.57444 240.0
71.742935 108.0
71.778343 160.0
71.793526 156.0
71.815453 200.0
71.832321 128.0
71.920944 184.0
71.989296 156.0
72.166733 248.0
72.212563 196.0
72.24453 172.0
72.266525 172.0
72.30545 164.0
72.330841 136.0
72.369781 140.0
72.621109 160.0
72.7108 176.0
72.749573 56.0
72.819191 180.0
72.951736 152.0
73.009552 264.0
73.077599 160.0
73.098015 136.0
73.143974 164.0
73.242737 204.0
73.254662 200.0
73.274742 112.0
73.323013 144.0
73.455826 164.0
73.576996 240.0
73.638474 60.0
73.708961 184.0
73.728806 152.0
73.74971 160.0
73.787148 172.0
74.007874 204.0
74.064392 116.0
74.458908 184.0
74.653114 172.0
74.729065 208.0
74.744293 136.0
74.853424 196.0
75.019875 212.0
75.10955 184.0
75.152679 76.0
75.273521 148.0
75.294243 188.0
75.371986 188.0
75.448036 152.0
75.48954 64.0
75.541428 220.0
75.555046 124.0
75.619293 200.0
75.646996 180.0
75.738777 80.0
75.782776 260.0
75.806717 204.0
76.040482 204.0
76.226318 208.0
76.268028 112.0
76.30674 196.0
76.323662 208.0
76.351486 112.0
76.432129 148.0
76.502876 144.0
76.612595 112.0
76.649185 156.0
76.696243 164.0
76.711937 80.0
76.764244 100.0
76.779938 200.0
77.041779 128.0
77.073227 204.0
77.127411 156.0
77.304062 144.0
77.356575 52.0
77.370575 52.0
77.388962 184.0
77.466194 184.0
77.494934 244.0
77.53524 132.0
77.601852 140.0
77.649208 132.0
77.682533 232.0
77.729904 200.0
77.748268 208.0
77.798363 168.0
77.92482 152.0
77.9916 276.0
78.035553 120.0
78.051376 216.0
78.074242 100.0
78.09359 112.0
78.125252 116.0
78.242554 140.0
78.318893 168.0
78.385849 144.0
78.431671 208.0
78.525131 180.0
78.588638 224.0
78.623932 196.0
78.646881 184.0
78.701607 108.0
78.728096 152.0
78.791687 152.0
78.860611 124.0
79.009712 192.0
79.131279 216.0
79.143677 104.0
79.303123 56.0
79.319077 240.0
79.33503 108.0
79.416573 204.0
79.459183 132.0
79.471603 212.0
79.634933 64.0
79.810875 176.0
79.930061 120.0
80.124031 184.0
80.268524 172.0
80.305977 44.0
80.384483 204.0
80.418388 136.0
80.445168 192.0
80.488022 140.0
80.523735 176.0
80.548744 172.0
80.588051 164.0
80.614853 156.0
80.706024 228.0
80.763931 144.0
80.813347 180.0
80.874199 164.0
80.915375 108.0
80.933281 160.0
80.961929 196.0
81.049713 188.0
81.119614 156.0
81.139336 220.0
81.325905 208.0
81.361809 84.0
81.4552 40.0
81.512695 112.0
81.554138 132.0
81.64753 144.0
81.73748 204.0
81.868896 184.0
81.949959 144.0
82.005829 216.0
82.090569 168.0
82.13205 172.0
82.257286 160.0
82.294479 96.0
82.308922 200.0
82.328789 116.0
82.343239 120.0
82.565544 152.0
82.58725 152.0
82.688583 112.0
82.842499 132.0
82.98024 120.0
83.04734 144.0
83.089218 144.0
83.114471 176.0
83.139877 252.0
83.170731 184.0
83.187073 92.0
83.256943 176.0
83.363258 204.0
83.388702 188.0
83.40506 168.0
83.42688 52.0
83.445061 112.0
83.465057 168.0
83.526901 120.0
83.594215 116.0
83.643364 40.0
83.781769 140.0
83.936699 120.0
84.049797 200.0
84.079002 168.0
84.144714 44.0
84.316429 96.0
84.352989 108.0
84.376755 196.0
84.50296 136.0
84.764809 248.0
84.876633 68.0
84.916985 148.0
85.151924 224.0
85.179474 212.0
85.238266 60.0
85.265839 152.0
85.377991 212.0
85.446053 168.0
85.562004 220.0
85.654083 168.0
85.797829 188.0
85.965691 200.0
86.026604 176.0
86.072762 160.0
86.085686 56.0
86.220551 60.0
86.307442 136.0
86.394371 192.0
86.433228 124.0
86.535454 160.0
86.65358 176.0
86.716583 208.0
86.829689 144.0
86.844177 168.0
86.916885 208.0
87.048683 180.0
87.0784 144.0
87.109978 164.0
87.188591 156.0
87.210327 248.0
87.246376 92.0
87.39444 120.0
87.500237 124.0
87.505074 220.0
87.530327 112.0
87.570992 192.0
87.606697 164.0
87.640236 380.0
87.817345 152.0
87.852783 180.0
87.877045 148.0
87.994629 124.0
88.020981 180.0
88.185532 192.0
88.246872 176.0
88.336647 200.0
88.417107 172.0
88.460159 132.0
88.50135 180.0
88.516335 160.0
88.535057 168.0
88.668083 200.0
89.109085 168.0
89.242538 152.0
89.310242 236.0
89.445724 104.0
89.509743 192.0
89.547661 180.0
89.611458 144.0
89.70993 196.0
89.743401 196.0
89.920738 208.0
89.949051 136.0
89.986809 168.0
90.035904 160.0
90.113358 168.0
90.136032 164.0
90.151154 76.0
90.164383 208.0
90.194626 176.0
90.232437 88.0
90.297058 208.0
90.565506 152.0
90.694359 152.0
90.732277 180.0
90.781097 204.0
90.827095 212.0
90.868835 68.0
90.912483 76.0
90.94854 136.0
90.96183 172.0
91.052284 204.0
91.200378 172.0
91.222092 144.0
91.25441 100.0
91.284836 236.0
91.379944 216.0
91.393265 144.0
91.444649 140.0
91.477013 252.0
91.522705 84.0
91.641861 200.0
91.741821 256.0
91.807915 164.0
91.905846 168.0
92.022285 136.0
92.048302 180.0
92.167458 164.0
92.284058 192.0
92.301262 68.0
92.500252 232.0
92.599823 128.0
92.628555 152.0
92.72628 128.0
92.92572 132.0
92.964096 212.0
92.985207 116.0
93.035599 224.0
93.066826 168.0
93.169556 140.0
93.26757 120.0
93.42141 144.0
93.454117 180.0
93.46759 188.0
93.511856 132.0
93.538803 168.0
93.560257 140.0
93.579231 60.0
93.667824 240.0
93.692871 148.0
93.714066 92.0
93.756462 52.0
93.862488 72.0
94.038055 176.0
94.062355 172.0
94.11528 160.0
94.165489 196.0
94.447701 184.0
94.567665 116.0
94.676094 184.0
94.720642 144.0
94.736145 132.0
94.757454 192.0
94.798149 112.0
94.904762 116.0
94.970703 112.0
95.00174 136.0
95.05069 204.0
95.093117 180.0
95.205315 160.0
95.236145 160.0
95.302689 128.0
95.335724 208.0
95.384315 264.0
95.442642 208.0
95.483948 168.0
95.637199 136.0
95.728706 216.0
95.76181 48.0
95.777397 108.0
96.021042 144.0
96.042908 1368.0
96.08062 848.0
96.149818 144.0
96.274765 176.0
96.33532 64.0
96.438889 108.0
96.454529 136.0
96.575768 184.0
96.802803 160.0
96.861557 128.0
96.885071 140.0
97.045784 148.0
97.074089 1160.0
97.1007 168.0
97.116386 52.0
97.275337 220.0
97.420662 184.0
97.495331 80.0
97.589691 148.0
97.636887 68.0
97.689995 132.0
97.735825 192.0
97.790352 56.0
98.001297 180.0
98.016838 212.0
98.059357 1732.0
98.082756 988.0
98.096825 372.0
98.137085 240.0
98.219917 252.0
98.474548 92.0
98.496277 48.0
98.601006 108.0
98.686012 108.0
98.846237 120.0
98.862068 144.0
98.937286 72.0
98.964851 156.0
98.992729 124.0
99.046204 168.0
99.085556 116.0
99.124527 204.0
99.188881 40.0
99.214653 180.0
99.268196 52.0
99.321747 176.0
99.36142 144.0
99.391182 176.0
99.484474 144.0
99.518402 144.0
99.561913 196.0
99.706947 208.0
99.766579 164.0
99.901817 120.0
99.971458 164.0
100.168579 104.0
100.274193 180.0
100.433708 180.0
100.493561 200.0
100.51152 32.0
100.535461 168.0
100.633278 224.0
100.677216 172.0
100.71244 144.0
100.733139 172.0
100.779091 128.0
100.851036 148.0
101.003014 180.0
101.099617 412.0
101.129074 184.0
101.1744 164.0
101.351379 140.0
101.467636 48.0
101.483673 136.0
101.57299 152.0
101.835716 184.0
101.852951 160.0
101.879066 148.0
101.991608 128.0
102.043877 212.0
102.150467 220.0
102.301407 180.0
102.392021 104.0
102.518944 140.0
102.546204 224.0
102.595543 136.0
102.619736 128.0
102.740753 200.0
102.837616 208.0
103.053703 156.0
103.071892 180.0
103.106247 124.0
103.174973 160.0
103.253838 332.0
103.29834 108.0
103.336777 212.0
103.39344 184.0
103.421776 140.0
103.583778 156.0
103.630379 132.0
103.761902 184.0
103.782402 200.0
103.827011 144.0
103.859467 128.0
104.040077 76.0
104.131462 200.0
104.188339 212.0
104.289062 240.0
104.345116 232.0
104.438385 116.0
104.457275 224.0
104.474998 172.0
104.527901 216.0
104.556396 124.0
104.619499 148.0
104.660217 228.0
104.688728 148.0
104.713173 108.0
104.745758 36.0
104.851715 112.0
104.876175 100.0
105.012794 260.0
105.052795 212.0
105.06955 584.0
105.243408 60.0
105.282204 144.0
105.353699 188.0
105.502892 76.0
105.521027 124.0
105.568321 128.0
105.617409 180.0
105.80159 160.0
105.81797 188.0
106.010521 188.0
106.062393 1612.0
106.252487 196.0
106.344833 148.0
106.435165 148.0
106.539917 96.0
106.558411 144.0
106.583069 132.0
106.624168 148.0
106.706398 132.0
106.720787 84.0
106.782486 88.0
106.835968 144.0
106.858017 168.0
107.048462 616.0
107.065483 276.0
107.093292 160.0
107.491203 40.0
107.695602 160.0
107.883652 188.0
107.960159 196.0
108.045609 344.0
108.074242 160.0
108.173279 92.0
108.187767 148.0
108.206406 172.0
108.303741 128.0
108.337563 244.0
108.35553 200.0
108.39283 168.0
108.523422 164.0
108.654091 208.0
108.93644 156.0
108.971764 152.0
109.051743 172.0
109.086067 180.0
109.196274 168.0
109.23996 248.0
109.406448 128.0
109.439766 156.0
109.475166 72.0
109.570984 212.0
109.606407 100.0
109.62516 168.0
109.666847 124.0
109.75441 120.0
109.778023 184.0
109.804794 204.0
109.84201 68.0
109.897537 104.0
109.981819 168.0
110.050713 48.0
110.091072 240.0
110.209465 200.0
110.226181 112.0
110.29306 176.0
110.320236 124.0
110.353691 160.0
110.537766 144.0
110.688118 156.0
110.954597 172.0
110.99234 52.0
111.009117 128.0
111.057358 156.0
111.084625 184.0
111.202713 176.0
111.269318 108.0
111.305008 160.0
111.340828 148.0
111.378838 212.0
111.412132 44.0
111.42894 204.0
111.670692 104.0
111.689629 164.0
111.76825 224.0
111.788513 160.0
111.83271 96.0
111.853256 200.0
111.889984 176.0
112.024338 232.0
112.073029 148.0
112.231728 104.0
112.270958 188.0
112.342674 184.0
112.377228 192.0
112.401756 208.0
112.439743 224.0
112.593872 176.0
112.707947 124.0
112.752327 116.0
112.809662 224.0
112.868599 140.0
112.919357 120.0
112.946854 168.0
113.06958 44.0
113.118263 184.0
113.160606 172.0
113.197678 172.0
113.308868 188.0
113.36396 168.0
113.440269 148.0
113.529327 160.0
113.561142 200.0
113.585289 156.0
113.6269 140.0
113.654488 124.0
113.766975 132.0
113.786087 132.0
114.02401 96.0
114.051643 152.0
114.16433 116.0
114.18985 140.0
114.211121 204.0
114.266434 132.0
114.374969 172.0
114.394127 144.0
114.423935 188.0
114.464394 180.0
114.67318 84.0
114.749924 112.0
114.849373 212.0
115.056412 172.0
115.114815 168.0
115.136169 128.0
115.21093 140.0
115.228027 188.0
115.382568 196.0
115.505951 220.0
115.647179 108.0
115.679291 192.0
115.719971 52.0
115.734955 48.0
115.98777 88.0
116.044823 176.0
116.067093 140.0
116.173676 168.0
116.204376 156.0
116.313828 244.0
116.341736 144.0
116.470589 72.0
116.586609 256.0
116.625298 176.0
116.737099 256.0
116.756142 244.0
116.782265 88.0
116.855415 316.0
116.943649 216.0
117.014008 216.0
117.057419 736.0
117.123207 144.0
117.146065 180.0
117.415504 72.0
117.575165 200.0
117.627167 172.0
117.643478 160.0
117.886154 156.0
117.946678 236.0
117.983429 148.0
118.005051 192.0
118.063477 1180.0
118.286301 164.0
118.368576 140.0
118.401062 92.0
118.416222 104.0
118.435715 136.0
118.455215 184.0
118.479042 176.0
118.585228 164.0
118.611237 312.0
118.658936 72.0
118.67411 44.0
118.723984 176.0
118.834618 208.0
118.906235 148.0
118.984383 104.0
119.037659 164.0
119.073296 608.0
119.103828 172.0
119.150795 232.0
119.268974 212.0
119.323326 36.0
119.388557 160.0
119.423355 104.0
119.460335 140.0
119.547371 208.0
119.640968 112.0
119.691048 56.0
119.73896 140.0
119.765099 172.0
119.869682 116.0
120.015732 164.0
120.043701 2332.0
120.077339 192.0
120.113876 76.0
120.141365 200.0
120.147911 120.0
120.153603 152.0
120.188057 52.0
120.238251 100.0
120.401993 180.0
120.50248 148.0
120.517776 144.0
120.563667 144.0
120.668594 144.0
120.688873 176.0
120.887344 100.0
120.992409 104.0
121.059669 1100.0
121.099716 168.0
121.167 224.0
121.264046 144.0
121.549156 144.0
121.63562 192.0
121.689636 200.0
121.759911 232.0
121.944473 156.0
121.990631 116.0
122.063705 340.0
122.126968 124.0
122.150658 172.0
122.250183 152.0
122.309608 168.0
122.481369 152.0
122.521027 140.0
122.560684 176.0
122.79998 228.0
122.80365 288.0
122.829659 180.0
123.067719 612.0
123.09063 380.0
123.114395 136.0
123.158569 72.0
123.25 52.0
123.277473 196.0
123.353027 204.0
123.370712 180.0
123.425987 148.0
123.54985 108.0
123.630013 160.0
123.733551 172.0
123.75959 184.0
123.787521 196.0
123.842064 160.0
123.870392 132.0
123.903511 212.0
123.968506 176.0
123.988297 140.0
124.07943 316.0
124.161232 196.0
124.181198 152.0
124.207809 156.0
124.274368 188.0
124.498581 132.0
124.527451 96.0
124.54744 196.0
124.598541 148.0
124.666313 160.0
124.794128 104.0
124.843056 172.0
124.907555 180.0
125.004379 172.0
125.041061 56.0
125.070068 1928.0
125.105286 564.0
125.221413 144.0
125.274971 180.0
125.408577 176.0
125.511131 136.0
125.536034 72.0
125.63604 132.0
125.662811 260.0
125.765472 168.0
125.844528 184.0
125.872635 52.0
126.078735 220.0
126.109459 148.0
126.16758 172.0
126.236893 128.0
126.368874 92.0
126.518829 144.0
126.581528 164.0
126.801079 192.0
126.848152 148.0
126.921432 152.0
126.964195 244.0
127.011856 184.0
127.051239 196.0
127.085197 168.0
127.182388 188.0
127.301392 144.0
127.415947 56.0
127.45639 172.0
127.51033 116.0
127.536179 160.0
127.622734 148.0
127.678955 180.0
127.721687 104.0
127.817268 224.0
127.825462 256.0
127.93998 136.0
128.050323 72.0
128.151688 216.0
128.392899 68.0
128.476364 192.0
128.577911 208.0
128.627563 172.0
128.64563 192.0
128.681747 156.0
128.70488 260.0
128.839859 160.0
128.8647 116.0
128.932495 232.0
128.970917 104.0
129.016129 200.0
129.096268 144.0
129.201584 184.0
129.246841 124.0
129.267212 152.0
129.382645 152.0
129.432465 184.0
129.448318 184.0
129.679413 228.0
129.708878 56.0
129.740616 220.0
129.844925 112.0
129.888016 68.0
129.952271 188.0
129.971176 160.0
130.012817 144.0
130.062057 780.0
130.212616 48.0
130.639954 172.0
130.733246 120.0
130.776489 96.0
130.806091 128.0
130.833405 208.0
130.938156 180.0
131.036102 140.0
131.060165 1104.0
131.203552 160.0
131.280014 208.0
131.305099 172.0
131.437424 176.0
131.473938 44.0
131.551544 196.0
131.583511 212.0
131.688553 84.0
131.710632 132.0
131.743378 124.0
131.763947 124.0
131.7845 204.0
131.857315 224.0
131.901062 240.0
131.967361 208.0
132.044113 472.0
132.062149 272.0
132.081177 544.0
132.141205 100.0
132.205276 64.0
132.500656 60.0
132.551071 248.0
132.571289 220.0
132.807861 172.0
132.844559 172.0
132.945755 200.0
132.97995 172.0
133.012085 192.0
133.053787 860.0
133.090149 100.0
133.107666 120.0
133.163635 44.0
133.435257 204.0
133.509933 196.0
133.65332 288.0
133.717758 196.0
133.749985 128.0
133.869705 124.0
133.931885 400.0
133.952621 72.0
134.059647 6748.0
134.095291 972.0
134.137207 80.0
134.171555 148.0
134.197998 140.0
134.217682 112.0
134.263794 92.0
134.286865 188.0
134.309921 92.0
134.42067 144.0
134.447296 112.0
134.579956 108.0
134.598419 48.0
134.633072 128.0
134.727768 172.0
134.755493 108.0
134.792465 156.0
134.872131 272.0
134.914978 76.0
134.954285 84.0
134.970459 164.0
134.995895 40.0
135.065079 1416.0
135.07843 1116.0
135.145691 176.0
135.231888 60.0
135.254456 204.0
135.289764 40.0
135.41481 176.0
135.481995 84.0
135.542236 184.0
135.627991 172.0
135.695221 164.0
135.725357 120.0
135.763474 172.0
135.864532 116.0
135.888824 160.0
136.022339 204.0
136.074753 1440.0
136.18721 208.0
136.215073 184.0
136.684738 44.0
136.749908 68.0
136.843719 148.0
136.975769 204.0
137.077026 184.0
137.165466 240.0
137.232132 140.0
137.29277 120.0
137.467743 140.0
137.584442 60.0
137.614807 76.0
137.68486 128.0
138.082184 140.0
138.138397 124.0
138.210861 52.0
138.252975 96.0
138.281067 192.0
138.367676 108.0
138.538651 60.0
138.578476 244.0
138.955978 136.0
139.007599 176.0
139.035767 108.0
139.087402 196.0
139.207138 132.0
139.230621 100.0
139.383881 220.0
139.40683 164.0
139.423279 136.0
139.48674 212.0
139.533768 132.0
139.575607 120.0
139.641937 184.0
139.777313 180.0
139.799576 148.0
139.856049 160.0
139.910202 212.0
139.97142 164.0
140.070343 200.0
140.183441 72.0
140.24707 52.0
140.334305 96.0
140.40976 52.0
140.435715 92.0
140.615036 156.0
140.655151 140.0
140.692932 172.0
140.751953 192.0
140.777939 156.0
140.81572 112.0
140.950394 172.0
140.976379 108.0
141.018921 168.0
141.039337 208.0
141.065582 432.0
141.125305 96.0
141.297974 192.0
141.482574 192.0
141.522827 148.0
141.617554 112.0
141.705215 156.0
141.740753 148.0
141.765594 324.0
141.800003 164.0
141.835556 144.0
141.890091 180.0
142.037125 180.0
142.066422 496.0
142.084564 188.0
142.298172 216.0
142.390793 156.0
142.557098 64.0
142.673569 208.0
142.778198 52.0
142.851944 40.0
142.887619 48.0
142.951874 48.0
142.987564 120.0
143.07608 240.0
143.1185 116.0
143.18042 76.0
143.256653 224.0
143.306686 52.0
143.33844 252.0
143.485443 136.0
143.690552 60.0
143.802719 88.0
143.85524 120.0
143.924469 180.0
144.039108 52.0
144.078308 316.0
144.490952 112.0
144.522064 140.0
144.603424 136.0
144.636932 136.0
144.670456 196.0
144.689606 80.0
144.88678 140.0
145.024994 92.0
145.07431 524.0
145.168839 144.0
145.382355 172.0
145.425568 80.0
145.48558 160.0
145.604874 188.0
145.636856 172.0
145.653671 168.0
145.680099 152.0
145.74498 160.0
145.768997 140.0
145.788223 176.0
145.821884 164.0
145.857925 56.0
145.92955 192.0
146.026245 172.0
146.058731 740.0
146.082855 2668.0
146.148163 84.0
146.168198 240.0
146.230774 128.0
146.302979 236.0
146.469147 104.0
146.594437 140.0
146.760773 148.0
146.796936 144.0
146.830109 192.0
146.850006 260.0
147.066269 884.0
147.085205 640.0
147.144409 40.0
147.365356 336.0
147.405289 204.0
147.443954 148.0
147.482727 96.0
147.610764 204.0
147.818817 76.0
147.863373 212.0
147.922882 120.0
147.954361 96.0
147.980988 152.0
148.073715 1464.0
148.133575 68.0
148.242615 124.0
148.329865 84.0
148.358948 144.0
148.424423 124.0
148.519012 196.0
148.642746 128.0
148.737396 104.0
148.870941 56.0
148.912231 160.0
148.946228 188.0
149.050705 168.0
149.079987 824.0
149.118759 132.0
149.228149 132.0
149.284073 96.0
149.301102 140.0
149.32785 140.0
149.473831 180.0
149.504715 208.0
149.646652 100.0
149.673447 104.0
149.758682 192.0
149.795227 164.0
149.839066 340.0
149.94873 160.0
150.060867 140.0
150.090271 3072.0
150.189941 160.0
150.214523 156.0
150.236481 52.0
150.317001 60.0
150.343842 136.0
150.382889 60.0
150.429276 176.0
150.458572 148.0
150.502518 76.0
150.690598 60.0
150.709961 212.0
150.86412 132.0
150.937469 176.0
150.966827 76.0
151.005951 172.0
151.092911 1032.0
151.120544 176.0
151.157639 80.0
151.524933 140.0
151.556778 316.0
151.588638 204.0
151.718826 144.0
151.80191 152.0
151.827209 152.0
151.897568 112.0
151.929474 228.0
151.985901 176.0
152.093887 196.0
152.182541 180.0
152.292786 212.0
152.366638 128.0
152.395966 104.0
152.506561 104.0
152.650711 108.0
152.713104 152.0
152.735245 140.0
152.794281 212.0
152.823807 84.0
152.853333 332.0
152.880402 280.0
153.036621 200.0
153.100479 3196.0
153.158203 228.0
153.190659 44.0
153.242386 92.0
153.313858 44.0
153.407516 92.0
153.646744 92.0
153.757797 32.0
153.841721 144.0
154.0802 220.0
154.104721 320.0
154.140579 316.0
154.175186 80.0
154.241913 60.0
154.422424 124.0
154.462006 64.0
154.558487 208.0
154.586182 152.0
154.634079 108.0
154.65181 68.0
154.687195 188.0
154.709473 128.0
154.82338 192.0
154.855576 60.0
154.887772 112.0
154.964584 52.0
154.996796 200.0
155.016617 152.0
155.045685 164.0
155.081161 16488.0
155.160385 160.0
155.205017 208.0
155.233841 68.0
155.261429 156.0
155.304214 64.0
155.356308 56.0
155.41684 116.0
155.479828 164.0
155.50824 164.0
155.546753 172.0
155.614426 164.0
155.671539 200.0
155.773376 172.0
155.801163 216.0
155.88768 144.0
155.9104 164.0
155.977158 48.0
156.004013 144.0
156.051575 184.0
156.083511 1260.0
156.151215 100.0
156.198471 140.0
156.240768 88.0
156.270615 200.0
156.400024 160.0
156.427414 92.0
156.446533 164.0
156.536972 128.0
156.624146 84.0
156.666489 360.0
156.836761 160.0
156.878326 68.0
156.94957 132.0
157.003006 116.0
157.054932 192.0
157.073502 176.0
157.096802 172.0
157.11525 184.0
157.190109 68.0
157.213486 152.0
157.232635 184.0
157.257492 100.0
157.30162 180.0
157.343887 72.0
157.424774 144.0
157.472214 136.0
157.613007 124.0
157.696152 192.0
157.837097 140.0
157.912125 100.0
157.969666 196.0
158.062408 344.0
158.087265 140.0
158.107285 136.0
158.139816 292.0
158.20491 216.0
158.277512 176.0
158.31604 156.0
158.40274 164.0
158.60321 136.0
158.653351 140.0
158.731079 208.0
158.783752 108.0
158.910309 164.0
158.981949 140.0
159.009552 220.0
159.067657 796.0
159.089859 936.0
159.145126 84.0
159.310883 188.0
159.577301 140.0
159.597412 164.0
159.689407 180.0
159.83638 120.0
159.871613 96.0
159.979843 168.0
160.00502 180.0
160.070312 500.0
160.135971 152.0
160.163681 60.0
160.380386 72.0
160.46106 176.0
160.524094 188.0
160.564453 200.0
160.609848 228.0
160.644028 200.0
160.690582 60.0
160.718338 180.0
160.741043 112.0
160.781433 172.0
160.811707 180.0
160.907639 40.0
160.929413 212.0
160.983398 112.0
161.026337 132.0
161.074997 472.0
161.104538 200.0
161.261307 156.0
161.585007 160.0
161.671036 136.0
161.714066 168.0
161.752045 52.0
161.820389 240.0
161.881165 144.0
161.977875 156.0
162.090714 25464.0
162.208023 64.0
162.228302 152.0
162.263687 200.0
162.284073 100.0
162.350006 100.0
162.415283 152.0
162.4608 112.0
162.56015 168.0
162.588486 96.0
162.669724 96.0
162.715408 88.0
162.748428 64.0
162.792236 204.0
162.830322 64.0
162.939835 112.0
163.007523 104.0
163.048187 188.0
163.064529 184.0
163.093445 2732.0
163.155746 44.0
163.188004 136.0
163.2117 212.0
163.264297 104.0
163.403168 88.0
163.448868 72.0
163.466599 84.0
163.485626 104.0
163.595078 140.0
163.635818 188.0
164.01796 60.0
164.043594 144.0
164.09877 308.0
164.150864 128.0
164.181137 72.0
164.204102 136.0
164.234711 120.0
164.385239 104.0
164.474564 132.0
164.548599 164.0
164.63031 40.0
164.700439 212.0
164.775925 72.0
164.862793 120.0
164.885803 144.0
164.934372 32.0
164.980377 40.0
165.049423 144.0
165.102219 172.0
165.195206 236.0
165.22847 216.0
165.256607 116.0
165.361526 140.0
165.919983 84.0
165.955872 196.0
166.012283 180.0
166.03537 52.0
166.058456 160.0
166.353546 36.0
166.386932 148.0
166.530731 116.0
166.584671 96.0
166.76712 72.0
166.805679 224.0
166.965103 192.0
167.126022 204.0
167.181213 308.0
167.281601 112.0
167.456696 200.0
167.647354 116.0
167.69632 184.0
167.727249 236.0
167.778809 132.0
167.799438 100.0
167.902588 176.0
168.191574 80.0
168.325241 88.0
168.418808 132.0
168.483398 132.0
168.568665 124.0
168.602264 180.0
168.710831 228.0
168.834946 104.0
169.049667 100.0
169.0905 160.0
169.119553 124.0
169.192596 148.0
169.388855 104.0
169.463989 92.0
169.520996 140.0
169.66478 128.0
169.751724 152.0
169.76886 68.0
169.809891 156.0
169.935898 48.0
169.972229 172.0
170.060455 168.0
170.092773 220.0
170.281158 140.0
170.447632 184.0
170.528 164.0
170.610825 116.0
170.855652 136.0
170.897278 120.0
171.08989 120.0
171.108109 152.0
171.152374 124.0
171.261765 108.0
171.459778 228.0
171.660522 160.0
171.691818 168.0
171.73616 184.0
171.856171 144.0
171.934448 136.0
171.978821 76.0
172.0728 164.0
172.109741 168.0
172.357513 180.0
172.799408 116.0
172.85437 100.0
173.032364 44.0
173.071243 148.0
173.109436 184.0
173.207825 132.0
173.27594 168.0
173.309998 72.0
173.362411 200.0
173.471161 188.0
173.591461 204.0
173.629822 96.0
173.662613 132.0
173.705902 168.0
173.732132 48.0
173.802963 128.0
174.088821 1688.0
174.113388 1480.0
174.228333 144.0
174.378113 128.0
174.506927 172.0
174.529602 128.0
174.609482 136.0
174.643677 68.0
174.746277 212.0
174.83049 72.0
174.868515 152.0
174.887375 176.0
174.970337 220.0
174.997101 204.0
175.055405 280.0
175.085526 7072.0
175.118912 340.0
175.178055 148.0
175.212296 180.0
175.425781 72.0
175.570801 144.0
175.634094 96.0
175.72644 108.0
175.773941 68.0
175.802963 36.0
175.995667 168.0
176.10408 1116.0
176.202515 204.0
176.297226 284.0
176.481857 176.0
176.508301 64.0
176.542679 88.0
176.656418 108.0
176.69162 144.0
176.944901 128.0
177.005798 60.0
177.10141 6068.0
177.159424 172.0
177.244217 172.0
177.291916 56.0
177.351242 124.0
177.400589 176.0
177.443665 112.0
177.503998 160.0
177.522552 196.0
177.607437 80.0
177.655182 168.0
177.701904 44.0
177.803772 180.0
177.907303 160.0
177.963058 192.0
178.05069 92.0
178.102997 584.0
178.148972 140.0
178.202118 120.0
178.252594 80.0
178.284485 140.0
178.345627 88.0
178.417404 164.0
178.555679 84.0
178.62886 160.0
178.720612 200.0
178.819077 140.0
178.841293 136.0
178.976151 128.0
179.061371 84.0
179.106659 160.0
179.197235 116.0
179.221207 196.0
179.308197 188.0
179.469116 176.0
179.538437 180.0
179.647812 208.0
179.762543 208.0
179.896606 176.0
179.952057 140.0
180.074905 144.0
180.189774 64.0
180.229858 112.0
180.363495 80.0
180.398239 72.0
180.542633 156.0
180.61647 152.0
180.652298 120.0
180.729889 60.0
181.089676 368.0
181.105179 176.0
181.332443 168.0
181.7052 208.0
181.758865 104.0
181.901108 180.0
181.933334 220.0
181.966034 240.0
182.089981 6592.0
182.137421 100.0
182.156235 136.0
182.309387 100.0
182.427658 100.0
182.516373 84.0
182.675064 52.0
182.74501 36.0
182.884964 184.0
182.925339 144.0
182.981873 80.0
183.096313 1576.0
183.135376 132.0
183.212814 188.0
183.32756 96.0
183.461441 212.0
183.553116 56.0
183.615143 172.0
183.701462 76.0
183.844467 56.0
183.903854 76.0
183.95784 200.0
183.984833 148.0
184.103638 148.0
184.427872 56.0
184.530594 44.0
184.563049 112.0
184.59549 92.0
184.649582 48.0
184.695572 88.0
184.768616 268.0
184.909332 208.0
185.108887 140.0
185.247803 128.0
185.402252 148.0
185.437485 140.0
185.502548 160.0
185.586594 104.0
185.730331 152.0
185.803574 80.0
185.852417 108.0
185.887695 220.0
185.920258 168.0
186.066849 196.0
186.105179 164.0
186.131363 64.0
186.172592 208.0
186.553146 128.0
186.933228 132.0
187.090225 216.0
187.11795 352.0
187.17746 248.0
187.206177 196.0
187.470444 84.0
188.062286 332.0
188.101654 224.0
188.133255 196.0
188.179672 64.0
188.24794 72.0
188.379044 152.0
188.430954 192.0
188.641403 160.0
188.742569 68.0
188.846481 184.0
188.928558 60.0
189.027588 164.0
189.101685 3832.0
189.152954 144.0
189.190536 220.0
189.262466 172.0
189.303543 172.0
189.350113 120.0
189.402145 116.0
189.478851 128.0
189.506256 32.0
189.550552 204.0
189.635056 200.0
189.656021 136.0
189.663589 88.0
189.672028 172.0
189.728256 176.0
189.755676 140.0
189.78035 176.0
189.820221 140.0
189.85231 216.0
189.905136 176.0
189.945877 232.0
190.008179 128.0
190.057037 224.0
190.078461 192.0
190.109711 92680.0
190.169373 80.0
190.17691 88.0
190.199524 124.0
190.23909 20.0
190.279877 144.0
190.315125 72.0
190.370758 192.0
190.405655 180.0
190.429672 100.0
190.455246 92.0
190.482407 204.0
190.502029 68.0
190.523987 76.0
190.560822 384.0
190.59285 144.0
190.621246 96.0
190.656372 72.0
190.700043 32.0
190.720459 168.0
190.752686 52.0
190.789581 76.0
190.831589 100.0
190.924835 84.0
190.952805 236.0
190.979584 96.0
190.991074 76.0
191.001328 84.0
191.027267 240.0
191.055267 68.0
191.112442 11072.0
191.181107 352.0
191.223053 52.0
191.363663 52.0
191.391953 88.0
191.415527 76.0
191.452881 96.0
191.507843 48.0
191.558441 80.0
191.569992 56.0
191.576111 88.0
191.597153 64.0
191.652252 192.0
191.671539 108.0
191.705582 68.0
191.776276 60.0
191.825882 68.0
191.849854 104.0
191.894806 80.0
191.92514 68.0
191.956802 108.0
192.006607 196.0
192.027176 64.0
192.063034 124.0
192.115067 1044.0
192.181915 88.0
192.21402 232.0
192.240692 144.0
192.283783 48.0
192.368515 204.0
192.413208 72.0
192.432541 180.0
192.443237 84.0
192.480072 40.0
192.527969 80.0
192.556244 140.0
192.567841 68.0
192.585327 132.0
192.630524 208.0
192.657608 112.0
192.699387 116.0
192.728394 324.0
192.764328 104.0
192.819595 40.0
192.896149 52.0
192.945419 108.0
193.016861 180.0
193.073959 96.0
193.096085 192.0
193.130035 152.0
193.192902 36.0
193.220566 180.0
193.289734 80.0
193.325714 144.0
193.383835 120.0
193.461349 76.0
193.621948 156.0
193.646881 156.0
193.768555 52.0
194.001572 32.0
194.023758 140.0
194.082794 124.0
194.101395 156.0
194.131897 212.0
194.255005 188.0
194.337173 44.0
194.445404 104.0
194.700821 184.0
194.842499 52.0
194.981445 104.0
195.031464 204.0
195.09967 208.0
195.128769 64.0
195.237213 192.0
195.406906 180.0
195.454208 140.0
195.58223 312.0
196.107407 376.0
196.142136 136.0
196.234131 32.0
196.462845 96.0
196.501892 136.0
196.642456 184.0
196.686096 96.0
196.984894 232.0
197.152542 160.0
197.311874 168.0
197.58316 180.0
197.854645 300.0
198.409378 216.0
198.642151 48.0
198.726318 172.0
198.748764 232.0
199.015427 124.0
199.049118 100.0
199.080017 228.0
199.425598 56.0
199.526794 128.0
199.664581 128.0
199.779907 140.0
199.884018 196.0
199.960007 148.0
200.173965 112.0
200.202133 48.0
200.376785 120.0
200.452866 148.0
200.537415 192.0
200.664261 128.0
200.746048 148.0
201.09642 152.0
201.265274 168.0
201.355652 120.0
201.721054 276.0
202.042557 120.0
202.090652 160.0
202.120468 216.0
202.143433 128.0
202.212341 60.0
202.35672 44.0
202.461502 156.0
202.501144 236.0
202.642792 252.0
202.679626 180.0
202.730637 72.0
202.76181 300.0
202.832672 140.0
203.05101 124.0
203.115753 3968.0
203.269455 212.0
203.38298 128.0
203.453949 56.0
203.476669 232.0
203.496536 100.0
203.649887 292.0
203.877197 208.0
203.905609 148.0
203.948242 136.0
204.067657 76.0
204.093246 180.0
204.12294 2024.0
204.207001 76.0
204.320786 64.0
204.377686 188.0
204.465912 96.0
204.530502 144.0
204.597824 188.0
204.62532 204.0
204.673737 184.0
204.739227 100.0
204.840149 140.0
204.899704 192.0
204.955383 192.0
205.042465 124.0
205.051575 140.0
205.081131 96.0
205.132477 66328.0
205.201462 76.0
205.225021 68.0
205.260742 72.0
205.286087 208.0
205.305176 76.0
205.324631 80.0
205.369125 64.0
205.403351 120.0
205.44603 312.0
205.510468 132.0
205.534592 40.0
205.557373 140.0
205.588699 92.0
205.657852 128.0
205.707443 100.0
205.73439 64.0
205.761124 44.0
205.788528 104.0
205.851456 220.0
205.88002 52.0
205.911438 76.0
205.947647 92.0
205.984177 164.0
206.02121 168.0
206.057129 52.0
206.093475 200.0
206.135086 6996.0
206.197159 84.0
206.264008 260.0
206.291489 108.0
206.37439 32.0
206.417282 124.0
206.442719 84.0
206.474487 52.0
206.49736 68.0
206.520248 88.0
206.548859 52.0
206.608932 80.0
206.663284 48.0
206.740555 96.0
206.768661 176.0
206.855042 108.0
206.915161 84.0
206.998199 100.0
207.023987 76.0
207.138367 908.0
207.25029 104.0
207.296143 32.0
207.388428 200.0
207.416519 76.0
207.508255 164.0
207.588547 100.0
207.609802 68.0
207.67746 160.0
207.706146 112.0
207.74057 68.0
207.78241 116.0
207.835251 100.0
207.944305 64.0
208.044769 48.0
208.064865 52.0
208.110809 156.0
208.1418 192.0
208.251526 72.0
208.530243 80.0
208.561859 44.0
208.656723 132.0
208.731476 128.0
208.786118 52.0
209.096848 116.0
209.147141 144.0
209.216537 104.0
209.307007 168.0
209.347321 148.0
209.491348 128.0
209.572021 172.0
209.632538 52.0
209.712067 188.0
209.75647 216.0
209.926575 156.0
209.95253 164.0
209.990036 96.0
210.041946 76.0
210.073685 84.0
210.122757 29616.0
210.174667 208.0
210.223099 92.0
210.276398 144.0
210.301102 172.0
210.344955 80.0
210.38826 80.0
210.434296 152.0
210.540512 188.0
210.571976 64.0
210.621445 80.0
210.693588 72.0
210.748413 92.0
210.795517 128.0
210.820618 76.0
210.853317 88.0
210.896683 128.0
210.931366 56.0
210.963165 80.0
211.00943 32.0
211.125748 4132.0
211.1689 188.0
211.232117 76.0
211.278397 100.0
211.29866 48.0
211.399933 44.0
211.440445 92.0
211.692322 164.0
212.028381 60.0
212.06897 32.0
212.092148 76.0
212.126999 332.0
212.38147 88.0
212.538788 104.0
212.573608 60.0
212.602631 124.0
212.622955 144.0
212.646164 84.0
212.692612 116.0
212.746735 124.0
212.875519 76.0
213.080475 180.0
213.122437 176.0
213.634155 152.0
213.689438 152.0
213.902985 160.0
214.029999 188.0
214.819855 52.0
214.881119 84.0
215.097076 204.0
215.117126 148.0
215.149628 116.0
215.380341 208.0
215.552307 116.0
215.637466 212.0
215.689377 100.0
215.991272 68.0
216.127365 124.0
216.371719 40.0
216.439774 132.0
216.661667 52.0
217.001663 76.0
217.129684 948.0
217.538559 76.0
217.585526 76.0
217.690918 36.0
217.764664 152.0
218.141418 512.0
218.164307 220.0
218.281921 212.0
218.378967 92.0
218.709534 128.0
218.861618 132.0
218.917572 64.0
218.977615 120.0
219.02066 164.0
219.147781 16000.0
219.256378 72.0
219.277008 36.0
219.344803 176.0
219.445694 72.0
219.495636 152.0
219.541061 128.0
219.842499 228.0
219.899338 80.0
219.961334 60.0
220.029236 36.0
220.084778 172.0
220.150833 2500.0
220.206421 52.0
220.241867 76.0
220.309799 52.0
220.442764 72.0
220.56691 36.0
220.676285 44.0
220.860092 80.0
220.889236 96.0
221.049011 60.0
221.170349 288.0
221.208832 68.0
221.404266 100.0
221.466461 116.0
221.593842 152.0
221.833908 92.0
221.887268 60.0
222.00885 64.0
222.210556 132.0
222.344101 100.0
222.439087 152.0
222.471741 120.0
222.557846 160.0
222.652878 64.0
222.967377 84.0
223.134277 136.0
223.523926 72.0
224.244659 192.0
225.181534 344.0
225.525146 64.0
225.692566 132.0
226.320953 80.0
227.529282 52.0
228.62645 236.0
228.75589 112.0
228.906433 136.0
229.135361 96.0
230.145798 156.0
230.354187 176.0
231.03743 128.0
231.147186 1176.0
231.403641 84.0
231.5914 100.0
231.682281 100.0
231.76712 84.0
231.942902 92.0
232.144211 1728.0
232.285568 44.0
232.328033 144.0
232.411133 144.0
232.816742 108.0
232.840363 196.0
232.944321 64.0
233.041443 124.0
233.084076 208.0
233.163849 48684.0
233.266434 72.0
233.346313 192.0
233.381271 160.0
233.43367 104.0
233.461533 76.0
233.509705 32.0
233.576706 72.0
233.607224 136.0
233.621994 48.0
233.629852 56.0
233.660278 20.0
233.747986 84.0
233.817001 108.0
233.870804 100.0
233.879486 68.0
233.893448 136.0
233.903671 76.0
233.963104 72.0
234.004211 120.0
234.08609 56.0
234.120117 164.0
234.166153 5788.0
234.209778 72.0
234.280396 44.0
234.331635 96.0
234.426102 60.0
234.456573 76.0
234.477905 156.0
234.526672 64.0
234.557159 56.0
234.587646 60.0
234.613998 144.0
234.694351 76.0
234.730957 32.0
234.776688 52.0
234.849899 68.0
234.938354 40.0
234.974976 140.0
235.168045 504.0
235.310715 40.0
235.347351 140.0
235.443115 56.0
235.51532 152.0
235.637527 100.0
235.732239 136.0
235.803146 60.0
235.827454 132.0
235.889648 96.0
235.924805 64.0
236.154922 228.0
236.203094 80.0
236.411163 48.0
236.4785 60.0
236.576447 52.0
236.731079 112.0
236.904144 36.0
237.000656 120.0
237.050171 108.0
237.23819 80.0
237.440567 104.0
238.346207 80.0
238.896561 96.0
239.084259 156.0
239.146881 104.0
239.946777 48.0
240.005356 36.0
241.138367 164.0
242.267838 56.0
242.859924 92.0
243.872177 156.0
243.975281 48.0
245.048523 92.0
245.160706 96.0
245.369553 52.0
245.453735 84.0
245.475571 64.0
245.740707 152.0
246.149353 136.0
246.612015 76.0
246.796463 108.0
246.833984 64.0
246.868393 152.0
246.89653 100.0
246.987244 228.0
247.013351 96.0
247.108261 240.0
247.167007 9400.0
247.231293 148.0
247.275116 40.0
247.362747 140.0
247.394058 72.0
247.453552 72.0
247.500519 44.0
247.667496 88.0
247.779282 68.0
247.826279 52.0
247.945358 84.0
248.036255 124.0
248.117767 164.0
248.170059 1936.0
248.236923 72.0
248.321609 76.0
248.569443 28.0
248.65419 52.0
248.893829 120.0
248.936737 56.0
249.078079 76.0
249.122055 64.0
249.176086 240.0
249.3703 100.0
249.801102 68.0
250.134674 144.0
250.597641 72.0
252.441116 68.0
253.16275 1260.0
253.317871 80.0
254.154892 124.0
254.288177 48.0
254.615204 76.0
256.116486 172.0
257.729156 168.0
259.343811 48.0
261.879028 128.0
263.133484 104.0
264.491302 68.0
264.818329 124.0
264.866913 56.0
265.158539 88.0
266.739319 56.0
267.171844 132.0
267.705658 100.0
268.778168 116.0
269.574982 36.0
270.20932 76.0
270.585724 108.0
270.870636 116.0
271.949463 80.0
273.339661 112.0
275.320984 92.0
276.169952 276.0
277.16864 176.0
277.684113 104.0
277.806854 140.0
278.816284 68.0
279.179596 188.0
282.658142 80.0
283.894287 100.0
284.142517 140.0
284.172699 128.0
284.521759 108.0
284.901276 132.0
285.183563 144.0
286.19281 276.0
286.293854 84.0
295.011108 136.0
295.928009 184.0
296.111542 88.0
296.184875 140.0
296.369873 152.0
296.4487 68.0
297.824524 44.0
301.086304 84.0
301.445587 28.0
302.718658 188.0
305.105927 72.0
307.087372 164.0
308.194061 100.0
308.809357 84.0
309.358734 72.0
314.180542 176.0
314.607574 84.0
315.017242 72.0
315.494324 80.0
315.533203 212.0
316.187653 128.0
316.449615 160.0
317.672333 136.0
321.197693 64.0
321.229797 72.0
322.03653 80.0
323.832092 72.0
323.96463 148.0
323.989716 76.0
329.754578 120.0
332.177032 160.0
332.201019 144.0
332.216614 88.0
332.229095 136.0
332.256836 48.0
332.510864 32.0
334.309875 80.0
339.141968 104.0
340.749359 80.0
342.533661 92.0
344.817688 92.0
345.212616 328.0
346.223633 128.0
346.397705 116.0
349.568573 148.0
349.85144 56.0
351.38324 200.0
357.619141 96.0
359.24704 116.0
360.598877 108.0
362.301727 68.0
363.124329 100.0
364.551849 52.0
365.52652 92.0
368.071777 128.0
368.652466 104.0
369.00412 192.0
369.088257 44.0
370.680695 116.0
372.799042 56.0
373.041199 132.0
373.244995 56.0
375.046783 76.0
375.82196 76.0
375.918427 72.0
376.15387 184.0
377.266479 72.0
379.698242 100.0
379.799103 160.0
380.381165 48.0
380.536469 100.0
382.157288 48.0
384.312042 200.0
385.167023 192.0
387.279327 128.0
388.639709 112.0
390.509705 48.0
391.430664 60.0
391.800903 140.0
392.04126 184.0
392.214691 84.0
397.691345 104.0
400.026581 128.0
400.233612 176.0
400.353882 80.0
401.700317 92.0
401.81601 100.0
401.859894 92.0
401.887848 48.0
401.942108 200.0
402.135254 152.0
402.24826 6888.0
402.318878 156.0
402.66629 80.0
402.792206 108.0
402.949921 64.0
403.097778 64.0
403.253998 1632.0
403.581451 108.0
404.049408 44.0
404.241058 172.0
404.297516 188.0
404.521667 68.0
405.240234 240.0
405.438934 52.0
405.839813 116.0
406.529785 48.0
408.502625 64.0
408.941223 44.0
409.150574 76.0
410.407654 48.0
412.228241 148.0
414.336365 88.0
419.775024 64.0
421.599884 120.0
421.935089 68.0
423.715454 100.0
427.748352 76.0
427.834808 40.0
428.419617 44.0
429.582184 96.0
434.173553 48.0
443.039825 92.0
448.33432 136.0
457.760498 36.0
463.351898 108.0
465.861694 80.0
470.072693 84.0
474.124939 48.0
500.080261 56.0
505.216522 112.0
507.514191 96.0
508.46524 108.0
520.791809 76.0
522.405579 136.0
523.55719 76.0
525.503662 84.0
526.699829 72.0
526.809448 112.0
537.101685 76.0
537.32312 68.0
540.076477 84.0
554.328247 108.0
554.543823 108.0
555.331543 104.0
604.537598 84.0
607.914185 52.0
613.34906 228.0
613.595581 80.0
616.231201 36.0
625.734497 104.0
634.548157 52.0
639.451111 48.0
641.27948 108.0
642.015564 60.0
658.761169 60.0
660.657837 100.0
662.121826 52.0
670.197571 80.0
690.721313 116.0
692.956787 52.0
705.668091 40.0
710.689392 80.0
714.578857 64.0
724.230957 48.0
727.287415 72.0
734.600525 40.0
738.614258 72.0
743.148865 132.0
745.011108 84.0
753.286377 84.0
790.673645 36.0
807.971802 60.0
830.761047 80.0
834.31604 52.0
859.028198 48.0
859.104004 180.0
859.325745 32.0
861.228882 136.0
865.15863 48.0
875.893738 132.0
884.414673 52.0
884.935669 108.0
884.994873 76.0
894.131104 216.0
909.744568 92.0
935.103394 184.0
943.931396 152.0
944.267761 68.0
948.17395 180.0
952.301514 72.0
959.817749 80.0
972.457153 84.0
973.512634 144.0
978.499695 192.0
997.474792 68.0
998.682129 96.0
1000.910095 76.0
1002.371521 208.0
1004.805481 144.0
1008.01947 128.0
1009.530396 224.0
1010.94751 136.0
1012.777283 112.0
1019.394714 168.0
1021.359375 228.0
1027.83252 116.0
1030.207642 176.0
1034.530884 84.0
1037.202148 180.0
1038.182373 164.0
1041.482178 68.0
1046.376221 136.0
1057.000854 56.0
1058.72937 164.0
1063.493042 220.0
1070.158569 144.0
1071.194092 156.0
1073.188477 160.0
1077.032471 196.0
1079.594604 236.0
1081.210571 168.0
1083.836548 248.0
1086.334595 168.0
1088.349609 112.0
1088.664795 244.0
1089.11145 128.0
1090.182373 228.0
1096.144653 164.0
1101.548462 240.0
1101.799438 132.0
1102.433838 64.0
1103.008789 88.0
1106.541626 132.0
1111.43335 80.0
1112.31604 128.0
1113.703979 156.0
1115.797241 204.0
1116.409058 160.0
1120.229736 152.0
1121.14917 172.0
1126.012939 204.0
1128.391968 80.0
1131.630371 60.0
1132.052246 220.0
1135.624512 124.0
1137.691406 232.0
1140.109497 216.0
1143.028198 192.0
1146.05835 160.0
1146.799683 164.0
1150.942017 128.0
1156.397827 148.0
1159.913452 152.0
1166.212646 212.0
1170.281006 224.0
1171.098145 36.0
1171.950562 148.0
1174.329102 64.0
1175.072632 288.0
1176.785889 184.0
1177.318481 136.0
1178.889771 224.0
1179.019653 124.0
1181.139282 68.0
1182.350342 120.0
1185.302002 200.0
1186.58374 132.0
1189.44458 180.0
1189.554443 148.0
1189.932007 172.0
1192.70752 96.0
1195.465576 76.0
1200.460205 148.0
1200.605103 172.0
1200.984375 40.0
1205.610352 152.0
1208.549438 240.0
1211.3396 168.0
1211.734497 144.0
1211.907715 132.0
1214.597656 244.0
1217.096191 204.0
1219.520874 180.0
1224.614136 180.0
1225.88916 100.0
1228.845825 128.0
1232.490601 104.0
1235.847046 144.0
1237.666992 172.0
1237.786011 96.0
1237.870117 112.0
1239.488281 156.0
1242.510376 116.0
1243.527832 144.0
1245.409668 60.0
1245.753906 156.0
1247.725098 216.0
1253.592285 128.0
1253.775513 52.0
1254.452148 164.0
1254.649536 124.0
1258.798584 120.0
1259.575439 44.0
1259.646118 188.0
1264.100586 168.0
1266.004883 148.0
1267.187866 132.0
1269.867554 124.0
1270.044922 200.0
1271.293579 224.0
1274.5177 192.0
1275.626343 68.0
1275.804077 116.0
1277.802612 208.0
1278.49292 172.0
1278.557007 116.0
1278.699341 160.0
1279.38269 196.0
1280.094727 208.0
1282.039551 48.0
1283.322754 212.0
1285.419922 184.0
1286.797607 228.0
1288.883301 116.0
1290.570312 168.0
1291.786133 28.0
1292.823608 260.0
1295.200806 152.0
1296.483276 184.0
1296.834473 72.0
1300.255737 124.0
1300.786987 252.0
1302.165649 140.0
1303.063599 192.0
1303.724731 60.0
1305.198364 212.0
1305.994751 124.0
1306.464355 56.0
1306.9823 156.0
1308.256348 136.0
1309.81189 188.0
1311.115967 152.0
1312.471313 164.0
1312.954468 84.0
1313.293457 208.0
1313.877808 260.0
1315.335571 128.0
1318.713623 220.0
1319.251099 76.0
1319.547485 116.0
1325.251099 212.0
1325.635132 124.0
1326.504883 164.0
1328.114746 172.0
1330.516846 188.0
1331.983765 184.0
1332.172729 116.0
1333.996826 192.0
1334.338501 52.0
1334.825684 252.0
1335.552979 188.0
1337.197388 112.0
1337.990845 88.0
1338.107422 140.0
1340.117676 132.0
1340.700684 184.0
1341.400391 80.0
1345.656982 168.0
1345.777954 48.0
1345.887451 104.0
1346.508179 48.0
1349.745728 164.0
1350.140625 172.0
1350.345337 80.0
1351.062256 172.0
1352.474609 56.0
1353.704712 164.0
1353.792603 144.0
1355.873291 136.0
1356.466919 204.0
1356.628296 132.0
1358.204956 56.0
1358.344238 156.0
1358.439697 176.0
1359.400879 160.0
1360.07605 136.0
1360.421143 168.0
1360.802856 164.0
1361.375732 136.0
1361.735596 204.0
1362.146851 124.0
1362.345215 100.0
1362.426025 148.0
1364.256104 192.0
1366.035767 196.0
1368.36145 160.0
1375.490479 180.0
1377.255371 140.0
1377.875977 160.0
1378.67395 176.0
1379.206177 184.0
1379.782837 240.0
1380.618408 200.0
1384.111328 216.0
1386.029907 168.0
1386.637695 68.0
1387.060181 120.0
1389.017822 164.0
1389.292358 156.0
1390.628052 180.0
1391.244141 172.0
1391.570923 92.0
1391.71936 92.0
1391.897583 44.0
1392.855713 80.0
1395.731934 156.0
1398.640991 132.0
1398.894165 160.0
1399.02063 204.0
1401.28479 96.0
1401.627563 204.0
1402.067261 168.0
1402.223755 84.0
1402.335571 264.0
1402.909546 196.0
1402.976685 48.0
1403.849121 204.0
1404.184692 216.0
1404.326416 176.0
1404.684448 140.0
1405.437988 100.0
1405.744019 68.0
1406.78894 176.0
1407.095093 44.0
1408.394531 124.0
1409.462891 168.0
1409.567505 196.0
1409.731934 128.0
1409.896362 152.0
1409.978516 104.0
1410.576538 148.0
1411.069946 140.0
1412.969727 148.0
1413.703003 168.0
1413.792847 156.0
1413.972412 164.0
1416.870483 120.0
1417.109619 112.0
1417.664673 136.0
1417.724609 48.0
1417.93457 184.0
1419.24646 240.0
1419.658936 200.0
1420.168945 172.0
1420.634033 48.0
1421.947144 116.0
1422.104736 200.0
1426.386475 144.0
1427.378906 228.0
1428.313721 204.0
1430.004517 120.0
1430.079834 176.0
1430.290649 200.0
1431.354126 140.0
1431.736206 164.0
1431.901978 144.0
1433.175171 204.0
1434.923828 144.0
1435.338501 88.0
1435.496826 168.0
1436.975342 164.0
1438.077148 112.0
1439.94873 212.0
1440.191406 132.0
1440.984619 164.0
1443.063232 148.0
1443.819458 204.0
1444.174927 168.0
1444.477417 128.0
1444.666626 184.0
1445.113037 216.0
1445.983276 128.0
1446.391968 176.0
1451.164917 184.0
1451.362061 136.0
1453.812378 136.0
1454.131104 228.0
1454.548584 192.0
1454.715576 160.0
1454.981323 200.0
1455.330566 152.0
1455.831787 188.0
1456.014038 188.0
1456.895264 88.0
1457.601807 100.0
1458.057861 240.0
1461.609375 180.0
1461.944214 136.0
1466.354004 176.0
1467.116211 168.0
1467.444092 132.0
1468.519409 204.0
1471.136719 132.0
1472.060669 168.0
1472.213379 188.0
1474.413696 64.0
1474.727051 156.0
1475.942627 132.0
1478.291138 196.0
1478.467163 184.0
1478.536011 192.0
1478.735107 196.0
1478.872803 148.0
1479.754272 176.0
1480.947876 112.0
1482.418945 204.0
1483.292725 224.0
1483.637695 88.0
1483.936646 176.0
1486.260864 108.0
1486.805664 212.0
1487.842041 164.0
1487.995605 160.0
1488.103027 204.0
1488.417847 152.0
1488.655884 164.0
1488.986206 120.0
1490.553467 104.0
1491.014526 64.0
1491.11438 104.0
1491.967651 148.0
1492.824951 108.0
1493.275024 144.0
1494.421265 184.0
1495.016235 184.0
1495.075317 128.0
1497.146362 184.0
1498.001343 188.0
1498.340332 228.0
1498.401978 192.0
1499.403687 128.0
1500.174561 140.0
1502.133423 184.0
1502.39563 200.0
1502.56543 136.0
1502.673462 128.0
1502.781494 72.0
1503.321655 168.0
1503.37561 144.0
1503.769287 144.0
1504.656982 36.0
