>compound MLS000028517-01!
>formula C21H30O2
>ionization [M+H]+
>parentmass 315.232056
#inchi InChI=1S/C21H30O2/c1-13(22)17-6-7-18-16-5-4-14-12-15(23)8-10-20(14,2)19(16)9-11-21(17,18)3/h12,16-19H,4-11H2,1-3H3/t16-,17+,18-,19-,20-,21+/m0/s1
#inchikey RJKFOVLPORLFTN
#Ion_Source LC-ESI
#Instrument qTof
#Compound_Source NIH Pharmacologically Active Library
#PI Dorrestein
#Data_Collector VP/LMS
#Scan -1
#Precursor_MZ 315.234
#ExactMass 314.225
#Charge 1
#CAS_Number N/A
#Pubmed_ID N/A
#Smiles CC(=O)[C@H]1CC[C@H]2[C@@H]3CCC4=CC(=O)CC[C@]4(C)[C@H]3CC[C@]12C
#INCHI_AUX N/A
#Library_Class 1
#SpectrumID CCMSLIB00000085881
#IonMode Positive
#UpdateWorkflowName UPDATE-SINGLE-ANNOTATED-GOLD
#LibraryQualityString Gold
#TaskID d252d724072548979f1f6f1ced849daf
##Scan# 2400
#SpectrumFile p4-G07_GG7_01_18403.mzXML
#LibraryName Pharm_Active_Library.mgf
#MQScore -1
#Organism Pharm_Active_Library
#TIC_Query 0
#RT_Query -1
#MZErrorPPM -1
#SharedPeaks 0
#MassDiff 0
#LibMZ -1
#SpecMZ 315.234
#SpecCharge 0
#internalFilename spec-00000.mgf

>collision 10
44.95826 120.0
45.030354 72.0
45.426575 216.0
45.531445 124.0
45.560825 148.0
45.572918 96.0
46.137653 192.0
46.484409 116.0
46.565868 128.0
46.745327 216.0
46.882874 196.0
47.045193 140.0
47.176342 188.0
47.255669 164.0
47.565399 128.0
48.031891 144.0
48.078804 176.0
48.163029 148.0
48.283279 144.0
48.349689 176.0
48.478344 192.0
48.495117 148.0
48.507595 180.0
49.027439 84.0
49.09436 40.0
49.106911 192.0
49.278622 144.0
49.401653 164.0
49.429638 152.0
49.527641 164.0
49.580887 212.0
49.604713 208.0
49.759037 220.0
49.809765 200.0
49.82505 152.0
49.954388 184.0
50.057137 156.0
50.233318 184.0
50.939728 180.0
50.996651 136.0
51.060547 156.0
51.10038 156.0
51.143074 168.0
51.374596 168.0
51.386768 112.0
51.60387 192.0
51.645344 144.0
51.659649 236.0
52.280949 112.0
52.30254 156.0
52.37886 164.0
52.647137 164.0
52.677471 40.0
52.773743 124.0
52.874123 160.0
52.907413 152.0
53.065338 144.0
53.30624 196.0
53.365086 216.0
53.397888 168.0
53.546349 188.0
53.574024 180.0
53.632313 216.0
53.695011 208.0
53.746071 120.0
54.029526 184.0
54.260933 160.0
54.299061 236.0
54.337856 144.0
54.36655 152.0
54.435547 108.0
54.570736 176.0
54.798878 172.0
54.871098 164.0
54.910656 184.0
55.422421 120.0
55.523228 160.0
55.589989 92.0
55.754837 180.0
55.811325 112.0
55.827682 160.0
55.844044 40.0
55.924393 176.0
56.195621 208.0
56.563271 176.0
56.594711 156.0
57.05233 156.0
57.133541 96.0
57.342854 208.0
57.478584 192.0
57.519337 172.0
57.803478 172.0
57.857971 228.0
57.892796 172.0
57.907944 120.0
58.056473 160.0
58.742462 128.0
58.766872 144.0
58.898167 52.0
59.020432 148.0
59.047962 84.0
59.083035 168.0
59.109154 144.0
59.237766 196.0
59.501553 132.0
59.538406 200.0
59.589844 148.0
59.764385 124.0
59.992332 168.0
60.276329 116.0
60.650871 160.0
60.711342 60.0
60.852551 144.0
60.875843 140.0
61.00481 152.0
61.317684 268.0
62.099457 152.0
62.402542 160.0
62.47961 120.0
62.602386 200.0
62.747356 228.0
62.782047 196.0
63.104187 212.0
63.161118 144.0
63.175358 168.0
63.235489 136.0
63.331493 164.0
63.398617 132.0
63.447758 144.0
63.522293 156.0
63.617512 188.0
63.722198 188.0
64.015015 160.0
64.027756 196.0
64.496857 156.0
64.775291 76.0
64.855415 40.0
65.300179 48.0
65.386642 244.0
65.557777 168.0
65.598076 172.0
65.628708 208.0
65.917892 188.0
65.961296 104.0
66.014648 152.0
66.114952 184.0
66.129517 92.0
66.168373 196.0
66.208855 112.0
66.229912 184.0
66.369286 204.0
66.68261 108.0
66.916862 52.0
67.189049 208.0
67.286972 116.0
67.298401 40.0
67.376801 196.0
67.45034 112.0
67.764565 200.0
68.309761 148.0
68.3936 140.0
68.635735 180.0
68.660828 244.0
69.08168 172.0
69.189255 132.0
69.374809 60.0
69.680183 84.0
70.359711 140.0
70.411476 88.0
70.486656 176.0
70.595314 168.0
70.714104 232.0
70.838013 96.0
70.873199 176.0
71.102943 200.0
71.302811 216.0
71.966545 164.0
72.346962 152.0
72.40284 128.0
72.436714 156.0
72.499413 28.0
72.59774 160.0
72.641838 224.0
72.787804 128.0
72.845551 52.0
72.944115 164.0
73.008728 92.0
73.12442 188.0
73.458397 120.0
73.635918 180.0
74.07724 212.0
74.156059 136.0
74.339577 260.0
74.482079 128.0
74.586899 256.0
74.738251 196.0
74.834641 220.0
74.935326 220.0
75.089684 216.0
75.174225 44.0
75.193207 176.0
75.291618 176.0
75.333076 208.0
75.419479 232.0
75.46788 136.0
75.519768 164.0
75.568207 44.0
75.609734 124.0
75.644356 196.0
75.670326 100.0
75.973625 84.0
76.267105 132.0
76.826096 200.0
77.033836 148.0
77.285606 52.0
77.439667 192.0
77.460686 224.0
77.693848 124.0
78.312622 216.0
78.443024 188.0
78.540009 132.0
78.986916 180.0
79.086014 180.0
79.124954 144.0
79.139122 76.0
79.15683 152.0
79.178078 76.0
79.477676 136.0
79.94326 180.0
79.998436 232.0
80.032265 156.0
80.083916 176.0
80.151611 88.0
80.215775 140.0
80.49054 228.0
80.631241 132.0
80.968025 168.0
81.242287 144.0
81.281754 172.0
81.355347 84.0
81.558342 92.0
81.639244 84.0
82.084061 128.0
82.111107 196.0
82.296982 44.0
82.56263 156.0
82.678413 64.0
82.787041 220.0
82.812393 168.0
82.937416 168.0
83.057098 88.0
83.100639 168.0
83.376663 100.0
83.43483 144.0
83.525757 204.0
84.254967 84.0
84.448738 156.0
84.543877 184.0
84.750809 156.0
84.87912 180.0
85.509262 132.0
85.601311 240.0
85.732109 228.0
85.892525 192.0
85.970879 188.0
86.139885 96.0
86.206398 148.0
86.234123 176.0
86.350601 200.0
86.478271 192.0
86.565285 188.0
86.611588 168.0
86.65976 212.0
86.761696 88.0
86.806198 168.0
86.845146 152.0
87.001022 152.0
87.536522 132.0
88.225037 240.0
88.326019 76.0
88.370918 168.0
88.518791 108.0
88.559998 188.0
88.659302 180.0
88.747406 84.0
88.946274 132.0
88.99884 108.0
89.019501 196.0
89.260033 164.0
89.531029 140.0
89.591301 280.0
89.619568 236.0
89.640297 200.0
89.77037 52.0
89.832611 136.0
89.964714 136.0
89.981705 200.0
90.015694 40.0
90.461914 132.0
90.859901 168.0
91.054726 1376.0
91.074409 124.0
91.458511 80.0
91.769043 172.0
91.933098 112.0
92.061661 336.0
92.131676 44.0
92.221489 268.0
92.299873 204.0
92.355339 192.0
92.550545 84.0
93.069954 1064.0
93.152779 68.0
93.170067 192.0
93.231552 140.0
93.341133 236.0
93.456551 56.0
93.710709 180.0
93.768524 168.0
93.805679 188.0
93.963287 236.0
94.037697 392.0
94.053993 156.0
94.071007 172.0
94.088737 132.0
94.308968 48.0
94.799004 184.0
95.025497 160.0
95.051453 340.0
95.08506 1228.0
95.153603 184.0
95.34008 124.0
95.386726 176.0
95.567604 192.0
95.59874 112.0
95.984451 160.0
96.027359 268.0
96.09021 312.0
96.128807 132.0
96.238121 108.0
96.421753 188.0
96.474525 208.0
96.505814 228.0
96.585999 136.0
96.68187 200.0
96.732758 160.0
96.793457 84.0
96.826744 168.0
96.938416 92.0
97.064728 16888.0
97.11969 184.0
97.142334 160.0
97.209045 72.0
97.236519 68.0
97.25811 116.0
97.275772 88.0
97.39949 212.0
97.418236 140.0
97.491837 40.0
97.565903 188.0
97.627487 48.0
97.662888 48.0
97.676659 116.0
97.727806 128.0
97.826218 136.0
97.888138 160.0
98.042885 144.0
98.068184 1156.0
98.135536 68.0
98.222778 288.0
98.34465 100.0
98.565849 128.0
98.59549 116.0
98.629089 52.0
98.864456 144.0
98.981255 268.0
99.035851 188.0
99.075706 76.0
99.113976 200.0
99.205147 124.0
99.524582 80.0
99.625877 136.0
99.697411 160.0
99.743126 144.0
99.818672 148.0
99.916138 184.0
100.113205 188.0
100.234718 44.0
100.589737 148.0
100.807449 212.0
100.841423 104.0
100.873405 156.0
100.959381 204.0
101.417885 144.0
101.480034 184.0
101.570282 152.0
101.734833 200.0
101.789047 148.0
101.891487 96.0
101.929665 196.0
101.94574 192.0
102.020111 160.0
102.634201 176.0
103.054794 364.0
103.528358 76.0
103.703667 140.0
104.058678 220.0
104.494637 168.0
104.575027 132.0
104.687012 164.0
104.707375 200.0
104.95192 68.0
105.041656 180.0
105.069427 2852.0
105.143684 144.0
105.192673 168.0
105.276382 224.0
105.386696 88.0
105.507278 196.0
105.74662 72.0
105.867416 108.0
106.073578 368.0
106.335861 180.0
106.357437 176.0
106.545319 196.0
106.59774 108.0
107.047508 1012.0
107.083824 1828.0
107.316139 124.0
107.439888 32.0
107.536873 64.0
107.644234 240.0
107.706192 60.0
107.753708 156.0
107.896317 168.0
108.055984 280.0
108.086365 192.0
108.183884 184.0
108.245766 172.0
108.388939 176.0
108.490501 152.0
108.560997 160.0
108.733192 180.0
108.805847 152.0
108.875664 148.0
108.96212 216.0
109.007332 204.0
109.026329 112.0
109.040688 168.0
109.064667 37568.0
109.098289 656.0
109.123734 52.0
109.147797 112.0
109.164284 120.0
109.200676 96.0
109.225639 36.0
109.246445 72.0
109.262505 72.0
109.279732 148.0
109.305656 96.0
109.337997 44.0
109.394196 36.0
109.409233 36.0
109.429588 76.0
109.460823 64.0
109.479568 40.0
109.498314 76.0
109.712059 76.0
109.821381 44.0
109.957001 72.0
109.977226 232.0
110.042587 188.0
110.067513 2672.0
110.103508 252.0
110.118515 156.0
110.186707 36.0
110.320457 60.0
110.435471 72.0
110.544266 80.0
110.574226 216.0
110.640549 148.0
110.684517 100.0
110.713837 176.0
110.824486 312.0
110.885635 92.0
110.909714 148.0
111.007233 80.0
111.073212 168.0
111.112114 64.0
111.206543 72.0
111.229637 124.0
111.26532 180.0
111.553139 204.0
111.85125 264.0
111.866592 120.0
111.936073 64.0
111.978195 108.0
112.081421 156.0
112.233192 80.0
112.401947 168.0
112.513817 180.0
112.570824 100.0
112.754623 232.0
112.775764 104.0
112.845528 164.0
112.925888 116.0
113.054947 144.0
113.546463 172.0
113.571915 148.0
113.928551 260.0
113.968918 204.0
114.125076 188.0
114.351715 204.0
114.701042 88.0
115.057648 156.0
115.108551 188.0
115.324333 196.0
115.615211 68.0
115.6623 180.0
116.059402 148.0
116.541611 244.0
116.874893 176.0
117.03849 104.0
117.069565 1832.0
117.266846 32.0
117.445816 184.0
117.789032 184.0
117.823601 80.0
117.838722 180.0
117.85601 128.0
117.875458 148.0
117.946777 76.0
118.074524 204.0
118.94973 84.0
119.084892 2380.0
119.112602 196.0
119.73468 100.0
120.090324 328.0
120.194672 40.0
120.290703 228.0
120.332184 176.0
120.373672 220.0
120.404243 160.0
120.718948 144.0
121.065926 1400.0
121.101318 1668.0
121.524376 128.0
122.070496 460.0
122.098419 84.0
122.758446 120.0
122.803215 32.0
123.043755 200.0
123.079903 6204.0
123.11525 148.0
123.160797 84.0
123.199577 72.0
123.266846 52.0
123.315468 104.0
123.403893 192.0
123.44812 60.0
123.746849 84.0
123.850937 72.0
123.994957 40.0
124.082123 664.0
124.116882 168.0
124.545219 88.0
124.714096 96.0
124.800797 212.0
124.820808 140.0
125.092575 192.0
125.114517 128.0
125.7967 140.0
126.100494 184.0
126.159851 108.0
126.633003 196.0
127.04995 172.0
127.47657 108.0
127.888153 84.0
128.059418 652.0
128.228256 324.0
128.374802 148.0
128.778793 148.0
128.995728 120.0
129.069458 728.0
129.194733 64.0
129.405212 32.0
129.735992 224.0
129.751862 196.0
129.786453 156.0
130.078003 368.0
130.226151 192.0
130.398834 180.0
130.494308 140.0
130.824203 168.0
130.944885 52.0
130.974503 116.0
130.990448 108.0
131.047409 180.0
131.084122 3052.0
131.12944 48.0
131.412216 172.0
131.64505 196.0
131.784393 188.0
132.09108 176.0
132.182266 40.0
132.693069 200.0
132.98671 108.0
133.062973 280.0
133.100113 2284.0
133.140533 32.0
133.816605 188.0
134.104797 360.0
134.346695 172.0
134.455139 88.0
134.478226 28.0
134.577484 84.0
134.628296 160.0
134.949493 100.0
135.002686 160.0
135.081177 572.0
135.114746 352.0
136.126648 184.0
136.279953 152.0
136.435684 184.0
136.45195 184.0
136.963928 136.0
137.012863 208.0
137.095764 1344.0
137.141022 200.0
137.231949 36.0
137.27858 80.0
137.619278 44.0
137.988449 164.0
138.099411 284.0
138.227036 124.0
138.800949 52.0
139.376053 216.0
139.954697 132.0
140.079529 100.0
140.348206 108.0
140.572311 164.0
141.065491 340.0
141.099045 140.0
141.259872 96.0
142.046341 36.0
142.077728 440.0
142.302658 216.0
142.340652 124.0
142.554459 76.0
142.984909 212.0
143.082092 1696.0
143.468475 128.0
144.094315 392.0
144.268234 132.0
144.488266 148.0
145.100754 2932.0
145.154144 220.0
145.281265 132.0
145.434845 48.0
145.490067 44.0
145.793381 176.0
146.102707 336.0
146.999252 160.0
147.074387 120.0
147.115921 2968.0
147.153732 148.0
147.344543 48.0
147.968536 124.0
148.031494 36.0
148.086914 304.0
148.119965 488.0
149.091995 948.0
149.133011 564.0
149.198608 52.0
149.439392 44.0
150.050735 224.0
150.070236 128.0
150.099503 264.0
150.138519 176.0
150.536316 80.0
151.076492 192.0
151.110748 192.0
151.171921 96.0
151.262482 96.0
151.421646 68.0
152.064026 148.0
153.069534 152.0
153.629044 168.0
153.695663 204.0
154.028961 168.0
154.070953 156.0
155.083206 956.0
155.209518 40.0
155.517151 148.0
155.825089 176.0
156.092285 552.0
156.292542 164.0
156.359741 196.0
157.099091 1448.0
157.157181 92.0
157.942307 184.0
158.10527 432.0
158.407257 104.0
158.738098 140.0
158.765686 48.0
159.081848 240.0
159.115295 3084.0
159.534042 28.0
159.732712 44.0
160.080048 40.0
160.11824 296.0
160.533661 64.0
161.087601 164.0
161.131134 1148.0
161.286041 120.0
161.878082 60.0
162.106079 140.0
162.140457 256.0
162.854523 124.0
163.075577 116.0
163.108002 748.0
163.146225 404.0
164.106613 80.0
164.154846 148.0
164.747223 100.0
165.007919 204.0
165.075714 148.0
165.080383 224.0
165.123047 304.0
165.2509 140.0
166.124542 160.0
167.087357 264.0
167.386536 164.0
168.069641 152.0
168.09169 316.0
168.123825 212.0
168.216751 136.0
169.025726 132.0
169.1008 688.0
169.129257 180.0
169.665497 116.0
170.023468 52.0
170.108719 264.0
170.475342 176.0
170.998108 304.0
171.114822 2056.0
171.172531 36.0
171.586823 48.0
172.11705 424.0
172.764709 84.0
173.08519 168.0
173.130295 1232.0
173.251648 56.0
173.356461 52.0
173.62912 224.0
174.096268 188.0
174.132675 292.0
174.569305 80.0
174.874496 152.0
174.965454 196.0
175.111038 436.0
175.148132 492.0
175.195755 56.0
175.295883 112.0
176.122574 144.0
176.151672 276.0
177.124435 736.0
177.165756 200.0
178.128342 136.0
178.922119 164.0
179.081894 264.0
179.109894 140.0
180.101761 216.0
180.180954 156.0
180.555191 232.0
181.099091 324.0
182.102509 156.0
182.518234 40.0
183.116928 688.0
184.083878 140.0
184.121048 268.0
184.54866 192.0
185.096161 204.0
185.133545 732.0
186.095825 184.0
186.137466 268.0
186.26149 200.0
187.066422 104.0
187.08548 120.0
187.108276 172.0
187.148911 708.0
187.401413 60.0
187.44873 44.0
188.118698 144.0
188.150208 148.0
188.345352 52.0
189.127579 444.0
189.162659 284.0
190.130142 132.0
190.171722 124.0
191.142914 348.0
191.17215 204.0
191.516296 148.0
191.645782 172.0
192.520248 80.0
193.099197 524.0
194.111481 228.0
194.161407 44.0
195.113815 484.0
195.417023 164.0
195.614624 108.0
195.689789 64.0
196.115433 168.0
197.129517 680.0
197.960007 80.0
198.137207 212.0
198.461594 152.0
199.10704 164.0
199.150757 1264.0
199.489182 88.0
199.517288 40.0
200.156631 180.0
200.316544 132.0
201.123032 108.0
201.160904 788.0
202.134827 216.0
202.168793 108.0
202.848572 128.0
202.879761 36.0
203.149796 184.0
203.179169 132.0
204.353806 108.0
205.054337 36.0
205.154114 168.0
206.247452 112.0
207.358017 180.0
207.690628 80.0
208.126846 160.0
209.029465 36.0
209.130966 1100.0
210.137817 128.0
210.343735 60.0
211.013992 92.0
211.14624 404.0
212.15329 248.0
212.438904 104.0
213.12851 340.0
213.16185 500.0
213.376968 48.0
214.066589 264.0
214.127747 132.0
214.177887 56.0
214.579437 132.0
214.929443 188.0
215.141968 264.0
215.175995 472.0
215.30896 76.0
215.431641 108.0
215.574814 112.0
215.796967 152.0
216.146622 144.0
217.152725 188.0
217.578354 72.0
218.164856 132.0
218.195328 128.0
219.178421 188.0
221.126572 144.0
222.137711 140.0
222.200287 60.0
222.508957 76.0
223.145035 428.0
223.367828 52.0
224.153198 240.0
224.574219 76.0
225.114426 164.0
225.161926 212.0
226.163849 140.0
227.029739 208.0
227.140717 144.0
227.17543 500.0
228.172348 124.0
229.156418 180.0
230.162109 184.0
230.425217 32.0
230.963333 196.0
231.172638 112.0
232.217331 32.0
232.341705 84.0
233.134232 144.0
233.198059 232.0
234.613556 88.0
235.132126 148.0
237.163605 260.0
238.180542 128.0
239.176117 856.0
240.14563 52.0
240.179688 368.0
241.037857 164.0
241.157486 840.0
242.151596 84.0
242.979263 164.0
243.584641 136.0
245.191559 128.0
246.190491 128.0
248.11293 128.0
248.40773 128.0
249.167465 180.0
250.170639 168.0
251.163361 132.0
251.538879 48.0
252.178436 136.0
252.52475 80.0
253.196609 472.0
254.198547 188.0
254.918396 84.0
255.013748 132.0
255.17247 392.0
255.206284 696.0
255.242645 120.0
255.688034 64.0
255.726227 36.0
256.057343 68.0
256.206787 144.0
256.490692 72.0
257.026489 108.0
257.112671 144.0
257.183838 372.0
257.221191 168.0
258.188232 180.0
259.168915 168.0
260.060455 132.0
260.131073 124.0
260.725311 108.0
262.273468 64.0
268.185913 152.0
269.188568 200.0
269.22995 536.0
271.200439 280.0
272.131287 168.0
272.164124 124.0
273.216766 680.0
273.815002 68.0
274.226654 140.0
274.962372 164.0
277.904297 32.0
278.917236 144.0
279.209503 936.0
280.148499 48.0
280.210052 152.0
280.385071 60.0
282.187714 136.0
283.195007 180.0
285.359558 112.0
286.160339 188.0
287.907074 112.0
295.200287 116.0
297.180206 176.0
297.219299 1116.0
297.372375 216.0
298.220764 160.0
300.203308 188.0
310.477539 84.0
315.120667 48.0
315.232056 1076.0
315.276154 132.0
315.315033 44.0
315.442261 100.0
316.228851 132.0
316.564545 64.0
316.638245 36.0
317.231812 156.0
318.312164 100.0
338.790985 92.0
355.417511 96.0
358.350372 80.0
364.043396 80.0
383.80542 72.0
390.451141 88.0
399.414124 80.0
411.86084 60.0
431.887329 64.0
476.763428 56.0
479.256927 88.0
480.800659 60.0
482.587341 128.0
483.983154 40.0
491.680756 104.0
503.329865 120.0
536.731934 40.0
537.165466 52.0
537.760742 40.0
541.834778 32.0
548.927979 60.0
581.504395 104.0
586.420044 48.0
758.356079 120.0
761.851624 52.0
779.961182 240.0
785.596741 184.0
799.234131 68.0
823.767456 60.0
824.350281 80.0
830.929565 52.0
833.007812 200.0
835.709961 176.0
839.817566 48.0
844.160767 204.0
845.682373 100.0
863.171082 52.0
863.937317 152.0
872.976196 180.0
878.772522 196.0
880.330872 196.0
891.866577 196.0
898.757141 152.0
899.956909 188.0
905.189148 92.0
905.746155 80.0
912.040771 212.0
912.148987 140.0
913.742676 160.0
922.626587 44.0
923.497375 236.0
925.74884 124.0
931.766113 164.0
931.83905 172.0
934.666443 160.0
935.914307 196.0
936.547729 144.0
936.937561 152.0
943.993713 132.0
951.432373 184.0
952.064819 240.0
952.556213 240.0
952.887939 188.0
956.005554 156.0
956.990479 132.0
958.136108 216.0
966.68811 92.0
968.601257 188.0
969.23938 128.0
969.561646 116.0
970.386108 196.0
977.087708 192.0
977.597961 88.0
980.207275 80.0
981.722107 72.0
981.79071 160.0
981.98407 228.0
982.464417 84.0
982.919861 212.0
983.406677 188.0
986.998962 160.0
987.880798 152.0
989.007202 124.0
989.457947 44.0
992.710022 96.0
995.490112 216.0
995.810364 84.0
996.36322 132.0
996.78418 204.0
1008.525696 36.0
1009.170532 212.0
1009.638489 72.0
1009.885193 40.0
1014.571228 172.0
1016.264709 212.0
1016.950073 204.0
1017.578552 200.0
1017.737305 52.0
1021.04187 232.0
1022.804321 152.0
1023.975952 188.0
1024.313477 216.0
1025.600708 264.0
1028.011597 124.0
1035.414917 188.0
1042.37561 116.0
1043.359009 188.0
1043.815552 140.0
1044.150024 168.0
1045.526733 124.0
1045.938721 208.0
1051.383911 108.0
1056.179321 112.0
1056.612793 204.0
1057.104614 184.0
1057.491821 188.0
1058.017212 140.0
1064.306519 76.0
1065.93042 232.0
1066.840454 180.0
1069.149536 152.0
1069.396851 212.0
1070.725098 248.0
1074.160156 160.0
1075.112793 148.0
1075.745972 104.0
1077.476685 144.0
1078.188965 76.0
1078.469971 156.0
1078.83606 168.0
1082.1073 124.0
1083.20105 144.0
1084.118286 148.0
1085.206421 124.0
1086.065552 156.0
1088.428223 80.0
1088.730347 136.0
1089.328003 132.0
1090.208496 220.0
1091.733765 220.0
1094.523926 116.0
1094.813721 188.0
1095.742554 104.0
1097.363892 72.0
1097.555176 176.0
1098.221069 132.0
1099.547485 160.0
1099.60022 164.0
1101.435791 160.0
1103.253174 188.0
1105.058716 180.0
1105.330078 128.0
1105.495483 144.0
1107.700317 120.0
1109.045532 128.0
1111.426392 160.0
1111.625488 116.0
1112.289185 124.0
1115.464478 116.0
1115.610718 144.0
1118.231567 208.0
1118.44458 88.0
1120.63562 196.0
1124.003052 148.0
1125.00415 96.0
1125.151001 244.0
1125.197754 96.0
1125.618408 252.0
1129.755859 184.0
1132.198975 52.0
1133.753296 176.0
1134.52417 200.0
1134.584473 120.0
1135.858643 172.0
1136.355469 156.0
1138.536743 164.0
1138.607666 188.0
1140.068604 212.0
1142.152832 76.0
1143.22937 168.0
1143.731079 140.0
1144.79126 196.0
1151.056152 160.0
1151.765259 144.0
1152.177368 136.0
1153.407349 112.0
1154.556763 108.0
1157.581787 184.0
1158.252319 188.0
1159.031494 144.0
1160.963501 112.0
1161.872437 216.0
1163.996948 184.0
1164.750854 160.0
1166.340942 120.0
1168.265381 268.0
1170.681763 204.0
1171.887451 124.0
1172.091919 176.0
1175.658447 204.0
1177.97998 220.0
1179.325317 60.0
1188.592407 176.0
1190.439087 168.0
1190.851074 136.0
1194.129639 192.0
1195.856689 160.0
1196.786133 168.0
1197.419678 164.0
1199.666016 212.0
1200.383057 172.0
1204.386108 136.0
1204.572632 136.0
1208.285156 236.0
1209.053223 164.0
1210.867188 160.0
1213.507446 140.0
1218.365845 344.0
1219.380371 180.0
1222.002075 232.0
1222.438477 224.0
1222.572632 168.0
1222.621338 184.0
1222.844116 148.0
1223.185181 196.0
1223.860474 124.0
1225.546143 112.0
1227.658325 108.0
1228.104736 48.0
1228.858398 144.0
1229.248901 176.0
1230.882446 220.0
1231.371338 128.0
1233.07605 148.0
1233.824097 240.0
1234.124756 176.0
1234.411377 244.0
1235.418579 132.0
1235.467529 108.0
1236.895142 192.0
1237.994507 184.0
1238.141479 156.0
1239.521606 100.0
1240.923584 224.0
1242.129761 204.0
1242.234985 144.0
1242.34729 200.0
1245.913696 160.0
1246.229858 208.0
1247.537109 176.0
1249.239014 56.0
1251.197998 164.0
1253.985107 140.0
1254.781738 132.0
1254.852173 216.0
1255.867676 224.0
1257.546997 148.0
1258.902588 124.0
1259.91272 204.0
1261.163452 120.0
1261.743164 144.0
1261.948242 172.0
1262.718994 232.0
1263.433472 176.0
1265.967529 196.0
1269.092529 164.0
1270.071289 144.0
1271.92334 208.0
1272.164673 220.0
1273.890381 164.0
1274.842529 156.0
1275.787109 160.0
1277.800537 192.0
1278.46228 164.0
1279.038818 152.0
1280.519897 232.0
1282.536377 192.0
1282.707397 168.0
1283.441772 216.0
1283.848267 160.0
1285.303589 116.0
1285.99585 52.0
1287.145264 200.0
1288.123779 200.0
1288.616699 176.0
1289.710083 240.0
1289.795898 92.0
1291.261719 124.0
1292.549438 128.0
1293.515625 96.0
1293.94519 72.0
1294.310425 148.0
1295.420532 132.0
1295.785889 136.0
1298.2948 164.0
1298.804077 116.0
1299.80127 256.0
1300.016602 216.0
1301.229736 164.0
1301.875977 160.0
1304.397949 92.0
1305.87207 180.0
1307.843506 80.0
1308.275513 148.0
1310.500977 188.0
1311.178345 80.0
1311.625244 184.0
1313.096191 100.0
1313.543457 168.0
1313.803101 156.0
1315.614624 212.0
1318.410034 152.0
1319.385864 148.0
1319.761841 188.0
1323.133545 184.0
1323.292847 132.0
1324.893433 116.0
1325.088989 200.0
1325.523804 136.0
1325.915161 180.0
1326.843018 144.0
1327.024292 224.0
1327.524658 176.0
1328.010498 140.0
1329.795532 44.0
1331.370972 204.0
1331.646973 168.0
1332.983765 204.0
1333.034668 108.0
1334.646973 168.0
1334.80835 164.0
1335.033813 200.0
1336.503296 64.0
1336.612427 136.0
1337.915283 80.0
1338.657959 192.0
1338.738037 160.0
1339.079712 208.0
1339.379028 236.0
1339.72876 144.0
1341.368408 160.0
1343.621826 200.0
1343.935669 168.0
1345.585205 176.0
1347.060425 220.0
1347.228516 192.0
1347.418457 72.0
1347.776489 224.0
1348.00293 144.0
1348.083374 160.0
1348.324585 184.0
1348.836182 188.0
1348.982422 100.0
1349.713501 36.0
1351.542236 152.0
1352.710205 192.0
1355.027588 108.0
1356.522583 160.0
1356.947876 212.0
1357.248413 112.0
1358.825439 112.0
1359.867554 188.0
1360.161133 136.0
1360.293335 180.0
1363.032837 172.0
1364.546997 232.0
1365.25293 88.0
1365.679565 288.0
1367.261475 176.0
1368.652832 164.0
1369.890137 100.0
1371.032227 164.0
1371.835693 192.0
1372.329712 112.0
1373.317871 60.0
1374.232666 200.0
1377.185669 164.0
1377.34082 92.0
1378.995972 180.0
1381.502686 172.0
1382.346191 220.0
1382.664429 220.0
1385.026367 160.0
1385.908081 196.0
1387.790771 176.0
1387.894531 224.0
1388.762207 124.0
1389.919678 244.0
1390.305542 76.0
1390.63208 116.0
1391.032959 156.0
1391.849609 36.0
1392.777954 124.0
1395.31958 204.0
1395.58728 164.0
1396.587158 156.0
1396.792114 228.0
1396.918579 236.0
1397.230957 40.0
1398.987427 116.0
1404.203491 144.0
1404.516724 164.0
1405.068848 64.0
1405.270264 200.0
1405.941895 116.0
1406.210571 176.0
1407.151123 208.0
1408.211548 160.0
1409.078125 176.0
1409.2948 184.0
1411.268188 196.0
1412.23291 140.0
1412.726562 232.0
1413.400024 152.0
1413.474854 160.0
1413.594604 176.0
1414.477783 172.0
1414.597534 204.0
1416.477173 192.0
1417.406128 60.0
1419.902588 120.0
1420.765259 164.0
1424.053223 152.0
1424.413818 132.0
1424.586548 136.0
1424.834473 176.0
1424.969727 208.0
1427.924072 124.0
1428.518311 172.0
1428.623657 148.0
1428.901978 212.0
1429.970581 132.0
1430.866333 152.0
1432.681396 136.0
1433.449951 40.0
1433.774048 144.0
1434.527832 212.0
1434.814331 212.0
1435.704102 152.0
1436.775269 176.0
1437.077026 164.0
1437.348633 248.0
1438.480835 128.0
1438.571411 144.0
1439.031982 176.0
1441.774048 212.0
1442.000732 176.0
1443.497681 140.0
1443.785034 120.0
1444.579346 192.0
1446.001831 128.0
1446.062378 252.0
1446.842163 176.0
1446.940552 112.0
1447.197998 148.0
1452.002563 180.0
1452.882446 168.0
1455.220093 128.0
1456.70105 204.0
1457.073364 148.0
1457.894043 184.0
1458.289185 204.0
1458.532471 196.0
1459.110229 160.0
1460.037964 404.0
1462.297607 212.0
1463.836548 144.0
1465.031372 228.0
1465.107544 160.0
1466.006592 200.0
1466.540161 212.0
1469.087158 200.0
1469.201538 144.0
1469.331299 160.0
1470.20874 80.0
1471.063721 136.0
1471.307983 224.0
1472.048584 180.0
1472.125 52.0
1472.980469 208.0
1473.85144 88.0
1474.508667 176.0
1474.684448 176.0
1477.513794 148.0
1478.103027 100.0
1478.271362 160.0
1480.522095 236.0
1480.724243 164.0
1482.353149 156.0
1482.544678 56.0
1483.272827 140.0
1484.921387 52.0
1485.051758 112.0
1485.611816 180.0
1486.747437 152.0
1487.561035 140.0
1487.737549 164.0
1488.221313 164.0
1488.915283 120.0
1489.119873 176.0
1490.049316 152.0
1490.264404 120.0
1491.171265 164.0
1492.470459 348.0
1492.570435 124.0
1493.562622 164.0
1494.139526 152.0
1494.932129 200.0
1495.263062 140.0
1495.740234 160.0
1495.917358 204.0
1497.85022 128.0
1497.981201 140.0
1498.042847 180.0
1499.452881 176.0
1499.583984 36.0
1500.956299 120.0
1501.835449 204.0
1502.776611 184.0
1503.749023 40.0
1505.022827 148.0
