>compound MLS002153825-01!Myricetin529-44-2
>formula C15H10O8
>ionization [M+H]+
>parentmass 319.0448437320905
#inchi InChI=1S/C15H10O8/c16-6-3-7(17)11-10(4-6)23-15(14(22)13(11)21)5-1-8(18)12(20)9(19)2-5/h1-4,16-20,22H
#inchikey IKMDFBPHZNJCSN
#Ion_Source LC-ESI
#Instrument qTof
#Compound_Source NIH Pharmacologically Active Library
#PI Dorrestein
#Data_Collector VP/LMS
#Scan -1
#Precursor_MZ 319.048
#ExactMass 318.038
#Charge 1
#CAS_Number N/A
#Pubmed_ID N/A
#Smiles Oc1cc(O)c2c(=O)c(O)c(oc2c1)c3cc(O)c(O)c(O)c3
#INCHI_AUX N/A
#Library_Class 1
#SpectrumID CCMSLIB00000085726
#IonMode Positive
#UpdateWorkflowName UPDATE-SINGLE-ANNOTATED-GOLD
#LibraryQualityString Gold
#TaskID d252d724072548979f1f6f1ced849daf
##Scan# 1542
#SpectrumFile p4-E08_GE8_01_18380.mzXML
#LibraryName Pharm_Active_Library.mgf
#MQScore -1
#Organism Pharm_Active_Library
#TIC_Query 0
#RT_Query -1
#MZErrorPPM -1
#SharedPeaks 0
#MassDiff 0
#LibMZ -1
#SpecMZ 319.048
#SpecCharge 0
#internalFilename spec-00000.mgf

>collision 10
45.00341 96.0
45.567299 136.0
46.011753 92.0
47.807014 128.0
47.955761 44.0
49.207069 176.0
49.532135 228.0
49.661877 176.0
50.99905 120.0
51.138443 188.0
51.262348 224.0
52.00462 136.0
52.073536 156.0
52.200008 176.0
52.378475 148.0
54.065689 48.0
54.529144 108.0
55.176277 180.0
57.695587 128.0
58.687035 152.0
60.83646 108.0
61.166019 156.0
62.276222 116.0
62.422382 136.0
62.554546 188.0
63.540703 68.0
63.804344 168.0
64.587349 84.0
65.015144 208.0
65.039215 68.0
65.092201 140.0
65.203049 192.0
65.37352 228.0
66.779465 144.0
67.655746 184.0
68.498199 44.0
68.516319 220.0
69.071007 88.0
70.922684 152.0
72.378304 172.0
72.420639 144.0
72.481628 272.0
72.657967 72.0
73.307503 148.0
73.452423 164.0
73.59066 84.0
73.631645 248.0
75.643448 116.0
75.726562 136.0
75.759476 164.0
76.649063 48.0
77.401939 168.0
77.64904 100.0
77.770103 160.0
78.343361 76.0
79.255035 176.0
79.270988 160.0
79.299339 208.0
79.336563 156.0
79.963608 156.0
80.300346 124.0
80.762337 120.0
81.334557 124.0
81.803734 124.0
82.295921 32.0
82.970787 192.0
83.181221 184.0
83.253853 220.0
83.788628 204.0
84.199059 108.0
85.022919 112.0
85.081657 124.0
85.259834 136.0
88.055656 204.0
88.216347 48.0
88.648712 156.0
89.239998 120.0
89.663551 220.0
90.517456 136.0
91.035156 140.0
91.130127 60.0
93.028549 204.0
93.842361 132.0
94.077736 156.0
94.156906 196.0
95.008606 180.0
95.362022 228.0
95.589569 224.0
96.07473 88.0
96.801834 156.0
97.023239 80.0
97.036964 176.0
97.209579 184.0
97.724403 148.0
98.116341 40.0
98.165634 116.0
99.646248 120.0
100.386719 176.0
100.769966 192.0
100.789948 108.0
102.211647 224.0
102.547966 148.0
103.051064 332.0
103.065575 132.0
103.313286 52.0
105.03392 232.0
105.064781 184.0
105.67131 168.0
106.044014 104.0
107.017754 128.0
108.018333 200.0
108.200821 144.0
109.022858 160.0
109.95108 80.0
110.333344 172.0
110.626228 68.0
110.653442 104.0
111.010902 516.0
111.047409 600.0
111.217361 48.0
111.29924 52.0
112.014313 148.0
112.088051 92.0
112.176575 76.0
113.41317 80.0
113.53614 104.0
114.003197 128.0
115.050453 108.0
115.478539 272.0
116.290588 96.0
116.352837 236.0
117.361931 160.0
117.454666 120.0
118.908691 88.0
119.093239 128.0
120.02034 212.0
121.026566 336.0
121.064323 156.0
122.028191 184.0
122.375832 240.0
123.042412 180.0
123.587601 84.0
123.842186 144.0
123.890923 244.0
124.010162 232.0
125.020401 296.0
126.029053 144.0
126.151978 132.0
127.007385 184.0
127.035416 188.0
127.126297 140.0
128.041306 160.0
128.792374 168.0
129.050003 228.0
130.310211 176.0
130.36702 108.0
130.614838 96.0
130.803711 188.0
131.052155 204.0
131.159058 220.0
131.994659 140.0
133.028244 288.0
133.057816 260.0
133.145081 248.0
133.556488 116.0
134.092972 124.0
135.040558 136.0
135.28952 188.0
135.588318 80.0
136.001175 48.0
136.019745 144.0
136.792786 104.0
137.022034 1120.0
137.065201 176.0
137.348434 60.0
137.371765 208.0
137.544434 48.0
137.883118 160.0
137.90416 92.0
138.02565 124.0
138.166061 160.0
138.526581 140.0
139.039841 312.0
139.547485 92.0
142.024796 180.0
143.030548 240.0
143.050537 220.0
143.437241 136.0
143.537384 188.0
143.558838 204.0
144.279938 48.0
144.464096 80.0
145.057846 216.0
145.146683 160.0
145.624268 208.0
145.910233 172.0
146.011215 180.0
146.699875 132.0
147.006195 372.0
147.043625 508.0
147.95369 56.0
148.086884 64.0
148.5159 200.0
149.020996 512.0
149.059158 188.0
150.026001 184.0
150.24794 144.0
150.543274 208.0
151.421265 52.0
152.016998 192.0
152.69014 40.0
153.018127 7120.0
153.05928 196.0
153.202133 152.0
153.347519 104.0
153.616287 40.0
154.022018 492.0
154.936432 112.0
155.029648 148.0
155.072723 88.0
155.174362 92.0
155.295868 172.0
156.17514 152.0
157.231552 224.0
158.612228 100.0
160.051041 276.0
160.72229 108.0
161.028061 236.0
161.058701 500.0
161.325928 204.0
162.820908 124.0
163.03392 272.0
163.156326 92.0
164.039703 204.0
164.57547 116.0
164.81813 128.0
165.01709 1392.0
165.076309 36.0
166.022934 212.0
166.175186 48.0
166.4216 200.0
167.030685 200.0
167.280289 56.0
168.025085 148.0
168.399384 96.0
168.487213 52.0
168.673279 136.0
169.12854 168.0
170.274567 104.0
171.043716 688.0
171.221252 88.0
171.487 192.0
172.04657 320.0
172.105286 200.0
173.024612 208.0
173.057037 160.0
174.297729 156.0
174.994766 68.0
175.034088 184.0
175.321396 188.0
175.76178 220.0
176.033676 160.0
177.012115 152.0
177.056519 360.0
177.337982 88.0
177.977325 92.0
178.027786 192.0
178.059647 172.0
178.86264 184.0
179.03685 1144.0
179.055679 200.0
179.507385 192.0
179.638077 48.0
180.030441 172.0
181.086853 148.0
181.127029 80.0
181.872467 180.0
183.029327 264.0
183.13353 72.0
183.289795 40.0
184.320587 176.0
185.018402 192.0
187.039536 180.0
187.99205 148.0
189.014069 140.0
189.054001 1228.0
189.391876 56.0
190.047089 148.0
190.469879 56.0
190.552292 132.0
191.030655 356.0
192.040207 256.0
192.146408 68.0
192.174011 80.0
192.974991 172.0
193.019073 356.0
193.045593 360.0
194.010452 148.0
195.027039 356.0
195.468643 164.0
196.02713 452.0
196.145432 40.0
196.256943 184.0
196.29599 80.0
196.753586 52.0
199.038269 448.0
200.037918 512.0
201.05249 120.0
201.471832 136.0
202.008499 148.0
202.306091 136.0
202.5298 60.0
202.654449 128.0
202.739471 116.0
203.03273 1088.0
204.035339 300.0
204.042999 160.0
204.400742 40.0
205.019455 212.0
205.041229 332.0
205.512024 72.0
206.057724 156.0
206.660645 136.0
207.02948 212.0
207.069199 280.0
207.37085 60.0
208.034271 500.0
208.076538 160.0
209.026443 164.0
209.479965 40.0
210.220963 44.0
210.36528 84.0
212.712982 196.0
216.040573 144.0
216.585449 136.0
216.784683 200.0
217.010391 164.0
217.049271 3340.0
217.447479 96.0
217.785141 84.0
217.840942 40.0
217.893829 36.0
218.008423 168.0
218.054855 596.0
218.353104 84.0
218.740799 176.0
218.808502 128.0
219.025726 836.0
219.048065 192.0
219.203201 104.0
220.027252 200.0
220.436691 36.0
220.637695 96.0
221.012451 164.0
221.05014 224.0
221.131683 36.0
222.020447 180.0
222.031219 176.0
222.388397 88.0
222.557617 80.0
223.018097 116.0
224.814026 152.0
225.016998 104.0
227.033585 928.0
228.03981 164.0
229.053604 164.0
229.336853 152.0
229.928009 136.0
230.0578 140.0
230.24501 52.0
231.024078 316.0
231.182205 128.0
232.031876 376.0
233.040543 176.0
233.077484 64.0
233.320633 156.0
234.002151 136.0
234.051941 192.0
235.017395 132.0
235.056778 180.0
236.064575 124.0
237.02301 68.0
237.056717 128.0
239.000488 144.0
243.023682 136.0
243.961487 92.0
244.033539 256.0
244.717514 116.0
244.790817 204.0
245.043655 2488.0
245.144257 44.0
245.353104 52.0
245.652481 48.0
245.995743 196.0
246.047852 500.0
247.014481 160.0
247.389999 52.0
247.715683 144.0
248.025909 188.0
249.0457 176.0
253.117233 104.0
255.028732 268.0
255.12883 28.0
256.038879 168.0
256.867584 168.0
257.030304 140.0
258.052429 128.0
258.881195 76.0
259.018921 124.0
261.021027 192.0
261.030518 156.0
262.048401 168.0
263.056732 468.0
263.813782 48.0
270.016937 108.0
271.403259 136.0
272.034668 96.0
272.157928 68.0
272.187469 116.0
272.263 172.0
272.884064 100.0
273.041107 2404.0
273.212952 56.0
273.433441 60.0
273.983337 64.0
274.035614 252.0
274.25354 36.0
275.049805 180.0
279.779053 236.0
283.031067 96.0
284.019745 136.0
285.044525 344.0
290.040619 352.0
291.041534 212.0
291.331635 136.0
291.545715 72.0
292.052307 168.0
296.038666 132.0
296.744537 140.0
297.135529 152.0
299.607452 80.0
300.027924 196.0
300.811035 104.0
301.036469 120.0
302.044678 100.0
302.619507 192.0
302.92392 104.0
305.757263 124.0
307.747742 60.0
308.058563 84.0
311.0 112.0
317.027557 292.0
317.935425 144.0
318.034821 68.0
318.393402 160.0
318.485748 208.0
318.599426 144.0
318.823273 144.0
318.954803 44.0
319.042664 4100.0
319.200104 52.0
319.498871 76.0
320.04776 340.0
320.570648 32.0
321.046844 340.0
321.155334 60.0
321.744141 60.0
322.158417 52.0
322.594391 84.0
408.955444 120.0
495.674622 84.0
534.585022 32.0
555.714661 48.0
739.90625 56.0
746.17804 64.0
898.236633 52.0
910.09259 64.0
982.112 116.0
1029.252441 108.0
1055.922607 252.0
1067.986694 192.0
1070.954834 180.0
1143.600098 120.0
1151.394165 184.0
1202.997559 192.0
1222.209961 72.0
1260.373413 200.0
1291.717407 156.0
1310.001465 168.0
1327.732178 140.0
1367.574463 168.0
1370.299194 160.0
1416.390259 92.0
1425.528687 192.0
1454.994751 152.0
1482.071533 164.0
1484.187134 196.0
