>compound MLS001048852-01!(E)-1,3-bis(2,4-dimethoxyphenyl)prop-2-en-1-one
>formula C19H20O5
>ionization [M+H]+
>parentmass 329.139
#inchi InChI=1S/C19H20O5/c1-21-14-7-5-13(18(11-14)23-3)6-10-17(20)16-9-8-15(22-2)12-19(16)24-4/h5-12H,1-4H3/b10-6+
#inchikey SSDJNESHQBSBBC
#Ion_Source LC-ESI
#Instrument qTof
#Compound_Source NIH Natural Product Library
#PI Dorrestein
#Data_Collector VVP/LMS
#Scan -1
#Precursor_MZ 329.139
#ExactMass 328.131
#Charge 1
#CAS_Number N/A
#Pubmed_ID N/A
#Smiles COc1ccc(/C=C/C(=O)c2ccc(OC)cc2OC)c(OC)c1
#INCHI_AUX N/A
#Library_Class 1
#SpectrumID CCMSLIB00000080053
#IonMode Positive
#UpdateWorkflowName UPDATE-SINGLE-ANNOTATED-GOLD
#LibraryQualityString Gold
#TaskID b1d8e8f6646f4e71acdff9ca3d919d08
##Scan# 2328
#SpectrumFile p2-E03_GE3_01_18027.mzXML
#LibraryName NIH_Natural_Products_Library.mgf
#MQScore -1
#Organism NIH_Natural_Products_Library
#TIC_Query 0
#RT_Query -1
#MZErrorPPM -1
#SharedPeaks 0
#MassDiff 0
#LibMZ -1
#SpecMZ 329.139
#SpecCharge 0
#internalFilename spec-00000.mgf

>collision 10
94.969971 128.0
94.983543 160.0
95.044388 356.0
95.072792 84.0
95.088318 156.0
95.155838 164.0
95.176414 200.0
95.274727 132.0
95.307327 200.0
95.334961 96.0
95.360229 176.0
95.393272 144.0
95.414658 200.0
95.439529 232.0
95.54496 148.0
95.597122 148.0
95.747391 140.0
95.773438 216.0
95.875977 164.0
95.918854 236.0
95.96759 160.0
95.989037 132.0
96.043648 204.0
96.058403 188.0
96.096321 144.0
96.111931 92.0
96.151291 100.0
96.254417 192.0
96.291527 80.0
96.344261 176.0
96.373573 160.0
96.391159 164.0
96.430595 176.0
96.520363 80.0
96.631653 216.0
96.64386 192.0
96.70993 212.0
96.741249 184.0
96.754951 160.0
96.77845 176.0
96.874413 132.0
96.95475 80.0
97.06649 196.0
97.151703 160.0
97.235199 156.0
97.36364 192.0
97.42173 108.0
97.614349 128.0
97.630081 132.0
97.643845 144.0
97.773697 52.0
97.789436 136.0
97.840614 84.0
97.915359 180.0
97.964684 136.0
98.039558 184.0
98.056076 148.0
98.126289 208.0
98.193329 108.0
98.220947 148.0
98.240669 176.0
98.291969 88.0
98.311699 156.0
98.343277 232.0
98.382759 168.0
98.438042 172.0
98.451866 152.0
98.496651 208.0
98.603989 60.0
98.684036 172.0
98.772049 148.0
98.845253 204.0
98.898689 140.0
98.931328 220.0
98.958076 136.0
99.004456 132.0
99.116905 168.0
99.136345 168.0
99.177963 248.0
99.193825 168.0
99.243446 136.0
99.296928 168.0
99.347595 220.0
99.405029 196.0
99.441765 148.0
99.511589 184.0
99.55294 164.0
99.584717 152.0
99.683998 148.0
99.741684 208.0
99.803314 188.0
99.912704 148.0
99.948517 192.0
99.962448 168.0
99.976372 156.0
99.994286 100.0
100.010208 132.0
100.155563 164.0
100.175484 136.0
100.332916 132.0
100.366806 172.0
100.457741 192.0
100.484489 144.0
100.676109 128.0
100.720047 184.0
100.775986 192.0
100.843933 156.0
100.858459 192.0
100.968422 120.0
101.001892 96.0
101.135948 172.0
101.153961 196.0
101.171982 144.0
101.226044 100.0
101.261063 160.0
101.310165 192.0
101.366264 72.0
101.496552 132.0
101.518616 176.0
101.549362 144.0
101.586807 100.0
101.63295 204.0
101.664734 224.0
101.703789 148.0
101.72197 180.0
101.831688 52.0
101.855789 160.0
101.88221 160.0
101.940178 116.0
101.956253 112.0
101.970322 108.0
102.046577 188.0
102.086922 136.0
102.104698 124.0
102.12809 200.0
102.223717 144.0
102.259941 168.0
102.312279 144.0
102.352547 152.0
102.398865 192.0
102.429077 136.0
102.497711 276.0
102.539894 188.0
102.658836 164.0
102.737495 156.0
102.886841 56.0
102.901848 92.0
102.961678 128.0
102.99588 168.0
103.022141 216.0
103.054764 1528.0
103.107559 176.0
103.216171 212.0
103.242462 168.0
103.309204 140.0
103.404305 112.0
103.434669 56.0
103.463013 180.0
103.503502 156.0
103.584511 168.0
103.602745 108.0
103.707718 204.0
103.764877 176.0
103.789207 164.0
103.821655 128.0
103.948853 176.0
104.010338 152.0
104.034698 144.0
104.061478 368.0
104.122009 160.0
104.262192 228.0
104.373993 124.0
104.396744 172.0
104.453308 156.0
104.475685 196.0
104.548302 280.0
104.571327 132.0
104.66497 112.0
104.768845 132.0
104.807549 124.0
104.979393 208.0
105.013168 176.0
105.033852 1844.0
105.07016 2540.0
105.119537 208.0
105.201172 124.0
105.231796 216.0
105.25222 176.0
105.299187 92.0
105.355911 192.0
105.388649 156.0
105.393639 204.0
105.419716 284.0
105.489212 200.0
105.656334 216.0
105.757172 192.0
105.834961 200.0
105.881203 172.0
105.935318 156.0
106.036957 188.0
106.073524 140.0
106.099266 160.0
106.203842 112.0
106.228462 172.0
106.538437 132.0
106.552818 156.0
106.58847 320.0
106.719299 168.0
106.750145 140.0
106.803612 180.0
106.836525 148.0
106.949707 196.0
106.982681 180.0
107.012772 8076.0
107.049629 3060.0
107.098442 168.0
107.128853 40.0
107.162384 160.0
107.184479 116.0
107.25502 88.0
107.291656 148.0
107.344589 196.0
107.43808 48.0
107.563957 108.0
107.5998 176.0
107.61557 56.0
107.74485 356.0
107.774612 176.0
107.840736 188.0
108.015671 624.0
108.053864 248.0
108.092682 184.0
108.150993 104.0
108.173759 128.0
108.200676 168.0
108.252182 152.0
108.270187 196.0
108.320786 52.0
108.376724 36.0
108.438889 120.0
108.4534 80.0
108.474129 132.0
108.582832 228.0
108.60833 200.0
108.656624 120.0
108.696976 112.0
108.78463 176.0
108.790108 260.0
108.807297 180.0
108.82473 164.0
108.846786 164.0
108.874573 68.0
108.891182 116.0
108.951424 156.0
108.997131 172.0
109.026222 56.0
109.065155 5684.0
109.093628 168.0
109.119148 136.0
109.147766 92.0
109.162598 60.0
109.197861 172.0
109.290314 192.0
109.314362 60.0
109.338173 164.0
109.404785 40.0
109.42144 100.0
109.487549 112.0
109.577637 132.0
109.598473 132.0
109.690285 148.0
109.92794 68.0
109.944633 124.0
109.982201 116.0
110.037155 172.0
110.070206 332.0
110.113739 132.0
110.154373 44.0
110.193115 168.0
110.270432 208.0
110.312241 108.0
110.341507 136.0
110.44397 120.0
110.47744 184.0
110.565323 76.0
110.592529 64.0
110.615204 192.0
110.641541 176.0
110.657425 160.0
110.682549 124.0
110.701393 176.0
110.82917 144.0
110.96122 236.0
110.994614 164.0
111.000557 152.0
111.041595 188.0
111.075241 228.0
111.122711 48.0
111.141594 64.0
111.189857 244.0
111.231834 152.0
111.267052 160.0
111.290619 200.0
111.345215 208.0
111.448151 108.0
111.538521 124.0
111.575417 152.0
111.673088 204.0
111.712234 76.0
111.753021 216.0
111.767754 144.0
111.841812 208.0
111.898247 216.0
111.956078 176.0
112.035141 76.0
112.062531 64.0
112.100456 108.0
112.12426 108.0
112.176331 128.0
112.235367 152.0
112.269104 52.0
112.300735 80.0
112.358696 132.0
112.477982 164.0
112.524422 116.0
112.634232 212.0
112.670143 248.0
112.737762 152.0
112.818077 132.0
112.845566 188.0
112.885735 196.0
112.985146 108.0
112.999954 100.0
113.05497 96.0
113.103653 164.0
113.141754 164.0
113.186218 208.0
113.290001 96.0
113.323898 144.0
113.352264 200.0
113.482582 184.0
113.684372 160.0
113.773026 208.0
113.83815 172.0
113.924294 156.0
114.028412 200.0
114.043289 184.0
114.111313 184.0
114.183617 56.0
114.198502 172.0
114.219391 200.0
114.272957 188.0
114.379364 172.0
114.394264 204.0
114.445358 172.0
114.632805 128.0
114.671165 144.0
114.73085 156.0
114.786285 176.0
114.858795 176.0
114.918533 196.0
114.937737 128.0
114.952675 76.0
115.003891 188.0
115.018829 160.0
115.055374 300.0
115.110634 184.0
115.146942 152.0
115.21743 180.0
115.279396 184.0
115.300766 164.0
115.360611 164.0
115.386269 124.0
115.471489 164.0
115.516716 200.0
115.544174 48.0
115.876373 132.0
115.891373 132.0
115.91066 112.0
115.96209 240.0
116.041405 132.0
116.167938 148.0
116.249466 104.0
116.292389 116.0
116.33532 72.0
116.440536 132.0
116.465309 276.0
116.552238 128.0
116.691948 288.0
116.76506 176.0
116.814529 136.0
116.870468 136.0
116.945786 136.0
117.006058 180.0
117.031898 160.0
117.068474 312.0
117.11158 172.0
117.133339 192.0
117.314125 148.0
117.333534 164.0
117.411156 188.0
117.458611 136.0
117.484489 120.0
117.550041 84.0
117.566299 376.0
117.715439 204.0
117.73703 156.0
117.806282 132.0
117.827667 208.0
117.858002 136.0
117.907707 160.0
117.937965 228.0
117.970383 172.0
118.04052 408.0
118.059036 212.0
118.087151 108.0
118.178009 204.0
118.21479 104.0
118.277077 144.0
118.292709 208.0
118.322807 168.0
118.366318 168.0
118.480286 188.0
118.541779 100.0
118.621971 172.0
118.754242 180.0
118.786774 208.0
118.904503 308.0
118.947273 224.0
118.969818 184.0
119.007706 180.0
119.048843 536.0
119.136276 160.0
119.168007 228.0
119.223587 176.0
119.342743 80.0
119.380142 100.0
119.410156 164.0
119.451485 140.0
119.645164 196.0
119.688705 104.0
119.714836 104.0
119.732262 172.0
119.804138 128.0
119.891296 160.0
119.934883 136.0
120.020775 280.0
120.058304 1080.0
120.187859 228.0
120.21077 216.0
120.231506 48.0
120.248962 188.0
120.364662 96.0
120.410522 148.0
120.537231 140.0
120.73616 120.0
120.764595 140.0
120.788651 152.0
120.840874 156.0
120.983101 140.0
120.99913 140.0
121.028252 172.0
121.064934 4012.0
121.124199 124.0
121.191475 152.0
121.224342 32.0
121.239685 32.0
121.265984 92.0
121.355858 32.0
121.485252 152.0
121.614716 208.0
121.634476 116.0
121.680573 168.0
121.739861 168.0
121.770607 216.0
121.795868 192.0
121.823036 184.0
121.863678 164.0
121.912674 224.0
121.933189 172.0
121.963959 192.0
121.988136 204.0
122.037048 37248.0
122.071991 248.0
122.10247 120.0
122.121475 64.0
122.153061 56.0
122.194862 212.0
122.210922 172.0
122.236992 160.0
122.335129 76.0
122.400085 160.0
122.44545 328.0
122.471413 216.0
122.485451 244.0
122.575775 48.0
122.610115 48.0
122.681572 144.0
122.734482 48.0
122.767563 128.0
122.787407 40.0
122.834129 132.0
122.963905 80.0
123.040421 2128.0
123.084 168.0
123.118446 180.0
123.173668 156.0
123.250992 56.0
123.312035 132.0
123.425606 152.0
123.571587 172.0
123.624695 140.0
123.640182 196.0
123.731758 260.0
123.792282 136.0
123.848915 160.0
123.899254 168.0
123.97715 128.0
124.004013 104.0
124.022018 160.0
124.048309 348.0
124.100937 148.0
124.124481 84.0
124.141479 160.0
124.322754 64.0
124.360382 176.0
124.391563 208.0
124.471489 192.0
124.5159 204.0
124.571434 184.0
124.61586 156.0
124.649857 188.0
124.727898 164.0
124.778107 128.0
124.930649 156.0
125.060196 1312.0
125.151756 196.0
125.166206 196.0
125.220924 76.0
125.276611 208.0
125.3078 192.0
125.354591 160.0
125.410309 96.0
125.497253 180.0
125.54631 168.0
125.581993 136.0
125.598816 192.0
125.64222 164.0
125.6623 240.0
125.700233 104.0
125.782806 188.0
125.80513 144.0
125.874344 144.0
125.950279 56.0
126.005966 112.0
126.013641 176.0
126.059753 32.0
126.115623 176.0
126.158096 188.0
126.341972 232.0
126.426498 172.0
126.550224 132.0
126.596634 156.0
126.71759 156.0
126.887924 172.0
126.961922 132.0
127.114464 152.0
127.298538 156.0
127.375267 172.0
127.453529 68.0
127.482742 108.0
127.514206 152.0
127.54792 136.0
127.572647 76.0
127.615364 192.0
127.706749 232.0
127.713341 148.0
127.81105 176.0
127.847054 188.0
127.932579 116.0
128.010345 260.0
128.067688 168.0
128.368088 136.0
128.760025 116.0
128.789108 180.0
128.826996 200.0
128.834717 124.0
128.840042 204.0
128.945358 344.0
128.992828 104.0
129.07196 132.0
129.153366 144.0
129.19635 168.0
129.220581 168.0
129.332123 208.0
129.366074 124.0
129.390976 156.0
129.568726 216.0
129.760269 164.0
129.803345 176.0
129.932632 188.0
130.227737 88.0
130.282242 164.0
130.298157 236.0
130.395706 188.0
130.477692 216.0
130.550461 188.0
130.568649 132.0
130.684662 96.0
130.732452 180.0
130.777969 188.0
130.823486 144.0
130.848526 140.0
130.866745 136.0
131.049774 316.0
131.065506 168.0
131.1082 116.0
131.21077 160.0
131.23233 152.0
131.253372 244.0
131.281342 156.0
131.317947 48.0
131.475372 172.0
131.505035 168.0
131.540878 240.0
131.616898 176.0
131.657211 184.0
131.695938 164.0
131.774506 156.0
131.927628 156.0
131.998505 124.0
132.057053 508.0
132.095322 204.0
132.252441 176.0
132.330276 76.0
132.37384 168.0
132.557037 176.0
132.671631 180.0
132.699142 104.0
132.722076 176.0
132.793167 148.0
132.811508 124.0
132.841339 180.0
132.861984 104.0
132.894104 76.0
132.910156 152.0
132.946884 112.0
132.995071 112.0
133.029053 7488.0
133.066818 604.0
133.091492 172.0
133.108337 192.0
133.135117 48.0
133.233887 156.0
133.270599 168.0
133.318542 128.0
133.399063 192.0
133.433838 64.0
133.454529 100.0
133.514313 304.0
133.546509 120.0
133.562607 84.0
133.597122 156.0
133.677643 136.0
133.765106 200.0
133.785828 96.0
133.806549 108.0
133.873322 136.0
133.92923 160.0
134.033035 1188.0
134.071518 452.0
134.118301 108.0
134.193604 124.0
134.29776 172.0
134.316757 224.0
134.338898 184.0
134.410416 160.0
134.428879 192.0
134.447342 112.0
134.465805 120.0
134.495819 88.0
134.52121 148.0
134.571075 140.0
134.574814 180.0
134.596054 476.0
134.625107 252.0
134.666672 204.0
134.745209 136.0
134.793732 96.0
134.858444 208.0
134.876938 128.0
134.909988 212.0
134.94397 124.0
134.983276 44.0
135.044891 12904.0
135.079895 3604.0
135.201523 140.0
135.287369 148.0
135.32341 76.0
135.346573 64.0
135.396545 44.0
135.430527 48.0
135.462372 116.0
135.490173 156.0
135.517975 72.0
135.589813 168.0
135.612976 244.0
135.631531 152.0
135.677887 192.0
135.720779 208.0
135.740494 84.0
135.810425 128.0
135.829758 180.0
135.851822 44.0
135.926056 168.0
135.951584 52.0
135.987793 172.0
136.004974 220.0
136.049179 720.0
136.086243 400.0
136.197693 168.0
136.225571 132.0
136.258087 100.0
136.283646 72.0
136.309204 48.0
136.446335 232.0
136.48819 108.0
136.523071 184.0
136.557953 124.0
136.578705 152.0
136.602158 240.0
136.641693 168.0
136.748734 152.0
136.845688 192.0
136.92569 136.0
136.948975 164.0
136.981583 128.0
137.025848 92.0
137.060104 5804.0
137.117035 232.0
137.136215 248.0
137.185272 88.0
137.221619 116.0
137.263596 172.0
137.284576 168.0
137.311325 136.0
137.39653 148.0
137.422195 136.0
137.450424 168.0
137.473541 148.0
137.541214 52.0
137.601013 160.0
137.708115 168.0
137.749039 52.0
137.819183 168.0
137.907928 80.0
138.01741 144.0
138.065765 916.0
138.118362 136.0
138.145767 208.0
138.277466 140.0
138.305557 172.0
138.32428 144.0
138.368759 132.0
138.409317 176.0
138.546753 144.0
138.774094 380.0
138.846786 132.0
138.886658 40.0
138.91011 160.0
138.980484 216.0
138.996918 184.0
139.026947 156.0
139.075851 424.0
139.097839 40.0
139.118958 252.0
139.144791 72.0
139.169479 132.0
139.414902 176.0
139.567703 164.0
139.701752 120.0
139.802933 152.0
139.829697 204.0
139.866486 168.0
139.937103 180.0
139.993622 112.0
140.072601 156.0
140.092545 160.0
140.146729 188.0
140.210342 204.0
140.233917 112.0
140.288132 164.0
140.342361 116.0
140.398972 200.0
140.462631 76.0
140.526337 128.0
140.552277 132.0
140.663208 68.0
140.700974 132.0
140.7789 216.0
140.796814 176.0
140.847382 204.0
140.880463 136.0
140.897003 184.0
141.074234 148.0
141.093155 200.0
141.205978 140.0
141.261047 116.0
141.457458 184.0
141.47403 72.0
141.516647 176.0
141.542694 104.0
141.689545 228.0
141.707672 128.0
141.87439 124.0
141.93367 200.0
141.986084 236.0
142.016663 180.0
142.056992 164.0
142.103577 120.0
142.181747 124.0
142.220718 188.0
142.239716 36.0
142.32756 64.0
142.349213 196.0
142.401169 80.0
142.492111 212.0
142.538956 248.0
142.624512 224.0
142.674438 168.0
142.781433 188.0
142.821869 116.0
143.040787 136.0
143.091858 184.0
143.176498 184.0
143.259857 168.0
143.343246 124.0
143.550644 140.0
143.579254 176.0
143.61264 48.0
143.631729 144.0
143.662735 104.0
143.684204 152.0
143.743866 80.0
143.919617 204.0
143.970642 152.0
144.032745 192.0
144.054428 348.0
144.097244 148.0
144.140244 216.0
144.180878 56.0
144.345825 76.0
144.376907 44.0
144.403214 148.0
144.45105 164.0
144.55632 136.0
144.707123 204.0
144.734848 152.0
144.766983 228.0
144.788544 152.0
144.894745 176.0
144.913101 204.0
144.958313 216.0
144.992172 156.0
145.064713 376.0
145.083252 120.0
145.152786 132.0
145.248718 148.0
145.279907 148.0
145.433487 144.0
145.477448 172.0
145.582153 160.0
145.62796 208.0
145.651978 60.0
145.892288 68.0
145.913925 156.0
145.977493 100.0
146.040451 348.0
146.070129 316.0
146.10817 224.0
146.155518 204.0
146.306061 124.0
146.327728 232.0
146.361435 28.0
146.467407 56.0
146.546906 148.0
146.603165 184.0
146.660172 140.0
147.048264 348.0
147.111526 140.0
147.154709 144.0
147.200577 192.0
147.224731 180.0
147.241638 184.0
147.268204 160.0
147.29718 140.0
147.415573 280.0
147.430832 176.0
147.483246 92.0
147.526749 228.0
147.544983 196.0
147.572693 204.0
147.666992 60.0
147.7323 40.0
147.7686 96.0
147.904114 168.0
147.942841 104.0
147.971573 212.0
148.020325 184.0
148.052872 25592.0
148.111801 160.0
148.129303 316.0
148.165298 28.0
148.241211 192.0
148.274078 112.0
148.288651 184.0
148.307907 136.0
148.344971 116.0
148.369217 32.0
148.400742 36.0
148.427048 164.0
148.454086 192.0
148.488571 128.0
148.512283 40.0
148.572937 132.0
148.58992 92.0
148.653 44.0
148.713669 60.0
148.844772 132.0
148.926437 152.0
148.966202 68.0
149.000214 224.0
149.05777 4384.0
149.133865 156.0
149.154037 40.0
149.187347 68.0
149.245697 104.0
149.321075 128.0
149.394043 156.0
149.4646 204.0
149.524368 172.0
149.576553 212.0
149.621887 148.0
149.759171 80.0
149.779724 184.0
149.878418 224.0
149.930069 136.0
149.968719 96.0
150.032089 21740.0
150.090973 212.0
150.121887 256.0
150.166351 132.0
150.20842 52.0
150.236938 88.0
150.292358 112.0
150.321365 80.0
150.353516 72.0
150.475037 264.0
150.501251 124.0
150.522507 92.0
150.572159 216.0
150.683533 56.0
150.713028 168.0
150.744797 172.0
150.803452 144.0
150.893188 152.0
150.955017 104.0
150.979477 212.0
151.036713 2540.0
151.075531 7844.0
151.144547 56.0
151.209442 52.0
151.246155 208.0
151.283859 140.0
151.32695 100.0
151.348984 52.0
151.373474 188.0
151.430176 52.0
151.493484 40.0
151.530807 164.0
151.566986 204.0
151.603745 36.0
151.647858 156.0
151.673447 60.0
151.747543 84.0
151.852753 184.0
151.891006 168.0
151.95192 56.0
152.046982 456.0
152.077866 1212.0
152.135544 204.0
152.177719 128.0
152.248932 176.0
152.359619 128.0
152.457748 160.0
152.479874 152.0
152.524109 84.0
152.602783 164.0
152.639923 188.0
152.681458 124.0
152.73558 136.0
152.809372 80.0
152.880737 160.0
152.8992 184.0
152.932419 168.0
153.003799 124.0
153.021042 108.0
153.044571 156.0
153.078094 328.0
153.09935 164.0
153.269806 244.0
153.35112 264.0
153.462051 68.0
153.611725 192.0
153.644562 32.0
153.740692 184.0
153.824707 236.0
153.8815 192.0
153.967926 124.0
154.046951 212.0
154.064255 64.0
154.097336 72.0
154.214981 84.0
154.38063 44.0
154.508896 224.0
154.541412 204.0
154.662674 216.0
154.838455 156.0
154.862076 216.0
154.922684 100.0
154.953506 180.0
155.022171 152.0
155.051529 144.0
155.16803 136.0
155.200256 152.0
155.254807 88.0
155.289536 200.0
155.306671 180.0
155.376358 168.0
155.487656 140.0
155.582336 172.0
155.694077 108.0
155.72139 120.0
155.930084 176.0
156.054382 180.0
156.151367 172.0
156.212097 144.0
156.357864 160.0
156.586899 164.0
156.619278 156.0
156.669098 96.0
156.86142 116.0
156.921402 204.0
157.142792 164.0
157.185211 140.0
157.222641 92.0
157.240112 40.0
157.437332 112.0
157.489792 124.0
157.622192 152.0
158.072586 268.0
158.152374 200.0
158.214966 140.0
158.465408 136.0
158.81636 180.0
158.860413 128.0
158.969406 228.0
159.00705 140.0
159.047043 200.0
159.082352 196.0
159.197845 96.0
159.313385 116.0
159.341019 52.0
159.489273 140.0
159.516922 156.0
159.637619 160.0
159.733185 164.0
159.753311 180.0
159.823761 192.0
159.855209 64.0
160.051468 352.0
160.397949 148.0
160.430725 40.0
160.486191 188.0
160.637512 156.0
160.724716 208.0
160.844421 128.0
160.905014 144.0
160.945404 168.0
160.998444 88.0
161.018646 152.0
161.060852 600.0
161.146027 164.0
161.165161 112.0
161.215698 84.0
161.417923 64.0
161.453339 176.0
161.555817 208.0
161.691147 112.0
161.731644 44.0
161.777206 144.0
161.845047 100.0
161.853882 140.0
162.065048 292.0
162.12674 188.0
162.298721 132.0
162.365036 244.0
162.422333 204.0
162.484253 232.0
162.55397 132.0
162.57814 68.0
162.610855 144.0
162.661896 148.0
162.79393 40.0
162.816788 108.0
162.842178 132.0
162.862503 112.0
162.905685 172.0
162.964111 196.0
163.009918 160.0
163.034897 208.0
163.07402 1844.0
163.223373 272.0
163.249908 220.0
163.271683 152.0
163.401413 156.0
163.449219 224.0
163.470123 92.0
163.48793 188.0
163.522049 260.0
163.541382 176.0
163.584656 108.0
163.610107 80.0
163.727234 84.0
163.829117 136.0
163.892807 84.0
163.910645 64.0
163.956177 208.0
163.993332 204.0
164.022781 132.0
164.053375 168.0
164.082367 424.0
164.129868 100.0
164.167358 272.0
164.192337 216.0
164.234421 168.0
164.316055 120.0
164.350998 92.0
164.366058 160.0
164.384949 120.0
164.423813 140.0
164.515335 368.0
164.573837 240.0
164.602554 184.0
164.668793 196.0
164.689713 64.0
164.726974 132.0
164.760117 252.0
164.794037 316.0
164.828064 172.0
164.862091 160.0
164.910629 152.0
164.917114 372.0
164.942993 148.0
164.964493 316.0
164.990768 416.0
165.05603 231344.0
165.11792 152.0
165.133087 52.0
165.156708 156.0
165.197876 160.0
165.220444 100.0
165.240738 60.0
165.2547 224.0
165.286026 316.0
165.307785 188.0
165.342178 140.0
165.380112 144.0
165.400284 116.0
165.443878 144.0
165.476532 2348.0
165.499115 168.0
165.5177 140.0
165.55127 128.0
165.577164 200.0
165.60025 64.0
165.641632 136.0
165.664093 140.0
165.699829 176.0
165.738586 136.0
165.781189 48.0
165.827942 132.0
165.860321 96.0
165.910797 268.0
165.95433 288.0
166.010132 332.0
166.058472 22420.0
166.09343 260.0
166.128708 52.0
166.181015 100.0
166.189453 56.0
166.226913 44.0
166.250488 52.0
166.278717 36.0
166.318954 100.0
166.349777 168.0
166.367599 264.0
166.395966 84.0
166.416428 92.0
166.466125 188.0
166.499893 52.0
166.554642 68.0
166.597107 32.0
166.620056 60.0
166.672638 80.0
166.726486 216.0
166.755203 68.0
166.784698 80.0
166.85759 100.0
166.887039 128.0
166.926865 148.0
166.974152 116.0
166.997116 156.0
167.024109 252.0
167.064255 2080.0
167.10434 132.0
167.120346 284.0
167.148346 156.0
167.158493 104.0
167.164474 204.0
167.186279 136.0
167.21376 232.0
167.247467 232.0
167.290482 248.0
167.308182 80.0
167.323044 132.0
167.373062 192.0
167.403519 144.0
167.424026 188.0
167.449493 96.0
167.470703 88.0
167.511612 168.0
167.548965 132.0
167.592773 92.0
167.63063 52.0
167.670074 80.0
167.760712 48.0
167.79512 76.0
167.828445 92.0
167.863419 240.0
167.899521 56.0
167.946686 148.0
167.984406 100.0
168.04187 1924.0
168.097076 104.0
168.134293 96.0
168.158432 124.0
168.201401 92.0
168.237534 76.0
168.2677 320.0
168.291748 32.0
168.322739 64.0
168.341934 156.0
168.441544 88.0
168.555222 64.0
168.582245 56.0
168.66893 132.0
168.715454 56.0
168.757874 76.0
168.818893 52.0
168.873199 44.0
168.927521 60.0
169.015472 60.0
169.046204 340.0
169.085342 84.0
169.138718 84.0
169.173355 68.0
169.225128 64.0
169.344254 100.0
169.396057 124.0
169.436371 100.0
169.727798 184.0
169.764099 72.0
170.018326 152.0
170.041687 288.0
170.470184 124.0
170.488373 56.0
170.545563 120.0
170.888824 100.0
170.953369 244.0
170.979904 144.0
171.000717 44.0
171.042358 176.0
171.07518 184.0
171.094437 120.0
171.190765 136.0
171.550323 92.0
171.581604 196.0
172.059036 136.0
172.129532 196.0
172.367233 128.0
172.450867 168.0
172.516205 28.0
172.654785 76.0
172.968765 84.0
172.994934 180.0
173.063004 164.0
173.099655 152.0
173.21228 100.0
173.558212 104.0
173.846771 176.0
174.068314 340.0
174.214355 116.0
174.571808 40.0
174.742783 132.0
174.763824 84.0
174.911209 52.0
175.077499 320.0
175.256195 48.0
175.4776 100.0
175.501328 68.0
175.559341 192.0
175.598892 116.0
175.783569 68.0
175.809952 200.0
175.934006 164.0
176.003555 152.0
176.047424 16796.0
176.114731 92.0
176.169037 132.0
176.323807 56.0
176.366058 100.0
176.396301 36.0
176.438599 56.0
176.591965 44.0
176.686844 92.0
176.742752 48.0
176.843155 68.0
176.975677 68.0
177.050781 2040.0
177.09227 268.0
177.304153 64.0
177.346558 64.0
177.394775 124.0
177.569275 92.0
177.59845 48.0
177.770889 56.0
177.895645 80.0
178.060501 344.0
178.140366 140.0
178.341232 128.0
178.40834 128.0
178.436264 128.0
178.631729 64.0
178.959061 56.0
179.065582 108.0
179.198776 160.0
179.50264 128.0
179.638657 40.0
179.940216 48.0
180.025665 56.0
180.059311 112.0
180.097778 124.0
180.180588 76.0
180.266083 148.0
180.399719 92.0
180.737518 80.0
181.0392 120.0
181.072601 152.0
181.151932 88.0
181.207947 116.0
181.28894 124.0
181.449158 64.0
181.501846 128.0
181.588593 176.0
181.683258 152.0
181.699707 76.0
181.958908 176.0
182.034088 88.0
182.064011 116.0
182.85672 112.0
183.043625 140.0
183.075745 180.0
183.213806 52.0
183.231003 112.0
183.314529 128.0
184.086044 164.0
184.959305 48.0
185.064423 140.0
185.095917 200.0
185.249054 124.0
185.411621 132.0
185.826492 120.0
185.986603 132.0
186.106049 116.0
186.255417 48.0
186.951431 64.0
187.071198 160.0
187.926941 132.0
188.082489 148.0
188.298187 144.0
188.489426 84.0
188.89679 60.0
189.091309 412.0
189.531952 148.0
189.869125 128.0
189.926712 72.0
190.022736 216.0
190.121521 44.0
190.45372 232.0
190.560867 160.0
190.824707 164.0
190.893448 104.0
190.975952 76.0
191.07132 20820.0
191.149551 48.0
191.187805 80.0
191.236328 96.0
191.291763 104.0
191.318695 108.0
191.344269 68.0
191.369476 84.0
191.404388 84.0
191.427307 80.0
191.452087 80.0
191.516373 108.0
191.556747 36.0
191.642151 108.0
191.717514 96.0
191.824036 152.0
192.017044 68.0
192.074768 2340.0
192.596664 88.0
192.823227 120.0
193.083786 460.0
193.213104 80.0
193.382767 140.0
193.452408 212.0
193.503708 240.0
193.536926 120.0
193.813904 92.0
193.888733 52.0
193.924759 84.0
194.055054 156.0
194.082413 124.0
194.62384 140.0
195.043335 176.0
195.082504 340.0
195.377029 120.0
195.67482 88.0
195.766708 64.0
196.053802 140.0
196.085571 348.0
196.312897 44.0
196.491409 60.0
196.840302 96.0
196.977158 52.0
197.059158 432.0
197.093079 244.0
197.592178 52.0
198.082077 104.0
198.104492 140.0
198.1241 60.0
198.768967 152.0
198.923325 180.0
199.066269 364.0
199.232224 148.0
199.417679 84.0
199.468277 116.0
199.62291 60.0
200.070282 156.0
200.233597 88.0
200.363159 52.0
201.082855 280.0
201.587723 140.0
201.737518 176.0
202.096695 172.0
203.077423 160.0
204.067932 148.0
204.372269 92.0
204.639816 128.0
205.646088 88.0
206.074448 172.0
206.185883 152.0
206.27449 36.0
207.087112 128.0
207.611572 168.0
207.651733 112.0
207.998901 64.0
208.040314 188.0
208.085022 148.0
208.297546 128.0
208.329132 76.0
208.869568 48.0
209.03067 36.0
209.097092 168.0
209.842926 124.0
210.069855 280.0
211.077805 772.0
211.564804 140.0
212.084793 748.0
212.138382 76.0
212.663406 88.0
212.863724 144.0
212.982788 188.0
213.008942 56.0
213.089523 244.0
213.523392 164.0
213.857986 100.0
214.065506 184.0
214.091644 264.0
214.799133 92.0
215.102615 144.0
215.131805 116.0
216.07283 164.0
217.136124 92.0
217.861145 228.0
219.046646 172.0
220.075897 68.0
220.974396 108.0
221.061874 156.0
221.098679 132.0
221.448029 176.0
222.063156 140.0
222.717484 116.0
223.035416 144.0
223.076035 132.0
223.121628 144.0
223.169205 116.0
223.198929 140.0
223.90123 128.0
224.083405 440.0
224.567413 152.0
225.053146 136.0
225.088669 476.0
226.041641 136.0
226.068192 184.0
226.09552 272.0
226.32901 68.0
226.838318 128.0
226.98822 208.0
227.071701 148.0
227.109161 584.0
227.918747 172.0
228.08345 368.0
228.08757 448.0
228.114761 176.0
228.426819 44.0
229.084549 440.0
229.342194 116.0
229.535141 48.0
230.095154 220.0
230.827545 84.0
231.099777 332.0
231.136078 196.0
231.160294 120.0
232.481522 60.0
232.572571 80.0
233.082779 52.0
234.065277 116.0
234.226685 104.0
234.561874 80.0
235.025436 136.0
235.062042 220.0
236.039536 128.0
236.063995 80.0
236.088455 96.0
236.431091 112.0
237.053802 164.0
237.083557 320.0
237.132431 56.0
237.319427 88.0
238.063278 484.0
238.100479 272.0
239.067368 484.0
239.116486 108.0
240.078247 700.0
240.494171 88.0
241.04599 176.0
241.081818 1072.0
241.133514 116.0
241.223145 60.0
241.263336 56.0
241.767502 48.0
242.057205 408.0
242.089767 492.0
242.435455 64.0
242.873581 60.0
243.101562 292.0
244.109497 352.0
245.012268 148.0
245.11821 132.0
245.794861 200.0
246.085129 136.0
247.075867 112.0
247.104019 240.0
247.999634 184.0
248.091766 184.0
248.68338 180.0
249.339783 128.0
250.063934 160.0
250.53511 104.0
250.793869 168.0
250.866364 108.0
251.036621 136.0
251.075394 164.0
251.692978 56.0
251.996185 44.0
252.080734 216.0
252.862625 84.0
253.09021 296.0
253.176056 88.0
253.996933 228.0
254.092575 296.0
255.070297 128.0
255.102737 624.0
255.789078 192.0
256.076385 668.0
256.109558 168.0
256.161652 188.0
257.079926 604.0
257.124573 136.0
257.395905 60.0
257.654633 48.0
258.00296 76.0
258.08255 356.0
258.137268 104.0
258.485931 44.0
258.722778 44.0
259.014191 152.0
259.133698 380.0
260.091553 144.0
260.184662 52.0
260.499359 60.0
262.394867 136.0
262.817383 52.0
263.062653 272.0
263.899414 92.0
264.077057 176.0
264.883209 88.0
265.079224 344.0
265.635254 68.0
266.056244 212.0
266.092529 200.0
267.068848 308.0
267.09613 360.0
267.809814 180.0
267.995514 60.0
268.073273 504.0
268.117767 144.0
268.279053 172.0
268.562744 140.0
269.069092 140.0
269.115112 628.0
269.280792 44.0
269.855927 180.0
269.904968 88.0
269.999237 116.0
270.08136 140.0
270.119568 260.0
270.749237 124.0
271.097321 1168.0
271.286591 188.0
271.57843 68.0
271.755585 116.0
271.995148 276.0
272.067352 136.0
272.101593 504.0
273.089294 120.0
273.424866 68.0
273.98465 84.0
274.123016 224.0
274.960663 268.0
275.092682 56.0
277.879242 224.0
279.098633 316.0
280.073273 172.0
280.109894 128.0
280.936615 68.0
281.082336 564.0
281.121857 284.0
281.908234 68.0
282.081482 352.0
282.667297 84.0
282.925018 72.0
283.097565 2016.0
283.71228 36.0
283.983887 84.0
284.024139 60.0
284.099945 388.0
284.138214 136.0
285.101898 116.0
285.512024 172.0
285.697021 72.0
286.120331 168.0
286.178284 32.0
287.127991 2852.0
287.182526 52.0
287.280334 40.0
287.324188 52.0
287.82373 88.0
288.131683 804.0
288.306763 56.0
288.391266 56.0
288.414917 80.0
288.942444 52.0
289.267334 100.0
289.541595 108.0
290.141327 172.0
291.944305 48.0
293.68808 52.0
295.094849 408.0
296.112366 340.0
297.111938 872.0
297.197998 160.0
297.479431 184.0
297.864014 68.0
298.081421 280.0
298.115234 172.0
298.544525 84.0
298.709625 120.0
299.092224 1840.0
299.239594 52.0
299.611542 48.0
299.732147 48.0
299.807953 48.0
300.032013 52.0
300.092041 236.0
300.808167 56.0
301.08786 128.0
301.156921 64.0
301.360748 72.0
301.398743 36.0
301.80661 44.0
301.893066 40.0
301.969147 124.0
302.830963 232.0
304.217926 100.0
305.844757 32.0
307.625977 52.0
308.820984 76.0
310.403931 48.0
311.120819 344.0
311.323334 112.0
311.667572 92.0
312.064758 140.0
312.140564 92.0
312.205414 88.0
313.10434 784.0
313.994446 72.0
314.115936 884.0
315.110992 156.0
316.096375 104.0
318.049133 36.0
318.315399 36.0
318.727448 76.0
318.770081 80.0
319.929596 84.0
321.965546 108.0
329.13501 1656.0
329.411316 124.0
330.141083 448.0
331.162079 176.0
331.484436 32.0
331.763519 92.0
332.322021 88.0
334.116791 112.0
338.643188 48.0
339.541107 76.0
340.069427 52.0
340.741425 100.0
345.652649 72.0
347.991486 92.0
349.694 100.0
349.742401 44.0
352.565735 68.0
352.834839 76.0
353.56424 68.0
353.953552 104.0
354.065887 68.0
356.20755 40.0
356.647186 64.0
357.421906 56.0
357.933807 104.0
359.520813 60.0
360.597168 80.0
364.990845 172.0
365.610901 76.0
369.120453 72.0
373.68869 124.0
379.009277 56.0
380.02124 56.0
382.415009 52.0
384.27771 124.0
384.984222 88.0
387.620789 108.0
388.208771 84.0
390.604553 76.0
392.427917 80.0
395.402405 76.0
400.719421 76.0
401.10199 56.0
403.389252 100.0
404.833618 76.0
404.901703 76.0
408.321045 60.0
410.467468 56.0
414.351685 104.0
414.513763 44.0
415.125854 68.0
420.373474 76.0
421.312531 72.0
424.332855 96.0
429.543274 44.0
436.73819 68.0
445.062927 112.0
446.55896 124.0
448.428314 108.0
448.546326 84.0
452.238007 60.0
458.36615 96.0
458.604797 76.0
459.6539 80.0
473.85611 104.0
481.533813 84.0
481.887665 80.0
483.413666 56.0
497.389465 120.0
508.822113 64.0
511.253845 48.0
514.630066 84.0
518.878418 60.0
521.743103 64.0
524.241882 28.0
528.223145 76.0
529.120117 56.0
529.472656 52.0
531.007996 68.0
531.296997 72.0
535.797729 196.0
542.609863 20.0
544.424133 52.0
546.46936 112.0
552.216431 64.0
558.115784 52.0
561.652527 64.0
566.137695 48.0
575.958984 52.0
578.124756 80.0
582.41571 88.0
587.175781 72.0
589.681458 100.0
591.233887 112.0
594.91272 100.0
602.871338 68.0
626.337097 56.0
680.944336 96.0
682.539673 176.0
692.302979 160.0
700.696594 204.0
708.647949 48.0
711.0448 80.0
721.837708 48.0
725.033569 96.0
727.125122 160.0
732.674255 68.0
733.703613 176.0
740.945374 100.0
751.165466 76.0
761.318237 172.0
761.477478 104.0
767.508789 120.0
772.341003 80.0
779.320435 108.0
781.082703 176.0
782.897095 96.0
794.478271 68.0
817.167297 52.0
818.05835 172.0
827.325806 184.0
828.746155 156.0
831.94635 76.0
836.332214 168.0
836.913635 68.0
841.710938 64.0
844.085815 52.0
846.128235 156.0
847.344421 116.0
866.289673 96.0
866.471313 172.0
868.452637 116.0
874.180664 52.0
875.157776 144.0
878.64679 164.0
886.380371 36.0
886.433716 168.0
887.868286 220.0
889.808594 236.0
892.779541 116.0
893.993103 212.0
895.946045 244.0
896.607422 108.0
897.93689 208.0
901.506897 52.0
904.724731 184.0
907.240784 188.0
907.942322 56.0
908.212219 164.0
916.158875 52.0
918.775208 132.0
920.108948 120.0
922.398438 132.0
925.623047 48.0
927.676941 192.0
930.655701 136.0
937.157593 196.0
941.659546 32.0
943.064758 104.0
944.623962 104.0
945.235779 156.0
945.988525 176.0
947.066223 212.0
950.161865 116.0
957.076172 156.0
957.858337 124.0
960.1203 140.0
960.262146 168.0
961.829285 200.0
962.570129 220.0
962.829529 208.0
964.423523 252.0
965.313721 88.0
965.530151 240.0
966.489014 272.0
967.367798 104.0
968.358521 216.0
969.405457 208.0
969.839294 168.0
975.027832 224.0
975.525085 184.0
980.130554 184.0
981.508118 140.0
986.615234 120.0
987.240479 148.0
987.840881 204.0
993.328247 160.0
994.633362 288.0
994.721252 48.0
995.945679 204.0
996.548767 140.0
997.667419 140.0
998.623169 144.0
999.371765 44.0
999.988464 152.0
1001.386169 96.0
1001.600281 160.0
1003.043274 108.0
1006.241272 160.0
1010.608887 152.0
1011.115112 72.0
1012.609253 136.0
1014.915894 144.0
1015.309021 164.0
1015.569031 128.0
1015.981384 168.0
1017.206116 184.0
1020.293396 160.0
1025.334595 220.0
1028.664062 196.0
1029.532349 164.0
1030.02417 80.0
1030.803589 172.0
1031.628052 176.0
1036.588135 144.0
1037.241943 112.0
1037.523926 228.0
1037.588013 144.0
1038.838623 172.0
1040.1604 152.0
1040.963013 132.0
1041.662964 160.0
1042.55603 28.0
1043.552368 184.0
1043.648804 260.0
1043.970337 200.0
1044.16333 208.0
1045.018799 156.0
1045.855347 80.0
1046.685791 56.0
1047.400757 64.0
1049.707886 208.0
1050.61731 168.0
1051.778809 148.0
1053.373779 160.0
1053.703247 188.0
1054.61438 184.0
1054.950439 208.0
1055.189697 144.0
1055.364258 140.0
1055.448242 116.0
1056.036743 128.0
1056.34729 152.0
1057.143066 128.0
1058.411743 196.0
1058.54126 132.0
1059.907959 116.0
1060.432861 176.0
1061.664673 200.0
1067.957886 192.0
1070.828125 152.0
1071.857422 168.0
1073.773926 208.0
1073.982666 176.0
1078.546631 140.0
1078.664307 88.0
1079.677734 132.0
1079.730103 72.0
1081.73877 196.0
1082.328003 116.0
1083.067993 136.0
1083.316895 216.0
1083.795166 116.0
1087.198364 184.0
1088.255249 204.0
1089.07605 128.0
1089.365112 64.0
1091.632568 136.0
1093.204712 156.0
1093.96167 196.0
1094.2052 220.0
1096.167969 204.0
1096.734741 192.0
1096.84021 124.0
1097.380737 136.0
1098.040161 152.0
1098.297363 188.0
1099.240845 156.0
1100.94397 212.0
1101.703491 164.0
1102.132935 164.0
1103.22998 172.0
1104.592285 136.0
1106.193604 192.0
1107.45166 108.0
1109.273804 144.0
1109.326782 152.0
1109.512451 168.0
1110.003052 256.0
1110.79895 116.0
1111.289917 232.0
1111.415894 208.0
1111.654785 136.0
1111.794189 184.0
1112.258789 156.0
1112.822998 156.0
1112.916016 176.0
1113.487061 52.0
1114.011719 76.0
1115.260986 60.0
1115.420532 76.0
1116.158447 228.0
1118.666626 132.0
1120.644531 116.0
1123.476196 156.0
1126.181396 204.0
1126.481934 124.0
1126.63562 172.0
1128.05896 160.0
1129.389526 64.0
1130.005005 172.0
1130.540283 216.0
1130.613892 100.0
1131.169434 100.0
1134.036255 176.0
1134.451782 72.0
1134.934448 104.0
1137.302612 200.0
1137.490479 184.0
1137.785889 188.0
1138.061157 164.0
1138.416992 156.0
1140.156982 212.0
1141.138306 196.0
1143.088867 144.0
1143.378296 200.0
1143.990723 212.0
1144.082275 180.0
1144.293701 136.0
1145.674316 188.0
1146.516479 176.0
1148.303101 188.0
1148.945435 224.0
1149.40271 148.0
1150.955078 204.0
1151.245483 172.0
1153.34668 144.0
1153.576416 176.0
1154.19165 136.0
1154.650757 192.0
1155.043823 172.0
1155.288208 144.0
1155.828613 200.0
1156.160156 164.0
1156.403809 100.0
1156.640625 108.0
1156.803101 148.0
1157.507202 116.0
1158.455444 144.0
1158.78064 64.0
1160.976685 152.0
1161.539673 192.0
1162.129883 160.0
1162.923828 192.0
1164.125488 112.0
1164.729858 156.0
1164.852173 140.0
1166.05481 244.0
1166.18396 136.0
1166.700562 232.0
1166.748169 180.0
1167.414429 120.0
1167.83606 204.0
1167.93811 208.0
1168.455078 184.0
1168.876953 88.0
1170.347168 168.0
1172.758667 192.0
1173.092773 148.0
1174.210938 168.0
1175.268311 160.0
1176.155396 184.0
1176.71521 36.0
1177.791504 192.0
1177.876099 132.0
1178.333862 156.0
1179.263184 148.0
1179.714233 208.0
1179.864624 180.0
1181.724854 156.0
1181.991699 132.0
1182.073853 104.0
1183.449707 176.0
1183.737183 184.0
1183.990601 152.0
1184.54541 156.0
1185.429199 108.0
1185.929443 120.0
1186.354492 176.0
1186.422974 184.0
1186.560181 164.0
1186.608154 112.0
1186.731567 200.0
1187.328125 164.0
1187.609253 200.0
1187.849365 228.0
1188.164917 76.0
1188.947144 104.0
1189.551147 140.0
1190.546631 40.0
1192.655884 152.0
1192.710815 88.0
1192.834595 116.0
1193.838379 120.0
1193.920898 172.0
1195.117798 112.0
1196.411621 36.0
1196.473633 120.0
1196.96936 132.0
1197.038208 160.0
1197.203491 76.0
1198.112671 112.0
1198.491577 172.0
1198.753418 204.0
1198.918823 148.0
1199.621826 148.0
1203.347168 120.0
1204.41748 204.0
1204.576416 156.0
1204.831909 156.0
1206.220947 96.0
1206.573486 336.0
1206.946899 108.0
1207.022949 36.0
1207.541504 192.0
1208.890625 144.0
1209.375 168.0
1210.094971 188.0
1210.191895 160.0
1212.463867 104.0
1212.713379 188.0
1213.046143 204.0
1213.371948 160.0
1213.607666 156.0
1213.663086 140.0
1214.113892 152.0
1214.314941 168.0
1215.355469 196.0
1216.465942 144.0
1216.729736 76.0
1217.653198 164.0
1217.854614 176.0
1218.007446 184.0
1219.042603 100.0
1220.210327 136.0
1222.81189 132.0
1223.152954 188.0
1223.299072 200.0
1223.633301 136.0
1224.148438 152.0
1224.323975 168.0
1224.684692 156.0
1225.360474 84.0
1225.67395 76.0
1226.691528 148.0
1227.074951 180.0
1228.490601 192.0
1228.574341 172.0
1230.49353 188.0
1230.758789 144.0
1231.352295 152.0
1232.267456 68.0
1233.343628 100.0
1233.679077 160.0
1233.832886 80.0
1234.126587 132.0
1234.427246 196.0
1234.874756 144.0
1235.140503 116.0
1236.203979 172.0
1236.73584 220.0
1237.043823 172.0
1238.059082 52.0
1238.171143 184.0
1238.262207 136.0
1238.82251 184.0
1239.340942 220.0
1240.86792 188.0
1241.443848 160.0
1242.053955 140.0
1242.264404 168.0
1242.446777 196.0
1242.84668 120.0
1243.611572 228.0
1243.660767 152.0
1244.053833 164.0
1244.404785 200.0
1246.96875 216.0
1248.424072 96.0
1248.71936 156.0
1249.781616 128.0
1250.084229 128.0
1250.28125 120.0
1252.175049 80.0
1252.729248 152.0
1255.000732 136.0
1255.713013 204.0
1255.818726 160.0
1256.213745 220.0
1256.665283 76.0
1256.813354 172.0
1256.876953 136.0
1257.674316 184.0
1258.267334 60.0
1258.832153 168.0
1259.623169 208.0
1260.682983 232.0
1260.909058 128.0
1261.757324 136.0
1261.905762 132.0
1263.079712 164.0
1265.584839 144.0
1265.705322 80.0
1266.059326 96.0
1266.866821 188.0
1268.213135 168.0
1268.283936 156.0
1268.851074 208.0
1269.177246 216.0
1269.630981 232.0
1269.81543 176.0
1270.468018 88.0
1270.680786 172.0
1271.291016 176.0
1271.603271 188.0
1271.695557 164.0
1271.993652 152.0
1272.462158 196.0
1273.368652 176.0
1273.768799 176.0
1277.607422 200.0
1278.382935 148.0
1278.553833 160.0
1278.874023 96.0
1279.208618 176.0
1279.422119 40.0
1279.679443 196.0
1280.995972 240.0
1281.387695 176.0
1282.49231 168.0
1283.44751 136.0
1283.504517 208.0
1283.911011 208.0
1284.189209 236.0
1284.688477 184.0
1285.915771 172.0
1285.97998 248.0
1286.165527 188.0
1286.379639 44.0
1288.729248 168.0
1289.186523 120.0
1289.608276 204.0
1289.836914 128.0
1289.92981 180.0
1290.530396 216.0
1290.580444 184.0
1291.009399 84.0
1291.843872 168.0
1292.762085 208.0
1293.220093 136.0
1293.520752 200.0
1295.146118 184.0
1295.941284 164.0
1297.424805 136.0
1297.518066 120.0
1297.675781 148.0
1297.896851 204.0
1298.199219 172.0
1298.68689 208.0
1299.110107 204.0
1299.396973 100.0
1302.648804 168.0
1303.834473 68.0
1304.308838 152.0
1304.402344 268.0
1305.13562 148.0
1306.005737 192.0
1306.752563 200.0
1307.610229 84.0
1308.488403 128.0
1308.597412 144.0
1309.525269 192.0
1309.856567 52.0
1310.432861 208.0
1310.858032 112.0
1311.348022 148.0
1312.660156 208.0
1313.395752 236.0
1313.489502 252.0
1313.69873 120.0
1313.763672 160.0
1313.846802 120.0
1314.477905 140.0
1314.752075 224.0
1314.881958 124.0
1315.726562 144.0
1315.863647 160.0
1316.203003 232.0
1316.556885 36.0
1316.665161 176.0
1316.831299 136.0
1316.975708 96.0
1317.026367 212.0
1317.177979 288.0
1319.006104 152.0
1319.237427 188.0
1319.533813 288.0
1320.806519 112.0
1321.02356 164.0
1321.312866 180.0
1321.783203 108.0
1321.833862 184.0
1321.956909 152.0
1322.17395 224.0
1322.832642 116.0
1323.332153 92.0
1323.498657 216.0
1323.672485 200.0
1323.730347 160.0
1324.896484 172.0
1325.54126 128.0
1325.809448 212.0
1325.925415 204.0
1326.541504 124.0
1327.217285 220.0
1327.991577 188.0
1329.224854 172.0
1329.565918 204.0
1330.299072 172.0
1330.582153 108.0
1330.647461 180.0
1330.770874 220.0
1330.879761 176.0
1331.003296 88.0
1331.155762 172.0
1331.388062 256.0
1331.591431 52.0
1333.415039 196.0
1334.345459 72.0
1335.239746 76.0
1335.923462 52.0
1336.258179 116.0
1337.036743 184.0
1339.373779 116.0
1341.10791 80.0
1341.479736 144.0
1341.683838 188.0
1341.90979 120.0
1342.106689 48.0
1342.172241 32.0
1342.573364 200.0
1342.821289 144.0
1343.886353 60.0
1344.572266 136.0
1344.864136 84.0
1345.032104 124.0
1345.908081 232.0
1346.192871 280.0
1346.431274 224.0
1346.908569 108.0
1347.040039 132.0
1347.368774 96.0
1348.267578 164.0
1348.3479 160.0
1348.611084 172.0
1348.961914 124.0
1349.606323 204.0
1349.729492 112.0
1350.02832 140.0
1350.54126 136.0
1351.097168 96.0
1351.594727 188.0
1351.755737 124.0
1352.165527 116.0
1352.465576 164.0
1352.531494 340.0
1352.780396 192.0
1353.512451 100.0
1353.75415 168.0
1353.834595 144.0
1354.010376 184.0
1354.332642 152.0
1355.138428 128.0
1355.695312 128.0
1355.849243 136.0
1356.142456 148.0
1356.956055 164.0
1357.080688 168.0
1357.872681 236.0
1358.818848 140.0
1359.743408 164.0
1359.993042 156.0
1360.572876 156.0
1361.622925 88.0
1361.688965 172.0
1362.203125 172.0
1362.526367 188.0
1362.86438 168.0
1362.943604 204.0
1363.077393 68.0
1363.312622 176.0
1363.555054 180.0
1363.606567 100.0
1363.785645 196.0
1363.94458 192.0
1364.319458 180.0
1364.55481 152.0
1365.069458 188.0
1365.422485 180.0
1365.760742 52.0
1367.011475 124.0
1367.666382 220.0
1368.196411 164.0
1369.234619 212.0
1369.654419 176.0
1369.816528 220.0
1369.927002 84.0
1370.05957 32.0
1370.774292 204.0
1371.166748 156.0
1371.393311 180.0
1371.658691 144.0
1371.931396 160.0
1371.990356 176.0
1372.56543 112.0
1372.908081 164.0
1373.863525 176.0
1373.974121 160.0
1374.328247 180.0
1374.431641 160.0
1374.579224 152.0
1375.572021 188.0
1376.084839 172.0
1376.29895 84.0
1376.431885 92.0
1376.616577 236.0
1377.288574 120.0
1377.473267 132.0
1377.842651 184.0
1377.958252 184.0
1378.130737 176.0
1378.478027 184.0
1378.647949 172.0
1378.795776 156.0
1379.1875 160.0
1379.372314 60.0
1379.438843 136.0
1379.58667 140.0
1379.653198 192.0
1380.178101 176.0
1380.237305 56.0
1380.311157 196.0
1380.392578 148.0
1380.998901 80.0
1381.331787 144.0
1382.064209 108.0
1382.115967 160.0
1382.255127 188.0
1382.546265 144.0
1382.685791 172.0
1382.744995 104.0
1382.989258 196.0
1383.322266 132.0
1385.017944 72.0
1385.321655 160.0
1385.506836 124.0
1386.129272 244.0
1386.581299 164.0
1386.640625 164.0
1387.404053 252.0
1387.567139 184.0
1387.685791 216.0
1387.937866 148.0
1388.118286 260.0
1388.924194 184.0
1389.413818 200.0
1390.159302 156.0
1390.222534 180.0
1390.289307 220.0
1390.816284 152.0
1390.927612 128.0
1391.616333 176.0
1392.301147 160.0
1392.523926 196.0
1392.751709 136.0
1393.742188 80.0
1394.128662 168.0
1394.344116 152.0
1394.886719 112.0
1395.436768 168.0
1395.518555 196.0
1397.132446 72.0
1397.563965 152.0
1398.427124 168.0
1398.888672 168.0
1399.059814 188.0
1399.216187 148.0
1399.402344 156.0
1399.767212 72.0
1399.953369 144.0
1400.124634 180.0
1400.295898 196.0
1400.459717 84.0
1400.53418 204.0
1400.631104 200.0
1400.921631 100.0
1401.025879 156.0
1401.182251 160.0
1401.696411 256.0
1401.897583 188.0
1402.17334 152.0
1403.321289 168.0
1403.40332 152.0
1403.455444 196.0
1403.887939 172.0
1403.962524 164.0
1404.887451 140.0
1404.999268 44.0
1405.156006 168.0
1405.461914 164.0
1405.670776 196.0
1405.934937 228.0
1406.081299 124.0
1406.200684 168.0
1406.894775 104.0
1407.059082 148.0
1407.133667 52.0
1407.283081 140.0
1407.454712 160.0
1407.574219 136.0
1408.433105 60.0
1408.604858 212.0
1409.0979 56.0
1409.187622 148.0
1409.591064 172.0
1410.016968 112.0
1410.891479 220.0
1411.078369 92.0
1411.227905 140.0
1411.541992 136.0
1411.848633 204.0
1412.192627 88.0
1412.259888 116.0
1412.596558 224.0
1412.955566 176.0
1413.404541 116.0
1413.477905 204.0
1415.06604 120.0
1415.462891 136.0
1415.605225 120.0
1415.717529 220.0
1416.31665 120.0
1416.652466 252.0
1416.721191 192.0
1417.485352 236.0
1417.552856 172.0
1417.665161 60.0
1418.2948 144.0
1419.252808 212.0
1419.352539 192.0
1419.794189 40.0
1420.310303 164.0
1420.559204 152.0
1420.716797 160.0
1421.106934 152.0
1421.452026 140.0
1421.639648 216.0
1421.81311 180.0
1422.029907 184.0
1422.089966 124.0
1422.735474 204.0
1422.915649 192.0
1422.990723 56.0
1423.11084 180.0
1424.274902 176.0
1424.536377 88.0
1424.750977 220.0
1425.777466 120.0
1426.581665 128.0
1427.544067 168.0
1427.859863 172.0
1428.062988 212.0
1428.145752 184.0
1428.235962 140.0
1428.469116 252.0
1428.77002 188.0
1428.943115 112.0
1429.371948 100.0
1429.522461 196.0
1429.90625 112.0
1430.03418 152.0
1430.481812 216.0
1430.583618 188.0
1430.658936 168.0
1431.012817 100.0
1431.336548 180.0
1431.901367 144.0
1432.436035 208.0
1432.68042 216.0
1434.274658 164.0
1434.357544 224.0
1434.628906 88.0
1434.704346 160.0
1434.800293 180.0
1435.495972 216.0
1435.767456 104.0
1436.023926 156.0
1436.159668 116.0
1438.30249 172.0
1438.732788 92.0
1438.95166 160.0
1439.299316 180.0
1439.653931 100.0
1440.28833 120.0
1441.134399 208.0
1441.655762 164.0
1442.033569 76.0
1442.154541 228.0
1442.547607 108.0
1442.630737 44.0
1442.933105 152.0
1443.016357 192.0
1443.107056 128.0
1443.901001 96.0
1444.596802 136.0
1445.050781 180.0
1445.19458 216.0
1445.345825 144.0
1445.550171 220.0
1445.898193 172.0
1445.996582 176.0
1446.193359 248.0
1446.322144 244.0
1446.579468 132.0
1447.224976 204.0
1447.336548 104.0
1447.487915 208.0
1447.965088 188.0
1448.972412 224.0
1450.343994 204.0
1450.601807 156.0
1450.829224 148.0
1450.912598 188.0
1451.38269 228.0
1451.48877 160.0
1451.594971 236.0
1452.697998 184.0
1452.831177 144.0
1453.703735 184.0
1454.151489 48.0
1454.591675 232.0
1454.902954 36.0
1455.616577 152.0
1455.7229 124.0
1456.208984 168.0
1456.657104 108.0
1456.847046 40.0
1457.218262 156.0
1457.401611 164.0
1457.462402 132.0
1458.556763 84.0
1458.853149 152.0
1459.012817 180.0
1459.446167 184.0
1459.521973 136.0
1459.651489 208.0
1459.765503 128.0
1459.94043 280.0
1460.38916 120.0
1460.579346 116.0
1460.91394 28.0
1461.476929 112.0
1461.743286 180.0
1461.887817 212.0
1462.009644 140.0
1462.154175 148.0
1462.321655 216.0
1462.511963 220.0
1462.801147 192.0
1462.854492 144.0
1463.013306 208.0
1463.28833 144.0
1463.455933 36.0
1464.674316 108.0
1465.108521 52.0
1465.236328 184.0
1465.492188 180.0
1465.702759 120.0
1466.266724 92.0
1466.365723 164.0
1466.640137 316.0
1466.960327 180.0
1467.759033 204.0
1468.210693 56.0
1469.064941 112.0
1469.232788 136.0
1469.301514 140.0
1469.652466 124.0
1469.957642 76.0
1470.92688 140.0
1471.285645 140.0
1471.647583 164.0
1472.125488 140.0
1472.515015 200.0
1472.851074 144.0
1472.942749 148.0
1473.0802 180.0
1473.500366 208.0
1473.981689 132.0
1474.600708 40.0
1474.76123 208.0
1475.036377 152.0
1475.158691 28.0
1475.319214 172.0
1476.068481 192.0
1476.175537 144.0
1476.848511 72.0
1477.1698 164.0
1477.322754 148.0
1477.751709 124.0
1478.034302 392.0
1478.217896 196.0
1478.738281 48.0
1479.64917 128.0
1480.001343 184.0
1480.100952 132.0
1480.322998 204.0
1480.728882 176.0
1481.115967 168.0
1481.196045 136.0
1481.530518 144.0
1481.709351 96.0
1482.268677 180.0
1482.904663 184.0
1483.970215 48.0
1484.161865 212.0
1485.227783 192.0
1485.841553 164.0
1486.125366 100.0
1486.324829 136.0
1486.847046 156.0
1486.984863 148.0
1487.184326 120.0
1487.460693 112.0
1488.190063 264.0
1488.251465 196.0
1488.374268 232.0
1488.501343 148.0
1488.819702 184.0
1489.149902 140.0
1489.503052 156.0
1489.864258 132.0
1490.156128 120.0
1490.248413 172.0
1490.348267 184.0
1490.608521 160.0
1491.670044 200.0
1491.931396 124.0
1492.185181 92.0
1492.391479 164.0
1492.414185 136.0
1492.677246 108.0
1492.961792 184.0
1493.569336 140.0
1493.807739 192.0
1493.900146 56.0
1494.030884 204.0
1494.384766 152.0
1494.730957 164.0
1494.831421 208.0
1494.923218 144.0
1495.477539 204.0
1495.63147 232.0
1495.692993 108.0
1495.908569 136.0
1496.031738 156.0
1496.260132 188.0
1496.716919 192.0
1496.940186 220.0
1497.494629 172.0
1497.633301 184.0
1497.910645 52.0
1498.266968 160.0
1498.4729 108.0
1499.02771 108.0
1499.115234 144.0
1500.129883 224.0
1500.230103 104.0
1500.299438 164.0
1500.723511 156.0
1501.109009 136.0
1501.348022 180.0
1502.512695 136.0
1502.589844 72.0
1503.847656 196.0
1503.917114 180.0
1504.241333 160.0
