>compound MLS001075357-01!2-[2-[(1S)-6,7-dimethoxy-1-methyl-3,4-dihydro-1H-isoquinolin-2-yl]-2-oxoethyl]sulfanyl-5-ethyl-4-hydroxy-1H-pyrimidin-6-one
>formula C20H25N3O5S
>ionization [M+H]+
>parentmass 420.159
#inchi InChI=1S/C20H25N3O5S/c1-5-13-18(25)21-20(22-19(13)26)29-10-17(24)23-7-6-12-8-15(27-3)16(28-4)9-14(12)11(23)2/h8-9,11H,5-7,10H2,1-4H3,(H2,21,22,25,26)/t11-/m0/s1
#inchikey WQLAGMMDTNEVTH
#Ion_Source LC-ESI
#Instrument qTof
#Compound_Source NIH Natural Product Library
#PI Dorrestein
#Data_Collector VVP/LMS
#Scan -1
#Precursor_MZ 420.159
#ExactMass 419.151
#Charge 1
#CAS_Number N/A
#Pubmed_ID N/A
#Smiles CCc1c(O)nc(SCC(=O)N2CCc3cc(OC)c(OC)cc3[C@@H]2C)nc1O
#INCHI_AUX N/A
#Library_Class 1
#SpectrumID CCMSLIB00000080323
#IonMode Positive
#UpdateWorkflowName UPDATE-SINGLE-ANNOTATED-GOLD
#LibraryQualityString Gold
#TaskID b1d8e8f6646f4e71acdff9ca3d919d08
##Scan# 1790
#SpectrumFile p2-C07_GC7_01_18007.mzXML
#LibraryName NIH_Natural_Products_Library.mgf
#MQScore -1
#Organism NIH_Natural_Products_Library
#TIC_Query 0
#RT_Query -1
#MZErrorPPM -1
#SharedPeaks 0
#MassDiff 0
#LibMZ -1
#SpecMZ 420.159
#SpecCharge 0
#internalFilename spec-00000.mgf

>collision 10
94.998764 204.0
95.036674 164.0
95.055031 220.0
95.175377 220.0
95.258888 200.0
95.324944 152.0
95.437683 196.0
95.529091 56.0
95.789932 160.0
95.998474 104.0
96.014076 148.0
96.244339 132.0
96.283394 216.0
96.324409 40.0
96.472923 124.0
96.510071 136.0
96.664597 228.0
96.725266 180.0
96.793793 224.0
96.807495 104.0
96.956383 160.0
97.008926 208.0
97.029427 30424.0
97.107346 36.0
97.124992 52.0
97.160309 108.0
97.187775 80.0
97.211319 136.0
97.307495 44.0
97.352516 56.0
97.527512 56.0
97.599892 64.0
97.690201 168.0
97.778725 220.0
97.95253 112.0
97.972229 176.0
97.987984 280.0
98.033318 1336.0
98.060852 176.0
98.153549 52.0
98.167351 96.0
98.224548 28.0
98.376495 164.0
98.504852 56.0
98.616982 120.0
98.641197 52.0
98.676781 136.0
98.710396 116.0
98.823135 84.0
98.842926 160.0
99.03196 156.0
99.150749 152.0
99.184662 172.0
99.250961 56.0
99.286659 160.0
99.302521 44.0
99.356079 80.0
99.594803 184.0
99.693626 152.0
99.767006 100.0
99.898415 104.0
99.966057 124.0
100.001884 148.0
100.051643 76.0
100.085495 88.0
100.165154 156.0
100.230896 104.0
100.498077 132.0
100.516037 200.0
100.657761 160.0
100.797592 200.0
100.937515 76.0
101.011513 152.0
101.209641 172.0
101.426003 156.0
101.514214 168.0
101.642593 180.0
101.688225 152.0
101.833305 164.0
101.886421 208.0
101.999153 136.0
102.04631 136.0
102.090553 136.0
102.150887 148.0
102.247467 144.0
102.456879 220.0
102.549568 128.0
102.622139 248.0
102.70079 176.0
102.819824 168.0
102.850098 200.0
103.056915 228.0
103.130852 172.0
103.157127 192.0
103.264297 168.0
103.325127 168.0
103.365448 48.0
103.427986 208.0
103.470695 172.0
103.497017 48.0
103.561821 144.0
103.634743 216.0
103.703644 132.0
103.925194 176.0
103.947006 124.0
104.040367 216.0
104.206902 224.0
104.229256 156.0
104.432541 100.0
104.540367 116.0
104.648254 60.0
104.772484 228.0
104.974266 180.0
105.000778 220.0
105.029335 168.0
105.068848 920.0
105.127258 172.0
105.370239 176.0
105.384544 208.0
105.445847 148.0
105.517387 156.0
105.685104 116.0
105.703514 84.0
105.791527 132.0
105.809952 100.0
105.891853 72.0
105.932823 188.0
105.996582 100.0
106.012726 120.0
106.082413 152.0
106.139816 172.0
106.338806 152.0
106.353172 60.0
106.396286 76.0
106.648941 128.0
106.750549 152.0
106.844299 144.0
106.87104 240.0
106.891617 40.0
106.924545 140.0
107.048752 132.0
107.089249 116.0
107.2108 144.0
107.243774 196.0
107.268517 164.0
107.40873 136.0
107.435547 180.0
107.526337 176.0
107.549042 140.0
107.573807 164.0
107.739014 184.0
107.796867 152.0
107.832001 148.0
107.88781 212.0
107.922958 144.0
107.956039 148.0
107.976723 136.0
108.041252 184.0
108.094635 204.0
108.115326 84.0
108.181564 68.0
108.303734 204.0
108.320305 188.0
108.346428 196.0
108.370026 172.0
108.479858 84.0
108.559898 192.0
108.747437 76.0
108.842934 136.0
108.992485 168.0
109.048592 136.0
109.065224 88.0
109.127586 144.0
109.356415 120.0
109.539642 244.0
109.593811 204.0
109.675087 216.0
109.716774 40.0
109.762642 140.0
110.004654 200.0
110.067291 180.0
110.081909 184.0
110.130966 136.0
110.171715 96.0
110.35981 200.0
110.537605 160.0
110.621323 216.0
110.845421 180.0
110.958603 128.0
110.983765 252.0
111.080231 180.0
111.521179 180.0
111.582138 92.0
111.712524 52.0
111.775642 208.0
111.820839 180.0
111.910347 64.0
111.939827 168.0
112.009331 172.0
112.053566 80.0
112.133644 88.0
112.26857 168.0
112.301498 52.0
112.365593 180.0
112.45211 176.0
112.576668 48.0
112.775261 176.0
112.93383 260.0
113.06501 132.0
113.507393 240.0
113.654106 184.0
113.758095 188.0
113.862137 148.0
113.886726 152.0
114.034225 172.0
114.05336 192.0
114.140518 120.0
114.359421 192.0
114.406471 148.0
114.515068 140.0
114.596016 192.0
114.713226 128.0
114.888092 204.0
115.021042 184.0
115.054886 1044.0
115.23394 152.0
115.338654 176.0
115.364212 176.0
115.375443 212.0
115.474625 128.0
115.593155 132.0
115.65522 40.0
115.742996 132.0
116.006516 128.0
116.02581 144.0
116.064682 504.0
116.083702 152.0
116.223122 128.0
116.351898 192.0
116.381958 120.0
116.586021 36.0
116.61396 88.0
116.633308 152.0
116.760162 160.0
116.936577 148.0
117.069168 1744.0
117.242393 160.0
117.615509 208.0
117.669479 80.0
117.74398 160.0
117.87899 264.0
118.041374 160.0
118.075073 256.0
118.108162 88.0
118.281265 196.0
118.357033 128.0
118.499985 84.0
118.525986 156.0
118.54332 52.0
118.569328 164.0
118.645187 144.0
118.710236 80.0
118.783974 100.0
118.838211 176.0
119.01619 160.0
119.04805 220.0
119.084244 344.0
119.144333 236.0
119.239937 68.0
119.305145 200.0
119.374725 180.0
119.500877 152.0
119.546577 124.0
119.722908 48.0
119.744682 152.0
119.873215 216.0
120.057205 320.0
120.093407 88.0
120.171936 292.0
120.19812 172.0
120.252678 164.0
120.296333 164.0
120.345818 180.0
120.364014 128.0
120.498337 120.0
120.783623 84.0
120.893013 176.0
120.914894 144.0
120.989319 52.0
121.065254 1828.0
121.151375 100.0
121.223679 56.0
121.242104 156.0
121.267509 148.0
121.414398 224.0
121.449486 212.0
121.734795 140.0
121.87368 176.0
122.069862 356.0
122.099594 164.0
122.14138 200.0
122.232498 164.0
122.259064 164.0
122.933868 208.0
123.221573 88.0
123.305542 180.0
123.387329 104.0
123.500099 64.0
123.708099 180.0
123.829544 156.0
123.887474 208.0
123.914055 92.0
123.996338 120.0
124.093811 172.0
124.163322 164.0
124.324265 76.0
124.453011 180.0
124.495201 176.0
124.524071 172.0
124.699593 60.0
125.113327 128.0
125.224655 124.0
125.262589 136.0
125.37838 212.0
125.652649 120.0
125.773376 116.0
125.965179 104.0
125.998688 144.0
126.016563 172.0
126.055656 15648.0
126.224434 160.0
126.249031 132.0
126.280342 192.0
126.304947 184.0
126.340736 148.0
126.36087 160.0
126.504097 52.0
126.544395 36.0
126.633965 228.0
126.696686 132.0
126.729111 144.0
126.777344 60.0
126.875969 188.0
126.896149 52.0
127.018707 184.0
127.058197 868.0
127.093521 112.0
127.163086 40.0
127.333717 148.0
127.587624 168.0
127.783287 48.0
127.993835 44.0
128.022369 148.0
128.060532 292.0
128.082687 160.0
128.105209 184.0
128.166046 128.0
128.386948 172.0
128.45462 156.0
128.497482 136.0
128.571945 128.0
128.666748 68.0
128.70166 164.0
128.809021 172.0
128.836121 148.0
128.874527 68.0
128.906158 224.0
129.014648 192.0
129.070007 1832.0
129.100571 180.0
129.209137 32.0
129.326813 48.0
129.451324 212.0
129.730759 132.0
130.04303 168.0
130.075058 508.0
130.133835 188.0
130.206497 124.0
130.283722 148.0
130.435974 184.0
130.470078 224.0
130.570114 220.0
130.69751 84.0
130.731644 168.0
130.813583 144.0
130.931335 144.0
131.029922 136.0
131.049484 772.0
131.085815 708.0
131.41066 132.0
131.611511 68.0
131.823944 184.0
131.922226 128.0
132.052399 188.0
132.090073 180.0
132.148636 168.0
132.244751 132.0
132.28595 216.0
132.443939 240.0
132.494339 40.0
132.544739 148.0
132.588287 56.0
132.776276 144.0
132.847382 152.0
132.952927 120.0
133.065262 1152.0
133.104431 288.0
133.157242 36.0
133.177917 196.0
133.538773 176.0
133.704422 132.0
133.872467 52.0
133.923141 196.0
134.00145 128.0
134.039093 172.0
134.073822 548.0
134.260849 112.0
134.278076 196.0
134.328812 140.0
134.368027 20.0
134.391098 112.0
134.710251 168.0
134.758209 120.0
134.996292 204.0
135.019409 220.0
135.042542 292.0
135.081757 492.0
135.151276 64.0
135.223007 212.0
135.276245 72.0
135.350327 92.0
135.415176 140.0
135.460526 264.0
135.732651 252.0
136.053009 156.0
136.078369 140.0
136.096939 100.0
136.174118 200.0
136.189835 188.0
136.236298 104.0
136.396637 148.0
136.829315 180.0
136.878571 180.0
136.901505 80.0
137.029602 168.0
137.06012 996.0
137.093079 172.0
137.148453 164.0
137.265015 172.0
137.284775 112.0
137.306992 232.0
137.388641 176.0
137.42363 44.0
137.521637 148.0
137.55899 96.0
138.030914 160.0
138.066696 188.0
138.173599 240.0
138.222733 136.0
138.267197 152.0
138.372528 92.0
138.721588 48.0
138.813019 196.0
138.895111 124.0
138.951401 204.0
138.984253 176.0
139.053299 208.0
139.249527 84.0
139.381073 84.0
139.552658 156.0
139.569122 124.0
139.84671 164.0
139.940872 196.0
139.966766 164.0
140.049088 88.0
140.204697 40.0
140.296616 144.0
140.317825 260.0
140.666977 212.0
140.695297 104.0
140.723633 192.0
140.948013 320.0
140.983459 100.0
141.018921 64.0
141.068665 160.0
141.113464 160.0
141.387863 168.0
141.555939 120.0
141.598557 196.0
141.754913 156.0
141.859192 172.0
142.233994 156.0
142.328949 152.0
142.441376 200.0
142.476364 180.0
142.671066 156.0
142.687714 92.0
142.718414 136.0
142.886032 192.0
142.937454 212.0
143.022812 176.0
143.054077 112.0
143.177887 144.0
143.199326 160.0
143.249344 36.0
143.275543 124.0
143.306519 188.0
143.411362 132.0
143.451889 200.0
143.614029 160.0
143.702301 196.0
143.807297 120.0
143.909943 168.0
144.058289 1088.0
144.084137 188.0
144.141632 96.0
144.20137 164.0
144.280258 84.0
144.335251 208.0
144.457214 132.0
144.491776 204.0
144.564041 180.0
144.674988 188.0
144.830627 112.0
144.852188 192.0
144.890518 176.0
144.990234 116.0
145.066376 4408.0
145.146973 80.0
145.163757 124.0
145.232071 156.0
145.314865 56.0
145.454056 152.0
145.534927 140.0
145.619736 124.0
145.74588 148.0
145.795105 196.0
145.99704 140.0
146.072037 1108.0
146.114899 188.0
146.160614 244.0
146.559845 144.0
146.639847 212.0
146.724213 204.0
146.958145 128.0
147.042603 184.0
147.07605 1352.0
147.115021 104.0
147.1633 156.0
147.317871 124.0
147.392761 176.0
147.547455 88.0
147.571625 160.0
147.617569 200.0
147.702209 80.0
147.895782 156.0
147.948608 224.0
148.052155 212.0
148.084091 592.0
148.116669 160.0
148.142776 192.0
148.22757 80.0
148.428757 168.0
148.44574 144.0
148.620377 200.0
148.768417 108.0
148.850967 96.0
148.945694 44.0
149.061737 1524.0
149.098007 304.0
149.240417 100.0
149.276215 80.0
149.358902 192.0
149.414856 120.0
149.488739 120.0
149.580338 156.0
149.721542 168.0
149.762955 124.0
149.875015 172.0
149.987122 176.0
150.020798 176.0
150.041077 148.0
150.067261 1568.0
150.10643 140.0
150.15535 172.0
150.209015 176.0
150.255356 120.0
150.387131 128.0
150.445709 72.0
150.631302 176.0
150.726578 228.0
150.821899 192.0
150.848785 240.0
151.041962 152.0
151.077393 1736.0
151.134918 112.0
151.257278 68.0
151.28421 328.0
151.364227 188.0
151.573212 220.0
151.725174 164.0
151.808533 176.0
151.85022 244.0
152.07489 176.0
152.169525 164.0
152.250259 32.0
152.540176 176.0
152.594269 184.0
153.027283 64.0
153.08638 120.0
153.189819 60.0
153.26619 108.0
153.438721 76.0
153.636017 80.0
153.707565 120.0
153.781601 84.0
153.801346 84.0
153.927246 84.0
154.020416 156.0
154.191574 40.0
154.226181 124.0
154.278091 104.0
154.453705 212.0
154.510559 192.0
154.572403 208.0
154.602097 200.0
154.772903 68.0
155.067047 228.0
155.176773 56.0
155.199081 208.0
155.328033 188.0
155.556335 164.0
155.653152 264.0
155.70282 160.0
155.869263 216.0
156.017227 188.0
156.219818 212.0
156.264587 140.0
156.757599 136.0
156.799957 108.0
157.041809 140.0
157.081711 152.0
157.181015 180.0
157.286331 140.0
157.351227 140.0
157.391174 132.0
157.564072 180.0
157.673462 196.0
157.748444 64.0
157.790939 140.0
157.810944 164.0
157.960983 128.0
158.031036 180.0
158.071289 944.0
158.252289 140.0
158.348953 144.0
158.389023 208.0
158.559402 124.0
158.629578 136.0
158.769989 52.0
158.970673 148.0
159.047058 284.0
159.081589 2996.0
159.2789 104.0
159.328949 180.0
159.425201 148.0
159.472961 228.0
159.513168 124.0
159.573502 224.0
159.664032 84.0
159.734451 136.0
159.762131 160.0
159.799866 72.0
159.830048 256.0
159.90303 260.0
159.981064 132.0
160.021347 104.0
160.044952 212.0
160.089615 29412.0
160.186295 32.0
160.217789 188.0
160.293365 60.0
160.360107 124.0
160.401733 48.0
160.439545 164.0
160.479889 36.0
160.505096 32.0
160.566925 64.0
160.636246 60.0
160.67746 224.0
160.719498 116.0
160.829575 140.0
160.860825 80.0
160.878494 44.0
160.908798 208.0
160.936569 40.0
161.061234 3308.0
161.094467 3120.0
161.153778 36.0
161.180252 84.0
161.201172 176.0
161.257385 84.0
161.315521 92.0
161.355972 64.0
161.478775 92.0
161.525406 56.0
161.76326 164.0
161.831619 32.0
161.851868 76.0
161.932907 76.0
161.991165 132.0
162.06308 300.0
162.094833 620.0
162.166946 160.0
162.224304 108.0
162.280075 36.0
162.300354 92.0
162.340927 156.0
162.373901 120.0
162.417007 152.0
162.843414 132.0
162.947571 176.0
163.07341 584.0
163.106064 152.0
163.168671 188.0
163.20517 256.0
163.369583 140.0
163.456085 184.0
163.557892 200.0
163.583344 156.0
163.952652 112.0
164.084305 888.0
164.166794 108.0
164.18898 160.0
164.233109 156.0
164.303482 176.0
164.485703 132.0
164.524002 124.0
164.656769 36.0
164.72319 140.0
164.804932 152.0
164.93782 180.0
165.045197 148.0
165.091888 10932.0
165.178177 68.0
165.370087 56.0
165.574905 40.0
165.621002 28.0
165.726028 76.0
165.761902 144.0
166.097855 1268.0
166.182419 136.0
166.277359 52.0
166.572632 96.0
166.666 140.0
166.726791 36.0
166.937592 168.0
167.022461 180.0
167.102203 180.0
167.163803 192.0
167.295227 92.0
167.377609 104.0
167.769226 132.0
168.045181 152.0
168.07872 164.0
168.17421 100.0
168.202591 76.0
168.259384 92.0
168.277466 232.0
168.424652 176.0
168.563065 112.0
168.621017 116.0
168.654617 140.0
168.708908 100.0
169.03392 168.0
169.076187 156.0
169.1409 212.0
169.547531 240.0
169.679718 108.0
169.700455 208.0
169.752319 132.0
169.894974 244.0
169.91832 172.0
170.403809 116.0
170.489563 120.0
170.684525 36.0
170.965714 204.0
171.351837 204.0
171.582779 68.0
171.848801 100.0
171.972275 164.0
172.091537 172.0
172.198593 276.0
172.454636 56.0
172.695175 164.0
172.964676 156.0
173.011261 136.0
173.03685 388.0
173.060135 304.0
173.182007 264.0
173.218674 52.0
173.85054 188.0
173.950272 188.0
173.968643 140.0
174.04216 184.0
174.069733 512.0
174.09108 172.0
174.096039 132.0
174.176102 140.0
174.344238 156.0
174.370529 128.0
174.75444 248.0
174.812332 148.0
175.074188 444.0
175.149323 140.0
175.217819 84.0
175.42337 140.0
175.449738 132.0
175.584213 136.0
175.605301 188.0
175.629486 188.0
175.774139 92.0
175.903458 228.0
175.958908 184.0
175.977386 124.0
176.024582 196.0
176.084259 19116.0
176.136551 148.0
176.187912 112.0
176.209793 160.0
176.267929 128.0
176.30542 84.0
176.314087 172.0
176.357208 56.0
176.418579 156.0
176.453476 40.0
176.516403 32.0
176.567276 64.0
176.705658 108.0
176.725357 84.0
176.758102 64.0
176.802094 64.0
176.833862 32.0
176.926498 48.0
176.982101 248.0
177.087189 2324.0
177.110077 324.0
177.252274 56.0
177.276123 64.0
177.374191 64.0
177.501434 232.0
177.623444 228.0
177.848984 60.0
177.917999 56.0
177.960464 96.0
177.99234 148.0
178.089691 356.0
178.119812 116.0
178.156189 132.0
178.196854 92.0
178.218109 48.0
178.284531 160.0
178.407898 136.0
178.504837 128.0
178.579636 100.0
178.87413 148.0
179.008102 48.0
179.072021 192.0
179.107086 4944.0
179.146103 148.0
179.173248 160.0
179.212555 100.0
179.496933 36.0
179.573074 80.0
179.6371 44.0
179.661102 184.0
180.074844 80.0
180.108414 660.0
180.264511 32.0
180.384781 44.0
180.555908 240.0
181.112595 112.0
181.219757 112.0
181.289413 104.0
181.319214 168.0
181.351059 72.0
181.404663 64.0
181.592361 180.0
181.734528 40.0
181.817719 56.0
182.086182 204.0
182.284988 120.0
182.513458 28.0
182.80127 144.0
182.820114 204.0
182.900848 144.0
183.032776 116.0
183.488113 132.0
183.523163 128.0
183.542038 88.0
183.60675 44.0
183.833359 148.0
183.938614 232.0
184.07901 176.0
184.122208 136.0
184.535645 140.0
184.55835 140.0
184.649216 168.0
184.743881 144.0
184.917053 172.0
184.986618 120.0
185.038803 28460.0
185.089325 132.0
185.114685 104.0
185.151367 88.0
185.160721 88.0
185.216095 144.0
185.312408 108.0
185.341629 92.0
185.392548 236.0
185.437057 60.0
185.489853 52.0
185.520752 80.0
185.581833 108.0
185.615982 44.0
185.697342 32.0
185.784134 56.0
185.849243 104.0
185.998505 56.0
186.041687 2644.0
186.11351 156.0
186.161407 56.0
186.218445 52.0
186.267334 68.0
186.33252 108.0
186.422195 152.0
186.451721 88.0
186.66684 60.0
186.737549 44.0
186.821869 60.0
186.843628 200.0
186.914383 60.0
186.938873 84.0
187.001083 176.0
187.038315 1140.0
187.072235 56.0
187.156631 80.0
187.186584 48.0
187.205643 40.0
187.241043 128.0
187.280426 200.0
187.30368 120.0
187.341827 176.0
187.389374 132.0
187.430008 76.0
187.482437 92.0
187.492065 56.0
187.498337 100.0
187.520523 268.0
187.558853 68.0
187.75885 84.0
187.805222 156.0
187.862503 124.0
187.927979 92.0
187.95253 64.0
188.041428 132.0
188.072601 168.0
188.291031 112.0
188.318344 56.0
188.446732 180.0
188.479507 176.0
188.938843 48.0
188.974411 72.0
189.030609 192.0
189.047119 160.0
189.092102 760.0
189.144073 28.0
189.313828 124.0
189.500076 140.0
189.656281 192.0
189.782379 140.0
189.930466 52.0
189.952423 176.0
190.029236 216.0
190.091858 732.0
190.268005 80.0
190.317413 52.0
190.482193 108.0
190.540955 196.0
190.562103 228.0
190.680023 144.0
190.863144 160.0
190.899948 124.0
190.932129 200.0
190.96373 188.0
190.988953 176.0
191.037247 348.0
191.069321 144.0
191.108002 57036.0
191.176559 300.0
191.261337 68.0
191.307861 172.0
191.340805 72.0
191.364182 56.0
191.371552 92.0
191.452194 88.0
191.559586 132.0
191.585297 64.0
191.643143 80.0
191.682693 204.0
191.791962 40.0
191.825043 56.0
191.858109 56.0
191.928741 104.0
191.986847 116.0
192.015289 176.0
192.053894 256.0
192.111237 4900.0
192.151886 48.0
192.210464 136.0
192.420914 52.0
192.549652 116.0
192.594879 72.0
192.658417 36.0
192.741302 60.0
192.779984 164.0
192.802094 40.0
192.909897 44.0
192.937531 68.0
193.023239 52.0
193.058289 132.0
193.112976 1516.0
193.175354 88.0
193.252823 56.0
193.29393 84.0
193.324768 92.0
193.371811 88.0
193.420609 140.0
193.457993 116.0
193.509674 144.0
193.519409 112.0
193.524857 140.0
193.54631 108.0
193.656982 108.0
193.712372 60.0
193.828735 140.0
193.848145 148.0
193.967316 64.0
194.113815 640.0
194.230728 56.0
194.297302 56.0
194.49968 56.0
194.610931 76.0
195.019287 192.0
195.052643 120.0
195.091553 64.0
195.174957 96.0
195.258392 40.0
195.553299 116.0
196.02951 52.0
196.156479 172.0
196.704453 84.0
197.210022 164.0
197.464447 88.0
199.053391 188.0
199.098328 168.0
199.269669 100.0
199.463577 176.0
199.58728 80.0
199.750397 180.0
199.848862 52.0
200.051483 124.0
200.121872 80.0
200.206345 44.0
200.375351 104.0
200.662811 60.0
200.784058 224.0
201.028717 72.0
201.297668 196.0
202.007065 84.0
202.567551 80.0
202.6922 124.0
202.884933 128.0
203.92099 48.0
203.997742 76.0
204.103973 324.0
204.449966 44.0
204.543884 108.0
204.757431 56.0
205.110733 200.0
205.281784 164.0
205.358795 136.0
206.115448 908.0
206.298218 80.0
206.36969 172.0
206.830261 136.0
206.94191 56.0
207.024948 188.0
207.115646 180.0
207.168167 104.0
207.328613 96.0
207.567902 144.0
207.824692 156.0
207.847641 104.0
207.867737 144.0
207.976791 256.0
208.032761 160.0
208.071518 208.0
208.13382 16064.0
208.246674 80.0
208.28688 76.0
208.306992 40.0
208.360535 44.0
208.396255 56.0
208.416168 200.0
208.488007 100.0
208.554108 68.0
208.585083 144.0
208.607758 100.0
208.634598 52.0
208.694962 152.0
208.715088 84.0
208.794113 100.0
208.81488 160.0
208.85025 108.0
209.022873 160.0
209.060272 272.0
209.136978 3364.0
209.209946 72.0
209.336624 48.0
209.417267 192.0
209.454285 80.0
209.506561 124.0
209.564178 84.0
209.650635 64.0
209.918716 28.0
209.953323 56.0
210.008118 112.0
210.140884 796.0
210.23027 96.0
210.297226 100.0
210.363037 112.0
210.547821 76.0
210.60257 92.0
210.923416 48.0
211.059296 76.0
211.082428 208.0
211.141876 180.0
211.218353 176.0
211.504807 56.0
211.692993 84.0
212.098602 80.0
212.376953 180.0
212.617065 208.0
212.652588 164.0
212.728058 80.0
212.87323 108.0
212.916779 188.0
212.986633 180.0
213.034134 33940.0
213.130066 76.0
213.218918 92.0
213.246384 84.0
213.273468 52.0
213.302246 108.0
213.403839 76.0
213.46347 168.0
213.483475 272.0
213.521271 48.0
213.547455 88.0
213.593979 108.0
213.655075 124.0
213.687073 56.0
213.730713 88.0
213.768555 120.0
213.809296 268.0
213.891342 104.0
213.954819 112.0
214.034683 2572.0
214.187363 120.0
214.231476 116.0
214.375809 60.0
214.429611 36.0
214.560791 32.0
214.598694 76.0
214.6745 64.0
214.855331 68.0
214.878677 128.0
214.957458 80.0
215.031723 1476.0
215.135162 108.0
215.18512 132.0
215.296082 108.0
215.360336 120.0
215.471329 76.0
215.512238 132.0
215.547302 104.0
215.570679 88.0
215.607574 128.0
215.63205 68.0
215.728867 284.0
216.021439 160.0
216.155502 36.0
216.407227 40.0
216.521439 112.0
216.547791 88.0
216.647385 64.0
216.884735 60.0
217.054764 52.0
217.101685 80.0
217.503632 44.0
217.985275 96.0
219.094513 108.0
219.123962 144.0
219.424576 40.0
220.12941 168.0
220.558151 80.0
220.773972 72.0
220.794678 64.0
220.975113 56.0
221.137863 140.0
222.929123 92.0
223.122314 140.0
223.294785 112.0
224.796234 100.0
226.15004 140.0
227.357849 48.0
228.460556 92.0
228.743408 72.0
228.875885 68.0
228.96019 72.0
231.566559 92.0
231.660461 64.0
232.093842 136.0
234.105438 180.0
235.875 132.0
237.087006 148.0
238.08403 112.0
238.222244 68.0
240.121368 116.0
242.024933 156.0
245.654907 80.0
248.119659 108.0
249.129684 80.0
249.176804 56.0
250.825775 112.0
254.56221 68.0
255.031296 80.0
257.310028 72.0
257.400574 56.0
258.016083 96.0
259.075348 116.0
269.659973 88.0
272.146301 108.0
272.911865 124.0
272.974335 136.0
277.531067 64.0
280.097656 172.0
282.352875 80.0
291.098083 124.0
297.287079 84.0
298.080322 128.0
300.197327 96.0
301.312195 112.0
303.728455 104.0
304.294098 88.0
306.123016 136.0
307.880585 104.0
310.975464 152.0
313.846008 40.0
315.332153 96.0
316.110168 100.0
317.552032 60.0
319.559052 92.0
321.536682 172.0
325.011383 44.0
327.445038 40.0
332.118317 96.0
332.64444 72.0
338.155579 140.0
338.811035 56.0
349.58902 28.0
350.605652 64.0
354.184906 92.0
363.971527 80.0
365.762115 68.0
371.628235 100.0
382.483856 88.0
389.459412 52.0
393.68924 72.0
402.141541 132.0
404.351685 64.0
407.511505 40.0
413.459229 112.0
416.341583 72.0
420.130981 88.0
421.588623 92.0
422.144592 64.0
428.506683 60.0
436.736237 64.0
437.639252 48.0
451.571564 56.0
452.405121 52.0
463.829926 92.0
469.160278 72.0
488.073822 52.0
497.888306 88.0
500.99292 120.0
509.308563 76.0
509.416382 48.0
533.387573 148.0
548.729309 120.0
558.855225 80.0
599.767822 68.0
625.142395 68.0
629.778809 104.0
634.016418 64.0
675.222229 76.0
678.365112 128.0
681.614014 128.0
688.082825 208.0
697.012878 156.0
727.209961 80.0
740.79248 72.0
756.103333 60.0
769.476929 84.0
779.585449 172.0
784.115417 60.0
796.575806 32.0
807.278625 92.0
821.032715 216.0
826.533691 204.0
827.953308 244.0
829.093323 60.0
835.903931 156.0
848.251648 108.0
849.057617 124.0
853.592896 252.0
856.275574 152.0
862.296387 128.0
862.518494 72.0
865.12738 76.0
866.23999 108.0
869.24762 52.0
870.14563 204.0
877.523254 176.0
884.600525 184.0
884.67157 132.0
887.865173 68.0
888.321838 60.0
899.234253 200.0
900.105835 224.0
902.860596 196.0
903.010071 72.0
905.098572 168.0
906.572144 120.0
913.981934 68.0
918.729431 216.0
922.147034 152.0
922.757568 60.0
924.178894 204.0
928.904236 72.0
931.046692 196.0
934.535767 104.0
935.497314 180.0
936.100098 196.0
937.982605 144.0
941.661743 256.0
956.290344 192.0
957.780334 36.0
960.529358 132.0
966.812744 140.0
970.60376 152.0
970.895203 136.0
972.042786 136.0
975.676147 28.0
977.162537 160.0
978.046143 156.0
978.438354 184.0
980.419067 192.0
980.475159 168.0
981.148315 128.0
983.119263 132.0
985.117188 136.0
987.805115 92.0
987.886414 108.0
988.199219 84.0
990.383911 176.0
990.734741 132.0
993.944702 216.0
997.988586 112.0
1009.642578 112.0
1010.306702 180.0
1013.159119 232.0
1015.551453 68.0
1016.528442 132.0
1026.209229 172.0
1028.218506 124.0
1028.429199 124.0
1028.818481 156.0
1028.901489 128.0
1029.386719 152.0
1030.376709 136.0
1032.351807 108.0
1033.618286 164.0
1033.91272 152.0
1036.858521 176.0
1037.499512 172.0
1038.12146 164.0
1041.484375 232.0
1041.561401 192.0
1042.139526 176.0
1044.138672 48.0
1048.638794 172.0
1048.896606 84.0
1049.876587 204.0
1050.250732 196.0
1050.379761 212.0
1051.379761 180.0
1051.612061 172.0
1054.479614 196.0
1054.89978 128.0
1057.144043 44.0
1059.16394 224.0
1062.995483 240.0
1066.424316 204.0
1071.089478 176.0
1077.129517 164.0
1080.980225 196.0
1081.366333 32.0
1081.693604 40.0
1082.577515 192.0
1084.031738 204.0
1086.188599 176.0
1087.934082 168.0
1090.476074 140.0
1095.002441 220.0
1095.937866 172.0
1097.68457 132.0
1098.917969 148.0
1099.627563 196.0
1101.045532 240.0
1101.796509 132.0
1108.035034 96.0
1112.444946 180.0
1114.437256 164.0
1116.052368 128.0
1116.817139 76.0
1118.061279 160.0
1119.918701 128.0
1120.951294 200.0
1122.811157 48.0
1123.758423 176.0
1124.859497 176.0
1129.469971 116.0
1131.3302 172.0
1132.689575 192.0
1134.123413 188.0
1134.927856 244.0
1140.264526 152.0
1142.671753 112.0
1144.542847 184.0
1144.623657 152.0
1147.224121 216.0
1148.309692 184.0
1150.759277 44.0
1151.589844 72.0
1152.603149 196.0
1152.832886 216.0
1154.161133 148.0
1154.49585 140.0
1154.768677 204.0
1155.293945 144.0
1156.288574 168.0
1158.306152 164.0
1159.451172 212.0
1159.912109 112.0
1162.339966 192.0
1162.679199 148.0
1162.862549 228.0
1163.262939 192.0
1167.454956 172.0
1168.169067 176.0
1169.4823 216.0
1169.856689 204.0
1171.143555 132.0
1171.266235 164.0
1174.831299 160.0
1175.977539 140.0
1177.25415 232.0
1177.486328 224.0
1177.711792 128.0
1180.240234 100.0
1180.876221 152.0
1182.401855 128.0
1182.963135 148.0
1188.624023 176.0
1188.946533 212.0
1189.14563 208.0
1189.481934 84.0
1191.164185 160.0
1192.002319 200.0
1193.322021 180.0
1195.708862 84.0
1198.539062 92.0
1199.055908 92.0
1200.248535 208.0
1202.386963 84.0
1203.049561 140.0
1203.719238 216.0
1204.030029 212.0
1206.192505 56.0
1206.240845 92.0
1206.316895 120.0
1207.388672 32.0
1207.782837 204.0
1208.045654 268.0
1208.225586 180.0
1209.014282 32.0
1209.761841 156.0
1210.003662 168.0
1211.215942 56.0
1214.841309 168.0
1214.924438 32.0
1216.82605 168.0
1219.347412 216.0
1220.737793 104.0
1224.140503 160.0
1225.812378 220.0
1226.495239 124.0
1231.556763 236.0
1233.47522 108.0
1235.496216 160.0
1236.881714 208.0
1237.021729 216.0
1238.436035 112.0
1239.451904 144.0
1239.886353 176.0
1240.278809 196.0
1240.52417 196.0
1242.494629 232.0
1244.347412 124.0
1244.466797 220.0
1245.583374 208.0
1246.105957 200.0
1246.391235 164.0
1248.746216 176.0
1248.950195 40.0
1249.526978 168.0
1251.166748 40.0
1251.251221 76.0
1251.62439 124.0
1253.145752 168.0
1253.653076 192.0
1254.978271 124.0
1255.380127 204.0
1258.873169 236.0
1259.056763 220.0
1260.674438 72.0
1263.460205 168.0
1263.622925 168.0
1264.316406 160.0
1265.852417 160.0
1266.057861 152.0
1267.53125 164.0
1267.708374 244.0
1268.140625 144.0
1268.268188 196.0
1268.355957 84.0
1268.544678 208.0
1272.041748 176.0
1274.093994 120.0
1275.344604 156.0
1275.572021 240.0
1276.588745 104.0
1278.751343 220.0
1278.915039 184.0
1284.665283 116.0
1285.371582 172.0
1289.463501 156.0
1289.86377 180.0
1290.16394 112.0
1291.45105 176.0
1292.230713 52.0
1293.118042 288.0
1293.626221 172.0
1293.869629 112.0
1295.660034 264.0
1295.810425 128.0
1296.799316 208.0
1297.695312 124.0
1298.87146 28.0
1300.270508 200.0
1300.607788 172.0
1301.849854 192.0
1302.309448 52.0
1303.631348 164.0
1304.522583 136.0
1306.938965 160.0
1307.2052 56.0
1309.429565 152.0
1312.665283 164.0
1312.96814 76.0
1313.646118 96.0
1314.107788 160.0
1315.746094 208.0
1320.464478 144.0
1322.041504 148.0
1323.481934 140.0
1323.641235 184.0
1324.553711 192.0
1325.191284 144.0
1325.68396 168.0
1325.850586 104.0
1329.657959 436.0
1329.933838 152.0
1330.17334 76.0
1331.189697 136.0
1331.436646 176.0
1331.763428 92.0
1333.033691 160.0
1333.50708 208.0
1333.666992 220.0
1334.066772 124.0
1334.328491 144.0
1335.550171 180.0
1335.630127 152.0
1338.148071 220.0
1340.19458 172.0
1340.376709 180.0
1342.104248 232.0
1342.884521 140.0
1345.131714 160.0
1345.343384 148.0
1346.248779 204.0
1346.438599 176.0
1347.095947 176.0
1350.275391 136.0
1351.423828 180.0
1351.57019 156.0
1353.669434 172.0
1354.212891 180.0
1354.425293 56.0
1354.981934 144.0
1356.432983 196.0
1357.914062 160.0
1358.500732 152.0
1358.867554 160.0
1361.304443 212.0
1361.480713 128.0
1362.053589 136.0
1362.655884 196.0
1362.795532 196.0
1363.633179 236.0
1364.074219 188.0
1366.405396 236.0
1366.626099 152.0
1366.684937 192.0
1368.473389 124.0
1368.753174 164.0
1369.114014 184.0
1370.078857 192.0
1371.648438 176.0
1374.251709 64.0
1374.576294 200.0
1375.963867 232.0
1376.40686 196.0
1376.717041 92.0
1378.541626 168.0
1378.977661 104.0
1381.743164 52.0
1382.253662 160.0
1383.149048 216.0
1383.260132 128.0
1383.76355 136.0
1384.348389 188.0
1385.044556 164.0
1385.103882 132.0
1387.549316 80.0
1388.335205 100.0
1389.4552 180.0
1391.481201 148.0
1391.711426 140.0
1391.763428 216.0
1393.880249 44.0
1395.508057 256.0
1395.760864 168.0
1397.099487 172.0
1397.620361 208.0
1397.962524 224.0
1398.245361 184.0
1398.662109 176.0
1400.315063 212.0
1402.199951 232.0
1403.124146 192.0
1403.929443 140.0
1404.250122 148.0
1405.272095 128.0
1405.373413 172.0
1405.652588 204.0
1407.152832 64.0
1408.317749 120.0
1408.511963 176.0
1410.073486 248.0
1410.252808 48.0
1412.563232 164.0
1412.869995 172.0
1413.775269 84.0
1414.044678 200.0
1414.209351 68.0
1414.314087 152.0
1416.088623 148.0
1416.5979 44.0
1418.86853 160.0
1419.880737 112.0
1420.300781 184.0
1420.46582 196.0
1422.589355 80.0
1425.623657 128.0
1426.262451 168.0
1426.728516 160.0
1426.901367 168.0
1427.841309 108.0
1428.029297 128.0
1428.856812 104.0
1429.074951 232.0
1429.236816 200.0
1429.631714 160.0
1430.120972 100.0
1430.843506 204.0
1431.630981 164.0
1431.905273 120.0
1432.590698 220.0
1432.929688 192.0
1432.98999 156.0
1433.781128 172.0
1433.856445 220.0
1434.172974 124.0
1434.941895 128.0
1435.190674 188.0
1435.5979 212.0
1437.664795 228.0
1438.880005 60.0
1440.722656 176.0
1441.780518 232.0
1444.222412 204.0
1444.540161 48.0
1444.978882 220.0
1445.160522 192.0
1446.083618 196.0
1447.143433 192.0
1447.673462 168.0
1448.544434 124.0
1448.635254 100.0
1449.112549 140.0
1449.824829 176.0
1449.908203 40.0
1450.203735 168.0
1451.735107 152.0
1452.043213 224.0
1452.311523 188.0
1452.766602 136.0
1452.963867 88.0
1453.0625 156.0
1456.44043 112.0
1457.754761 80.0
1458.530029 112.0
1459.183716 108.0
1460.453613 224.0
1460.910034 244.0
1461.229492 176.0
1462.546021 252.0
1463.124512 172.0
1463.314819 208.0
1463.809692 192.0
1464.243774 204.0
1464.738892 60.0
1465.355835 172.0
1465.912109 168.0
1467.276367 192.0
1467.665283 168.0
1467.810059 112.0
1470.205322 128.0
1470.50293 144.0
1470.670898 84.0
1470.754883 76.0
1471.930542 88.0
1472.946167 140.0
1473.282349 52.0
1474.214478 168.0
1474.588867 168.0
1475.330322 260.0
1475.720215 196.0
1475.796631 140.0
1476.018433 184.0
1476.737183 204.0
1477.777588 148.0
1478.229004 140.0
1478.818237 212.0
1478.971313 124.0
1479.706177 132.0
1480.257446 208.0
1482.226074 32.0
1482.30542 56.0
1484.531616 180.0
1484.678955 156.0
1488.692383 52.0
1489.936646 172.0
1491.127686 68.0
1491.519653 132.0
1491.819458 236.0
1491.911621 72.0
1492.495972 220.0
1492.765137 120.0
1493.187988 176.0
1494.526489 108.0
1494.957397 144.0
1495.038452 164.0
1495.388428 172.0
1495.71936 140.0
1495.98877 156.0
1496.127319 204.0
1497.374634 196.0
1497.875244 168.0
1498.477051 172.0
1498.722656 144.0
1500.47998 164.0
1500.533936 176.0
1501.328125 132.0
1501.497803 48.0
1501.984985 92.0
1502.454224 168.0
1503.248901 204.0
1503.881714 240.0
