>compound MLS000069388-01!(R)-(+)-SKF-38393 HYDROCHLORIDE
>formula C16H17NO2
>ionization [M+H]+
>parentmass 256.131409
#inchi InChI=1S/C16H17NO2/c18-15-8-12-6-7-17-10-14(13(12)9-16(15)19)11-4-2-1-3-5-11/h1-5,8-9,14,17-19H,6-7,10H2/t14-/m1/s1
#inchikey JUDKOGFHZYMDMF
#origInchi InChI=1S/C16H17NO2.ClH/c18-15-8-12-6-7-17-10-14(13(12)9-16(15)19)11-4-2-1-3-5-11;/h1-5,8-9,14,17-19H,6-7,10H2;1H/t14-;/m1./s1
#Ion_Source LC-ESI
#Instrument qTof
#Compound_Source NIH Pharmacologically Active Library
#PI Dorrestein
#Data_Collector VP/LMS
#Scan -1
#Precursor_MZ 256.133
#ExactMass 255.126
#Charge 1
#CAS_Number N/A
#Pubmed_ID N/A
#Smiles Oc1cc2CCNC[C@H](c3ccccc3)c2cc1O.Cl
#INCHI_AUX N/A
#Library_Class 1
#SpectrumID CCMSLIB00000085018
#IonMode Positive
#UpdateWorkflowName UPDATE-SINGLE-ANNOTATED-GOLD
#LibraryQualityString Gold
#TaskID d252d724072548979f1f6f1ced849daf
##Scan# 1244
#SpectrumFile p3-D10_GD10_01_18267.mzXML
#LibraryName Pharm_Active_Library.mgf
#MQScore -1
#Organism Pharm_Active_Library
#TIC_Query 0
#RT_Query -1
#MZErrorPPM -1
#SharedPeaks 0
#MassDiff 0
#LibMZ -1
#SpecMZ 256.133
#SpecCharge 0
#internalFilename spec-00000.mgf

>collision 10
44.916771 160.0
45.071648 148.0
45.091694 160.0
45.470737 136.0
45.505638 196.0
45.805553 204.0
45.833847 68.0
45.93227 136.0
45.987595 92.0
45.997044 192.0
46.083477 128.0
46.095638 136.0
46.121319 64.0
46.195694 248.0
46.301708 188.0
46.38393 176.0
46.432743 144.0
46.47073 140.0
46.512802 164.0
46.563042 208.0
46.730247 172.0
46.754745 216.0
46.863686 56.0
46.993454 188.0
47.036896 148.0
47.165302 152.0
47.314419 64.0
47.406521 152.0
47.503544 60.0
47.514519 148.0
47.600994 128.0
47.672432 168.0
47.723293 108.0
47.74667 184.0
47.865025 200.0
48.00145 196.0
48.066288 160.0
48.128407 176.0
48.255527 180.0
48.434055 148.0
48.458122 200.0
48.47562 148.0
48.488094 140.0
48.597649 164.0
48.643448 120.0
48.758739 208.0
48.829647 68.0
48.974403 176.0
48.984154 96.0
49.046864 244.0
49.232433 200.0
49.414158 144.0
49.458942 164.0
49.51635 216.0
49.599018 40.0
49.802486 124.0
50.133125 176.0
50.322151 104.0
50.534168 108.0
50.630428 264.0
50.695599 152.0
50.714024 132.0
50.814713 224.0
50.845795 208.0
50.877159 144.0
50.931122 156.0
51.087494 208.0
51.123844 48.0
51.170044 116.0
51.229858 248.0
51.296841 216.0
51.31395 140.0
51.380707 144.0
51.423794 200.0
51.610943 136.0
51.701069 152.0
51.736855 232.0
51.825653 80.0
51.848583 144.0
51.89159 176.0
52.049427 96.0
52.144245 204.0
52.17012 32.0
52.338459 120.0
52.507072 172.0
52.563957 232.0
52.63456 224.0
52.693291 48.0
52.758327 100.0
52.892868 228.0
52.914585 208.0
52.965271 132.0
53.08992 160.0
53.127632 100.0
53.294605 152.0
53.322216 116.0
53.479301 208.0
53.549194 136.0
53.572498 164.0
53.646824 172.0
53.673069 156.0
53.710991 192.0
53.767895 180.0
53.813148 140.0
53.830669 196.0
53.950485 60.0
54.044094 220.0
54.093853 164.0
54.234482 104.0
54.25354 196.0
54.282864 136.0
54.294598 212.0
54.327297 68.0
54.344475 156.0
54.49424 132.0
54.526569 176.0
54.744312 40.0
54.764931 140.0
54.780693 160.0
54.930027 164.0
55.014145 196.0
55.252087 148.0
55.337933 80.0
55.36755 172.0
55.426807 60.0
55.505371 172.0
55.566185 64.0
55.711685 188.0
55.976803 224.0
56.039005 152.0
56.059864 120.0
56.110546 192.0
56.174454 160.0
56.200039 208.0
56.286617 96.0
56.368778 168.0
56.522804 208.0
56.554234 168.0
56.660557 180.0
56.671043 180.0
56.698017 124.0
56.744488 136.0
57.005676 88.0
57.071815 116.0
57.139503 152.0
57.510223 184.0
57.774677 208.0
57.974548 148.0
58.009411 144.0
58.054817 144.0
58.152 240.0
58.176289 84.0
58.214249 168.0
58.270451 136.0
58.510757 188.0
58.582336 140.0
58.637863 148.0
58.679878 116.0
58.950062 224.0
59.125935 108.0
59.398674 144.0
59.47847 52.0
59.733559 64.0
59.919842 192.0
59.952202 132.0
60.006153 220.0
60.021572 136.0
60.086357 244.0
60.17152 112.0
60.331921 172.0
60.379856 164.0
60.577988 64.0
60.965897 116.0
60.979885 64.0
61.043625 164.0
61.118294 124.0
61.490757 140.0
61.646935 176.0
61.675068 84.0
61.695389 220.0
61.74543 184.0
61.839306 200.0
61.917591 184.0
62.096264 136.0
62.193764 232.0
62.278339 164.0
62.345898 156.0
62.364761 192.0
62.547226 192.0
62.567692 140.0
62.632259 132.0
62.654346 184.0
62.674797 160.0
62.711044 188.0
62.808807 176.0
62.819847 208.0
62.931904 204.0
63.045643 208.0
63.096226 176.0
63.260761 116.0
63.44136 140.0
63.684151 184.0
63.816055 188.0
63.855812 208.0
64.148804 180.0
64.435112 192.0
64.482414 124.0
64.712776 116.0
64.799263 172.0
64.845741 232.0
65.023773 252.0
65.139381 104.0
65.26635 112.0
65.499718 124.0
65.54483 216.0
65.91436 216.0
65.942513 140.0
66.021057 204.0
66.116508 176.0
66.351395 168.0
66.669548 204.0
66.741074 180.0
66.8582 108.0
66.872849 196.0
66.89238 88.0
66.924942 156.0
67.154732 176.0
67.219986 176.0
67.252632 68.0
67.471535 240.0
67.49279 40.0
67.597481 188.0
67.674416 184.0
67.689148 228.0
67.731735 44.0
68.110657 172.0
68.178024 152.0
68.270088 76.0
68.312851 168.0
68.380318 152.0
68.40007 236.0
68.528526 148.0
68.749496 144.0
68.932808 92.0
68.954292 232.0
69.141182 108.0
69.202431 40.0
69.286903 68.0
69.356506 208.0
69.411217 208.0
69.422821 164.0
69.451019 220.0
69.497475 196.0
69.515724 148.0
69.803116 164.0
69.853012 76.0
69.902924 180.0
69.97506 204.0
70.05278 164.0
70.211128 196.0
70.28286 204.0
70.322304 176.0
70.379677 200.0
70.399635 168.0
70.660477 200.0
70.727417 164.0
70.745834 204.0
70.757553 152.0
70.847992 132.0
71.067627 164.0
71.117973 208.0
71.134766 152.0
71.195206 220.0
71.247284 204.0
71.341393 136.0
71.359886 152.0
71.422112 208.0
71.810104 196.0
71.828072 164.0
71.865143 136.0
71.90123 168.0
71.978287 164.0
72.042465 132.0
72.06781 96.0
72.355347 224.0
72.456963 148.0
72.531532 144.0
72.75206 128.0
73.059669 132.0
73.115822 180.0
73.131142 184.0
73.248634 160.0
73.294632 228.0
73.473663 92.0
73.567528 176.0
73.834091 256.0
73.910423 180.0
73.953857 164.0
74.015488 188.0
74.092567 140.0
74.157684 156.0
74.257133 224.0
74.274284 132.0
74.320602 148.0
74.445923 328.0
74.542122 192.0
75.120636 196.0
75.200012 148.0
75.278191 172.0
75.33989 56.0
75.410736 140.0
75.502106 208.0
75.578484 188.0
75.644257 140.0
75.704857 144.0
75.737762 132.0
75.803596 192.0
75.859062 196.0
75.928421 152.0
75.940567 184.0
76.16201 232.0
76.263519 216.0
76.400902 48.0
76.536659 148.0
76.571487 176.0
76.599358 196.0
76.622009 188.0
76.656853 192.0
76.717857 208.0
76.805054 148.0
76.834709 152.0
77.089645 248.0
77.285492 228.0
77.479843 92.0
77.493858 60.0
77.520142 104.0
77.797279 124.0
77.916702 112.0
77.995781 168.0
78.011604 132.0
78.15934 164.0
78.220947 180.0
78.400604 92.0
78.453484 48.0
78.550476 244.0
78.917824 180.0
78.933739 168.0
78.965569 64.0
79.057571 148.0
79.092972 164.0
79.14608 228.0
79.493752 156.0
79.53257 172.0
79.619568 184.0
79.793716 136.0
79.843506 164.0
79.903984 140.0
80.110504 120.0
80.194252 152.0
80.208511 144.0
80.301231 172.0
80.338692 112.0
80.370811 112.0
80.504692 132.0
80.654778 144.0
80.678017 36.0
80.885529 120.0
80.912384 156.0
81.012672 204.0
81.082558 152.0
81.423439 164.0
81.581566 164.0
81.621124 148.0
81.838852 92.0
81.968544 120.0
82.060471 196.0
82.123589 136.0
82.718086 144.0
82.878754 168.0
83.316544 220.0
83.424339 228.0
83.520142 200.0
83.582001 80.0
83.700317 196.0
83.749496 216.0
83.995575 152.0
84.123314 140.0
84.472359 184.0
84.743309 160.0
84.767136 120.0
84.87529 180.0
85.003693 120.0
85.341682 216.0
85.435486 116.0
85.451958 184.0
85.567993 140.0
85.602982 156.0
85.654549 88.0
85.676659 180.0
85.787231 52.0
85.958763 180.0
86.106453 108.0
86.121231 204.0
86.289398 160.0
86.344872 148.0
86.482605 64.0
86.513214 152.0
86.559547 204.0
86.687706 180.0
86.750389 180.0
86.778198 192.0
86.883919 180.0
86.915459 188.0
86.943291 156.0
87.080681 156.0
87.197739 120.0
87.495369 180.0
87.527023 160.0
87.731972 176.0
87.75621 172.0
87.838272 200.0
87.963295 72.0
88.013702 160.0
88.533577 160.0
88.55043 204.0
88.645981 108.0
88.882256 184.0
88.901024 196.0
88.968597 152.0
89.082863 208.0
89.474327 148.0
89.536469 156.0
89.549652 256.0
89.583557 156.0
89.630661 120.0
89.688347 336.0
89.779587 168.0
89.809761 84.0
89.822968 76.0
89.866356 112.0
89.922974 208.0
89.9645 144.0
90.000374 232.0
90.164726 44.0
90.308418 172.0
90.376526 136.0
90.474945 92.0
90.636673 236.0
90.677628 220.0
90.905212 172.0
90.935577 164.0
90.957642 312.0
90.999763 192.0
91.017212 248.0
91.033501 116.0
91.054146 14196.0
91.098625 236.0
91.157784 56.0
91.193893 52.0
91.231911 104.0
91.250542 60.0
91.300362 56.0
91.315575 56.0
91.365036 188.0
91.412018 156.0
91.806946 72.0
91.867981 120.0
91.936676 40.0
91.959579 48.0
92.024483 36.0
92.05658 1300.0
92.07238 336.0
92.110847 144.0
92.263306 60.0
92.389534 132.0
92.439278 144.0
92.456505 116.0
92.56179 184.0
92.602013 124.0
92.615417 92.0
92.787895 112.0
92.833908 132.0
92.935577 108.0
93.06945 372.0
93.083992 208.0
93.362038 108.0
93.381271 124.0
93.396652 136.0
93.496704 160.0
93.540977 156.0
93.764412 164.0
93.843445 168.0
93.999687 160.0
94.037849 192.0
94.065079 164.0
94.115509 160.0
94.318825 184.0
94.529182 116.0
94.558212 192.0
94.780922 112.0
94.83712 184.0
94.870071 188.0
94.899155 40.0
95.019409 132.0
95.049889 392.0
95.084221 180.0
95.13974 156.0
95.335922 168.0
95.368958 124.0
95.433113 72.0
95.463196 148.0
95.571213 60.0
95.602348 176.0
95.67437 180.0
95.839928 180.0
95.852684 132.0
95.922073 184.0
96.050613 176.0
96.144135 176.0
96.171463 60.0
96.239792 156.0
96.257362 168.0
96.298378 156.0
96.390198 80.0
96.41169 224.0
96.44883 132.0
96.50161 40.0
96.556366 164.0
96.644402 168.0
96.883263 172.0
96.916573 52.0
97.147919 176.0
97.320633 208.0
97.511192 128.0
97.820007 104.0
97.99379 216.0
98.014992 256.0
98.046524 180.0
98.460831 236.0
98.767197 100.0
99.068085 204.0
99.099785 176.0
99.226639 176.0
99.339684 152.0
99.683174 164.0
99.753952 124.0
99.783844 136.0
99.961578 136.0
99.989433 164.0
100.176605 128.0
100.296173 176.0
100.399849 72.0
100.603378 68.0
100.725189 220.0
100.847076 132.0
100.865067 160.0
100.93618 152.0
100.949043 212.0
100.975044 224.0
101.065063 56.0
101.207184 128.0
101.399498 152.0
101.485695 108.0
101.720428 64.0
101.742516 172.0
101.850952 180.0
102.046722 2124.0
102.090622 452.0
102.369858 228.0
102.436325 148.0
102.488708 128.0
102.549164 84.0
102.566513 160.0
102.746788 36.0
102.805305 120.0
102.88604 144.0
102.97287 228.0
103.005188 72.0
103.021355 136.0
103.053062 5580.0
103.237625 56.0
103.267311 84.0
103.304375 100.0
103.405548 196.0
103.776268 164.0
103.799095 200.0
103.865501 128.0
103.916222 92.0
103.968979 80.0
104.007538 152.0
104.056213 536.0
104.314278 112.0
104.417976 180.0
104.45459 104.0
104.489174 164.0
104.607208 144.0
104.622589 200.0
104.637749 56.0
104.755867 248.0
104.861824 88.0
104.886284 192.0
104.961723 112.0
105.030373 308.0
105.047386 172.0
105.068924 2732.0
105.118797 36.0
105.135117 176.0
105.151451 192.0
105.18615 40.0
105.216766 180.0
105.239227 140.0
105.331131 204.0
105.427162 180.0
105.445557 92.0
105.470085 156.0
105.631622 224.0
105.699142 180.0
106.041153 180.0
106.071381 208.0
106.0924 136.0
106.145706 88.0
106.266724 148.0
106.465843 116.0
106.687759 216.0
106.761536 168.0
106.852287 184.0
107.049454 812.0
107.103439 144.0
107.249741 168.0
107.691299 140.0
107.784271 132.0
107.83593 252.0
108.005486 156.0
108.069618 172.0
108.247635 104.0
108.517006 64.0
108.59166 180.0
108.720291 128.0
108.795021 184.0
108.873924 216.0
109.029686 148.0
109.064354 712.0
109.133675 172.0
109.418724 84.0
109.86055 156.0
110.010803 124.0
110.035858 156.0
110.409904 184.0
110.765724 188.0
110.889351 184.0
110.943848 144.0
111.017532 144.0
111.266937 148.0
111.304733 148.0
111.429016 236.0
111.815582 176.0
111.916626 160.0
111.946106 124.0
112.013504 80.0
112.33815 156.0
113.175095 136.0
113.401772 160.0
113.949272 184.0
114.064034 52.0
114.11293 148.0
114.136314 96.0
114.229897 156.0
114.327774 104.0
114.491699 160.0
114.604607 188.0
114.719696 164.0
114.892433 152.0
115.053619 8628.0
115.0952 40.0
115.133636 228.0
115.251129 60.0
115.274635 56.0
115.460625 80.0
115.651047 76.0
115.743111 104.0
115.830917 48.0
116.017357 96.0
116.05484 904.0
116.111008 136.0
116.598221 132.0
116.75386 208.0
116.773445 168.0
116.820541 80.0
116.87648 176.0
116.913597 144.0
116.981941 100.0
117.014229 160.0
117.062347 924.0
117.112091 192.0
117.130524 68.0
117.162842 136.0
117.197311 72.0
117.268425 164.0
117.38916 220.0
117.477592 180.0
117.499168 176.0
117.952675 172.0
117.980782 236.0
118.026184 168.0
118.066597 364.0
118.268486 148.0
118.608566 128.0
118.927422 124.0
118.944786 108.0
119.048317 14372.0
119.103302 148.0
119.174995 192.0
119.18927 196.0
119.214111 36.0
119.240555 96.0
119.266273 72.0
119.283661 248.0
119.335838 64.0
119.374977 112.0
119.501144 132.0
119.544662 80.0
119.570778 168.0
119.616486 120.0
119.666557 116.0
119.697044 76.0
119.736244 28.0
119.804138 164.0
119.877853 48.0
119.904007 36.0
119.925797 56.0
119.949776 108.0
119.971573 168.0
119.991196 120.0
120.021721 160.0
120.052391 1284.0
120.080276 8088.0
120.147934 60.0
120.169319 132.0
120.266068 124.0
120.283813 168.0
120.329872 192.0
120.386147 144.0
120.451668 64.0
120.480072 104.0
120.495361 108.0
120.547806 68.0
120.660324 92.0
120.714935 132.0
120.873634 96.0
120.895515 192.0
121.064743 180.0
121.082726 484.0
121.114464 116.0
121.131989 152.0
121.156082 48.0
121.278801 108.0
121.305107 244.0
121.454216 180.0
121.546364 316.0
121.649513 136.0
122.099228 144.0
122.333199 184.0
122.377235 164.0
122.557846 52.0
122.579887 104.0
122.648209 160.0
122.919479 188.0
123.009972 96.0
123.042595 5900.0
123.098289 192.0
123.114967 284.0
123.19326 212.0
123.263962 84.0
123.303741 124.0
123.429756 112.0
123.681969 220.0
123.819244 48.0
124.025299 124.0
124.048805 332.0
124.635612 44.0
124.94912 136.0
125.04258 184.0
125.067581 240.0
125.347679 36.0
125.621918 56.0
125.677696 124.0
125.878593 68.0
126.054924 176.0
126.800308 56.0
126.896706 188.0
127.013321 184.0
127.052094 744.0
127.161407 152.0
127.33654 96.0
127.543251 176.0
127.86039 76.0
128.004471 84.0
128.061218 4316.0
128.162155 48.0
128.389832 112.0
128.504868 124.0
128.612228 164.0
129.067917 3352.0
129.091034 152.0
129.123123 64.0
129.160019 84.0
129.209793 28.0
129.236938 236.0
129.275406 200.0
129.556183 112.0
129.757889 116.0
129.88942 84.0
130.007401 136.0
130.039413 1004.0
130.073318 476.0
130.384399 136.0
130.450317 152.0
130.59024 104.0
131.047791 492.0
131.079956 184.0
131.194733 144.0
131.450195 64.0
131.942291 108.0
132.052933 444.0
132.079437 760.0
132.182632 92.0
132.305038 100.0
132.412659 76.0
132.495132 204.0
132.540955 204.0
132.816071 192.0
132.873413 124.0
132.910126 144.0
133.063599 516.0
133.085861 172.0
133.408524 160.0
133.689133 196.0
133.721359 44.0
133.748978 148.0
133.976959 188.0
134.062515 156.0
134.119827 144.0
134.218964 32.0
134.652832 232.0
134.722122 96.0
134.749847 84.0
134.800674 168.0
134.978683 156.0
135.044266 500.0
135.186874 188.0
135.233154 172.0
135.304916 140.0
135.37439 232.0
135.645462 136.0
135.766037 64.0
136.051437 380.0
136.077835 164.0
136.228424 192.0
136.583603 64.0
136.631287 128.0
136.739487 216.0
136.79303 212.0
137.00029 144.0
137.059372 28188.0
137.125854 36.0
137.159012 72.0
137.200714 140.0
137.222626 60.0
137.251617 260.0
137.306366 64.0
137.375626 72.0
137.401291 36.0
137.471283 124.0
137.789963 84.0
137.910355 100.0
137.953568 64.0
138.022583 60.0
138.062256 1764.0
138.116135 48.0
138.25885 72.0
138.305664 60.0
138.326721 32.0
138.368866 84.0
138.439117 100.0
138.553894 152.0
138.572632 100.0
138.934601 72.0
138.972809 92.0
139.041626 160.0
139.069946 176.0
139.104996 108.0
139.231796 80.0
139.262329 96.0
139.40329 104.0
139.610168 52.0
139.685425 128.0
139.984344 240.0
140.056 292.0
140.177505 104.0
140.23172 268.0
140.977509 52.0
141.06868 1116.0
141.152435 132.0
141.336945 44.0
141.454163 196.0
142.074173 356.0
142.142609 168.0
142.370499 60.0
142.660385 236.0
143.047791 4736.0
143.076263 64.0
143.085464 160.0
143.274384 64.0
143.379227 80.0
143.543732 136.0
143.674911 148.0
143.74649 52.0
144.054062 796.0
144.259354 212.0
144.458496 100.0
144.669083 124.0
144.800781 148.0
144.875046 44.0
145.059235 352.0
145.124298 200.0
145.196243 32.0
146.038055 444.0
146.056824 248.0
146.121063 172.0
146.258224 104.0
146.414734 180.0
146.506271 196.0
146.612289 80.0
146.788269 88.0
146.850967 40.0
146.896805 64.0
146.957123 132.0
147.04126 580.0
147.249222 108.0
147.449753 172.0
147.796555 116.0
147.889938 64.0
147.952881 188.0
148.051956 1836.0
148.367157 32.0
148.444748 176.0
148.874283 236.0
148.986023 52.0
149.054474 416.0
149.088074 172.0
149.107513 132.0
149.173141 180.0
149.620773 152.0
149.825348 80.0
150.015442 56.0
150.06134 180.0
150.100769 228.0
150.339844 148.0
150.635269 52.0
150.779434 228.0
151.050751 548.0
151.23436 196.0
151.251495 92.0
151.790497 124.0
152.061295 1928.0
152.089813 188.0
152.195374 68.0
152.288696 60.0
152.605713 152.0
153.068176 684.0
153.186523 64.0
153.287552 228.0
153.864716 64.0
153.975845 40.0
154.074081 220.0
154.151245 196.0
154.339111 48.0
154.739944 184.0
154.953232 68.0
155.027283 68.0
155.057495 484.0
155.084793 456.0
155.128906 168.0
155.545654 180.0
156.066666 388.0
156.094727 144.0
156.50531 212.0
157.260681 72.0
157.320587 28.0
157.615311 92.0
158.055405 196.0
158.891846 144.0
159.045334 176.0
159.06543 188.0
160.053482 336.0
160.07605 612.0
160.219711 168.0
160.449051 152.0
160.512085 180.0
160.590271 100.0
161.057785 3668.0
161.090942 128.0
161.272003 124.0
161.360489 28.0
161.600754 136.0
161.623535 52.0
161.757675 32.0
161.934921 192.0
161.988953 216.0
162.061478 488.0
162.708344 36.0
162.840393 204.0
163.055328 484.0
163.272446 128.0
163.341125 52.0
163.664337 60.0
163.875748 168.0
164.069672 2364.0
164.122986 80.0
164.286224 68.0
164.449539 64.0
164.717651 164.0
164.750854 52.0
165.069321 5220.0
165.27243 80.0
165.73558 144.0
165.815338 180.0
165.907608 84.0
166.076111 5012.0
166.182037 52.0
166.279556 140.0
166.708435 124.0
166.839523 56.0
167.024689 192.0
167.083282 1032.0
167.244965 132.0
167.333496 56.0
167.915878 48.0
168.052597 464.0
168.096893 172.0
168.416611 116.0
168.509613 156.0
169.006042 124.0
169.0578 356.0
169.082901 160.0
169.100845 304.0
169.386612 116.0
170.071182 184.0
170.413971 176.0
171.061554 212.0
171.400131 108.0
171.483536 192.0
171.645172 200.0
171.66864 152.0
171.726013 124.0
171.919083 52.0
172.057419 216.0
172.086136 136.0
172.480621 176.0
172.50676 92.0
172.559052 88.0
172.778748 196.0
172.84938 132.0
173.061401 120.0
173.627441 96.0
173.847809 112.0
174.065689 152.0
174.454544 188.0
175.228302 160.0
176.059372 832.0
176.167511 40.0
176.191284 176.0
176.281113 76.0
176.664505 140.0
176.889435 68.0
177.067413 1080.0
177.159561 120.0
177.379501 116.0
177.435181 208.0
177.535934 220.0
177.652649 152.0
177.734894 68.0
177.864944 148.0
177.932755 168.0
177.96051 136.0
177.98175 104.0
178.013611 144.0
178.042831 192.0
178.077591 14056.0
178.167679 56.0
178.209854 108.0
178.254929 76.0
178.259842 64.0
178.269882 120.0
178.303604 204.0
178.345718 92.0
178.401535 48.0
178.436096 60.0
178.460037 68.0
178.526505 48.0
178.696747 120.0
178.835129 40.0
178.956116 108.0
179.080002 3580.0
179.144012 40.0
179.209732 96.0
179.295898 112.0
179.354538 32.0
179.397186 44.0
179.415848 60.0
179.471832 40.0
179.621185 160.0
179.810638 204.0
180.085114 520.0
180.227219 108.0
180.256622 76.0
180.290161 224.0
180.392929 48.0
180.494522 128.0
180.529282 124.0
180.564056 56.0
180.778076 176.0
180.807526 164.0
180.879791 108.0
181.064133 688.0
181.100952 1632.0
181.319061 68.0
181.407516 72.0
181.447723 136.0
181.482574 92.0
181.509399 180.0
182.070755 480.0
182.108505 428.0
182.922607 184.0
183.019531 196.0
183.08226 544.0
183.264633 100.0
183.323929 52.0
184.09816 52.0
185.08519 136.0
186.039566 244.0
189.067505 484.0
189.887054 156.0
190.072266 256.0
190.611816 72.0
191.010483 80.0
191.085663 1208.0
191.115021 204.0
191.167313 136.0
191.293915 28.0
191.503189 208.0
192.056824 508.0
192.092255 888.0
192.346939 108.0
192.4767 92.0
192.791626 84.0
192.822021 164.0
192.979584 124.0
193.062393 296.0
193.100128 5052.0
193.191513 100.0
193.283859 104.0
193.332733 148.0
193.55513 92.0
193.607742 80.0
193.870926 164.0
194.070923 696.0
194.101898 644.0
194.159256 80.0
194.209167 48.0
194.244812 176.0
195.079315 324.0
195.105881 140.0
195.311905 104.0
196.059387 188.0
196.086609 380.0
196.364761 36.0
197.054764 320.0
197.091949 156.0
197.124115 116.0
198.061386 120.0
198.151031 96.0
199.104752 176.0
199.130035 160.0
199.830002 124.0
200.060776 120.0
200.08049 72.0
200.111465 116.0
200.302963 96.0
200.520432 112.0
200.928802 160.0
201.064987 304.0
201.91748 160.0
202.077118 2988.0
202.160782 64.0
202.248337 64.0
202.350433 48.0
202.661987 40.0
203.081726 1228.0
203.175156 196.0
203.393677 144.0
204.087784 744.0
204.388382 188.0
204.487991 112.0
204.630325 44.0
204.698654 88.0
205.064178 1548.0
206.069931 1160.0
207.0793 540.0
207.609222 132.0
208.083282 144.0
208.170303 60.0
208.477676 88.0
208.66452 132.0
208.914734 100.0
209.093491 768.0
209.654724 136.0
210.067093 1692.0
210.551956 56.0
210.783066 84.0
211.043533 184.0
211.075729 240.0
211.514786 112.0
212.078232 100.0
212.100769 176.0
212.282562 72.0
212.50592 132.0
212.616196 124.0
212.932648 168.0
213.082657 100.0
214.026077 176.0
214.128006 156.0
216.915543 196.0
217.068008 140.0
217.695999 60.0
218.057358 204.0
218.080872 172.0
219.079651 556.0
219.644409 184.0
219.99852 160.0
220.085037 552.0
220.119568 128.0
220.506577 72.0
220.902802 68.0
220.979721 172.0
221.095688 2268.0
221.373413 72.0
221.420792 36.0
221.628159 40.0
222.100159 228.0
222.660507 32.0
222.76149 52.0
222.87439 44.0
223.025955 72.0
223.075012 536.0
223.138931 112.0
224.080109 792.0
225.08342 544.0
225.810806 52.0
226.076309 140.0
226.885818 64.0
227.111053 180.0
228.115814 112.0
229.115784 172.0
231.081253 120.0
231.874634 148.0
232.089874 180.0
235.065933 100.0
235.098404 124.0
236.639008 96.0
236.945282 168.0
237.087524 188.0
238.584152 108.0
239.104553 1560.0
240.114182 312.0
240.357147 56.0
241.114502 184.0
241.213745 108.0
248.335159 48.0
250.378082 180.0
252.846954 148.0
255.894363 148.0
256.075867 84.0
256.131409 2212.0
256.333923 88.0
256.499664 68.0
256.541107 44.0
257.138 212.0
257.418518 40.0
258.137543 372.0
258.262268 56.0
258.857544 92.0
259.629883 128.0
262.346893 92.0
266.658539 88.0
282.082916 88.0
282.875702 68.0
289.207489 60.0
294.385498 124.0
302.711182 72.0
306.574188 64.0
314.680786 56.0
318.757751 36.0
322.206818 76.0
324.447205 68.0
348.495605 40.0
359.720154 88.0
365.073914 60.0
371.233795 96.0
382.593964 76.0
382.769165 108.0
396.075714 68.0
396.812836 132.0
399.541321 88.0
402.878174 60.0
404.874146 60.0
406.441559 124.0
408.554932 88.0
416.835632 56.0
421.607666 68.0
423.92807 52.0
454.303467 96.0
474.578094 40.0
496.314636 108.0
506.028046 84.0
523.107361 108.0
558.586731 68.0
602.824524 52.0
623.488953 52.0
633.573425 76.0
650.36615 76.0
652.520081 136.0
656.782532 200.0
668.360962 60.0
671.978027 80.0
691.941711 176.0
696.630188 160.0
699.069824 104.0
710.201782 176.0
710.992371 60.0
722.774841 140.0
733.085144 168.0
739.37677 236.0
762.95813 208.0
768.984436 164.0
771.193726 164.0
772.321716 152.0
775.788208 68.0
776.181885 108.0
780.090515 68.0
785.916138 180.0
787.222351 156.0
790.492615 88.0
791.472229 152.0
794.431519 164.0
798.740112 176.0
812.961304 180.0
814.602173 148.0
815.409058 136.0
817.832031 268.0
820.606323 188.0
823.322571 168.0
839.564087 200.0
842.045715 108.0
845.723022 204.0
846.081909 56.0
850.731384 196.0
851.468872 144.0
854.037842 60.0
854.852356 192.0
855.550842 176.0
856.203003 100.0
856.389343 120.0
863.574402 208.0
865.013855 128.0
865.739868 144.0
868.171936 236.0
869.973267 200.0
872.005676 124.0
872.95813 188.0
876.849548 184.0
878.134827 40.0
883.196777 212.0
888.237671 176.0
890.154663 184.0
890.606018 36.0
892.757568 236.0
894.066345 88.0
895.995667 216.0
896.460388 140.0
903.356567 184.0
905.26593 168.0
905.559387 212.0
906.224304 104.0
906.350159 192.0
913.025574 192.0
913.747437 40.0
915.559265 156.0
915.65564 216.0
919.109924 144.0
920.055664 64.0
922.631165 188.0
923.810486 172.0
924.621277 188.0
930.349426 208.0
930.446533 172.0
935.261169 156.0
936.954102 176.0
939.28894 220.0
939.685486 152.0
941.052673 184.0
943.325317 180.0
944.163025 200.0
945.863953 48.0
948.737061 124.0
953.383545 144.0
955.055908 152.0
963.297424 56.0
966.51239 144.0
968.165222 216.0
969.125427 196.0
973.504822 92.0
975.213318 172.0
975.374939 160.0
978.977356 156.0
979.55658 212.0
980.398315 228.0
984.477722 172.0
985.314758 172.0
988.103149 192.0
989.461304 160.0
989.59906 196.0
990.92688 200.0
991.547241 192.0
991.873169 192.0
992.067505 140.0
992.46875 188.0
995.524719 188.0
996.171692 104.0
998.101196 160.0
999.283691 156.0
1001.253967 144.0
1002.450928 152.0
1004.865967 204.0
1006.664917 180.0
1007.87146 148.0
1008.231628 188.0
1011.470032 172.0
1012.571777 52.0
1022.883484 152.0
1024.061401 144.0
1027.044434 216.0
1027.991211 192.0
1030.357544 164.0
1032.825195 88.0
1036.416748 188.0
1038.513062 184.0
1041.606934 192.0
1042.217285 144.0
1042.956421 252.0
1044.821289 196.0
1047.853638 96.0
1048.053467 128.0
1049.22644 204.0
1051.37439 72.0
1055.987427 184.0
1056.13623 156.0
1060.539185 164.0
1060.591064 188.0
1063.815063 132.0
1065.217651 136.0
1071.560791 112.0
1072.06897 176.0
1072.394897 168.0
1074.912231 168.0
1074.977539 108.0
1075.290771 176.0
1077.62207 96.0
1079.07959 148.0
1080.204468 88.0
1083.05188 112.0
1083.307373 192.0
1084.808105 228.0
1087.609131 164.0
1092.544189 188.0
1097.8927 88.0
1098.083984 112.0
1098.446777 76.0
1099.317749 164.0
1099.865479 80.0
1101.410645 176.0
1104.71582 176.0
1105.398682 244.0
1105.900391 128.0
1107.224487 168.0
1107.502686 196.0
1109.563599 68.0
1110.47876 148.0
1110.717529 208.0
1110.810425 168.0
1111.845459 184.0
1114.335693 148.0
1119.989258 224.0
1122.089478 88.0
1122.409546 84.0
1122.48291 76.0
1122.65625 168.0
1124.858032 172.0
1125.986572 132.0
1127.095459 48.0
1127.469727 204.0
1127.91748 72.0
1129.488892 156.0
1129.803345 168.0
1130.686646 140.0
1131.576904 192.0
1134.410767 148.0
1135.798828 80.0
1135.852539 196.0
1136.684448 64.0
1137.463013 148.0
1137.879272 196.0
1139.686035 188.0
1140.042114 208.0
1140.432007 40.0
1140.848755 216.0
1141.467285 156.0
1142.139893 208.0
1143.485596 196.0
1143.620239 176.0
1143.92981 152.0
1144.259766 112.0
1144.46167 120.0
1144.67041 60.0
1145.10144 184.0
1146.516235 148.0
1147.689209 168.0
1151.704712 180.0
1152.860107 160.0
1154.354004 140.0
1154.408203 140.0
1155.145386 164.0
1157.067383 192.0
1157.216309 88.0
1157.968018 132.0
1158.835083 208.0
1159.261963 240.0
1159.519531 204.0
1160.619629 204.0
1160.739746 108.0
1161.058472 136.0
1162.137085 148.0
1163.324829 452.0
1164.92749 144.0
1168.707642 164.0
1169.190796 128.0
1169.49707 72.0
1171.090332 148.0
1172.153076 208.0
1173.823242 112.0
1176.299927 164.0
1178.048096 160.0
1178.294067 140.0
1178.908936 180.0
1181.589355 232.0
1181.993042 172.0
1182.109375 108.0
1183.71814 128.0
1183.772949 156.0
1186.81543 168.0
1186.97998 176.0
1188.564453 120.0
1189.120361 172.0
1189.630371 132.0
1190.376709 196.0
1190.946777 144.0
1194.424927 176.0
1196.861206 172.0
1197.722046 152.0
1198.546021 216.0
1201.948242 200.0
1202.244995 260.0
1202.797119 204.0
1203.639404 224.0
1203.708496 136.0
1204.109009 108.0
1207.398804 136.0
1207.46106 204.0
1208.173584 148.0
1208.242798 176.0
1213.402466 148.0
1213.769897 192.0
1213.901733 220.0
1215.316772 200.0
1216.003784 176.0
1216.524414 176.0
1217.350708 180.0
1217.503418 184.0
1219.233276 196.0
1220.317749 164.0
1220.686279 128.0
1220.755859 176.0
1221.722656 208.0
1222.258423 148.0
1223.0448 68.0
1223.991577 216.0
1224.43042 172.0
1224.7229 32.0
1224.891113 216.0
1225.322021 212.0
1227.050415 112.0
1228.36853 60.0
1229.457031 148.0
1229.771118 232.0
1231.411865 148.0
1231.851929 172.0
1233.745728 176.0
1235.885986 168.0
1239.1698 148.0
1240.466309 160.0
1240.802856 196.0
1242.486084 140.0
1243.756226 188.0
1245.77771 96.0
1249.856445 116.0
1251.397949 140.0
1254.152466 132.0
1255.012573 188.0
1255.393311 200.0
1256.529053 180.0
1256.656006 196.0
1257.284058 180.0
1258.413452 136.0
1260.094482 224.0
1260.299316 132.0
1260.433594 64.0
1261.119141 164.0
1263.091919 224.0
1264.209839 168.0
1264.436279 196.0
1264.71228 88.0
1264.797241 212.0
1265.413208 160.0
1266.2771 116.0
1266.85791 64.0
1268.02002 192.0
1268.126343 176.0
1268.863647 56.0
1269.79248 132.0
1270.487671 156.0
1271.055298 176.0
1271.295532 188.0
1272.609863 236.0
1274.733643 100.0
1279.428101 204.0
1279.919434 148.0
1280.154419 216.0
1280.645874 160.0
1281.165771 212.0
1281.400879 116.0
1281.457886 176.0
1281.643799 224.0
1283.468018 132.0
1284.273804 200.0
1287.792725 188.0
1287.957031 148.0
1289.171631 184.0
1289.814819 200.0
1290.33667 160.0
1290.501099 144.0
1290.615601 172.0
1291.130493 124.0
1291.502319 168.0
1291.581055 180.0
1294.014282 224.0
1294.730347 76.0
1295.432251 128.0
1295.704468 160.0
1296.098511 80.0
1296.793701 100.0
1297.489014 32.0
1299.511597 200.0
1299.734009 100.0
1300.286621 132.0
1300.336914 120.0
1300.394287 68.0
1300.523438 148.0
1300.875244 40.0
1301.018799 180.0
1301.880371 228.0
1302.34729 168.0
1302.735107 148.0
1302.965088 44.0
1303.28833 168.0
1304.143555 216.0
1304.795654 208.0
1305.085327 104.0
1306.754028 212.0
1307.32251 136.0
1312.941772 184.0
1313.381714 176.0
1315.12793 40.0
1315.734375 164.0
1316.319214 56.0
1317.330322 164.0
1318.052856 152.0
1319.353882 148.0
1319.599609 216.0
1320.980957 168.0
1321.161865 112.0
1321.682739 140.0
1322.486084 152.0
1322.797363 48.0
1323.376465 64.0
1323.796509 124.0
1324.086182 140.0
1324.252808 180.0
1327.644653 148.0
1329.022949 120.0
1329.429321 136.0
1329.959106 188.0
1330.554443 164.0
1331.273193 180.0
1332.072144 236.0
1333.758057 156.0
1335.641357 108.0
1336.528931 192.0
1336.943726 196.0
1337.737061 188.0
1338.020996 152.0
1338.1521 120.0
1338.217651 240.0
1339.484863 96.0
1339.95105 192.0
1340.555786 156.0
1342.341797 116.0
1343.713135 164.0
1343.837158 216.0
1344.296875 76.0
1345.187378 220.0
1346.005005 192.0
1346.114624 232.0
1346.297119 136.0
1346.662354 144.0
1348.108887 184.0
1348.335449 144.0
1348.686279 204.0
1350.411865 180.0
1350.528931 144.0
1351.24585 148.0
1352.680176 248.0
1353.075562 140.0
1354.540283 328.0
1354.723389 172.0
1356.445435 200.0
1356.592041 128.0
1357.237305 160.0
1357.611328 176.0
1358.146729 132.0
1359.026978 228.0
1359.760864 140.0
1360.164551 168.0
1361.647705 140.0
1361.970947 164.0
1362.139893 92.0
1362.198608 156.0
1363.403687 180.0
1364.263672 168.0
1365.866821 196.0
1366.712769 168.0
1367.205811 128.0
1368.229004 200.0
1368.449951 196.0
1368.611938 112.0
1368.832764 168.0
1368.987427 180.0
1369.20105 188.0
1369.451416 40.0
1369.532471 124.0
1373.099854 140.0
1376.605347 64.0
1377.942261 176.0
1383.320312 204.0
1383.76062 184.0
1384.562744 188.0
1385.207153 152.0
1385.859131 160.0
1386.489014 168.0
1386.56311 224.0
1386.703979 164.0
1389.892822 228.0
1390.027588 144.0
1390.21936 204.0
1390.731445 240.0
1390.887329 180.0
1391.444092 92.0
1391.540649 172.0
1391.711426 132.0
1392.699097 208.0
1393.954712 56.0
1396.27417 232.0
1397.018066 168.0
1397.137085 136.0
1397.315552 164.0
1398.238281 212.0
1398.655151 224.0
1398.945435 88.0
1399.795532 204.0
1401.187134 44.0
1403.259155 124.0
1403.527466 192.0
1403.892944 224.0
1403.982422 152.0
1406.504272 140.0
1407.452393 160.0
1407.803467 160.0
1407.855713 132.0
1409.940063 148.0
1410.597778 164.0
1410.82959 208.0
1410.994019 164.0
1411.330444 44.0
1411.457642 212.0
1412.392456 220.0
1413.192993 220.0
1415.932739 184.0
1416.749268 32.0
1416.861572 44.0
1417.273682 120.0
1417.401123 208.0
1417.643433 164.0
1417.888184 56.0
1418.742676 84.0
1419.222534 136.0
1419.372559 108.0
1419.627563 128.0
1420.362549 176.0
1420.587524 256.0
1421.495483 212.0
1421.682983 176.0
1422.291016 148.0
1424.037964 132.0
1424.28833 144.0
1424.69397 144.0
1427.813477 120.0
1428.625854 48.0
1429.641602 148.0
1430.010376 176.0
1430.213623 132.0
1432.004883 160.0
1432.299438 168.0
1432.789062 132.0
1432.856812 148.0
1433.316528 48.0
1433.625488 108.0
1434.477173 168.0
1436.558472 260.0
1437.033813 116.0
1440.484009 176.0
1440.891968 208.0
1441.541748 240.0
1441.874268 156.0
1442.766235 200.0
1443.605591 220.0
1445.042725 148.0
1446.457886 124.0
1449.137207 228.0
1449.358643 200.0
1449.47229 184.0
1449.532959 120.0
1449.699585 164.0
1454.86499 88.0
1455.17627 216.0
1456.079956 192.0
1456.930664 112.0
1457.850098 124.0
1457.948853 152.0
1458.564575 200.0
1458.929443 152.0
1459.195557 152.0
1460.754517 148.0
1460.906738 156.0
1461.028442 272.0
1461.758911 108.0
1461.93396 172.0
1462.86438 148.0
1463.311646 196.0
1463.547729 156.0
1463.844727 192.0
1465.474731 196.0
1467.052368 76.0
1467.59375 192.0
1468.066528 56.0
1468.852173 112.0
1468.951294 36.0
1469.737061 136.0
1470.381592 152.0
1470.805542 160.0
1472.408936 168.0
1472.798584 208.0
1473.233887 108.0
1474.12793 184.0
1477.140381 140.0
1477.415771 204.0
1478.112061 196.0
1478.257446 180.0
1479.420776 196.0
1480.684204 160.0
1481.005981 100.0
1481.626465 112.0
1484.002319 120.0
1484.278442 120.0
1484.504395 204.0
1484.600464 116.0
1484.807617 160.0
1485.252441 208.0
1485.520874 76.0
1485.674316 152.0
1485.988892 176.0
1486.587402 112.0
1488.452759 132.0
1489.33606 152.0
1490.211792 56.0
1491.149292 68.0
1491.379883 188.0
1492.240845 152.0
1493.109863 236.0
1493.41748 76.0
1493.578979 176.0
1493.748291 56.0
1493.87793 224.0
1494.102173 108.0
1494.663818 176.0
1494.856201 216.0
1495.071655 128.0
1495.194824 148.0
1495.510376 76.0
1498.722778 148.0
1499.245728 228.0
1500.139893 176.0
1500.378906 164.0
1500.471436 128.0
1500.571655 176.0
1501.373535 100.0
1502.414917 336.0
1502.623169 136.0
1502.71582 72.0
1503.620239 140.0
1503.85791 168.0
1505.224365 100.0
