>compound Trilostane
>formula C20H27NO3 
>ionization [M+H]+
>parentmass 330.20637017609056
#inchi InChI=1S/C20H27NO3/c1-18-7-6-14-12(13(18)3-4-15(18)22)5-8-20-17(24-20)16(23)11(10-21)9-19(14,20)2/h12-15,17,22-23H,3-9H2,1-2H3/t12-,13-,14-,15-,17+,18-,19+,20+/m0/s1
#inchikey KVJXBPDAXMEYOA
#Ion_Source LC-ESI
#Instrument qTof
#Compound_Source Isolated
#PI Sirenas
#Data_Collector Ed Esquenazi 
#Scan -1
#Precursor_MZ 330.206
#ExactMass 0.0
#Charge 1
#CAS_Number N/A
#Pubmed_ID N/A
#Smiles N/A
#INCHI_AUX N/A
#Library_Class 3
#SpectrumID CCMSLIB00000006243
#IonMode Positive
#UpdateWorkflowName UPDATE-SINGLE-ANNOTATED-BRONZE
#LibraryQualityString Bronze
#TaskID d19310cd93df49b68e9fcbec27720eb5
##Scan# 2
#SpectrumFile Trilostane.mgf
#LibraryName fda_library.mgf
#MQScore -1
#Organism fda_library
#TIC_Query 0
#RT_Query -1
#MZErrorPPM -1
#SharedPeaks 0
#MassDiff 0
#LibMZ -1
#SpecMZ 330.206
#SpecCharge 0
#internalFilename spec-00000.mgf

>collision 10
105.068703 179.815201
106.655449 8.853395
107.047577 48.095779
107.086235 191.181
108.079895 62.356571
109.062645 45.5471
109.098953 65.702164
110.058731 79.578857
111.077072 18.8151
112.009399 7.67803
112.039101 225.632797
112.071999 11.34543
112.129845 6.25926
114.099251 13.00556
116.062965 28.543209
117.065765 49.640148
120.751694 12.23077
120.922546 36.014999
122.056038 26.852369
123.080978 97.989014
124.036613 48.575272
125.059364 14.19167
129.06781 49.027
131.083359 122.840797
131.238846 12.70127
131.310593 9.04344
131.51796 16.48571
131.822922 5.761905
131.8573 7.796875
131.90799 3.111111
133.060013 53.429909
133.099136 34.478409
133.10791 25.387819
133.138809 5.669872
133.158386 10.93889
134.353745 3.266667
134.830002 9.142858
135.114334 64.877571
136.071014 36.80661
137.057877 16.780861
137.095001 16.42942
138.053909 38.14994
139.077774 41.30125
139.737473 17.844299
142.992905 27.73958
143.08078 11.40789
143.212723 11.49359
144.285187 5.702587
144.360825 21.312759
145.099411 132.974197
146.260117 9.738475
147.114944 367.447998
147.318054 5.001437
149.12999 33.301231
152.071014 31.00198
154.947235 113.049599
155.081726 4.413462
157.097168 104.524902
157.159271 1.666667
157.400803 8.375
157.451065 5.722222
159.117722 166.850296
161.130798 38.358021
162.090744 26.335859
163.091751 43.002522
163.115494 6.355392
164.070816 31.948099
169.103653 40.80518
169.404129 10.55136
171.083572 13.37281
173.093613 20.410721
173.131622 18.89167
175.153687 70.375
183.114777 62.174519
186.088623 59.584801
187.142914 27.716049
188.615082 5.225
189.163528 99.978928
189.180847 7.361111
189.778671 2.367424
197.128815 34.284088
198.087311 50.934219
198.156281 7.852564
199.145828 13.1974
201.104294 19.394699
201.163651 499.389709
201.327576 48.976978
201.632782 6.333333
201.914459 12.68003
201.979294 4.59375
202.078644 4.297619
203.104492 19.32184
203.178238 20.7803
204.19989 24.008551
209.131241 24.00198
210.950211 50.455811
211.011612 2.4
211.148163 35.667259
212.106445 32.70517
213.089615 71.055496
213.129044 22.47368
213.16185 32.521069
216.134079 26.25
217.153351 18.89043
218.361694 6.666667
219.174454 73.730339
220.124512 22.23876
225.122879 63.581619
225.1689 2.016667
228.134933 50.349209
230.124054 7.260803
231.132919 13.83
233.110657 17.17008
233.128784 35.25
234.125504 16.36574
238.168976 12.03728
239.174408 24.288099
242.178238 19.721491
243.481323 10.27222
245.453781 6.05
248.850128 6.668011
248.921799 71.730949
249.07518 10.76179
249.163605 25.06349
252.877975 14.82557
253.15181 23.38526
261.138855 26.52355
267.172058 40.777401
268.200592 12.00126
268.99881 9.667592
274.211182 34.540451
276.174927 31.94507
283.798035 14.33333
284.204315 39.4697
285.179413 57.483662
285.447266 14.09167
285.713531 21.8151
286.182617 35.699219
294.182281 142.167603
294.257019 1.694445
295.160004 36.920139
302.210205 113.726601
302.831604 12.05357
303.195068 181.111496
303.304016 7.442204
312.189514 44.736111
312.989197 3.703704
313.190094 55.317829
313.752899 10.01389
319.143036 7.429762
328.35376 7.25
328.420074 10.05235
329.991638 4.66886
330.208527 472.6008
330.830505 23.334591
331.535431 13.36474
1145.743286 23.35
