>compound MLS002153452-01!5-Hydroxy-L-tryptophan145224-90-4
>formula C11H12N2O3
>ionization [M+H]+
>parentmass 221.093
#inchi InChI=1S/C11H12N2O3/c12-9(11(15)16)3-6-5-13-10-2-1-7(14)4-8(6)10/h1-2,4-5,9,13-14H,3,12H2,(H,15,16)/t9-/m0/s1
#inchikey LDCYZAJDBXYCGN
#Ion_Source LC-ESI
#Instrument qTof
#Compound_Source NIH Pharmacologically Active Library
#PI Dorrestein
#Data_Collector VP/LMS
#Scan -1
#Precursor_MZ 221.093
#ExactMass 220.085
#Charge 1
#CAS_Number N/A
#Pubmed_ID N/A
#Smiles N[C@@H](Cc1c[nH]c2ccc(O)cc12)C(=O)O
#INCHI_AUX N/A
#Library_Class 3
#SpectrumID CCMSLIB00000085728
#IonMode Positive
#UpdateWorkflowName UPDATE-SINGLE-ANNOTATED-BRONZE
#LibraryQualityString Bronze
#TaskID d252d724072548979f1f6f1ced849daf
##Scan# 299
#SpectrumFile p4-E08_GE8_01_18380.mzXML
#LibraryName Pharm_Active_Library.mgf
#MQScore -1
#Organism Pharm_Active_Library
#TIC_Query 0
#RT_Query -1
#MZErrorPPM -1
#SharedPeaks 0
#MassDiff 0
#LibMZ -1
#SpecMZ 221.093
#SpecCharge 0
#internalFilename spec-00000.mgf

>collision 10
50.647293 140.0
51.654961 160.0
51.746555 124.0
52.026127 184.0
52.500961 180.0
54.889801 220.0
55.016693 72.0
55.438244 180.0
58.391579 68.0
58.450909 188.0
60.136753 192.0
60.286564 76.0
61.085072 112.0
61.147312 236.0
61.635433 156.0
63.666073 188.0
68.846191 216.0
71.367531 196.0
71.88298 128.0
73.539413 116.0
74.040367 180.0
74.417625 204.0
75.081863 180.0
77.654266 144.0
77.817467 176.0
80.421638 284.0
80.796906 172.0
82.19841 28.0
83.21386 172.0
85.294716 136.0
88.701149 192.0
89.409256 156.0
90.54203 204.0
90.693604 180.0
91.059799 104.0
91.752457 100.0
91.97184 148.0
92.044388 152.0
92.160904 244.0
93.437851 120.0
93.647682 96.0
94.230263 172.0
99.058968 40.0
102.927193 124.0
102.947388 220.0
103.055367 344.0
103.404297 184.0
103.766899 204.0
104.046883 144.0
104.063126 260.0
105.054268 128.0
105.070587 176.0
106.029617 208.0
106.065247 500.0
106.54055 36.0
107.047859 676.0
108.254601 184.0
108.816536 124.0
109.042969 188.0
109.534019 224.0
111.730057 260.0
111.871063 148.0
115.052391 632.0
115.566193 152.0
116.050323 444.0
116.337753 104.0
117.053871 576.0
117.407158 76.0
117.648827 72.0
118.683022 152.0
119.069298 172.0
120.078331 232.0
120.124969 204.0
121.689774 124.0
123.76683 100.0
129.05899 160.0
130.033096 168.0
130.064224 332.0
130.364685 152.0
130.874222 240.0
131.04863 836.0
131.074951 292.0
131.777451 120.0
132.047195 180.0
132.0755 388.0
133.05069 716.0
134.060196 2920.0
134.226624 80.0
134.30043 148.0
134.905426 100.0
134.921616 160.0
135.057861 320.0
135.13208 88.0
135.919876 168.0
136.949783 128.0
140.05574 128.0
141.030243 184.0
141.060974 224.0
142.780014 200.0
143.075104 204.0
144.053558 120.0
144.904526 148.0
145.05072 120.0
145.268936 188.0
146.059326 708.0
147.059219 144.0
147.951202 124.0
148.072449 332.0
149.079102 196.0
154.273102 160.0
155.300751 164.0
157.056839 136.0
157.938568 124.0
158.059891 1008.0
158.288956 128.0
158.386627 252.0
159.066269 840.0
159.116394 72.0
160.039062 132.0
160.074585 576.0
160.364105 132.0
160.906479 200.0
161.078766 224.0
161.796402 156.0
162.052383 1524.0
163.064743 136.0
166.629562 84.0
166.902008 120.0
175.086548 184.0
176.062653 92.0
182.347794 68.0
185.370438 104.0
186.052689 132.0
187.050262 152.0
197.913803 188.0
293.063263 148.0
904.70813 192.0
965.620789 112.0
1085.679565 112.0
1162.652466 264.0
1193.05603 188.0
1213.214966 160.0
1297.037231 200.0
1314.261719 164.0
1383.903687 64.0
1391.199097 80.0
1398.736938 156.0
1415.019165 196.0
1451.74646 176.0
1463.837036 76.0
1476.054321 184.0
1495.69519 104.0
1496.003052 160.0
1504.290283 132.0
