>compound MLS001139229-01!(2S)-3-(1H-indol-3-yl)-2-[2-(7-methyl-2-oxo-4-propylchromen-5-yl)oxypropanoylamino]propanoic acid
>formula C27H28N2O6
>ionization [M+H]+
>parentmass 477.2034
#inchi InChI=1S/C27H28N2O6/c1-4-7-17-13-24(30)35-23-11-15(2)10-22(25(17)23)34-16(3)26(31)29-21(27(32)33)12-18-14-28-20-9-6-5-8-19(18)20/h5-6,8-11,13-14,16,21,28H,4,7,12H2,1-3H3,(H,29,31)(H,32,33)/t16?,21-/m0/s1
#inchikey UXDBKJTVCMQOBS
#Ion_Source LC-ESI
#Instrument qTof
#Compound_Source NIH Natural Product Library
#PI Dorrestein
#Data_Collector VVP/LMS
#Scan -1
#Precursor_MZ 477.203
#ExactMass 476.195
#Charge 1
#CAS_Number N/A
#Pubmed_ID N/A
#Smiles CCCc1cc(=O)oc2cc(C)cc(OC(C)C(=O)N[C@@H](Cc3c[nH]c4ccccc34)C(=O)O)c12
#INCHI_AUX N/A
#Library_Class 1
#SpectrumID CCMSLIB00000079824
#IonMode Positive
#UpdateWorkflowName UPDATE-SINGLE-ANNOTATED-GOLD
#LibraryQualityString Gold
#TaskID b1d8e8f6646f4e71acdff9ca3d919d08
##Scan# 2201
#SpectrumFile p1-E11_GE11_01_17931.mzXML
#LibraryName NIH_Natural_Products_Library.mgf
#MQScore -1
#Organism NIH_Natural_Products_Library
#TIC_Query 0
#RT_Query -1
#MZErrorPPM -1
#SharedPeaks 0
#MassDiff 0
#LibMZ -1
#SpecMZ 477.203
#SpecCharge 0
#internalFilename spec-00000.mgf

>collision 10
95.06041 188.0
95.161346 116.0
95.180763 180.0
95.429466 160.0
95.458633 172.0
95.540321 200.0
95.559776 180.0
95.764175 160.0
95.810921 100.0
95.898605 112.0
96.136536 156.0
96.189232 372.0
96.369377 196.0
96.466614 144.0
96.54287 144.0
96.613281 200.0
96.640671 112.0
96.675896 72.0
96.767891 224.0
96.822723 164.0
96.93634 160.0
97.026505 132.0
97.136322 168.0
97.275642 176.0
97.377739 104.0
97.554581 56.0
97.6175 156.0
97.632217 184.0
97.926476 212.0
98.06636 132.0
98.176559 156.0
98.328674 152.0
98.443169 124.0
98.49057 128.0
98.549835 116.0
98.676331 104.0
98.915695 200.0
99.145447 168.0
99.274307 156.0
99.298103 156.0
99.313972 180.0
99.937744 164.0
100.342056 168.0
100.835098 164.0
100.971046 44.0
100.99305 100.0
101.049057 144.0
101.069069 184.0
101.159126 164.0
101.182884 208.0
101.327347 208.0
101.379448 96.0
101.431557 220.0
101.525787 32.0
101.579941 112.0
101.634109 116.0
101.684273 64.0
101.774612 44.0
101.807465 188.0
101.846909 72.0
101.951378 180.0
101.973488 212.0
102.261093 96.0
102.379875 196.0
102.480415 184.0
102.516861 80.0
102.567245 148.0
103.054329 356.0
103.079865 228.0
103.395332 108.0
103.461823 212.0
103.579582 140.0
103.597809 96.0
103.871468 156.0
103.889725 144.0
103.91993 212.0
104.048019 144.0
104.354797 124.0
104.409706 172.0
104.452415 92.0
104.596886 64.0
104.619278 160.0
104.637604 160.0
104.662033 148.0
104.839249 168.0
104.871857 144.0
104.957481 172.0
105.000305 132.0
105.034637 216.0
105.068932 1008.0
105.341164 160.0
105.441284 156.0
105.488297 152.0
105.537361 176.0
105.647804 204.0
105.698952 156.0
105.795143 128.0
105.940544 196.0
106.010201 184.0
106.077835 172.0
106.106537 64.0
106.213173 76.0
106.287025 40.0
106.330124 208.0
106.387596 156.0
107.050186 492.0
107.06971 236.0
107.395874 204.0
107.418564 104.0
107.605263 176.0
107.724075 132.0
107.808784 108.0
107.848434 108.0
108.100365 80.0
108.146095 200.0
108.464867 112.0
108.829987 148.0
109.027092 724.0
109.067116 228.0
109.130135 288.0
109.17701 156.0
109.57457 64.0
109.645416 88.0
109.874786 120.0
110.288246 124.0
110.315422 136.0
110.51619 184.0
110.537117 116.0
110.558044 156.0
110.589439 196.0
110.815598 176.0
111.1175 192.0
111.281204 88.0
111.308502 116.0
111.57534 240.0
111.608978 208.0
111.699409 160.0
111.939339 88.0
111.985664 200.0
112.0299 160.0
112.181625 216.0
112.223793 184.0
112.314476 148.0
112.358772 152.0
112.454712 188.0
112.525497 160.0
112.633202 248.0
112.756607 176.0
112.765137 72.0
112.773643 136.0
112.787445 180.0
112.94603 192.0
113.009857 140.0
113.086563 172.0
113.407616 84.0
113.5327 80.0
113.619659 160.0
113.790833 196.0
114.059235 124.0
114.078369 128.0
114.1464 108.0
114.21344 180.0
114.53511 204.0
114.653046 136.0
114.668236 156.0
114.86412 256.0
115.054832 1272.0
115.101021 48.0
115.229172 152.0
115.259079 132.0
115.453606 184.0
115.481407 216.0
115.712517 132.0
115.740494 176.0
116.05777 372.0
116.287003 168.0
116.317047 144.0
116.379303 156.0
116.561882 92.0
116.594116 172.0
116.615608 208.0
116.650002 68.0
116.899483 172.0
117.057098 1092.0
117.548103 140.0
117.65818 160.0
117.904419 168.0
118.034119 128.0
118.065384 2528.0
118.447487 132.0
118.48214 140.0
118.653351 228.0
118.685875 196.0
118.757439 112.0
118.779129 200.0
118.824684 124.0
118.94899 156.0
119.069565 152.0
119.084824 176.0
119.103584 96.0
119.593285 184.0
119.650536 204.0
119.67231 148.0
120.039459 136.0
120.391884 96.0
120.437172 60.0
120.453453 180.0
120.894524 216.0
121.065079 964.0
121.102669 132.0
121.205627 132.0
121.396339 188.0
121.470909 180.0
121.554276 172.0
121.626701 60.0
121.776001 156.0
121.870461 168.0
121.942978 156.0
122.081482 196.0
122.162865 100.0
122.231064 64.0
122.314697 136.0
122.330109 188.0
122.360016 204.0
122.473228 128.0
122.922974 168.0
123.041351 336.0
123.077484 188.0
123.218842 176.0
123.256401 216.0
123.358063 172.0
123.424393 192.0
123.902458 156.0
123.982224 180.0
124.049362 300.0
124.144058 144.0
124.230553 192.0
124.257179 148.0
124.299332 152.0
124.687958 172.0
124.961464 184.0
125.061234 168.0
125.342201 192.0
125.522758 192.0
125.600815 280.0
125.783783 120.0
125.803871 176.0
126.145653 172.0
126.346916 52.0
126.492378 148.0
126.546104 124.0
126.644638 48.0
126.696159 208.0
126.803711 80.0
127.050323 136.0
127.25235 148.0
127.283783 192.0
127.69278 188.0
127.71302 144.0
127.767006 144.0
127.863762 184.0
127.879517 124.0
127.953804 256.0
128.062027 736.0
128.083832 252.0
128.19931 136.0
128.257919 144.0
128.456345 172.0
128.492432 204.0
128.591721 200.0
128.654922 120.0
128.697815 180.0
128.849136 208.0
129.009598 172.0
129.069916 972.0
129.176941 160.0
129.249329 68.0
129.29007 124.0
129.369278 140.0
129.496078 84.0
129.666 120.0
129.795227 132.0
129.879135 52.0
129.974411 76.0
129.997101 232.0
130.033417 148.0
130.065247 21932.0
130.107452 148.0
130.18779 44.0
130.210495 140.0
130.249115 204.0
130.319534 52.0
130.342865 256.0
130.446854 192.0
130.496231 92.0
130.588531 48.0
130.656021 68.0
130.717453 72.0
130.765244 140.0
130.867676 180.0
130.892731 220.0
131.0271 64.0
131.067917 1628.0
131.156998 40.0
131.18663 52.0
131.334839 48.0
131.379379 84.0
131.577042 344.0
131.62085 136.0
131.791412 108.0
131.87825 144.0
132.024582 196.0
132.047409 352.0
132.079605 2356.0
132.118362 196.0
132.269379 164.0
132.31517 160.0
132.342636 76.0
132.388443 60.0
132.576294 80.0
132.596756 176.0
132.66568 56.0
132.693192 56.0
132.959274 184.0
132.977631 196.0
133.030426 148.0
133.06311 520.0
133.099091 320.0
133.12915 212.0
133.335907 132.0
133.374985 48.0
133.621033 224.0
133.676254 92.0
133.72229 56.0
133.813156 192.0
134.033173 176.0
134.064972 276.0
134.100006 124.0
134.192215 140.0
134.212967 100.0
134.247543 60.0
134.284454 200.0
134.367493 168.0
134.706848 68.0
134.792328 144.0
134.896332 152.0
134.927353 124.0
135.044571 908.0
135.081909 348.0
135.113708 104.0
135.164612 164.0
135.416946 172.0
135.449371 32.0
135.822739 152.0
135.915359 96.0
136.02211 140.0
136.314743 52.0
136.425797 236.0
136.561172 136.0
136.731003 208.0
137.026733 96.0
137.05809 964.0
137.194534 132.0
137.301788 120.0
137.728897 152.0
138.058441 200.0
138.084152 72.0
138.226868 188.0
138.353241 104.0
138.620255 96.0
138.751511 156.0
138.934433 96.0
139.065842 100.0
139.230179 140.0
139.326492 128.0
139.349976 196.0
139.596786 152.0
139.965607 184.0
140.04718 116.0
140.056473 160.0
140.321991 60.0
140.338501 64.0
140.564941 188.0
140.666428 224.0
140.817535 136.0
141.069672 712.0
141.134201 152.0
141.306854 84.0
141.524597 100.0
141.671875 412.0
142.022263 108.0
142.064713 2080.0
142.181213 156.0
142.451889 60.0
142.535049 92.0
142.727585 204.0
142.894073 60.0
142.996399 164.0
143.076355 904.0
143.115417 164.0
143.170181 132.0
143.265457 140.0
143.30835 132.0
143.45372 48.0
143.553848 208.0
143.716049 200.0
143.765564 192.0
143.780716 192.0
143.899841 152.0
143.921448 148.0
143.985794 136.0
144.031876 136.0
144.054077 324.0
144.080582 2960.0
144.150635 92.0
144.200821 168.0
144.248627 88.0
144.590652 120.0
144.703156 176.0
144.822891 220.0
144.887558 128.0
144.928085 180.0
144.964233 44.0
145.063095 308.0
145.094116 624.0
145.307114 172.0
145.436691 48.0
145.66481 40.0
145.688828 124.0
145.833008 164.0
145.966995 76.0
146.001297 220.0
146.05899 5552.0
146.097916 428.0
146.169678 48.0
146.211075 112.0
146.241882 168.0
146.292435 84.0
146.32373 60.0
146.342987 68.0
146.389694 80.0
146.415222 136.0
146.463394 120.0
146.510818 116.0
146.685074 60.0
146.716415 64.0
146.738113 116.0
146.873154 68.0
147.063614 776.0
147.081314 868.0
147.115036 172.0
147.175766 152.0
147.351349 200.0
147.846817 140.0
147.992065 160.0
148.021118 120.0
148.05188 260.0
148.114319 140.0
148.202774 208.0
148.286591 212.0
148.423355 60.0
148.656219 68.0
148.760574 48.0
149.055054 504.0
149.094635 888.0
149.156525 120.0
149.397263 212.0
149.514053 80.0
149.5457 76.0
149.584641 168.0
149.669846 140.0
149.862259 136.0
149.954865 100.0
150.055557 180.0
150.098694 172.0
150.132843 120.0
150.308472 208.0
150.904449 164.0
150.950897 140.0
151.03833 160.0
151.078079 356.0
151.114777 148.0
151.222458 132.0
151.293442 60.0
151.701355 108.0
151.778549 172.0
151.795715 216.0
152.065567 108.0
152.084503 296.0
152.134293 176.0
152.687134 92.0
152.770767 164.0
152.906097 64.0
153.067749 168.0
153.228668 240.0
153.467743 88.0
153.771164 164.0
153.860016 140.0
154.062561 1596.0
154.298386 136.0
154.361588 192.0
154.413513 172.0
154.597321 68.0
154.675781 252.0
154.938278 176.0
155.072479 1596.0
155.19603 92.0
155.265457 76.0
155.42981 192.0
155.466415 72.0
155.558243 44.0
155.841354 56.0
156.010361 164.0
156.045166 140.0
156.07962 1452.0
156.169495 40.0
156.246613 56.0
156.288101 160.0
156.366043 64.0
156.769485 136.0
156.819336 136.0
156.859207 104.0
157.086502 2252.0
157.154831 112.0
157.178436 196.0
157.220856 84.0
157.245819 56.0
157.375626 216.0
157.480515 44.0
157.55545 124.0
157.677887 108.0
157.755371 180.0
157.810364 136.0
157.999939 176.0
158.030472 172.0
158.091721 5832.0
158.135574 64.0
158.410065 160.0
158.443558 40.0
158.558823 64.0
158.639038 112.0
158.799515 84.0
158.894836 208.0
158.912399 220.0
159.005234 132.0
159.06488 636.0
159.090912 6644.0
159.151978 140.0
159.208588 144.0
159.246262 216.0
159.301514 56.0
159.38884 132.0
159.419601 44.0
159.505066 52.0
159.640823 196.0
159.71376 64.0
159.733887 92.0
159.915039 48.0
159.990555 124.0
160.033356 108.0
160.085571 584.0
160.136597 108.0
160.312057 80.0
160.517136 32.0
161.009232 132.0
161.058212 1816.0
161.096283 1408.0
161.125534 268.0
161.196167 64.0
161.256958 136.0
161.292206 56.0
161.309891 92.0
161.856369 104.0
162.064835 204.0
162.095627 268.0
162.135895 196.0
162.178101 56.0
162.208511 88.0
162.276962 136.0
162.49762 128.0
162.827606 152.0
162.946991 160.0
162.974945 184.0
163.010513 112.0
163.037003 420.0
163.077469 280.0
163.110703 220.0
163.371552 220.0
163.957184 256.0
164.04129 120.0
164.071884 52.0
164.107574 164.0
164.194275 192.0
164.57193 156.0
164.694519 176.0
164.82991 112.0
165.003708 204.0
165.065079 144.0
165.535919 184.0
165.648605 112.0
165.679352 20.0
165.744583 216.0
165.845901 224.0
166.040756 40.0
166.09462 164.0
166.361496 64.0
166.677399 132.0
166.813599 216.0
166.867584 96.0
167.071625 840.0
167.263763 144.0
167.616592 136.0
168.049759 148.0
168.079514 4892.0
168.189117 100.0
168.25882 156.0
168.393082 112.0
168.488663 128.0
168.651459 176.0
168.840195 56.0
168.886749 160.0
169.010925 120.0
169.052536 148.0
169.081436 656.0
169.544357 64.0
169.702484 124.0
169.915146 36.0
169.972595 140.0
170.021011 40.0
170.058807 5764.0
170.095779 5788.0
170.159103 80.0
170.216232 72.0
170.257782 56.0
170.379852 48.0
170.447952 96.0
170.557236 76.0
170.660538 72.0
170.780167 164.0
170.902435 56.0
170.990906 168.0
171.064438 972.0
171.08342 512.0
171.099915 1444.0
171.17952 80.0
171.25647 136.0
171.43103 100.0
171.517029 64.0
171.916061 196.0
172.074203 376.0
172.101685 256.0
172.164062 56.0
172.255478 68.0
172.287659 176.0
172.613541 48.0
173.094177 480.0
173.383163 140.0
173.435577 108.0
173.480148 56.0
173.642715 68.0
173.682053 92.0
174.066681 344.0
174.100845 320.0
174.262207 152.0
174.464569 200.0
174.530304 168.0
174.664429 112.0
174.908844 72.0
174.967056 188.0
175.074646 3356.0
175.107986 316.0
175.159286 140.0
175.544067 200.0
175.636383 140.0
176.079742 428.0
176.10965 224.0
176.920639 44.0
176.960342 124.0
177.054626 2260.0
177.084259 292.0
177.132538 164.0
177.225204 132.0
177.363007 152.0
177.45314 180.0
177.490265 76.0
177.731628 28.0
177.795319 84.0
177.912109 156.0
177.93866 176.0
178.059311 436.0
178.094925 224.0
178.246765 184.0
178.392929 268.0
178.791901 196.0
179.069504 372.0
179.12738 212.0
179.215302 148.0
179.463165 48.0
179.575165 80.0
180.076935 108.0
180.279968 28.0
181.064377 172.0
181.093277 148.0
181.136124 48.0
181.532791 88.0
181.666885 196.0
181.699081 172.0
181.766159 152.0
181.825195 84.0
182.010422 68.0
182.061447 204.0
182.671555 136.0
182.722672 116.0
183.016037 180.0
183.072586 188.0
183.112976 164.0
183.315033 80.0
183.703278 164.0
183.722153 160.0
183.811188 160.0
183.911041 120.0
184.051239 324.0
184.073074 780.0
184.164856 48.0
184.2621 188.0
184.483704 144.0
184.95166 40.0
185.068481 580.0
185.1064 2896.0
185.200775 108.0
185.271194 116.0
185.357895 36.0
185.460876 44.0
185.574738 52.0
185.848679 220.0
186.030518 152.0
186.068741 256.0
186.112976 944.0
186.17984 96.0
186.245026 176.0
186.595581 48.0
186.875717 164.0
186.946457 144.0
187.06221 1424.0
187.121994 3156.0
187.187881 168.0
187.224136 132.0
187.281326 164.0
187.338531 88.0
187.406631 52.0
187.51535 192.0
187.590866 160.0
187.616486 44.0
187.635574 116.0
187.681931 48.0
187.752426 136.0
187.95195 116.0
188.00827 276.0
188.039062 168.0
188.070435 9392.0
188.12529 256.0
188.28772 72.0
188.312302 64.0
188.585526 200.0
188.752289 48.0
188.909775 96.0
189.006668 152.0
189.088364 3572.0
189.125961 784.0
189.195511 36.0
189.23111 52.0
189.403625 176.0
189.436493 160.0
189.474426 128.0
189.705048 68.0
190.061157 1552.0
190.090469 644.0
190.127441 84.0
190.314102 92.0
190.3647 76.0
190.445923 44.0
190.481628 36.0
190.701447 172.0
190.726181 124.0
191.06398 456.0
191.106232 416.0
191.133194 172.0
191.163467 172.0
191.232269 44.0
191.323105 92.0
191.510345 56.0
191.585068 64.0
191.824463 136.0
191.849274 104.0
191.9375 128.0
192.066498 232.0
192.120392 180.0
192.301651 148.0
192.588791 180.0
192.834686 144.0
193.066925 148.0
193.177551 276.0
193.315887 144.0
193.65918 76.0
194.282867 128.0
194.391083 80.0
194.493759 160.0
194.646454 156.0
194.718658 112.0
194.890884 32.0
195.029831 92.0
195.091629 608.0
196.074951 604.0
196.251938 216.0
196.46669 164.0
196.583878 188.0
196.790421 44.0
196.874191 244.0
197.075241 328.0
197.10408 500.0
197.187088 40.0
197.276535 84.0
197.427521 64.0
197.544998 40.0
197.662491 144.0
198.057236 176.0
198.088089 504.0
198.155289 128.0
199.084976 924.0
199.19693 128.0
199.330917 108.0
199.367462 52.0
199.704819 44.0
200.07579 560.0
200.233948 152.0
200.921722 164.0
201.053848 708.0
201.087692 272.0
201.480698 64.0
201.528732 140.0
202.069153 224.0
202.101303 268.0
202.535828 176.0
202.819168 144.0
202.890045 196.0
202.980774 64.0
203.069153 2920.0
203.104797 476.0
203.429047 48.0
203.505692 72.0
204.070877 328.0
204.109894 248.0
204.378281 36.0
204.654358 176.0
205.097595 320.0
205.138687 120.0
205.346832 112.0
205.449509 96.0
205.552231 84.0
205.632126 92.0
205.743454 172.0
205.76915 76.0
206.924179 136.0
207.227768 148.0
207.465637 80.0
207.749542 140.0
209.076996 136.0
209.72789 52.0
210.01622 156.0
210.969131 184.0
211.061646 64.0
211.301697 168.0
211.556366 112.0
211.625854 116.0
212.10675 164.0
213.101288 1760.0
213.132462 184.0
213.241623 108.0
213.482925 176.0
213.756363 164.0
213.826202 112.0
213.968842 100.0
214.050369 128.0
214.108154 1816.0
214.187241 40.0
214.746872 52.0
214.787704 152.0
214.907303 52.0
215.072098 192.0
215.110687 688.0
215.171448 88.0
215.537994 112.0
215.684113 64.0
215.760986 204.0
215.956039 184.0
216.072891 948.0
216.187164 32.0
216.29837 76.0
216.321793 76.0
216.403763 184.0
216.471115 104.0
216.538467 76.0
216.58345 100.0
216.725952 40.0
216.784409 184.0
216.814514 160.0
216.84024 60.0
216.903229 212.0
216.989731 144.0
217.026627 320.0
217.085052 21924.0
217.118591 2184.0
217.186203 112.0
217.253677 56.0
217.303543 68.0
217.347168 152.0
217.394501 108.0
217.450272 76.0
217.47374 40.0
217.514099 72.0
217.570618 176.0
217.60202 80.0
217.658691 48.0
217.714493 52.0
217.756729 84.0
217.813019 132.0
217.961243 80.0
217.984741 44.0
218.088715 3028.0
218.121063 324.0
218.252228 48.0
218.431625 28.0
218.616989 100.0
218.731766 176.0
218.899582 52.0
218.920197 44.0
219.061478 224.0
219.101395 13760.0
219.174988 48.0
219.267822 48.0
219.303192 80.0
219.329712 36.0
219.361877 44.0
219.551453 76.0
219.603928 32.0
219.639313 68.0
219.659973 64.0
219.690094 112.0
219.742569 144.0
219.78978 96.0
219.841278 88.0
219.913727 96.0
220.017029 80.0
220.05246 44.0
220.103958 2472.0
220.276901 212.0
220.362579 124.0
220.430527 60.0
220.451218 104.0
220.740906 60.0
220.930206 96.0
220.977539 80.0
221.104843 184.0
221.15509 36.0
221.341599 28.0
221.448212 112.0
221.652618 80.0
221.708923 108.0
221.765228 88.0
221.8423 56.0
221.89566 100.0
221.984619 44.0
222.106201 100.0
222.171463 80.0
222.296082 128.0
222.66716 92.0
222.687958 60.0
222.800125 84.0
223.098007 60.0
223.881104 104.0
224.065216 184.0
224.678909 116.0
225.055405 160.0
225.10318 104.0
225.530396 204.0
225.886215 40.0
226.329147 88.0
226.913391 148.0
227.104141 192.0
227.741623 48.0
228.045074 208.0
228.1082 144.0
228.135254 124.0
228.577377 116.0
228.688721 60.0
228.776016 120.0
229.21875 112.0
230.102493 184.0
230.543488 116.0
230.98793 76.0
231.115494 380.0
231.157364 48.0
232.093338 128.0
232.115906 436.0
232.612122 72.0
233.174026 52.0
233.578415 92.0
235.342926 100.0
235.81337 68.0
235.883667 60.0
236.100754 144.0
236.223099 40.0
236.633179 48.0
240.716476 96.0
240.846191 52.0
241.095398 308.0
241.235535 108.0
242.07399 120.0
242.101944 140.0
242.960434 116.0
242.991455 80.0
243.059723 92.0
243.101898 364.0
243.139084 104.0
243.658951 128.0
243.755264 68.0
244.900116 280.0
245.116135 6316.0
245.308304 80.0
245.481339 72.0
245.507843 60.0
245.585815 48.0
245.648209 76.0
245.760513 84.0
245.785477 72.0
245.847885 40.0
246.081573 148.0
246.090485 128.0
246.119278 1280.0
246.969482 116.0
247.025787 60.0
247.118332 144.0
247.260452 40.0
247.438873 76.0
247.529663 48.0
247.773972 80.0
247.795898 140.0
247.852295 68.0
247.952576 128.0
248.052872 60.0
248.081085 68.0
249.075821 140.0
249.12294 84.0
250.897827 44.0
255.105316 156.0
258.159515 124.0
259.10376 224.0
260.123535 144.0
260.717712 40.0
261.061676 64.0
261.126007 48.0
262.027313 108.0
262.604309 88.0
266.24527 88.0
271.076447 148.0
271.119202 140.0
271.948975 200.0
272.132782 180.0
273.108246 652.0
274.113556 164.0
274.185394 100.0
274.287567 48.0
274.620605 48.0
274.937317 60.0
275.089142 64.0
275.610962 120.0
276.242401 68.0
280.52948 116.0
280.586151 148.0
282.111786 232.0
282.720551 72.0
283.128967 156.0
285.615967 48.0
287.091125 112.0
287.489197 64.0
289.541229 100.0
290.139679 860.0
291.117889 152.0
291.131622 112.0
291.142395 152.0
292.120789 180.0
296.978027 84.0
300.1185 160.0
300.207397 100.0
301.643677 56.0
307.136963 204.0
309.842621 92.0
316.081665 192.0
316.144592 188.0
317.165375 160.0
324.971771 76.0
325.122498 60.0
326.617096 120.0
329.30954 116.0
331.49826 44.0
332.956604 52.0
340.799469 40.0
341.10083 104.0
343.464813 124.0
344.14328 132.0
345.903564 144.0
347.044586 128.0
351.429749 68.0
353.41748 100.0
354.207428 92.0
359.580353 52.0
360.153534 148.0
361.150696 152.0
362.200562 204.0
362.306641 88.0
363.144348 76.0
363.394714 148.0
370.593201 136.0
371.026276 92.0
371.160461 184.0
372.119659 176.0
372.146545 144.0
373.84552 72.0
376.015228 88.0
376.119415 52.0
376.717957 96.0
378.717773 20.0
381.671021 100.0
381.702118 52.0
382.141632 108.0
383.146088 116.0
388.607849 44.0
389.153076 144.0
390.18869 184.0
400.981354 56.0
403.204315 88.0
413.177795 244.0
414.157806 172.0
414.186249 192.0
416.159393 144.0
424.840179 100.0
426.675873 56.0
428.552612 52.0
430.528442 140.0
430.656494 36.0
431.195068 700.0
431.325836 60.0
431.731018 108.0
432.19693 752.0
432.29776 36.0
433.022247 56.0
433.200348 108.0
434.153656 48.0
436.296143 84.0
440.801697 56.0
441.161133 136.0
442.198456 44.0
442.725952 84.0
442.843231 68.0
459.156403 216.0
460.959167 216.0
472.538513 44.0
475.300781 264.0
475.966919 52.0
477.178375 124.0
477.2034 196.0
478.184967 268.0
478.336334 48.0
479.150665 84.0
479.198608 132.0
481.279053 140.0
518.622925 104.0
551.840637 44.0
565.127747 32.0
616.971252 84.0
646.604919 76.0
653.119507 248.0
679.411133 20.0
693.333069 80.0
693.715698 96.0
694.806458 88.0
714.964905 60.0
724.913757 104.0
754.571167 92.0
756.256042 160.0
759.006104 112.0
775.883057 140.0
778.596375 204.0
793.394043 72.0
822.088501 32.0
841.518616 96.0
844.287354 132.0
862.8703 168.0
866.914917 176.0
867.07312 64.0
888.661499 72.0
890.662109 168.0
906.0047 188.0
914.826477 92.0
920.874268 60.0
921.339417 132.0
921.484375 176.0
923.999451 188.0
928.506104 184.0
932.622498 212.0
935.128357 140.0
942.549988 112.0
942.641602 120.0
948.412781 184.0
950.09906 148.0
956.040649 104.0
958.097168 44.0
959.890747 36.0
960.451965 228.0
962.36499 132.0
969.453735 196.0
975.001709 272.0
975.871948 144.0
988.602966 156.0
990.468689 144.0
1004.372559 52.0
1008.255432 160.0
1012.525757 144.0
1012.829773 56.0
1019.777466 124.0
1019.860046 256.0
1022.238586 168.0
1022.588623 128.0
1024.63269 156.0
1034.947388 192.0
1037.029419 188.0
1046.478882 160.0
1054.51001 152.0
1055.945312 48.0
1063.376587 184.0
1069.121582 116.0
1069.531616 172.0
1072.553955 164.0
1073.492798 128.0
1076.762207 212.0
1079.173462 220.0
1085.157715 100.0
1086.849976 180.0
1086.961426 208.0
1088.070679 152.0
1088.98999 184.0
1090.021362 104.0
1090.073975 56.0
1091.184814 72.0
1101.907715 188.0
1104.525513 200.0
1105.193726 84.0
1106.569458 148.0
1112.503784 212.0
1113.745605 176.0
1121.290527 148.0
1128.613403 104.0
1131.972412 156.0
1135.168823 212.0
1135.926758 96.0
1136.282227 220.0
1136.644531 100.0
1143.216431 120.0
1143.970337 224.0
1146.206299 136.0
1148.903198 232.0
1154.272583 264.0
1154.387573 60.0
1156.769043 148.0
1160.081543 68.0
1161.763428 100.0
1172.901855 224.0
1173.604004 68.0
1175.7323 44.0
1176.360229 196.0
1176.626465 72.0
1176.749268 52.0
1176.981445 120.0
1188.775635 80.0
1189.558105 176.0
1193.205933 172.0
1194.670654 116.0
1196.412842 132.0
1199.180786 244.0
1200.932129 152.0
1211.307129 80.0
1215.341919 44.0
1221.810181 176.0
1223.215942 120.0
1224.803467 48.0
1227.284424 164.0
1228.581665 164.0
1228.756104 48.0
1229.125854 156.0
1229.73999 192.0
1231.799805 120.0
1232.05127 56.0
1232.19104 224.0
1234.050049 216.0
1235.81958 112.0
1237.184326 64.0
1239.040161 208.0
1246.224487 92.0
1248.305054 104.0
1251.584106 52.0
1252.837769 184.0
1253.802979 236.0
1258.472778 44.0
1258.719849 184.0
1261.46814 160.0
1263.073364 84.0
1263.547241 136.0
1264.771484 188.0
1271.873779 52.0
1272.505615 196.0
1274.551147 120.0
1275.425293 152.0
1281.345825 108.0
1281.445679 160.0
1282.293579 168.0
1283.876221 168.0
1287.83728 156.0
1288.930298 76.0
1289.173218 180.0
1290.216797 112.0
1298.164429 308.0
1299.785522 260.0
1299.864502 88.0
1301.221069 140.0
1302.499268 164.0
1302.851196 140.0
1304.194946 188.0
1305.762329 164.0
1312.336914 224.0
1314.39978 156.0
1315.419678 248.0
1316.594238 104.0
1316.709717 156.0
1316.839722 188.0
1316.926392 140.0
1318.566528 200.0
1318.833862 160.0
1319.679688 192.0
1320.453369 164.0
1322.008789 132.0
1327.231567 232.0
1328.453003 172.0
1334.310547 156.0
1334.623169 68.0
1337.947998 120.0
1338.880005 132.0
1339.287842 80.0
1351.523193 172.0
1351.742676 196.0
1353.133301 108.0
1354.744507 124.0
1359.45166 192.0
1361.573242 148.0
1362.5354 192.0
1362.623657 68.0
1365.056519 208.0
1365.350708 176.0
1367.749146 188.0
1367.999512 216.0
1369.435303 88.0
1371.984863 156.0
1372.191284 156.0
1374.057129 160.0
1374.167847 196.0
1377.438232 164.0
1378.864136 140.0
1380.409302 56.0
1383.123291 200.0
1384.775513 64.0
1384.945923 152.0
1386.309082 148.0
1386.672241 192.0
1387.183594 196.0
1388.110352 144.0
1389.282227 204.0
1389.571533 160.0
1390.565918 52.0
1393.46936 88.0
1394.777222 60.0
1395.171265 260.0
1395.855225 136.0
1396.033691 64.0
1398.838623 228.0
1401.497437 168.0
1402.324585 120.0
1405.590942 236.0
1406.381958 128.0
1406.904541 120.0
1408.21875 116.0
1412.292114 132.0
1413.848267 164.0
1414.79895 120.0
1418.694336 92.0
1419.669067 76.0
1421.702026 180.0
1422.888062 244.0
1423.060669 96.0
1423.99939 212.0
1426.734497 128.0
1427.772095 224.0
1429.178833 196.0
1429.43457 84.0
1431.369141 148.0
1432.325562 148.0
1432.732422 212.0
1434.122681 208.0
1436.252686 196.0
1436.471436 180.0
1436.901489 140.0
1438.09375 196.0
1439.09021 112.0
1441.227661 192.0
1441.446777 172.0
1442.043823 192.0
1442.126953 40.0
1444.228882 156.0
1444.750854 36.0
1449.967773 148.0
1450.665161 40.0
1451.612915 104.0
1453.440918 208.0
1453.903809 248.0
1456.378906 236.0
1458.703979 200.0
1459.12207 120.0
1459.19812 188.0
1461.730957 44.0
1462.240845 180.0
1463.443604 180.0
1465.119019 176.0
1466.483032 152.0
1469.265015 144.0
1471.487183 176.0
1474.0 160.0
1474.374512 156.0
1474.749023 76.0
1475.207642 172.0
1475.811523 176.0
1476.943359 116.0
1479.728882 80.0
1480.670654 248.0
1481.873291 152.0
1484.310669 220.0
1484.36438 52.0
1484.594482 124.0
1486.0979 84.0
1487.863037 156.0
1488.469604 92.0
1489.107056 204.0
1492.688232 168.0
1493.064941 208.0
1493.634155 100.0
1494.126465 136.0
1494.388062 176.0
1494.711182 132.0
1496.989746 148.0
1499.200562 116.0
1499.570557 148.0
1500.811646 216.0
1501.285889 164.0
1501.991577 348.0
1502.184448 160.0
1502.423584 192.0
