>compound MLS001140787-01!(2S)-2-[[(2R)-2-[[1-[(2-methylpropan-2-yl)oxycarbonyl]-4-phenylpiperidine-4-carbonyl]amino]propanoyl]amino]-3-phenylpropanoic acid
>formula C29H37N3O6
>ionization [M+H]+
>parentmass 524.2755123560905
#inchi InChI=1S/C29H37N3O6/c1-20(24(33)31-23(25(34)35)19-21-11-7-5-8-12-21)30-26(36)29(22-13-9-6-10-14-22)15-17-32(18-16-29)27(37)38-28(2,3)4/h5-14,20,23H,15-19H2,1-4H3,(H,30,36)(H,31,33)(H,34,35)/t20-,23+/m1/s1
#inchikey AFDGMGIAWGQKNZ
#Ion_Source LC-ESI
#Instrument qTof
#Compound_Source NIH Natural Product Library
#PI Dorrestein
#Data_Collector VVP/LMS
#Scan -1
#Precursor_MZ 524.276
#ExactMass 523.268
#Charge 1
#CAS_Number N/A
#Pubmed_ID N/A
#Smiles C[C@@H](NC(=O)C1(CCN(CC1)C(=O)OC(C)(C)C)c2ccccc2)C(=O)N[C@@H](Cc3ccccc3)C(=O)O
#INCHI_AUX N/A
#Library_Class 1
#SpectrumID CCMSLIB00000080226
#IonMode Positive
#UpdateWorkflowName UPDATE-SINGLE-ANNOTATED-GOLD
#LibraryQualityString Gold
#TaskID b1d8e8f6646f4e71acdff9ca3d919d08
##Scan# 2264
#SpectrumFile p2-G05_GG5_01_18053.mzXML
#LibraryName NIH_Natural_Products_Library.mgf
#MQScore -1
#Organism NIH_Natural_Products_Library
#TIC_Query 0
#RT_Query -1
#MZErrorPPM -1
#SharedPeaks 0
#MassDiff 0
#LibMZ -1
#SpecMZ 524.276
#SpecCharge 0
#internalFilename spec-00000.mgf

>collision 10
95.05307 136.0
95.447403 184.0
95.478516 120.0
95.751289 228.0
96.353737 196.0
96.404541 140.0
96.43972 136.0
97.115234 44.0
97.382172 204.0
97.470581 180.0
97.582619 204.0
97.913208 164.0
98.05703 192.0
98.127998 224.0
98.166191 172.0
98.244354 132.0
98.313416 152.0
98.339073 172.0
98.621239 140.0
98.657104 144.0
98.67292 160.0
98.732239 136.0
99.257027 164.0
99.620232 172.0
99.767296 184.0
99.885689 216.0
99.952263 132.0
100.035583 756.0
100.274887 104.0
100.390518 232.0
101.253868 72.0
101.311958 168.0
101.384094 220.0
101.51841 208.0
101.558517 68.0
101.707001 184.0
102.157127 168.0
102.197365 140.0
102.370476 160.0
102.68689 116.0
102.840233 44.0
103.053795 336.0
103.770798 52.0
103.96756 176.0
104.048752 112.0
104.298622 184.0
104.465363 152.0
104.778885 152.0
104.917465 208.0
105.03167 176.0
105.069305 572.0
105.135719 100.0
105.237785 88.0
105.350113 188.0
105.636314 144.0
105.767281 168.0
105.927002 164.0
106.078644 140.0
106.885796 144.0
107.050484 188.0
107.293617 144.0
107.567993 176.0
107.631783 192.0
107.772453 240.0
107.892326 88.0
108.052773 196.0
108.080544 164.0
108.095032 216.0
108.130211 168.0
108.389076 172.0
108.527954 204.0
108.706078 124.0
108.903572 140.0
109.155045 172.0
109.200798 124.0
109.267365 232.0
109.417213 188.0
109.900757 172.0
109.921623 124.0
110.364464 192.0
110.948608 36.0
111.790886 196.0
112.00985 128.0
112.113091 160.0
112.182648 76.0
112.511749 168.0
112.625038 192.0
112.722969 140.0
113.385361 208.0
113.567436 192.0
113.782028 124.0
113.883957 124.0
114.294266 208.0
114.383652 156.0
114.507149 204.0
115.052368 124.0
115.305328 180.0
115.392731 144.0
115.59166 116.0
115.852867 160.0
115.983589 92.0
116.361153 116.0
116.498604 204.0
116.735031 140.0
117.069656 2536.0
117.467323 160.0
117.788963 128.0
117.842979 80.0
118.085091 168.0
118.277664 112.0
118.745682 192.0
118.862587 180.0
118.917084 68.0
118.936615 148.0
119.049515 36.0
119.29287 52.0
119.488594 108.0
120.08036 7312.0
120.135643 28.0
120.212006 88.0
120.302917 160.0
120.347343 148.0
120.384468 148.0
120.62043 64.0
120.885078 148.0
121.085106 400.0
121.233269 144.0
121.320946 84.0
121.369179 88.0
121.656593 100.0
121.674164 180.0
121.757599 236.0
121.972923 124.0
122.016891 56.0
122.069664 232.0
122.197243 144.0
122.217041 152.0
122.415909 164.0
122.470215 228.0
122.598 216.0
123.008247 120.0
123.045776 196.0
123.142944 64.0
123.160614 144.0
123.200378 112.0
123.397072 180.0
123.604988 188.0
123.742226 216.0
123.80201 208.0
123.857376 240.0
124.238663 88.0
124.267509 220.0
124.327423 108.0
124.647202 216.0
125.245667 132.0
125.323647 228.0
125.542099 208.0
126.008621 84.0
126.471527 200.0
126.868027 148.0
126.924072 200.0
127.395401 120.0
127.494057 212.0
127.521233 76.0
127.95089 100.0
128.055878 192.0
128.072708 368.0
128.313614 128.0
128.699432 184.0
128.990875 152.0
129.608734 44.0
129.858109 60.0
130.293945 120.0
130.423981 144.0
130.45076 116.0
130.555344 220.0
130.603119 136.0
131.05101 300.0
131.084763 1964.0
131.924454 116.0
132.086548 228.0
132.268845 184.0
132.50473 196.0
132.86467 108.0
133.103134 840.0
133.135529 232.0
133.413544 132.0
133.519318 40.0
133.629745 92.0
134.002411 200.0
134.101822 108.0
134.392395 168.0
135.013779 156.0
135.272934 160.0
136.186539 368.0
137.044968 200.0
137.567383 216.0
138.124756 176.0
138.146942 144.0
138.388 120.0
138.704269 208.0
138.917664 228.0
139.020905 80.0
139.185226 120.0
139.540024 196.0
139.664658 92.0
139.690536 120.0
139.803467 60.0
139.855255 144.0
140.104858 180.0
140.744034 184.0
141.084259 112.0
141.195389 48.0
141.967453 124.0
142.36377 188.0
142.839111 160.0
143.086945 836.0
143.384369 192.0
143.968872 244.0
144.081741 132.0
144.121765 124.0
144.2556 212.0
144.320145 140.0
144.382324 204.0
144.454086 120.0
144.635941 216.0
144.657486 104.0
144.686218 84.0
145.061188 304.0
145.175018 112.0
145.568588 152.0
145.796799 140.0
145.969894 184.0
146.044449 228.0
146.090759 312.0
146.111801 140.0
146.569275 124.0
146.740402 180.0
147.092621 152.0
147.174713 168.0
147.599991 120.0
148.07431 100.0
148.193008 100.0
148.901352 100.0
149.058853 476.0
149.246429 116.0
149.881729 68.0
150.162079 144.0
150.574554 128.0
151.001236 152.0
151.166168 224.0
151.288559 216.0
151.830063 244.0
152.109772 144.0
152.15152 172.0
152.461014 28.0
152.768356 40.0
153.068634 332.0
153.199173 252.0
153.292801 160.0
153.576324 168.0
153.823074 132.0
153.956406 136.0
154.050262 208.0
154.55957 156.0
154.643723 224.0
154.708084 188.0
154.776703 28.0
155.007767 232.0
155.054855 44.0
155.236938 200.0
155.469025 112.0
155.973221 188.0
156.080124 212.0
156.318924 260.0
157.091309 124.0
157.138702 204.0
157.208572 160.0
157.68808 56.0
157.748077 104.0
158.095276 172.0
158.541519 100.0
158.749588 220.0
158.985397 216.0
159.002975 156.0
159.078156 164.0
159.110901 188.0
159.266602 212.0
159.484055 192.0
159.540512 68.0
159.560623 148.0
159.696411 36.0
159.765747 164.0
159.829742 56.0
159.922867 108.0
159.959808 212.0
160.033371 196.0
160.112305 46688.0
160.183853 80.0
160.207031 132.0
160.238098 44.0
160.300278 80.0
160.381607 156.0
160.452087 48.0
160.514084 208.0
160.55777 48.0
160.620834 48.0
160.669235 64.0
160.701569 120.0
160.73941 64.0
160.779785 40.0
160.921143 100.0
160.946991 72.0
161.007004 68.0
161.115219 7000.0
161.21669 76.0
161.244492 176.0
161.293976 152.0
161.35318 48.0
161.408813 112.0
161.456863 124.0
161.563095 216.0
161.770615 100.0
161.823776 64.0
161.858124 64.0
161.950394 104.0
161.990921 72.0
162.028931 84.0
162.115082 416.0
162.137894 168.0
162.203781 48.0
162.284912 136.0
162.302658 140.0
162.385757 108.0
162.411713 116.0
162.433823 196.0
162.482529 96.0
162.508118 120.0
162.622314 44.0
162.899094 28.0
162.988007 104.0
163.082047 48.0
163.451874 76.0
163.606064 220.0
163.886215 100.0
163.932083 68.0
164.324768 44.0
164.93512 44.0
164.956528 224.0
165.277817 224.0
166.025833 144.0
166.085831 4168.0
166.148941 44.0
166.169479 40.0
166.310623 88.0
166.408173 68.0
166.516022 144.0
166.752396 92.0
166.968353 124.0
167.024948 160.0
167.088913 616.0
167.125275 564.0
167.593903 60.0
167.965149 104.0
168.088989 160.0
168.13028 108.0
168.832977 48.0
168.880569 208.0
169.102051 40.0
169.270325 52.0
170.097351 504.0
170.310303 92.0
170.414215 76.0
171.098953 176.0
171.147705 76.0
171.833206 140.0
171.99762 72.0
172.68399 64.0
172.82869 124.0
174.05542 164.0
176.619751 156.0
177.053818 136.0
177.544098 68.0
177.788177 132.0
178.925842 160.0
178.947144 76.0
179.632065 176.0
179.981689 188.0
180.043106 112.0
180.574951 140.0
182.016739 132.0
182.172516 176.0
182.694046 176.0
182.718262 148.0
182.895874 132.0
185.050171 96.0
185.470062 48.0
185.502594 260.0
185.882309 52.0
185.931152 168.0
186.020721 140.0
186.091507 196.0
186.860489 192.0
186.95845 68.0
187.120773 360.0
187.538559 172.0
187.598526 140.0
187.816681 176.0
187.988571 108.0
188.013123 192.0
188.052032 220.0
188.10643 18860.0
188.144684 164.0
188.181732 68.0
188.207199 84.0
188.250641 60.0
188.368073 72.0
188.43364 44.0
188.541733 144.0
188.641342 52.0
188.679626 56.0
188.709061 120.0
188.739777 48.0
188.783524 164.0
188.840958 92.0
188.881989 92.0
188.958588 100.0
189.04068 92.0
189.108841 2256.0
189.243225 60.0
189.314423 52.0
189.95578 64.0
190.112915 148.0
190.200012 88.0
190.430649 100.0
190.521301 88.0
190.562515 96.0
190.592743 84.0
190.699921 116.0
190.974869 80.0
191.114334 356.0
191.74855 104.0
191.894638 80.0
192.09726 160.0
192.13353 188.0
192.805573 124.0
193.093109 112.0
194.71167 136.0
195.033966 164.0
195.234161 136.0
195.715561 44.0
196.437408 144.0
196.794632 76.0
197.05159 56.0
198.212784 68.0
198.6698 76.0
199.051514 152.0
200.249542 168.0
201.092575 216.0
201.804459 176.0
201.872314 116.0
202.177856 64.0
203.158234 180.0
203.33699 80.0
203.976074 108.0
203.998825 216.0
204.100983 6012.0
204.650848 44.0
205.049149 28.0
205.103134 1692.0
206.062164 84.0
206.107025 200.0
206.502396 108.0
206.631119 96.0
206.665466 72.0
207.000366 120.0
209.395493 136.0
210.03537 240.0
210.252045 208.0
210.297943 228.0
211.862335 104.0
211.882614 168.0
212.900742 132.0
215.058136 104.0
215.893723 116.0
216.069229 184.0
216.100052 904.0
217.105331 156.0
217.129608 112.0
218.054428 180.0
219.918823 56.0
219.962372 80.0
220.686905 192.0
222.921936 112.0
223.043793 104.0
223.115128 104.0
223.314362 96.0
224.109207 136.0
225.036819 64.0
225.469955 196.0
225.550659 92.0
225.960358 64.0
226.026184 176.0
228.709229 40.0
229.130814 136.0
230.476486 44.0
231.149734 1036.0
231.920059 152.0
232.059509 172.0
232.10498 140.0
232.145248 260.0
232.815079 152.0
235.284531 88.0
236.991165 120.0
237.120026 1216.0
237.760864 72.0
237.880569 112.0
238.124756 144.0
239.886261 100.0
240.0065 132.0
241.077652 168.0
242.485809 92.0
243.106064 192.0
247.451309 48.0
248.037979 284.0
249.031815 132.0
250.062561 184.0
251.005051 100.0
253.061508 396.0
254.069901 108.0
254.723862 132.0
255.063873 160.0
255.677734 96.0
256.034302 168.0
257.127838 164.0
258.044617 176.0
258.111755 120.0
259.100769 180.0
259.143311 3168.0
259.565521 52.0
260.059601 140.0
260.082062 96.0
260.147095 500.0
260.428833 28.0
260.904419 32.0
261.148376 152.0
263.6604 20.0
264.355682 64.0
272.166199 104.0
275.142273 144.0
277.155762 488.0
278.155151 168.0
278.965698 152.0
281.093964 172.0
283.846985 108.0
285.953369 152.0
286.141876 112.0
287.038147 172.0
287.082001 120.0
294.047089 140.0
294.07782 132.0
296.053925 116.0
299.033966 44.0
299.102783 96.0
303.074829 172.0
303.132904 356.0
304.830231 76.0
311.047089 104.0
312.079956 176.0
318.380615 124.0
325.318359 44.0
325.645111 160.0
326.097809 104.0
326.130157 128.0
327.313782 76.0
327.447021 108.0
330.063385 112.0
331.087494 204.0
339.011261 52.0
347.637054 56.0
361.934753 120.0
363.155029 128.0
370.466248 96.0
373.083496 48.0
374.095276 112.0
376.088165 104.0
378.214081 104.0
379.143616 160.0
379.818237 84.0
380.229523 156.0
386.116364 160.0
401.105103 88.0
401.168884 136.0
414.148468 80.0
418.170441 132.0
419.194824 188.0
420.181793 164.0
421.181274 116.0
424.102814 84.0
424.224548 476.0
425.222015 296.0
426.234344 124.0
427.433472 152.0
432.195221 52.0
432.327637 28.0
434.121429 112.0
452.136444 80.0
455.456268 72.0
461.131683 132.0
462.663055 92.0
463.14267 144.0
464.124084 120.0
465.089355 160.0
467.952423 64.0
468.142944 160.0
470.668823 40.0
472.570648 96.0
479.091705 148.0
479.265961 104.0
480.120361 76.0
482.128601 172.0
482.605072 88.0
485.148773 144.0
486.16626 524.0
486.513123 48.0
487.171844 300.0
487.883789 48.0
497.812134 60.0
500.867615 112.0
502.133453 140.0
507.091736 96.0
522.221924 116.0
523.250366 116.0
524.270691 124.0
525.287415 132.0
526.076904 108.0
526.127136 52.0
527.136536 184.0
539.163208 144.0
541.717285 52.0
551.755493 112.0
556.1073 140.0
620.699829 104.0
620.903137 256.0
639.615173 92.0
655.080261 60.0
695.53241 64.0
698.038452 60.0
781.607178 216.0
785.685547 72.0
795.428955 196.0
886.567688 160.0
909.476318 80.0
914.428955 40.0
917.585388 188.0
929.950012 216.0
944.047729 132.0
949.093445 136.0
968.834595 184.0
975.455994 48.0
978.330017 112.0
987.102417 104.0
1015.448547 88.0
1025.181885 168.0
1036.473267 76.0
1038.473389 128.0
1046.132812 120.0
1053.781494 196.0
1069.774414 124.0
1078.53479 204.0
1078.802856 144.0
1100.08728 176.0
1101.209717 192.0
1104.388916 188.0
1104.640259 152.0
1110.707886 40.0
1114.272827 200.0
1116.346558 160.0
1120.846558 196.0
1121.679565 180.0
1125.021606 156.0
1125.963135 68.0
1129.625854 152.0
1130.027344 72.0
1130.716553 196.0
1142.109131 84.0
1144.343384 204.0
1145.185181 72.0
1147.563965 168.0
1151.734375 208.0
1156.887085 196.0
1159.610107 168.0
1161.936035 240.0
1171.290039 132.0
1175.407837 76.0
1176.588623 160.0
1176.704712 208.0
1181.994995 180.0
1185.329712 72.0
1189.376099 64.0
1192.576904 88.0
1198.881104 220.0
1203.509644 144.0
1204.593872 48.0
1214.034546 224.0
1219.345459 176.0
1219.679077 36.0
1226.639893 160.0
1228.732056 184.0
1236.082397 168.0
1237.125244 152.0
1238.932007 208.0
1239.667725 136.0
1240.24939 132.0
1251.433228 160.0
1252.151489 204.0
1252.257202 228.0
1254.702271 160.0
1261.097778 76.0
1267.388916 144.0
1268.196899 168.0
1270.607788 184.0
1275.045776 188.0
1275.514893 100.0
1278.430908 224.0
1281.635254 136.0
1282.526123 164.0
1285.328857 196.0
1286.977661 104.0
1287.263306 76.0
1291.200928 184.0
1303.078613 120.0
1304.458374 144.0
1315.335571 176.0
1317.595825 132.0
1319.785767 196.0
1325.489502 76.0
1327.729614 236.0
1328.882935 188.0
1330.980591 180.0
1335.733521 124.0
1336.890381 188.0
1342.922729 152.0
1344.520508 100.0
1348.193848 172.0
1348.822388 168.0
1359.522949 84.0
1363.304932 152.0
1368.888306 172.0
1369.602661 168.0
1376.830566 220.0
1376.956177 192.0
1378.019165 196.0
1378.09375 172.0
1379.320557 120.0
1382.930054 136.0
1383.048462 212.0
1386.070068 208.0
1387.300415 168.0
1388.397705 72.0
1388.953979 172.0
1391.425171 200.0
1392.204834 144.0
1398.963501 168.0
1400.035645 152.0
1402.635864 192.0
1405.499634 216.0
1408.426147 176.0
1420.860107 148.0
1422.406006 168.0
1422.848877 36.0
1425.425171 164.0
1429.899658 152.0
1431.819458 296.0
1432.354248 144.0
1435.361328 200.0
1438.062012 144.0
1438.167725 188.0
1439.209473 44.0
1439.730591 168.0
1443.750977 40.0
1445.664917 180.0
1448.45105 72.0
1449.15564 164.0
1451.270264 44.0
1452.650513 124.0
1454.934692 152.0
1459.257568 148.0
1459.919189 164.0
1465.232056 184.0
1465.628296 196.0
1469.104858 188.0
1473.364624 176.0
1477.431763 156.0
1477.730103 208.0
1478.089722 192.0
1478.395752 148.0
1483.634888 208.0
1488.000122 212.0
1488.837036 156.0
1488.91394 100.0
1491.464722 172.0
1493.19458 300.0
1494.948608 132.0
1495.926147 140.0
1496.488159 260.0
1501.203857 160.0
1503.533569 104.0
