>compound MLS001049107-01!
>formula C19H14O9
>ionization [M+H]+
>parentmass 387.072
#inchi InChI=1S/C19H14O9/c1-6-4-9(25-3)8(5-20)15-10(6)17(22)27-14-7(2)13(21)11-12(16(14)26-15)19(24)28-18(11)23/h4-5,19,21,24H,1-3H3
#inchikey SKCUFZLDTAYNBZ
#Ion_Source LC-ESI
#Instrument qTof
#Compound_Source NIH Natural Product Library
#PI Dorrestein
#Data_Collector VVP/LMS
#Scan -1
#Precursor_MZ 387.072
#ExactMass 386.064
#Charge 1
#CAS_Number N/A
#Pubmed_ID N/A
#Smiles COc1cc(C)c2C(=O)Oc3c(C)c(O)c4C(=O)OC(O)c4c3Oc2c1C=O
#INCHI_AUX N/A
#Library_Class 1
#SpectrumID CCMSLIB00000079428
#IonMode Positive
#UpdateWorkflowName UPDATE-SINGLE-ANNOTATED-GOLD
#LibraryQualityString Gold
#TaskID b1d8e8f6646f4e71acdff9ca3d919d08
##Scan# 1934
#SpectrumFile p1-B06_GB6_01_17890.mzXML
#LibraryName NIH_Natural_Products_Library.mgf
#MQScore -1
#Organism NIH_Natural_Products_Library
#TIC_Query 0
#RT_Query -1
#MZErrorPPM -1
#SharedPeaks 0
#MassDiff 0
#LibMZ -1
#SpecMZ 387.072
#SpecCharge 0
#internalFilename spec-00000.mgf

>collision 10
95.273361 128.0
95.685654 180.0
96.600914 144.0
96.65374 220.0
96.892601 160.0
97.728981 128.0
97.851006 152.0
99.043755 124.0
99.071487 124.0
99.111115 136.0
100.736534 96.0
101.388847 184.0
101.408844 128.0
101.513092 144.0
101.673576 128.0
102.029099 208.0
102.046036 216.0
102.147743 152.0
102.326851 208.0
103.053474 176.0
103.281357 52.0
103.358231 196.0
103.781555 160.0
104.061546 172.0
104.474106 152.0
104.716331 72.0
105.058769 204.0
105.224075 148.0
106.079437 232.0
106.171455 148.0
106.280174 160.0
107.051003 132.0
108.091377 160.0
108.213493 128.0
108.524277 196.0
109.003754 84.0
109.155495 68.0
109.471794 48.0
109.573853 216.0
110.337692 88.0
110.802299 64.0
111.158737 100.0
111.423294 100.0
111.538872 148.0
112.206192 204.0
112.277885 176.0
113.20137 168.0
113.911873 116.0
114.528725 132.0
114.564934 116.0
115.054497 704.0
116.060997 172.0
116.804054 112.0
117.00634 232.0
117.030022 164.0
117.071793 660.0
117.452408 68.0
117.670364 180.0
117.994431 148.0
118.050644 148.0
118.072273 140.0
119.017075 208.0
119.084442 192.0
119.110458 180.0
119.3843 132.0
120.058037 180.0
120.802002 88.0
121.02961 152.0
121.064117 420.0
122.027916 124.0
125.100853 196.0
126.050964 164.0
126.453499 60.0
126.590057 124.0
126.800644 156.0
127.083183 192.0
127.305405 112.0
128.057632 204.0
129.071701 216.0
129.585846 164.0
130.043915 252.0
130.077957 172.0
130.330048 212.0
131.050018 188.0
131.080276 208.0
131.261002 44.0
131.464035 164.0
131.719742 80.0
131.982559 184.0
132.019135 120.0
132.059189 352.0
133.061798 244.0
133.35112 44.0
134.029984 52.0
134.25589 100.0
135.073502 112.0
136.053726 136.0
136.318497 144.0
136.413788 172.0
136.450989 160.0
136.585861 140.0
137.401184 232.0
138.713089 164.0
139.07666 160.0
139.918213 144.0
139.941757 180.0
140.538055 148.0
141.140366 208.0
141.391113 140.0
142.023697 112.0
142.072937 212.0
142.353577 40.0
142.600647 172.0
142.90741 144.0
143.053131 240.0
143.084641 112.0
144.059189 316.0
144.424622 204.0
144.80278 208.0
145.062347 736.0
145.099915 48.0
145.236588 52.0
145.690277 208.0
146.067688 112.0
146.679291 112.0
146.7034 48.0
147.04509 164.0
147.080704 680.0
147.147293 96.0
147.251129 80.0
148.058884 184.0
148.086288 308.0
148.793594 52.0
149.021881 144.0
149.226044 124.0
149.359802 136.0
149.805252 148.0
150.031891 152.0
150.063583 196.0
150.161118 104.0
150.656616 116.0
151.028168 168.0
151.067307 80.0
151.336517 160.0
152.061874 188.0
153.062637 132.0
153.775085 240.0
154.07634 152.0
154.355621 152.0
154.380356 84.0
154.692093 204.0
154.75647 132.0
154.996719 196.0
155.04628 108.0
155.063629 80.0
155.090897 100.0
155.45546 160.0
155.753387 84.0
155.907425 96.0
156.858185 184.0
157.064362 308.0
157.444519 176.0
157.829041 172.0
158.071075 332.0
158.287247 112.0
158.811005 152.0
158.90657 216.0
159.040329 720.0
159.086884 200.0
159.830948 96.0
160.052734 1308.0
160.08519 196.0
160.392548 68.0
160.957672 120.0
161.061279 188.0
161.566772 152.0
162.656433 220.0
162.742752 152.0
163.041367 180.0
163.716644 120.0
164.045319 168.0
164.711319 196.0
165.266068 128.0
166.080704 136.0
167.257523 208.0
168.053818 180.0
168.345123 136.0
168.513397 232.0
169.020172 172.0
169.064423 176.0
169.22464 184.0
169.716919 100.0
169.984085 180.0
170.077515 176.0
170.2229 156.0
170.451492 212.0
171.040894 212.0
171.068451 252.0
171.635834 44.0
171.659302 104.0
171.977585 180.0
172.049103 288.0
172.089828 180.0
172.730087 156.0
172.819046 176.0
173.059479 900.0
173.099106 116.0
173.764862 60.0
174.064072 128.0
174.145493 36.0
174.629089 100.0
175.032394 196.0
175.076202 2488.0
175.57457 196.0
175.772415 156.0
176.080475 832.0
176.152588 120.0
176.406281 100.0
177.022812 144.0
177.060715 200.0
177.083038 176.0
177.401611 76.0
177.94014 188.0
178.014496 56.0
178.211044 112.0
179.512665 176.0
179.808777 192.0
180.022339 172.0
180.158554 124.0
180.396393 128.0
180.607635 84.0
181.066284 152.0
182.033401 284.0
182.070999 212.0
182.111282 56.0
182.304718 176.0
182.554718 180.0
182.678436 148.0
183.041611 316.0
183.064514 140.0
183.084854 172.0
183.126556 224.0
183.227615 156.0
183.37851 152.0
184.663666 80.0
184.779968 112.0
185.060776 496.0
185.080109 216.0
185.275406 196.0
186.066254 196.0
186.368774 60.0
186.860886 144.0
187.037766 128.0
187.07341 152.0
187.879791 152.0
187.980743 152.0
188.046982 768.0
188.720978 156.0
189.045105 284.0
190.054855 160.0
190.139923 124.0
190.414459 92.0
191.033401 1296.0
191.996918 132.0
192.038361 144.0
192.935699 144.0
192.955063 160.0
192.979935 208.0
193.049576 916.0
193.123734 72.0
194.967422 76.0
195.06192 224.0
195.214828 80.0
196.058319 140.0
196.192108 180.0
196.710968 172.0
197.060699 344.0
198.068359 608.0
198.515564 184.0
199.04071 460.0
199.07399 132.0
199.40831 168.0
199.889191 96.0
199.984879 180.0
200.048035 124.0
200.497452 168.0
200.770905 128.0
200.985291 140.0
201.053802 1252.0
201.096375 308.0
201.499161 40.0
202.064026 416.0
202.101364 64.0
202.523178 116.0
203.033325 196.0
203.070694 3284.0
203.257416 196.0
204.021423 52.0
204.074249 712.0
204.177811 152.0
204.226166 188.0
204.633087 56.0
204.849533 136.0
205.063232 176.0
205.081879 128.0
205.103134 132.0
205.519501 252.0
206.167694 152.0
207.000137 92.0
207.045959 144.0
207.447083 148.0
207.702286 132.0
207.83139 148.0
208.799454 52.0
209.041046 228.0
209.334717 40.0
210.064667 164.0
210.199493 200.0
211.911209 160.0
212.087967 196.0
212.792892 120.0
213.054382 456.0
213.089127 200.0
213.138519 48.0
213.385574 124.0
213.964523 88.0
214.060471 600.0
214.453903 104.0
215.03508 196.0
215.066406 276.0
215.635941 232.0
216.043411 228.0
216.070404 172.0
216.294037 32.0
217.048065 232.0
217.085068 132.0
217.442978 168.0
218.02446 96.0
218.047974 92.0
219.08075 148.0
219.169144 76.0
219.228073 52.0
220.703979 100.0
221.461563 204.0
222.072128 192.0
222.440048 124.0
222.924164 180.0
222.995483 80.0
223.066818 44.0
223.170883 140.0
224.045792 148.0
224.16803 152.0
224.299164 120.0
224.874817 120.0
225.054016 248.0
226.062714 296.0
227.022858 188.0
227.043839 156.0
227.067276 196.0
227.37384 136.0
228.067627 88.0
229.049088 3688.0
229.089096 524.0
229.126862 140.0
229.229309 64.0
229.380005 60.0
229.518677 100.0
230.059784 532.0
230.33049 60.0
230.807983 104.0
230.943283 200.0
230.977356 100.0
231.065125 7264.0
231.201233 204.0
231.225449 60.0
231.298096 100.0
231.379822 56.0
231.47287 104.0
231.528198 84.0
231.576645 40.0
231.688721 128.0
231.943268 76.0
232.068756 1044.0
232.44368 68.0
232.683456 84.0
232.753998 68.0
232.774536 160.0
232.874756 108.0
233.074966 596.0
233.582962 68.0
233.646851 60.0
234.575653 72.0
234.917175 60.0
234.993454 92.0
235.33223 100.0
235.597931 196.0
235.80571 96.0
235.983017 88.0
236.845993 232.0
236.879684 160.0
237.042053 108.0
238.057419 168.0
238.321579 48.0
239.03801 184.0
239.062637 28.0
239.265778 56.0
239.715454 148.0
240.039124 208.0
240.091553 200.0
240.489532 208.0
241.050903 296.0
241.088455 292.0
241.332886 56.0
242.056015 728.0
242.227264 152.0
243.060852 332.0
244.076767 136.0
245.037704 252.0
245.043549 172.0
245.082306 116.0
245.680908 164.0
246.049164 152.0
246.448929 84.0
247.061707 160.0
248.358536 68.0
249.105606 176.0
251.135834 100.0
253.049255 220.0
254.052719 172.0
254.728424 36.0
254.88092 96.0
255.027115 156.0
255.065933 136.0
255.236923 60.0
255.408661 184.0
255.434113 140.0
256.033752 176.0
256.073883 480.0
256.940887 128.0
257.04541 1788.0
257.080658 920.0
257.512268 92.0
257.732697 44.0
257.94043 44.0
258.050171 616.0
258.092682 268.0
258.141846 104.0
258.346527 60.0
258.490509 80.0
258.516113 120.0
258.743378 108.0
258.810608 196.0
258.922668 124.0
259.059326 8188.0
259.159302 60.0
259.172058 52.0
259.662994 84.0
259.707916 40.0
259.76886 56.0
259.874725 52.0
259.914673 80.0
260.003082 84.0
260.062256 856.0
260.18924 104.0
260.21814 88.0
260.33374 100.0
260.722443 72.0
260.889587 96.0
260.96994 60.0
261.072021 312.0
261.143585 92.0
261.18219 56.0
261.269043 56.0
261.568329 92.0
261.755035 72.0
261.88385 36.0
262.10614 52.0
262.128693 140.0
262.360748 120.0
262.986542 64.0
263.128571 132.0
264.039795 172.0
264.321228 112.0
264.962311 184.0
265.049774 100.0
267.026764 152.0
267.070312 144.0
267.234955 100.0
268.076416 132.0
269.045685 1012.0
269.08252 460.0
269.358612 84.0
269.445404 216.0
269.478088 28.0
269.56958 92.0
270.052673 1132.0
270.089386 192.0
270.220245 44.0
270.275879 112.0
270.370758 52.0
270.468964 44.0
270.57431 64.0
270.819305 52.0
271.049866 168.0
272.065277 168.0
272.518555 56.0
273.077393 160.0
273.603882 128.0
275.065735 404.0
276.048767 132.0
276.114929 188.0
276.41925 52.0
277.06488 492.0
278.056335 140.0
278.398254 88.0
279.01297 128.0
281.052887 276.0
281.077942 104.0
281.139496 36.0
281.979584 132.0
282.06015 216.0
283.064331 500.0
283.157257 208.0
283.274475 212.0
283.975006 152.0
284.02533 112.0
284.048798 264.0
284.827545 44.0
285.037659 884.0
285.076385 1320.0
285.133301 40.0
285.250946 80.0
285.388763 64.0
285.452667 48.0
285.782288 92.0
286.041351 272.0
286.079224 296.0
286.209747 156.0
286.374756 48.0
286.479187 72.0
287.008301 148.0
287.047821 196.0
287.075195 340.0
287.980194 104.0
288.432983 88.0
288.544525 84.0
290.593536 48.0
293.658478 96.0
294.071289 140.0
294.375122 140.0
295.057465 296.0
295.540741 156.0
295.773438 52.0
295.89325 124.0
296.061737 116.0
297.068451 796.0
297.648712 40.0
298.045746 112.0
298.071686 156.0
298.443176 92.0
299.05423 280.0
299.526489 100.0
300.060638 176.0
301.071381 380.0
302.082489 160.0
303.043274 196.0
304.76767 208.0
308.993378 124.0
309.038574 148.0
309.788055 124.0
311.052765 132.0
312.060913 132.0
312.315369 56.0
312.649597 100.0
312.959381 144.0
313.035614 2136.0
313.072296 1256.0
313.420776 52.0
313.558228 96.0
313.607574 48.0
313.871948 60.0
314.036346 524.0
314.091034 184.0
314.648163 68.0
315.0867 476.0
316.069 100.0
317.184967 180.0
318.149445 184.0
318.316315 52.0
319.354034 76.0
320.165466 108.0
323.052979 104.0
324.048218 132.0
325.07196 708.0
331.043304 172.0
331.427246 80.0
333.048859 108.0
339.013947 116.0
339.046906 120.0
340.059143 164.0
341.065796 2376.0
342.06485 588.0
342.320068 32.0
343.078888 264.0
343.606415 108.0
344.078827 120.0
344.640198 52.0
345.908691 112.0
347.502228 92.0
348.05899 56.0
348.259521 36.0
350.03717 64.0
357.061371 144.0
369.059021 748.0
370.065491 128.0
372.040466 72.0
381.031097 104.0
389.25296 96.0
389.303986 212.0
391.191223 88.0
398.977234 100.0
412.635864 88.0
441.41745 40.0
447.893158 168.0
449.761078 48.0
465.861816 136.0
472.466187 88.0
622.749939 172.0
740.375244 104.0
768.191223 84.0
865.222351 56.0
876.222229 216.0
878.068542 88.0
880.669983 112.0
926.257446 128.0
1045.191162 228.0
1047.869629 156.0
1150.022461 212.0
1163.859741 52.0
1170.816162 176.0
1171.769775 92.0
1200.606934 132.0
1208.799805 172.0
1216.92334 124.0
1252.118164 124.0
1305.415771 140.0
1319.757812 160.0
1320.878784 108.0
1340.401001 156.0
1341.472412 144.0
1383.270752 56.0
1384.499878 28.0
1388.212524 160.0
1391.254517 180.0
1391.744507 176.0
1414.482666 120.0
1439.790527 52.0
1472.890259 184.0
1491.863403 228.0
1498.928833 152.0
1499.421997 176.0
