>compound 3-(3-oxo-1H-indol-2-ylidene)-1H-indol-2-one
>formula C16H10N2O2
>ionization [M+H]+
>parentmass 263.082947
#inchi InChI=1S/C16H10N2O2/c19-15-10-6-2-4-8-12(10)17-14(15)13-9-5-1-3-7-11(9)18-16(13)20/h1-8,18,20H
#inchikey JNLNPCNGMHKCKO
#Ion_Source LC-ESI
#Instrument qTof
#Compound_Source Commercial
#PI Dorrestein
#Data_Collector Garg_Neha
#Scan -1
#Precursor_MZ 263.082
#ExactMass 262.074
#Charge 1
#CAS_Number N/A
#Pubmed_ID N/A
#Smiles Oc1[nH]c2ccccc2c1C3=Nc4ccccc4C3=O
#INCHI_AUX N/A
#Library_Class 1
#SpectrumID CCMSLIB00000079110
#IonMode Positive
#UpdateWorkflowName UPDATE-SINGLE-ANNOTATED-GOLD
#LibraryQualityString Gold
#TaskID 278b19f5865741e282cec7349aa7e7a1
##Scan# 1685
#SpectrumFile NCP003512_C2_D11_BD5_01_15729.mzXML
#LibraryName NIHcollectionI_05062014.mgf
#MQScore -1
#Organism NIHcollectionI_05062014
#TIC_Query 0
#RT_Query -1
#MZErrorPPM -1
#SharedPeaks 0
#MassDiff 0
#LibMZ -1
#SpecMZ 263.082
#SpecCharge 0
#internalFilename spec-00000.mgf

>collision 10
50.039566 164.0
50.08181 148.0
52.021442 160.0
53.274937 220.0
59.857067 148.0
62.984261 160.0
63.935558 172.0
66.233177 204.0
69.376343 144.0
69.942795 220.0
71.851532 176.0
77.556526 160.0
77.724884 144.0
80.232925 140.0
82.186096 144.0
83.619514 200.0
85.755089 140.0
85.991173 200.0
87.747856 168.0
92.158997 228.0
107.169624 176.0
114.049156 184.0
116.059486 228.0
117.055031 176.0
117.270462 224.0
117.673851 144.0
117.842316 156.0
118.899025 160.0
120.047661 192.0
121.195251 208.0
123.100151 212.0
123.272453 144.0
124.87085 148.0
125.014366 340.0
126.021095 160.0
129.397049 148.0
130.088501 176.0
130.386047 148.0
131.899445 168.0
132.044479 472.0
133.148132 156.0
134.66127 144.0
137.960861 164.0
141.332382 192.0
142.127289 140.0
144.047119 164.0
144.364029 164.0
145.087128 216.0
146.040436 216.0
146.717072 156.0
147.545135 224.0
149.436859 176.0
152.063782 276.0
152.112869 168.0
153.069244 148.0
154.043243 440.0
156.044449 244.0
156.247284 140.0
156.610718 144.0
157.039429 140.0
157.508667 148.0
160.848328 168.0
161.641907 156.0
162.062225 220.0
162.940063 140.0
165.070526 304.0
165.191971 212.0
166.071091 152.0
167.08316 148.0
169.425873 208.0
170.019653 184.0
173.75885 148.0
176.664658 148.0
178.545212 160.0
178.622345 228.0
180.081818 360.0
181.064545 180.0
182.054108 168.0
184.092667 144.0
184.125061 164.0
184.243912 156.0
185.660599 152.0
187.333817 148.0
189.081284 148.0
189.272919 204.0
190.001968 152.0
190.064651 2148.0
190.861618 220.0
191.068359 432.0
192.080826 240.0
193.090195 448.0
194.06813 132.0
194.094147 124.0
194.611099 188.0
197.168274 144.0
198.59053 208.0
201.495575 152.0
205.081268 212.0
206.084686 1576.0
206.53862 172.0
207.045197 172.0
207.088638 664.0
208.0755 584.0
209.0802 160.0
209.815125 148.0
211.068176 208.0
214.33075 188.0
215.058701 292.0
215.614731 208.0
216.071121 348.0
217.076279 3348.0
217.140045 200.0
217.932617 172.0
218.083771 720.0
218.208893 192.0
218.420624 152.0
219.092056 9676.0
219.938721 208.0
220.075943 1552.0
220.094604 1836.0
221.080719 388.0
222.049698 168.0
222.082123 168.0
227.00412 200.0
229.349106 176.0
231.448715 224.0
232.637177 152.0
233.065399 156.0
234.080505 1224.0
235.086609 6380.0
236.085175 768.0
236.286179 108.0
237.078094 168.0
238.449905 172.0
239.363556 208.0
242.97052 152.0
243.721863 160.0
243.989151 152.0
244.014023 148.0
245.072021 1700.0
246.074249 360.0
247.070358 164.0
247.120407 156.0
249.074432 168.0
250.048141 156.0
250.07016 184.0
253.050095 204.0
255.159882 156.0
255.547897 144.0
259.69754 152.0
261.030304 168.0
261.139984 160.0
262.018433 240.0
262.075928 824.0
262.130493 164.0
262.572357 108.0
262.68573 228.0
262.990509 180.0
263.022583 228.0
263.082947 58168.0
263.294037 100.0
263.372589 124.0
263.433075 116.0
263.711731 188.0
263.904572 244.0
263.938812 236.0
264.085999 8220.0
264.415222 224.0
264.964813 180.0
265.086945 1120.0
265.727386 132.0
265.796997 120.0
265.849304 148.0
266.097504 172.0
266.130585 108.0
337.055542 256.0
1062.461792 140.0
1551.920288 144.0
1559.487915 184.0
1943.39209 196.0
1994.845215 156.0
