>compound ISRADIPINE
>formula C19H21N3O5
>ionization [M+H]+
>parentmass 372.155
#inchi InChI=1S/C19H21N3O5/c1-9(2)26-19(24)15-11(4)20-10(3)14(18(23)25-5)16(15)12-7-6-8-13-17(12)22-27-21-13/h6-9,16,23H,1-5H3/b18-14+
#inchikey MSKAFRMBWXTPHY
#Ion_Source LC-ESI
#Instrument qTof
#Compound_Source Commercial
#PI Dorrestein
#Data_Collector Garg_Neha
#Scan -1
#Precursor_MZ 372.155
#ExactMass 371.148
#Charge 1
#CAS_Number N/A
#Pubmed_ID N/A
#Smiles CO/C(=C\1/C(C(=C(C)N=C1C)C(=O)OC(C)C)c2cccc3nonc23)/O
#INCHI_AUX N/A
#Library_Class 1
#SpectrumID CCMSLIB00000079122
#IonMode Positive
#UpdateWorkflowName UPDATE-SINGLE-ANNOTATED-GOLD
#LibraryQualityString Gold
#TaskID 278b19f5865741e282cec7349aa7e7a1
##Scan# 1910
#SpectrumFile NCP003512_E2_F11_BD6_01_15730.mzXML
#LibraryName NIHcollectionI_05062014.mgf
#MQScore -1
#Organism NIHcollectionI_05062014
#TIC_Query 0
#RT_Query -1
#MZErrorPPM -1
#SharedPeaks 0
#MassDiff 0
#LibMZ -1
#SpecMZ 372.155
#SpecCharge 0
#internalFilename spec-00000.mgf

>collision 10
47.770988 208.0
51.393169 144.0
53.47998 192.0
53.65041 200.0
54.858383 152.0
55.268963 216.0
55.731575 168.0
56.513538 204.0
56.704548 220.0
57.42321 152.0
58.13274 392.0
58.628498 192.0
58.64069 160.0
59.983418 152.0
60.739559 176.0
61.35693 148.0
62.82642 212.0
63.093311 160.0
63.158146 180.0
64.533752 216.0
70.272774 164.0
71.359764 140.0
74.296326 140.0
74.736153 208.0
74.93071 152.0
75.464012 140.0
75.768623 140.0
75.93676 144.0
77.362106 176.0
78.715919 148.0
80.179466 144.0
80.770454 144.0
80.870651 168.0
81.953522 172.0
83.292259 192.0
85.142464 160.0
85.510155 172.0
85.592995 156.0
86.987 208.0
87.72551 192.0
88.885086 208.0
89.895576 148.0
91.204262 264.0
91.760124 168.0
93.057304 196.0
94.052567 168.0
94.201248 156.0
96.019966 152.0
99.044899 224.0
101.245735 224.0
105.049789 160.0
105.292679 212.0
105.90625 172.0
106.068123 152.0
109.302368 152.0
109.396027 172.0
110.029778 152.0
110.326431 140.0
114.483192 164.0
115.05249 348.0
115.927292 168.0
116.850586 144.0
119.242195 144.0
119.305229 188.0
121.028816 148.0
121.87986 164.0
122.291092 152.0
122.678772 176.0
122.694199 156.0
123.073685 180.0
124.273323 164.0
125.01326 320.0
125.097832 148.0
125.327225 152.0
126.450478 160.0
127.050987 164.0
127.925163 168.0
128.542709 160.0
128.617188 180.0
129.059967 152.0
129.091629 168.0
130.066132 176.0
131.058472 144.0
131.876617 160.0
133.263031 220.0
134.059174 168.0
136.073837 184.0
137.68985 144.0
137.820663 148.0
139.486954 144.0
140.050262 1260.0
141.045609 256.0
142.052521 480.0
142.13681 192.0
142.438324 148.0
142.697357 152.0
143.062027 536.0
143.957825 164.0
144.068649 180.0
145.090912 416.0
145.108734 200.0
146.086502 212.0
146.437592 152.0
147.022278 332.0
148.38768 184.0
148.496796 168.0
148.773407 152.0
148.95433 160.0
149.125626 156.0
150.055832 152.0
150.104279 224.0
150.155487 204.0
150.721832 204.0
151.069656 180.0
152.07608 164.0
153.057663 156.0
153.88295 168.0
154.065887 796.0
154.142303 140.0
154.9935 164.0
155.06308 308.0
155.087677 156.0
156.075974 252.0
156.324173 104.0
157.070435 356.0
157.094238 192.0
158.970825 252.0
159.046112 160.0
159.064713 196.0
159.159088 152.0
160.212524 192.0
160.480042 212.0
160.916519 204.0
161.009949 192.0
161.070572 412.0
161.095825 188.0
164.053589 320.0
165.03714 184.0
165.582748 172.0
166.050888 440.0
166.423843 168.0
167.061768 1584.0
167.594894 220.0
167.882843 176.0
168.044678 272.0
168.068039 812.0
169.074478 536.0
169.539917 172.0
170.050049 332.0
170.05838 156.0
170.079437 456.0
171.052643 216.0
171.07103 176.0
171.094345 320.0
172.044708 204.0
172.052399 148.0
172.065445 196.0
172.08403 460.0
172.180496 184.0
173.06427 408.0
173.441574 260.0
174.076477 176.0
174.702011 192.0
176.900223 188.0
177.064377 164.0
177.546707 152.0
177.652802 156.0
178.064224 288.0
178.425598 148.0
179.063217 556.0
179.610611 228.0
180.065491 112.0
180.315475 148.0
181.049454 188.0
181.075867 2328.0
182.081009 720.0
182.548615 156.0
183.092163 1060.0
183.536835 236.0
183.695953 200.0
184.059784 256.0
184.088745 508.0
185.047195 140.0
185.073624 428.0
185.361389 144.0
186.078644 152.0
186.588196 160.0
186.90097 188.0
187.154114 144.0
187.497345 176.0
188.075546 224.0
188.594498 148.0
189.069016 152.0
191.060211 976.0
191.905197 152.0
191.935532 148.0
192.067947 384.0
192.937759 148.0
193.066162 1688.0
193.726456 160.0
194.081192 908.0
195.086685 784.0
195.91272 168.0
196.096817 916.0
197.043655 396.0
197.068039 264.0
197.092239 552.0
197.677277 204.0
198.070068 740.0
198.105438 816.0
199.049255 460.0
199.086563 720.0
200.081345 864.0
200.8125 140.0
201.086182 220.0
201.408051 168.0
201.487137 140.0
202.086655 164.0
202.276123 220.0
202.468658 148.0
202.981567 164.0
203.091553 268.0
204.092529 156.0
204.290878 184.0
205.062531 172.0
206.069885 488.0
206.109558 204.0
207.078827 2532.0
207.939728 160.0
208.08757 17648.0
209.093826 5160.0
210.070129 1224.0
210.102066 2472.0
210.250732 168.0
210.585632 336.0
211.053925 192.0
211.083252 952.0
211.62088 180.0
211.956863 152.0
212.082169 1208.0
212.118256 220.0
213.069855 440.0
214.077972 192.0
214.422638 152.0
215.06279 252.0
216.079712 188.0
217.079147 164.0
218.07666 164.0
219.828949 176.0
220.047379 148.0
220.360443 168.0
221.072235 716.0
221.662323 140.0
222.078812 1488.0
223.083069 1192.0
223.650146 188.0
223.765228 156.0
224.082596 3788.0
224.647354 156.0
224.778625 176.0
225.086746 880.0
225.24437 144.0
226.068848 356.0
226.095581 820.0
227.040146 148.0
227.080643 1720.0
227.148132 144.0
228.078491 2724.0
229.078415 612.0
230.088394 432.0
230.707535 148.0
231.052292 164.0
231.078003 264.0
232.060806 184.0
233.07457 152.0
233.977875 168.0
234.060944 172.0
235.075745 308.0
236.082352 7604.0
237.08638 1872.0
237.432053 144.0
238.097733 744.0
238.513763 116.0
239.078537 1576.0
239.11734 148.0
240.085205 2484.0
240.134048 160.0
240.417877 200.0
241.096146 2220.0
242.092941 3636.0
243.094406 648.0
244.091766 160.0
245.08786 160.0
246.704529 156.0
247.474136 184.0
247.790466 160.0
249.064865 192.0
250.074036 3456.0
251.076859 256.0
251.144623 196.0
251.453827 140.0
251.763214 152.0
252.075928 1192.0
252.11911 404.0
252.281387 204.0
252.871002 216.0
253.086258 2424.0
254.000854 160.0
254.096481 7040.0
255.095535 1176.0
255.188568 184.0
256.078674 720.0
256.554352 140.0
257.084564 272.0
258.063934 156.0
258.097076 136.0
260.525757 236.0
262.06012 128.0
262.976196 152.0
263.069885 416.0
263.854828 152.0
264.11676 172.0
265.060181 1884.0
265.227356 192.0
266.064819 296.0
266.091125 444.0
267.077423 1124.0
268.108704 5132.0
269.091858 1064.0
269.592896 176.0
269.631012 212.0
270.085999 636.0
270.110992 336.0
270.83606 124.0
270.956207 200.0
271.069885 304.0
271.83493 176.0
272.090942 176.0
273.083313 160.0
277.213318 140.0
277.989288 148.0
279.308258 172.0
279.993896 152.0
280.072662 6404.0
280.583649 236.0
281.074585 1260.0
281.132233 128.0
281.58136 204.0
282.068451 956.0
282.097839 464.0
283.069672 684.0
283.19342 144.0
284.102448 668.0
285.09079 244.0
286.102539 148.0
292.707031 176.0
295.095947 328.0
296.093109 164.0
296.142487 348.0
296.42691 244.0
297.080139 340.0
297.57254 176.0
298.082581 1864.0
299.089264 624.0
300.078125 132.0
301.077881 164.0
309.279694 180.0
309.472229 144.0
309.685822 184.0
309.731354 140.0
310.085236 184.0
311.028717 144.0
311.084839 144.0
311.400909 140.0
311.78006 104.0
311.816711 136.0
312.007629 216.0
312.099213 69808.0
312.215271 104.0
312.279877 100.0
312.366455 108.0
312.506927 120.0
312.714844 112.0
313.040619 124.0
313.101624 11184.0
313.300354 144.0
314.102325 1164.0
314.906677 144.0
315.108124 324.0
315.237396 164.0
315.326965 104.0
315.434204 128.0
315.580261 156.0
315.859619 156.0
322.129059 224.0
325.116028 148.0
328.095581 896.0
329.043152 212.0
329.092865 192.0
330.107941 132.0
333.00827 188.0
338.812347 104.0
339.014923 164.0
339.071655 100.0
339.115936 264.0
339.269897 140.0
339.636261 140.0
339.764954 200.0
339.850861 116.0
339.977783 144.0
340.038727 132.0
340.130615 56980.0
340.329224 264.0
340.392822 144.0
340.830353 164.0
341.13324 7740.0
341.207489 228.0
341.268311 160.0
341.389832 128.0
341.468964 108.0
341.596405 96.0
342.136993 1268.0
342.216339 144.0
342.450439 112.0
342.975067 104.0
343.11795 132.0
343.458954 232.0
345.549103 140.0
351.617157 140.0
356.158722 168.0
356.673492 168.0
358.133392 156.0
370.142883 328.0
371.150299 260.0
372.150848 636.0
373.161591 128.0
418.050262 148.0
498.458923 144.0
1207.307007 144.0
1308.612427 208.0
1459.259521 156.0
1490.436646 140.0
1508.710449 204.0
1740.439575 180.0
1751.658569 156.0
1801.082031 144.0
1812.901245 160.0
