>compound MLS001076850-01!
>formula C19H18ClN3O2S
>ionization [M+H]+
>parentmass 388.0881019480906
#inchi InChI=1S/C19H18ClN3O2S/c20-15-6-4-13(5-7-15)18(25)21-19(26)22-9-12-8-14(11-22)16-2-1-3-17(24)23(16)10-12/h1-7,12,14H,8-11H2,(H,21,25,26)/t12-,14-/m1/s1
#inchikey AKBAWETZQQHGRJ
#Ion_Source LC-ESI
#Instrument qTof
#Compound_Source NIH Natural Product Library
#PI Dorrestein
#Data_Collector VVP/LMS
#Scan -1
#Precursor_MZ 388.089
#ExactMass 387.081
#Charge 1
#CAS_Number N/A
#Pubmed_ID N/A
#Smiles Clc1ccc(cc1)C(=O)NC(=S)N2C[C@H]3C[C@H](C2)c4cccc(=O)n4C3
#INCHI_AUX N/A
#Library_Class 1
#SpectrumID CCMSLIB00000079991
#IonMode Positive
#UpdateWorkflowName UPDATE-SINGLE-ANNOTATED-GOLD
#LibraryQualityString Gold
#TaskID b1d8e8f6646f4e71acdff9ca3d919d08
##Scan# 1809
#SpectrumFile p2-F02_GF2_01_18038.mzXML
#LibraryName NIH_Natural_Products_Library.mgf
#MQScore -1
#Organism NIH_Natural_Products_Library
#TIC_Query 0
#RT_Query -1
#MZErrorPPM -1
#SharedPeaks 0
#MassDiff 0
#LibMZ -1
#SpecMZ 388.089
#SpecCharge 0
#internalFilename spec-00000.mgf

>collision 10
95.045982 144.0
95.071213 204.0
95.090622 192.0
95.148857 40.0
95.520035 124.0
95.549217 212.0
95.671822 156.0
95.685448 300.0
95.768074 208.0
95.821785 196.0
95.860756 112.0
95.936768 140.0
95.962112 168.0
96.043877 272.0
96.186462 160.0
96.287323 168.0
96.411072 200.0
96.491219 48.0
96.563568 168.0
96.727928 236.0
96.880676 152.0
96.994331 220.0
97.008057 132.0
97.066872 212.0
97.300362 156.0
97.347488 112.0
97.365166 180.0
97.394623 216.0
97.461418 188.0
97.517212 164.0
97.626541 220.0
97.713089 212.0
97.839043 140.0
97.913872 48.0
97.974937 148.0
98.004486 180.0
98.179932 64.0
98.312103 112.0
98.436478 116.0
98.470047 140.0
98.580681 132.0
98.614281 88.0
98.63501 176.0
98.678329 160.0
98.75518 212.0
98.97657 212.0
99.045624 76.0
99.06382 88.0
99.095154 132.0
99.158562 240.0
99.249756 176.0
99.281479 192.0
99.342972 52.0
99.565277 84.0
99.650589 152.0
99.718254 152.0
99.807716 176.0
99.871651 160.0
99.91848 240.0
100.016014 148.0
100.070358 232.0
100.086288 132.0
100.213768 204.0
100.28949 204.0
100.526825 140.0
100.714493 152.0
100.815552 200.0
100.978325 200.0
101.024338 44.0
101.082359 96.0
101.182434 124.0
101.246513 200.0
101.446884 184.0
101.462921 116.0
101.521065 92.0
101.623367 96.0
101.687584 152.0
101.747803 88.0
101.771896 168.0
101.785957 124.0
101.800011 156.0
101.950676 76.0
101.964745 216.0
102.006958 248.0
102.05722 244.0
102.147881 152.0
102.21814 248.0
102.379181 192.0
102.427521 56.0
102.483932 132.0
102.539444 220.0
102.701653 224.0
102.828766 172.0
102.97377 200.0
103.040443 160.0
103.054283 692.0
103.148239 216.0
103.218666 156.0
103.253044 152.0
103.317772 164.0
103.423004 144.0
103.716705 224.0
103.739006 180.0
103.759277 152.0
103.893127 180.0
103.921532 60.0
103.97226 152.0
104.016914 192.0
104.050652 372.0
104.1875 100.0
104.213913 136.0
104.527046 188.0
104.555534 124.0
104.812126 116.0
104.832504 200.0
104.881416 84.0
104.899765 216.0
105.044548 192.0
105.059525 176.0
105.097588 152.0
105.450882 132.0
105.581726 48.0
105.696289 188.0
105.782242 160.0
105.870285 124.0
105.921494 228.0
106.062759 140.0
106.081329 112.0
106.140785 104.0
106.230728 164.0
106.237122 140.0
106.270004 120.0
106.388901 116.0
106.644676 184.0
106.773285 96.0
106.806198 148.0
106.867912 48.0
106.888489 116.0
106.944054 224.0
107.067589 124.0
107.0923 60.0
107.510834 144.0
107.531822 232.0
107.665665 204.0
107.7173 144.0
107.750359 168.0
107.793747 180.0
107.847481 92.0
107.915703 212.0
107.944649 140.0
108.02005 140.0
108.042778 144.0
108.062553 172.0
108.174309 220.0
108.207428 108.0
108.414566 160.0
108.5243 64.0
108.556709 212.0
108.73661 184.0
108.785843 180.0
108.825287 156.0
108.856651 172.0
108.97068 148.0
109.05291 528.0
109.161911 44.0
109.253426 132.0
109.276314 96.0
109.309174 192.0
109.344978 108.0
109.382446 120.0
109.430328 112.0
109.446991 256.0
109.463646 72.0
109.505295 120.0
109.571854 160.0
109.692825 180.0
109.722015 176.0
109.76281 208.0
109.811676 96.0
109.832146 212.0
109.878433 264.0
109.955643 92.0
110.026611 172.0
110.055939 168.0
110.076721 116.0
110.099693 168.0
110.174889 192.0
110.218765 52.0
110.245934 180.0
110.26683 132.0
110.597298 168.0
110.808807 160.0
110.998749 2012.0
111.148476 40.0
111.200943 172.0
111.230331 200.0
111.29541 148.0
111.34581 88.0
111.396217 124.0
111.469757 192.0
111.522293 136.0
111.669479 156.0
111.694717 212.0
111.730476 36.0
111.770454 144.0
111.928329 112.0
111.976761 184.0
112.000694 252.0
112.021225 152.0
112.050491 108.0
112.134781 96.0
112.171104 224.0
112.318069 168.0
112.356194 132.0
112.418999 120.0
112.423347 92.0
112.550369 184.0
112.679207 64.0
112.732033 88.0
112.803894 212.0
112.933701 144.0
112.994637 828.0
113.028084 192.0
113.053474 148.0
113.089455 128.0
113.146606 124.0
113.210129 152.0
113.277908 168.0
113.326637 128.0
113.373253 156.0
113.432602 152.0
113.510017 132.0
113.742302 188.0
113.78688 44.0
113.888817 228.0
113.907928 140.0
113.986542 328.0
114.092812 160.0
114.216156 192.0
114.316147 56.0
114.373611 144.0
114.505623 164.0
114.539703 172.0
114.554611 68.0
114.622795 200.0
114.641968 128.0
114.665413 252.0
114.684593 144.0
114.859444 168.0
114.948929 140.0
114.996208 196.0
115.053696 268.0
115.119827 160.0
115.183899 304.0
115.233032 180.0
115.322792 196.0
115.378365 60.0
115.566887 140.0
115.594101 124.0
115.673584 48.0
115.70784 124.0
115.879181 176.0
115.967041 152.0
115.98204 104.0
116.045609 320.0
116.1064 152.0
116.196487 232.0
116.237259 200.0
116.303787 188.0
116.374634 268.0
116.512085 172.0
116.546463 168.0
116.593742 212.0
116.703369 160.0
116.81736 196.0
116.899117 136.0
116.94339 160.0
117.026421 168.0
117.057335 416.0
117.148872 84.0
117.215668 132.0
117.362244 164.0
117.424782 216.0
117.571487 48.0
117.590912 152.0
117.629761 168.0
117.647034 200.0
117.905045 204.0
118.022964 200.0
118.048912 212.0
118.06443 332.0
118.115959 200.0
118.209457 112.0
118.224968 136.0
118.275864 192.0
118.688339 152.0
118.750603 104.0
118.776634 76.0
119.069649 148.0
119.334763 204.0
119.497887 192.0
119.593636 112.0
119.709023 188.0
119.72644 212.0
119.754753 140.0
120.02063 112.0
120.079414 388.0
120.195129 216.0
120.236595 144.0
120.33046 156.0
120.524849 124.0
120.645058 136.0
120.695343 244.0
120.855019 196.0
120.942558 32.0
121.011238 160.0
121.063362 216.0
121.111153 36.0
121.266724 208.0
121.299599 184.0
121.358795 128.0
121.461868 216.0
121.534264 236.0
121.613266 88.0
121.65815 188.0
121.747192 192.0
122.061218 180.0
122.11422 64.0
122.129616 148.0
122.217613 196.0
122.272133 248.0
122.3871 64.0
122.578743 208.0
122.72863 120.0
122.755089 168.0
122.8367 112.0
122.876404 216.0
122.99337 188.0
123.044304 108.0
123.088303 192.0
123.225243 64.0
123.368896 68.0
123.404274 172.0
123.452919 172.0
123.689659 152.0
123.736145 168.0
123.859001 148.0
123.950996 212.0
124.001968 188.0
124.026344 152.0
124.128326 192.0
124.199303 120.0
124.337883 208.0
124.383469 120.0
124.456413 168.0
124.483383 48.0
124.534462 44.0
124.615555 188.0
124.798912 212.0
124.838936 244.0
124.944672 208.0
125.010231 228.0
125.028038 208.0
125.061417 144.0
125.108162 160.0
125.142784 180.0
125.170509 148.0
125.397743 68.0
125.506973 136.0
125.544884 332.0
125.661171 132.0
125.781387 96.0
125.875153 92.0
125.915352 148.0
125.937691 128.0
126.020348 208.0
126.100792 208.0
126.208099 104.0
126.275185 144.0
126.453377 212.0
126.478798 240.0
126.680328 64.0
126.731857 132.0
126.960503 216.0
126.996391 136.0
127.058105 172.0
127.106316 196.0
127.131004 132.0
127.209564 212.0
127.418419 172.0
127.535271 160.0
127.562241 204.0
127.602707 200.0
127.620697 132.0
127.816391 200.0
127.891327 228.0
127.942429 180.0
127.966621 204.0
128.047638 312.0
128.088806 240.0
128.110519 144.0
128.117203 92.0
128.125259 200.0
128.165405 112.0
128.262314 160.0
128.366028 152.0
128.431732 212.0
128.648056 232.0
128.745865 196.0
128.925873 116.0
128.943954 52.0
129.009918 644.0
129.03212 200.0
129.067352 684.0
129.36467 160.0
129.455246 240.0
129.525452 124.0
129.559433 164.0
129.601654 164.0
129.752075 116.0
129.822357 172.0
129.86319 172.0
129.97435 152.0
130.01973 196.0
130.065491 648.0
130.090103 184.0
130.119614 164.0
130.214981 192.0
130.408112 140.0
130.430954 148.0
130.453568 36.0
130.496765 40.0
130.587723 124.0
130.791122 184.0
130.840317 52.0
130.913177 92.0
130.945053 260.0
131.004288 144.0
131.029465 156.0
131.046799 212.0
131.072632 320.0
131.227631 48.0
131.378159 156.0
131.464859 92.0
131.54245 152.0
131.572128 40.0
131.590393 132.0
131.608658 176.0
131.638351 112.0
131.718567 168.0
131.763306 176.0
131.885086 172.0
131.997116 148.0
132.045135 1168.0
132.0811 436.0
132.154938 160.0
132.182404 44.0
132.257935 140.0
132.319733 160.0
132.461716 188.0
132.580872 236.0
132.60379 32.0
132.8629 176.0
132.936325 108.0
133.052719 2640.0
133.106186 220.0
133.165909 72.0
133.200363 184.0
133.221039 192.0
133.248596 36.0
133.280762 144.0
133.400284 216.0
133.416367 216.0
133.508347 48.0
133.568146 152.0
133.586548 160.0
133.621048 208.0
133.648666 216.0
133.749924 164.0
133.78215 72.0
133.902588 132.0
133.923203 172.0
134.058578 632.0
134.093277 208.0
134.192245 100.0
134.275253 104.0
134.44136 96.0
134.477463 156.0
134.621429 312.0
134.669922 220.0
134.748474 176.0
134.820099 272.0
134.850143 176.0
134.905624 120.0
134.980591 188.0
135.027679 56.0
135.068253 332.0
135.097565 184.0
135.132263 48.0
135.164658 60.0
135.296585 204.0
135.331314 140.0
135.369431 184.0
135.488815 208.0
135.625534 208.0
135.851395 248.0
135.894547 144.0
136.024506 168.0
136.08255 140.0
136.103439 132.0
136.396164 160.0
136.524048 148.0
136.624069 184.0
136.698517 180.0
136.742737 196.0
136.77066 104.0
136.882416 172.0
137.018646 136.0
137.057114 168.0
137.096741 100.0
137.336884 176.0
137.38353 172.0
137.824799 244.0
137.976715 132.0
138.035172 152.0
138.266769 60.0
138.292511 200.0
138.348694 36.0
138.374481 184.0
138.472794 164.0
138.510284 224.0
138.536728 204.0
138.554794 192.0
138.598572 196.0
138.641479 164.0
138.657883 84.0
138.690704 124.0
138.709824 256.0
138.737579 104.0
138.761032 52.0
138.829025 132.0
138.847794 340.0
138.954788 260.0
138.994904 31816.0
139.035477 168.0
139.071671 172.0
139.141113 160.0
139.188507 108.0
139.213898 40.0
139.259018 56.0
139.289047 212.0
139.326645 68.0
139.365723 44.0
139.38269 132.0
139.408875 200.0
139.474686 60.0
139.52478 208.0
139.596939 56.0
139.636917 60.0
139.665146 164.0
139.763962 48.0
139.79454 132.0
139.869858 188.0
139.902817 52.0
139.921646 60.0
139.997223 3008.0
140.062943 204.0
140.088852 60.0
140.159546 140.0
140.185455 180.0
140.272659 68.0
140.402496 184.0
140.506134 200.0
140.537521 144.0
140.664246 40.0
140.796463 220.0
140.846069 160.0
140.87442 40.0
140.893311 200.0
140.909851 112.0
140.933487 220.0
140.992554 8300.0
141.033264 216.0
141.077927 168.0
141.107391 204.0
141.123596 92.0
141.15094 56.0
141.264465 104.0
141.283401 88.0
141.302322 216.0
141.328964 152.0
141.344269 148.0
141.392242 184.0
141.5177 104.0
141.624268 72.0
141.688232 140.0
141.877823 168.0
141.995041 1548.0
142.042007 136.0
142.063873 276.0
142.129227 128.0
142.174316 144.0
142.234924 112.0
142.285889 44.0
142.490128 164.0
142.630341 164.0
142.658859 92.0
142.820572 140.0
142.883392 204.0
142.892288 240.0
142.910965 40.0
142.927628 76.0
142.9776 136.0
142.996628 184.0
143.065659 296.0
143.111191 164.0
143.153763 100.0
143.194244 116.0
143.308594 72.0
143.368164 176.0
143.406296 36.0
143.504044 44.0
143.56604 44.0
143.616119 124.0
143.740173 124.0
144.049393 124.0
144.080154 560.0
144.166061 228.0
144.236938 44.0
144.258453 180.0
144.277588 224.0
144.368439 180.0
144.385178 132.0
144.449768 180.0
144.527649 36.0
144.557434 160.0
144.686676 136.0
144.782455 100.0
145.054169 576.0
145.086761 116.0
145.221054 48.0
145.333801 140.0
145.491119 124.0
145.693939 136.0
145.734787 344.0
145.804474 128.0
145.85495 140.0
145.876587 164.0
145.984772 168.0
146.018448 176.0
146.059433 3204.0
146.095032 1280.0
146.268677 164.0
146.430008 96.0
146.485397 124.0
146.596237 48.0
146.615509 112.0
146.728806 204.0
147.027908 52.0
147.066757 1360.0
147.097061 276.0
147.177582 48.0
147.255569 176.0
147.426392 140.0
147.578888 140.0
147.598022 96.0
147.682663 108.0
147.708359 208.0
147.755234 116.0
147.871384 140.0
147.903992 212.0
147.95369 128.0
147.970627 196.0
148.012024 168.0
148.041931 180.0
148.076096 49016.0
148.141052 152.0
148.181335 60.0
148.21492 28.0
148.263947 44.0
148.302795 132.0
148.321899 48.0
148.343719 172.0
148.378113 64.0
148.406754 108.0
148.47403 104.0
148.551926 56.0
148.592743 64.0
148.643173 120.0
148.661453 36.0
148.705139 208.0
148.769211 80.0
148.792221 64.0
148.801712 56.0
148.845932 80.0
148.903687 184.0
148.933365 60.0
148.962509 124.0
148.998962 168.0
149.025681 68.0
149.078796 4920.0
149.110733 332.0
149.14119 204.0
149.190948 64.0
149.220123 152.0
149.261459 44.0
149.317902 96.0
149.409821 36.0
149.448746 108.0
149.617065 76.0
149.722275 164.0
149.727188 116.0
149.736526 148.0
149.779846 96.0
149.862671 68.0
149.89679 64.0
149.966721 52.0
149.974228 36.0
150.017288 76.0
150.079025 1548.0
150.126923 100.0
150.168564 84.0
150.21077 92.0
150.232498 132.0
150.289032 116.0
150.308884 164.0
150.328415 120.0
150.382111 120.0
150.414932 168.0
150.760651 36.0
150.807098 164.0
150.836426 80.0
150.858429 136.0
151.078522 172.0
151.220444 136.0
151.359985 208.0
151.504486 188.0
151.538788 184.0
151.69809 232.0
151.771637 224.0
151.862381 80.0
151.938431 36.0
152.031174 60.0
152.105301 100.0
152.17894 144.0
152.468811 132.0
152.55484 184.0
152.608932 164.0
152.768784 72.0
152.845062 200.0
153.006348 136.0
153.056747 144.0
153.317871 184.0
153.421387 96.0
153.714905 156.0
153.840775 256.0
153.919785 216.0
153.944473 64.0
153.991394 188.0
154.062271 612.0
154.295349 160.0
154.325012 132.0
154.417038 204.0
154.451141 92.0
154.547623 48.0
154.918991 172.0
154.971848 472.0
155.040405 156.0
155.069214 256.0
155.407394 228.0
155.424774 72.0
155.774841 160.0
155.971497 140.0
155.995682 160.0
156.080139 772.0
156.39151 56.0
156.775055 188.0
156.972107 248.0
157.082947 232.0
157.169052 204.0
157.251404 72.0
157.378723 36.0
157.506088 220.0
157.735977 236.0
157.840973 48.0
157.86348 88.0
157.888489 168.0
157.931015 108.0
158.060226 1328.0
158.13118 92.0
158.153702 220.0
158.25383 188.0
158.331467 152.0
158.574493 124.0
158.787598 184.0
158.965714 140.0
158.983292 136.0
159.016083 232.0
159.067184 1212.0
159.104492 152.0
159.224289 200.0
159.31723 200.0
159.339844 168.0
159.473022 112.0
159.573578 120.0
159.643982 136.0
159.764725 200.0
159.782333 80.0
159.852783 168.0
159.915695 112.0
159.94339 164.0
160.025162 132.0
160.075485 16388.0
160.12114 148.0
160.173981 76.0
160.195206 136.0
160.235504 88.0
160.364029 136.0
160.427521 64.0
160.495193 80.0
160.522858 68.0
160.540512 40.0
160.558151 48.0
160.595993 36.0
160.654007 52.0
160.699417 132.0
160.74231 40.0
160.876083 176.0
160.935699 144.0
161.08139 3372.0
161.11853 80.0
161.143784 96.0
161.178391 184.0
161.267609 100.0
161.32576 92.0
161.58017 180.0
161.847717 136.0
161.976105 60.0
162.03183 124.0
162.091156 1632.0
162.148392 68.0
162.264999 44.0
162.30304 60.0
162.330933 96.0
162.368469 204.0
162.410248 388.0
162.445068 152.0
162.528778 100.0
162.607452 132.0
162.643295 164.0
162.994766 180.0
163.098541 140.0
163.224777 96.0
163.298523 120.0
163.341766 48.0
163.390732 128.0
163.412994 120.0
163.540237 60.0
163.677719 104.0
163.881485 132.0
163.937546 160.0
164.105789 176.0
164.348083 152.0
164.557388 192.0
164.989151 180.0
165.076096 128.0
165.247467 148.0
165.273056 136.0
165.352386 148.0
165.434296 128.0
165.595078 192.0
165.628906 160.0
165.760818 148.0
166.026184 152.0
166.059525 192.0
166.159561 216.0
166.28273 256.0
166.426483 108.0
166.518936 120.0
166.860703 196.0
166.968704 64.0
167.025284 128.0
167.638046 156.0
167.800446 260.0
168.022232 168.0
168.313904 168.0
168.347473 80.0
168.554123 284.0
168.877274 88.0
168.923843 248.0
168.940414 76.0
168.991104 168.0
169.08168 180.0
169.151566 208.0
169.407928 136.0
169.449371 48.0
169.80191 104.0
169.838226 124.0
169.87973 40.0
169.910858 152.0
169.970535 168.0
170.057083 160.0
170.497696 80.0
170.736877 132.0
170.775894 160.0
171.049103 140.0
171.090759 156.0
171.244385 124.0
171.280853 128.0
171.903976 128.0
171.955978 280.0
172.076065 2020.0
172.159805 36.0
172.206818 108.0
172.23555 184.0
172.272125 128.0
172.371399 164.0
172.499466 120.0
172.577896 164.0
172.674652 252.0
172.847321 116.0
172.899658 72.0
173.017441 120.0
173.081375 336.0
173.109192 200.0
173.137894 184.0
173.213852 184.0
173.26088 172.0
173.392014 40.0
173.523087 184.0
173.70929 132.0
173.866714 32.0
173.927078 108.0
174.035553 176.0
174.05191 124.0
174.091614 12956.0
174.158142 36.0
174.327866 60.0
174.443146 216.0
174.501343 356.0
174.532379 72.0
174.63652 168.0
174.668076 152.0
174.739105 156.0
174.773315 148.0
174.983871 208.0
175.057007 248.0
175.094269 844.0
175.176132 60.0
175.284149 56.0
175.328949 40.0
175.384293 144.0
175.724487 64.0
175.814209 104.0
176.009552 140.0
176.05043 108.0
176.075562 72.0
176.099792 160.0
176.302765 148.0
176.46666 112.0
176.569794 120.0
176.657074 184.0
176.704697 208.0
176.916412 224.0
177.056747 116.0
177.273987 48.0
177.501968 216.0
177.953033 116.0
178.030045 120.0
178.117691 96.0
178.471161 116.0
178.785049 44.0
179.048615 48.0
179.13118 188.0
179.152496 156.0
179.528305 52.0
179.749725 132.0
179.79776 240.0
179.861816 156.0
180.441513 268.0
180.513702 180.0
180.746429 160.0
180.834747 92.0
181.016785 164.0
181.040894 132.0
181.228409 164.0
181.595673 116.0
181.627853 168.0
181.965988 196.0
182.016998 184.0
182.062653 132.0
182.102936 220.0
182.718521 208.0
182.896133 112.0
183.068619 352.0
183.321655 120.0
183.513046 92.0
183.801651 164.0
183.920395 168.0
184.063492 104.0
184.125595 168.0
184.271469 136.0
184.352524 216.0
184.444427 104.0
185.026047 104.0
185.067993 196.0
185.21019 144.0
185.43779 152.0
185.459473 168.0
185.540787 136.0
185.616714 156.0
185.700775 112.0
185.917816 140.0
186.031815 164.0
186.077972 180.0
186.173004 224.0
186.314255 40.0
186.384903 160.0
186.428375 180.0
186.668823 204.0
186.803589 220.0
186.920578 120.0
186.977722 192.0
187.004944 140.0
187.026718 104.0
187.045776 164.0
187.086792 1044.0
187.132889 60.0
187.168289 80.0
187.195511 204.0
187.285385 44.0
188.053131 212.0
188.092499 172.0
188.294556 32.0
188.554108 68.0
188.744492 204.0
188.863052 64.0
189.06279 112.0
189.09787 532.0
189.268097 220.0
189.572159 132.0
189.632446 96.0
189.654373 40.0
189.807892 188.0
189.860001 84.0
190.030426 176.0
190.054764 204.0
190.164536 180.0
190.186493 136.0
190.211197 76.0
190.233063 112.0
190.256378 272.0
190.345734 84.0
190.378677 80.0
190.433609 136.0
190.485794 60.0
190.527008 36.0
190.559235 208.0
190.610977 192.0
190.678131 232.0
190.735855 140.0
190.76059 136.0
190.801834 76.0
190.916504 148.0
190.947449 192.0
191.004868 236.0
191.012024 116.0
191.034897 532.0
191.05484 136.0
191.061066 184.0
191.118942 104280.0
191.163834 184.0
191.209061 116.0
191.265976 116.0
191.298309 56.0
191.306122 156.0
191.337296 116.0
191.392639 80.0
191.437012 120.0
191.490524 84.0
191.541443 204.0
191.570816 192.0
191.683853 44.0
191.721191 68.0
191.764099 84.0
191.797806 120.0
191.821075 120.0
191.888412 64.0
191.89473 92.0
191.904114 92.0
191.937164 80.0
191.949066 84.0
191.983871 84.0
191.994415 72.0
192.022797 60.0
192.060303 48.0
192.07962 220.0
192.121552 10848.0
192.158066 92.0
192.192383 32.0
192.247925 96.0
192.270447 224.0
192.299545 88.0
192.324554 52.0
192.344788 84.0
192.416016 68.0
192.446671 84.0
192.575714 60.0
192.645508 48.0
192.675903 52.0
192.715775 112.0
192.755295 60.0
192.825119 88.0
192.894226 68.0
193.070206 80.0
193.123367 892.0
193.170746 112.0
193.245438 76.0
193.280823 148.0
193.31427 64.0
193.353363 68.0
193.375504 44.0
193.421295 244.0
193.461227 128.0
193.495865 216.0
193.527237 64.0
193.55043 116.0
193.594818 108.0
193.632996 124.0
193.657913 196.0
193.686081 120.0
193.713318 148.0
193.887878 68.0
193.99321 56.0
194.020096 120.0
194.140152 60.0
194.162338 92.0
194.281616 40.0
194.301041 68.0
194.392593 156.0
194.498993 144.0
194.523041 76.0
194.578568 152.0
194.606339 92.0
194.686859 52.0
194.795181 56.0
194.913467 136.0
195.103653 40.0
195.278839 120.0
195.704605 112.0
195.751938 80.0
196.041656 96.0
196.306488 240.0
196.431992 60.0
196.632889 36.0
196.7948 92.0
196.920471 120.0
197.051758 68.0
197.159622 140.0
197.97052 452.0
198.050446 156.0
198.098068 132.0
198.120483 60.0
198.989899 92.0
199.01236 96.0
199.057281 148.0
199.086029 716.0
199.166809 52.0
199.672729 72.0
199.740234 108.0
199.980896 272.0
200.063858 168.0
200.091705 512.0
200.821854 76.0
201.434372 104.0
202.033371 144.0
202.798233 76.0
202.956985 76.0
203.038498 156.0
203.192398 72.0
203.283203 48.0
203.322937 104.0
203.757385 52.0
204.049774 524.0
204.223587 76.0
204.359619 236.0
204.926727 164.0
205.043564 308.0
205.083466 100.0
205.305847 92.0
205.551178 108.0
206.06514 144.0
206.176575 56.0
206.313782 212.0
206.513947 108.0
206.588318 108.0
206.914566 104.0
207.338516 136.0
207.871918 92.0
208.061356 172.0
208.09581 184.0
208.133133 40.0
208.690552 120.0
209.116425 200.0
210.026794 184.0
211.894272 88.0
212.198593 172.0
213.284332 156.0
213.784576 92.0
215.583893 160.0
215.732956 60.0
215.820663 184.0
215.934708 40.0
216.048477 168.0
216.058182 192.0
216.112595 2104.0
216.886292 128.0
217.107941 368.0
217.3526 52.0
218.077972 180.0
218.119995 336.0
218.704483 100.0
219.077026 108.0
220.521378 72.0
221.083313 100.0
221.278671 148.0
221.299393 112.0
221.800064 136.0
221.844528 84.0
222.060989 44.0
222.11438 136.0
222.144043 96.0
222.351746 68.0
223.501785 92.0
228.083542 48.0
228.254898 44.0
230.721252 148.0
230.784744 68.0
231.059982 332.0
231.589722 112.0
232.027924 172.0
232.053375 164.0
232.951691 168.0
232.985107 328.0
233.009415 52.0
233.074875 15068.0
233.146149 160.0
233.587021 60.0
233.617447 44.0
233.748276 48.0
233.827393 80.0
234.078873 1640.0
234.165344 84.0
234.253677 64.0
234.375549 88.0
234.421249 68.0
234.500488 176.0
234.707794 48.0
234.780975 188.0
234.814529 48.0
235.070633 1040.0
235.305817 48.0
235.35466 80.0
235.510422 60.0
235.626495 40.0
235.666214 28.0
235.69371 84.0
236.07225 144.0
236.192047 40.0
237.723938 96.0
237.822144 72.0
237.963364 68.0
238.445633 52.0
239.663315 172.0
239.701233 32.0
240.071152 56.0
240.290146 84.0
244.044022 52.0
244.099991 92.0
245.635452 60.0
248.278397 132.0
249.127808 136.0
250.128998 132.0
251.143616 36.0
252.530197 108.0
255.035034 68.0
255.070007 112.0
256.104126 92.0
256.54068 108.0
259.068481 232.0
261.058502 132.0
264.048065 68.0
265.85257 116.0
268.389862 76.0
269.483307 44.0
273.049835 88.0
276.090576 140.0
279.334412 168.0
283.09259 136.0
284.866852 56.0
286.068207 184.0
287.142242 148.0
287.871185 116.0
294.203613 124.0
295.478363 144.0
298.060181 108.0
299.653259 104.0
301.067505 136.0
304.256531 92.0
307.95816 72.0
311.485382 144.0
312.751251 44.0
313.205841 80.0
318.021332 120.0
320.069061 120.0
326.010803 52.0
326.881073 112.0
331.099121 244.0
331.677277 36.0
335.541595 104.0
343.038727 132.0
346.345917 76.0
349.118378 152.0
350.879608 116.0
353.060242 104.0
358.379395 48.0
369.137024 72.0
369.25174 48.0
370.587738 140.0
371.070312 184.0
371.377441 28.0
371.791809 52.0
372.079681 140.0
372.805634 48.0
373.058411 152.0
376.96756 60.0
377.938141 52.0
386.31073 124.0
387.598816 68.0
388.085876 276.0
389.089233 136.0
389.866974 84.0
395.20224 72.0
397.00061 20.0
397.945007 44.0
413.960693 112.0
419.518951 48.0
420.804047 100.0
423.089447 72.0
429.879608 68.0
430.589661 48.0
432.864166 112.0
432.988403 132.0
439.085327 76.0
442.348602 148.0
451.402802 88.0
457.138062 132.0
458.526398 96.0
461.313629 64.0
478.040344 64.0
478.754272 44.0
483.447235 48.0
489.153015 72.0
496.035248 100.0
500.02832 72.0
500.308746 116.0
504.533539 88.0
549.55304 44.0
550.537964 120.0
575.304382 52.0
581.704712 104.0
586.081177 64.0
594.194275 72.0
595.344666 60.0
607.62085 160.0
623.536072 48.0
638.293579 68.0
643.78125 84.0
656.32019 120.0
658.187744 116.0
665.150391 64.0
716.730774 120.0
724.622437 192.0
729.694275 120.0
731.99176 60.0
736.251953 140.0
738.040588 28.0
738.927612 180.0
762.193604 128.0
770.154236 92.0
773.433105 140.0
783.356018 92.0
791.829346 160.0
794.037537 240.0
836.697815 72.0
837.872681 176.0
846.085022 160.0
862.483704 172.0
867.265747 112.0
867.371277 44.0
869.799683 156.0
872.137451 176.0
872.396118 220.0
875.084717 128.0
876.439392 180.0
883.968079 196.0
888.993225 116.0
897.773743 80.0
899.492065 160.0
900.309998 256.0
912.143188 172.0
923.672485 56.0
927.850891 188.0
928.53717 116.0
932.257568 240.0
964.3479 188.0
964.558105 176.0
969.633423 136.0
971.065613 168.0
972.039551 40.0
980.740112 192.0
981.799988 120.0
996.396912 48.0
996.767639 148.0
998.137939 116.0
999.389648 136.0
1006.063904 156.0
1007.301636 200.0
1014.230347 144.0
1014.693115 108.0
1017.344971 168.0
1020.318115 188.0
1028.516602 116.0
1034.486938 180.0
1040.667114 140.0
1040.930298 228.0
1042.356323 92.0
1042.819092 172.0
1047.05896 152.0
1052.99231 148.0
1055.551392 156.0
1059.434814 124.0
1060.497437 220.0
1062.877441 212.0
1065.110718 164.0
1069.057129 196.0
1070.684692 172.0
1078.442017 148.0
1080.613037 256.0
1082.845337 88.0
1085.66333 96.0
1087.054077 52.0
1087.966431 228.0
1091.231567 128.0
1091.46167 132.0
1094.850586 156.0
1100.587524 152.0
1101.974609 124.0
1106.306396 160.0
1109.585693 208.0
1109.764648 216.0
1113.049072 200.0
1116.245239 208.0
1118.986572 140.0
1120.118652 120.0
1122.778076 256.0
1127.872314 192.0
1132.978027 164.0
1133.661499 140.0
1136.377197 192.0
1137.108643 108.0
1139.680542 260.0
1139.861938 104.0
1141.018066 132.0
1142.820435 64.0
1145.324829 88.0
1146.193848 108.0
1148.02063 184.0
1149.869141 128.0
1151.448975 144.0
1154.53064 104.0
1155.741455 160.0
1158.307251 140.0
1158.734131 140.0
1159.757324 216.0
1162.524414 156.0
1165.043335 172.0
1167.721558 240.0
1168.980103 140.0
1169.470093 132.0
1170.150757 180.0
1171.79895 76.0
1172.091919 188.0
1172.146484 132.0
1173.196045 136.0
1175.501343 180.0
1177.740723 168.0
1182.937378 36.0
1183.081177 96.0
1185.457886 164.0
1187.50769 164.0
1187.58313 200.0
1189.188599 124.0
1192.499146 212.0
1192.980225 240.0
1193.200317 204.0
1198.127808 192.0
1199.02356 124.0
1203.09314 128.0
1203.244995 192.0
1203.501587 184.0
1203.887207 172.0
1205.095947 116.0
1206.008179 116.0
1207.079712 148.0
1207.448975 172.0
1207.805908 52.0
1208.186401 156.0
1210.408081 108.0
1211.183716 92.0
1216.967407 188.0
1219.961792 172.0
1220.420654 68.0
1222.117676 180.0
1224.630737 180.0
1224.7771 128.0
1227.829712 80.0
1230.467407 152.0
1232.185425 164.0
1233.541138 152.0
1237.290771 84.0
1239.595093 192.0
1240.996948 132.0
1241.670166 120.0
1241.733276 96.0
1243.360962 208.0
1244.203247 180.0
1244.484131 188.0
1246.738892 180.0
1248.19397 148.0
1248.883179 184.0
1250.269165 212.0
1250.353638 148.0
1250.825195 212.0
1251.057495 140.0
1251.141968 136.0
1251.346191 44.0
1252.494019 128.0
1253.663574 268.0
1253.846802 128.0
1254.079346 208.0
1256.526367 192.0
1257.260132 48.0
1258.043579 260.0
1258.453125 128.0
1259.053345 172.0
1260.805298 60.0
1261.024414 164.0
1261.179932 136.0
1261.307129 180.0
1261.9646 192.0
1262.113037 216.0
1263.591309 140.0
1264.61731 160.0
1264.879272 176.0
1265.077393 104.0
1267.967285 172.0
1268.427979 164.0
1268.555664 36.0
1269.264648 132.0
1269.335571 128.0
1269.952515 140.0
1272.237305 188.0
1272.961548 108.0
1274.296875 156.0
1274.552734 140.0
1275.547607 148.0
1278.022583 164.0
1278.769775 140.0
1279.21106 124.0
1280.34314 120.0
1281.233521 136.0
1285.61853 148.0
1286.22522 136.0
1287.267578 240.0
1290.683105 216.0
1290.883301 180.0
1291.469849 148.0
1294.325195 112.0
1294.454102 84.0
1297.850464 172.0
1297.90918 276.0
1298.1875 180.0
1299.622192 124.0
1299.822998 184.0
1300.24646 164.0
1300.476074 80.0
1301.122192 136.0
1303.226562 112.0
1304.757324 188.0
1305.382935 148.0
1305.497925 200.0
1306.253174 100.0
1307.454712 128.0
1307.684937 136.0
1310.515015 136.0
1311.005005 176.0
1311.401367 124.0
1312.309692 172.0
1312.482788 40.0
1314.408691 224.0
1315.289062 188.0
1319.457275 68.0
1319.840454 120.0
1320.281616 124.0
1322.177002 164.0
1323.776855 136.0
1323.943481 160.0
1324.189697 112.0
1324.551758 248.0
1325.131348 180.0
1325.218262 156.0
1325.595093 152.0
1326.689453 128.0
1326.776489 124.0
1327.304077 192.0
1327.545044 172.0
1327.965698 148.0
1329.569092 152.0
1330.120728 188.0
1330.432861 144.0
1330.715942 232.0
1330.942993 168.0
1331.703491 144.0
1331.892334 184.0
1332.800537 168.0
1333.185669 84.0
1333.403687 164.0
1334.334106 32.0
1337.818726 152.0
1338.723755 180.0
1341.62146 112.0
1344.429565 108.0
1345.604736 168.0
1345.721558 148.0
1346.415283 120.0
1346.743896 204.0
1347.065308 156.0
1347.657104 116.0
1347.795898 188.0
1350.087891 252.0
1352.694702 164.0
1352.820312 132.0
1353.083862 156.0
1353.589111 144.0
1354.709717 200.0
1355.822754 232.0
1359.218628 72.0
1360.429565 168.0
1360.715942 148.0
1361.362061 124.0
1362.353638 176.0
1362.889893 212.0
1363.67627 144.0
1363.896729 152.0
1364.227539 112.0
1364.580444 168.0
1364.867188 184.0
1364.970093 188.0
1367.896729 188.0
1369.208862 156.0
1370.895874 204.0
1370.976929 164.0
1371.691895 212.0
1371.809814 40.0
1372.370117 240.0
1374.295166 180.0
1375.129761 72.0
1375.217529 168.0
1375.527588 136.0
1376.221558 180.0
1376.347046 124.0
1378.186279 200.0
1379.109985 76.0
1379.353882 216.0
1380.847412 152.0
1382.637817 164.0
1383.16333 128.0
1383.89624 164.0
1384.22937 152.0
1384.310913 116.0
1387.514893 132.0
1388.527588 168.0
1390.797974 136.0
1391.206177 164.0
1391.295288 124.0
1392.14917 184.0
1392.617065 160.0
1393.753662 204.0
1395.559814 188.0
1397.277832 140.0
1397.940063 160.0
1398.170776 52.0
1398.654541 264.0
1400.076538 76.0
1401.067139 132.0
1402.661865 36.0
1402.863159 64.0
1408.930298 72.0
1413.191772 168.0
1414.149658 76.0
1416.30603 104.0
1418.044189 200.0
1418.628906 140.0
1419.491089 144.0
1419.971069 160.0
1421.148804 128.0
1423.43811 108.0
1425.887085 168.0
1426.450806 152.0
1426.749756 172.0
1428.842163 132.0
1430.129028 228.0
1430.565552 152.0
1430.979614 116.0
1432.109131 132.0
1432.229736 72.0
1432.455688 64.0
1433.19397 180.0
1434.294189 248.0
1434.596558 192.0
1435.787109 192.0
1436.126465 164.0
1436.217041 168.0
1436.571533 96.0
1436.72998 168.0
1437.310913 228.0
1438.035278 180.0
1439.560303 156.0
1440.542236 44.0
1441.282593 176.0
1443.240234 168.0
1444.291382 164.0
1444.631836 124.0
1446.644653 212.0
1446.833984 124.0
1447.454834 112.0
1447.787964 100.0
1448.651489 180.0
1448.825684 156.0
1450.189575 136.0
1453.025635 128.0
1453.109131 176.0
1453.260864 76.0
1453.996948 268.0
1454.960938 196.0
1455.203857 148.0
1455.910034 272.0
1456.768311 136.0
1457.588867 200.0
1458.052368 144.0
1458.204346 172.0
1459.268555 92.0
1459.785645 264.0
1460.082275 48.0
1461.230835 236.0
1461.344971 128.0
1461.672119 92.0
1462.121094 184.0
1462.288574 120.0
1464.229858 164.0
1465.182007 148.0
1465.364868 136.0
1466.56897 172.0
1466.927124 180.0
1468.330078 140.0
1469.077637 160.0
1469.687988 132.0
1470.290771 224.0
1470.577759 228.0
1470.733398 120.0
1471.015869 184.0
1472.871338 176.0
1473.55127 160.0
1473.74231 84.0
1474.116699 184.0
1475.385498 128.0
1476.280029 176.0
1476.402344 180.0
1477.136597 172.0
1479.210327 188.0
1479.424683 196.0
1479.896606 200.0
1480.461426 200.0
1481.57666 208.0
1485.271484 208.0
1487.166626 208.0
1487.427612 104.0
1489.623657 72.0
1490.368896 148.0
1490.975952 148.0
1492.95166 216.0
1493.320923 120.0
1494.151611 172.0
1494.413208 212.0
1495.352051 148.0
1497.11499 128.0
1497.207397 112.0
1498.031494 148.0
1498.809692 156.0
1499.480103 200.0
1499.557129 136.0
1499.742188 32.0
1500.613281 128.0
1501.01416 152.0
1501.605225 56.0
1501.916504 120.0
1502.811401 156.0
1502.988892 148.0
1503.976685 76.0
