>compound MLS002172470-01!SKF-86466 hydrochloride
>formula C11H14ClN
>ionization [M+H]+
>parentmass 196.089157
#inchi InChI=1S/C11H14ClN/c1-13-7-5-9-3-2-4-11(12)10(9)6-8-13/h2-4H,5-8H2,1H3
#inchikey RSRUDTPYRBLHEO
#origInchi InChI=1S/C11H14ClN.ClH/c1-13-7-5-9-3-2-4-11(12)10(9)6-8-13;/h2-4H,5-8H2,1H3;1H
#Ion_Source LC-ESI
#Instrument qTof
#Compound_Source NIH Pharmacologically Active Library
#PI Dorrestein
#Data_Collector VP/LMS
#Scan -1
#Precursor_MZ 196.094
#ExactMass 195.081
#Charge 1
#CAS_Number N/A
#Pubmed_ID N/A
#Smiles CN1CCc2cccc(Cl)c2CC1.Cl
#INCHI_AUX N/A
#Library_Class 1
#SpectrumID CCMSLIB00000085542
#IonMode Positive
#UpdateWorkflowName UPDATE-SINGLE-ANNOTATED-GOLD
#LibraryQualityString Gold
#TaskID d252d724072548979f1f6f1ced849daf
##Scan# 1264
#SpectrumFile p4-C05_GC5_01_18353.mzXML
#LibraryName Pharm_Active_Library.mgf
#MQScore -1
#Organism Pharm_Active_Library
#TIC_Query 0
#RT_Query -1
#MZErrorPPM -1
#SharedPeaks 0
#MassDiff 0
#LibMZ -1
#SpecMZ 196.094
#SpecCharge 0
#internalFilename spec-00000.mgf

>collision 10
45.053356 192.0
45.180359 172.0
45.203106 120.0
45.287445 208.0
45.370525 104.0
45.386616 120.0
45.398682 180.0
45.417458 156.0
45.426849 188.0
45.440266 160.0
45.450996 188.0
45.473812 228.0
45.514084 136.0
45.523483 148.0
45.618877 216.0
45.725136 40.0
45.826485 168.0
45.880039 172.0
46.023052 216.0
46.074375 160.0
46.162228 188.0
46.297554 220.0
46.503628 144.0
46.570156 172.0
46.630615 180.0
46.670715 36.0
46.693836 136.0
46.872284 188.0
46.889881 220.0
46.975784 48.0
47.031727 184.0
47.112293 180.0
47.288685 204.0
47.314693 124.0
47.325645 76.0
47.363991 116.0
47.379059 152.0
47.514782 236.0
47.550461 204.0
47.571602 236.0
47.587524 92.0
47.63559 108.0
47.70155 160.0
47.906586 172.0
47.917606 184.0
48.069279 160.0
48.164536 40.0
48.233627 212.0
48.327667 248.0
48.425953 168.0
48.482754 132.0
48.493839 68.0
48.554844 200.0
48.640865 136.0
48.713074 40.0
48.756145 220.0
48.807579 156.0
48.881302 128.0
48.909138 192.0
49.017765 180.0
49.034489 196.0
49.182331 216.0
49.214439 128.0
49.227005 84.0
49.304569 188.0
49.343998 164.0
49.482323 160.0
49.635605 112.0
49.662251 156.0
49.698723 172.0
49.728195 112.0
49.777328 36.0
49.81525 236.0
49.907425 204.0
49.931911 84.0
49.985367 168.0
50.088699 152.0
50.14357 236.0
50.182564 152.0
50.21759 176.0
50.246029 168.0
50.27425 152.0
50.299652 220.0
50.37167 176.0
50.45787 132.0
50.664196 172.0
50.679523 184.0
50.838894 196.0
50.951065 108.0
50.997955 144.0
51.106033 124.0
51.175999 128.0
51.258389 196.0
51.402409 176.0
51.428097 156.0
51.500916 196.0
51.510914 148.0
51.547512 208.0
51.691055 224.0
51.701073 124.0
51.713955 208.0
51.850014 356.0
51.915958 148.0
51.935669 248.0
52.047974 196.0
52.147099 136.0
52.160034 184.0
52.183037 212.0
52.37011 192.0
52.398918 164.0
52.654236 240.0
52.671566 220.0
52.778511 160.0
52.853725 124.0
52.902931 136.0
52.955059 160.0
53.005764 188.0
53.043446 108.0
53.110146 216.0
53.136257 136.0
53.265457 136.0
53.31004 128.0
53.326481 196.0
53.370094 200.0
53.426815 152.0
53.615879 184.0
53.683159 204.0
53.71233 112.0
53.807182 84.0
53.832005 204.0
53.856834 160.0
53.909428 56.0
54.260715 124.0
54.345783 208.0
54.381001 164.0
54.417702 100.0
54.430916 60.0
54.501419 196.0
54.520523 116.0
54.598438 180.0
54.666107 164.0
54.71468 220.0
54.78883 104.0
54.988853 212.0
55.018375 44.0
55.037567 160.0
55.056763 152.0
55.161667 136.0
55.2075 132.0
55.307064 148.0
55.324387 156.0
55.371998 156.0
55.453255 108.0
55.497925 152.0
55.521454 164.0
55.567436 132.0
55.595631 144.0
55.64016 136.0
55.678764 160.0
55.816967 176.0
55.867535 232.0
56.001499 224.0
56.020866 192.0
56.098354 188.0
56.192307 100.0
56.438332 172.0
56.529995 256.0
56.595856 160.0
56.65876 116.0
56.689404 212.0
56.775673 204.0
56.837177 184.0
57.039921 184.0
57.065479 172.0
57.250557 116.0
57.434429 196.0
57.506851 164.0
57.54768 196.0
57.597446 200.0
57.703228 172.0
57.818188 200.0
57.898422 204.0
58.07423 248.0
58.201706 60.0
58.233597 128.0
58.27309 120.0
58.327801 164.0
58.364285 40.0
58.390137 44.0
58.441856 148.0
58.455551 144.0
58.495121 140.0
58.603249 92.0
58.618488 184.0
58.726727 164.0
58.776737 184.0
58.806065 192.0
58.891567 144.0
58.980186 116.0
59.012291 160.0
59.207424 184.0
59.422752 108.0
59.459904 152.0
59.520985 80.0
59.579346 156.0
59.613148 36.0
59.623905 44.0
59.893154 248.0
59.943996 224.0
60.00565 212.0
60.017803 172.0
60.033401 112.0
60.122879 160.0
60.405624 136.0
60.425735 204.0
60.467514 204.0
60.693684 160.0
60.718494 152.0
60.816238 164.0
60.836418 136.0
60.920273 136.0
61.000332 168.0
61.04306 256.0
61.1115 128.0
61.139507 160.0
61.186203 84.0
61.228302 176.0
61.348221 80.0
61.441196 168.0
61.449883 192.0
61.532227 152.0
61.718235 188.0
61.777664 100.0
61.798 56.0
61.886345 156.0
61.948296 96.0
62.020374 172.0
62.083088 204.0
62.145828 148.0
62.192909 252.0
62.213314 48.0
62.252567 192.0
62.276123 124.0
62.316967 204.0
62.334251 208.0
62.348072 176.0
62.415989 192.0
62.461597 136.0
62.603245 148.0
62.700916 180.0
63.108181 124.0
63.19873 60.0
63.309139 172.0
63.421623 148.0
63.466011 180.0
63.55801 128.0
63.661186 48.0
63.696129 188.0
63.753326 148.0
63.773987 92.0
63.851891 128.0
63.866131 176.0
63.937801 228.0
64.103416 180.0
64.138039 288.0
64.163986 176.0
64.22139 132.0
64.301163 176.0
64.374947 204.0
64.561569 104.0
64.584679 252.0
64.673241 180.0
64.724792 240.0
64.817696 196.0
64.88501 180.0
64.933121 28.0
65.112869 196.0
65.336296 152.0
65.532791 160.0
65.71006 88.0
65.829498 160.0
65.88765 76.0
65.900574 204.0
65.939552 164.0
66.026657 92.0
66.24678 208.0
66.546806 44.0
66.7174 164.0
66.839378 204.0
66.881691 168.0
67.139107 188.0
67.161942 96.0
67.196198 152.0
67.308823 152.0
67.361084 124.0
67.413368 164.0
67.486923 168.0
67.571968 224.0
67.693092 176.0
67.776894 148.0
67.794655 96.0
67.868416 64.0
67.984886 168.0
68.066963 172.0
68.193459 220.0
68.341454 184.0
68.39576 124.0
68.431976 212.0
68.545631 136.0
68.585182 156.0
68.63134 100.0
68.66597 160.0
68.768265 200.0
68.991257 172.0
69.045822 152.0
69.294113 60.0
69.380295 248.0
69.577713 136.0
69.622543 168.0
69.684006 56.0
69.753799 168.0
69.811989 164.0
69.825294 176.0
69.910141 156.0
69.921791 92.0
70.046661 220.0
70.11998 244.0
70.18499 228.0
70.225014 212.0
70.26004 148.0
70.278397 204.0
70.311768 132.0
70.448685 108.0
70.540588 176.0
70.788208 200.0
70.895416 100.0
70.985939 160.0
71.096657 168.0
71.116798 172.0
71.212494 216.0
71.353653 68.0
71.382233 160.0
71.405777 164.0
71.417549 124.0
71.577423 144.0
71.675125 176.0
71.718941 160.0
72.186584 140.0
72.218483 172.0
72.26889 156.0
72.317413 72.0
72.440735 120.0
72.486198 184.0
72.518402 196.0
72.77285 156.0
72.91214 268.0
73.102608 84.0
73.13324 128.0
73.206451 232.0
73.378464 168.0
73.405823 60.0
73.50988 88.0
73.648163 200.0
73.685745 212.0
73.762642 140.0
73.9217 132.0
74.027832 168.0
74.110054 180.0
74.220146 156.0
74.247185 164.0
74.348404 212.0
74.375862 152.0
74.432518 160.0
74.451408 152.0
74.595734 48.0
74.631035 164.0
74.728149 92.0
74.833138 196.0
74.879631 184.0
74.936478 124.0
74.998512 180.0
75.015755 172.0
75.046783 144.0
75.12957 160.0
75.236565 204.0
75.307358 132.0
75.388557 248.0
75.450783 168.0
75.609917 160.0
75.72245 236.0
75.816002 136.0
75.888802 172.0
75.921745 140.0
75.954704 184.0
76.116104 44.0
76.248123 128.0
76.319397 116.0
76.336784 196.0
76.423759 208.0
76.465523 192.0
76.583916 144.0
76.603844 280.0
76.630943 180.0
76.653595 172.0
76.668144 196.0
76.690193 172.0
76.716339 216.0
76.739006 224.0
76.79792 112.0
76.897743 148.0
77.187737 144.0
77.28569 188.0
77.36795 116.0
77.487038 176.0
77.606216 136.0
77.741974 204.0
77.762344 120.0
77.788673 60.0
77.883492 148.0
77.902809 240.0
77.918625 176.0
77.997704 188.0
78.080338 120.0
78.183365 128.0
78.275673 240.0
78.439514 188.0
78.62648 140.0
78.771255 44.0
79.029366 200.0
79.155037 196.0
79.284355 60.0
79.465225 152.0
79.491837 144.0
79.56218 152.0
79.792007 76.0
79.889824 200.0
79.977013 160.0
80.017952 140.0
80.057129 148.0
80.103432 72.0
80.167572 144.0
80.199654 108.0
80.377991 224.0
80.427963 52.0
80.451164 140.0
80.502945 136.0
80.529732 48.0
80.554741 156.0
80.57618 136.0
80.753143 176.0
80.876602 72.0
80.969696 160.0
81.13887 184.0
81.252914 220.0
81.279823 136.0
81.398293 84.0
81.52404 180.0
81.545021 148.0
81.631897 208.0
81.689445 168.0
81.741623 188.0
81.793816 124.0
81.928581 148.0
82.085678 100.0
82.103256 176.0
82.132568 164.0
82.205765 252.0
82.392509 236.0
82.405159 88.0
82.594971 240.0
82.745171 124.0
82.799492 156.0
82.902756 160.0
83.062302 164.0
83.089508 224.0
83.122169 184.0
83.172989 192.0
83.372765 144.0
83.387306 164.0
83.410934 148.0
83.590988 200.0
83.605545 128.0
83.645584 68.0
83.667427 164.0
83.922493 108.0
83.948021 152.0
83.999092 136.0
84.048347 144.0
84.346031 168.0
84.396339 160.0
84.539894 216.0
84.5765 112.0
84.607613 96.0
84.668037 68.0
84.759636 48.0
84.781624 184.0
84.869606 140.0
84.898949 132.0
84.93013 192.0
84.99984 144.0
85.06591 196.0
85.339645 60.0
85.392975 176.0
85.426079 164.0
85.595398 208.0
85.709602 216.0
85.982521 168.0
86.193039 160.0
86.433418 140.0
86.446373 252.0
86.544479 188.0
86.583366 188.0
86.607361 184.0
86.624115 140.0
86.703781 176.0
86.800179 32.0
86.813156 188.0
87.097115 204.0
87.3834 176.0
87.398277 136.0
87.420609 176.0
87.554642 192.0
87.568237 264.0
87.704498 204.0
87.811836 104.0
88.110878 156.0
88.192238 236.0
88.267494 148.0
88.288063 116.0
88.372612 160.0
88.488281 152.0
88.529472 168.0
88.544456 228.0
88.985115 220.0
89.038467 292.0
89.060226 140.0
89.073372 56.0
89.182358 196.0
89.238747 64.0
89.394989 124.0
89.429413 192.0
89.449448 208.0
89.498398 164.0
89.537941 168.0
89.658516 248.0
89.728256 140.0
89.890465 68.0
89.903671 40.0
90.039597 152.0
90.23233 124.0
90.25502 132.0
90.307976 168.0
90.429062 128.0
90.527504 184.0
90.584328 264.0
90.796608 124.0
90.825058 168.0
90.942696 112.0
90.967369 220.0
91.056923 564.0
91.107895 124.0
91.126892 64.0
91.233322 52.0
91.273247 152.0
91.707291 132.0
91.728256 164.0
91.772102 172.0
91.83429 164.0
92.02729 492.0
92.054703 228.0
92.077423 100.0
92.104164 216.0
92.308655 184.0
92.346901 152.0
92.459778 224.0
92.528687 164.0
92.551666 164.0
92.639763 356.0
92.664665 68.0
92.794991 48.0
92.883209 72.0
92.908142 192.0
93.109688 160.0
93.123131 152.0
93.179779 196.0
93.226875 92.0
93.280685 180.0
93.411446 52.0
93.449921 152.0
93.661682 136.0
93.748375 116.0
93.981697 236.0
94.026077 200.0
94.091705 108.0
94.176674 188.0
94.265541 112.0
94.340919 232.0
94.377655 188.0
94.455009 100.0
94.508858 240.0
94.617561 92.0
94.640793 40.0
94.687271 140.0
94.784737 204.0
94.840324 132.0
94.90818 88.0
94.985756 148.0
95.057533 144.0
95.197304 136.0
95.280823 196.0
95.368263 172.0
95.589966 140.0
95.663277 168.0
95.78466 168.0
96.008797 148.0
96.038048 184.0
96.080963 188.0
96.233192 144.0
96.264435 212.0
96.588791 208.0
96.671036 160.0
96.727791 216.0
96.743454 200.0
96.782608 128.0
96.811981 36.0
96.874657 120.0
96.902084 204.0
96.919716 124.0
96.976547 132.0
96.996147 180.0
97.019669 124.0
97.331619 124.0
97.349297 136.0
97.478943 224.0
98.01416 84.0
98.240891 192.0
98.284294 104.0
98.442207 176.0
98.479736 180.0
98.517265 180.0
98.535042 124.0
98.602226 144.0
98.78215 164.0
98.795998 160.0
99.000366 900.0
99.231697 212.0
99.406242 228.0
99.430061 256.0
99.515411 92.0
99.666367 328.0
99.835327 164.0
99.863167 244.0
100.005287 280.0
100.072113 180.0
100.096008 208.0
100.135834 128.0
100.370987 68.0
100.497841 140.0
100.594437 124.0
100.638359 168.0
100.656136 136.0
100.995445 296.0
101.038925 376.0
101.068085 112.0
101.114342 172.0
101.178162 180.0
101.210197 96.0
101.356415 160.0
101.386475 176.0
101.580963 176.0
101.597008 184.0
101.64315 56.0
101.908195 124.0
101.956421 116.0
101.998627 96.0
102.046967 624.0
102.165527 152.0
102.310822 224.0
102.422195 140.0
102.501762 188.0
102.588425 124.0
102.657372 184.0
102.856712 148.0
102.925354 148.0
102.989975 132.0
103.013092 440.0
103.054443 4136.0
103.089493 92.0
103.153641 152.0
103.214294 196.0
103.335655 108.0
103.48542 164.0
103.51487 184.0
103.590729 176.0
103.831932 164.0
103.918404 280.0
103.963799 120.0
104.059601 940.0
104.081528 40.0
104.103867 48.0
104.132301 132.0
104.233871 80.0
104.258255 96.0
104.282646 104.0
104.337379 160.0
104.406662 176.0
104.422928 152.0
104.447334 164.0
104.498192 136.0
104.553139 176.0
104.610123 136.0
104.709892 136.0
104.738411 56.0
104.797485 92.0
104.991135 48.0
105.02816 156.0
105.070709 792.0
105.11676 128.0
105.154343 80.0
105.186394 240.0
105.352409 92.0
105.409615 160.0
105.505676 36.0
105.587463 112.0
105.734764 64.0
105.830978 116.0
105.878075 240.0
105.945663 112.0
105.984596 164.0
106.069061 312.0
106.099365 172.0
106.18959 144.0
106.353729 124.0
106.378357 140.0
106.409157 164.0
106.433792 164.0
106.466644 160.0
106.522102 164.0
106.62278 180.0
106.643333 164.0
106.683083 140.0
106.734947 192.0
106.797539 120.0
106.853081 136.0
106.972435 192.0
107.055046 128.0
107.083626 164.0
107.209297 188.0
107.275246 196.0
107.318542 128.0
107.357719 200.0
107.440224 252.0
107.491806 172.0
107.512444 164.0
107.551651 216.0
107.625977 272.0
107.644554 152.0
107.683792 176.0
107.72097 84.0
107.770554 148.0
107.793282 124.0
107.933846 200.0
107.964859 120.0
107.983475 180.0
108.00209 96.0
108.049126 112.0
108.06208 164.0
108.257683 144.0
108.30838 176.0
108.331215 152.0
108.3685 144.0
108.445175 188.0
108.521782 92.0
108.619347 224.0
108.667061 328.0
109.111504 124.0
109.384018 164.0
109.408997 140.0
109.4319 180.0
109.677719 152.0
109.806732 196.0
110.157646 132.0
110.207787 156.0
110.301826 212.0
110.590469 148.0
110.672112 236.0
110.957054 188.0
110.990601 176.0
111.089172 116.0
111.517517 144.0
111.736206 48.0
111.835114 200.0
111.862473 108.0
111.938271 136.0
111.959328 184.0
112.066757 164.0
112.226936 148.0
112.433662 168.0
112.553986 128.0
112.589882 132.0
112.665924 128.0
112.69973 160.0
112.754669 252.0
112.809624 72.0
112.832878 208.0
112.858246 132.0
113.012077 148.0
113.152336 172.0
113.177742 200.0
113.296349 116.0
113.378983 192.0
113.408653 132.0
113.5401 276.0
113.610092 148.0
113.671623 140.0
113.716187 80.0
113.741661 148.0
113.775627 160.0
113.913658 156.0
113.962059 184.0
113.992264 40.0
114.0522 192.0
114.251663 108.0
114.296341 164.0
114.321877 160.0
114.348892 224.0
114.590164 204.0
114.6754 120.0
114.728691 116.0
114.777725 136.0
114.794785 92.0
114.824638 208.0
114.918495 152.0
115.012398 128.0
115.05484 18180.0
115.145416 92.0
115.198166 92.0
115.240898 44.0
115.264397 208.0
115.315041 156.0
115.337456 152.0
115.363487 212.0
115.433266 60.0
115.471756 112.0
115.538071 40.0
115.583 40.0
115.606537 68.0
115.744232 132.0
115.784973 148.0
115.839912 48.0
115.87204 232.0
116.009201 192.0
116.034492 220.0
116.059814 2328.0
116.105682 196.0
116.309509 36.0
116.760696 60.0
116.792961 108.0
116.835983 148.0
116.919899 72.0
116.978012 128.0
117.012978 172.0
117.069618 6852.0
117.165359 56.0
117.247238 48.0
117.275261 140.0
117.322678 176.0
117.355019 128.0
117.372269 224.0
117.484421 60.0
117.514626 108.0
117.58799 152.0
117.739113 76.0
117.777992 152.0
117.862244 140.0
117.927078 180.0
117.985435 96.0
118.073067 1120.0
118.110863 160.0
118.305611 188.0
118.379227 116.0
118.422539 148.0
118.444199 132.0
118.494019 156.0
118.720093 188.0
118.79261 360.0
118.849594 112.0
118.945084 88.0
118.997185 108.0
119.057983 140.0
119.085915 936.0
119.311478 232.0
119.460083 140.0
119.492714 152.0
119.566696 156.0
119.86721 92.0
119.958748 180.0
120.020729 196.0
120.080208 176.0
120.207382 236.0
120.255394 84.0
120.287704 204.0
120.336159 100.0
120.486855 160.0
120.572075 164.0
120.650764 144.0
120.674812 152.0
120.697937 104.0
120.728333 84.0
120.900848 236.0
120.941696 136.0
120.957016 152.0
121.031448 244.0
121.127808 136.0
121.27681 224.0
121.66507 144.0
121.959419 168.0
122.045151 116.0
122.15731 208.0
122.214516 204.0
122.267326 148.0
122.395004 64.0
122.917404 188.0
122.954918 184.0
123.06308 100.0
123.133743 120.0
123.160248 156.0
123.288391 244.0
123.334801 160.0
123.367958 44.0
123.597969 228.0
123.896866 160.0
123.912369 224.0
123.989281 152.0
124.138451 80.0
124.59568 116.0
124.642342 112.0
124.65789 148.0
124.675674 180.0
124.697899 160.0
124.753464 188.0
124.769028 168.0
124.92247 100.0
124.938042 196.0
124.964737 200.0
125.0158 17528.0
125.089363 32.0
125.136673 96.0
125.194008 48.0
125.26973 100.0
125.285324 56.0
125.316513 64.0
125.338799 100.0
125.367767 32.0
125.443993 100.0
125.740196 56.0
125.865204 160.0
125.892006 48.0
126.01796 1632.0
126.046242 380.0
126.146706 132.0
126.236137 84.0
126.267448 212.0
126.28981 228.0
126.350204 100.0
126.377052 36.0
126.419571 72.0
126.515816 132.0
126.712891 120.0
126.775627 112.0
126.820358 192.0
126.883217 148.0
126.903397 176.0
126.921333 240.0
126.960182 264.0
127.012917 3004.0
127.054276 2012.0
127.087311 40.0
127.137672 108.0
127.182503 192.0
127.237686 60.0
127.291107 156.0
127.336487 56.0
127.365685 40.0
127.401627 264.0
127.463806 260.0
127.765808 52.0
127.860313 176.0
127.876068 160.0
127.91433 76.0
127.996361 220.0
128.013519 304.0
128.063126 13720.0
128.107986 28.0
128.162064 288.0
128.186584 180.0
128.203552 68.0
128.234177 168.0
128.276535 168.0
128.388184 152.0
128.443863 76.0
128.47319 180.0
128.509033 164.0
128.592773 156.0
128.616974 144.0
128.662567 200.0
128.783554 184.0
128.825348 196.0
128.852615 172.0
128.897644 156.0
128.947357 220.0
128.992249 232.0
129.019699 44.0
129.070358 26064.0
129.11705 244.0
129.207901 36.0
129.241333 236.0
129.270752 100.0
129.298096 48.0
129.417877 28.0
129.467697 52.0
129.492615 40.0
129.517517 44.0
129.543625 100.0
129.601349 32.0
129.73732 64.0
129.757736 56.0
129.816681 176.0
129.839355 92.0
129.865677 104.0
129.910934 172.0
129.949158 208.0
130.020859 176.0
130.077637 19284.0
130.127533 44.0
130.150208 212.0
130.200821 44.0
130.26152 32.0
130.289536 96.0
130.347855 32.0
130.378098 116.0
130.418304 56.0
130.450912 164.0
130.661621 76.0
130.795883 96.0
130.830032 104.0
130.867264 112.0
131.0 132.0
131.024551 240.0
131.050735 272.0
131.075302 3164.0
131.121307 164.0
131.203644 44.0
131.342743 76.0
131.452255 68.0
131.472794 188.0
131.520981 136.0
131.596054 84.0
131.628021 168.0
131.659988 76.0
131.810745 92.0
131.833603 180.0
131.893768 112.0
131.922745 116.0
131.969604 148.0
132.009872 72.0
132.080856 2476.0
132.16745 88.0
132.382629 108.0
132.686554 124.0
132.729309 108.0
132.763031 52.0
132.990158 184.0
133.087845 484.0
133.111832 156.0
133.316284 76.0
133.378326 40.0
133.652008 40.0
133.746353 92.0
133.896011 260.0
134.094147 140.0
134.151764 112.0
134.250916 96.0
134.301651 84.0
134.456223 164.0
134.490845 124.0
134.76796 208.0
135.274445 104.0
135.316116 140.0
135.480545 168.0
135.536148 64.0
135.654343 160.0
135.714615 224.0
135.928009 152.0
136.276291 140.0
136.297211 124.0
136.743698 244.0
136.773621 112.0
136.877228 200.0
136.911316 32.0
137.013992 368.0
137.487137 104.0
137.715942 100.0
137.76265 112.0
137.821167 168.0
137.942581 124.0
137.963623 116.0
138.024094 1560.0
138.239624 200.0
138.387085 168.0
138.454987 80.0
138.609589 152.0
138.649429 220.0
138.968338 128.0
139.030731 3952.0
139.165497 224.0
139.339294 84.0
139.717789 128.0
139.835449 64.0
139.929596 60.0
140.019165 528.0
140.032745 604.0
140.153351 88.0
140.220703 48.0
140.254684 76.0
140.306549 68.0
140.327759 64.0
140.358414 168.0
140.537674 164.0
140.589584 32.0
140.629715 132.0
141.027863 1556.0
141.324463 104.0
141.390732 188.0
141.779114 128.0
142.077866 116.0
142.455322 172.0
142.962418 144.0
143.016495 148.0
143.04982 108.0
143.069626 324.0
143.51915 120.0
143.626465 240.0
144.034622 56.0
144.080826 1428.0
144.142136 136.0
144.201874 84.0
144.240112 136.0
144.5271 120.0
144.663513 136.0
144.742523 32.0
145.06427 576.0
145.089737 1420.0
145.221817 48.0
145.502563 176.0
145.625031 164.0
145.65625 100.0
145.685074 160.0
146.067734 184.0
146.095657 2588.0
146.170746 48.0
146.218872 72.0
146.264603 180.0
146.449997 60.0
146.551178 80.0
146.599365 64.0
147.045517 36.0
147.080841 160.0
147.100266 368.0
147.139664 132.0
147.185532 76.0
147.279709 72.0
147.429504 92.0
147.569702 188.0
147.947113 80.0
147.981003 136.0
148.000381 36.0
148.208679 172.0
148.946182 200.0
149.014847 424.0
149.442108 136.0
149.534576 36.0
149.714737 88.0
149.953476 136.0
150.02417 1020.0
150.854156 144.0
150.890823 204.0
151.029556 528.0
152.026947 552.0
152.299866 180.0
152.353912 172.0
152.503799 64.0
152.688187 136.0
152.833328 184.0
152.904694 212.0
153.044632 2472.0
153.118881 188.0
153.185379 52.0
153.61676 168.0
154.022903 328.0
154.0327 176.0
154.052719 788.0
154.498672 64.0
154.575363 120.0
154.699112 132.0
154.978973 200.0
155.008698 180.0
155.061066 2220.0
155.236465 104.0
155.340927 76.0
156.070343 256.0
156.33226 176.0
156.436798 156.0
156.636002 184.0
156.89267 104.0
156.964844 148.0
157.06636 220.0
157.070831 144.0
157.671432 92.0
157.781418 132.0
157.871429 88.0
158.097641 844.0
158.141617 40.0
158.244263 204.0
158.312637 144.0
158.722824 208.0
158.880829 212.0
158.928497 148.0
158.986206 192.0
159.101639 872.0
159.292526 148.0
159.679596 192.0
160.016785 168.0
160.111908 2132.0
160.266129 64.0
160.740158 112.0
160.808304 188.0
160.972397 160.0
161.120102 3452.0
161.262924 156.0
161.280609 84.0
161.379196 104.0
161.4263 96.0
161.634659 128.0
161.7612 180.0
161.940979 76.0
162.125549 160.0
162.414948 144.0
163.030899 512.0
163.207291 128.0
163.23526 152.0
163.774048 208.0
163.807892 104.0
164.025711 460.0
164.052536 192.0
164.437683 80.0
164.989426 140.0
165.046585 4224.0
165.196564 48.0
165.343643 116.0
165.549759 64.0
165.603546 144.0
165.729065 64.0
165.867447 76.0
165.900772 144.0
166.042984 2348.0
166.077713 128.0
166.10849 56.0
166.149536 40.0
166.521729 64.0
166.740112 44.0
166.776093 80.0
167.048813 3976.0
167.120682 36.0
167.141266 48.0
167.221039 28.0
167.378082 144.0
167.416702 32.0
167.45018 48.0
167.715561 52.0
167.805786 44.0
168.051407 768.0
168.138535 100.0
168.355392 236.0
168.72229 56.0
168.936935 124.0
168.978333 44.0
169.014557 96.0
169.047913 1044.0
170.044601 156.0
170.052475 168.0
170.664185 132.0
170.88266 188.0
171.604095 144.0
172.01889 188.0
172.478622 128.0
173.719818 160.0
174.473495 152.0
174.81279 176.0
174.970718 128.0
175.181396 72.0
175.339478 108.0
175.589935 220.0
175.729752 144.0
175.756134 76.0
176.001602 176.0
177.929062 136.0
178.043732 152.0
178.699799 208.0
179.052231 132.0
179.133728 180.0
179.432205 156.0
179.597534 184.0
180.029892 156.0
180.053116 556.0
180.142059 252.0
180.342468 128.0
180.615189 208.0
181.061249 360.0
181.185379 192.0
181.726944 160.0
182.05246 204.0
182.928223 164.0
183.064255 176.0
183.184036 172.0
183.316055 168.0
183.469681 212.0
183.903976 168.0
183.974152 172.0
185.066391 80.0
185.4104 128.0
185.819855 48.0
185.901245 96.0
186.042389 156.0
187.099899 72.0
187.933868 136.0
188.373413 144.0
188.611145 148.0
189.067886 184.0
189.388214 48.0
189.484085 120.0
190.142181 188.0
190.51561 156.0
192.0047 136.0
192.054337 156.0
192.081924 132.0
192.355103 48.0
192.960098 72.0
192.996033 172.0
193.593719 128.0
193.884598 148.0
194.070999 408.0
194.147964 104.0
194.422607 100.0
194.564163 152.0
194.697449 52.0
194.800217 124.0
195.076645 160.0
195.097549 200.0
195.19487 60.0
195.321777 164.0
195.372864 72.0
195.397903 188.0
195.436859 128.0
195.503647 188.0
195.587128 144.0
195.609406 100.0
195.653946 48.0
195.713776 172.0
195.722885 84.0
195.730362 152.0
195.75975 152.0
195.801514 164.0
195.873932 148.0
195.938217 224.0
195.984238 216.0
196.004105 204.0
196.034943 208.0
196.089157 40428.0
196.165558 128.0
196.202759 72.0
196.239761 88.0
196.277344 84.0
196.296936 72.0
196.334396 96.0
196.359833 72.0
196.3909 144.0
196.438782 308.0
196.498383 176.0
196.549469 80.0
196.609985 76.0
196.643478 40.0
196.679764 32.0
196.716049 80.0
196.757935 52.0
196.822144 92.0
196.855652 84.0
196.893265 148.0
197.003677 44.0
197.051178 76.0
197.092422 4444.0
197.194672 68.0
197.284134 108.0
197.321152 60.0
197.440338 88.0
197.559982 40.0
197.660706 32.0
197.750259 100.0
197.803436 84.0
197.93222 56.0
197.979813 88.0
198.085831 9456.0
198.139481 144.0
198.212326 84.0
198.237549 68.0
198.257156 48.0
198.287979 96.0
198.31633 140.0
198.335632 108.0
198.355255 52.0
198.391693 88.0
198.411316 128.0
198.478607 60.0
198.501038 80.0
198.543106 176.0
198.582367 80.0
198.666519 104.0
198.736649 52.0
198.783005 116.0
198.820236 68.0
198.98645 36.0
199.006104 140.0
199.048218 40.0
199.087967 1156.0
199.143692 40.0
199.177399 36.0
199.227966 84.0
199.826782 32.0
199.978745 52.0
200.054733 56.0
200.12793 108.0
200.201141 56.0
200.220856 32.0
200.285645 96.0
200.398315 100.0
200.6548 36.0
201.569275 120.0
203.574829 88.0
204.077774 152.0
205.784409 64.0
205.870071 136.0
206.618942 72.0
206.99675 88.0
207.561234 88.0
207.784958 96.0
208.453949 52.0
209.777878 36.0
209.878784 168.0
210.213379 80.0
211.487885 120.0
211.983109 144.0
213.0392 64.0
215.360764 84.0
221.748398 40.0
222.279236 64.0
224.477478 136.0
226.315125 108.0
232.388474 156.0
234.051056 160.0
234.925751 60.0
236.61879 48.0
240.112549 44.0
241.910812 40.0
242.564407 76.0
246.023575 112.0
252.878586 132.0
253.658447 52.0
260.818207 92.0
263.525177 40.0
266.977325 88.0
272.333954 80.0
275.264954 72.0
278.231567 92.0
281.714935 40.0
282.339966 52.0
285.7547 60.0
286.653687 68.0
289.355804 148.0
289.674133 64.0
290.474091 112.0
299.391449 36.0
305.691895 96.0
310.081635 100.0
317.988953 96.0
332.655914 52.0
333.324188 100.0
333.694916 52.0
342.208801 104.0
345.208649 88.0
351.594574 128.0
355.737946 44.0
367.725739 56.0
376.710785 76.0
387.6203 52.0
390.493896 88.0
396.387909 92.0
448.954315 48.0
453.020325 88.0
458.011475 108.0
462.991425 48.0
466.969849 72.0
467.675446 104.0
471.280609 80.0
512.454651 92.0
513.256958 80.0
532.672546 104.0
561.716858 144.0
570.829163 60.0
608.787109 48.0
611.609131 72.0
636.748413 204.0
660.315918 116.0
677.741455 40.0
693.804504 176.0
696.664551 216.0
703.684692 128.0
710.968201 120.0
711.546753 184.0
713.570923 248.0
715.214722 148.0
720.793091 216.0
728.739136 172.0
737.45282 76.0
747.414856 204.0
752.090698 144.0
752.385498 236.0
753.297485 64.0
755.763123 168.0
764.4823 100.0
774.20929 144.0
778.779236 36.0
779.334717 80.0
780.129456 120.0
782.065186 160.0
799.994385 248.0
803.240112 148.0
807.787354 40.0
816.232117 180.0
816.476624 168.0
818.969482 60.0
842.326538 88.0
852.169189 172.0
856.112915 204.0
857.825867 164.0
859.248779 208.0
860.059937 168.0
867.576599 188.0
870.492615 176.0
873.47821 188.0
878.514709 228.0
881.378174 204.0
893.03302 116.0
902.700195 148.0
908.599915 164.0
910.36145 172.0
911.415771 124.0
911.674133 228.0
915.132812 124.0
918.592041 164.0
923.442261 132.0
923.702393 148.0
923.968567 128.0
932.725159 140.0
933.722229 252.0
937.838013 220.0
940.497314 228.0
941.193237 168.0
944.499451 212.0
945.943542 144.0
946.592529 64.0
955.947632 124.0
957.418945 200.0
959.717407 164.0
959.803711 168.0
960.352539 184.0
969.663696 156.0
970.339355 188.0
973.857788 32.0
974.112488 68.0
974.367188 76.0
978.633728 144.0
980.066284 140.0
981.362671 184.0
982.192078 156.0
985.069702 204.0
987.382324 168.0
990.154785 104.0
992.19751 204.0
992.567383 204.0
996.107056 120.0
996.295532 140.0
999.973938 148.0
1000.848938 196.0
1007.534363 164.0
1008.507507 88.0
1018.671082 148.0
1021.378967 192.0
1022.670593 216.0
1025.198975 204.0
1027.58374 132.0
1028.209106 168.0
1030.202148 180.0
1032.866821 56.0
1033.493774 160.0
1036.804321 140.0
1036.970947 132.0
1039.112671 148.0
1040.338257 120.0
1040.794312 92.0
1041.03833 36.0
1041.821899 148.0
1042.020996 144.0
1044.319824 200.0
1047.109131 184.0
1048.500732 156.0
1050.119019 236.0
1050.815674 156.0
1051.267334 60.0
1051.615845 176.0
1054.244263 192.0
1059.232666 144.0
1060.671143 76.0
1063.194092 88.0
1067.858765 160.0
1069.101318 136.0
1069.238037 168.0
1070.227417 212.0
1071.035034 132.0
1071.894897 172.0
1073.57019 180.0
1073.889771 120.0
1077.859009 136.0
1077.917725 228.0
1079.355835 128.0
1079.486572 140.0
1080.081787 212.0
1080.631226 208.0
1081.082764 176.0
1087.321655 188.0
1087.59729 192.0
1088.37854 228.0
1088.588623 164.0
1088.733032 100.0
1089.205933 176.0
1089.448975 228.0
1092.617676 188.0
1093.696899 236.0
1093.828491 144.0
1094.783203 108.0
1096.384033 196.0
1097.194824 188.0
1097.65625 96.0
1102.243896 188.0
1102.409058 176.0
1102.832031 84.0
1103.334473 80.0
1103.598877 176.0
1104.12793 160.0
1104.723145 164.0
1105.536987 224.0
1106.185669 104.0
1107.079468 180.0
1107.602661 48.0
1108.192261 200.0
1110.359863 180.0
1111.394653 172.0
1112.841675 124.0
1113.406006 232.0
1114.674927 168.0
1115.193237 128.0
1115.445801 36.0
1115.605347 72.0
1115.658569 220.0
1115.957764 212.0
1117.966553 152.0
1118.23938 172.0
1118.585449 76.0
1119.031494 120.0
1119.124756 144.0
1119.297852 168.0
1119.397705 36.0
1120.110352 220.0
1120.336792 224.0
1121.649658 180.0
1122.676392 40.0
1123.116577 224.0
1123.830322 84.0
1124.003784 116.0
1125.545776 96.0
1125.973145 168.0
1126.560913 156.0
1127.075317 160.0
1127.249023 140.0
1127.362671 172.0
1128.853394 108.0
1128.913574 140.0
1130.084106 188.0
1132.038696 256.0
1133.914429 128.0
1134.64502 220.0
1134.926636 140.0
1134.973633 132.0
1135.154663 204.0
1136.039917 164.0
1136.751099 148.0
1139.242065 88.0
1140.606201 84.0
1141.022949 140.0
1144.211914 116.0
1144.326294 196.0
1145.107422 120.0
1147.256958 172.0
1149.131714 152.0
1149.35437 180.0
1150.643555 124.0
1151.008179 72.0
1151.406616 144.0
1154.312378 188.0
1154.474731 152.0
1155.516357 160.0
1156.703613 160.0
1156.815674 112.0
1157.059448 156.0
1157.953247 264.0
1158.061523 56.0
1159.95874 132.0
1161.477661 184.0
1161.654053 188.0
1161.884644 124.0
1162.929688 140.0
1163.859741 40.0
1164.124512 204.0
1164.572754 132.0
1164.881104 124.0
1168.066528 180.0
1168.624268 60.0
1168.760376 160.0
1169.903809 176.0
1170.012695 208.0
1171.020508 172.0
1172.267212 76.0
1172.935059 136.0
1173.160034 196.0
1174.476074 48.0
1175.335693 88.0
1176.379883 128.0
1179.358032 92.0
1182.531616 336.0
1182.695923 172.0
1183.983032 208.0
1184.859741 100.0
1186.470215 92.0
1188.651367 168.0
1189.06311 216.0
1190.278198 60.0
1190.64209 172.0
1194.601074 208.0
1195.926025 184.0
1196.11499 128.0
1197.216553 176.0
1198.084473 144.0
1198.449585 144.0
1199.124878 148.0
1199.979614 116.0
1202.60791 132.0
1203.194702 156.0
1203.457031 204.0
1203.781494 128.0
1205.156128 172.0
1206.304321 120.0
1209.720581 168.0
1210.426758 148.0
1210.58606 128.0
1211.895142 184.0
1212.664429 204.0
1212.823853 80.0
1214.682129 184.0
1215.473022 176.0
1215.646484 204.0
1215.77832 72.0
1216.8125 148.0
1218.264038 152.0
1219.32019 140.0
1221.009521 184.0
1222.261719 136.0
1225.283447 172.0
1225.374023 148.0
1225.478516 200.0
1225.791992 224.0
1226.684082 176.0
1226.844482 136.0
1227.820679 100.0
1228.148438 128.0
1229.069336 144.0
1230.353516 196.0
1231.016846 168.0
1231.736206 204.0
1237.421631 108.0
1237.575684 208.0
1237.974731 128.0
1238.051758 148.0
1240.363892 108.0
1240.658325 212.0
1241.89978 168.0
1242.776245 48.0
1242.986816 200.0
1243.099121 204.0
1243.983398 144.0
1244.748657 120.0
1247.741821 132.0
1248.015991 220.0
1250.224731 192.0
1252.63269 52.0
1253.893921 200.0
1254.68335 68.0
1255.158569 276.0
1257.751953 156.0
1259.354736 104.0
1260.174194 112.0
1263.058472 240.0
1264.480591 196.0
1265.068115 184.0
1266.987183 168.0
1268.851074 208.0
1272.767578 144.0
1274.671143 256.0
1275.211304 180.0
1275.460083 168.0
1276.633179 128.0
1277.187866 52.0
1277.358643 216.0
1278.504028 172.0
1279.642944 84.0
1279.742676 68.0
1282.727661 156.0
1284.089478 172.0
1284.531128 148.0
1284.817017 136.0
1285.730347 172.0
1286.237061 180.0
1287.143799 172.0
1287.529419 116.0
1289.515503 100.0
1289.930054 180.0
1292.468994 192.0
1294.029297 220.0
1294.609253 44.0
1297.016479 44.0
1300.581421 260.0
1300.637451 212.0
1301.513916 168.0
1302.031738 144.0
1302.146606 272.0
1304.064941 240.0
1304.575195 148.0
1304.841187 140.0
1306.006226 144.0
1306.660767 36.0
1307.617798 192.0
1308.704834 188.0
1309.151245 196.0
1309.331299 44.0
1309.474854 204.0
1311.917969 172.0
1312.379395 152.0
1314.088745 32.0
1314.709351 184.0
1315.077393 168.0
1315.755859 136.0
1316.102417 236.0
1317.489136 144.0
1317.619141 96.0
1319.36084 160.0
1320.922852 128.0
1321.082031 140.0
1321.197754 144.0
1321.783813 140.0
1323.42688 64.0
1325.353516 228.0
1325.68689 164.0
1326.440552 52.0
1327.252563 156.0
1327.448364 120.0
1327.832764 80.0
1329.203735 60.0
1329.392456 152.0
1331.338013 204.0
1332.623657 220.0
1332.805298 176.0
1334.048096 160.0
1334.193481 136.0
1334.382446 188.0
1335.142456 152.0
1335.28418 244.0
1335.647827 184.0
1336.0625 68.0
1337.328613 236.0
1338.034668 80.0
1339.432861 140.0
1339.687866 248.0
1340.205078 120.0
1340.511108 168.0
1340.926514 156.0
1342.807495 176.0
1343.580688 172.0
1346.040405 132.0
1346.215698 128.0
1346.303223 172.0
1346.756104 96.0
1348.056519 124.0
1348.370728 148.0
1350.704224 152.0
1351.061523 176.0
1351.383423 108.0
1353.074097 148.0
1353.857544 136.0
1355.708496 164.0
1356.037354 152.0
1356.869019 144.0
1356.949707 96.0
1357.103638 148.0
1359.480347 196.0
1363.872192 208.0
1364.438232 184.0
1364.688232 164.0
1365.283813 148.0
1365.474976 176.0
1365.938354 200.0
1367.086182 180.0
1367.601318 216.0
1369.007446 200.0
1369.957642 192.0
1370.127075 228.0
1370.554321 224.0
1370.893311 228.0
1371.320801 164.0
1371.593506 152.0
1371.836792 128.0
1373.283203 164.0
1373.466309 112.0
1374.026978 172.0
1374.9198 160.0
1375.325806 176.0
1377.939819 172.0
1378.117188 148.0
1378.52356 76.0
1379.255249 28.0
1380.978027 172.0
1381.229492 104.0
1381.947144 180.0
1382.650024 152.0
1382.709351 156.0
1383.064575 160.0
1383.841797 116.0
1385.137817 204.0
1387.672241 172.0
1388.050415 172.0
1389.059082 144.0
1389.244507 200.0
1389.741577 192.0
1390.758301 140.0
1391.129395 44.0
1391.50061 144.0
1391.656494 128.0
1391.812378 120.0
1392.154053 168.0
1393.008179 136.0
1394.003662 152.0
1394.248901 176.0
1394.523926 192.0
1394.739502 144.0
1395.21521 212.0
1396.836304 140.0
1398.294678 160.0
1398.480713 180.0
1398.681763 260.0
1399.225098 120.0
1399.329346 200.0
1399.50061 32.0
1400.10376 176.0
1400.342041 180.0
1400.72937 176.0
1400.870972 116.0
1400.960327 152.0
1401.750122 128.0
1402.868042 168.0
1405.03479 156.0
1405.33667 192.0
1405.590332 112.0
1406.097778 264.0
1406.742432 88.0
1407.247314 204.0
1407.665405 164.0
1408.053833 108.0
1408.322632 48.0
1408.584106 160.0
1408.651367 156.0
1408.950073 140.0
1410.183105 68.0
1410.44751 176.0
1410.696411 196.0
1411.233032 132.0
1412.261597 180.0
1412.740356 148.0
1412.889893 56.0
1413.54834 144.0
1413.623169 128.0
1413.870117 84.0
1414.715088 268.0
1417.771851 108.0
1419.323608 148.0
1419.39856 208.0
1419.526489 192.0
1420.103516 180.0
1420.52356 176.0
1421.092407 256.0
1421.326294 164.0
1421.956665 48.0
1422.031738 172.0
1422.204346 124.0
1422.429443 232.0
1423.337891 164.0
1423.412964 176.0
1425.876953 152.0
1426.591064 172.0
1427.297729 228.0
1427.425659 164.0
1427.553467 88.0
1427.786621 172.0
1428.275391 80.0
1428.395752 204.0
1428.802002 108.0
1432.189697 160.0
1433.613403 204.0
1435.075684 188.0
1435.595947 256.0
1435.701538 36.0
1436.008911 192.0
1436.13147 124.0
1436.335083 240.0
1436.508545 204.0
1436.56897 184.0
1436.666992 68.0
1436.802734 48.0
1438.040283 212.0
1438.3573 116.0
1439.094849 180.0
1440.169434 148.0
1440.902222 124.0
1441.574707 172.0
1442.353149 152.0
1442.761353 132.0
1443.237671 156.0
1443.403931 212.0
1443.546021 200.0
1444.795654 156.0
1445.113403 212.0
1445.317627 136.0
1445.756592 220.0
1446.278809 244.0
1446.854126 208.0
1447.800537 172.0
1448.497314 144.0
1450.755493 180.0
1452.841064 160.0
1453.000366 176.0
1453.250732 176.0
1454.366211 128.0
1454.814087 144.0
1456.279541 48.0
1457.054443 116.0
1457.464722 260.0
1457.540649 36.0
1458.217041 168.0
1458.749023 164.0
1459.151978 168.0
1459.463745 196.0
1459.57019 156.0
1460.041626 140.0
1460.817383 216.0
1463.631836 96.0
1463.770386 132.0
1464.021729 132.0
1464.543701 188.0
1465.827148 192.0
1466.756958 148.0
1467.077026 144.0
1467.381958 36.0
1467.679321 128.0
1467.92334 112.0
1468.891968 180.0
1469.014038 84.0
1471.143066 104.0
1471.608765 108.0
1471.723267 132.0
1472.914673 124.0
1474.519165 104.0
1476.262207 128.0
1476.376831 40.0
1476.614014 164.0
1477.103516 128.0
1478.427124 68.0
1479.039429 128.0
1479.337891 152.0
1479.590576 200.0
1481.068481 156.0
1481.934082 152.0
1482.033691 212.0
1482.838989 144.0
1483.336548 188.0
1484.340942 112.0
1485.575684 152.0
1486.350586 148.0
1487.302246 148.0
1487.48645 156.0
1487.732056 108.0
1488.069824 180.0
1489.367676 196.0
1490.566162 180.0
1491.088745 144.0
1491.303955 196.0
1491.888062 184.0
1491.949585 156.0
1492.731445 232.0
1492.895264 228.0
1492.987549 168.0
1494.125977 156.0
1494.356812 256.0
1494.703003 132.0
1494.903076 140.0
1495.426392 108.0
1495.934448 204.0
1496.096069 108.0
1496.327026 196.0
1498.876465 128.0
1499.015137 148.0
1499.223267 144.0
1499.778076 220.0
1499.847534 124.0
1499.940063 116.0
1501.350952 140.0
1501.605469 260.0
1502.345947 148.0
1502.631348 200.0
1503.171509 252.0
1503.565063 200.0
1504.159302 124.0
1504.437256 176.0
