>compound MLS001158378-01!(2S)-2-[[(2S)-3-methyl-2-[[(2S)-3-oxo-2-propan-2-yl-2,4-dihydroquinoxaline-1-carbonyl]amino]butanoyl]amino]-2-phenylacetic acid
>formula C25H30N4O5
>ionization [M+H]+
>parentmass 467.229
#inchi InChI=1S/C25H30N4O5/c1-14(2)19(22(30)27-20(24(32)33)16-10-6-5-7-11-16)28-25(34)29-18-13-9-8-12-17(18)26-23(31)21(29)15(3)4/h5-15,19-21H,1-4H3,(H,26,31)(H,27,30)(H,28,34)(H,32,33)/t19-,20-,21-/m0/s1
#inchikey OQXWBQJXLRLGSS
#Ion_Source LC-ESI
#Instrument qTof
#Compound_Source NIH Natural Product Library
#PI Dorrestein
#Data_Collector VVP/LMS
#Scan -1
#Precursor_MZ 467.229
#ExactMass 466.222
#Charge 1
#CAS_Number N/A
#Pubmed_ID N/A
#Smiles CC(C)[C@H](NC(=O)N1[C@@H](C(C)C)C(=O)Nc2ccccc12)C(=O)N[C@H](C(=O)O)c3ccccc3
#INCHI_AUX N/A
#Library_Class 1
#SpectrumID CCMSLIB00000080121
#IonMode Positive
#UpdateWorkflowName UPDATE-SINGLE-ANNOTATED-GOLD
#LibraryQualityString Gold
#TaskID b1d8e8f6646f4e71acdff9ca3d919d08
##Scan# 1941
#SpectrumFile p2-D04_GD4_01_18016.mzXML
#LibraryName NIH_Natural_Products_Library.mgf
#MQScore -1
#Organism NIH_Natural_Products_Library
#TIC_Query 0
#RT_Query -1
#MZErrorPPM -1
#SharedPeaks 0
#MassDiff 0
#LibMZ -1
#SpecMZ 467.229
#SpecCharge 0
#internalFilename spec-00000.mgf

>collision 10
94.957504 164.0
95.044792 288.0
95.283607 168.0
95.310806 176.0
95.442986 116.0
95.536339 216.0
95.894707 168.0
95.931648 104.0
96.326759 192.0
96.35318 64.0
96.378578 256.0
96.517357 192.0
96.574066 144.0
96.660141 160.0
96.775627 228.0
96.863754 176.0
97.034248 136.0
97.098953 224.0
97.134262 164.0
97.153877 100.0
97.270584 244.0
97.344261 120.0
97.369789 152.0
97.389427 160.0
97.42086 152.0
97.492821 160.0
97.515175 144.0
97.822014 260.0
97.835793 100.0
98.022903 260.0
98.036095 248.0
98.062317 144.0
98.087944 156.0
98.11554 92.0
98.133286 112.0
98.154976 184.0
98.443069 232.0
98.634262 212.0
98.686111 132.0
98.81665 116.0
98.983292 104.0
99.032417 168.0
99.155258 144.0
99.3218 256.0
99.355522 224.0
99.424973 164.0
99.675438 216.0
99.726852 164.0
99.828239 140.0
99.873985 148.0
100.065025 136.0
100.371857 176.0
100.551399 180.0
100.575348 132.0
100.599304 160.0
100.749077 148.0
100.799026 232.0
100.958946 132.0
101.175034 156.0
101.222237 216.0
101.251122 112.0
101.379341 124.0
101.423431 208.0
101.531693 128.0
101.80864 184.0
101.840775 132.0
101.884613 184.0
101.913681 164.0
101.967346 224.0
102.025642 140.0
102.19458 48.0
102.347549 64.0
102.456306 216.0
102.494583 176.0
102.597374 48.0
102.68206 164.0
102.722397 124.0
102.910088 220.0
102.932098 164.0
102.952492 192.0
103.068604 208.0
103.2799 116.0
103.360817 152.0
103.40332 144.0
103.559212 136.0
103.638222 192.0
103.690903 196.0
104.060089 180.0
104.133774 208.0
104.19413 172.0
104.301834 164.0
104.505196 124.0
104.586594 56.0
104.615089 148.0
104.830757 156.0
104.883972 256.0
104.898247 216.0
104.973679 136.0
104.98999 100.0
105.043022 164.0
105.094025 180.0
105.155243 144.0
105.179733 160.0
105.2369 168.0
105.255272 412.0
105.355354 152.0
105.559738 132.0
105.727486 160.0
105.760231 152.0
105.790932 96.0
105.911743 136.0
105.960152 108.0
106.02919 808.0
106.064857 972.0
106.196648 44.0
106.381317 200.0
106.4039 88.0
106.471657 204.0
106.52095 164.0
106.576424 204.0
106.650406 28.0
106.895134 72.0
106.963051 148.0
106.985695 116.0
107.026871 132.0
107.06015 2136.0
107.142204 76.0
107.175171 52.0
107.329765 204.0
107.35038 84.0
107.515419 124.0
107.612434 164.0
107.796265 188.0
107.930618 152.0
108.069817 2740.0
108.160255 84.0
108.183128 160.0
108.40464 172.0
108.439873 48.0
108.641006 164.0
108.707397 240.0
108.777626 172.0
108.823639 60.0
109.073547 168.0
109.214317 72.0
109.314568 172.0
109.384941 192.0
109.414085 92.0
109.428658 196.0
109.50779 192.0
109.528618 120.0
109.543198 156.0
109.589447 200.0
109.74118 120.0
109.766197 132.0
109.893433 200.0
110.141853 176.0
110.173187 148.0
110.242142 156.0
110.286026 184.0
110.371742 204.0
110.432388 172.0
110.455093 196.0
110.541176 44.0
110.555824 168.0
110.677231 196.0
110.821754 88.0
110.899284 204.0
111.079613 60.0
111.129959 172.0
111.297874 116.0
111.323074 160.0
111.358772 164.0
111.407082 200.0
111.451202 60.0
111.539467 224.0
111.796059 204.0
112.031876 176.0
112.059265 184.0
112.31012 200.0
112.516914 148.0
112.533806 140.0
112.681648 112.0
113.062607 196.0
113.094002 52.0
113.176567 140.0
113.19986 216.0
113.214684 184.0
113.271866 180.0
113.445625 196.0
113.494392 32.0
113.602554 152.0
113.647102 108.0
113.723503 132.0
113.954964 184.0
113.99321 228.0
114.324951 184.0
114.467575 156.0
114.5485 196.0
114.620941 160.0
114.810661 188.0
115.047501 164.0
115.128403 184.0
115.15213 276.0
115.276031 200.0
115.336456 192.0
115.352974 76.0
115.464157 56.0
115.541245 200.0
115.558273 172.0
115.735924 148.0
115.804451 224.0
115.898705 188.0
115.952278 172.0
116.001579 140.0
116.065895 76.0
116.186005 216.0
116.239639 148.0
116.392044 184.0
116.561737 224.0
116.821884 136.0
117.046471 512.0
117.172783 140.0
117.235275 112.0
117.308556 180.0
117.36245 124.0
117.505005 208.0
117.627808 100.0
117.791916 148.0
117.809196 52.0
117.83728 176.0
117.923294 144.0
117.92868 148.0
117.962624 148.0
118.001534 128.0
118.056061 148.0
118.323898 144.0
118.466827 124.0
118.494987 176.0
118.512321 48.0
118.551323 172.0
118.668373 168.0
118.690056 172.0
118.818024 96.0
118.839714 68.0
118.946053 52.0
118.978615 212.0
119.038155 208.0
119.060684 13004.0
119.124115 28.0
119.219711 176.0
119.282745 120.0
119.319695 168.0
119.465401 56.0
119.482803 312.0
119.56694 216.0
119.66127 172.0
119.805 164.0
119.944466 192.0
120.063049 1816.0
120.12545 52.0
120.232361 120.0
120.321854 184.0
120.340454 60.0
120.492203 132.0
120.562126 52.0
120.887955 116.0
120.938293 184.0
120.966751 124.0
121.012726 104.0
121.082565 232.0
121.104698 124.0
121.176987 160.0
121.205467 68.0
121.264641 172.0
121.299706 68.0
121.48391 148.0
121.523392 216.0
121.587151 148.0
121.644096 72.0
121.670914 232.0
121.70118 252.0
121.854919 108.0
121.905457 92.0
121.938423 160.0
122.048332 64.0
122.074722 152.0
122.092316 204.0
122.312332 164.0
122.728699 96.0
122.775009 240.0
122.861031 156.0
122.896332 176.0
122.95591 128.0
123.150192 184.0
123.262863 188.0
123.357895 100.0
123.39106 164.0
123.475082 192.0
123.570198 144.0
123.594536 44.0
123.760544 128.0
123.777252 184.0
124.026382 124.0
124.223732 52.0
124.410133 112.0
124.554474 172.0
124.59446 196.0
124.765579 160.0
124.816711 144.0
124.878983 228.0
124.950165 192.0
125.02359 48.0
125.094818 120.0
125.357628 144.0
125.408882 156.0
125.460152 124.0
125.484673 100.0
125.562721 136.0
125.716652 40.0
125.772446 160.0
126.062782 212.0
126.096306 172.0
126.130714 152.0
126.201363 28.0
126.246086 180.0
126.32386 212.0
126.436241 172.0
126.503387 104.0
126.558365 140.0
126.613098 216.0
126.687012 44.0
126.727341 184.0
126.873016 88.0
126.918686 184.0
127.056908 184.0
127.126465 164.0
127.249916 212.0
127.427345 144.0
127.497002 92.0
127.600449 200.0
127.827576 148.0
127.863579 196.0
128.187866 96.0
128.848953 136.0
129.059143 228.0
129.269501 188.0
129.561584 172.0
129.613693 120.0
129.731552 148.0
129.767822 164.0
129.799683 160.0
129.922043 148.0
129.953796 168.0
130.062103 176.0
130.089966 188.0
130.13765 144.0
130.202438 224.0
130.426147 232.0
130.689957 124.0
130.853821 140.0
130.974518 136.0
131.077744 336.0
131.455566 236.0
131.501205 48.0
131.524033 44.0
131.592514 52.0
131.667862 204.0
131.775223 256.0
131.932922 208.0
131.983215 180.0
132.045059 2040.0
132.072098 180.0
132.232559 172.0
132.280884 180.0
132.29895 116.0
132.317093 164.0
132.344727 120.0
132.385941 104.0
132.53125 220.0
132.621918 164.0
132.685226 208.0
132.70903 312.0
132.775528 176.0
132.885635 136.0
132.906281 184.0
133.040344 13200.0
133.075699 404.0
133.147324 40.0
133.22081 196.0
133.26564 164.0
133.301239 52.0
133.324219 48.0
133.377075 64.0
133.443741 184.0
133.558716 120.0
133.747391 156.0
133.777313 108.0
133.798035 184.0
133.816452 128.0
133.880936 76.0
134.04274 1548.0
134.085968 116.0
134.157425 52.0
134.270401 140.0
134.31192 92.0
134.445724 176.0
134.52652 240.0
134.661362 160.0
134.687866 260.0
134.702545 140.0
134.752838 144.0
134.787491 92.0
134.840988 160.0
134.893555 108.0
134.912292 160.0
134.931442 172.0
134.970093 144.0
134.993225 196.0
135.055191 13036.0
135.118118 52.0
135.243073 152.0
135.289383 220.0
135.331055 32.0
135.400513 84.0
135.437576 56.0
135.473434 56.0
135.676666 68.0
135.863983 160.0
136.059494 1316.0
136.20285 176.0
136.474915 64.0
136.567932 84.0
136.737778 104.0
136.754059 40.0
136.79364 100.0
136.865799 144.0
136.940323 284.0
137.058456 196.0
137.105743 116.0
137.152344 80.0
137.189651 168.0
137.261917 176.0
137.289902 148.0
137.411194 184.0
137.532547 128.0
137.567551 120.0
137.667953 200.0
137.721664 228.0
137.873535 172.0
137.903915 144.0
138.081604 116.0
138.175156 232.0
138.257065 112.0
138.296844 188.0
138.477127 144.0
138.561447 164.0
138.594254 212.0
138.727844 168.0
138.760666 160.0
138.807556 144.0
138.845078 108.0
138.877914 160.0
139.171249 124.0
139.286316 40.0
139.321564 180.0
139.399094 144.0
139.446091 172.0
139.523666 140.0
139.615372 116.0
139.848282 52.0
140.144714 132.0
140.185059 180.0
140.335907 64.0
140.614258 164.0
140.694519 320.0
140.878708 112.0
141.022858 88.0
141.308975 184.0
141.55751 200.0
141.635666 132.0
141.872635 136.0
142.247437 156.0
142.475403 160.0
142.580444 96.0
142.741608 176.0
142.788605 168.0
142.850998 172.0
142.939041 140.0
142.977112 172.0
143.034225 80.0
143.079453 180.0
143.141357 164.0
143.177078 128.0
143.348602 204.0
143.625153 136.0
143.712906 168.0
143.749207 148.0
144.088257 196.0
144.339218 168.0
144.434875 160.0
144.483917 240.0
144.561676 164.0
144.738815 160.0
144.803482 80.0
145.016907 232.0
145.082886 164.0
145.100296 188.0
145.244492 160.0
145.489243 48.0
145.520462 44.0
145.616516 188.0
145.775513 196.0
145.945724 144.0
145.962555 132.0
146.049973 128.0
146.096405 1500.0
146.133331 180.0
146.175781 188.0
146.287354 96.0
146.492035 160.0
146.5336 188.0
146.586914 96.0
146.643555 200.0
146.729034 140.0
146.812607 152.0
146.865662 184.0
146.882156 148.0
146.940445 136.0
146.96698 284.0
147.00174 352.0
147.020752 156.0
147.056412 48056.0
147.10817 64.0
147.148315 60.0
147.180237 136.0
147.214478 60.0
147.241135 108.0
147.273163 232.0
147.289307 56.0
147.307312 140.0
147.359787 212.0
147.388031 84.0
147.41629 104.0
147.454102 152.0
147.475998 104.0
147.522446 68.0
147.54303 196.0
147.61557 116.0
147.642761 84.0
147.680359 52.0
147.826385 72.0
147.858658 40.0
147.907852 164.0
147.939896 88.0
147.967575 80.0
148.060944 5012.0
148.093033 164.0
148.120148 136.0
148.212204 44.0
148.250977 68.0
148.306717 60.0
148.323685 40.0
148.413376 92.0
148.500214 124.0
148.522507 196.0
148.546768 96.0
148.612045 212.0
148.619919 208.0
148.787018 112.0
148.893845 44.0
148.994324 188.0
149.024094 104.0
149.065948 888.0
149.124939 136.0
149.153824 60.0
149.197006 120.0
149.246201 64.0
149.277176 136.0
149.360336 124.0
149.545425 236.0
149.569763 44.0
149.74263 68.0
149.766983 140.0
150.166702 32.0
150.271591 140.0
150.300873 132.0
150.41069 168.0
150.662216 36.0
150.779495 136.0
151.222168 80.0
151.746384 200.0
151.775803 40.0
152.156097 136.0
152.256775 120.0
152.497543 220.0
152.563904 116.0
152.677017 192.0
152.701599 168.0
152.718826 80.0
153.642548 148.0
154.205536 156.0
154.27475 124.0
154.580643 160.0
154.673019 176.0
154.824036 108.0
154.883484 124.0
154.923111 124.0
155.14119 160.0
155.503342 208.0
155.716858 120.0
155.942932 156.0
156.068314 120.0
156.084641 164.0
156.281143 224.0
156.634644 164.0
157.073349 156.0
157.515167 172.0
157.637589 100.0
158.122742 116.0
158.192825 92.0
158.262924 128.0
158.340546 232.0
158.738998 96.0
158.919601 168.0
159.092575 156.0
159.150513 84.0
159.220825 208.0
159.255981 100.0
159.303711 176.0
159.361496 252.0
159.449448 100.0
159.524841 156.0
159.665649 168.0
159.700867 160.0
159.726013 72.0
159.776321 112.0
159.826645 152.0
159.854324 64.0
160.078354 120.0
160.115387 288.0
160.196732 68.0
160.214371 124.0
160.347916 112.0
160.398315 212.0
160.433609 28.0
160.668137 392.0
160.708511 204.0
160.806931 136.0
161.034531 14324.0
161.072739 2896.0
161.109192 1008.0
161.160461 64.0
161.183197 140.0
161.210999 64.0
161.299454 100.0
161.355392 92.0
161.436829 84.0
161.463791 60.0
161.691483 184.0
161.881348 60.0
161.982666 52.0
162.000397 184.0
162.036636 892.0
162.076187 96.0
162.116943 80.0
162.249374 176.0
162.295532 76.0
162.3172 196.0
162.423721 60.0
162.493713 148.0
162.685074 60.0
162.76886 128.0
162.804413 56.0
162.845047 96.0
162.925217 148.0
162.956818 168.0
163.006149 244.0
163.039383 248.0
163.060043 232.0
163.124008 44408.0
163.177612 64.0
163.203354 224.0
163.279648 56.0
163.313385 60.0
163.348312 168.0
163.377975 140.0
163.422089 76.0
163.442444 36.0
163.472977 72.0
163.498428 80.0
163.522461 76.0
163.544144 72.0
163.58783 64.0
163.640976 116.0
163.683807 136.0
163.832855 128.0
163.852356 92.0
163.920181 136.0
163.949188 192.0
163.972122 40.0
164.015457 140.0
164.063889 204.0
164.089386 76.0
164.126541 4140.0
164.227081 36.0
164.32518 52.0
164.369949 44.0
164.387802 56.0
164.415878 44.0
164.487335 52.0
164.686508 164.0
164.760574 96.0
164.783569 84.0
164.811676 68.0
164.847458 120.0
164.873001 124.0
165.015488 184.0
165.054504 68.0
165.132568 256.0
165.184937 184.0
165.21051 76.0
165.292236 144.0
165.315414 208.0
165.33844 56.0
165.361481 144.0
165.399048 124.0
165.407547 128.0
165.415802 124.0
165.423431 156.0
165.479233 68.0
165.561172 208.0
165.745605 172.0
165.991684 224.0
166.053223 84.0
166.327759 200.0
166.507492 108.0
166.774689 80.0
167.242798 104.0
167.505447 204.0
167.649384 152.0
167.792374 140.0
167.822433 104.0
167.971069 112.0
168.55806 184.0
169.000198 188.0
169.189133 40.0
169.352264 92.0
169.489563 52.0
169.531021 128.0
169.707291 96.0
170.039322 192.0
170.223633 180.0
170.270187 212.0
170.834412 136.0
170.972305 44.0
171.06601 196.0
171.092361 364.0
171.154526 180.0
171.454102 164.0
171.553146 76.0
171.647003 128.0
171.753922 140.0
171.96788 148.0
172.093185 48.0
172.268158 140.0
172.639297 212.0
172.67067 200.0
172.866882 116.0
173.073669 208.0
173.106705 1120.0
173.304153 144.0
173.348709 228.0
173.474503 60.0
173.747238 152.0
173.873184 128.0
173.993927 212.0
174.030685 132.0
174.082489 616.0
174.151306 120.0
174.472061 128.0
174.495728 108.0
174.727158 152.0
175.021942 48.0
175.050354 1332.0
175.087097 4412.0
175.182587 128.0
175.309052 60.0
175.338043 120.0
175.638611 56.0
175.810867 180.0
175.929688 112.0
176.051483 264.0
176.091782 448.0
176.134842 128.0
176.682037 180.0
176.875214 96.0
176.967865 124.0
177.034073 152.0
177.100281 116.0
177.13736 104.0
177.426208 188.0
177.670197 136.0
178.264938 120.0
178.494156 192.0
178.554703 64.0
178.956512 180.0
178.977814 180.0
179.015091 136.0
179.046432 8748.0
179.15892 148.0
179.180237 84.0
179.233521 76.0
179.281479 92.0
179.30014 48.0
179.332123 48.0
179.393433 124.0
179.692505 136.0
179.999634 240.0
180.048218 1440.0
180.104431 72.0
180.250137 212.0
180.578964 100.0
181.049698 152.0
181.074081 52.0
181.133011 120.0
181.173187 156.0
181.197296 108.0
181.275009 148.0
181.51358 48.0
181.588669 104.0
181.655716 108.0
181.687912 64.0
181.867691 148.0
182.297394 188.0
182.520508 256.0
182.636139 188.0
183.05867 160.0
183.349609 116.0
183.457428 68.0
183.605728 172.0
183.964584 68.0
184.094177 64.0
184.23732 140.0
184.275146 164.0
184.610321 152.0
184.713089 108.0
185.203018 124.0
185.31842 128.0
185.5336 216.0
185.636642 120.0
185.688156 72.0
186.475494 48.0
186.654922 120.0
186.67395 180.0
187.035797 56.0
187.340775 52.0
188.11795 204.0
188.208054 180.0
188.546783 140.0
188.606903 80.0
188.787354 128.0
188.894012 104.0
188.913162 184.0
188.951462 104.0
189.02533 116.0
189.102646 15312.0
189.178604 108.0
189.199448 52.0
189.318237 88.0
189.362808 44.0
189.379532 84.0
189.456131 140.0
189.545593 52.0
189.564774 40.0
189.644257 72.0
189.690857 36.0
189.762131 56.0
189.822449 164.0
190.041885 40.0
190.105057 2076.0
190.151642 176.0
190.242233 88.0
190.363037 80.0
190.386963 84.0
190.588272 88.0
190.78891 60.0
190.909882 52.0
190.94838 204.0
191.117844 1612.0
191.223511 44.0
191.691666 128.0
191.741272 188.0
191.992401 44.0
192.03627 116.0
192.12117 328.0
192.215591 72.0
192.422592 64.0
192.604401 100.0
192.624191 152.0
192.742981 96.0
192.928162 120.0
193.232376 184.0
193.262802 184.0
193.370728 104.0
193.93573 160.0
194.368362 216.0
194.534882 152.0
194.945938 160.0
194.987625 120.0
195.179428 84.0
195.368546 140.0
195.624573 88.0
195.680252 48.0
195.741501 136.0
196.084152 148.0
196.742432 76.0
196.923935 128.0
197.046844 88.0
197.206314 172.0
197.544449 224.0
197.575226 184.0
197.757111 136.0
198.555573 128.0
198.583618 156.0
198.996124 52.0
199.085419 284.0
199.614273 188.0
199.687393 136.0
199.75209 188.0
199.895569 92.0
200.233383 128.0
200.616592 124.0
201.144089 152.0
201.259827 36.0
201.932388 124.0
202.061523 156.0
202.087967 132.0
202.116272 148.0
202.172867 176.0
202.458786 152.0
202.674072 108.0
203.120697 648.0
203.192566 160.0
203.468201 164.0
204.042084 184.0
204.118927 144.0
204.656616 116.0
204.895859 168.0
204.932892 132.0
205.143784 72.0
205.269241 156.0
205.602997 120.0
205.64296 112.0
205.774261 204.0
206.040985 164.0
206.137009 220.0
206.337509 212.0
206.534393 244.0
206.63707 164.0
206.760422 56.0
207.525238 56.0
207.611267 56.0
208.193817 168.0
209.744568 56.0
210.956924 160.0
211.431274 132.0
211.518097 84.0
211.584686 232.0
212.726151 212.0
213.139267 108.0
213.203201 80.0
213.424118 140.0
213.770264 144.0
214.719955 68.0
215.0905 104.0
215.303635 168.0
215.508102 72.0
215.776993 152.0
216.101303 140.0
216.180634 100.0
216.429443 140.0
216.461655 164.0
216.549515 180.0
216.593445 48.0
216.71225 188.0
216.798523 48.0
216.880585 152.0
216.976822 92.0
216.986588 176.0
217.024231 64.0
217.058762 148.0
217.098587 33192.0
217.164703 392.0
217.203003 100.0
217.207458 92.0
217.235397 52.0
217.279388 64.0
217.314606 56.0
217.414307 136.0
217.477615 80.0
217.509827 84.0
217.533722 132.0
217.574692 200.0
217.658005 52.0
217.684433 72.0
217.851852 28.0
217.891296 140.0
217.939316 52.0
217.959854 168.0
218.101669 3752.0
218.179962 160.0
218.260361 60.0
218.28389 64.0
218.325058 60.0
218.375061 64.0
218.425064 84.0
218.478012 188.0
218.569214 188.0
218.615997 80.0
218.656754 80.0
218.681046 100.0
218.834106 88.0
218.90184 36.0
218.943069 44.0
218.999023 40.0
219.034363 144.0
219.057938 104.0
219.10965 580.0
219.202301 76.0
219.243546 56.0
219.32312 124.0
219.588486 64.0
219.652634 96.0
219.753677 160.0
219.803833 128.0
219.90416 52.0
220.037003 48.0
220.102142 180.0
220.27916 84.0
220.577606 40.0
222.040237 76.0
222.633774 60.0
223.376816 140.0
223.632706 56.0
224.24028 100.0
224.273071 148.0
224.389328 76.0
224.448959 92.0
224.672638 124.0
225.159454 172.0
226.112869 200.0
226.319412 164.0
226.34935 124.0
227.506653 56.0
227.533112 108.0
227.939133 140.0
228.353989 56.0
228.65184 132.0
228.699097 268.0
229.1035 140.0
230.412781 40.0
230.978073 72.0
231.112091 1768.0
231.269608 160.0
231.634918 52.0
231.713684 132.0
231.837921 72.0
232.07132 48.0
232.130524 352.0
232.602219 96.0
233.003067 144.0
233.054718 144.0
233.082062 176.0
233.28569 116.0
233.747971 92.0
233.842316 112.0
233.933624 88.0
234.131531 52.0
234.347809 124.0
234.600754 188.0
235.204742 56.0
235.671982 220.0
236.528259 132.0
236.595612 140.0
237.496506 116.0
237.53331 40.0
238.300781 152.0
239.143356 196.0
241.166656 136.0
241.410889 88.0
242.733139 56.0
243.151932 140.0
243.477905 56.0
244.015472 48.0
244.11496 160.0
245.020706 104.0
245.117493 348.0
245.160919 132.0
246.112305 160.0
246.168503 152.0
246.224716 136.0
247.093689 84.0
247.70726 188.0
247.798111 104.0
248.120926 104.0
249.876495 152.0
250.814926 212.0
250.862198 216.0
251.995163 140.0
252.994522 184.0
253.571014 148.0
254.014908 88.0
254.1418 128.0
255.956726 168.0
257.426727 188.0
257.556396 180.0
258.417603 92.0
258.977814 204.0
259.3078 168.0
260.116089 80.0
260.177338 6304.0
260.372925 124.0
260.398621 48.0
260.797028 56.0
261.105682 76.0
261.178894 2052.0
261.523926 52.0
261.572205 92.0
261.594727 76.0
261.717072 88.0
261.862 76.0
262.185974 120.0
262.554901 44.0
262.695526 120.0
262.832306 108.0
264.043701 96.0
264.953247 44.0
265.254608 100.0
266.351379 56.0
266.491058 116.0
266.634033 140.0
266.816071 72.0
269.472198 160.0
269.79248 240.0
270.230713 20.0
270.561249 68.0
271.142883 280.0
271.26886 64.0
271.655792 224.0
272.140045 100.0
272.46994 152.0
273.051727 76.0
273.147125 76.0
275.140778 104.0
277.055573 120.0
277.113983 300.0
278.116699 152.0
278.378967 200.0
278.910522 116.0
279.036835 88.0
281.452393 96.0
283.405731 248.0
283.442596 76.0
283.868317 152.0
284.119843 148.0
285.076782 168.0
285.318756 80.0
285.661774 136.0
285.722321 72.0
286.082428 104.0
286.52356 168.0
286.611176 88.0
287.103333 140.0
287.417023 44.0
287.585754 152.0
287.649902 64.0
287.855835 76.0
287.977417 116.0
288.016907 124.0
288.051727 52.0
288.095642 116.0
288.172882 20864.0
288.29837 76.0
288.341095 60.0
288.420776 64.0
288.447083 200.0
288.505432 132.0
288.531586 88.0
288.597748 56.0
288.653595 96.0
288.842712 68.0
288.873138 48.0
288.942505 48.0
289.05246 112.0
289.175323 5068.0
289.420502 60.0
289.627991 52.0
289.65509 44.0
289.678802 92.0
289.993896 52.0
290.078644 60.0
290.176086 768.0
290.227814 88.0
290.356659 72.0
290.590729 104.0
290.617859 128.0
290.689697 116.0
290.716278 104.0
290.797729 140.0
290.909729 92.0
290.957245 92.0
291.008179 84.0
291.042145 76.0
291.103912 144.0
291.133057 128.0
291.16098 128.0
291.228912 76.0
291.330811 112.0
291.361389 60.0
291.466705 48.0
291.606049 60.0
291.660431 36.0
291.871185 60.0
292.18399 124.0
292.286163 60.0
292.759338 60.0
292.990936 128.0
293.024994 64.0
293.287384 64.0
293.897827 44.0
294.321075 56.0
294.453064 116.0
295.500244 76.0
295.986267 28.0
299.833679 100.0
301.804718 52.0
302.496643 80.0
303.71286 72.0
303.841217 76.0
304.778625 92.0
312.09433 136.0
312.82608 60.0
313.259216 128.0
316.166077 188.0
317.170868 376.0
324.844543 216.0
327.176758 92.0
327.55127 72.0
328.816803 120.0
330.685303 92.0
339.190247 184.0
342.066376 124.0
344.659027 120.0
346.712738 68.0
355.078674 84.0
363.161163 84.0
364.299896 136.0
368.486694 64.0
371.104553 220.0
374.135773 48.0
378.858734 96.0
383.938843 168.0
385.179993 36.0
388.938965 184.0
392.231201 96.0
398.286194 76.0
398.960663 60.0
399.227051 108.0
399.632782 64.0
404.189362 140.0
414.679962 80.0
415.07724 96.0
437.233032 56.0
437.790863 52.0
443.279877 56.0
446.146484 56.0
452.957306 72.0
455.795502 28.0
458.595703 40.0
463.90451 124.0
469.972748 96.0
471.20755 112.0
479.247101 80.0
493.746338 28.0
495.215668 128.0
495.667542 72.0
509.624664 40.0
516.893066 72.0
527.942505 60.0
528.797974 76.0
535.892639 40.0
538.517395 184.0
544.76123 80.0
563.35437 64.0
597.154785 60.0
597.884521 64.0
623.383545 48.0
639.552429 112.0
666.7276 32.0
669.47467 104.0
683.450806 96.0
684.585571 60.0
714.41394 148.0
742.680054 92.0
753.048462 64.0
775.513123 92.0
777.465332 52.0
787.681824 132.0
792.644165 80.0
794.516785 164.0
799.888977 120.0
802.2323 164.0
804.042786 112.0
816.774658 116.0
824.967773 36.0
831.526062 168.0
835.192749 208.0
848.72229 64.0
883.660583 52.0
921.71283 224.0
922.299011 180.0
935.863464 168.0
947.67572 168.0
951.950928 140.0
953.345337 128.0
973.850098 144.0
985.992676 164.0
991.481018 148.0
992.308411 208.0
992.352295 160.0
996.111328 44.0
996.255859 152.0
999.091003 52.0
1009.978455 164.0
1011.579285 40.0
1025.572388 148.0
1031.84082 152.0
1035.795532 196.0
1040.001709 292.0
1040.476807 140.0
1041.947388 180.0
1042.152954 208.0
1049.619263 120.0
1053.917969 168.0
1054.092407 132.0
1056.426392 148.0
1057.73999 216.0
1074.036133 184.0
1074.101318 164.0
1074.563599 188.0
1078.430298 128.0
1079.13623 80.0
1079.482788 100.0
1080.123657 152.0
1080.908813 176.0
1082.453491 52.0
1089.82605 136.0
1091.876953 192.0
1094.146973 208.0
1096.182129 92.0
1101.440186 44.0
1101.730835 164.0
1101.902588 128.0
1113.335083 160.0
1113.912842 108.0
1117.522705 240.0
1118.401001 156.0
1122.531494 168.0
1124.339233 196.0
1125.727783 64.0
1128.708008 152.0
1133.446899 176.0
1134.023193 208.0
1138.531616 180.0
1141.730347 60.0
1142.086792 44.0
1142.799927 76.0
1143.432373 164.0
1144.442139 164.0
1147.986328 176.0
1148.222412 68.0
1151.238892 176.0
1152.684448 168.0
1155.050659 132.0
1155.53772 216.0
1164.519409 228.0
1168.101318 132.0
1169.155884 220.0
1169.414551 144.0
1172.254272 252.0
1174.115356 208.0
1174.217651 188.0
1179.775635 168.0
1180.219971 136.0
1181.334717 144.0
1184.661499 164.0
1185.915527 144.0
1192.916626 132.0
1194.628906 88.0
1195.991333 124.0
1197.29248 184.0
1198.167236 184.0
1208.211914 188.0
1211.527832 204.0
1213.731689 156.0
1214.342041 144.0
1219.23645 108.0
1219.486572 48.0
1219.729858 100.0
1224.82312 84.0
1229.312866 248.0
1229.38269 164.0
1229.731689 160.0
1233.174805 84.0
1235.125488 136.0
1235.328369 168.0
1236.286865 188.0
1237.609863 124.0
1238.471191 128.0
1238.751343 160.0
1240.657349 168.0
1241.099121 160.0
1241.596924 188.0
1241.772217 220.0
1243.35083 180.0
1244.164917 124.0
1246.52478 176.0
1247.979858 184.0
1248.51416 144.0
1249.062744 208.0
1249.231567 128.0
1251.047119 180.0
1252.383179 76.0
1257.0802 136.0
1258.611938 112.0
1258.717773 48.0
1259.346313 120.0
1264.139404 136.0
1266.093262 180.0
1266.341064 152.0
1266.68811 188.0
1268.551758 204.0
1271.615845 304.0
1275.479614 196.0
1276.318481 184.0
1278.950684 124.0
1282.077148 60.0
1282.283813 168.0
1282.57605 148.0
1284.0448 52.0
1286.984741 212.0
1287.984497 124.0
1290.221069 184.0
1291.372314 208.0
1291.429565 228.0
1292.202026 116.0
1295.688599 208.0
1298.35498 136.0
1298.935913 156.0
1302.388306 128.0
1306.039551 144.0
1307.622437 220.0
1307.831177 60.0
1308.867798 104.0
1309.07666 140.0
1309.955322 148.0
1312.268555 56.0
1315.175659 192.0
1320.905518 144.0
1322.46106 240.0
1323.423828 184.0
1325.647583 200.0
1326.270874 132.0
1327.039185 184.0
1330.013428 176.0
1330.27478 152.0
1330.41272 152.0
1330.812012 116.0
1332.053833 204.0
1336.473877 184.0
1337.492676 124.0
1337.783813 272.0
1337.958496 48.0
1340.893921 124.0
1343.059326 160.0
1345.299438 188.0
1345.394287 92.0
1346.986206 160.0
1347.139648 136.0
1347.314941 208.0
1347.775146 124.0
1348.288086 204.0
1348.761719 68.0
1350.092407 196.0
1350.40686 148.0
1351.34314 148.0
1351.489502 244.0
1352.579834 148.0
1352.850708 244.0
1353.780518 128.0
1354.490967 100.0
1356.051514 180.0
1357.759766 92.0
1358.720581 188.0
1360.834229 132.0
1360.88562 156.0
1363.10376 148.0
1364.941406 196.0
1365.014893 156.0
1366.485962 156.0
1366.934814 92.0
1367.089355 220.0
1368.009277 216.0
1368.134399 84.0
1368.531982 212.0
1368.797119 80.0
1369.651367 48.0
1369.74707 200.0
1370.704834 144.0
1371.633423 168.0
1373.956299 164.0
1374.553833 136.0
1376.236694 108.0
1376.738892 88.0
1377.706421 164.0
1380.145264 120.0
1381.46167 180.0
1382.586304 160.0
1383.289429 164.0
1385.370239 160.0
1386.214844 144.0
1386.503784 208.0
1388.379395 152.0
1388.794678 164.0
1391.117188 212.0
1391.577393 220.0
1394.793945 224.0
1396.69751 256.0
1396.786743 148.0
1396.950317 56.0
1397.835693 252.0
1398.401245 176.0
1399.651855 164.0
1399.852905 192.0
1401.633179 176.0
1402.437988 184.0
1403.280396 104.0
1404.504272 160.0
1406.017822 80.0
1407.174805 172.0
1408.123169 132.0
1408.765503 252.0
1408.944824 124.0
1409.026978 224.0
1412.8396 160.0
1413.767334 172.0
1414.411011 120.0
1415.77356 192.0
1415.878418 172.0
1416.949585 180.0
1417.136841 96.0
1417.796265 120.0
1418.883057 128.0
1419.617798 208.0
1419.722778 148.0
1420.135254 268.0
1420.352783 240.0
1421.358032 148.0
1422.003418 124.0
1423.166992 96.0
1423.827759 224.0
1425.044556 176.0
1425.781006 56.0
1428.051392 160.0
1429.710327 236.0
1430.037598 248.0
1432.236206 192.0
1432.325439 172.0
1433.901245 144.0
1435.567261 84.0
1435.823608 96.0
1436.592896 152.0
1437.939575 168.0
1439.56665 96.0
1442.535767 176.0
1445.364258 180.0
1446.158813 196.0
1447.120239 160.0
1448.286377 84.0
1449.505981 144.0
1450.241089 124.0
1450.407837 216.0
1453.722046 128.0
1454.131836 196.0
1454.723877 228.0
1455.19458 140.0
1455.56665 132.0
1456.098145 228.0
1457.351562 208.0
1457.63269 144.0
1458.787842 132.0
1459.107178 196.0
1459.426392 140.0
1459.74585 132.0
1460.095581 148.0
1460.224854 112.0
1463.359863 164.0
1464.189941 152.0
1464.517334 104.0
1465.172485 156.0
1465.637207 172.0
1466.345947 44.0
1468.984009 116.0
1470.349731 124.0
1470.517578 40.0
1471.006104 156.0
1472.58667 120.0
1473.96936 172.0
1474.068604 60.0
1476.346558 180.0
1477.340942 132.0
1477.891724 136.0
1479.09314 160.0
1479.414673 124.0
1480.011841 112.0
1480.762329 120.0
1482.394043 124.0
1482.630249 188.0
1484.847046 160.0
1485.744507 140.0
1488.031494 204.0
1488.100586 128.0
1488.914429 204.0
1489.306152 180.0
1491.953857 208.0
1492.515869 300.0
1494.195068 116.0
1495.00293 176.0
1497.520264 172.0
1497.7052 196.0
1499.253662 100.0
1500.340454 132.0
1501.00354 156.0
1501.774658 108.0
1503.680298 216.0
