>compound Paclitaxel
>formula C47H51NO14 
>ionization [M+H]+
>parentmass 854.3382317640904
#inchi InChI=1S/C47H51NO14/c1-25-31(60-43(56)36(52)35(28-16-10-7-11-17-28)48-41(54)29-18-12-8-13-19-29)23-47(57)40(61-42(55)30-20-14-9-15-21-30)38-45(6,32(51)22-33-46(38,24-58-33)62-27(3)50)39(53)37(59-26(2)49)34(25)44(47,4)5/h7-21,31-33,35-38,40,51-52,57H,22-24H2,1-6H3,(H,48,54)
#inchikey RCINICONZNJXQF
#Ion_Source LC-ESI
#Instrument qTof
#Compound_Source Isolated
#PI Sirenas
#Data_Collector Ed Esquenazi 
#Scan -1
#Precursor_MZ 854.341
#ExactMass 0.0
#Charge 1
#CAS_Number N/A
#Pubmed_ID N/A
#Smiles N/A
#INCHI_AUX N/A
#Library_Class 3
#SpectrumID CCMSLIB00000005449
#IonMode Positive
#UpdateWorkflowName UPDATE-SINGLE-ANNOTATED-BRONZE
#LibraryQualityString Bronze
#TaskID d19310cd93df49b68e9fcbec27720eb5
##Scan# 1
#SpectrumFile Paclitaxel.mgf
#LibraryName fda_library.mgf
#MQScore -1
#Organism fda_library
#TIC_Query 0
#RT_Query -1
#MZErrorPPM -1
#SharedPeaks 0
#MassDiff 0
#LibMZ -1
#SpecMZ 854.341
#SpecCharge 0
#internalFilename spec-00000.mgf

>collision 10
105.017303 32.688801
105.033363 1090.237061
105.077599 4.375
105.181107 14.48571
105.224144 13.09167
105.259888 17.14982
105.284729 5.875
105.314613 3.080128
105.341553 20.01425
105.857414 11.20119
105.924461 6.671053
106.067322 68.980743
106.178825 9.333333
107.082329 9.458333
117.068352 50.80278
118.063385 71.026039
118.300293 16.161619
118.370598 17.201191
119.080925 16.04167
119.310715 6.75
121.064484 41.460941
121.099716 151.313004
121.9375 10.36218
122.060371 1408.409058
122.121964 3.675
122.171951 9.075
122.230209 15.22685
122.362144 11.33333
122.429398 16.70833
122.513306 5.518939
122.564484 2.003788
122.61911 21.556219
122.695656 21.6
123.078529 18.63209
124.155838 12.60556
125.057472 85.000908
131.085449 45.584229
132.378311 3.125
132.438248 8.462607
132.582413 6.041667
132.931137 9.171748
133.063568 155.080093
133.101303 466.14389
133.131775 2.695513
133.316483 5.357143
133.525436 5.681667
133.541519 4.394608
134.088837 6.068182
135.082306 43.876041
136.07695 20.355551
136.102493 5.668478
137.058563 112.947701
137.094299 8.564103
137.20459 12.45333
137.238327 17.190479
137.613464 5.414216
139.073334 46.694839
143.083054 137.199493
144.453796 17.782049
145.065659 38.654591
145.106552 69.358437
149.060471 144.818207
149.095535 111.048401
149.200348 5.166667
149.718994 5.208333
150.648285 17.164631
151.076035 17.702591
151.106842 31.00174
157.063583 48.583328
157.098297 58.848911
159.081482 35.150002
159.283051 3.703704
161.057281 37.666672
161.09697 120.585602
163.073807 54.09375
163.134781 2.449074
164.11171 41.128029
164.363113 7.366667
165.055466 17.6586
167.065125 76.823112
167.522598 4.694444
169.101532 167.700897
169.172394 2.166667
170.104599 68.832657
170.130768 3.708333
171.068146 18.67778
173.097321 106.293297
175.113052 31.671841
176.163971 16.67778
177.054062 280.644714
177.089081 268.508392
177.389709 6.737069
177.538025 18.313761
179.066696 90.375282
179.355072 8.375
181.100204 32.118469
181.330475 1.708333
183.113358 39.927631
183.153442 1.694445
185.090942 109.4487
185.130981 62.91338
185.686569 14.22222
186.288269 8.166667
187.111847 7.935
189.053314 119.4599
189.127884 99.31958
189.176651 2.008333
191.10112 22.96983
191.976715 3.0
192.049683 13.07576
192.124039 10.72115
192.251572 8.334459
193.049164 32.749668
193.123886 210.8237
193.300537 11.03716
193.82373 15.78513
193.9048 8.019608
194.447708 7.729167
195.067551 112.025497
195.114273 94.183533
197.088837 27.671301
199.09845 19.043011
199.221085 7.102273
200.219131 4.681667
203.105545 46.697922
207.064682 139.010498
207.099976 3.010417
207.325317 7.083333
207.425522 4.002193
207.605835 15.42014
207.859055 6.454545
209.102371 10.66786
209.113403 50.96542
209.132309 60.44746
210.088455 8.407609
210.624237 10.33553
211.149658 72.672119
211.837845 5.69697
212.567963 3.857143
213.0802 5.7
213.125748 28.013889
219.48558 8.008333
221.130859 67.678612
221.833038 15.33681
222.220627 15.20513
223.101196 126.566399
223.729599 7.75
225.131805 24.86458
225.405685 5.76923
227.128342 31.43622
227.145218 30.61594
229.160416 16.888889
231.137405 90.445122
235.096817 19.492229
235.144882 155.830795
237.077408 45.667889
237.123611 102.752899
237.15715 23.193081
237.798859 36.978378
239.104034 39.333809
239.138214 125.790199
239.206284 7.075617
239.536789 12.89799
239.690765 10.12527
240.101822 700.378479
240.450806 3.047619
240.585983 11.81349
240.844757 4.669117
240.893387 8.057693
241.11731 118.962997
241.581131 15.49745
242.281235 13.59524
243.101395 9.68254
245.128876 76.006523
247.11557 24.33814
247.146011 53.892899
249.122437 31.930321
251.102768 48.756931
251.137146 55.647079
253.11824 122.6166
253.15593 59.653412
254.320404 7.020833
255.088806 52.4319
255.106644 4.148809
255.133682 80.151703
255.169937 9.017544
257.082611 30.55208
257.113373 24.70476
259.133911 37.93005
259.169922 5.345238
261.130859 43.299751
261.286407 4.558333
263.144684 272.051697
263.448486 6.075
263.771576 7.242816
264.059937 19.00798
265.125763 87.975792
265.154968 113.034599
265.508972 6.399193
265.754547 7.552536
266.621246 10.00417
266.689331 4.708333
266.968262 23.868521
267.102081 54.19669
267.138733 57.013889
267.621887 10.3649
268.043579 2.041667
268.096527 2250.791016
268.168518 8.017544
268.191315 1.666667
268.350861 9.670455
268.384216 10.93447
268.421204 7.935
268.469543 22.727079
268.498138 13.46296
268.53537 9.897988
268.687256 21.60745
268.720215 2.761364
268.746674 16.466669
268.869659 8.694445
269.114502 59.400002
269.148041 47.650902
269.348114 14.17385
269.435028 6.98077
269.892303 9.201667
273.122589 54.71904
276.112305 44.748569
280.440369 11.66779
281.153137 514.371399
281.311157 6.692308
281.530579 14.88195
281.56012 12.57576
283.130096 14.02083
283.612274 3.6875
283.814148 4.560185
283.876495 6.880952
284.288208 26.12619
284.358551 60.681751
284.400848 19.136021
284.436066 36.12373
284.539185 9.333333
284.575867 14.58559
284.632141 6.678572
284.679474 9.422721
284.707886 15.52844
284.749451 27.42338
284.849518 76.522148
285.069427 10.54688
285.108704 6.0
285.147705 103.469299
285.184204 77.219208
285.280701 22.19813
285.473022 3.708333
285.502411 10.09122
285.594208 5.469444
285.625854 4.363636
285.944611 4.694444
286.042267 46.134449
286.065674 77.792343
286.107758 13373.339844
286.180725 170.541397
286.221527 19.94837
286.249573 12.36925
286.270142 102.841797
286.285095 14.015
286.304413 82.825127
286.365814 25.509451
286.394592 7.94697
286.421387 50.61409
286.438751 10.48522
286.480896 61.857471
286.52179 25.80969
286.575958 14.42222
286.625427 39.944489
286.696655 34.800678
286.779053 37.066582
286.814484 29.55094
286.860992 46.67577
286.885468 12.24575
286.948181 29.76169
287.156738 18.77844
287.464783 16.272511
287.557587 6.00119
287.604095 7.208333
288.833282 4.120098
289.010651 5.422101
289.312653 4.671297
289.484009 8.560185
290.14151 12.09643
291.13678 387.130188
291.262451 7.2
291.286194 4.703703
291.923706 3.111111
292.361847 9.469697
293.344177 7.69482
294.554962 6.668859
294.823914 14.53289
297.140045 59.898991
297.260193 26.02206
297.613861 3.708333
297.691925 9.057971
299.164825 286.745209
299.728088 8.041667
299.950867 4.520833
300.723328 6.891666
305.148712 31.669189
307.154785 5.59375
307.318329 4.355392
307.361023 8.666667
309.118347 52.728081
309.148926 1008.815979
309.236481 5.09375
309.279449 13.61344
309.364777 9.04344
309.444366 15.84444
309.481049 8.435606
309.891235 9.00085
309.926483 20.76877
311.12973 104.376297
311.34436 8.683333
313.182465 2.35
315.138336 39.045422
317.167877 73.526772
319.113525 28.26535
323.116913 8.698232
323.158722 5.416667
325.098663 13.75439
325.1492 23.289961
325.219543 22.370171
325.284149 7.342593
325.309113 9.380208
325.578979 3.010417
327.158722 1667.016968
327.238281 3.342592
327.446442 3.002778
327.506012 19.67605
327.55304 6.520061
327.590912 5.358334
327.628387 2.027778
327.653778 6.666667
327.72934 9.773936
327.792328 5.371913
327.897217 28.550579
327.98761 4.681667
328.116333 222.634598
328.313751 5.053571
328.75705 3.458333
328.969238 9.370614
329.138611 67.895653
330.213715 10.16667
339.047821 12.49597
341.176666 154.690903
341.872955 8.333333
345.170715 744.961792
345.228088 14.56061
345.374481 3.333333
345.442383 3.583333
345.768982 3.675
345.807831 11.37745
345.838623 6.558333
346.565125 5.357143
347.144104 51.269699
351.159485 111.724899
351.263367 9.548245
352.503387 4.844298
355.114746 41.678371
357.171692 73.611877
359.177429 14.37281
359.197266 54.03157
359.400696 13.10526
360.187775 34.190479
360.265961 8.763095
367.953003 2.0
369.09552 31.837061
369.170013 652.890991
369.261078 1.777778
369.459869 28.47584
369.50473 8.446428
369.641022 7.453703
369.757172 6.482143
370.022186 8.826755
370.127716 12.00119
370.232422 16.2526
370.304077 2.520833
370.761108 6.020833
371.146393 4.041667
371.860504 9.355496
372.122131 113.110901
373.76062 15.53452
384.661438 9.445371
384.728058 16.57143
384.873016 13.29493
385.097473 13.04529
385.391022 14.95323
385.993103 3.010417
386.478516 31.089291
386.65686 21.096491
387.181091 1793.078003
387.272278 4.025
387.358246 10.38782
387.402466 6.564103
387.525635 12.39682
387.580414 4.727941
387.648926 16.33396
387.696869 10.06667
387.7724 14.84816
387.833405 2.386905
387.861267 10.46261
387.929932 21.234221
387.971558 4.190476
388.094269 27.450781
388.382172 7.0
389.150421 10.34921
389.587646 3.226852
390.132233 916.758972
390.208008 4.333333
390.278778 14.59269
390.380035 15.35088
390.421082 4.120098
390.470245 3.555556
390.670319 2.444444
390.757965 2.680556
390.854248 1.6875
391.108765 25.02424
391.748932 17.000971
398.645996 14.46759
402.487549 10.7815
403.188324 24.790409
404.030914 19.687929
404.75882 13.64477
405.109802 25.253571
405.192627 1216.277954
405.459015 4.349638
405.529022 8.854167
405.55011 6.057692
405.669312 15.73555
405.8125 9.400001
405.960052 7.5
406.152832 13.37337
406.552551 9.809524
407.078827 3.055556
414.716125 4.333333
417.71106 9.057971
421.14801 61.68837
423.205261 50.133591
426.583099 15.04167
428.674835 10.78205
428.766724 24.69565
429.078308 5.160714
429.188812 174.881699
429.242188 3.386905
431.187256 178.889008
431.35144 6.677083
431.611389 8.712037
432.036316 10.85201
432.143005 31.54167
433.818604 10.43622
444.418152 3.666667
445.078461 8.477381
446.465851 8.583333
447.200684 561.932983
447.269531 1.708333
447.308472 15.08772
447.333557 12.0496
447.521301 12.37306
447.622986 11.38611
447.985962 24.859859
448.201996 1.777778
449.195953 1492.652954
449.256989 7.819444
449.333221 12.04167
449.36911 54.23188
449.417084 31.40695
449.664062 19.40797
449.702454 12.89302
449.736389 8.847222
449.802795 14.91177
449.979889 8.333333
450.016815 12.45058
450.083344 5.669872
450.444946 11.00097
450.6492 7.166667
450.746429 7.444445
451.171906 57.265148
451.288239 8.888888
451.576294 22.13286
452.267487 13.23132
453.114319 7.078432
459.796173 3.402778
462.214081 6.002778
465.211639 363.953491
465.302917 17.404341
465.925323 19.794701
466.039795 1.777778
473.201355 139.036301
473.283844 2.367424
488.126465 16.523729
488.349396 8.560185
488.682556 7.653986
488.841248 20.341311
491.204468 415.013885
491.305969 4.001812
491.406219 3.669444
491.622406 11.45833
491.799622 9.370833
491.830475 6.005208
491.944885 8.481482
492.026398 8.364899
493.619171 4.387821
497.083069 4.033333
502.971954 11.00093
505.811584 22.349039
505.917603 9.388888
505.972382 4.333333
506.003693 11.10565
506.124969 31.378969
506.186066 9.075
506.222839 13.35212
506.320221 24.11764
506.363739 9.033603
506.578674 2.016667
506.768097 7.926282
507.288818 4.341667
507.46814 10.66733
507.735443 6.786765
508.014313 7.080883
509.165222 81.9263
509.218262 4737.535156
509.311829 48.37648
509.381256 69.51767
509.426117 43.43055
509.45282 2.678571
509.536255 34.21051
509.600067 31.09964
509.710785 83.254227
509.838593 39.87035
509.941833 75.357239
509.987183 16.73554
510.126892 47.16618
510.507721 52.391769
510.656189 20.960779
510.798798 6.533333
511.190002 16.375
511.5672 13.01071
511.598724 9.04344
512.045715 2.14881
512.370483 15.38313
523.230469 11.37862
524.65686 8.003205
527.233948 83.788231
528.51239 4.033333
533.217957 9.796296
540.194641 11.03788
541.175476 12.015
547.539185 3.773809
547.620728 10.00915
547.726562 5.088768
547.807983 16.043011
547.88147 3.125
547.971436 18.760099
548.053711 13.58954
548.516602 6.357143
548.704041 21.100809
549.056335 19.48321
549.360229 4.375
551.175964 18.05357
551.230286 1458.501953
551.363831 2.337963
551.453674 3.333333
551.518616 6.758333
551.616516 3.857143
551.735901 45.168369
551.790527 6.094697
551.81366 8.388441
551.862976 36.931831
551.975464 11.03409
552.140137 13.73035
552.444946 11.45581
552.772949 5.787037
553.183594 7.226852
565.29657 8.547619
565.313477 5.684524
565.718994 7.674242
565.801697 12.44983
565.844055 3.15
566.179321 8.573413
566.347839 7.001984
566.437683 22.003469
566.778442 11.0
567.11853 25.806709
567.82251 5.335784
569.239502 2215.052002
569.362488 18.728331
569.391724 14.90686
569.503113 20.615219
569.556519 4.469445
569.606201 15.03141
569.639404 4.394608
569.689209 10.00595
569.722473 4.340909
569.816895 3.125
569.938416 13.33452
569.963318 12.33796
570.169189 31.95907
570.485046 30.686119
570.552673 17.35684
570.852966 6.673611
570.944275 16.52301
571.209839 4.734848
572.224609 13.57992
572.482605 3.047619
576.126038 3.802778
576.427063 12.75
594.247192 57.217331
612.244751 25.40333
626.264526 11.11574
630.269958 93.909401
632.199829 34.87756
636.254517 8.74359
643.268494 18.129379
645.31488 12.00556
654.271912 8.702586
655.197327 17.551331
655.25647 300.106598
655.401794 11.78922
669.531372 5.009259
672.274292 78.616203
672.588257 8.223765
673.254272 12.56944
673.660522 9.88469
674.211426 16.347219
690.28241 21.85833
690.31311 9.666667
698.288757 28.1353
698.922546 13.38371
709.632019 8.708333
714.288879 68.324944
716.289856 95.500221
716.338806 3.760417
729.907043 11.02083
732.301941 276.481293
732.519043 17.151239
732.980591 11.21338
733.255249 29.88306
733.300659 3.005953
733.594055 15.61232
734.281433 25.67593
735.304016 36.025002
736.629944 19.51306
758.125 11.68056
758.296387 5.633333
758.755554 6.927469
771.563599 6.015
772.533569 5.208333
772.936401 8.674319
772.99176 6.703947
776.24762 31.338619
776.304138 1024.286987
776.411133 7.541667
776.528809 25.32398
776.609924 4.721154
776.717102 19.03651
776.926453 26.068371
777.401611 20.934521
777.566284 6.454545
777.643799 9.227151
777.969299 6.25
778.265076 21.715349
785.364746 7.639493
790.063354 19.27619
794.321411 338.818512
794.459839 11.00641
794.628906 14.7219
795.037659 2.337121
795.390808 12.04003
795.508545 2.0
795.577026 28.715611
797.195496 1.741667
803.915039 3.958333
827.507202 1.694445
827.583801 8.735
830.695251 7.935
836.335083 308.40329
836.551025 17.777781
836.850403 7.337719
836.993408 10.02976
837.595093 4.695513
837.633118 19.158331
837.706055 2.4
837.867188 9.375
842.647156 7.670455
846.39624 6.966667
846.466553 2.111111
848.13269 6.380208
848.353455 84.650307
848.40271 11.70259
848.473694 59.185841
848.518311 150.168594
848.597961 80.055527
848.67627 105.452202
848.72229 112.852097
848.911377 133.385696
849.790588 32.215389
849.854614 52.186321
850.067688 65.723541
850.136658 10.675
850.167969 64.714256
850.265076 49.528179
850.383423 17.92905
850.608459 53.278831
850.697998 20.0254
850.963501 53.883518
851.398804 51.751591
852.471313 6.201666
853.802979 2.449074
853.945923 5.265351
854.036194 7.342949
854.166382 72.757271
854.341858 32601.449219
854.759888 191.246506
854.805969 96.771523
854.857178 79.135918
854.945129 236.470505
855.000793 283.614899
855.070557 48.93187
855.108154 83.728691
855.14386 226.273605
855.202942 170.461304
855.578979 80.874649
855.861877 116.289597
855.919678 112.3283
856.254272 74.384209
856.320007 61.6749
856.455505 140.3367
856.543884 37.033649
857.051941 32.949211
857.150024 6.415
857.290527 19.508261
857.407715 14.66818
857.642334 56.346432
857.71228 14.64354
858.087402 7.214285
858.286133 30.16954
858.606934 16.159
859.157654 30.0
859.254272 5.746795
859.360779 5.136111
859.942993 15.37771
860.044922 10.41667
860.228699 8.360043
860.351074 8.349638
860.992493 6.413462
861.38208 8.736842
861.434387 5.773809
861.729248 5.357143
861.749695 3.00463
861.80072 2.333333
862.699707 6.671053
863.026611 4.007576
863.404846 12.00079
864.130798 2.0
864.243286 3.0
864.797302 21.930559
865.153503 7.755435
869.424805 4.675
872.61908 5.0
874.487488 4.666667
885.563904 31.683611
1065.674927 8.523648
1109.950684 9.010715
1193.132446 46.108971
1530.430908 5.386905
1545.46875 5.375
1563.224854 91.758492
1563.365356 2.14881
1585.580322 41.152779
