>compound MLS001141232-01!(2S)-1-[(2S)-2-[(5-chloro-1-methylindole-2-carbonyl)amino]-3-methylpentanoyl]pyrrolidine-2-carboxylic acid
>formula C21H26ClN3O4
>ionization [M+H]+
>parentmass 420.169
#inchi InChI=1S/C21H26ClN3O4/c1-4-12(2)18(20(27)25-9-5-6-16(25)21(28)29)23-19(26)17-11-13-10-14(22)7-8-15(13)24(17)3/h7-8,10-12,16,18H,4-6,9H2,1-3H3,(H,23,26)(H,28,29)/t12?,16-,18-/m0/s1
#inchikey CJTXEFHQAZFYBT
#Ion_Source LC-ESI
#Instrument qTof
#Compound_Source NIH Natural Product Library
#PI Dorrestein
#Data_Collector VVP/LMS
#Scan -1
#Precursor_MZ 420.169
#ExactMass 419.161
#Charge 1
#CAS_Number N/A
#Pubmed_ID N/A
#Smiles CCC(C)[C@H](NC(=O)c1cc2cc(Cl)ccc2n1C)C(=O)N3CCC[C@H]3C(=O)O
#INCHI_AUX N/A
#Library_Class 1
#SpectrumID CCMSLIB00000079613
#IonMode Positive
#UpdateWorkflowName UPDATE-SINGLE-ANNOTATED-GOLD
#LibraryQualityString Gold
#TaskID b1d8e8f6646f4e71acdff9ca3d919d08
##Scan# 2301
#SpectrumFile p1-G08_GG8_01_17952.mzXML
#LibraryName NIH_Natural_Products_Library.mgf
#MQScore -1
#Organism NIH_Natural_Products_Library
#TIC_Query 0
#RT_Query -1
#MZErrorPPM -1
#SharedPeaks 0
#MassDiff 0
#LibMZ -1
#SpecMZ 420.169
#SpecCharge 0
#internalFilename spec-00000.mgf

>collision 10
95.342903 160.0
95.510109 160.0
95.545128 188.0
95.97361 132.0
96.05162 104.0
96.397186 116.0
96.428459 180.0
96.469505 200.0
96.496872 224.0
96.565315 216.0
96.990196 196.0
97.0196 164.0
97.149033 108.0
97.315849 116.0
97.414047 104.0
97.427795 188.0
97.599243 156.0
97.760094 180.0
97.833618 180.0
98.047615 168.0
98.124489 240.0
98.315826 40.0
98.413963 264.0
98.529076 196.0
98.635788 140.0
98.720802 40.0
98.766289 148.0
99.0019 188.0
99.102837 240.0
99.559074 324.0
99.634552 232.0
99.781624 180.0
99.813118 228.0
100.19558 136.0
100.235435 152.0
100.462723 160.0
100.494644 180.0
100.560501 132.0
100.768173 124.0
101.050079 84.0
101.228226 156.0
101.298325 88.0
101.510773 176.0
101.554893 180.0
101.749542 68.0
101.990608 124.0
102.067001 192.0
102.24604 92.0
102.401062 156.0
102.640877 252.0
102.769966 108.0
102.802147 152.0
103.042534 132.0
103.058701 52.0
103.137512 200.0
103.234558 96.0
103.25074 44.0
103.268944 88.0
103.377228 160.0
103.750877 208.0
103.840096 172.0
103.955734 236.0
104.03083 260.0
104.049843 416.0
104.891304 192.0
105.055138 316.0
105.22995 80.0
105.298141 204.0
105.941658 100.0
106.085114 180.0
106.146622 52.0
106.267639 160.0
106.329201 160.0
106.530418 136.0
106.898453 248.0
107.203224 32.0
107.574486 44.0
107.626099 148.0
107.661201 132.0
108.012566 140.0
108.289925 188.0
108.519943 104.0
108.563881 168.0
108.741905 168.0
108.86232 128.0
109.552849 232.0
109.625778 312.0
109.642448 108.0
109.82592 144.0
109.863472 188.0
109.930237 156.0
109.953194 184.0
110.279007 72.0
110.427452 208.0
110.720459 204.0
110.879684 156.0
110.923698 188.0
110.992882 92.0
111.236252 192.0
111.439964 144.0
111.801643 60.0
111.944794 208.0
112.008774 148.0
112.180771 124.0
112.470657 112.0
112.672478 144.0
112.73587 76.0
112.782364 152.0
113.010559 172.0
113.249977 128.0
113.343185 156.0
113.572151 168.0
113.654884 132.0
113.856552 144.0
113.95639 64.0
114.004021 180.0
114.024391 172.0
114.126427 192.0
114.260422 164.0
114.32 168.0
114.424294 140.0
114.560593 192.0
114.921303 84.0
115.142899 124.0
115.81234 96.0
115.827339 52.0
115.887321 152.0
116.037354 176.0
116.070389 10280.0
116.121582 100.0
116.171837 124.0
116.219658 60.0
116.259079 76.0
116.284042 44.0
116.460098 72.0
116.510735 56.0
116.629845 56.0
116.774361 168.0
116.788429 148.0
117.073959 604.0
117.126892 116.0
117.282036 152.0
117.903625 188.0
117.931717 52.0
117.959816 100.0
117.987335 88.0
118.046303 64.0
118.07515 116.0
118.217194 148.0
118.407707 184.0
118.461861 164.0
118.685089 100.0
118.776176 108.0
118.806541 236.0
118.845596 160.0
119.119141 64.0
119.158249 120.0
119.332123 152.0
119.558342 60.0
119.80439 224.0
119.834892 124.0
119.880646 100.0
119.941673 124.0
119.970009 160.0
120.0298 104.0
120.065948 148.0
120.087761 120.0
120.432617 108.0
120.495964 84.0
120.557152 136.0
120.830467 68.0
120.972717 64.0
121.086578 220.0
121.106293 168.0
121.239937 160.0
121.283005 184.0
121.33638 156.0
121.566689 192.0
121.731331 148.0
121.841156 212.0
121.909271 196.0
121.975204 160.0
122.37339 212.0
122.408623 164.0
122.470291 360.0
122.503326 92.0
122.600273 124.0
122.635536 132.0
122.873695 148.0
122.893555 148.0
122.915619 176.0
122.999992 4468.0
123.039223 180.0
123.213692 176.0
123.240204 76.0
123.297661 56.0
123.346283 144.0
123.414818 120.0
123.472313 136.0
123.549728 52.0
123.895088 256.0
123.968208 136.0
124.003792 308.0
124.189911 132.0
124.38073 112.0
124.771706 172.0
124.808098 272.0
124.995476 1268.0
125.221199 180.0
125.263519 112.0
125.415039 244.0
125.488602 112.0
125.575577 140.0
125.780853 184.0
125.82103 116.0
125.83889 176.0
126.012703 224.0
126.03566 212.0
126.319382 100.0
126.661865 236.0
126.852333 152.0
126.896873 212.0
126.993797 224.0
127.010406 300.0
127.099037 212.0
127.784019 144.0
127.856339 180.0
127.921608 132.0
127.956573 136.0
128.000793 116.0
128.049805 484.0
128.126541 136.0
128.397034 172.0
128.545914 132.0
128.620392 124.0
128.647491 116.0
128.990845 200.0
129.017975 136.0
129.057846 396.0
129.848999 164.0
130.080215 168.0
130.546204 128.0
131.037857 196.0
131.07431 188.0
131.217911 148.0
131.487076 136.0
131.569244 100.0
131.818207 44.0
131.932495 208.0
132.394684 208.0
132.50235 132.0
132.534424 56.0
132.637558 152.0
133.050369 320.0
133.169876 116.0
133.341614 176.0
134.011841 168.0
134.048706 184.0
134.482269 128.0
134.526138 140.0
134.567688 32.0
134.639267 108.0
134.777878 208.0
134.809418 172.0
135.00441 76.0
135.085358 132.0
135.170959 164.0
135.194107 112.0
135.418671 64.0
135.963516 236.0
136.144592 216.0
136.369949 248.0
136.528046 56.0
136.576889 168.0
136.744415 136.0
136.958618 64.0
137.008194 128.0
137.049469 140.0
137.492538 180.0
137.702652 68.0
137.994751 144.0
138.184204 184.0
138.273117 108.0
138.338654 188.0
138.390167 116.0
138.453384 84.0
138.565826 200.0
138.634048 172.0
138.886978 72.0
138.936249 168.0
138.952667 160.0
138.98317 180.0
139.013458 176.0
139.047852 156.0
139.208801 168.0
139.605667 148.0
139.885651 144.0
140.023987 472.0
140.069321 80.0
140.10466 180.0
140.406372 224.0
140.625778 136.0
140.821747 148.0
140.857178 148.0
140.932785 180.0
141.033463 204.0
141.691513 152.0
142.021286 484.0
142.147507 164.0
142.225815 168.0
142.411026 144.0
142.60347 132.0
142.924515 128.0
143.076782 148.0
143.29834 160.0
143.534302 180.0
143.829773 132.0
144.42749 184.0
144.611725 112.0
144.705093 208.0
144.855957 156.0
144.937424 136.0
144.999725 52.0
145.282669 168.0
145.426987 168.0
145.582703 128.0
145.724426 104.0
145.858994 128.0
146.058578 180.0
146.460556 100.0
146.549683 180.0
146.711166 192.0
146.87532 220.0
147.017487 88.0
147.087479 180.0
147.519882 144.0
147.621429 160.0
147.841568 92.0
147.904495 144.0
147.950485 144.0
148.435059 56.0
148.616989 136.0
148.636398 196.0
148.684937 176.0
148.748032 192.0
148.794159 76.0
149.010315 132.0
149.21933 132.0
149.246078 72.0
149.297134 140.0
149.382263 84.0
149.871628 152.0
150.008133 868.0
150.061737 108.0
150.110504 92.0
150.154404 100.0
150.251968 152.0
150.330048 168.0
150.576614 96.0
150.681656 124.0
151.214737 100.0
151.368973 132.0
151.501221 124.0
151.908173 64.0
151.954773 124.0
152.59581 60.0
153.000061 192.0
153.038681 212.0
153.218475 276.0
153.390976 128.0
153.654846 104.0
153.709122 196.0
154.002914 128.0
154.035019 56.0
154.111603 172.0
154.136307 148.0
154.190674 216.0
154.232697 164.0
154.336533 60.0
154.749725 160.0
154.814117 168.0
154.900803 168.0
154.986511 220.0
155.272583 112.0
155.292114 160.0
155.399094 168.0
155.550491 116.0
155.88826 200.0
156.000107 148.0
156.385666 120.0
156.405579 168.0
156.457855 136.0
156.517609 168.0
156.642136 132.0
156.72435 168.0
156.986084 108.0
157.088333 132.0
157.525192 192.0
157.572647 100.0
157.62262 172.0
157.900116 192.0
158.488388 76.0
158.771652 140.0
158.957291 156.0
159.122955 168.0
159.286194 276.0
159.348724 188.0
159.41954 160.0
159.459564 148.0
159.975204 168.0
160.136353 144.0
160.476547 224.0
160.7742 160.0
161.053009 252.0
161.324829 116.0
161.600494 140.0
162.015701 140.0
162.101852 232.0
162.461884 136.0
162.779144 36.0
162.973618 136.0
163.21875 216.0
163.291031 160.0
163.363724 36.0
163.576843 176.0
163.610565 184.0
163.712418 108.0
163.735641 172.0
163.834686 136.0
163.911118 96.0
163.970917 240.0
164.025513 1388.0
164.416031 148.0
164.510483 140.0
164.579407 128.0
164.763306 172.0
164.799072 132.0
165.032242 140.0
165.080246 108.0
165.566483 176.0
165.720169 52.0
165.750916 148.0
165.789352 96.0
165.835495 220.0
166.025726 504.0
166.039078 704.0
166.335663 120.0
166.659256 116.0
166.931717 180.0
166.993439 148.0
167.025024 216.0
167.050034 132.0
167.07576 148.0
167.67572 200.0
168.028732 164.0
168.674591 176.0
168.780594 116.0
168.845245 148.0
169.370651 100.0
169.388794 100.0
169.412094 148.0
169.461319 176.0
169.528702 156.0
169.697189 176.0
169.795715 152.0
169.959152 116.0
170.304428 68.0
170.379761 208.0
170.456497 112.0
170.850311 132.0
170.962189 140.0
171.12619 92.0
171.501312 68.0
171.756836 168.0
172.056946 136.0
172.268478 176.0
172.310272 132.0
172.406952 92.0
172.495819 160.0
172.569016 28.0
173.472229 92.0
173.563995 144.0
174.351517 200.0
174.430359 160.0
174.498718 176.0
174.51712 140.0
175.401688 200.0
175.462311 212.0
175.689117 176.0
175.736603 124.0
176.523758 148.0
176.611023 80.0
176.857101 160.0
177.347107 140.0
178.040512 1432.0
178.151123 196.0
178.520584 172.0
178.704117 32.0
178.799911 128.0
178.821198 244.0
178.866455 112.0
179.044006 460.0
180.020493 704.0
180.035431 340.0
180.141083 164.0
180.453766 112.0
180.600845 68.0
180.734604 176.0
180.798828 172.0
181.04245 196.0
181.114761 204.0
181.171021 192.0
181.307663 164.0
181.527496 180.0
182.021881 212.0
182.222687 128.0
182.416183 92.0
182.453812 112.0
182.884216 132.0
183.607269 176.0
183.627274 260.0
183.646729 88.0
183.757339 208.0
183.878769 124.0
184.308136 56.0
184.359482 52.0
184.71637 200.0
184.81543 176.0
184.84082 120.0
185.133514 168.0
185.214432 196.0
185.91394 240.0
186.921829 172.0
187.033707 168.0
187.573029 124.0
187.592117 124.0
187.862091 132.0
187.918564 160.0
187.973953 180.0
188.017624 68.0
188.195053 188.0
188.266052 176.0
188.315201 208.0
188.629425 164.0
188.711441 32.0
188.891937 40.0
189.108109 216.0
189.395599 116.0
189.422989 100.0
189.543533 164.0
189.707993 132.0
189.814911 168.0
189.886215 80.0
190.148224 20.0
190.448868 120.0
190.646683 144.0
190.71814 116.0
190.751129 216.0
190.817108 128.0
190.844604 44.0
191.119659 148.0
191.141663 84.0
191.2733 116.0
191.334961 156.0
191.418793 124.0
191.513321 184.0
191.536606 416.0
191.553757 160.0
191.587692 220.0
191.634537 56.0
191.690353 108.0
191.719559 140.0
191.757462 132.0
191.812866 184.0
191.865845 172.0
191.925156 240.0
191.936783 292.0
191.947205 64.0
191.969009 396.0
192.021118 90608.0
192.089493 120.0
192.134079 148.0
192.163162 60.0
192.181763 92.0
192.216171 72.0
192.223923 112.0
192.269363 128.0
192.300629 88.0
192.337585 128.0
192.380066 136.0
192.415054 64.0
192.4384 88.0
192.473633 396.0
192.520569 108.0
192.563019 144.0
192.589035 48.0
192.613098 112.0
192.648743 156.0
192.66832 108.0
192.710159 80.0
192.756165 96.0
192.777817 108.0
192.818344 204.0
192.88179 168.0
192.923965 76.0
193.02417 12704.0
193.057465 308.0
193.087845 92.0
193.117645 64.0
193.172272 92.0
193.202698 68.0
193.258606 176.0
193.303741 124.0
193.348663 48.0
193.390152 124.0
193.438217 76.0
193.479446 120.0
193.502747 96.0
193.563477 80.0
193.592545 52.0
193.711456 72.0
193.756393 128.0
193.828995 136.0
193.856689 184.0
193.879852 76.0
193.908798 140.0
193.929413 136.0
194.017792 34140.0
194.072632 96.0
194.111008 80.0
194.117004 196.0
194.15831 100.0
194.184845 92.0
194.207581 68.0
194.224289 124.0
194.272034 92.0
194.291977 128.0
194.300369 76.0
194.310623 132.0
194.333572 264.0
194.370193 136.0
194.41423 72.0
194.420914 88.0
194.450241 124.0
194.485809 112.0
194.556854 68.0
194.605072 120.0
194.663391 40.0
194.696396 72.0
194.746704 56.0
194.835587 76.0
194.868927 132.0
194.9384 96.0
194.97731 52.0
195.020981 2068.0
195.066254 48.0
195.105164 120.0
195.159653 120.0
195.227509 52.0
195.313721 56.0
195.386047 48.0
195.419434 72.0
195.458389 60.0
195.508484 140.0
195.558578 40.0
195.589203 108.0
195.703339 68.0
195.745102 56.0
196.023666 228.0
196.079407 48.0
196.235504 108.0
196.302429 44.0
196.374939 80.0
196.439087 88.0
196.477219 96.0
196.509628 156.0
196.561447 140.0
196.612076 72.0
196.645569 108.0
196.751648 152.0
197.039307 84.0
197.109146 76.0
197.643234 140.0
198.136002 60.0
200.149826 140.0
200.741577 136.0
201.772171 60.0
203.210922 60.0
203.582764 92.0
203.744675 76.0
204.077194 96.0
206.363876 56.0
206.655609 64.0
206.735733 56.0
207.884872 60.0
208.108765 72.0
208.893356 76.0
209.117783 144.0
210.054245 196.0
210.126358 104.0
212.954559 188.0
213.512573 104.0
216.275574 36.0
217.090057 100.0
217.315918 136.0
220.942734 68.0
224.1315 156.0
225.426559 96.0
228.716629 120.0
230.154663 144.0
233.594528 188.0
234.103806 1776.0
234.175903 72.0
234.440948 48.0
234.57811 180.0
235.102097 528.0
235.325546 56.0
236.100204 688.0
236.392319 116.0
236.971893 72.0
237.090546 64.0
247.114517 108.0
257.515289 44.0
260.173035 100.0
265.37384 36.0
270.714539 72.0
277.110443 1792.0
277.502533 56.0
277.585419 52.0
278.019989 108.0
278.11319 1132.0
279.103455 308.0
279.196045 36.0
279.239258 124.0
279.319092 36.0
279.77832 52.0
280.096191 176.0
295.770538 68.0
300.989349 88.0
304.400177 76.0
305.094421 148.0
307.111267 100.0
307.900055 108.0
309.97049 132.0
320.811371 132.0
325.311676 76.0
334.057007 200.0
337.061218 124.0
339.990784 120.0
347.325714 148.0
350.891998 48.0
353.293365 52.0
372.249847 116.0
384.908813 80.0
384.959595 128.0
391.571686 72.0
394.906738 88.0
400.439545 52.0
401.280365 100.0
403.972076 20.0
416.955841 100.0
421.283112 140.0
433.69397 88.0
444.596375 92.0
451.137665 80.0
470.655182 80.0
472.62619 100.0
489.057465 120.0
502.605377 108.0
515.230957 60.0
523.085449 96.0
528.383728 52.0
530.33905 76.0
536.383484 80.0
570.812927 124.0
616.663513 68.0
685.853638 112.0
807.127686 52.0
825.2948 80.0
877.998962 116.0
888.527893 152.0
912.044617 20.0
939.848755 84.0
965.446411 152.0
969.519897 216.0
974.856873 120.0
983.613708 52.0
995.453003 252.0
1000.621521 128.0
1000.76001 184.0
1030.795044 120.0
1033.57019 152.0
1046.265503 56.0
1063.862793 164.0
1086.692139 156.0
1089.515259 96.0
1092.526245 64.0
1111.740601 20.0
1113.632812 108.0
1114.509644 220.0
1117.428467 148.0
1121.450684 172.0
1132.280884 212.0
1134.19043 136.0
1137.061035 156.0
1140.325195 112.0
1142.402954 152.0
1159.662109 116.0
1162.84314 132.0
1167.496826 44.0
1168.877808 144.0
1181.069336 180.0
1184.197266 132.0
1206.015259 36.0
1215.496216 128.0
1217.877441 176.0
1234.093994 144.0
1236.696289 144.0
1241.712891 204.0
1246.42334 220.0
1247.857178 40.0
1248.762817 200.0
1250.164429 140.0
1252.368042 156.0
1265.772217 144.0
1271.216309 160.0
1280.365601 132.0
1281.184692 104.0
1290.012329 144.0
1293.088013 192.0
1293.53186 100.0
1295.092773 148.0
1297.708496 168.0
1299.889038 168.0
1307.247437 148.0
1307.477783 192.0
1309.234375 188.0
1310.71106 128.0
1311.093018 136.0
1312.44104 192.0
1316.611938 136.0
1318.468628 72.0
1322.938599 92.0
1331.393066 68.0
1332.49707 116.0
1334.64856 160.0
1336.918091 172.0
1338.971069 116.0
1349.303589 184.0
1350.729614 212.0
1356.104004 56.0
1356.338501 224.0
1363.472656 212.0
1364.163574 116.0
1369.535156 156.0
1376.866333 192.0
1383.114014 108.0
1387.818237 228.0
1389.635376 164.0
1389.694824 120.0
1389.768921 156.0
1390.978638 204.0
1391.37207 108.0
1393.042969 156.0
1395.153564 176.0
1399.156006 220.0
1400.168701 60.0
1400.638916 136.0
1401.829956 100.0
1403.738281 264.0
1404.118652 124.0
1405.580688 188.0
1409.022827 116.0
1415.717285 172.0
1415.911987 144.0
1417.260376 188.0
1419.741577 164.0
1419.824097 172.0
1420.536621 156.0
1421.159302 124.0
1421.384399 176.0
1421.939697 164.0
1430.282715 72.0
1436.627563 132.0
1436.952026 196.0
1437.706543 168.0
1439.397461 128.0
1441.097046 60.0
1442.086914 132.0
1447.452393 244.0
1449.389771 208.0
1452.300903 32.0
1453.772827 148.0
1457.888794 132.0
1460.481323 76.0
1464.721069 108.0
1467.342529 148.0
1470.859375 152.0
1472.76062 136.0
1476.123291 228.0
1476.727539 288.0
1478.563721 188.0
1479.597046 204.0
1485.052979 176.0
1486.595093 204.0
1487.155273 224.0
1487.523804 152.0
1489.059448 208.0
1489.71228 148.0
1495.248413 188.0
1495.702515 48.0
1497.927979 168.0
1498.783081 172.0
1499.22998 152.0
1500.332275 132.0
1501.334595 256.0
1502.059692 152.0
