>compound MLS000069541-01!NABUMETONE
>formula C15H16O2
>ionization [M+H]+
>parentmass 229.12230620409053
#inchi InChI=1S/C15H16O2/c1-11(16)3-4-12-5-6-14-10-15(17-2)8-7-13(14)9-12/h5-10H,3-4H2,1-2H3
#inchikey BLXXJMDCKKHMKV
#Ion_Source LC-ESI
#Instrument qTof
#Compound_Source NIH Pharmacologically Active Library
#PI Dorrestein
#Data_Collector VP/LMS
#Scan -1
#Precursor_MZ 229.126
#ExactMass 228.115
#Charge 1
#CAS_Number N/A
#Pubmed_ID N/A
#Smiles COc1ccc2cc(CCC(=O)C)ccc2c1
#INCHI_AUX N/A
#Library_Class 1
#SpectrumID CCMSLIB00000086097
#IonMode Positive
#UpdateWorkflowName UPDATE-SINGLE-ANNOTATED-GOLD
#LibraryQualityString Gold
#TaskID d252d724072548979f1f6f1ced849daf
##Scan# 2191
#SpectrumFile p5-E03_GE3_01_18460.mzXML
#LibraryName Pharm_Active_Library.mgf
#MQScore -1
#Organism Pharm_Active_Library
#TIC_Query 0
#RT_Query -1
#MZErrorPPM -1
#SharedPeaks 0
#MassDiff 0
#LibMZ -1
#SpecMZ 229.126
#SpecCharge 0
#internalFilename spec-00000.mgf

>collision 10
45.273994 148.0
45.323715 120.0
45.350517 108.0
45.845093 172.0
46.050156 160.0
47.554672 220.0
47.769024 172.0
48.35405 172.0
48.460674 176.0
48.473145 144.0
48.7215 224.0
50.715595 200.0
52.07822 112.0
53.198746 196.0
53.699287 180.0
54.407509 120.0
55.925652 216.0
55.955425 180.0
56.006054 100.0
58.70546 108.0
59.493431 136.0
60.251118 68.0
61.851295 172.0
62.786133 232.0
63.569202 144.0
64.078011 56.0
66.314926 176.0
66.582619 140.0
67.567146 160.0
68.722145 164.0
69.169998 180.0
69.499794 56.0
70.280151 252.0
70.458794 196.0
70.590836 168.0
72.823891 136.0
73.856781 104.0
74.190697 260.0
74.743729 172.0
75.153816 208.0
76.477798 176.0
77.168602 128.0
77.390808 184.0
77.459106 208.0
79.415649 180.0
80.050102 68.0
80.069695 152.0
80.599503 168.0
81.143616 164.0
81.481018 212.0
81.720139 240.0
84.347961 100.0
84.941238 148.0
85.178032 148.0
85.820305 144.0
89.035927 48.0
91.185921 168.0
91.208733 156.0
91.936272 48.0
93.428886 216.0
95.451988 168.0
96.096703 168.0
97.722893 140.0
97.949287 76.0
100.628517 196.0
100.938217 188.0
101.142632 180.0
102.045822 320.0
103.054771 188.0
104.179169 232.0
105.561043 144.0
106.727776 56.0
108.891411 128.0
109.045151 108.0
109.27597 84.0
110.864998 92.0
112.442276 172.0
112.987442 168.0
115.054619 380.0
115.080894 60.0
117.029869 156.0
117.070778 180.0
117.799782 164.0
118.037521 136.0
118.528885 172.0
120.626915 100.0
121.735535 144.0
122.106926 88.0
125.330101 116.0
125.530716 148.0
126.466789 180.0
126.903618 140.0
127.054306 288.0
127.786285 88.0
127.856041 212.0
128.000107 168.0
128.061859 4340.0
128.133957 84.0
128.238907 104.0
128.256943 84.0
128.353882 36.0
128.502396 52.0
128.782654 44.0
128.895615 64.0
129.024445 60.0
129.066513 1164.0
129.397736 68.0
129.685425 84.0
129.701294 48.0
130.536758 188.0
131.067123 196.0
133.203949 180.0
133.992996 120.0
135.501633 200.0
136.172012 128.0
137.1026 164.0
139.619263 68.0
140.047607 212.0
141.069016 184.0
142.076553 232.0
143.645813 128.0
144.058792 192.0
145.059052 116.0
147.879623 148.0
148.003082 148.0
149.13356 232.0
151.057419 164.0
151.434372 136.0
153.07486 128.0
153.299026 52.0
153.363098 136.0
153.773972 224.0
154.076248 128.0
155.054886 140.0
156.056961 876.0
156.148483 52.0
156.666214 184.0
157.066086 360.0
158.064606 216.0
158.114426 152.0
158.432419 56.0
159.463715 68.0
159.657288 76.0
159.750351 200.0
160.069992 48.0
161.498398 120.0
162.597977 172.0
163.517975 252.0
166.41423 72.0
166.606857 124.0
167.077316 184.0
169.685745 84.0
170.074615 136.0
170.773773 128.0
170.880432 112.0
171.080002 8504.0
171.109726 360.0
171.164139 76.0
171.269119 128.0
171.502808 84.0
171.692123 72.0
171.76355 76.0
172.053207 56.0
172.083191 1644.0
172.117081 112.0
172.269958 68.0
172.892242 72.0
172.913177 32.0
173.087387 220.0
173.222137 140.0
173.256195 40.0
173.355759 132.0
179.086197 156.0
179.717987 56.0
181.378723 40.0
182.393356 76.0
206.613724 84.0
215.089752 172.0
228.166336 212.0
251.934509 48.0
308.647247 72.0
319.749084 44.0
342.570709 92.0
344.906464 104.0
388.585938 76.0
576.149719 92.0
599.947266 124.0
770.593201 164.0
829.478088 184.0
901.810669 92.0
991.013977 200.0
999.748352 172.0
1071.706665 188.0
1076.318115 128.0
1121.070312 136.0
1128.713501 64.0
1132.447632 44.0
1173.589844 32.0
1196.424927 176.0
1212.886353 148.0
1230.535034 196.0
1235.251465 204.0
1254.373047 200.0
1261.841919 156.0
1265.421875 212.0
1284.403076 160.0
1290.56604 236.0
1322.630005 176.0
1338.878784 40.0
1388.435181 208.0
1411.737061 200.0
1426.394531 180.0
1429.372681 136.0
1433.386108 196.0
1450.602661 200.0
1453.171509 132.0
1491.202393 128.0
1501.133301 168.0
