>compound Gestodene
>formula C21H26O2 
>ionization [M+H]+
>parentmass 311.200714
#inchi InChI=1S/C21H26O2/c1-3-20-11-9-17-16-8-6-15(22)13-14(16)5-7-18(17)19(20)10-12-21(20,23)4-2/h2,10,12-13,16-19,23H,3,5-9,11H2,1H3/t16-,17+,18+,19-,20-,21-/m0/s1
#inchikey SIGSPDASOTUPFS
#Ion_Source LC-ESI
#Instrument qTof
#Compound_Source Isolated
#PI Sirenas
#Data_Collector Ed Esquenazi 
#Scan -1
#Precursor_MZ 311.201
#ExactMass 0.0
#Charge 1
#CAS_Number N/A
#Pubmed_ID N/A
#Smiles N/A
#INCHI_AUX N/A
#Library_Class 3
#SpectrumID CCMSLIB00000005052
#IonMode Positive
#UpdateWorkflowName UPDATE-SINGLE-ANNOTATED-BRONZE
#LibraryQualityString Bronze
#TaskID d19310cd93df49b68e9fcbec27720eb5
##Scan# 2
#SpectrumFile Gestodene.mgf
#LibraryName fda_library.mgf
#MQScore -1
#Organism fda_library
#TIC_Query 0
#RT_Query -1
#MZErrorPPM -1
#SharedPeaks 0
#MassDiff 0
#LibMZ -1
#SpecMZ 311.201
#SpecCharge 0
#internalFilename spec-00000.mgf

>collision 10
101.719742 13.51724
103.052048 102.408096
103.099548 3.025
104.463684 1.777778
104.56382 4.382936
104.684822 11.09122
104.718513 16.3787
104.805862 6.369253
105.033447 451.299011
105.040634 32.493591
105.068787 1446.963013
105.114098 4.922619
105.137413 4.44079
105.287216 8.768939
105.405052 9.04344
106.576218 10.00362
106.651924 14.78316
106.741486 11.10727
107.048851 2074.426025
107.085197 1009.424011
107.129303 10.4594
107.144623 14.44676
107.150352 6.508333
107.172905 9.323276
107.203423 1.833333
107.214432 10.17361
107.25248 9.204166
107.259682 3.0
107.285866 32.022449
107.299324 2.0
107.333229 24.736111
107.342567 5.333333
107.386322 13.00397
107.432434 5.402778
107.442444 8.629902
107.454659 25.307409
107.465149 6.667793
107.475967 13.64477
107.483185 13.07756
107.518967 3.125
107.590736 11.62976
107.667206 10.36905
108.383125 11.92628
108.45195 12.02885
108.461815 2.893518
108.493362 29.25362
108.553413 12.33333
108.588989 3.888889
108.618668 6.422222
108.637924 39.35714
108.680328 8.037037
108.741982 2.003788
108.763718 12.875
108.789772 3.386905
108.97065 8.334596
109.027298 101.867104
109.064697 7231.755859
109.100899 967.327087
109.125755 7.493421
109.145088 29.019819
109.158401 6.630952
109.166824 17.79167
109.195892 6.675926
109.203476 17.70833
109.243187 8.035714
109.25309 10.40152
109.279602 12.42014
109.300331 26.762819
109.309212 15.01653
109.321281 17.10671
109.349548 11.80556
109.383904 6.449074
109.401344 14.89976
109.45211 18.602631
109.465103 8.006945
109.508781 5.007576
109.536766 27.93833
109.563423 12.68287
109.591179 9.694445
109.658096 3.402778
109.709579 12.6
109.730965 3.857143
109.749191 12.67325
110.063866 31.97858
110.074188 27.40774
111.077354 84.485687
111.083466 8.333333
111.169403 8.802777
111.380661 3.034091
111.521675 6.25926
111.564308 12.34015
115.054794 457.390991
115.097351 4.001984
115.145874 8.789634
115.160835 9.586712
115.489708 11.73016
116.336678 9.259408
116.452393 6.671297
116.553482 9.365196
116.598869 20.57555
117.019958 14.45
117.070168 806.734985
117.117844 1.720238
117.291077 6.020833
117.385765 6.371212
117.447556 8.815476
117.464478 3.367424
117.479568 11.72429
117.728409 9.17385
118.322273 23.63755
118.367607 12.13889
118.415573 2.482143
118.564209 6.69697
118.598305 14.01653
119.04969 379.322815
119.085411 1751.328003
119.114243 8.068182
119.133102 8.334259
119.148293 4.341667
119.194969 12.32018
119.219048 7.162634
119.23185 6.666667
119.251106 22.3631
119.29261 17.01235
119.338165 28.002529
119.407616 10.28618
119.41436 2.083333
119.482689 10.33477
119.498032 8.30242
119.579834 3.458333
119.625175 16.94697
119.658295 5.260417
120.00042 8.396825
120.442955 9.688597
120.500168 16.01766
120.759995 12.23611
121.0354 4.025
121.064507 1161.762939
121.101807 1229.883057
121.149933 6.972826
121.188736 4.413462
121.203865 4.0
121.242569 2.720238
121.270256 17.347219
121.642792 5.458333
122.301712 7.671297
122.34404 4.351191
123.041023 13.8293
123.079979 660.272217
123.115791 253.930099
123.211365 5.0
123.234535 4.007576
123.246185 3.722222
123.300636 11.69444
123.531898 5.380952
123.597626 3.458333
123.651733 15.73333
125.058212 18.25333
126.263466 19.97336
127.10791 29.31889
127.375923 5.875
128.059509 428.480591
128.09082 6.083333
128.582413 6.691667
129.069534 1368.073975
129.309982 7.190217
129.348587 6.755435
129.530685 4.763889
129.566254 6.480072
129.609879 4.666667
129.64949 5.444445
130.319855 4.844298
130.413574 5.802778
130.534332 5.335784
130.558182 5.338889
130.672638 7.773809
130.703674 12.94697
131.044159 64.039841
131.051636 120.555901
131.084808 1856.624023
131.134445 37.37405
131.302582 2.669444
131.346436 5.415
131.362381 2.4
131.414215 6.354167
131.444122 29.55607
131.454742 24.13081
131.482025 17.30769
131.581772 10.02671
131.665253 10.01852
131.761414 9.001344
132.123322 9.631173
132.301071 1.720238
132.389099 19.111111
132.398224 5.787037
132.52121 6.880952
132.611847 16.08333
132.966141 8.719017
133.064362 2013.862061
133.100662 1223.151001
133.130829 4.337963
133.152542 6.785715
133.16684 21.44628
133.177399 24.348431
133.194458 10.68333
133.247086 13.00085
133.272446 3.075
133.315369 14.41905
133.332321 8.746795
133.345734 9.428572
133.40387 23.05081
133.469437 7.747549
133.524323 15.00347
133.556534 5.522727
133.660263 21.17923
133.693207 15.71111
133.733444 4.69697
133.781723 5.333333
134.305161 8.444445
134.4263 6.001543
134.595764 6.391026
135.056458 7.810714
135.078979 2273.751953
135.115829 503.434906
135.150467 11.44444
135.234222 7.692308
135.294907 7.342949
135.302994 8.477381
135.379898 2.671296
135.42038 4.007576
135.489212 8.716666
135.505524 29.06706
135.780884 12.19444
136.316544 3.047619
136.798752 5.266667
136.885818 24.339291
137.094208 314.634888
137.162704 4.017857
137.234894 2.815476
137.324295 19.148809
139.94342 3.354167
141.027573 3.0
141.069702 959.247925
141.106079 4.703703
141.12262 2.670455
141.234222 2.666667
141.264297 10.16667
141.428635 5.061275
142.410812 14.33712
142.42749 24.730499
142.452347 11.36458
142.518784 10.00287
142.643005 14.90278
143.049744 96.05265
143.084518 1339.360962
143.118179 9.166667
143.125671 5.208333
143.161774 3.335526
143.20488 10.81667
143.317078 3.42803
143.325623 11.42014
143.399658 18.863661
143.469711 13.52381
143.583984 8.240196
143.655869 12.60417
144.057953 34.256069
144.141647 1.6875
144.255905 7.486111
144.31427 22.004391
144.34465 17.173611
145.013168 10.35
145.064178 471.798889
145.101059 2053.155029
145.151733 11.52381
145.171951 21.530741
145.235291 2.678571
145.293991 3.002451
145.343307 5.59375
145.382065 7.022223
145.436218 46.563381
145.470154 5.840278
145.600266 9.666667
145.6082 3.008333
145.651215 30.23144
145.671646 10.83043
145.785034 6.358974
146.360992 14.35088
146.470505 9.708333
146.51683 5.001984
147.08046 1712.172974
147.116791 937.835327
147.149353 5.347222
147.169312 10.96779
147.208237 4.054824
147.218109 8.027778
147.242172 9.533334
147.270554 8.898149
147.306396 14.96333
147.45665 8.510964
147.603928 18.755211
147.854752 4.120098
147.964844 40.113319
148.093933 21.058331
148.216309 8.132247
148.295013 7.130208
148.570572 6.454545
148.70929 17.031561
148.931152 5.694445
149.054977 5.333333
149.095764 1044.39502
149.133163 123.279701
149.147675 9.463542
149.224319 13.46154
149.237 15.00245
149.334717 11.01293
149.347519 23.730511
149.368774 6.775537
149.377274 9.68254
149.394989 20.680559
149.4198 13.01042
149.611313 7.969086
149.69722 6.446428
150.164902 10.33333
151.002426 15.25962
151.080612 47.594299
151.110382 145.423096
152.076599 17.1
152.441437 8.053572
153.068817 187.645096
153.146667 3.002778
153.728424 5.708333
154.079117 82.22345
154.116867 19.004869
154.97319 12.67014
155.083313 671.818176
155.116623 7.306159
155.133469 8.380815
155.197037 3.482143
155.215805 7.69482
155.276489 8.396825
155.410904 6.001812
155.574387 15.85417
155.619843 3.518939
156.157547 9.866667
156.264877 4.111111
156.592758 9.130208
156.858124 8.506945
156.920197 34.01049
157.064194 283.711212
157.100327 1230.120972
157.163971 7.98077
157.172333 7.533333
157.203751 20.822491
157.232376 6.666667
157.25087 17.000681
157.2742 6.721154
157.325867 23.013889
157.346817 19.020269
157.392624 9.413462
157.438477 6.357143
157.455917 4.678571
157.639694 5.166667
158.078308 9.631173
158.177032 8.334876
158.334595 8.001437
158.38385 8.223765
158.785797 5.672222
159.079453 1293.348999
159.115219 923.714111
159.149994 6.8
159.189362 4.44079
159.235153 15.84848
159.263977 11.00915
159.28154 10.72727
159.326706 5.625
159.364975 2.680556
159.382553 14.47917
159.421494 31.470131
159.507263 12.10294
159.53067 12.17554
159.641907 31.87669
159.663757 5.408333
159.672592 14.38081
159.721619 3.802778
160.011215 8.462607
160.307175 16.490391
160.323807 12.37374
160.343246 7.382936
160.884445 22.002781
160.901382 9.376773
160.919495 21.02564
160.936676 9.334596
161.095535 974.338013
161.13208 1162.688965
161.206009 3.333333
161.241348 35.244061
161.263535 12.13564
161.293365 5.115741
161.396271 22.96007
161.466721 5.688889
161.47995 6.146739
161.544159 7.625
161.571426 2.520833
161.621475 4.668334
161.657867 4.669445
161.705811 3.672619
161.845139 10.8848
162.081772 12.05797
162.429031 4.721154
163.067612 36.156769
163.111343 934.862976
163.147034 34.78965
163.452942 2.416667
163.475403 15.00439
163.671234 14.3391
163.777359 13.89382
164.000748 9.04344
164.23027 3.541667
165.069946 124.876099
165.084686 75.667427
165.422165 9.523809
166.167313 16.26239
166.806442 19.897301
166.886902 6.013889
167.084625 375.29129
167.165665 5.748333
167.177383 22.654869
167.283005 12.34015
167.363632 8.061869
168.089432 155.267395
168.151077 3.668651
169.064758 67.106087
169.100342 895.995117
169.155136 2.670455
169.214279 2.0
169.285339 8.668651
169.386078 9.674243
169.626053 6.201666
170.083954 3.345238
170.165329 15.0589
170.40712 25.90991
170.524094 8.532051
170.601944 6.606061
170.655853 25.229
170.869965 16.539101
170.95163 8.678763
171.025726 6.05
171.07901 312.503693
171.116348 1390.189941
171.172653 3.823718
171.183685 6.678764
171.207352 3.75
171.229202 9.333333
171.238312 9.012097
171.311478 3.857143
171.333923 9.070175
171.371857 15.52632
171.393204 4.844298
171.470566 6.711957
171.520676 8.015151
171.628754 5.708333
171.694077 3.490385
171.825119 12.22348
171.946198 6.371212
172.040466 8.745155
172.086075 271.336914
172.145432 2.337963
172.391998 4.711957
172.528259 5.066667
172.71315 2.893518
173.058884 77.217987
173.094345 382.150696
173.131104 971.735718
173.165985 9.761363
173.178146 6.453432
173.196869 3.010417
173.259583 33.230129
173.306595 12.12255
173.329803 9.739865
173.360031 4.6
173.452499 18.144051
173.5177 9.336538
173.719177 7.138889
173.884491 10.99212
174.1745 7.190217
174.444809 22.061781
174.637451 5.480072
174.771713 7.469444
175.07309 90.814934
175.111374 1058.546997
175.149094 323.229095
175.161926 3.047619
175.201004 17.16193
175.43103 8.506945
175.793854 4.531863
175.991684 5.041667
176.000854 7.135
176.79509 7.055555
177.092255 66.478233
177.127182 217.350494
177.684616 5.875
178.074997 62.082668
178.205795 2.482143
179.088104 251.289993
179.116943 4.0
179.812912 6.583333
180.090652 111.675301
180.150375 3.555556
180.186859 8.2
181.063431 28.22298
181.099884 711.169189
181.456192 16.41049
181.541122 9.480073
181.634369 5.666667
181.668655 13.69038
181.7034 2.893518
181.993881 3.416667
182.069 37.01339
182.285995 46.820332
182.460495 7.757883
183.03508 5.703947
183.077942 226.071304
183.116165 996.236511
183.12915 5.844298
183.16243 14.26239
183.190475 5.703947
183.232574 3.185606
183.263519 43.71693
183.316925 7.656609
183.39212 6.070402
183.445602 20.634649
183.4655 11.06833
183.495056 19.10965
183.524063 11.37321
183.586761 3.266667
183.634872 4.531863
183.64679 26.492689
183.728546 10.64651
184.086456 255.019196
184.189178 3.677083
184.245834 7.029762
184.432404 3.291667
185.049469 10.16376
185.131927 1207.052002
185.193848 3.375
185.215393 8.010417
185.334152 11.3344
185.35759 3.761364
185.38089 14.00735
185.437759 5.160714
185.503967 8.363637
185.674683 2.680556
185.907028 8.702586
186.09758 50.531689
186.372452 11.04545
186.405426 5.001544
187.075958 24.66667
187.111908 529.532288
187.146698 393.373291
187.285156 9.011363
187.39386 11.38095
187.408966 8.333333
187.451828 8.339744
187.5 28.737789
187.529449 13.25641
187.694809 11.68627
188.118607 52.737789
188.180206 12.74856
188.787933 7.49359
188.888458 10.01071
189.126984 399.77179
189.161026 136.121399
189.261459 6.927469
189.314117 4.736111
189.970352 2.375
190.210266 14.43841
191.078568 21.23148
191.107208 159.022598
191.137283 116.771004
191.474136 7.346264
191.95639 4.59375
192.091476 26.39012
192.249329 4.4
192.312805 16.841181
193.099457 343.859711
193.159637 56.56789
193.299667 22.162821
193.486786 7.102273
194.063065 3.375
194.106018 209.499802
195.0793 61.581421
195.115662 858.951782
195.182068 6.541667
195.194855 19.06897
195.31543 12.33333
195.403076 14.55556
195.431458 8.020833
195.475937 6.097222
195.495789 19.740801
195.519791 9.906863
195.602386 7.004902
195.851151 10.59572
196.167389 10.10526
196.922348 3.483333
197.020798 6.688889
197.096405 380.330902
197.130478 854.161621
197.192322 3.341666
197.230896 2.6875
197.279694 10.02778
197.383865 10.15
197.519165 6.777778
197.675339 2.361111
197.781647 7.297619
197.959473 17.67226
198.346344 4.335784
198.639954 2.675
199.070541 109.2052
199.110077 345.583496
199.146271 505.570709
199.207275 7.8
199.256989 18.226191
199.278076 27.35088
199.322662 17.480021
199.445358 3.760417
199.58786 8.673077
199.838593 15.36209
200.035355 12.01667
200.118103 138.767593
200.170288 22.11484
200.251907 7.015
200.63858 16.20833
201.083954 54.374271
201.127121 1538.651001
201.162018 549.89917
201.19928 3.791667
201.2229 18.012251
201.244675 7.382936
201.276733 4.225
201.364365 20.639271
201.380859 6.775537
201.45491 14.67778
201.488907 11.23329
201.514175 8.136261
201.533051 10.64744
201.548874 8.333333
201.621567 12.18534
201.637985 20.70833
201.702896 2.14881
201.799805 3.013889
201.850128 3.727941
202.079361 26.945589
203.103317 33.544411
203.141968 184.511795
203.179214 12.83333
203.191071 2.333333
203.252533 5.041667
203.375198 7.002778
203.504929 5.833333
203.87677 7.349638
204.089645 63.30283
204.463959 8.020833
204.603058 5.633333
205.009583 22.63575
205.051697 26.51557
205.098648 385.33139
205.158798 24.182859
205.496353 4.761905
205.618988 10.66667
205.833542 15.72741
206.107376 189.581497
206.327957 11.9616
206.522919 15.43474
207.035858 14.00595
207.116287 562.137024
207.17334 4.002193
207.259796 23.111111
207.317993 4.59375
207.413757 10.00397
207.555161 2.075
208.085938 16.77696
208.406967 14.36574
208.849167 19.06566
209.095627 220.6362
209.130997 471.302399
209.251556 11.12
209.684769 7.480072
209.738174 4.1875
209.825638 19.66667
210.077667 8.016305
210.23381 5.510965
210.949081 4.761905
211.109695 457.500092
211.147842 579.017822
211.193512 9.6875
211.471664 7.796875
212.040894 28.085131
213.091537 37.064091
213.127151 491.935486
213.163544 798.497986
213.246033 7.774123
213.398453 6.352941
213.4646 6.564103
213.779785 14.68
213.984543 12.60417
215.104889 19.75
215.141815 430.502014
215.178223 52.03891
215.838486 6.523809
216.505035 2.083333
216.776016 7.041667
216.874069 6.740942
216.980484 15.68056
217.114258 17.405001
217.159119 252.688202
217.278259 21.66848
217.319977 16.70249
217.370575 8.733334
217.684128 3.008333
217.735168 5.939394
218.106415 59.709671
218.822357 8.46558
219.115143 426.092285
219.172989 476.458313
219.23642 4.054824
219.478592 6.053572
219.503815 6.814815
219.731201 2.666667
219.836334 10.77564
220.418365 9.583333
220.924103 10.66833
221.093933 126.194603
221.131516 506.751709
221.192993 2.347222
221.674469 11.58954
221.7677 8.039474
221.819519 2.25
221.928329 8.670635
221.954193 4.427083
222.034592 2.875
222.197922 7.783046
222.223846 5.333333
223.111053 295.523193
223.147293 474.217407
223.206253 8.740942
223.329834 9.240384
223.402618 8.358974
223.418915 8.148809
223.55426 7.111111
223.844742 34.342388
224.223663 9.099999
224.942459 9.573413
225.124771 196.712799
225.162567 834.283813
225.24733 6.615
225.34639 6.686403
225.675476 6.001543
225.706406 13.56019
225.738342 9.002451
226.754013 6.371212
226.965942 8.054487
227.073013 6.666667
227.104294 135.1866
227.144363 188.557205
227.173767 74.415756
227.702698 9.964506
228.149872 116.221298
228.322403 6.840517
228.403885 4.291667
228.774704 7.016304
229.157791 303.881714
229.696274 13.06187
229.880676 2.361111
229.918152 19.027781
230.129211 18.436781
230.165009 312.823608
230.217926 27.17045
230.308487 3.675926
230.350632 25.674801
230.442719 16.625931
230.826157 11.21333
231.116119 195.324402
231.172791 1182.483032
231.244263 2.016667
231.299469 9.458333
231.413193 14.08889
231.460907 6.037037
231.633698 8.280303
231.667313 8.005555
231.721542 14.92754
231.847809 3.733333
232.038422 27.00326
232.46756 3.011905
232.509079 3.386905
233.130539 159.072403
233.157791 32.36937
233.544052 18.471149
233.731659 8.041667
233.98291 2.041667
234.136948 177.946304
235.111664 85.679497
235.14856 361.261597
235.329987 6.678764
235.383286 10.85698
235.554184 8.75
235.695023 5.136111
235.725067 4.675
235.758286 8.966954
235.776932 17.004629
235.847794 3.125
236.118774 110.106697
236.156586 164.246002
236.189987 8.736842
236.23378 10.91667
237.125671 312.829498
237.162216 212.122192
237.195343 3.518939
237.732727 16.432541
239.142838 138.016205
239.177719 134.191803
239.408798 4.8
239.566895 9.897988
240.194397 24.489811
241.122635 67.476593
241.156738 283.585114
241.199219 14.70588
241.457474 4.222222
241.972458 5.339285
243.136505 75.102966
243.17392 707.5271
243.228989 7.148809
243.381607 4.786765
243.489273 15.9945
243.74527 18.148661
243.788956 4.59375
244.319443 1.6875
244.559235 2.375
244.698715 5.136111
244.865417 5.001667
245.130005 81.640831
245.654526 7.001984
246.142624 125.2836
247.147446 133.305099
247.524124 23.042549
247.74321 7.827381
248.625076 11.0
249.120956 100.321999
249.160217 305.652008
249.217896 1.694445
249.536484 4.727941
249.565247 9.261905
249.712402 9.920635
249.780289 4.387821
249.827881 5.160714
250.009155 11.15278
250.834106 5.558333
251.140152 324.821014
251.182587 304.824707
251.222046 4.361111
251.292648 16.441669
251.93277 5.671875
251.949356 1.720238
252.224609 13.5307
252.407867 3.335784
253.157349 316.333893
253.337265 8.109649
253.370483 10.66759
254.129471 30.75428
254.200867 5.041667
254.579117 18.514561
255.139511 79.802177
255.169464 99.474327
255.479126 14.94092
255.557022 6.669117
256.178802 62.237259
257.151093 65.391533
260.154053 140.1073
260.558716 8.284091
263.007233 11.66833
263.148254 1.720238
263.774994 6.001437
264.148956 198.438507
264.770782 20.081249
265.096588 49.929008
265.160767 116.828598
265.193237 360.559204
265.467102 5.66821
265.552032 8.125
265.569183 13.10565
265.739441 28.132351
265.801483 7.046875
266.03421 9.685185
266.596252 5.371913
267.173126 162.590805
267.227142 2.666667
269.15094 98.814667
269.187408 185.309204
269.266235 10.17361
269.393646 17.336109
269.535309 6.755556
271.165558 2.337963
273.899261 2.666667
275.17865 197.978104
275.355469 6.640152
275.376862 3.375
275.457581 11.20119
275.496429 7.693376
275.530762 10.25521
276.484711 6.05
277.140686 24.04167
278.163116 49.155819
281.190186 29.110661
282.164459 29.086809
282.848724 7.680555
282.890869 27.23144
283.167572 166.4841
283.200104 71.088257
283.28833 11.33426
283.320282 15.25397
292.145569 2.008333
292.186981 8.419871
293.139984 44.451019
293.189636 1053.865967
293.253418 6.94709
293.617401 9.136111
293.72998 20.823721
293.955811 12.68883
294.022125 20.72789
294.390503 22.45833
294.619141 8.462607
309.239868 7.775537
309.299561 8.932017
309.325378 14.55556
309.40509 6.75
309.464996 16.296301
309.488586 26.45105
309.619293 19.69841
309.667908 11.6886
309.692749 9.337501
309.919312 12.17689
310.217621 41.11834
310.604919 5.865196
311.028839 8.449074
311.200714 5783.525879
311.293518 49.784592
311.368378 15.55952
311.390747 27.636761
311.442474 45.41124
311.466064 30.55677
311.483002 14.91177
311.542114 73.892792
311.571014 30.37751
311.617249 11.02222
311.651886 5.333333
311.698334 38.638371
311.76828 34.925591
311.809113 21.714331
311.862549 19.228399
311.885986 23.9925
311.914948 17.499081
311.992188 22.11047
312.097321 30.53055
312.146729 33.982559
312.331268 9.739865
312.417725 15.12346
313.39444 5.296568
313.532196 4.297619
314.530457 19.302151
315.893585 6.746795
315.957306 11.3344
319.907806 4.358333
704.141418 3.002778
899.854614 7.469444
1134.458862 17.884689
1348.543091 43.933151
