>compound Capecitabine (Xeloda)
>formula C15H22FN3O6
>ionization [M+H]+
>parentmass 360.157
#inchi InChI=1S/C15H22FN3O6/c1-3-4-5-6-24-15(23)18-12-9(16)7-19(14(22)17-12)13-11(21)10(20)8(2)25-13/h7-8,10-11,13,20-21H,3-6H2,1-2H3,(H,17,18,22,23)/t8-,10-,11+,13-/m1/s1
#inchikey GAGWJHPBXLXJQN
#Ion_Source LC-ESI
#Instrument qTof
#Compound_Source Commercial
#PI Dorrestein
#Data_Collector Garg_Neha
#Scan -1
#Precursor_MZ 360.157
#ExactMass 359.149
#Charge 1
#CAS_Number 154361-50-9,158798-73-3, 958887-39-3
#Pubmed_ID N/A
#Smiles N1=C(C(=CN(C1=O)[C@@H]2O[C@@H]([C@H]([C@@H]2O)O)C)F)NC(OCCCCC)=O
#INCHI_AUX N/A
#Library_Class 1
#SpectrumID CCMSLIB00000078029
#IonMode Positive
#UpdateWorkflowName UPDATE-SINGLE-ANNOTATED-GOLD
#LibraryQualityString Gold
#TaskID 77f51c88eb8b467eb4a01dd2d0cb90d2
##Scan# 1163
#SpectrumFile Plate1_21_40_GG2_01_16489.mzXML
#LibraryName FDALibrary_2_04302014.mgf
#MQScore -1
#Organism FDALibrary_2_04302014
#TIC_Query 0
#RT_Query -1
#MZErrorPPM -1
#SharedPeaks 0
#MassDiff 0
#LibMZ -1
#SpecMZ 360.157
#SpecCharge 0
#internalFilename spec-00000.mgf

>collision 10
45.084942 144.0
45.143414 168.0
45.207977 180.0
45.272236 252.0
45.459923 232.0
45.473343 164.0
45.63858 168.0
45.661442 156.0
46.481483 164.0
46.609127 256.0
46.704296 152.0
46.888107 148.0
47.120087 232.0
47.226719 196.0
47.794693 168.0
47.816711 148.0
47.932392 148.0
47.985806 120.0
48.20977 180.0
48.247093 164.0
48.3311 152.0
48.351578 336.0
48.435299 148.0
48.8601 148.0
49.057861 164.0
49.162472 144.0
49.186199 284.0
49.418194 216.0
49.481178 152.0
49.537197 144.0
49.554008 172.0
49.807934 188.0
50.054062 156.0
50.16396 204.0
50.179466 152.0
50.271156 176.0
50.338917 216.0
50.437817 204.0
50.498619 184.0
50.938034 224.0
51.043209 156.0
51.098682 196.0
51.221119 216.0
51.35915 168.0
51.410751 220.0
51.450718 192.0
51.510696 168.0
51.660801 176.0
51.676136 100.0
51.706589 164.0
51.799835 132.0
51.826881 152.0
52.05611 120.0
52.296494 172.0
52.724861 176.0
53.053444 156.0
53.265316 160.0
53.278393 208.0
53.290012 172.0
53.328068 216.0
53.567894 160.0
53.591206 148.0
53.615978 176.0
53.827511 192.0
54.001423 160.0
54.054092 140.0
54.248894 144.0
54.317818 236.0
54.615128 156.0
54.701359 212.0
54.72197 148.0
54.829124 140.0
54.84248 184.0
55.002895 144.0
55.490276 196.0
55.567402 148.0
55.813969 180.0
55.958298 164.0
56.20573 296.0
56.369991 216.0
56.405979 156.0
56.745705 204.0
56.960312 172.0
57.051983 192.0
57.063091 188.0
57.119656 216.0
57.223495 184.0
57.273193 176.0
57.673058 160.0
57.77589 156.0
57.925762 172.0
58.364384 216.0
58.530243 144.0
58.574409 200.0
58.592693 224.0
58.609451 176.0
58.630787 140.0
58.65815 168.0
58.687191 156.0
58.850456 156.0
58.991013 164.0
59.059826 196.0
59.186852 228.0
59.209824 148.0
59.277229 240.0
59.719391 260.0
59.911812 156.0
59.924137 172.0
60.126144 152.0
60.364605 124.0
60.40427 232.0
60.494026 160.0
60.636532 172.0
60.749729 156.0
60.783863 212.0
60.85371 184.0
60.884769 148.0
60.898746 152.0
60.979542 140.0
61.078915 132.0
61.15686 260.0
61.236267 140.0
61.364117 200.0
61.834259 164.0
61.873394 168.0
62.265419 176.0
62.635048 152.0
62.685467 172.0
62.757977 168.0
62.971024 148.0
63.078472 232.0
63.458431 152.0
63.534561 160.0
63.702843 172.0
63.981148 220.0
64.091049 168.0
64.331886 220.0
64.911087 160.0
64.959206 156.0
65.063515 408.0
65.286873 172.0
65.389839 200.0
65.550888 156.0
65.947906 192.0
66.391533 180.0
66.579788 148.0
66.859428 176.0
66.891975 208.0
66.932686 200.0
66.95874 228.0
67.169006 256.0
67.185318 228.0
67.48584 184.0
67.561073 192.0
67.596222 176.0
67.68219 192.0
67.701843 144.0
67.747704 156.0
67.82309 148.0
67.883751 152.0
67.914909 224.0
68.215416 164.0
68.226921 144.0
68.39801 160.0
68.475395 240.0
68.498459 156.0
68.656693 176.0
68.747429 188.0
68.777618 164.0
68.805473 192.0
68.881165 216.0
68.91256 152.0
68.962135 196.0
69.023308 208.0
69.417427 160.0
69.653107 152.0
70.753769 156.0
70.79731 148.0
70.848267 160.0
71.334297 240.0
71.349365 140.0
71.54789 184.0
71.610191 160.0
71.714661 152.0
71.90863 140.0
72.176125 188.0
72.617561 152.0
72.760109 292.0
72.926582 156.0
73.304413 156.0
73.350426 180.0
73.756699 192.0
74.092903 148.0
74.13324 160.0
74.748016 156.0
74.863358 160.0
75.089127 148.0
75.237534 224.0
75.294518 180.0
75.335968 216.0
75.432747 164.0
75.612633 228.0
75.856171 144.0
75.957443 184.0
75.978264 196.0
76.056351 216.0
76.167488 200.0
76.640709 208.0
76.781914 172.0
77.447838 164.0
77.528435 148.0
77.675316 156.0
77.695015 208.0
77.73011 176.0
77.751167 228.0
77.968941 184.0
78.239838 144.0
78.453003 212.0
78.546471 152.0
78.719437 188.0
78.860779 164.0
78.989861 184.0
79.592453 148.0
79.612144 220.0
79.651062 164.0
79.766563 152.0
80.090424 232.0
80.2686 148.0
80.348915 248.0
81.143021 196.0
81.189644 180.0
81.387039 144.0
81.516373 192.0
81.640419 148.0
81.762756 140.0
81.868973 244.0
82.029335 160.0
82.280098 172.0
82.580078 204.0
82.643394 152.0
82.701302 208.0
82.733673 132.0
82.956718 188.0
83.116325 176.0
83.243393 160.0
83.316048 152.0
83.44873 204.0
83.66449 272.0
83.851776 148.0
83.872665 356.0
83.891136 144.0
84.058937 240.0
84.164818 208.0
84.225082 164.0
84.329231 144.0
84.415161 160.0
84.444427 156.0
84.557861 240.0
84.618271 176.0
84.640244 192.0
84.779465 196.0
84.795959 176.0
84.931648 152.0
84.981178 144.0
85.027184 176.0
85.263977 196.0
85.331993 196.0
85.440796 128.0
85.480988 172.0
85.504913 168.0
85.74987 140.0
85.958267 176.0
85.995178 168.0
86.118889 148.0
86.306541 140.0
86.636848 180.0
86.720238 156.0
86.742477 156.0
86.88044 184.0
86.94651 236.0
87.02076 148.0
87.275322 200.0
87.314369 224.0
87.329254 244.0
87.375755 140.0
87.405525 284.0
87.476257 204.0
87.500458 180.0
87.55632 140.0
87.897476 160.0
88.413261 200.0
88.533073 172.0
88.585526 232.0
88.748581 200.0
88.928673 176.0
89.039452 240.0
89.26873 176.0
89.505836 156.0
89.799835 156.0
89.907372 164.0
89.952675 172.0
90.018761 172.0
90.436584 228.0
90.830719 176.0
90.893326 116.0
90.969246 160.0
91.026741 128.0
91.288452 176.0
91.391174 172.0
91.545364 216.0
91.634888 152.0
91.709213 232.0
91.732956 184.0
91.804543 184.0
91.856041 188.0
91.907555 160.0
92.073639 192.0
92.092735 188.0
92.163422 180.0
92.33165 176.0
92.367989 168.0
92.385208 168.0
93.453873 196.0
94.107292 176.0
94.3256 204.0
94.417046 204.0
94.563522 208.0
94.577072 196.0
94.602234 224.0
94.759109 164.0
95.106239 164.0
95.152832 176.0
95.261292 156.0
95.299324 248.0
95.358749 172.0
95.8862 184.0
95.917389 156.0
96.001228 180.0
96.102661 156.0
96.237343 192.0
96.356483 164.0
96.424881 176.0
96.444427 152.0
96.508942 172.0
96.649773 240.0
96.669342 196.0
96.806381 172.0
96.929794 164.0
97.06897 200.0
97.174896 276.0
97.310326 176.0
97.821487 244.0
98.048004 180.0
98.146568 212.0
98.211655 140.0
98.464294 192.0
98.74099 164.0
98.8498 180.0
98.944809 168.0
99.049774 236.0
99.099297 208.0
99.174606 184.0
99.192757 232.0
99.236061 240.0
99.253906 228.0
99.267792 148.0
99.287621 200.0
99.388794 208.0
99.511856 140.0
99.605202 220.0
99.684669 188.0
99.901398 164.0
100.160187 192.0
100.295685 204.0
100.473167 248.0
100.684761 176.0
100.721786 196.0
100.744682 172.0
101.00856 144.0
101.563431 208.0
101.607567 172.0
101.969017 192.0
102.015251 144.0
102.071548 144.0
102.468079 212.0
102.64949 184.0
102.697891 212.0
102.716652 188.0
102.879509 176.0
102.95826 232.0
103.265465 228.0
103.396973 184.0
103.921829 196.0
104.256889 176.0
104.983681 160.0
105.520721 276.0
105.612289 180.0
105.61731 140.0
105.817169 148.0
105.940277 248.0
106.052979 200.0
106.079628 188.0
106.096031 160.0
106.407883 184.0
106.545486 148.0
106.616302 200.0
106.726357 204.0
107.076202 220.0
107.09874 212.0
107.203934 176.0
107.373566 172.0
107.391037 192.0
107.556625 164.0
107.858208 192.0
108.108475 148.0
108.259598 192.0
108.560097 172.0
108.775879 212.0
108.804947 180.0
108.890083 168.0
109.039673 184.0
109.181053 148.0
109.453667 140.0
109.68943 200.0
109.705772 164.0
110.007347 136.0
110.022881 164.0
110.054199 248.0
110.072998 164.0
110.225487 232.0
110.268883 188.0
110.394814 196.0
110.497307 176.0
110.765282 216.0
111.165741 184.0
111.279091 176.0
111.6931 196.0
111.737282 172.0
112.031166 904.0
112.175331 176.0
112.318726 148.0
112.624794 152.0
112.659172 176.0
113.014114 2016.0
113.094818 160.0
113.240311 160.0
113.806534 144.0
113.851128 140.0
114.093369 164.0
114.342247 164.0
114.385345 128.0
114.433777 148.0
114.593521 148.0
115.088371 200.0
115.143898 164.0
115.240639 180.0
115.370399 240.0
115.460205 172.0
115.51368 224.0
115.580002 152.0
115.616386 212.0
115.888344 156.0
116.164368 188.0
116.321564 212.0
116.394562 188.0
116.486916 212.0
116.624443 200.0
116.765228 188.0
117.037506 204.0
117.057167 152.0
117.078423 244.0
117.188286 204.0
117.278793 224.0
117.381683 216.0
117.595863 156.0
117.720337 208.0
117.77903 208.0
117.809647 180.0
117.922012 176.0
118.189697 200.0
118.2248 220.0
118.255096 160.0
118.353134 168.0
118.413155 172.0
118.514977 212.0
118.538811 184.0
118.755608 176.0
118.777306 164.0
119.214417 136.0
119.505341 168.0
119.661812 176.0
119.690117 148.0
119.975548 164.0
120.010429 192.0
120.146271 240.0
120.198021 212.0
120.873245 184.0
120.925774 180.0
121.006767 260.0
121.146935 156.0
121.206093 160.0
121.436287 172.0
122.024818 156.0
122.101784 160.0
122.221107 200.0
122.240379 216.0
122.306412 188.0
122.464951 156.0
122.555275 180.0
122.912491 168.0
123.01181 196.0
123.113373 168.0
123.199516 152.0
123.352005 236.0
123.37632 180.0
123.39843 156.0
123.575371 172.0
123.931854 188.0
124.102531 232.0
124.162407 176.0
124.235603 192.0
124.322144 160.0
124.373192 144.0
124.408707 212.0
124.619698 164.0
124.684143 180.0
124.724152 148.0
125.149078 156.0
125.200294 160.0
125.425331 168.0
125.505302 152.0
126.108963 208.0
126.481911 148.0
126.504295 208.0
127.324966 440.0
127.367645 184.0
127.401344 180.0
127.576637 172.0
127.594498 212.0
127.736305 144.0
127.872017 204.0
128.064941 196.0
128.25415 128.0
128.597061 152.0
128.696396 168.0
128.718979 160.0
128.820618 184.0
128.940384 140.0
129.103149 192.0
129.340729 220.0
129.397324 140.0
129.447235 196.0
129.476578 140.0
129.503754 168.0
129.705429 176.0
129.734238 180.0
129.889099 184.0
129.908539 224.0
129.933609 316.0
129.966232 188.0
129.982117 240.0
130.003769 264.0
130.041901 66108.0
130.124359 96.0
130.164856 112.0
130.273712 108.0
130.356018 144.0
130.388626 176.0
130.419678 176.0
130.73172 260.0
130.886841 172.0
130.968826 148.0
131.010483 168.0
131.04361 3272.0
131.09642 176.0
131.237747 204.0
131.362366 176.0
131.532501 204.0
131.55217 212.0
131.602829 160.0
131.739868 180.0
131.879913 108.0
131.962753 152.0
132.045563 180.0
132.115112 112.0
132.149323 176.0
132.217758 160.0
132.300171 204.0
132.664429 196.0
132.698807 184.0
132.9543 148.0
133.263443 160.0
133.39682 132.0
133.557709 160.0
133.753296 188.0
133.785522 220.0
133.817764 160.0
133.836182 192.0
133.893753 232.0
133.976685 176.0
134.184097 188.0
134.38092 240.0
134.493225 168.0
135.14032 200.0
135.344009 160.0
135.455185 208.0
135.592773 216.0
135.814484 144.0
135.96994 188.0
136.676407 196.0
136.739243 168.0
136.958099 144.0
137.186478 164.0
137.457962 172.0
137.517715 208.0
137.627441 148.0
138.741135 168.0
138.975677 248.0
139.170502 164.0
139.532333 140.0
139.60759 148.0
139.758133 160.0
139.960571 172.0
140.372955 144.0
140.615952 192.0
140.69899 220.0
140.738708 176.0
140.828445 156.0
141.043472 152.0
141.227905 140.0
141.585297 176.0
141.755875 268.0
141.895721 148.0
141.936035 208.0
142.251678 252.0
142.484924 240.0
142.564545 164.0
142.626907 240.0
143.071762 144.0
143.452927 228.0
143.927719 140.0
144.042358 204.0
144.109253 156.0
144.235916 140.0
144.436783 164.0
144.747925 140.0
144.805405 192.0
145.07283 184.0
145.234436 148.0
145.378403 168.0
145.534424 220.0
145.565643 152.0
145.733795 184.0
146.229187 144.0
146.378448 164.0
146.638641 160.0
146.689255 140.0
147.135574 220.0
147.71315 148.0
148.018112 168.0
148.31369 240.0
148.342773 300.0
148.420364 140.0
148.510101 172.0
148.813446 216.0
149.022324 156.0
149.121964 172.0
149.365128 184.0
149.601166 176.0
149.769196 148.0
149.800858 168.0
150.103088 180.0
150.288483 200.0
150.390976 144.0
151.033615 192.0
151.379349 168.0
151.43013 200.0
151.645752 212.0
152.423859 148.0
152.539246 148.0
152.599136 148.0
153.358932 176.0
153.410706 140.0
153.780716 156.0
155.168503 180.0
155.190826 248.0
155.783997 192.0
155.863495 232.0
156.019943 2356.0
156.045975 200.0
156.102142 224.0
156.256363 196.0
156.311096 144.0
156.510239 204.0
157.008087 176.0
157.138367 160.0
157.288101 228.0
157.995331 228.0
158.035355 220.0
158.363312 164.0
158.417496 152.0
158.603851 184.0
158.623901 196.0
159.012695 172.0
159.093018 212.0
159.454742 216.0
160.156738 200.0
160.378479 160.0
161.06987 256.0
161.395889 168.0
162.573532 164.0
162.741379 200.0
162.934402 152.0
163.053833 148.0
163.496368 160.0
163.562057 188.0
163.679657 156.0
163.84523 168.0
164.097549 208.0
164.625748 196.0
164.722809 168.0
164.78923 144.0
164.883789 200.0
165.055069 160.0
165.144577 160.0
165.569885 140.0
165.633484 236.0
166.400284 172.0
167.457199 176.0
167.743225 168.0
167.799942 208.0
167.83345 144.0
168.034637 160.0
168.964752 156.0
169.013916 152.0
169.368607 184.0
169.42041 164.0
169.526657 264.0
169.723663 216.0
169.93895 148.0
170.094666 196.0
170.256012 172.0
170.377731 160.0
170.512863 244.0
170.82489 152.0
170.879517 140.0
170.915939 200.0
171.129379 192.0
171.256989 164.0
171.434158 156.0
171.908783 168.0
171.945328 140.0
172.195969 236.0
172.310913 220.0
172.378845 160.0
172.506927 176.0
173.200378 196.0
173.499405 148.0
173.569916 140.0
173.666351 204.0
173.764023 232.0
173.879807 96.0
173.932846 192.0
173.972031 248.0
173.997559 128.0
174.031281 103644.0
174.112091 140.0
174.155701 152.0
174.265457 176.0
174.405777 96.0
174.459473 136.0
174.504684 256.0
174.553223 164.0
174.713165 136.0
174.81868 120.0
174.999344 140.0
175.032349 5760.0
175.06813 196.0
175.179352 116.0
175.282654 180.0
175.536896 220.0
176.034744 912.0
176.108673 104.0
176.167908 112.0
176.205963 104.0
176.237427 104.0
176.276047 140.0
176.298904 148.0
176.325485 204.0
176.365753 136.0
176.399734 132.0
176.884369 148.0
177.114746 156.0
177.538818 288.0
178.368576 224.0
178.739563 200.0
179.77887 204.0
180.208786 160.0
181.353668 104.0
182.01416 140.0
182.712997 140.0
182.746674 140.0
182.815247 204.0
183.11409 156.0
183.537186 204.0
183.761063 140.0
183.852814 148.0
183.914886 152.0
184.798615 160.0
185.101776 168.0
185.288666 188.0
185.763107 172.0
186.102356 140.0
186.417465 192.0
187.187317 188.0
187.506058 152.0
188.005157 248.0
188.185318 144.0
189.246216 168.0
189.315659 212.0
189.74762 156.0
190.395218 216.0
190.546295 168.0
191.473328 156.0
192.374985 164.0
192.742325 192.0
193.206833 156.0
193.547287 148.0
193.583282 172.0
194.06543 160.0
194.691299 112.0
195.120514 152.0
195.941544 160.0
196.108749 156.0
196.451736 140.0
196.839706 304.0
197.502075 140.0
197.851883 152.0
198.403793 164.0
198.431839 204.0
198.454269 196.0
198.717926 184.0
199.110931 176.0
199.389069 172.0
199.644913 232.0
199.714188 240.0
200.119568 780.0
200.450043 204.0
200.559952 180.0
203.008423 148.0
204.118774 200.0
204.357712 208.0
205.428955 156.0
205.620132 192.0
206.08847 144.0
206.114182 200.0
207.018158 164.0
207.75766 156.0
208.708862 160.0
208.994125 240.0
209.426132 196.0
209.635269 140.0
210.111038 220.0
210.73468 188.0
210.931213 168.0
211.420013 168.0
211.909393 176.0
213.968643 148.0
214.627136 188.0
215.62262 200.0
215.90329 236.0
216.005661 168.0
216.661423 216.0
217.060043 196.0
217.382736 208.0
218.487534 196.0
219.488983 204.0
219.772156 224.0
220.19577 124.0
220.965836 148.0
221.247009 208.0
221.974854 228.0
223.672394 164.0
223.803391 164.0
224.137009 204.0
224.470871 256.0
225.016907 152.0
225.512802 192.0
225.560638 172.0
226.611099 148.0
226.784912 192.0
227.054749 192.0
227.245468 208.0
227.390778 196.0
227.606934 152.0
228.43045 144.0
229.107803 184.0
229.134918 252.0
229.270508 200.0
229.934021 204.0
230.38092 164.0
230.843369 160.0
231.266937 140.0
231.457672 224.0
231.551544 144.0
231.578812 156.0
231.939392 152.0
232.546036 192.0
232.631027 144.0
234.016663 132.0
234.184891 196.0
234.385971 312.0
235.020218 152.0
235.047668 240.0
235.792831 144.0
236.150558 148.0
236.836197 216.0
237.725311 176.0
238.526962 248.0
238.554626 152.0
238.748337 232.0
239.622559 164.0
240.035599 180.0
240.794785 192.0
240.921432 148.0
241.351044 140.0
242.041611 212.0
242.901642 176.0
242.995773 164.0
243.029907 288.0
243.227173 156.0
243.255783 220.0
243.294586 128.0
243.324768 212.0
243.358917 204.0
243.38327 152.0
243.478638 196.0
243.547714 444.0
243.571533 112.0
243.625473 204.0
243.690018 192.0
243.718887 204.0
243.739059 264.0
243.772781 204.0
243.839371 176.0
243.90094 136.0
243.952332 256.0
243.98233 300.0
244.023239 248.0
244.047974 388.0
244.075653 644.0
244.110474 179836.0
244.227676 432.0
244.327499 140.0
244.372452 108.0
244.448334 164.0
244.468658 180.0
244.4953 224.0
244.571991 112.0
244.621078 2104.0
244.700821 240.0
244.754349 192.0
244.799561 208.0
244.844681 148.0
244.938583 112.0
244.963242 168.0
245.030701 216.0
245.111282 21364.0
245.165817 140.0
245.313141 96.0
245.367828 156.0
245.388763 192.0
245.461426 140.0
245.544006 124.0
245.59964 104.0
245.816757 108.0
245.95993 172.0
246.112305 1844.0
246.207062 156.0
246.452438 268.0
246.481369 148.0
246.520035 156.0
246.581863 120.0
246.614212 168.0
246.671768 136.0
246.715195 120.0
246.750427 160.0
246.781921 160.0
246.839203 152.0
246.899002 136.0
246.93898 148.0
246.982956 112.0
247.016525 144.0
247.065369 228.0
247.114273 236.0
247.462402 136.0
247.621933 140.0
247.654449 104.0
247.821381 136.0
249.583328 140.0
252.310684 184.0
255.50499 148.0
255.781296 144.0
255.997803 144.0
258.158295 148.0
259.936249 200.0
265.97168 152.0
272.043579 152.0
279.227356 168.0
290.06665 188.0
294.141937 184.0
314.051788 156.0
317.188232 176.0
322.177521 160.0
331.091217 140.0
335.61554 204.0
360.014526 196.0
360.15274 660.0
361.150177 164.0
361.273224 144.0
362.272675 144.0
771.306335 148.0
847.863403 268.0
878.639954 152.0
949.459229 160.0
963.549561 164.0
974.392029 156.0
1073.418579 228.0
1076.204956 216.0
1076.766479 180.0
1101.30542 148.0
1104.180664 268.0
1116.736206 140.0
1124.538452 168.0
1141.939087 148.0
1144.718628 216.0
1147.885864 192.0
1179.887817 244.0
1189.396484 192.0
1193.800537 200.0
1202.805786 208.0
1218.630615 176.0
1228.586792 180.0
1248.001709 140.0
1266.038696 152.0
1305.023438 184.0
1316.416016 176.0
1318.518311 220.0
1319.877441 244.0
1328.32959 208.0
1333.201538 244.0
1344.227173 152.0
1344.935181 228.0
1357.468018 164.0
1368.438721 160.0
1369.003662 212.0
1421.011841 240.0
1422.385254 176.0
1428.562378 192.0
1432.876221 228.0
1434.632202 168.0
1435.785889 184.0
1439.295044 188.0
1441.682129 168.0
1444.540283 204.0
1449.848022 200.0
1452.600464 208.0
1455.074463 200.0
1456.395874 172.0
1456.68457 204.0
1457.178345 148.0
1457.755859 192.0
1467.972046 216.0
1486.108765 160.0
1486.975952 176.0
1490.278076 144.0
1490.900513 156.0
1494.476318 172.0
1495.592285 216.0
1498.025635 176.0
1500.977539 200.0
1508.536255 196.0
1511.637817 232.0
1511.723022 216.0
1517.803955 164.0
1522.871826 164.0
1528.695068 188.0
1530.064941 140.0
1532.674194 140.0
1539.742065 196.0
1552.593018 264.0
1560.948853 248.0
1562.962646 144.0
1565.631226 192.0
1568.002686 144.0
1569.106323 164.0
1569.547852 164.0
1570.13147 148.0
1581.69104 164.0
1584.827271 200.0
1587.530396 144.0
1588.585327 160.0
1593.126221 220.0
1604.467163 180.0
1610.340332 144.0
1622.151001 232.0
1633.264648 188.0
1634.213989 244.0
1635.123291 164.0
1636.765625 172.0
1642.697632 276.0
1644.771484 196.0
1648.284668 168.0
1653.452393 172.0
1655.689087 160.0
1662.480713 168.0
1668.938721 148.0
1669.011963 148.0
1670.92334 196.0
1671.20813 160.0
1672.477661 164.0
1673.83728 184.0
1675.075317 196.0
1675.767822 208.0
1677.019287 156.0
1691.112549 152.0
1691.955688 232.0
1696.199219 140.0
1697.470093 208.0
1697.609497 156.0
1698.626587 148.0
1699.25 200.0
1702.714233 176.0
1708.895996 176.0
1709.118164 252.0
1710.723145 164.0
1712.2052 176.0
1717.736084 224.0
1720.203369 156.0
1721.417114 232.0
1728.220215 176.0
1736.064941 212.0
1741.235352 148.0
1742.090942 152.0
1744.085327 208.0
1747.170532 188.0
1748.709961 180.0
1750.924683 160.0
1759.213013 188.0
1759.371704 212.0
1760.123169 180.0
1760.757812 156.0
1764.008179 328.0
1764.184814 248.0
1764.275757 200.0
1766.859985 172.0
1773.710205 268.0
1776.334961 168.0
1777.190674 240.0
1781.262573 188.0
1781.549438 140.0
1784.699951 188.0
1785.490723 132.0
1785.868896 200.0
1790.784546 176.0
1791.399414 200.0
1793.497681 232.0
1796.854004 160.0
1798.744385 168.0
1799.039917 156.0
1799.470459 232.0
1800.374023 220.0
1802.545166 244.0
1803.043701 172.0
1805.030396 240.0
1807.28894 156.0
1809.582764 220.0
1813.488037 192.0
1816.065674 164.0
1816.438965 176.0
1817.202393 216.0
1817.431519 144.0
1825.748047 180.0
1827.611084 180.0
1828.717407 200.0
1832.081055 168.0
1837.042603 236.0
1837.247437 172.0
1837.793457 140.0
1839.911987 196.0
1840.430908 152.0
1840.499268 204.0
1851.128418 276.0
1851.942017 232.0
1852.713013 220.0
1856.047119 260.0
1856.12439 196.0
1856.424438 204.0
1857.393677 184.0
1858.644775 188.0
1859.727661 232.0
1862.5354 156.0
1866.411499 252.0
1867.976807 204.0
1868.234863 212.0
1868.716675 180.0
1873.314087 196.0
1877.572144 212.0
1878.969604 200.0
1879.366577 196.0
1882.016479 168.0
1882.594971 180.0
1882.698608 268.0
1882.785034 204.0
1882.957764 188.0
1889.164062 168.0
1891.180298 152.0
1892.18457 160.0
1894.930054 188.0
1895.345947 216.0
1895.735962 168.0
1895.813965 144.0
1898.735596 188.0
1898.926392 200.0
1901.63916 152.0
1902.874878 208.0
1903.074585 148.0
1904.828857 144.0
1905.211182 228.0
1908.7052 216.0
1919.442017 144.0
1920.061279 160.0
1922.250977 164.0
1924.153809 204.0
1924.79126 160.0
1925.428711 248.0
1932.562012 200.0
1932.815796 168.0
1936.930664 160.0
1937.940918 180.0
1938.709351 220.0
1940.523804 160.0
1945.199951 208.0
1946.604736 192.0
1947.66748 216.0
1950.822144 156.0
1954.181885 276.0
1965.080933 168.0
1967.087891 160.0
1967.243164 176.0
1967.781738 172.0
1973.799072 148.0
1974.090942 208.0
1976.797852 232.0
1979.081665 180.0
1982.926392 216.0
1983.458252 172.0
1985.932251 160.0
1988.798218 188.0
1989.171021 184.0
1990.476196 176.0
1991.231079 164.0
1992.643433 156.0
1992.918945 148.0
1996.447998 192.0
1998.093628 192.0
1999.205933 212.0
2001.840942 180.0
