>compound MLS002207227-01!
>formula C23H34O5
>ionization [M+H]+
>parentmass 391.2479006400905
#inchi InChI=1S/C23H34O5/c1-4-14(2)23(26)28-20-7-5-6-16-9-8-15(3)19(22(16)20)11-10-18-12-17(24)13-21(25)27-18/h6,8-9,14-15,17-20,22,24H,4-5,7,10-13H2,1-3H3/t14-,15-,17+,18+,19-,20-,22-/m0/s1
#inchikey AJLFOPYRIVGYMJ
#Ion_Source LC-ESI
#Instrument qTof
#Compound_Source NIH Pharmacologically Active Library
#PI Dorrestein
#Data_Collector VP/LMS
#Scan -1
#Precursor_MZ 391.242
#ExactMass 390.241
#Charge 1
#CAS_Number N/A
#Pubmed_ID N/A
#Smiles CC[C@H](C)C(=O)O[C@H]1CCC=C2C=C[C@H](C)[C@H](CC[C@@H]3C[C@@H](O)CC(=O)O3)[C@@H]12
#INCHI_AUX N/A
#Library_Class 1
#SpectrumID CCMSLIB00000085306
#IonMode Positive
#UpdateWorkflowName UPDATE-SINGLE-ANNOTATED-GOLD
#LibraryQualityString Gold
#TaskID d252d724072548979f1f6f1ced849daf
##Scan# 2435
#SpectrumFile p3-H02_GH2_01_18307.mzXML
#LibraryName Pharm_Active_Library.mgf
#MQScore -1
#Organism Pharm_Active_Library
#TIC_Query 0
#RT_Query -1
#MZErrorPPM -1
#SharedPeaks 0
#MassDiff 0
#LibMZ -1
#SpecMZ 391.242
#SpecCharge 0
#internalFilename spec-00000.mgf

>collision 10
45.112209 120.0
45.330387 76.0
45.412174 172.0
45.429611 144.0
45.447056 204.0
45.460476 156.0
45.531631 160.0
45.546406 192.0
45.558498 152.0
45.60553 204.0
45.656624 152.0
45.683529 116.0
45.815468 188.0
45.838486 240.0
45.850208 92.0
45.949059 144.0
45.998882 212.0
46.071808 68.0
46.09478 224.0
46.173191 144.0
46.189423 76.0
46.315319 228.0
46.383072 200.0
46.507874 128.0
46.559467 104.0
46.639637 140.0
46.680424 32.0
46.691307 188.0
46.749809 180.0
46.762058 36.0
46.792007 212.0
46.936443 76.0
46.999195 160.0
47.07291 132.0
47.089298 160.0
47.158985 192.0
47.234192 168.0
47.331371 80.0
47.365612 116.0
47.506813 140.0
47.521908 136.0
47.596565 164.0
48.006126 184.0
48.07925 140.0
48.09029 220.0
48.11433 164.0
48.169003 172.0
48.202164 152.0
48.217365 228.0
48.254688 212.0
48.26437 116.0
48.412445 132.0
48.447075 256.0
48.496964 128.0
48.595428 160.0
48.637428 152.0
48.705105 128.0
48.735672 164.0
48.855247 124.0
49.18972 104.0
49.328022 168.0
49.368572 152.0
49.490318 212.0
49.557556 112.0
49.573109 120.0
49.584183 252.0
49.650078 148.0
49.852249 188.0
49.869114 204.0
49.980221 132.0
50.082996 96.0
50.099903 160.0
50.132309 104.0
50.15744 164.0
50.229599 148.0
50.245121 120.0
50.488087 212.0
50.514965 44.0
50.61404 212.0
50.683453 156.0
50.838028 216.0
50.88369 144.0
51.036911 168.0
51.061089 44.0
51.133522 220.0
51.170666 132.0
51.421566 128.0
51.588802 164.0
51.773289 188.0
51.804802 124.0
51.829159 208.0
51.961075 120.0
51.972557 216.0
52.047199 136.0
52.198086 68.0
52.45726 264.0
52.6092 176.0
52.663616 140.0
52.675171 144.0
52.735863 120.0
52.802372 264.0
53.038395 128.0
53.139915 224.0
53.290924 212.0
53.351967 108.0
53.461063 168.0
53.546963 104.0
53.558617 228.0
53.599411 216.0
53.640221 168.0
53.904408 164.0
53.935101 60.0
54.066742 160.0
54.279167 148.0
54.309967 172.0
54.327572 188.0
54.396545 156.0
54.483196 184.0
54.686134 224.0
54.696438 172.0
54.8069 144.0
54.823875 160.0
54.845219 192.0
54.97649 144.0
55.004532 80.0
55.019295 196.0
55.104961 164.0
55.306091 104.0
55.340141 176.0
55.383091 160.0
55.408276 128.0
55.423096 136.0
55.500175 148.0
55.531319 144.0
55.552086 68.0
55.615898 148.0
55.789707 228.0
55.84359 240.0
55.929546 32.0
55.947411 164.0
56.024853 144.0
56.045715 112.0
56.097443 136.0
56.199303 156.0
56.381493 180.0
56.444283 228.0
56.466713 200.0
56.520573 140.0
56.826252 188.0
56.949356 188.0
56.986916 192.0
57.177902 100.0
57.250168 176.0
57.269749 148.0
57.37524 176.0
57.423496 168.0
57.476299 148.0
57.639389 104.0
58.112873 140.0
58.181648 144.0
58.246952 92.0
58.263664 260.0
58.286457 120.0
58.297092 132.0
58.339653 88.0
58.365501 224.0
58.409611 148.0
58.478085 60.0
58.532894 204.0
58.564877 208.0
58.634964 212.0
58.668503 60.0
58.743229 160.0
58.763065 160.0
58.775272 172.0
58.801216 64.0
58.931023 212.0
58.960056 244.0
58.974289 116.0
59.039471 204.0
59.070152 136.0
59.112995 168.0
59.225273 120.0
59.327435 144.0
59.350437 216.0
59.39798 208.0
59.427132 128.0
59.448616 188.0
59.471638 140.0
59.597572 136.0
59.645218 68.0
59.655979 140.0
59.734875 172.0
59.749794 232.0
59.788261 56.0
59.994675 156.0
60.333454 168.0
60.382271 168.0
60.529293 160.0
60.595901 148.0
60.699757 64.0
60.906181 72.0
60.93259 220.0
60.954346 48.0
60.969887 152.0
60.982323 180.0
61.013412 84.0
61.288914 204.0
61.432358 172.0
61.585339 60.0
61.765102 36.0
61.863693 64.0
61.960793 152.0
62.056404 180.0
62.084629 196.0
62.123844 128.0
62.167782 192.0
62.224293 152.0
62.248333 180.0
62.422279 116.0
62.486774 56.0
62.626884 144.0
62.754539 148.0
62.846027 192.0
62.950211 160.0
62.975483 104.0
63.051323 144.0
63.075031 248.0
63.120884 140.0
63.138279 176.0
63.247456 80.0
63.280704 152.0
63.337719 212.0
63.515259 144.0
63.653343 164.0
63.675579 176.0
63.739124 236.0
63.853592 252.0
63.990448 96.0
64.004784 48.0
64.219933 132.0
64.308632 212.0
64.440247 36.0
64.453026 160.0
64.464211 152.0
64.561737 172.0
64.617485 160.0
64.691345 76.0
64.779427 140.0
64.934914 272.0
64.963791 200.0
65.093803 132.0
65.153229 196.0
65.190186 196.0
65.233589 48.0
65.686111 160.0
65.771637 108.0
65.794235 188.0
65.826294 136.0
65.898819 176.0
66.068993 136.0
66.1259 168.0
66.2649 132.0
66.336212 168.0
66.37999 144.0
66.508163 188.0
66.57473 188.0
66.770035 216.0
66.790909 116.0
66.837639 160.0
66.861984 152.0
66.934128 112.0
67.061211 192.0
67.13784 120.0
67.155785 64.0
67.281441 172.0
67.304893 208.0
67.3778 208.0
67.412109 208.0
67.650925 108.0
67.693497 200.0
67.724617 208.0
67.765907 196.0
67.780319 160.0
67.791786 192.0
67.82621 56.0
67.860634 168.0
67.918037 108.0
68.034554 216.0
68.050972 124.0
68.215263 68.0
68.330391 176.0
68.467018 164.0
68.539238 172.0
68.775352 140.0
69.029793 172.0
69.153877 180.0
69.243286 124.0
69.30127 112.0
69.359276 224.0
69.407356 156.0
69.433891 152.0
69.652992 224.0
69.671265 160.0
69.864906 196.0
70.008942 44.0
70.078903 144.0
70.0989 120.0
70.128899 168.0
70.178917 128.0
70.30069 136.0
70.36412 180.0
70.481041 232.0
70.564621 132.0
70.69175 56.0
70.802246 240.0
70.840775 168.0
70.877632 160.0
70.919533 128.0
70.97821 144.0
71.124176 220.0
71.280373 100.0
71.409828 200.0
71.723022 124.0
71.755051 160.0
71.78035 108.0
71.915321 176.0
71.932198 112.0
71.988541 304.0
72.143372 208.0
72.177185 204.0
72.190712 176.0
72.229614 60.0
72.380249 156.0
72.454781 152.0
72.549683 204.0
72.595467 64.0
72.811005 108.0
72.829689 200.0
72.889153 184.0
72.933342 204.0
72.963943 72.0
73.006454 108.0
73.089813 224.0
73.253265 204.0
73.355515 124.0
73.565346 96.0
73.777191 172.0
73.806259 148.0
73.941406 184.0
73.982491 160.0
74.085251 64.0
74.193222 176.0
74.205223 232.0
74.241234 204.0
74.282402 80.0
74.311562 140.0
74.57 180.0
74.669029 140.0
74.89637 172.0
74.913315 120.0
74.958115 176.0
75.014992 132.0
75.059357 104.0
75.315254 124.0
75.332535 184.0
75.429306 172.0
75.488091 208.0
75.559013 136.0
75.585014 168.0
75.614388 132.0
75.638405 128.0
75.662857 176.0
75.914116 136.0
75.947067 84.0
76.127571 312.0
76.18663 180.0
76.216171 120.0
76.280479 184.0
76.353508 200.0
76.391777 152.0
76.44223 160.0
76.849121 176.0
76.886642 152.0
76.984406 216.0
77.021088 156.0
77.050789 184.0
77.064766 124.0
77.145164 196.0
77.183632 56.0
77.314835 212.0
77.356842 188.0
77.437393 188.0
77.570564 384.0
77.661751 252.0
77.731934 160.0
77.835503 212.0
77.889946 172.0
78.070992 212.0
78.269844 196.0
78.481804 224.0
78.523628 76.0
78.578316 192.0
78.608307 32.0
78.724823 184.0
78.843193 172.0
78.91214 120.0
79.06604 184.0
79.149246 156.0
79.374298 204.0
79.415085 144.0
79.553497 132.0
79.569481 168.0
79.610321 168.0
79.688484 200.0
79.720467 256.0
79.885826 80.0
79.967682 196.0
80.126175 176.0
80.143997 144.0
80.283043 136.0
80.332985 244.0
80.411499 196.0
80.638336 108.0
80.688393 120.0
80.706268 212.0
80.72773 116.0
80.767075 188.0
80.806435 176.0
80.894135 140.0
80.922775 200.0
81.170059 168.0
81.18261 176.0
81.45903 180.0
81.592018 132.0
81.656754 112.0
81.673775 260.0
81.728714 132.0
81.90155 220.0
81.959206 112.0
81.989838 192.0
82.033104 128.0
82.316376 172.0
82.405342 80.0
82.41935 48.0
82.4338 168.0
82.522377 148.0
82.607384 116.0
82.849976 224.0
82.918831 136.0
83.074776 120.0
83.252663 144.0
83.450737 96.0
83.479828 192.0
83.834831 208.0
83.847588 172.0
83.913216 32.0
83.955154 112.0
84.124847 144.0
84.192413 104.0
84.210678 168.0
84.263657 140.0
84.347946 160.0
84.382454 208.0
84.415375 140.0
84.429115 156.0
84.48671 184.0
84.647781 172.0
84.68441 232.0
84.735703 132.0
84.766853 112.0
84.816345 188.0
84.96489 92.0
85.029114 148.0
85.108055 88.0
85.166824 248.0
85.19117 188.0
85.2201 172.0
85.295456 240.0
85.365318 264.0
85.525391 192.0
85.700348 176.0
85.724304 120.0
85.768539 248.0
85.860733 136.0
85.904999 224.0
86.034187 108.0
86.152382 136.0
86.329834 152.0
86.498207 112.0
86.533379 60.0
86.859558 76.0
86.898521 156.0
87.017311 136.0
87.206795 184.0
87.251411 124.0
87.359283 168.0
87.376022 116.0
87.448601 120.0
87.575218 192.0
87.690742 152.0
87.746666 140.0
87.811935 208.0
87.830414 212.0
87.931702 208.0
87.963081 200.0
87.98175 152.0
88.007889 196.0
88.07325 160.0
88.266144 252.0
88.394836 152.0
88.563332 204.0
88.640152 132.0
88.666908 172.0
88.773254 180.0
89.109253 92.0
89.128044 180.0
89.205109 124.0
89.242706 132.0
89.374382 168.0
89.60598 164.0
89.769974 144.0
89.8209 172.0
89.985085 84.0
90.037964 176.0
90.134308 128.0
90.168327 188.0
90.353645 140.0
90.429344 176.0
90.467201 120.0
90.577034 176.0
90.59977 152.0
90.657257 212.0
90.910744 72.0
90.924026 180.0
91.024643 172.0
91.053085 308.0
91.110123 200.0
91.157623 144.0
91.180145 160.0
91.264076 192.0
91.27739 168.0
91.322784 216.0
91.673355 168.0
91.690506 164.0
91.713692 240.0
91.783546 144.0
91.837318 176.0
91.875473 208.0
91.921265 148.0
92.091187 132.0
92.177155 192.0
92.440079 172.0
92.598053 220.0
92.812691 96.0
92.856804 104.0
92.900917 88.0
92.962318 212.0
93.023743 116.0
93.089767 372.0
93.129356 200.0
93.344612 232.0
93.56974 200.0
93.671814 192.0
93.750816 124.0
93.941704 192.0
94.142448 188.0
94.327934 184.0
94.488457 168.0
94.529091 192.0
94.58522 112.0
94.650253 220.0
94.699463 168.0
94.902946 160.0
94.920403 228.0
94.963066 204.0
94.990227 180.0
95.060165 224.0
95.085304 244.0
95.147423 144.0
95.180435 136.0
95.227043 176.0
95.398041 144.0
95.567253 196.0
95.600334 176.0
95.931465 120.0
96.00946 156.0
96.216301 244.0
96.437042 108.0
96.485916 68.0
96.632607 80.0
96.750038 160.0
96.793114 56.0
96.916527 136.0
97.066399 364.0
97.098839 64.0
97.222443 136.0
97.312744 228.0
97.355942 164.0
97.405045 132.0
97.430588 152.0
97.469887 144.0
97.513123 116.0
97.5662 136.0
97.587822 156.0
97.719604 92.0
97.749123 72.0
97.81604 140.0
97.887589 212.0
98.068176 172.0
98.107605 108.0
98.188454 152.0
98.251579 144.0
98.334457 164.0
98.454895 132.0
98.707848 156.0
98.74543 172.0
98.790604 172.0
98.821609 236.0
98.941338 208.0
99.079834 208.0
99.15329 180.0
99.305962 80.0
99.341667 52.0
99.565971 124.0
99.699081 124.0
99.822334 140.0
99.872063 248.0
99.954002 212.0
100.043198 148.0
100.094963 208.0
100.112892 136.0
100.168663 120.0
100.579453 124.0
100.655319 224.0
100.807137 228.0
100.85511 100.0
100.927078 200.0
101.059532 244.0
101.234436 156.0
101.27932 172.0
101.339424 148.0
101.418816 156.0
101.578003 200.0
101.618126 244.0
101.792763 140.0
101.832932 148.0
101.987648 156.0
102.005737 224.0
102.084152 132.0
102.343742 28.0
102.516983 124.0
102.549232 164.0
102.684326 212.0
102.750893 180.0
103.031532 144.0
103.054703 308.0
103.075981 136.0
103.130547 112.0
103.298386 144.0
103.482559 152.0
103.551964 148.0
103.662842 176.0
103.764191 208.0
103.942696 220.0
104.025909 148.0
104.068542 68.0
104.231049 180.0
104.265594 164.0
104.32576 232.0
104.658218 192.0
104.69339 148.0
104.825256 156.0
104.90271 172.0
104.972031 184.0
105.0373 184.0
105.070061 2320.0
105.108711 124.0
105.204643 176.0
105.398674 160.0
105.435463 128.0
105.486565 260.0
105.662445 44.0
105.726768 156.0
105.746346 144.0
105.82209 176.0
105.883522 136.0
106.074089 220.0
106.326378 64.0
106.381805 136.0
106.53994 176.0
106.640434 208.0
106.71875 208.0
107.048813 200.0
107.08493 356.0
107.188072 80.0
107.208679 196.0
107.235474 128.0
107.262276 148.0
107.408684 60.0
107.520103 236.0
107.555191 180.0
107.602676 184.0
107.621254 184.0
107.681145 136.0
107.751381 208.0
107.790642 72.0
108.059456 208.0
108.285095 180.0
108.307884 168.0
108.569038 160.0
108.703888 136.0
108.784836 92.0
108.857506 144.0
108.880348 208.0
108.990456 180.0
109.063194 164.0
109.105782 280.0
109.246193 136.0
109.329422 104.0
109.421013 108.0
109.464745 164.0
109.527222 104.0
109.618896 152.0
109.80088 220.0
109.821136 144.0
109.88163 240.0
110.046524 156.0
110.167656 164.0
110.240791 160.0
110.309769 184.0
110.474976 264.0
110.514725 180.0
110.776436 196.0
110.931511 160.0
110.973442 164.0
111.040825 152.0
111.145447 176.0
111.168533 116.0
111.218903 144.0
111.267189 88.0
111.376389 172.0
111.4058 112.0
111.533989 160.0
111.607574 180.0
111.630707 180.0
111.653839 152.0
111.672768 32.0
111.721336 136.0
111.836891 152.0
111.959007 152.0
112.036942 124.0
112.133881 120.0
112.192902 240.0
112.264595 212.0
112.639069 124.0
112.714249 204.0
112.731148 448.0
112.781876 144.0
112.851639 116.0
112.921425 184.0
112.982773 268.0
113.159935 192.0
113.181732 152.0
113.29187 40.0
113.47905 140.0
113.628975 232.0
113.732964 128.0
113.747818 116.0
113.832748 240.0
113.955948 172.0
114.153641 124.0
114.255737 184.0
114.351494 188.0
114.379166 140.0
114.519707 204.0
114.555916 176.0
114.598534 176.0
114.740456 136.0
114.752655 116.0
114.877823 168.0
114.939743 216.0
115.053444 864.0
115.084854 180.0
115.196732 156.0
115.283516 92.0
115.431023 76.0
115.543365 200.0
115.801277 152.0
115.828438 188.0
115.863396 180.0
116.05986 732.0
116.178551 172.0
116.253654 132.0
116.457619 152.0
116.646713 180.0
116.743469 96.0
116.801292 172.0
116.902672 180.0
116.924194 28.0
117.027519 216.0
117.06926 2296.0
117.112831 176.0
117.169678 160.0
117.303291 152.0
117.339943 108.0
117.365822 184.0
117.432671 144.0
117.579391 228.0
117.605293 156.0
117.665733 96.0
117.695969 156.0
117.730515 84.0
117.870934 64.0
118.074608 340.0
118.450783 160.0
118.550453 232.0
118.57724 244.0
118.600296 264.0
118.828011 224.0
118.897446 112.0
118.916985 60.0
119.034569 176.0
119.085541 2232.0
119.190628 68.0
119.244957 104.0
119.266693 172.0
119.323212 60.0
119.510269 272.0
119.625626 208.0
119.682228 184.0
119.926231 188.0
119.993813 228.0
120.03524 180.0
120.086082 180.0
120.135574 160.0
120.194229 172.0
120.399696 304.0
120.565735 144.0
120.847832 148.0
121.055786 152.0
121.102615 136.0
121.173355 268.0
121.351608 168.0
121.445908 116.0
121.635872 232.0
121.87841 44.0
122.104843 116.0
122.166435 208.0
122.192833 168.0
122.267654 96.0
122.551727 140.0
122.756737 172.0
122.869232 104.0
122.946465 112.0
122.995018 176.0
123.021507 208.0
123.041382 136.0
123.085541 156.0
123.251213 148.0
123.319725 176.0
123.366478 240.0
123.425842 392.0
123.467857 104.0
123.538643 192.0
123.620514 180.0
123.777687 168.0
123.80426 68.0
123.877357 64.0
124.291962 148.0
124.369644 188.0
124.395561 148.0
124.52951 152.0
124.612228 204.0
124.738388 160.0
124.798416 28.0
124.960785 164.0
124.990623 104.0
125.061096 216.0
125.100998 200.0
125.212334 204.0
125.441849 184.0
125.597939 52.0
125.767532 144.0
126.01989 68.0
126.040001 140.0
126.05883 160.0
126.230011 132.0
126.283684 96.0
126.404495 212.0
126.424637 204.0
126.619415 188.0
126.851089 224.0
126.930923 196.0
126.962326 92.0
127.055351 536.0
127.265274 144.0
127.310181 52.0
127.341629 192.0
127.366333 152.0
127.489914 180.0
127.516884 184.0
127.615799 176.0
127.665268 128.0
127.768738 164.0
127.80024 136.0
127.82724 104.0
127.856499 260.0
127.890259 124.0
127.908264 112.0
128.060867 3332.0
128.286728 164.0
128.304764 160.0
128.363388 112.0
128.417511 140.0
128.449097 188.0
128.465958 164.0
128.541595 52.0
128.573196 168.0
128.744781 164.0
128.873535 44.0
129.031754 200.0
129.069061 4888.0
129.342651 208.0
129.389236 108.0
129.713196 116.0
129.794815 108.0
130.044373 56.0
130.07666 1168.0
130.205582 188.0
130.282806 116.0
130.420181 80.0
130.544205 156.0
130.603333 240.0
130.626083 204.0
130.687515 168.0
130.758057 108.0
130.797516 184.0
130.924271 104.0
130.953873 152.0
130.985764 40.0
131.019928 164.0
131.044998 40.0
131.085114 5208.0
131.213654 76.0
131.291183 84.0
131.368744 256.0
131.583267 148.0
131.612961 156.0
131.640366 192.0
131.670044 76.0
131.690613 68.0
131.825409 148.0
131.98999 264.0
132.067749 164.0
132.089859 664.0
132.241653 232.0
132.453735 148.0
132.66626 100.0
132.699829 180.0
132.79155 224.0
133.065216 160.0
133.100632 720.0
133.193237 40.0
133.502426 208.0
133.891388 136.0
133.970795 156.0
134.102524 244.0
134.268143 156.0
134.286606 180.0
134.365036 152.0
134.429642 132.0
134.46196 184.0
134.70903 64.0
134.732132 216.0
134.762161 124.0
134.778336 68.0
134.965576 120.0
135.079849 156.0
135.115433 116.0
135.196899 88.0
135.33812 264.0
135.428436 172.0
135.504883 108.0
135.544281 172.0
135.597641 136.0
135.678711 156.0
135.866562 112.0
136.047592 164.0
136.073135 160.0
136.105637 164.0
136.182281 144.0
136.296112 168.0
136.317032 156.0
136.398376 136.0
136.468124 184.0
136.584412 116.0
136.607666 236.0
136.772888 224.0
137.054703 136.0
137.089645 160.0
137.105957 60.0
137.14093 168.0
137.29248 76.0
137.586487 172.0
137.661209 152.0
137.738281 172.0
137.899506 164.0
138.10762 184.0
138.25502 100.0
138.714096 120.0
138.784439 52.0
139.253799 132.0
139.665146 148.0
139.755722 176.0
139.876923 240.0
139.966385 120.0
140.006424 172.0
140.112427 80.0
140.213745 232.0
140.683151 64.0
140.732742 200.0
140.83902 152.0
140.983139 156.0
141.06926 2040.0
141.155716 116.0
141.177002 132.0
141.233765 132.0
141.302368 156.0
141.382828 152.0
141.41832 128.0
141.468033 108.0
141.546173 124.0
141.570755 188.0
141.721466 124.0
141.76886 172.0
141.837585 96.0
142.000671 196.0
142.076675 3304.0
142.106659 280.0
142.209991 60.0
142.269348 192.0
142.454575 52.0
142.528229 132.0
142.559128 68.0
142.625671 132.0
142.663712 196.0
142.696991 160.0
142.745193 164.0
142.846832 124.0
142.982101 132.0
143.025299 304.0
143.084808 11648.0
143.140656 80.0
143.177795 184.0
143.224915 88.0
143.246765 172.0
143.311081 68.0
143.327774 72.0
143.346832 32.0
143.427872 88.0
143.492233 180.0
143.566162 188.0
143.66156 68.0
143.702133 128.0
143.790421 116.0
143.814285 64.0
143.851837 132.0
143.883514 172.0
143.908142 180.0
143.938156 172.0
144.059189 144.0
144.091736 10244.0
144.178818 200.0
144.217957 252.0
144.234695 32.0
144.315979 52.0
144.337509 80.0
144.375763 224.0
144.405014 88.0
144.435562 92.0
144.5504 160.0
144.60112 104.0
144.694016 224.0
144.73233 116.0
144.780228 184.0
144.959152 116.0
144.983871 48.0
145.062775 132.0
145.100571 8120.0
145.146881 160.0
145.168472 64.0
145.190735 140.0
145.210251 60.0
145.240417 204.0
145.321991 208.0
145.389175 160.0
145.465988 56.0
145.583633 116.0
145.725372 132.0
145.809479 76.0
145.855148 280.0
145.915253 112.0
146.042572 148.0
146.104568 1460.0
146.173157 216.0
146.256851 84.0
146.312225 124.0
146.444672 84.0
146.812119 176.0
146.83754 88.0
146.991943 104.0
147.030563 164.0
147.049866 180.0
147.082611 120.0
147.116913 512.0
147.199554 80.0
147.272003 280.0
147.392807 196.0
148.264008 160.0
148.364761 176.0
148.557404 168.0
148.846237 148.0
149.021133 152.0
149.052719 160.0
149.105377 244.0
149.17424 88.0
149.237457 172.0
149.264206 104.0
149.590225 156.0
149.721237 164.0
149.782608 116.0
149.836212 136.0
149.901993 60.0
150.028748 144.0
150.233597 176.0
150.316559 220.0
150.384903 224.0
150.438599 112.0
150.609543 148.0
150.885681 148.0
150.946823 208.0
151.100922 184.0
151.453445 116.0
151.566132 196.0
151.588196 180.0
151.847641 208.0
151.931473 236.0
152.059723 304.0
152.083618 244.0
152.260391 80.0
152.4422 136.0
152.552811 144.0
152.702805 196.0
152.788895 136.0
152.833191 116.0
153.070786 700.0
153.096588 88.0
153.350357 204.0
153.414444 144.0
153.48349 128.0
153.79187 132.0
153.816559 164.0
153.902969 140.0
153.962234 192.0
154.080078 816.0
154.122803 108.0
154.167297 232.0
154.187057 188.0
154.862518 48.0
154.976486 212.0
155.0186 184.0
155.084503 5296.0
155.130142 144.0
155.149979 32.0
155.203323 124.0
155.293808 72.0
155.318604 200.0
155.348373 32.0
155.472443 168.0
155.705826 180.0
155.81015 160.0
155.832504 132.0
155.974167 180.0
156.036316 180.0
156.090698 1488.0
156.163147 68.0
156.201996 116.0
156.273804 100.0
156.389572 152.0
156.409485 148.0
156.937271 192.0
156.965088 148.0
157.026382 180.0
157.100204 10996.0
157.16713 124.0
157.197037 260.0
157.223114 112.0
157.268356 108.0
157.289429 44.0
157.328003 44.0
157.385834 96.0
157.414261 52.0
157.494186 196.0
157.516663 152.0
157.548157 132.0
157.579132 52.0
157.659088 72.0
157.754074 64.0
157.816574 172.0
157.886597 52.0
157.961639 204.0
158.054718 196.0
158.073441 128.0
158.103043 1172.0
158.179352 32.0
158.209396 52.0
158.249451 104.0
158.348282 180.0
158.387192 72.0
158.537521 136.0
158.557571 60.0
158.780792 128.0
158.820847 148.0
158.876099 160.0
158.90007 124.0
159.001495 180.0
159.058502 192.0
159.086304 356.0
159.116592 36160.0
159.197906 52.0
159.226593 76.0
159.291183 120.0
159.308899 76.0
159.388245 44.0
159.443527 68.0
159.497711 72.0
159.59436 52.0
159.62384 72.0
159.652451 164.0
159.710052 136.0
159.760742 52.0
159.77655 172.0
159.813431 88.0
159.858948 180.0
159.916382 72.0
159.976166 80.0
160.049805 60.0
160.080017 148.0
160.1194 4344.0
160.153061 124.0
160.173218 40.0
160.41629 140.0
160.487991 160.0
160.534897 104.0
160.611832 72.0
160.7733 44.0
160.838928 200.0
160.88942 56.0
160.914673 100.0
160.955063 140.0
161.058609 124.0
161.091843 228.0
161.11618 540.0
161.164719 48.0
161.249802 120.0
161.309464 216.0
161.333374 148.0
161.351761 52.0
161.447845 124.0
161.485794 124.0
161.513611 168.0
161.550232 92.0
162.032578 156.0
162.062988 76.0
162.221954 128.0
162.344376 60.0
162.425537 64.0
162.501648 168.0
162.575226 52.0
162.86467 128.0
162.999329 184.0
163.045074 172.0
163.07811 176.0
163.100983 148.0
163.128067 160.0
163.25354 144.0
163.50032 112.0
163.836441 172.0
163.865051 176.0
163.917969 164.0
164.160156 272.0
164.183105 172.0
164.24942 88.0
164.47908 156.0
164.680801 172.0
165.010468 204.0
165.066696 284.0
165.092285 96.0
165.117859 152.0
165.302063 92.0
165.363495 180.0
165.435165 64.0
165.455643 36.0
165.511978 52.0
165.706635 148.0
165.768143 40.0
166.011673 152.0
166.077621 324.0
166.101456 44.0
166.240005 160.0
166.589203 96.0
166.794785 172.0
166.946487 152.0
167.082703 1176.0
167.116989 112.0
167.232071 48.0
167.453491 180.0
167.610641 80.0
167.669922 76.0
168.002563 228.0
168.036102 132.0
168.092453 1288.0
168.242569 156.0
168.361343 176.0
168.482758 112.0
168.764481 192.0
168.785172 92.0
168.86792 168.0
169.024094 112.0
169.032745 164.0
169.040253 168.0
169.100418 6916.0
169.206924 64.0
169.34935 80.0
169.375259 40.0
169.4478 88.0
169.538483 60.0
169.810715 40.0
169.935242 60.0
169.984299 216.0
170.077011 184.0
170.106888 1580.0
170.25972 176.0
170.293488 60.0
170.503937 96.0
170.555923 96.0
170.678116 120.0
170.789948 32.0
170.81337 108.0
170.894012 32.0
170.98082 56.0
171.116058 2404.0
171.17514 72.0
171.195023 44.0
171.255875 56.0
171.318558 68.0
171.352264 100.0
171.396561 48.0
171.443466 80.0
171.461716 144.0
171.529922 72.0
171.612915 92.0
171.758957 144.0
171.782898 68.0
172.12088 592.0
172.205307 164.0
172.275421 148.0
172.325485 168.0
172.430008 60.0
172.471832 156.0
172.615631 152.0
172.741028 76.0
173.099915 424.0
173.127563 852.0
173.212372 40.0
173.280487 44.0
173.369583 148.0
173.422928 124.0
173.463943 52.0
174.085785 192.0
174.106796 228.0
174.14093 180.0
174.256516 184.0
174.330093 196.0
175.075974 172.0
175.103577 184.0
175.151062 172.0
175.211594 48.0
175.4646 172.0
175.50679 180.0
175.596451 60.0
175.712463 180.0
175.749466 100.0
175.844467 188.0
175.910461 212.0
175.93158 140.0
176.090012 204.0
176.132278 92.0
176.235321 168.0
176.634521 144.0
176.795929 52.0
176.994476 188.0
177.091507 488.0
177.156036 68.0
177.21167 88.0
177.550995 116.0
177.728729 112.0
177.789764 92.0
178.081528 316.0
178.565552 84.0
178.602798 152.0
178.632065 152.0
178.791702 76.0
179.083633 1580.0
179.445999 200.0
179.596359 148.0
179.767105 104.0
179.945953 176.0
180.090958 400.0
180.205032 104.0
180.335983 196.0
180.381424 140.0
180.557968 164.0
180.99411 132.0
181.099014 1328.0
181.213745 104.0
181.243225 164.0
181.337021 160.0
181.425491 56.0
181.468384 140.0
181.524689 44.0
181.562241 64.0
181.626617 108.0
181.864532 108.0
181.900314 100.0
181.920273 120.0
182.069473 196.0
182.107208 2216.0
182.209167 36.0
182.233337 136.0
182.324707 52.0
182.351593 60.0
182.459106 216.0
182.547852 144.0
182.720001 168.0
182.787262 168.0
182.862625 128.0
182.889542 264.0
182.930817 144.0
182.954147 40.0
183.051071 272.0
183.074493 236.0
183.115601 8896.0
183.189499 152.0
183.226166 72.0
183.33754 160.0
183.386505 48.0
183.444458 108.0
183.479507 56.0
183.751907 132.0
184.013718 140.0
184.046112 140.0
184.122482 1232.0
184.218964 68.0
184.397308 100.0
184.562225 200.0
184.68187 200.0
184.708267 200.0
184.775894 172.0
184.908493 180.0
184.94368 36.0
184.982071 196.0
185.024902 196.0
185.043854 200.0
185.092102 248.0
185.132248 26728.0
185.205612 60.0
185.231888 120.0
185.252167 48.0
185.278488 76.0
185.30011 84.0
185.350906 144.0
185.404129 36.0
185.452911 52.0
185.534241 60.0
185.574905 272.0
185.607239 52.0
185.631851 40.0
185.753906 112.0
185.824448 48.0
185.875992 56.0
185.943848 52.0
186.00238 176.0
186.101303 168.0
186.134903 3212.0
186.180054 32.0
186.199051 52.0
186.28598 92.0
186.304993 52.0
186.34462 96.0
186.468033 56.0
186.487061 204.0
186.560455 36.0
186.644745 188.0
186.82077 72.0
186.851471 76.0
187.113388 184.0
187.147095 3404.0
187.193588 116.0
187.363312 124.0
187.415085 152.0
187.438583 128.0
187.477753 112.0
187.511612 228.0
187.600418 96.0
187.744934 188.0
187.78038 36.0
188.11171 236.0
188.147232 1124.0
188.252533 52.0
188.462875 156.0
188.648727 104.0
188.722549 36.0
188.952301 72.0
189.08783 360.0
189.125626 168.0
189.31636 76.0
189.631439 88.0
190.074173 160.0
190.259613 44.0
190.363953 28.0
190.520523 68.0
190.957596 152.0
191.080048 172.0
191.103653 172.0
191.155685 88.0
191.174942 68.0
191.34285 100.0
191.50943 188.0
192.08963 384.0
192.495438 136.0
193.098511 1556.0
193.19751 128.0
193.4272 156.0
193.47702 100.0
193.507477 84.0
193.734589 164.0
193.798309 164.0
194.033905 100.0
194.107498 944.0
194.139282 104.0
194.691544 180.0
194.947144 128.0
195.077774 112.0
195.116577 356.0
195.375351 76.0
195.414291 140.0
195.433777 84.0
195.553436 104.0
195.592407 132.0
195.976746 120.0
196.026901 148.0
196.071487 120.0
196.123413 1524.0
196.25827 60.0
196.36145 56.0
196.386551 100.0
196.612549 64.0
196.718613 128.0
197.025818 220.0
197.093338 216.0
197.130692 3500.0
197.167725 168.0
197.266159 76.0
197.766876 40.0
197.92926 196.0
198.06929 132.0
198.101303 188.0
198.13385 304.0
198.380356 80.0
198.559814 60.0
199.081818 52.0
199.102982 124.0
199.147705 284.0
199.517365 180.0
200.144806 128.0
200.251816 112.0
200.353226 120.0
201.069458 152.0
201.103333 108.0
201.128738 140.0
201.161652 1172.0
201.204956 184.0
201.351791 112.0
201.563675 80.0
201.775665 48.0
202.132065 208.0
202.166 400.0
202.429306 176.0
202.457626 84.0
202.551086 120.0
203.047119 144.0
203.106689 104.0
203.14357 120.0
203.711334 176.0
203.887192 184.0
204.006882 76.0
204.117783 124.0
204.541702 176.0
204.786575 128.0
205.101349 976.0
205.681931 132.0
205.71048 92.0
206.108582 544.0
206.227509 172.0
206.879715 176.0
207.115021 1180.0
207.349487 108.0
207.676346 184.0
208.101379 176.0
208.126923 148.0
208.198715 80.0
208.859787 84.0
208.948975 164.0
209.052567 168.0
209.09465 172.0
209.13327 5184.0
209.171326 152.0
209.282852 152.0
209.400925 44.0
209.435486 44.0
209.509003 108.0
209.712097 48.0
210.134277 1136.0
210.464172 192.0
210.641251 176.0
210.985229 152.0
211.034302 188.0
211.111481 616.0
211.147003 13964.0
211.233856 56.0
211.26857 48.0
211.358261 44.0
211.395889 44.0
211.421936 32.0
211.465347 32.0
211.553818 64.0
211.587479 84.0
211.702759 148.0
211.737503 72.0
211.977966 192.0
212.151215 2140.0
212.22435 132.0
212.282349 28.0
212.650803 60.0
212.705963 52.0
212.749512 76.0
212.787247 64.0
213.098022 116.0
213.153015 532.0
213.249146 76.0
213.42067 108.0
213.490463 144.0
213.65625 104.0
213.816299 120.0
214.247269 44.0
214.538696 156.0
214.961624 84.0
215.106125 448.0
215.569046 44.0
215.896469 72.0
217.121857 236.0
218.110153 144.0
219.111755 304.0
219.747589 76.0
220.121994 984.0
220.166763 52.0
220.778534 76.0
220.902054 156.0
221.05957 72.0
221.134521 280.0
221.545166 128.0
221.571838 232.0
222.200378 120.0
222.295334 76.0
223.112167 224.0
223.147934 592.0
223.823288 32.0
224.115204 80.0
224.14798 132.0
224.818954 164.0
225.128311 864.0
225.162659 2912.0
225.225021 64.0
225.317627 80.0
225.383789 56.0
225.571655 64.0
225.616501 64.0
225.894623 212.0
226.127243 216.0
226.165985 520.0
226.963852 72.0
227.134415 156.0
227.171509 184.0
227.566971 160.0
227.684082 128.0
229.010468 120.0
229.109497 140.0
229.157593 5156.0
229.242462 48.0
229.321686 84.0
229.519791 140.0
229.559006 52.0
229.739975 108.0
229.809372 76.0
230.062897 48.0
230.129318 132.0
230.159866 744.0
230.301453 124.0
230.966446 76.0
231.014847 92.0
231.164322 260.0
231.205475 176.0
231.635437 68.0
232.002121 76.0
232.23259 196.0
233.137726 412.0
233.687759 136.0
235.147278 3340.0
235.239044 40.0
235.278732 60.0
235.469055 172.0
235.553589 40.0
235.654404 56.0
236.150024 784.0
236.639282 104.0
236.823029 52.0
237.152222 128.0
237.709061 52.0
237.853317 72.0
238.132385 156.0
239.184341 172.0
239.526154 56.0
241.808014 60.0
242.452209 52.0
243.029007 92.0
243.141068 184.0
243.174713 176.0
243.277298 124.0
243.491562 60.0
244.144226 116.0
245.904526 108.0
248.294907 56.0
250.425873 56.0
253.157135 1500.0
254.137344 140.0
254.160889 360.0
254.280151 68.0
255.163254 152.0
255.61174 48.0
256.159454 156.0
256.576874 108.0
258.57016 128.0
260.339874 68.0
260.381622 48.0
261.146576 152.0
262.141418 128.0
263.131683 168.0
264.255859 84.0
265.046539 68.0
267.501923 84.0
271.170258 1872.0
271.209534 136.0
271.291473 64.0
271.537415 88.0
272.165649 380.0
272.456543 140.0
274.269806 52.0
274.312653 60.0
276.175049 176.0
276.363617 52.0
277.062225 80.0
280.868652 156.0
281.987213 44.0
283.781555 36.0
285.652222 56.0
289.18103 272.0
290.17099 164.0
290.70694 128.0
291.185638 132.0
297.296967 92.0
297.973419 40.0
302.131378 60.0
305.447876 96.0
313.909973 108.0
315.64032 92.0
316.22406 132.0
318.859344 180.0
324.202087 112.0
328.131042 128.0
329.372467 60.0
330.145111 156.0
334.128815 72.0
337.023834 76.0
349.148926 116.0
352.87796 108.0
354.090424 28.0
354.161591 72.0
363.443634 100.0
370.229218 72.0
371.087585 124.0
379.497101 72.0
380.172058 56.0
381.442139 76.0
383.127228 68.0
387.902802 68.0
389.189667 116.0
390.293823 140.0
391.226288 188.0
393.615662 36.0
393.781555 128.0
394.305359 152.0
394.350494 148.0
394.508636 92.0
394.971313 100.0
395.15329 52.0
401.066589 100.0
403.118347 52.0
409.827454 140.0
409.867737 96.0
413.045135 100.0
415.918152 92.0
419.432678 72.0
419.701752 132.0
426.608887 40.0
426.946075 108.0
430.556366 160.0
431.209137 60.0
437.27298 76.0
439.727875 104.0
440.400116 40.0
442.62088 52.0
447.062317 84.0
456.483612 48.0
459.443909 112.0
460.002991 40.0
475.725128 60.0
482.753326 84.0
486.675262 56.0
504.352722 32.0
530.345825 76.0
550.53302 36.0
560.167236 84.0
586.31842 52.0
592.595703 56.0
595.224731 136.0
601.212585 76.0
603.02948 44.0
608.687988 144.0
614.022705 56.0
623.285278 48.0
627.246948 112.0
632.682251 96.0
646.195984 100.0
681.132202 60.0
682.28064 116.0
686.40448 124.0
691.372559 100.0
691.550537 208.0
700.687988 112.0
703.19812 80.0
705.347961 104.0
713.570557 92.0
716.844177 188.0
721.605591 196.0
734.608032 76.0
745.610901 164.0
763.95105 256.0
764.275635 108.0
778.34375 164.0
780.983643 100.0
781.88501 108.0
790.860046 192.0
801.350525 56.0
806.486084 52.0
819.687195 76.0
827.192139 172.0
827.529968 144.0
834.610535 140.0
835.024597 228.0
835.807007 148.0
838.121826 200.0
850.864136 64.0
874.240173 80.0
881.009338 164.0
887.460632 180.0
893.923584 80.0
914.584351 80.0
917.246826 120.0
920.462646 192.0
923.254578 156.0
927.304993 108.0
928.317505 36.0
929.688538 76.0
934.373535 136.0
936.284912 216.0
945.350891 164.0
953.894958 180.0
954.282288 84.0
958.54187 144.0
961.082397 144.0
963.138306 140.0
966.383972 184.0
972.25238 36.0
975.799377 148.0
977.547302 40.0
979.65802 164.0
980.87323 120.0
985.854004 60.0
986.104004 220.0
986.522827 156.0
992.70282 164.0
1005.511963 204.0
1011.694031 168.0
1013.061951 220.0
1016.930115 108.0
1018.733521 48.0
1020.824646 184.0
1024.930542 204.0
1026.568848 224.0
1027.900269 132.0
1028.585083 108.0
1032.188477 64.0
1033.608643 88.0
1043.268066 136.0
1045.06897 236.0
1046.381958 224.0
1049.958374 140.0
1057.226562 124.0
1063.156494 240.0
1063.55249 160.0
1063.740723 152.0
1063.818604 48.0
1068.335205 168.0
1069.14209 148.0
1070.906494 156.0
1071.23877 216.0
1071.942383 168.0
1072.287842 196.0
1072.933228 112.0
1075.157593 152.0
1075.653564 224.0
1076.032227 176.0
1080.201782 40.0
1081.883667 220.0
1084.22876 48.0
1087.947998 156.0
1088.985474 160.0
1089.327026 60.0
1090.404663 268.0
1091.05542 172.0
1091.772217 144.0
1096.024902 180.0
1097.554199 172.0
1098.939331 128.0
1099.229614 196.0
1102.12854 56.0
1105.329102 164.0
1107.81189 176.0
1107.858276 180.0
1110.151733 172.0
1111.916504 100.0
1114.087891 188.0
1115.51001 152.0
1119.522217 40.0
1123.581665 136.0
1127.628418 180.0
1128.463989 156.0
1129.366821 160.0
1130.818726 48.0
1131.71582 152.0
1132.800903 168.0
1134.073975 256.0
1134.342163 172.0
1137.689697 156.0
1139.099976 188.0
1139.610596 144.0
1140.141479 176.0
1141.620483 160.0
1149.293335 148.0
1150.346191 216.0
1153.122437 160.0
1157.039185 224.0
1160.474243 204.0
1160.985229 124.0
1163.561401 140.0
1164.967285 228.0
1165.089478 36.0
1170.680786 116.0
1173.75415 168.0
1175.69165 368.0
1181.157715 104.0
1183.875 132.0
1186.44458 204.0
1187.150879 148.0
1187.617188 184.0
1192.141724 92.0
1194.672119 40.0
1196.991699 244.0
1198.162598 144.0
1198.328003 124.0
1200.195923 232.0
1200.961426 64.0
1201.085571 52.0
1205.297119 188.0
1206.271606 116.0
1208.643921 144.0
1211.86377 184.0
1213.069702 144.0
1214.296997 148.0
1214.872681 120.0
1216.614624 144.0
1216.697998 220.0
1218.976318 40.0
1219.09436 160.0
1221.57666 156.0
1224.709106 168.0
1226.081787 240.0
1226.813599 84.0
1227.859619 132.0
1228.271118 280.0
1230.630005 172.0
1232.718628 188.0
1232.893311 184.0
1233.368652 172.0
1235.571533 52.0
1236.257324 56.0
1238.420654 156.0
1238.511719 80.0
1239.506592 204.0
1240.158447 144.0
1241.637817 160.0
1243.43396 32.0
1243.876099 212.0
1244.262207 188.0
1244.339478 172.0
1246.615356 180.0
1248.963745 152.0
1253.243286 176.0
1254.047485 108.0
1258.887451 200.0
1260.943359 140.0
1261.424072 128.0
1261.55835 168.0
1261.940186 112.0
1263.630615 92.0
1263.934814 204.0
1266.334839 116.0
1268.382568 152.0
1269.134155 148.0
1269.843262 120.0
1270.176636 220.0
1270.531372 152.0
1271.049316 208.0
1271.233887 112.0
1271.915161 156.0
1273.05127 172.0
1275.936157 160.0
1276.718384 212.0
1278.048584 124.0
1281.053223 140.0
1282.856201 136.0
1282.920288 180.0
1285.816406 116.0
1289.108765 188.0
1290.631348 152.0
1291.446655 136.0
1293.528931 200.0
1294.868042 124.0
1295.340698 192.0
1298.752808 260.0
1299.247803 220.0
1303.074585 168.0
1306.849487 176.0
1307.317139 148.0
1307.590698 92.0
1310.406372 168.0
1312.323608 148.0
1313.340454 268.0
1314.862915 156.0
1314.913452 76.0
1315.17334 180.0
1315.411499 176.0
1317.065186 72.0
1319.377686 172.0
1319.58728 48.0
1319.83313 160.0
1322.336304 152.0
1322.437622 184.0
1322.502808 92.0
1322.625854 92.0
1322.741577 160.0
1326.515869 164.0
1327.124878 208.0
1328.082153 116.0
1331.399536 120.0
1331.515259 128.0
1333.745972 148.0
1334.007568 168.0
1338.038086 156.0
1338.533203 236.0
1338.751709 188.0
1339.545654 204.0
1341.469482 224.0
1342.118408 228.0
1342.986206 156.0
1343.781494 168.0
1345.759521 132.0
1345.942017 140.0
1349.266602 136.0
1349.997803 68.0
1350.553589 48.0
1351.490112 192.0
1353.407837 208.0
1353.473755 228.0
1353.774048 64.0
1354.499146 192.0
1354.938721 96.0
1355.209839 136.0
1356.470337 196.0
1356.873535 188.0
1357.907593 108.0
1358.186279 196.0
1358.28894 140.0
1359.191406 168.0
1359.96936 192.0
1362.767334 188.0
1365.222656 36.0
1365.355957 156.0
1366.973511 132.0
1367.66748 220.0
1368.931641 144.0
1370.780762 112.0
1371.068115 204.0
1371.989624 196.0
1372.498291 144.0
1373.449707 92.0
1373.774292 48.0
1373.921875 72.0
1374.379272 216.0
1375.264893 148.0
1376.143433 128.0
1376.259644 240.0
1380.177856 152.0
1381.412964 164.0
1385.055054 176.0
1385.744141 48.0
1386.522217 180.0
1388.709473 192.0
1391.841309 248.0
1392.687988 104.0
1395.571411 120.0
1395.816895 200.0
1396.605225 36.0
1397.417114 144.0
1399.820435 180.0
1400.446045 124.0
1400.97522 188.0
1402.472778 180.0
1402.569702 144.0
1403.397217 136.0
1403.77002 88.0
1405.090332 180.0
1406.142456 148.0
1408.031494 196.0
1408.390015 208.0
1409.899292 196.0
1410.54126 156.0
1412.920166 120.0
1415.689819 220.0
1415.906982 296.0
1416.079224 184.0
1417.247925 164.0
1418.169678 188.0
1418.252197 216.0
1418.634521 152.0
1421.59729 152.0
1423.046021 140.0
1423.240479 180.0
1423.458618 136.0
1423.819458 144.0
1424.893677 60.0
1425.254395 156.0
1426.374146 188.0
1426.757568 48.0
1427.682495 156.0
1427.968262 104.0
1428.148804 60.0
1428.592651 204.0
1429.119263 52.0
1429.28479 120.0
1429.38269 52.0
1430.263306 184.0
1430.654663 124.0
1433.079956 176.0
1433.562134 68.0
1433.803345 76.0
1435.054688 168.0
1435.401611 132.0
1435.575073 208.0
1436.397095 160.0
1437.332764 200.0
1439.740845 236.0
1440.692627 124.0
1441.569092 160.0
1443.220581 136.0
1444.176636 176.0
1444.646484 216.0
1445.198853 124.0
1446.894287 132.0
1447.015381 160.0
1449.809937 220.0
1451.39502 200.0
1452.024414 168.0
1452.297485 84.0
1453.374756 52.0
1453.776978 40.0
1454.224731 204.0
1454.611938 176.0
1455.750854 208.0
1455.986206 92.0
1456.707886 44.0
1457.087646 72.0
1457.786743 92.0
1460.463013 264.0
1462.213013 192.0
1462.441406 200.0
1463.758545 192.0
1464.72583 140.0
1466.242065 176.0
1468.582764 108.0
1469.025269 188.0
1470.383545 228.0
1470.894897 208.0
1471.062866 172.0
1471.253662 140.0
1475.027588 92.0
1475.318115 132.0
1475.715698 252.0
1476.319702 120.0
1477.22229 156.0
1479.143066 152.0
1480.858276 92.0
1481.219971 72.0
1481.55542 212.0
1484.307007 136.0
1484.675171 120.0
1484.728882 100.0
1486.171021 116.0
1486.470337 124.0
1486.900146 176.0
1487.675415 192.0
1488.074585 212.0
1490.563354 216.0
1490.809204 152.0
1492.17749 208.0
1492.931152 188.0
1493.292603 220.0
1493.792603 176.0
1495.200684 156.0
1495.577881 196.0
1495.777954 148.0
1496.008911 156.0
1497.356445 204.0
1498.604492 100.0
1498.719971 192.0
1500.337036 120.0
1501.896362 132.0
1502.24353 184.0
1502.320679 84.0
1502.79895 152.0
1503.377808 96.0
1503.732788 152.0
