>compound MLS000113817-01!
>formula C19H28O2
>ionization [M+H]+
>parentmass 289.217
#inchi InChI=1S/C19H28O2/c1-18-9-7-13(20)11-12(18)3-4-14-15-5-6-17(21)19(15,2)10-8-16(14)18/h11,14-17,21H,3-10H2,1-2H3
#inchikey MUMGGOZAMZWBJJ
#Ion_Source LC-ESI
#Instrument qTof
#Compound_Source NIH Natural Product Library
#PI Dorrestein
#Data_Collector VVP/LMS
#Scan -1
#Precursor_MZ 289.217
#ExactMass 288.209
#Charge 1
#CAS_Number N/A
#Pubmed_ID N/A
#Smiles CC12CCC3C(CCC4=CC(=O)CCC34C)C2CCC1O
#INCHI_AUX N/A
#Library_Class 1
#SpectrumID CCMSLIB00000080480
#IonMode Positive
#UpdateWorkflowName UPDATE-SINGLE-ANNOTATED-GOLD
#LibraryQualityString Gold
#TaskID b1d8e8f6646f4e71acdff9ca3d919d08
##Scan# 2067
#SpectrumFile p2-E09_GE9_01_18033.mzXML
#LibraryName NIH_Natural_Products_Library.mgf
#MQScore -1
#Organism NIH_Natural_Products_Library
#TIC_Query 0
#RT_Query -1
#MZErrorPPM -1
#SharedPeaks 0
#MassDiff 0
#LibMZ -1
#SpecMZ 289.217
#SpecCharge 0
#internalFilename spec-00000.mgf

>collision 10
95.032951 40.0
95.050705 296.0
95.085373 860.0
95.423347 84.0
95.722992 56.0
95.880791 164.0
95.92952 132.0
95.984108 248.0
96.085533 104.0
96.378403 172.0
96.489807 240.0
96.544556 168.0
96.66584 172.0
96.681496 88.0
96.697159 64.0
96.82637 132.0
96.842041 176.0
96.875153 172.0
96.993507 276.0
97.065186 17064.0
97.139732 204.0
97.194916 136.0
97.285851 156.0
97.513054 144.0
97.560226 60.0
97.611351 68.0
97.835342 128.0
97.867149 76.0
98.019554 96.0
98.067261 1296.0
98.188354 176.0
98.468605 144.0
98.537743 124.0
98.683998 104.0
98.761124 160.0
98.808601 96.0
98.826408 76.0
98.854111 104.0
98.972878 144.0
99.074127 200.0
99.291931 188.0
99.897743 176.0
99.941513 216.0
100.060928 120.0
100.22226 180.0
100.24617 240.0
101.214996 176.0
101.571732 180.0
101.999435 124.0
102.047546 196.0
102.212616 264.0
102.391785 228.0
102.450195 152.0
102.528778 196.0
102.643684 164.0
103.05722 256.0
103.138313 220.0
103.184807 80.0
103.557144 60.0
103.591583 124.0
103.855095 144.0
104.068176 144.0
104.283508 104.0
104.452278 124.0
104.507965 96.0
104.53569 132.0
104.639503 48.0
104.712807 48.0
104.735214 140.0
104.861542 156.0
104.89415 60.0
104.957527 140.0
104.998138 148.0
105.036888 232.0
105.069839 2868.0
105.100136 84.0
105.27977 144.0
105.404381 96.0
105.739761 36.0
105.962959 184.0
106.074699 328.0
106.277588 188.0
106.646309 128.0
106.670975 48.0
106.718262 168.0
106.744995 76.0
107.050003 636.0
107.084793 892.0
107.148415 148.0
107.707466 140.0
107.746712 164.0
108.042351 212.0
108.058601 164.0
108.089935 192.0
108.572617 124.0
108.798782 176.0
109.020462 400.0
109.041519 176.0
109.065445 27584.0
109.111282 168.0
109.152534 92.0
109.189583 124.0
109.23053 84.0
109.304535 252.0
109.354782 96.0
109.405693 32.0
109.50457 124.0
109.547997 120.0
109.597443 72.0
109.672462 48.0
109.703728 40.0
109.718323 152.0
109.810074 64.0
109.89769 60.0
109.970726 48.0
110.067764 1672.0
110.105042 128.0
110.132698 188.0
110.194168 60.0
110.210884 76.0
110.325836 28.0
110.40947 44.0
110.461761 120.0
110.49733 32.0
110.549637 88.0
110.633362 132.0
110.759003 84.0
110.798805 120.0
110.857475 236.0
110.898804 72.0
110.926636 108.0
110.945503 148.0
110.974854 88.0
111.07579 412.0
111.174133 80.0
111.442909 132.0
111.644707 56.0
111.880371 52.0
111.913414 92.0
112.295486 32.0
112.521271 152.0
112.766312 60.0
112.861443 108.0
113.056053 76.0
113.54332 220.0
114.008247 128.0
114.271919 76.0
114.868431 188.0
114.88549 88.0
115.05201 152.0
115.404472 176.0
115.77681 104.0
115.843208 208.0
116.060173 152.0
116.124001 72.0
116.209808 112.0
116.257019 52.0
116.488899 104.0
117.009331 40.0
117.069008 636.0
117.207489 84.0
117.237656 120.0
117.291534 92.0
117.334656 68.0
117.349747 72.0
118.073166 156.0
118.163231 80.0
118.983223 168.0
119.085831 2908.0
119.269966 216.0
119.615829 56.0
119.657188 96.0
119.766075 84.0
119.785675 52.0
120.090118 324.0
120.162827 56.0
120.442253 212.0
120.728569 168.0
120.905769 100.0
121.064941 1112.0
121.099693 772.0
122.026672 184.0
122.050858 172.0
122.123436 56.0
122.308258 40.0
122.564308 136.0
122.98053 112.0
123.080658 5496.0
123.115028 196.0
123.272057 36.0
123.360458 200.0
123.603745 192.0
123.714409 124.0
124.085541 208.0
124.821548 72.0
124.88382 76.0
125.090714 228.0
125.536362 220.0
125.563118 40.0
125.915749 88.0
126.526192 68.0
126.676239 192.0
126.868958 152.0
127.082024 136.0
127.36264 112.0
128.06073 728.0
128.147751 184.0
128.334839 76.0
128.513016 160.0
128.79747 64.0
128.908173 88.0
129.06929 856.0
129.104843 128.0
129.766037 36.0
130.076141 624.0
130.129059 152.0
130.665436 44.0
130.995529 124.0
131.084808 2256.0
131.227982 76.0
131.732346 48.0
132.095016 312.0
133.067444 312.0
133.101959 1200.0
133.175446 56.0
133.200699 48.0
133.57309 108.0
133.69043 160.0
134.063507 136.0
134.106415 180.0
134.390945 172.0
134.875916 132.0
134.998444 124.0
135.070145 168.0
135.117386 748.0
135.259888 84.0
135.280716 84.0
135.818329 36.0
136.117706 108.0
137.100464 372.0
137.402512 64.0
139.959625 108.0
140.482849 152.0
140.744827 48.0
141.067307 536.0
141.78804 84.0
142.075958 636.0
142.735245 152.0
143.085678 1156.0
143.225494 220.0
143.305542 160.0
144.094925 452.0
144.368729 48.0
144.701324 148.0
145.060669 328.0
145.102386 1956.0
145.144592 48.0
145.173355 68.0
145.192551 256.0
145.646164 196.0
146.06311 228.0
146.108261 600.0
146.765228 136.0
147.057129 160.0
147.083237 364.0
147.117691 1816.0
148.081711 172.0
148.118835 292.0
148.150101 36.0
148.938477 220.0
149.023224 140.0
149.09584 492.0
149.132935 348.0
149.218826 120.0
149.456299 84.0
149.707031 80.0
150.096909 148.0
151.108124 140.0
151.179077 64.0
151.269638 172.0
152.434631 92.0
153.133316 148.0
153.340271 60.0
153.818771 180.0
154.075394 192.0
154.562683 100.0
155.050522 40.0
155.086624 876.0
155.822235 108.0
155.899277 140.0
155.981293 224.0
156.092407 184.0
157.100372 1008.0
157.286545 220.0
157.883682 48.0
157.956223 100.0
158.104263 436.0
158.429337 148.0
158.913208 72.0
158.990997 84.0
159.115692 1800.0
159.216949 48.0
160.087067 52.0
160.120621 568.0
160.957047 244.0
161.097351 304.0
161.132492 1520.0
161.361313 36.0
162.095337 160.0
162.136505 212.0
162.925018 128.0
163.11203 1312.0
163.144135 164.0
163.242737 96.0
163.438599 92.0
163.705872 112.0
164.128876 84.0
165.124817 164.0
165.718719 92.0
167.082596 88.0
168.090744 324.0
169.100876 532.0
169.485764 64.0
170.019958 68.0
170.113739 132.0
171.116776 1108.0
171.815353 44.0
172.116425 144.0
173.130981 828.0
173.342316 76.0
173.617569 104.0
174.097061 152.0
174.132736 148.0
174.384186 32.0
175.111252 300.0
175.147247 900.0
175.278946 56.0
176.001694 144.0
176.147797 276.0
177.126251 800.0
177.16098 240.0
177.316452 144.0
178.119553 152.0
179.131226 164.0
179.547028 172.0
180.797302 148.0
181.091812 200.0
181.111938 124.0
182.109116 356.0
182.299072 168.0
182.592117 180.0
182.993057 112.0
183.115936 928.0
184.123688 492.0
184.560684 36.0
185.13092 768.0
186.105118 124.0
186.12587 124.0
186.141479 132.0
187.108368 336.0
187.148788 976.0
187.448837 48.0
187.516968 76.0
188.151428 360.0
188.513077 112.0
189.084656 176.0
189.126343 284.0
189.160721 248.0
190.041016 96.0
190.130356 152.0
190.716568 68.0
191.175873 72.0
191.506241 152.0
192.341705 88.0
194.004227 76.0
196.125183 168.0
197.130112 696.0
197.482162 52.0
198.136627 236.0
199.15242 668.0
199.48143 172.0
200.146652 184.0
200.522873 92.0
201.12822 144.0
201.165359 508.0
201.298691 72.0
201.499222 80.0
201.685745 60.0
201.99678 224.0
202.361847 64.0
203.067459 148.0
203.145584 152.0
204.148544 276.0
204.183624 88.0
205.160278 124.0
206.708328 172.0
207.14064 108.0
210.13623 100.0
210.881271 112.0
211.148468 276.0
212.147141 248.0
213.141205 116.0
213.165085 920.0
213.414932 48.0
214.055084 44.0
214.136627 228.0
214.175552 340.0
215.135864 308.0
215.142838 212.0
215.656723 44.0
216.183151 40.0
216.886047 160.0
217.152878 192.0
217.601837 120.0
219.176788 152.0
220.500427 76.0
223.147369 184.0
223.346786 104.0
224.147232 176.0
225.150848 132.0
226.168015 176.0
226.98439 188.0
227.086349 140.0
227.173889 600.0
228.176392 144.0
228.197433 204.0
229.166962 152.0
230.007568 148.0
230.171005 164.0
230.201202 156.0
231.183685 160.0
232.177338 168.0
233.154892 148.0
233.790497 40.0
234.146698 148.0
236.078491 184.0
237.082596 144.0
238.175674 148.0
240.083054 104.0
240.752731 48.0
241.482101 68.0
243.163818 160.0
243.212555 108.0
244.438599 252.0
245.188416 136.0
246.193649 176.0
246.468552 80.0
247.159576 104.0
247.2043 204.0
251.187256 164.0
253.193481 808.0
254.201202 204.0
255.988922 100.0
257.181274 196.0
264.218872 184.0
267.359833 144.0
267.613739 144.0
271.207886 1080.0
271.469513 124.0
272.197998 152.0
273.226776 180.0
273.970795 96.0
274.336578 32.0
275.167938 164.0
276.063385 132.0
276.380951 48.0
278.888092 64.0
282.475952 64.0
286.090118 140.0
289.219116 1112.0
289.473236 140.0
290.222351 276.0
290.775024 56.0
291.162079 120.0
291.209625 160.0
305.771088 108.0
310.052826 88.0
311.347382 116.0
320.933777 80.0
321.133484 112.0
324.731567 68.0
330.470123 92.0
354.054291 160.0
355.264984 64.0
356.800964 116.0
372.427521 44.0
415.214996 128.0
420.859131 104.0
430.277802 48.0
430.339752 80.0
573.125916 84.0
573.273682 52.0
578.119141 40.0
637.69104 92.0
700.713806 20.0
711.81073 168.0
724.001221 180.0
734.875549 68.0
758.521851 32.0
816.20813 172.0
823.045776 168.0
829.195312 236.0
846.391052 192.0
849.381531 100.0
855.30249 132.0
859.341003 120.0
860.642578 56.0
866.005127 340.0
867.212036 128.0
872.41272 120.0
877.027649 172.0
891.195007 132.0
893.777954 236.0
896.312073 188.0
898.339172 240.0
898.905945 160.0
899.383362 196.0
904.757324 156.0
905.266296 140.0
906.362488 188.0
908.5448 212.0
911.576904 212.0
924.076355 144.0
926.813049 116.0
928.437622 168.0
930.29425 212.0
930.549255 208.0
937.70282 100.0
941.546387 160.0
941.600586 144.0
948.429382 216.0
950.115723 84.0
951.736023 168.0
952.595825 100.0
953.13031 232.0
955.411316 52.0
960.647583 180.0
964.877808 52.0
970.611084 168.0
976.18103 124.0
976.734558 172.0
977.157532 52.0
987.431274 76.0
998.098206 116.0
998.997559 176.0
999.991699 92.0
1007.602722 112.0
1010.333862 148.0
1012.53656 192.0
1018.752563 164.0
1020.939026 64.0
1021.085266 76.0
1022.917725 48.0
1023.586182 68.0
1032.168579 208.0
1033.191895 112.0
1033.825317 164.0
1036.175171 240.0
1038.226318 212.0
1038.316162 140.0
1040.138306 164.0
1040.555542 100.0
1041.33252 192.0
1044.842163 124.0
1047.494507 244.0
1051.924438 212.0
1056.16333 124.0
1059.652466 124.0
1062.446655 144.0
1065.017212 176.0
1066.186646 112.0
1066.934204 152.0
1072.591064 148.0
1075.154297 244.0
1075.395752 76.0
1078.785767 176.0
1079.419922 188.0
1081.860352 156.0
1082.030518 172.0
1083.309448 164.0
1083.477905 108.0
1085.975342 228.0
1086.559204 176.0
1086.939697 148.0
1087.70105 172.0
1091.485107 220.0
1092.083618 176.0
1092.649292 160.0
1093.623169 188.0
1095.16394 136.0
1099.271118 164.0
1102.526733 128.0
1103.531494 168.0
1106.574829 148.0
1107.316528 188.0
1107.495361 136.0
1111.57251 208.0
1113.544189 36.0
1116.348633 128.0
1120.415405 164.0
1121.44165 216.0
1124.549683 96.0
1126.606201 168.0
1128.430664 152.0
1129.022827 176.0
1129.754883 156.0
1131.515015 144.0
1134.442505 172.0
1136.535034 152.0
1139.59668 204.0
1145.355225 132.0
1145.732422 220.0
1147.316162 192.0
1148.001465 196.0
1148.745728 132.0
1150.392212 164.0
1150.891846 208.0
1152.303467 160.0
1159.076294 128.0
1159.489624 152.0
1160.364014 244.0
1160.675903 164.0
1161.177734 224.0
1167.928833 156.0
1168.221313 152.0
1169.357666 140.0
1170.617065 168.0
1170.848633 148.0
1171.441162 216.0
1172.436035 176.0
1172.885864 100.0
1174.931519 180.0
1175.259033 204.0
1179.144531 124.0
1181.216309 184.0
1184.015625 132.0
1184.358032 212.0
1184.954102 168.0
1185.036255 60.0
1186.310913 260.0
1187.744141 204.0
1188.231201 260.0
1188.539917 84.0
1189.974365 220.0
1190.578613 172.0
1198.165405 172.0
1201.108887 168.0
1203.765991 228.0
1204.187256 288.0
1205.050781 164.0
1207.83667 136.0
1211.088867 144.0
1211.851807 196.0
1212.551758 216.0
1214.55542 156.0
1217.338501 124.0
1217.401001 116.0
1218.401123 164.0
1218.588745 192.0
1218.734619 220.0
1219.81189 156.0
1219.97168 184.0
1222.545166 176.0
1223.672729 196.0
1227.456177 124.0
1228.293091 196.0
1228.418579 160.0
1230.728638 164.0
1231.182495 120.0
1233.753784 252.0
1234.21521 144.0
1235.243286 48.0
1235.460205 168.0
1239.612061 196.0
1240.221802 172.0
1240.747437 184.0
1241.103394 52.0
1241.890503 32.0
1246.179565 148.0
1246.509888 132.0
1248.120605 136.0
1249.111084 116.0
1249.807617 164.0
1250.046875 156.0
1251.025146 216.0
1253.609985 60.0
1254.61084 40.0
1254.667236 160.0
1255.259521 212.0
1256.183472 148.0
1256.423218 216.0
1257.001831 168.0
1259.098389 208.0
1259.253784 188.0
1259.444458 116.0
1260.878784 212.0
1260.928223 72.0
1261.04126 140.0
1262.101685 168.0
1264.011475 160.0
1264.528076 212.0
1264.959839 172.0
1266.793823 124.0
1266.999268 176.0
1267.998413 132.0
1269.905518 68.0
1270.146729 60.0
1271.934814 156.0
1272.4104 148.0
1273.674438 244.0
1273.852051 136.0
1274.057983 156.0
1274.335083 268.0
1275.109619 168.0
1276.470459 232.0
1276.652344 204.0
1277.057739 208.0
1278.018066 152.0
1278.993042 200.0
1279.064209 152.0
1279.462891 132.0
1280.324463 128.0
1280.473999 120.0
1281.250366 148.0
1284.015991 204.0
1284.629395 172.0
1286.40625 212.0
1286.820312 160.0
1287.248779 204.0
1290.249634 188.0
1290.800171 160.0
1291.95874 276.0
1294.077148 184.0
1294.650024 148.0
1295.2229 164.0
1298.204468 56.0
1299.17981 152.0
1300.162842 180.0
1302.309448 156.0
1302.453125 136.0
1304.026611 124.0
1304.824585 168.0
1305.191284 180.0
1308.248901 180.0
1309.278564 44.0
1309.501831 200.0
1309.775513 156.0
1311.728149 128.0
1312.42749 188.0
1312.953857 152.0
1313.076538 96.0
1313.401123 192.0
1315.876221 204.0
1316.1073 244.0
1316.497192 152.0
1317.356689 140.0
1318.454956 104.0
1320.016357 128.0
1323.851685 176.0
1326.597656 204.0
1327.772217 192.0
1330.333496 176.0
1333.48584 268.0
1335.885376 132.0
1338.694702 180.0
1339.714478 156.0
1340.625122 148.0
1341.310303 124.0
1343.169678 204.0
1344.54126 156.0
1346.563599 168.0
1350.254272 168.0
1350.305542 136.0
1353.22522 92.0
1354.389526 144.0
1355.693604 164.0
1356.375244 76.0
1357.504272 52.0
1360.013306 76.0
1362.216187 188.0
1362.267578 104.0
1362.877319 156.0
1363.215332 120.0
1363.604858 164.0
1365.920898 196.0
1368.393555 156.0
1368.842651 132.0
1369.093018 248.0
1369.306641 192.0
1369.571777 64.0
1369.748535 220.0
1371.266357 188.0
1371.421143 132.0
1371.760254 188.0
1372.357422 192.0
1373.773315 196.0
1379.134155 136.0
1379.607178 168.0
1380.531494 168.0
1383.987061 132.0
1384.668335 112.0
1384.949707 56.0
1385.001587 68.0
1385.853516 188.0
1386.794678 244.0
1386.920654 124.0
1387.736084 260.0
1388.255127 152.0
1388.922607 128.0
1390.948242 144.0
1392.13623 224.0
1392.33667 148.0
1394.42041 240.0
1395.063599 188.0
1396.193726 184.0
1396.944946 176.0
1399.036011 188.0
1399.222168 200.0
1399.85498 172.0
1400.051514 216.0
1400.382568 152.0
1400.659302 132.0
1403.513672 172.0
1405.154541 156.0
1405.355957 216.0
1409.343018 136.0
1409.514893 144.0
1417.034424 144.0
1421.383057 208.0
1422.914185 212.0
1423.011841 180.0
1424.694092 152.0
1426.294678 156.0
1428.339844 136.0
1429.144775 140.0
1431.839722 176.0
1432.140991 140.0
1433.5271 168.0
1434.574829 160.0
1435.087402 196.0
1440.808228 156.0
1442.71582 188.0
1443.264526 88.0
1444.459351 140.0
1444.580444 176.0
1445.004028 148.0
1447.35791 144.0
1447.804688 160.0
1448.18335 148.0
1449.789429 232.0
1450.873413 164.0
1451.36145 116.0
1451.532959 204.0
1451.616455 140.0
1452.154785 136.0
1452.285889 192.0
1452.966431 128.0
1457.043213 180.0
1458.129883 152.0
1458.730347 212.0
1458.973511 156.0
1464.901611 160.0
1466.014038 208.0
1468.224731 112.0
1468.285767 44.0
1470.353271 44.0
1472.399292 180.0
1472.979736 200.0
1473.743652 84.0
1474.301514 148.0
1474.431396 48.0
1475.111572 168.0
1476.57959 180.0
1478.3927 168.0
1479.005005 200.0
1479.188721 244.0
1479.984863 208.0
1480.107422 124.0
1480.942139 240.0
1482.543335 172.0
1482.604614 140.0
1484.015015 128.0
1484.444458 124.0
1485.817383 156.0
1486.346802 144.0
1486.653687 208.0
1488.71106 200.0
1489.144531 184.0
1489.233276 116.0
1490.739014 192.0
1491.031006 140.0
1493.160645 164.0
1493.829712 152.0
1495.353271 136.0
1496.415527 28.0
1496.569458 176.0
1497.562866 148.0
1500.521973 156.0
1502.241699 168.0
1504.217041 128.0
