>compound MLS001077340-01!53-16-7
>formula C18H22O2
>ionization [M+H]+
>parentmass 271.16925639609053
#inchi InChI=1S/C18H22O2/c1-18-9-8-14-13-5-3-12(19)10-11(13)2-4-15(14)16(18)6-7-17(18)20/h3,5,10,14-16,19H,2,4,6-9H2,1H3/t14-,15-,16+,18+/m1/s1
#inchikey DNXHEGUUPJUMQT
#Ion_Source LC-ESI
#Instrument qTof
#Compound_Source NIH Pharmacologically Active Library
#PI Dorrestein
#Data_Collector VP/LMS
#Scan -1
#Precursor_MZ 271.172
#ExactMass 270.162
#Charge 1
#CAS_Number N/A
#Pubmed_ID N/A
#Smiles C[C@@]12CC[C@H]3[C@@H](CCc4cc(O)ccc34)[C@@H]2CCC1=O
#INCHI_AUX N/A
#Library_Class 1
#SpectrumID CCMSLIB00000084817
#IonMode Positive
#UpdateWorkflowName UPDATE-SINGLE-ANNOTATED-GOLD
#LibraryQualityString Gold
#TaskID d252d724072548979f1f6f1ced849daf
##Scan# 2145
#SpectrumFile p3-B02_GB2_01_18235.mzXML
#LibraryName Pharm_Active_Library.mgf
#MQScore -1
#Organism Pharm_Active_Library
#TIC_Query 0
#RT_Query -1
#MZErrorPPM -1
#SharedPeaks 0
#MassDiff 0
#LibMZ -1
#SpecMZ 271.172
#SpecCharge 0
#internalFilename spec-00000.mgf

>collision 10
44.899689 160.0
45.023808 188.0
45.073235 228.0
45.764027 88.0
45.897423 136.0
46.008057 84.0
46.676029 156.0
46.686909 96.0
46.744045 64.0
47.669834 64.0
50.303841 204.0
51.359581 40.0
51.699623 220.0
51.947498 196.0
52.210346 144.0
52.803093 124.0
52.969547 156.0
53.439922 176.0
53.457382 168.0
54.183071 76.0
55.248962 184.0
55.702583 200.0
56.216248 184.0
56.639359 176.0
57.509956 112.0
58.473919 76.0
58.928341 176.0
58.975712 148.0
59.668606 184.0
60.625618 152.0
61.145878 68.0
61.270451 152.0
63.18111 176.0
63.575649 144.0
63.767815 156.0
63.78212 184.0
63.823456 32.0
64.53299 100.0
64.854759 120.0
65.309158 180.0
65.602219 124.0
66.911224 192.0
67.459366 100.0
67.624573 244.0
68.160835 220.0
68.615112 204.0
68.856026 204.0
70.021957 196.0
70.038612 152.0
70.848785 204.0
70.989578 184.0
71.009705 188.0
73.314087 224.0
74.316132 156.0
74.878242 168.0
75.328423 240.0
75.420006 176.0
76.885887 148.0
77.380569 44.0
77.91021 192.0
79.376099 168.0
80.164406 196.0
81.036377 168.0
81.538818 200.0
81.616119 168.0
81.695251 212.0
82.16906 148.0
82.270119 68.0
82.694901 148.0
82.747398 168.0
82.803535 52.0
85.663994 108.0
86.480141 140.0
87.225784 188.0
88.023178 188.0
88.146461 228.0
88.861717 176.0
88.972443 132.0
89.040039 200.0
90.780029 56.0
91.00013 204.0
91.053017 188.0
91.829811 156.0
93.069862 132.0
93.59864 148.0
93.835625 68.0
94.229347 184.0
94.397507 244.0
95.054176 188.0
95.467941 156.0
95.894295 164.0
97.298782 152.0
97.330193 52.0
97.455902 168.0
98.535591 172.0
100.734772 160.0
100.938629 240.0
101.092659 184.0
101.166718 204.0
102.049446 164.0
102.683762 252.0
103.057144 644.0
103.623718 36.0
104.352341 164.0
104.368607 204.0
105.071487 948.0
105.107483 72.0
105.189629 52.0
105.257004 56.0
105.330521 48.0
105.420418 72.0
106.040512 72.0
106.073303 376.0
106.303009 56.0
106.397423 204.0
107.016266 120.0
107.048271 412.0
107.088341 228.0
107.601791 60.0
107.68026 160.0
108.056473 112.0
109.207764 160.0
111.180008 116.0
111.345856 236.0
111.766281 140.0
111.981003 252.0
112.318237 80.0
114.086411 96.0
114.667503 120.0
115.053947 372.0
115.515167 228.0
115.729179 144.0
115.960533 76.0
116.060928 344.0
116.226448 188.0
116.967888 68.0
117.070282 348.0
118.072571 224.0
118.319244 140.0
118.624695 168.0
118.973953 112.0
119.084694 160.0
120.74762 52.0
121.064888 148.0
122.252579 164.0
123.004135 140.0
124.021614 220.0
125.890434 204.0
126.10714 220.0
126.738205 168.0
126.951157 120.0
127.05455 124.0
127.507904 76.0
127.993805 152.0
128.064529 488.0
128.713104 148.0
129.068283 480.0
130.079971 240.0
130.73967 48.0
131.046509 784.0
131.084763 1024.0
131.535095 152.0
132.060577 512.0
132.088959 184.0
132.367279 192.0
132.885284 180.0
132.92659 212.0
133.065292 3164.0
133.098373 196.0
133.20668 56.0
133.227356 52.0
134.070801 512.0
134.108658 72.0
134.246979 40.0
134.408447 48.0
134.433838 152.0
134.535385 224.0
135.07843 136.0
136.988876 156.0
137.424835 136.0
137.469162 44.0
137.508835 224.0
137.922241 156.0
138.664185 192.0
138.96199 188.0
140.328461 100.0
141.070312 1108.0
142.077301 316.0
142.833969 108.0
143.052887 120.0
144.05687 2112.0
144.083099 88.0
144.309082 188.0
144.420151 100.0
145.065125 1384.0
145.105927 252.0
145.899658 84.0
146.066193 352.0
146.532608 104.0
147.010025 108.0
147.082123 516.0
147.11412 180.0
147.64537 144.0
147.972031 52.0
148.07373 120.0
149.063492 204.0
149.085373 88.0
150.984451 172.0
151.101852 192.0
152.062408 96.0
153.071869 192.0
153.834625 164.0
154.069214 168.0
154.301529 48.0
155.061447 140.0
155.090027 128.0
156.046921 148.0
156.071777 172.0
156.591873 44.0
156.999542 124.0
157.065323 3428.0
157.102859 284.0
158.071579 560.0
158.688416 76.0
158.751099 40.0
159.02063 196.0
159.044632 48.0
159.080536 4200.0
159.44397 80.0
159.991241 180.0
160.084274 568.0
160.259277 96.0
161.304062 52.0
162.108719 120.0
163.566696 96.0
163.854446 64.0
164.86232 120.0
165.069107 452.0
166.075836 144.0
166.995331 164.0
167.06897 408.0
167.566788 164.0
167.839996 224.0
168.281204 160.0
169.075806 752.0
169.109161 180.0
169.445038 132.0
170.073364 160.0
171.080475 368.0
172.090027 432.0
172.262436 136.0
172.793121 80.0
173.536926 132.0
174.984573 172.0
175.103058 140.0
177.066833 184.0
178.080002 288.0
179.083786 652.0
180.094666 148.0
181.065582 696.0
181.096344 376.0
182.076477 340.0
183.079193 716.0
183.114685 128.0
183.147003 48.0
183.575516 180.0
183.632141 72.0
184.080917 336.0
184.101974 176.0
185.09758 412.0
185.194336 40.0
186.091919 120.0
186.575516 48.0
186.697876 88.0
190.945053 124.0
192.308838 204.0
192.435806 100.0
193.087936 136.0
194.068207 156.0
194.104248 136.0
195.078964 152.0
196.086884 384.0
196.887009 208.0
197.097198 1224.0
197.15799 116.0
197.280975 68.0
197.429169 60.0
197.560623 68.0
198.105316 492.0
199.006729 56.0
199.113968 148.0
200.097595 196.0
201.058777 136.0
201.127029 156.0
202.786789 156.0
203.317123 68.0
208.923203 192.0
209.097397 500.0
209.994736 148.0
210.078384 60.0
210.10434 124.0
210.124542 56.0
210.933624 116.0
211.111359 664.0
211.398758 56.0
211.667969 120.0
212.111069 372.0
212.115524 124.0
213.128021 572.0
214.212112 100.0
223.111404 164.0
224.111084 152.0
225.129745 172.0
225.669403 60.0
233.181549 108.0
238.134171 164.0
239.157928 108.0
253.154648 684.0
254.164383 156.0
269.477783 56.0
274.163483 80.0
275.077087 28.0
295.116089 56.0
320.396271 60.0
328.862488 120.0
393.172394 112.0
524.876953 48.0
599.831421 116.0
670.735962 68.0
828.41864 188.0
856.702393 216.0
914.742432 168.0
949.28949 116.0
957.524292 116.0
970.395752 164.0
975.088562 200.0
983.484192 220.0
987.239014 140.0
1013.291809 196.0
1013.5896 196.0
1027.118286 120.0
1086.842529 172.0
1092.874268 140.0
1095.303467 156.0
1097.563843 136.0
1132.493774 48.0
1134.081665 180.0
1136.710571 104.0
1148.112793 164.0
1157.966309 172.0
1173.909546 172.0
1178.803955 176.0
1178.947388 200.0
1199.717041 140.0
1207.007812 200.0
1208.294312 196.0
1217.499146 64.0
1225.087524 136.0
1233.768799 132.0
1239.367798 200.0
1249.189575 192.0
1259.742188 48.0
1259.925903 48.0
1262.371338 140.0
1283.254028 132.0
1290.12915 180.0
1293.849121 144.0
1294.59375 112.0
1302.425537 148.0
1307.602173 136.0
1313.351685 228.0
1313.409424 56.0
1317.950195 184.0
1329.020996 144.0
1332.825684 124.0
1335.653687 104.0
1353.548584 208.0
1354.280884 196.0
1381.094727 228.0
1393.22937 40.0
1393.288696 76.0
1393.37793 140.0
1393.831177 184.0
1398.389771 168.0
1400.668091 156.0
1421.234375 148.0
1450.791504 120.0
1453.051392 120.0
1456.095337 116.0
1464.225342 168.0
1468.066162 68.0
1472.576538 176.0
1485.964844 64.0
1496.178589 212.0
