>compound MLS001140709-01!(2S)-1-[(2S)-2-[[(2S)-2-(2,4-dioxo-1H-quinazolin-3-yl)-3-phenylpropanoyl]amino]propanoyl]pyrrolidine-2-carboxylic acid
>formula C25H26N4O6
>ionization [M+H]+
>parentmass 479.193
#inchi InChI=1S/C25H26N4O6/c1-15(22(31)28-13-7-12-19(28)24(33)34)26-21(30)20(14-16-8-3-2-4-9-16)29-23(32)17-10-5-6-11-18(17)27-25(29)35/h2-6,8-11,15,19-20H,7,12-14H2,1H3,(H,26,30)(H,27,35)(H,33,34)/t15-,19-,20-/m0/s1
#inchikey RQTRWPHICBJXKC
#Ion_Source LC-ESI
#Instrument qTof
#Compound_Source NIH Natural Product Library
#PI Dorrestein
#Data_Collector VVP/LMS
#Scan -1
#Precursor_MZ 479.193
#ExactMass 478.185
#Charge 1
#CAS_Number N/A
#Pubmed_ID N/A
#Smiles C[C@H](NC(=O)[C@H](Cc1ccccc1)n2c(=O)[nH]c3ccccc3c2=O)C(=O)N4CCC[C@H]4C(=O)O
#INCHI_AUX N/A
#Library_Class 1
#SpectrumID CCMSLIB00000080142
#IonMode Positive
#UpdateWorkflowName UPDATE-SINGLE-ANNOTATED-GOLD
#LibraryQualityString Gold
#TaskID b1d8e8f6646f4e71acdff9ca3d919d08
##Scan# 1750
#SpectrumFile p2-F04_GF4_01_18040.mzXML
#LibraryName NIH_Natural_Products_Library.mgf
#MQScore -1
#Organism NIH_Natural_Products_Library
#TIC_Query 0
#RT_Query -1
#MZErrorPPM -1
#SharedPeaks 0
#MassDiff 0
#LibMZ -1
#SpecMZ 479.193
#SpecCharge 0
#internalFilename spec-00000.mgf

>collision 10
95.162529 128.0
96.5793 164.0
96.612556 148.0
96.970894 184.0
97.349823 136.0
97.536186 164.0
97.608925 44.0
98.671692 240.0
98.948669 64.0
99.039764 52.0
99.357948 160.0
99.632896 160.0
99.692505 132.0
100.373314 140.0
100.946419 168.0
101.868385 228.0
101.964836 136.0
103.053993 976.0
103.269318 40.0
103.966263 52.0
104.053268 176.0
104.908005 128.0
105.663643 116.0
106.438408 156.0
106.837143 96.0
107.624458 140.0
108.26757 152.0
109.107941 92.0
110.045494 52.0
110.499039 152.0
110.825661 164.0
111.978966 104.0
112.360504 148.0
113.642654 188.0
114.399254 212.0
114.757172 148.0
115.436195 148.0
116.070526 2296.0
116.419823 116.0
116.75293 80.0
117.07048 144.0
117.083611 232.0
117.379593 180.0
117.791817 152.0
118.02739 96.0
118.107407 124.0
118.150673 224.0
118.345467 92.0
118.471077 216.0
118.494911 132.0
119.100159 224.0
120.042534 240.0
120.070885 172.0
120.099243 148.0
120.671394 180.0
120.844185 72.0
121.074028 92.0
121.301895 124.0
121.595818 176.0
121.890091 188.0
121.94503 104.0
122.525963 160.0
122.805923 200.0
123.006714 128.0
123.406586 196.0
124.057487 148.0
124.561218 128.0
124.970284 204.0
125.667679 184.0
126.255165 140.0
128.984756 144.0
130.140152 124.0
131.047531 128.0
132.049835 140.0
132.139038 76.0
133.172913 148.0
134.806351 180.0
134.847946 52.0
135.001831 136.0
136.015335 56.0
137.292679 156.0
138.559586 260.0
140.362381 140.0
140.758804 132.0
141.195999 44.0
143.099121 120.0
144.122345 68.0
144.21077 188.0
144.447495 192.0
145.040268 148.0
145.30513 164.0
145.874298 160.0
145.982498 120.0
146.023178 3656.0
146.058121 208.0
146.199005 136.0
146.297699 96.0
146.389191 88.0
146.485535 80.0
146.552979 104.0
146.653 76.0
146.772324 116.0
147.029099 300.0
147.054871 196.0
147.141144 56.0
147.182526 52.0
147.600555 52.0
147.641678 80.0
147.740845 160.0
148.014343 128.0
148.031296 136.0
148.067612 36.0
148.133011 136.0
148.259003 96.0
148.472351 48.0
148.8582 192.0
149.079269 88.0
149.536484 72.0
150.050476 180.0
151.715378 172.0
152.142258 144.0
152.586929 96.0
153.877945 184.0
154.107635 148.0
154.976105 88.0
156.664856 52.0
157.086853 132.0
157.111801 204.0
158.296539 136.0
159.845367 172.0
161.090866 116.0
163.048431 2340.0
163.189316 64.0
163.296127 128.0
163.334274 60.0
163.932587 136.0
164.052734 324.0
164.276794 204.0
164.496262 80.0
164.588165 64.0
164.935623 88.0
165.050201 88.0
165.076233 156.0
165.488205 184.0
165.662354 128.0
165.880173 188.0
166.701492 176.0
167.084595 132.0
168.567184 108.0
169.364029 164.0
170.997192 52.0
171.208069 208.0
172.045059 268.0
172.96524 220.0
174.019119 164.0
175.047226 248.0
175.068283 124.0
175.305374 52.0
177.088684 120.0
177.329788 160.0
184.239212 152.0
184.31485 152.0
184.674408 128.0
187.047058 116.0
187.103333 936.0
187.361832 96.0
188.485947 176.0
188.614395 180.0
189.89856 100.0
190.700287 172.0
191.677261 196.0
192.019104 88.0
192.046677 128.0
192.433029 168.0
192.985611 232.0
194.098724 124.0
195.056564 96.0
196.136581 152.0
196.220215 180.0
196.38475 120.0
197.253143 132.0
197.401321 152.0
197.515991 124.0
197.594315 212.0
198.787964 116.0
199.664459 96.0
200.486526 136.0
201.005402 244.0
201.358276 140.0
201.510818 164.0
203.094055 224.0
203.595932 180.0
205.086487 196.0
206.634277 76.0
207.969666 152.0
209.122238 112.0
209.470657 144.0
209.879898 232.0
211.807556 148.0
213.639282 152.0
214.099167 168.0
216.005096 144.0
217.012543 108.0
219.01973 244.0
219.087479 128.0
220.078445 136.0
221.074615 100.0
222.088348 200.0
222.239166 76.0
222.482529 128.0
223.391891 324.0
223.555542 120.0
224.374649 152.0
225.813965 124.0
226.337662 48.0
228.107773 152.0
229.049637 108.0
229.115906 220.0
230.373917 148.0
230.558228 236.0
231.638397 140.0
234.741531 204.0
235.690857 152.0
237.102676 212.0
237.540054 128.0
238.433548 108.0
238.848618 128.0
239.988098 140.0
240.657639 84.0
242.151276 184.0
243.258224 132.0
244.423706 132.0
245.224075 116.0
245.963303 128.0
246.124863 160.0
246.491104 72.0
246.688019 56.0
247.08017 428.0
248.062256 208.0
248.252396 36.0
248.642532 120.0
249.628967 108.0
249.729614 104.0
250.182739 172.0
250.425201 172.0
250.80014 144.0
250.894714 160.0
251.468811 108.0
254.466629 296.0
254.542831 180.0
255.013016 104.0
256.83429 156.0
257.277832 136.0
258.876526 172.0
259.466095 156.0
259.777191 76.0
263.763763 92.0
263.818726 184.0
264.208099 240.0
264.439789 160.0
264.462433 116.0
264.498047 56.0
264.533661 72.0
264.637238 84.0
264.73764 128.0
264.792694 120.0
264.844513 228.0
264.869934 132.0
264.932831 168.0
264.974091 108.0
264.996765 180.0
265.097351 21472.0
265.213409 52.0
265.256012 56.0
265.285187 68.0
265.350037 44.0
265.414886 60.0
265.453796 112.0
265.502441 136.0
265.551788 104.0
265.586761 104.0
265.680847 136.0
265.813873 60.0
265.857147 144.0
265.924561 76.0
265.969666 76.0
265.994629 128.0
266.02594 248.0
266.101074 3568.0
266.245636 32.0
266.398285 56.0
266.654968 48.0
266.752167 76.0
266.92392 88.0
267.020966 84.0
267.104034 740.0
267.185028 64.0
267.360718 212.0
267.403046 64.0
267.663483 108.0
267.726257 120.0
267.793732 96.0
267.826294 116.0
267.895477 120.0
267.943573 120.0
267.998962 128.0
268.02829 136.0
268.109772 140.0
268.306183 108.0
268.987152 84.0
269.414917 68.0
269.516205 52.0
270.644684 72.0
270.841187 52.0
271.069122 164.0
271.650818 88.0
275.081268 480.0
276.0867 124.0
277.047394 28.0
278.088623 112.0
278.762787 52.0
278.945587 92.0
278.992126 52.0
279.184967 120.0
279.8172 96.0
279.927063 104.0
279.950378 48.0
280.96701 124.0
281.197235 36.0
284.142456 120.0
284.192291 60.0
284.235901 128.0
284.276184 60.0
287.820801 92.0
292.210144 100.0
292.673035 124.0
293.090179 4692.0
293.149933 160.0
293.49762 44.0
293.640839 136.0
293.941071 108.0
293.978607 136.0
294.019531 44.0
294.094666 1200.0
294.149231 180.0
294.197052 48.0
294.415558 48.0
294.59317 60.0
295.081879 84.0
295.105804 236.0
296.135864 216.0
296.934448 120.0
297.926453 60.0
303.594055 76.0
330.504181 100.0
330.909576 88.0
345.036224 128.0
364.122131 168.0
366.034973 64.0
377.861084 96.0
382.113281 124.0
398.139923 40.0
462.049591 32.0
466.363525 116.0
474.773926 52.0
477.114319 80.0
477.244751 108.0
481.283875 264.0
482.266815 132.0
495.233673 60.0
509.805084 76.0
515.672913 64.0
519.41748 192.0
528.927368 56.0
536.820557 68.0
567.255859 176.0
621.073975 60.0
649.115479 144.0
698.871338 108.0
718.005432 64.0
883.282532 104.0
885.585022 84.0
890.691956 108.0
1083.553711 188.0
1137.653198 44.0
1139.298584 164.0
1152.679443 216.0
1152.949707 208.0
1165.057983 152.0
1203.667236 104.0
1213.048706 188.0
1216.620239 124.0
1222.758911 20.0
1236.437866 176.0
1249.693237 128.0
1280.479492 144.0
1311.027832 192.0
1321.997192 196.0
1328.771973 112.0
1329.947632 208.0
1345.335815 136.0
1346.752441 176.0
1373.506958 180.0
1385.282349 236.0
1386.512207 216.0
1391.400391 76.0
1397.070679 152.0
1406.750854 68.0
1410.508179 200.0
1424.062622 248.0
1432.02002 48.0
1433.172607 36.0
1443.067505 164.0
1450.221191 188.0
1452.033203 200.0
1472.353271 68.0
1473.086548 212.0
1476.732544 164.0
1488.580444 104.0
1489.432983 240.0
1495.838257 232.0
1501.971802 112.0
