>compound MLS002472953-01!(E)-1-[2,4-dihydroxy-3-[(2E)-6-hydroxy-3,7-dimethylocta-2,7-dienyl]phenyl]-3-(4-hydroxyphenyl)prop-2-en-1-one
>formula C25H28O5
>ionization [M+H]+
>parentmass 409.201
#inchi InChI=1S/C25H28O5/c1-16(2)22(27)13-5-17(3)4-11-20-24(29)15-12-21(25(20)30)23(28)14-8-18-6-9-19(26)10-7-18/h4,6-10,12,14-15,22,26-27,29-30H,1,5,11,13H2,2-3H3/b14-8+,17-4+
#inchikey NCHZAFAGBAEJJJ
#Ion_Source LC-ESI
#Instrument qTof
#Compound_Source NIH Natural Product Library
#PI Dorrestein
#Data_Collector VVP/LMS
#Scan -1
#Precursor_MZ 409.201
#ExactMass 408.194
#Charge 1
#CAS_Number N/A
#Pubmed_ID N/A
#Smiles CC(=C)C(O)CC/C(=C/Cc1c(O)ccc(C(=O)\C=C\c2ccc(O)cc2)c1O)/C
#INCHI_AUX N/A
#Library_Class 1
#SpectrumID CCMSLIB00000080477
#IonMode Positive
#UpdateWorkflowName UPDATE-SINGLE-ANNOTATED-GOLD
#LibraryQualityString Gold
#TaskID b1d8e8f6646f4e71acdff9ca3d919d08
##Scan# 2353
#SpectrumFile p2-E09_GE9_01_18033.mzXML
#LibraryName NIH_Natural_Products_Library.mgf
#MQScore -1
#Organism NIH_Natural_Products_Library
#TIC_Query 0
#RT_Query -1
#MZErrorPPM -1
#SharedPeaks 0
#MassDiff 0
#LibMZ -1
#SpecMZ 409.201
#SpecCharge 0
#internalFilename spec-00000.mgf

>collision 10
94.976929 184.0
95.012711 312.0
95.029305 160.0
95.062294 212.0
95.078094 160.0
95.264214 168.0
95.287529 156.0
95.359428 168.0
95.429543 180.0
95.631721 128.0
95.658974 152.0
95.68428 140.0
95.703751 216.0
95.816719 148.0
95.89856 100.0
95.937546 192.0
96.15406 124.0
96.228241 148.0
96.277054 48.0
96.321976 148.0
96.654335 168.0
96.668037 160.0
96.687607 108.0
96.716965 112.0
96.8489 168.0
96.910843 184.0
96.959831 124.0
96.995628 196.0
97.050003 136.0
97.081375 160.0
97.126488 160.0
97.208885 80.0
97.397362 220.0
97.473984 160.0
97.493637 172.0
97.562431 188.0
98.040733 132.0
98.143234 76.0
98.159012 220.0
98.176758 160.0
98.204369 88.0
98.261581 116.0
98.362053 232.0
98.419479 164.0
98.591339 208.0
98.700058 140.0
98.806862 180.0
98.880081 192.0
98.933525 200.0
98.967178 68.0
98.985001 364.0
99.08007 176.0
99.260437 124.0
99.282257 144.0
99.383423 184.0
99.504494 164.0
99.591866 128.0
99.671333 196.0
99.724991 168.0
99.824394 104.0
99.895996 196.0
100.01738 192.0
100.031311 180.0
100.047241 152.0
100.124893 200.0
100.276314 124.0
100.451775 148.0
100.469734 132.0
100.635384 132.0
100.695671 204.0
100.72126 124.0
100.763206 204.0
100.901108 108.0
100.937103 72.0
100.951096 144.0
101.021103 148.0
101.115143 164.0
101.220345 136.0
101.395531 148.0
101.469704 244.0
101.610092 112.0
101.688354 188.0
101.751549 116.0
101.814354 168.0
101.848976 164.0
101.931351 60.0
102.027824 260.0
102.055977 116.0
102.269218 144.0
102.567322 64.0
102.63385 148.0
102.668137 132.0
102.722595 160.0
102.781097 64.0
102.902206 264.0
102.974899 144.0
103.01548 132.0
103.042816 168.0
103.054733 216.0
103.073891 104.0
103.160797 32.0
103.193146 148.0
103.21257 204.0
103.263924 120.0
103.308426 152.0
103.40757 184.0
103.51487 192.0
103.731659 224.0
103.780312 148.0
103.80262 132.0
103.875633 252.0
103.913528 212.0
103.950699 192.0
104.00753 216.0
104.025795 144.0
104.056252 156.0
104.178101 168.0
104.216705 232.0
104.302277 184.0
104.318321 184.0
104.346779 64.0
104.381348 168.0
104.578682 136.0
104.594971 176.0
104.621429 136.0
104.969841 96.0
105.004036 144.0
105.037148 216.0
105.06369 208.0
105.133041 256.0
105.222855 152.0
105.304535 252.0
105.355598 176.0
105.445511 148.0
105.55999 196.0
105.607033 160.0
105.851021 108.0
105.926346 152.0
106.043137 176.0
106.082085 188.0
106.104637 176.0
106.3508 176.0
106.533401 212.0
106.597244 116.0
106.654793 192.0
106.675346 144.0
106.695908 136.0
106.899536 144.0
106.927132 52.0
107.018921 168.0
107.048805 536.0
107.08725 720.0
107.278511 196.0
107.354797 112.0
107.418739 248.0
107.484756 196.0
107.515709 132.0
107.537582 228.0
107.68914 184.0
107.848236 160.0
107.906113 128.0
107.999176 176.0
108.015724 172.0
108.032272 160.0
108.052811 160.0
108.09848 140.0
108.130608 168.0
108.208183 112.0
108.481644 192.0
108.510674 228.0
108.602562 128.0
108.622658 144.0
108.686974 132.0
108.703568 212.0
108.720169 188.0
108.749229 132.0
108.786591 152.0
108.836418 184.0
108.863411 188.0
109.025452 192.0
109.065201 308.0
109.100304 456.0
109.164734 144.0
109.284409 172.0
109.520622 156.0
109.556038 172.0
109.651886 84.0
109.695656 160.0
109.739441 216.0
109.950127 68.0
109.989784 264.0
110.100441 140.0
110.138031 140.0
110.156837 240.0
110.399284 244.0
110.595947 224.0
110.623161 192.0
110.767654 196.0
110.987602 160.0
111.059013 132.0
111.098732 188.0
111.136635 64.0
111.172302 164.0
111.205887 168.0
111.601189 184.0
111.703873 136.0
111.750153 132.0
111.806969 96.0
111.823807 148.0
111.868011 140.0
111.916435 192.0
111.992249 140.0
112.015419 172.0
112.211411 128.0
112.481438 156.0
112.813087 152.0
112.965347 148.0
112.997078 192.0
113.011894 52.0
113.096542 188.0
113.321014 156.0
113.421494 136.0
113.632683 120.0
113.723938 172.0
113.766388 236.0
113.861938 144.0
113.893799 168.0
113.934158 176.0
113.980904 200.0
114.055283 208.0
114.176003 196.0
114.342422 152.0
114.363708 160.0
114.546829 168.0
114.653358 144.0
114.68959 172.0
115.051109 332.0
115.075714 160.0
115.139778 276.0
115.261543 168.0
115.432549 180.0
115.460403 164.0
115.488159 164.0
115.513824 180.0
115.545914 156.0
115.886337 100.0
116.057915 156.0
116.08139 100.0
116.107124 216.0
116.212234 204.0
116.620262 140.0
116.686569 104.0
116.786522 184.0
117.035599 116.0
117.073875 152.0
117.091446 160.0
117.140091 108.0
117.166832 140.0
117.291824 232.0
117.332779 168.0
117.434135 48.0
117.457855 128.0
117.542 212.0
117.580841 240.0
117.758911 184.0
117.809319 192.0
117.815819 156.0
117.824265 164.0
117.909119 232.0
118.038826 260.0
118.112358 152.0
118.181587 108.0
118.216209 160.0
118.283302 140.0
118.445709 148.0
118.57782 148.0
118.783859 80.0
118.805557 104.0
118.864136 192.0
118.894516 164.0
118.959633 192.0
119.009567 228.0
119.048401 2060.0
119.084999 484.0
119.187675 188.0
119.570412 316.0
119.633537 176.0
119.718704 204.0
119.829544 188.0
119.94722 212.0
120.014015 144.0
120.055061 324.0
120.200211 156.0
120.226395 128.0
120.245354 140.0
120.460022 184.0
120.567085 48.0
120.608612 128.0
120.627632 188.0
120.748543 84.0
120.794083 200.0
120.842606 60.0
120.932327 192.0
120.966316 220.0
121.027481 4592.0
121.065819 1232.0
121.094345 32.0
121.171021 188.0
121.267433 176.0
121.311272 164.0
121.361702 184.0
121.390205 152.0
121.420906 176.0
121.456001 120.0
121.552536 160.0
121.604233 172.0
121.686424 184.0
121.725945 144.0
121.74791 136.0
121.799271 192.0
121.837967 52.0
121.861229 68.0
122.032455 404.0
122.160713 192.0
122.238129 144.0
122.284348 64.0
122.423042 156.0
122.652176 140.0
122.923454 52.0
122.941109 120.0
122.98304 80.0
123.009155 168.0
123.033348 344.0
123.082382 140.0
123.111763 132.0
123.121475 264.0
123.205551 136.0
123.290031 196.0
123.35994 248.0
123.409401 176.0
123.756775 184.0
123.77449 148.0
123.792206 112.0
123.816566 180.0
123.836502 128.0
123.91642 152.0
124.017334 208.0
124.05365 120.0
124.094734 136.0
124.177826 144.0
124.21553 128.0
124.282089 68.0
124.308716 188.0
124.440521 272.0
124.537384 116.0
124.58181 192.0
124.652908 144.0
124.701805 148.0
124.919067 152.0
125.028732 164.0
125.134033 200.0
125.235794 176.0
125.416275 164.0
125.837898 92.0
125.882553 176.0
125.904358 168.0
125.971893 148.0
125.987534 176.0
126.057961 156.0
126.088081 156.0
126.168549 84.0
126.2155 164.0
126.237862 160.0
126.509834 180.0
126.649666 96.0
126.766167 200.0
126.88945 124.0
126.961205 152.0
127.046432 156.0
127.147408 124.0
127.306801 208.0
127.551437 240.0
127.644974 164.0
127.715843 172.0
127.814827 160.0
127.855339 132.0
127.889099 124.0
128.003906 180.0
128.039948 140.0
128.058945 228.0
128.130768 176.0
128.177368 36.0
128.220184 44.0
128.34642 180.0
128.402802 124.0
128.452423 132.0
128.572006 164.0
128.592316 184.0
128.680344 220.0
128.772934 196.0
128.948257 216.0
129.007935 160.0
129.04863 200.0
129.072235 384.0
129.216003 220.0
129.358566 164.0
129.535202 184.0
129.562378 32.0
129.75502 136.0
129.981842 172.0
130.301987 40.0
130.338333 104.0
130.470169 80.0
130.613434 88.0
130.688507 60.0
130.759048 160.0
130.932068 176.0
131.013107 8940.0
131.045563 244.0
131.083542 156.0
131.12117 64.0
131.143967 100.0
131.169037 76.0
131.271637 144.0
131.362869 52.0
131.460968 40.0
131.506622 192.0
131.534866 192.0
131.556686 128.0
131.627609 84.0
131.70755 44.0
131.858337 96.0
131.913193 52.0
131.977219 176.0
132.015717 808.0
132.056091 184.0
132.091568 44.0
132.39827 124.0
132.542587 76.0
132.802765 172.0
132.865479 120.0
132.88652 188.0
132.996674 92.0
133.02301 408.0
133.064911 1028.0
133.10228 156.0
133.26535 44.0
133.325104 56.0
133.357285 220.0
133.407852 184.0
133.658539 192.0
133.727585 224.0
133.771317 180.0
133.866211 148.0
133.960144 148.0
134.038483 144.0
134.067276 160.0
134.123749 60.0
134.181381 128.0
134.508972 112.0
134.532043 188.0
134.550522 112.0
134.700623 176.0
134.847672 112.0
134.920166 212.0
134.950211 216.0
134.980042 192.0
135.04361 304.0
135.082047 116.0
135.109802 364.0
135.262527 132.0
135.352829 204.0
135.429245 148.0
135.603027 172.0
135.651703 176.0
135.690918 200.0
135.832565 104.0
135.899841 156.0
135.969467 208.0
136.080887 148.0
136.20285 124.0
136.506104 136.0
136.538666 140.0
136.594482 160.0
136.696854 168.0
136.715469 164.0
136.731766 248.0
136.815552 232.0
136.89798 244.0
136.987885 168.0
137.023804 640.0
137.095062 156.0
137.38652 168.0
137.433182 200.0
137.454178 108.0
137.55687 160.0
137.573212 108.0
137.647064 304.0
137.768005 212.0
137.811432 148.0
137.881531 168.0
138.016464 156.0
138.024719 112.0
138.032074 184.0
138.105988 136.0
138.145752 204.0
138.318924 208.0
138.375107 136.0
138.49881 136.0
138.524979 188.0
138.546066 168.0
138.813263 120.0
138.956345 220.0
139.017349 208.0
139.083069 244.0
139.191071 128.0
139.331985 164.0
139.468292 132.0
139.520004 188.0
139.748138 192.0
139.956787 160.0
139.97583 180.0
139.988937 188.0
140.41951 156.0
140.537445 160.0
140.57048 220.0
140.671982 168.0
140.82309 168.0
140.875061 148.0
140.938858 152.0
140.997925 164.0
141.045197 156.0
141.061752 208.0
141.078293 96.0
141.161041 184.0
141.437851 196.0
141.658081 140.0
141.786301 172.0
141.866608 188.0
141.966202 196.0
142.008881 140.0
142.042099 80.0
142.075653 184.0
142.307892 200.0
142.324509 164.0
142.609589 180.0
142.69754 148.0
142.849747 160.0
142.887817 144.0
142.952255 188.0
143.054398 152.0
143.08432 308.0
143.237762 160.0
143.368805 80.0
143.635834 240.0
143.817184 212.0
143.862534 204.0
143.94371 200.0
143.96759 100.0
143.99147 184.0
144.050949 196.0
144.118134 164.0
144.151535 148.0
144.333206 272.0
144.550873 220.0
144.625076 144.0
144.672943 172.0
144.694489 176.0
144.792664 148.0
144.886093 148.0
145.030685 128.0
145.061218 148.0
145.101776 148.0
145.437622 176.0
145.584076 172.0
145.615295 172.0
145.769058 168.0
145.809906 180.0
145.961349 172.0
146.021469 116.0
146.04071 100.0
146.117691 156.0
146.252457 176.0
146.394501 180.0
146.440262 204.0
146.616135 216.0
146.633011 220.0
146.651321 180.0
146.834427 256.0
146.898239 172.0
146.927185 92.0
146.948898 52.0
146.98027 188.0
147.042404 5272.0
147.081558 1244.0
147.110596 44.0
147.190277 164.0
147.228912 172.0
147.307449 100.0
147.330353 108.0
147.48259 156.0
147.551758 164.0
147.579834 204.0
147.620392 56.0
147.65184 48.0
147.680862 68.0
147.821182 200.0
147.847794 104.0
147.925247 176.0
147.944611 156.0
148.047119 1108.0
148.075943 292.0
148.131088 120.0
148.152573 156.0
148.215881 208.0
148.253906 220.0
148.349548 332.0
148.421921 224.0
148.438889 108.0
148.460709 144.0
148.501938 52.0
148.523773 80.0
148.566101 196.0
148.620804 176.0
148.670929 208.0
148.697861 112.0
148.72612 348.0
148.743301 236.0
148.785431 168.0
148.818726 348.0
148.861191 128.0
148.907135 176.0
148.949554 220.0
148.95517 144.0
148.990387 524.0
149.02446 142760.0
149.066437 92.0
149.086136 180.0
149.111572 112.0
149.147232 144.0
149.161087 60.0
149.170303 124.0
149.195099 128.0
149.225311 100.0
149.253586 244.0
149.269638 188.0
149.28714 260.0
149.323822 128.0
149.352661 80.0
149.358688 208.0
149.367172 188.0
149.396454 48.0
149.424194 1416.0
149.48587 48.0
149.515274 80.0
149.550659 216.0
149.60672 128.0
149.642563 96.0
149.668839 120.0
149.722 64.0
149.745911 156.0
149.794861 92.0
149.841354 36.0
149.885071 68.0
149.894043 64.0
149.911575 44.0
149.923126 36.0
149.930145 64.0
149.969116 84.0
149.995468 168.0
150.026474 15064.0
150.060089 220.0
150.109482 52.0
150.162216 108.0
150.187271 40.0
150.207138 132.0
150.253387 140.0
150.308624 144.0
150.3461 32.0
150.39003 36.0
150.424957 104.0
150.47348 44.0
150.502335 152.0
150.538956 88.0
150.558502 52.0
150.600021 52.0
150.669815 84.0
150.71582 80.0
150.736832 48.0
150.766251 92.0
150.788147 116.0
150.824905 108.0
150.874329 172.0
150.905487 108.0
150.929184 144.0
150.952286 140.0
150.984848 140.0
150.993103 48.0
151.030792 1916.0
151.102982 184.0
151.138824 92.0
151.171234 88.0
151.192398 96.0
151.231628 160.0
151.256012 140.0
151.306732 40.0
151.328537 88.0
151.40712 60.0
151.478149 72.0
151.571442 52.0
151.666824 104.0
151.718307 68.0
151.74527 48.0
151.794922 96.0
151.828644 108.0
151.850723 100.0
151.877701 64.0
151.926758 88.0
152.002823 80.0
152.029968 124.0
152.058136 96.0
152.145172 76.0
152.169724 144.0
152.233566 60.0
152.264938 124.0
152.292511 60.0
152.326904 80.0
152.342545 76.0
152.388321 152.0
152.479233 104.0
152.572647 68.0
152.784149 88.0
152.897339 88.0
153.010559 96.0
153.069656 132.0
153.180481 52.0
153.242081 48.0
153.352966 56.0
153.377609 168.0
153.458969 204.0
153.503357 60.0
154.256378 104.0
154.352798 80.0
155.040985 204.0
155.058334 56.0
155.767975 48.0
155.807709 52.0
155.854919 164.0
156.023926 132.0
156.202988 56.0
157.065796 188.0
157.104767 160.0
157.364319 112.0
157.639084 116.0
157.824051 72.0
158.071686 144.0
158.22937 56.0
158.249405 72.0
158.296982 80.0
158.352081 48.0
158.394653 92.0
158.412186 148.0
158.509903 108.0
158.775635 76.0
158.873459 156.0
158.971313 64.0
159.052948 76.0
159.079575 560.0
159.116898 140.0
159.184677 52.0
159.260025 56.0
159.373077 84.0
159.73761 72.0
160.054138 108.0
160.100052 184.0
160.126831 108.0
160.316711 128.0
160.541077 36.0
160.558716 112.0
160.57637 84.0
160.70755 108.0
160.79335 88.0
160.996201 104.0
161.023026 1836.0
161.060165 308.0
161.093826 168.0
161.20752 132.0
161.27829 120.0
161.349075 96.0
161.435043 128.0
161.513443 52.0
161.536209 156.0
161.7108 48.0
161.95784 148.0
162.026489 336.0
162.060257 280.0
162.184433 80.0
162.228882 120.0
162.356842 128.0
162.377136 160.0
162.476059 60.0
162.569946 168.0
162.953369 72.0
163.039139 4928.0
163.093124 156.0
163.179565 36.0
163.199905 48.0
163.324509 128.0
163.347412 108.0
163.642624 96.0
163.986511 144.0
164.043076 584.0
164.103775 92.0
164.358841 120.0
164.552826 164.0
164.608994 224.0
165.050781 148.0
165.057495 132.0
165.503967 48.0
166.550293 92.0
166.606812 272.0
166.727585 152.0
167.033905 13232.0
167.083435 140.0
167.136444 56.0
167.190491 72.0
167.234238 52.0
167.278 56.0
167.340256 88.0
167.525223 44.0
167.656616 56.0
167.67981 56.0
167.72879 80.0
167.847382 164.0
168.036346 1776.0
168.074371 140.0
168.138885 56.0
168.278275 116.0
168.477142 128.0
168.513306 68.0
168.557236 64.0
168.686462 44.0
168.833847 156.0
168.921783 136.0
169.017502 64.0
169.066223 516.0
169.100311 52.0
169.157257 120.0
169.312622 192.0
169.356644 104.0
169.392914 76.0
169.432602 112.0
170.071594 248.0
170.264404 80.0
170.487823 48.0
170.797226 128.0
171.05072 304.0
171.093872 152.0
172.053268 128.0
172.970825 40.0
173.021957 188.0
173.061157 464.0
173.185547 80.0
173.279846 100.0
173.88559 160.0
173.917084 104.0
174.030411 264.0
174.069351 192.0
174.095612 40.0
174.706406 148.0
175.036392 796.0
175.076035 360.0
175.187164 132.0
176.043686 256.0
176.072006 160.0
176.271545 92.0
176.702545 104.0
176.975159 56.0
177.057266 492.0
177.077484 200.0
177.568741 52.0
177.860611 172.0
177.969452 160.0
178.051773 204.0
178.075378 180.0
178.476959 132.0
178.578003 104.0
179.027786 220.0
180.118637 84.0
181.058319 208.0
181.07251 172.0
182.073868 204.0
183.047348 140.0
183.073288 272.0
183.389496 240.0
183.470367 52.0
184.185471 140.0
184.942581 92.0
185.057587 728.0
185.094101 128.0
185.178131 116.0
186.070282 184.0
186.097427 132.0
186.480453 92.0
186.581039 32.0
187.032791 316.0
187.075775 116.0
187.103378 112.0
187.15239 32.0
187.453552 100.0
188.038925 320.0
188.696671 116.0
188.836136 244.0
188.953766 104.0
189.05455 5640.0
189.133545 132.0
189.356155 56.0
189.413666 60.0
189.84671 188.0
189.904312 44.0
190.054733 560.0
190.101837 168.0
190.161194 172.0
190.225357 100.0
190.315948 32.0
190.368118 48.0
190.445023 68.0
191.033264 140.0
191.07077 1460.0
191.349747 76.0
191.371429 64.0
192.016602 84.0
192.078842 152.0
192.110382 176.0
193.683258 48.0
193.921539 196.0
194.076981 112.0
195.05957 184.0
195.081451 152.0
195.435013 68.0
195.972397 92.0
196.376602 68.0
196.750519 140.0
196.940414 76.0
197.064896 336.0
198.06485 168.0
199.080124 204.0
199.175629 124.0
199.341385 40.0
199.535324 148.0
200.078308 136.0
200.441635 172.0
200.80249 196.0
201.058044 120.0
201.087448 236.0
202.056686 128.0
202.082138 160.0
202.798599 128.0
202.872299 172.0
202.913315 184.0
203.069611 5676.0
203.158722 48.0
203.462387 68.0
203.575958 128.0
203.598679 140.0
203.771942 68.0
203.879929 40.0
203.9254 128.0
203.98793 48.0
204.022049 44.0
204.072891 1360.0
204.121552 184.0
204.179718 124.0
204.391785 116.0
204.736237 92.0
204.91568 100.0
205.015411 60.0
205.084381 120.0
205.528702 116.0
205.623352 128.0
206.205505 184.0
206.877701 72.0
207.06308 156.0
208.096146 48.0
209.108002 272.0
209.724365 152.0
209.878983 152.0
210.156952 200.0
210.231964 32.0
210.589966 84.0
211.062469 184.0
212.080063 184.0
214.790039 68.0
215.069778 2268.0
215.30957 156.0
215.668945 32.0
215.873596 68.0
216.071304 376.0
216.713684 80.0
217.508438 116.0
217.699265 124.0
219.429428 56.0
222.613251 128.0
223.076736 248.0
223.264053 60.0
224.172028 92.0
225.290909 140.0
225.479156 44.0
225.616653 68.0
226.083267 124.0
226.526382 148.0
226.697174 108.0
227.073685 480.0
228.068726 160.0
228.989426 196.0
229.083984 324.0
229.308777 52.0
230.090347 160.0
230.135345 128.0
230.787979 56.0
231.614166 72.0
233.824539 72.0
235.086227 144.0
235.577805 176.0
238.01265 36.0
238.805527 52.0
239.00856 48.0
240.080551 176.0
241.08696 36.0
241.120956 124.0
242.061401 88.0
242.117142 168.0
243.121155 228.0
245.074402 112.0
245.118027 168.0
245.691727 164.0
246.100571 148.0
246.6129 84.0
247.135147 164.0
247.999466 204.0
248.673813 156.0
248.752274 112.0
249.12912 152.0
251.070862 444.0
252.065033 132.0
253.08725 152.0
253.163254 140.0
253.229752 104.0
254.044388 64.0
255.060547 124.0
256.078705 40.0
257.0755 180.0
257.769531 156.0
258.092377 184.0
259.131531 176.0
260.451111 48.0
260.663147 120.0
261.029602 128.0
261.081055 104.0
262.279541 80.0
263.136841 96.0
263.382263 40.0
264.080444 100.0
264.666168 172.0
265.077545 144.0
265.677368 124.0
267.048157 140.0
267.070923 84.0
267.103729 140.0
267.142487 200.0
267.165253 92.0
267.67627 124.0
268.044342 68.0
268.9216 100.0
269.003204 120.0
269.081848 4256.0
269.14032 80.0
269.173523 192.0
269.368958 96.0
269.584595 56.0
269.721863 44.0
270.02594 172.0
270.085205 752.0
270.297455 92.0
270.536377 76.0
271.087433 116.0
271.132599 896.0
271.991821 72.0
272.134766 188.0
272.316895 84.0
273.130096 168.0
273.889099 80.0
274.103241 116.0
274.241669 84.0
275.066284 116.0
275.974792 52.0
277.113373 120.0
278.111542 152.0
279.028381 144.0
279.054993 160.0
279.617157 108.0
280.109924 144.0
281.076782 64.0
281.113495 136.0
281.520752 92.0
282.072021 212.0
282.86145 100.0
283.089539 68.0
283.256592 156.0
284.101349 192.0
285.138916 128.0
286.168243 80.0
289.136444 120.0
290.105347 156.0
290.13031 172.0
290.263031 152.0
291.107208 304.0
291.179749 88.0
291.441315 104.0
291.767609 60.0
293.067719 128.0
293.122253 116.0
294.094604 284.0
295.094086 316.0
295.228485 44.0
295.522675 44.0
296.817383 52.0
297.120941 124.0
298.152771 48.0
298.585938 100.0
303.000854 152.0
305.116638 224.0
307.087769 268.0
308.101105 192.0
309.111969 2836.0
309.507538 68.0
309.773285 48.0
310.116974 408.0
311.12738 268.0
312.100128 108.0
312.145844 80.0
312.290039 224.0
315.997559 52.0
316.532043 56.0
317.683899 56.0
317.985504 120.0
320.848999 48.0
321.116425 196.0
321.580261 152.0
323.127319 292.0
324.133667 132.0
327.43866 92.0
328.263947 136.0
329.097473 132.0
331.140625 160.0
335.132538 128.0
339.057587 68.0
340.874115 76.0
341.061554 60.0
344.418274 160.0
344.669495 80.0
345.068695 108.0
347.435242 156.0
349.128998 108.0
357.663269 52.0
359.525146 96.0
365.158752 112.0
371.461121 112.0
373.997192 64.0
376.279297 100.0
379.064178 80.0
380.425537 92.0
389.269043 100.0
397.043365 56.0
397.904419 120.0
402.43927 136.0
402.479218 52.0
402.706848 52.0
410.343384 140.0
412.729584 80.0
416.977997 48.0
428.26239 80.0
433.049408 168.0
439.192596 56.0
439.509644 64.0
441.686249 48.0
455.079437 64.0
469.836761 148.0
482.155609 96.0
491.752014 32.0
504.138519 120.0
526.049805 88.0
529.492798 76.0
532.262573 52.0
532.602417 44.0
555.675476 52.0
569.882385 116.0
575.077759 40.0
578.653442 128.0
579.276001 136.0
615.374878 20.0
647.596802 92.0
650.385498 28.0
663.331604 60.0
665.840576 180.0
671.305908 68.0
673.695557 56.0
698.378296 212.0
699.435852 76.0
711.727478 32.0
713.300049 128.0
716.407715 184.0
719.16449 212.0
723.044678 44.0
724.195801 80.0
728.766296 52.0
731.089233 88.0
737.085693 152.0
738.631897 132.0
764.675415 80.0
785.381042 68.0
799.471619 156.0
806.81543 140.0
810.630249 160.0
827.581909 196.0
838.600037 176.0
847.725464 32.0
852.082947 160.0
857.459595 136.0
881.024719 164.0
889.24939 140.0
890.460571 220.0
895.891235 36.0
904.316589 108.0
923.207581 176.0
931.140503 212.0
933.662659 164.0
936.852051 20.0
940.455811 120.0
946.024353 148.0
951.627808 52.0
959.539856 196.0
963.427856 84.0
963.860352 64.0
965.529419 212.0
967.738464 116.0
970.911133 172.0
971.618225 176.0
978.074707 132.0
986.520752 160.0
987.089722 40.0
987.477417 64.0
987.733887 256.0
993.779297 164.0
998.515686 56.0
998.873474 184.0
999.138367 32.0
1007.308289 160.0
1007.820007 228.0
1009.229492 56.0
1009.754333 244.0
1010.981689 132.0
1011.861511 132.0
1015.156311 180.0
1016.361511 152.0
1019.034546 148.0
1020.839722 196.0
1021.679565 180.0
1024.467651 172.0
1024.56958 132.0
1025.245483 88.0
1026.717529 76.0
1026.947144 80.0
1027.323486 164.0
1029.065796 160.0
1046.17041 216.0
1056.618652 208.0
1057.932373 116.0
1060.147461 132.0
1063.513428 44.0
1068.224365 48.0
1068.796875 152.0
1069.551758 148.0
1074.341309 128.0
1075.006714 176.0
1075.143799 140.0
1075.307007 180.0
1075.757324 68.0
1084.083374 192.0
1084.751831 172.0
1088.550537 60.0
1089.805176 132.0
1090.266235 192.0
1091.145874 112.0
1093.737793 216.0
1096.761108 236.0
1098.139038 172.0
1098.238037 192.0
1099.05603 212.0
1100.204468 200.0
1100.380737 164.0
1101.287354 96.0
1102.859863 96.0
1103.706055 168.0
1107.014648 128.0
1110.44751 200.0
1115.573486 104.0
1119.159424 160.0
1119.705444 68.0
1123.111206 156.0
1123.191284 52.0
1123.264648 40.0
1123.5448 128.0
1124.372192 204.0
1125.780762 128.0
1125.994507 44.0
1126.44873 196.0
1127.009888 56.0
1131.343628 196.0
1131.437378 32.0
1131.584717 164.0
1133.654419 200.0
1139.330688 144.0
1143.351562 128.0
1144.953857 220.0
1145.95752 164.0
1150.104858 200.0
1150.806885 188.0
1152.658081 188.0
1154.090576 164.0
1154.996704 188.0
1155.531128 132.0
1155.849243 232.0
1156.87793 120.0
1157.453369 116.0
1160.556641 60.0
1161.051636 220.0
1162.449097 152.0
1166.272705 244.0
1166.632935 204.0
1168.020142 184.0
1173.829468 172.0
1177.644409 192.0
1178.054199 184.0
1179.461792 172.0
1180.357422 264.0
1182.532837 76.0
1183.415894 144.0
1184.833618 204.0
1184.929565 92.0
1184.984863 192.0
1187.513794 156.0
1192.938232 60.0
1193.391968 156.0
1197.85144 60.0
1203.037109 196.0
1208.247803 132.0
1208.43457 148.0
1213.760864 196.0
1215.259033 124.0
1215.848877 112.0
1216.022339 172.0
1218.682007 180.0
1220.44043 120.0
1221.14978 68.0
1222.283691 144.0
1223.647949 144.0
1227.807861 164.0
1229.021606 48.0
1229.649658 216.0
1230.158203 144.0
1234.637817 84.0
1235.218384 124.0
1235.952881 216.0
1236.526733 252.0
1239.20166 68.0
1240.343994 140.0
1241.044922 244.0
1241.199219 248.0
1243.366821 196.0
1243.612427 200.0
1244.560181 216.0
1245.03772 56.0
1249.613647 176.0
1249.824707 36.0
1251.802734 156.0
1252.520996 84.0
1252.661865 176.0
1253.197388 48.0
1253.246704 84.0
1253.500366 232.0
1255.001709 196.0
1256.807373 204.0
1258.981445 96.0
1259.369873 212.0
1259.659424 120.0
1261.320068 148.0
1263.024048 204.0
1263.597046 104.0
1264.637329 196.0
1264.955811 164.0
1265.564697 88.0
1266.067383 176.0
1266.591553 180.0
1268.533081 128.0
1269.263306 160.0
1271.370117 212.0
1272.087036 160.0
1273.450317 276.0
1273.542603 132.0
1273.66333 172.0
1273.82666 172.0
1275.738281 160.0
1278.362793 180.0
1278.789795 220.0
1280.149536 168.0
1281.125244 152.0
1283.398682 168.0
1283.505737 84.0
1283.755249 152.0
1283.869385 244.0
1283.947754 164.0
1284.625366 168.0
1285.253174 212.0
1287.916016 164.0
1288.551758 192.0
1289.0448 196.0
1290.588745 116.0
1291.296753 172.0
1291.518433 188.0
1292.806152 144.0
1293.271362 160.0
1293.378784 192.0
1293.829712 184.0
1295.118652 216.0
1296.508545 152.0
1296.795288 96.0
1298.487305 152.0
1300.941162 216.0
1305.676147 208.0
1306.172485 68.0
1306.352295 168.0
1307.215698 180.0
1307.971313 52.0
1308.172852 156.0
1309.267334 148.0
1310.304565 260.0
1311.147583 76.0
1311.392578 140.0
1311.861206 200.0
1313.086914 188.0
1313.368164 168.0
1313.981323 184.0
1315.569092 208.0
1315.966064 208.0
1316.579834 204.0
1316.637695 136.0
1317.995728 200.0
1318.306396 132.0
1318.588257 112.0
1319.137573 196.0
1320.22937 240.0
1320.279907 192.0
1322.189819 172.0
1322.370728 224.0
1322.805054 80.0
1323.775269 228.0
1323.978027 92.0
1324.318359 200.0
1327.659424 52.0
1328.898804 196.0
1330.191528 72.0
1331.476685 180.0
1331.563843 132.0
1333.619995 160.0
1334.034302 156.0
1334.57959 156.0
1335.052124 140.0
1335.510376 192.0
1339.52832 112.0
1339.659424 52.0
1339.75415 128.0
1340.286011 124.0
1340.941772 172.0
1341.233398 172.0
1341.284424 204.0
1341.401001 88.0
1343.070801 80.0
1346.712891 140.0
1347.056274 152.0
1347.31189 148.0
1349.899292 164.0
1351.208496 72.0
1354.947266 192.0
1355.264648 132.0
1355.381836 108.0
1355.499146 156.0
1358.791138 188.0
1359.414917 176.0
1360.016602 180.0
1360.48645 172.0
1361.874268 152.0
1363.652222 172.0
1363.894775 160.0
1364.262329 220.0
1364.520264 184.0
1364.813721 120.0
1365.460938 76.0
1366.041992 148.0
1366.314087 176.0
1366.402466 176.0
1367.057251 216.0
1368.418945 132.0
1369.52832 136.0
1372.397583 184.0
1372.574585 132.0
1372.825317 84.0
1374.071777 96.0
1376.832397 132.0
1378.184204 52.0
1378.694092 168.0
1379.403564 116.0
1381.281738 164.0
1381.363159 52.0
1381.629517 176.0
1382.051147 220.0
1383.131592 208.0
1383.264893 168.0
1383.324097 184.0
1383.523926 192.0
1383.75354 148.0
1384.160767 112.0
1384.908691 184.0
1385.953247 200.0
1386.294067 104.0
1387.887817 136.0
1388.733154 208.0
1389.957153 140.0
1390.34314 192.0
1391.070435 188.0
1392.81543 184.0
1394.100708 152.0
1394.516968 80.0
1394.620972 92.0
1395.014893 132.0
1395.706299 140.0
1395.84021 140.0
1396.412842 148.0
1398.094116 184.0
1399.210693 52.0
1399.411621 128.0
1399.612671 60.0
1401.95166 188.0
1402.942993 152.0
1403.539429 104.0
1403.889893 188.0
1404.195679 136.0
1404.38208 64.0
1406.936523 204.0
1407.18042 200.0
1408.203491 136.0
1409.189575 152.0
1410.723999 132.0
1411.102783 104.0
1414.775635 172.0
1417.367432 212.0
1418.896484 176.0
1419.331299 156.0
1419.443848 160.0
1419.533813 140.0
1419.706299 164.0
1420.508789 160.0
1421.213989 196.0
1421.626709 200.0
1422.820068 40.0
1423.18042 148.0
1423.473267 176.0
1425.726929 36.0
1425.854736 172.0
1426.305664 100.0
1426.410889 176.0
1426.816772 128.0
1427.741699 152.0
1428.463745 216.0
1428.561523 48.0
1429.170898 164.0
1429.885742 240.0
1429.953491 52.0
1430.043823 104.0
1430.390015 176.0
1432.182129 196.0
1433.734131 64.0
1433.899902 180.0
1434.698853 160.0
1436.259766 144.0
1436.365479 152.0
1437.753662 148.0
1437.851807 88.0
1437.949829 108.0
1438.040405 88.0
1438.229126 168.0
1438.780151 168.0
1438.855713 196.0
1439.112427 168.0
1439.421997 204.0
1440.320679 52.0
1440.501953 104.0
1440.893799 196.0
1441.24231 220.0
1441.333008 116.0
1442.640503 220.0
1442.897583 156.0
1443.010986 200.0
1443.154541 160.0
1443.313354 160.0
1443.600708 176.0
1444.107422 168.0
1444.553711 200.0
1444.614136 152.0
1444.841187 28.0
1446.664917 108.0
1447.194824 60.0
1448.209595 144.0
1448.702026 40.0
1449.103516 60.0
1449.164062 168.0
1450.118896 156.0
1450.550903 140.0
1450.770752 204.0
1451.544067 116.0
1452.097656 216.0
1452.499634 176.0
1452.605835 192.0
1452.742432 144.0
1452.894165 160.0
1455.246826 172.0
1457.578613 212.0
1458.042236 148.0
1458.536255 164.0
1458.893433 120.0
1459.030273 176.0
1459.182373 100.0
1459.600586 216.0
1461.349976 276.0
1462.072876 172.0
1462.826294 184.0
1463.519165 140.0
1464.166382 184.0
1464.311035 184.0
1464.615723 164.0
1465.834717 144.0
1466.025146 192.0
1466.10144 136.0
1466.436768 112.0
1466.740723 168.0
1466.810181 192.0
1468.952881 76.0
1469.296143 128.0
1469.883667 236.0
1469.952393 124.0
1472.143188 236.0
1472.463867 52.0
1472.731201 176.0
1473.556274 124.0
1473.670898 148.0
1475.199341 172.0
1475.436279 96.0
1475.703857 164.0
1475.795654 184.0
1476.812744 160.0
1476.873901 136.0
1477.149292 160.0
1477.355835 132.0
1477.898926 188.0
1478.021362 180.0
1478.603027 120.0
1479.628662 144.0
1481.022339 216.0
1481.152588 188.0
1483.144775 196.0
1485.644531 144.0
1486.158569 176.0
1486.427124 180.0
1486.933594 136.0
1487.046753 204.0
1487.240601 200.0
1487.363403 144.0
1487.440186 232.0
1487.63208 220.0
1487.693481 140.0
1488.154053 132.0
1489.474976 216.0
1489.797607 104.0
1490.688843 156.0
1490.773438 168.0
1490.880981 148.0
1491.057739 200.0
1491.28064 244.0
1491.803223 100.0
1493.917969 188.0
1495.934204 128.0
1497.882324 188.0
1500.78772 172.0
1502.901123 132.0
1503.263794 164.0
