>compound Minoxidil
>formula C9H15N5O
>ionization [M+H]+
>parentmass 210.135818
#inchi InChI=1S/C9H15N5O/c10-7-6-8(12-9(11)14(7)15)13-4-2-1-3-5-13/h6H,1-5,10H2,(H2,11,12)
#inchikey ZFMITUMMTDLWHR
#Ion_Source LC-ESI
#Instrument qTof
#Compound_Source Commercial
#PI Dorrestein
#Data_Collector Garg_Neha
#Scan -1
#Precursor_MZ 210.135
#ExactMass 209.128
#Charge 1
#CAS_Number 38304-91-5, 16317-69-4
#Pubmed_ID N/A
#Smiles C1CCN(CC1)C2=CC(=[N+](C(=N2)N)[O-])N
#INCHI_AUX N/A
#Library_Class 1
#SpectrumID CCMSLIB00000078127
#IonMode Positive
#UpdateWorkflowName UPDATE-SINGLE-ANNOTATED-GOLD
#LibraryQualityString Gold
#TaskID 77f51c88eb8b467eb4a01dd2d0cb90d2
##Scan# 1047
#SpectrumFile Plate2_41_60_GG7_01_16495.mzXML
#LibraryName FDALibrary_2_04302014.mgf
#MQScore -1
#Organism FDALibrary_2_04302014
#TIC_Query 0
#RT_Query -1
#MZErrorPPM -1
#SharedPeaks 0
#MassDiff 0
#LibMZ -1
#SpecMZ 210.135
#SpecCharge 0
#internalFilename spec-00000.mgf

>collision 10
45.177551 224.0
45.49382 264.0
45.692719 240.0
46.240578 144.0
47.420074 240.0
47.553116 140.0
47.579197 180.0
47.869316 180.0
48.0485 144.0
48.461895 140.0
48.877064 168.0
49.173897 232.0
49.853138 172.0
49.902336 148.0
50.021919 220.0
50.071198 180.0
50.758007 168.0
51.583778 184.0
51.891575 236.0
52.045101 180.0
53.20739 172.0
53.303253 432.0
53.402111 188.0
54.77364 216.0
55.008099 192.0
55.047962 200.0
56.034351 188.0
56.178967 164.0
56.272987 180.0
56.350651 148.0
56.494175 176.0
57.035515 168.0
57.481308 176.0
57.895515 172.0
59.06749 148.0
59.548786 160.0
60.726433 140.0
60.799355 180.0
61.018372 216.0
62.042534 156.0
62.131927 164.0
62.841492 144.0
63.447235 172.0
63.651913 188.0
63.880779 204.0
64.926987 140.0
65.402565 164.0
65.552116 172.0
66.200127 168.0
66.857613 372.0
67.227547 148.0
67.482361 212.0
67.515068 168.0
68.71254 160.0
69.150444 164.0
69.229904 144.0
69.440384 176.0
70.30217 180.0
70.422379 164.0
70.566093 200.0
70.691544 168.0
71.207901 192.0
71.317116 212.0
73.332787 152.0
74.639244 184.0
76.099312 164.0
76.147934 200.0
76.206993 192.0
77.151619 204.0
77.323044 212.0
77.405319 212.0
77.968445 196.0
78.352036 220.0
78.530075 204.0
79.815796 164.0
80.031097 216.0
80.246689 228.0
80.289482 204.0
80.57679 176.0
80.621544 212.0
81.038475 144.0
81.449669 172.0
82.362541 140.0
82.762215 168.0
82.863647 152.0
83.629982 168.0
84.732704 172.0
84.760445 160.0
84.967628 184.0
85.741768 144.0
85.774948 196.0
85.937233 172.0
86.203133 192.0
86.399124 144.0
86.450935 172.0
86.671295 172.0
87.164871 140.0
87.395447 220.0
87.861229 200.0
88.393738 156.0
88.466728 176.0
89.755608 180.0
89.838593 220.0
90.333534 180.0
90.687622 176.0
90.949379 152.0
91.262833 168.0
92.04818 212.0
92.803703 184.0
92.922623 192.0
93.320198 208.0
94.042404 156.0
94.05378 96.0
94.498665 160.0
94.732918 144.0
94.932556 212.0
96.703506 180.0
97.273903 144.0
97.354401 176.0
98.06266 216.0
98.388138 184.0
98.751732 172.0
99.272591 184.0
99.415421 220.0
99.951958 188.0
100.053726 184.0
100.186897 152.0
100.352318 152.0
100.814201 184.0
101.963768 256.0
102.426537 140.0
102.638153 172.0
102.676468 152.0
102.904495 180.0
103.632622 156.0
104.872261 180.0
104.947685 192.0
105.035271 216.0
105.308899 168.0
105.323196 152.0
105.81604 192.0
106.420876 224.0
108.055313 168.0
108.338943 180.0
108.529625 228.0
108.820099 168.0
109.616753 176.0
109.745995 152.0
110.058533 1400.0
110.129974 144.0
110.491623 184.0
111.065437 200.0
111.090782 156.0
111.114319 200.0
111.269165 152.0
111.285957 140.0
111.353157 192.0
111.634773 164.0
112.397331 212.0
112.462753 164.0
112.720406 144.0
113.022781 172.0
113.046875 560.0
113.151894 180.0
113.548149 156.0
113.690292 188.0
113.847908 180.0
114.361893 152.0
114.453438 156.0
114.598274 188.0
115.03334 144.0
115.341324 180.0
115.869522 188.0
115.916656 148.0
116.588348 176.0
116.629189 204.0
116.962585 228.0
118.829758 200.0
118.873917 240.0
120.665794 164.0
121.033379 192.0
121.096886 156.0
121.493645 204.0
121.746483 168.0
122.04052 184.0
122.070656 328.0
122.471855 144.0
123.069786 220.0
123.095993 172.0
123.498222 156.0
123.72393 196.0
124.074333 704.0
124.302422 180.0
124.71106 140.0
124.955673 184.0
125.070114 564.0
125.574951 196.0
126.056053 344.0
126.113045 140.0
126.417206 276.0
126.657036 164.0
126.68589 160.0
127.188187 212.0
127.203903 204.0
128.062851 164.0
129.377075 168.0
130.012665 196.0
130.129776 192.0
130.32283 216.0
131.003082 164.0
131.591492 332.0
131.80162 184.0
132.027924 172.0
132.064529 188.0
132.334564 236.0
133.098099 148.0
133.500229 248.0
133.67276 224.0
134.068863 180.0
134.237137 216.0
134.8004 192.0
134.936768 152.0
135.052338 184.0
135.070068 232.0
136.088089 232.0
136.441437 164.0
136.530121 196.0
136.632141 160.0
137.083008 3968.0
137.727768 140.0
137.828232 236.0
138.086655 1204.0
138.745712 172.0
139.086105 196.0
139.511047 160.0
139.983978 188.0
140.068756 168.0
140.191269 168.0
141.06694 176.0
141.102402 396.0
142.052399 320.0
143.088196 192.0
143.162018 148.0
143.324005 228.0
143.812881 168.0
143.891663 180.0
144.128113 140.0
145.291733 220.0
145.841644 220.0
145.858459 152.0
146.073486 192.0
146.698578 180.0
147.038681 180.0
147.067734 1012.0
147.466171 148.0
147.795059 220.0
148.90535 144.0
149.08371 324.0
149.474213 168.0
149.561966 208.0
150.029526 184.0
150.078537 3320.0
151.033173 148.0
151.084625 996.0
152.090622 464.0
152.669067 140.0
153.185944 208.0
153.720963 152.0
154.096283 156.0
154.484436 224.0
155.143158 152.0
155.366364 176.0
156.58934 180.0
157.417313 212.0
158.065964 192.0
158.62326 200.0
159.310837 244.0
160.312256 156.0
160.745987 160.0
160.945404 172.0
161.081787 344.0
161.901276 224.0
162.0746 632.0
162.137939 152.0
162.542633 196.0
162.611145 164.0
163.022568 140.0
163.07309 176.0
163.12207 160.0
163.403976 260.0
163.745087 160.0
163.994766 176.0
164.093613 15116.0
164.433456 268.0
164.693893 212.0
165.097351 1496.0
165.206726 148.0
165.822235 248.0
166.112885 272.0
166.482605 140.0
166.633133 192.0
167.10878 200.0
167.26062 140.0
167.528427 176.0
168.109604 440.0
170.413132 204.0
170.457291 152.0
170.631439 160.0
172.560776 152.0
173.042191 180.0
175.093384 148.0
175.151871 164.0
175.232635 196.0
175.41449 144.0
176.103806 356.0
176.488998 152.0
177.113876 216.0
177.489899 160.0
177.893173 160.0
178.109192 1064.0
178.360687 180.0
179.113815 136.0
180.862717 176.0
181.102158 244.0
182.141754 156.0
182.9431 148.0
183.101959 160.0
184.121414 204.0
186.084625 160.0
186.497543 192.0
187.436462 180.0
191.336792 148.0
191.659042 152.0
192.090027 136.0
192.124817 8892.0
192.688202 164.0
192.776611 244.0
193.097183 244.0
193.132629 16168.0
193.861404 184.0
194.133972 2352.0
195.130615 128.0
195.390884 96.0
195.508224 252.0
196.525314 244.0
197.62619 160.0
198.643158 204.0
199.547455 212.0
202.496353 164.0
203.801285 216.0
204.745712 140.0
207.102005 156.0
207.230911 176.0
207.546204 144.0
208.095062 124.0
208.893173 168.0
209.057755 340.0
209.125565 136.0
209.58989 144.0
209.862228 124.0
209.892563 176.0
209.930038 168.0
209.950226 180.0
209.985947 104.0
210.038589 228.0
210.070786 268.0
210.135818 58136.0
210.243042 136.0
210.307983 192.0
210.389908 100.0
210.450592 108.0
210.65007 188.0
211.023071 164.0
211.056229 156.0
211.137909 4952.0
211.366684 96.0
211.426498 208.0
212.143585 300.0
212.427612 116.0
212.451691 108.0
212.759415 108.0
212.797592 140.0
213.172287 192.0
225.123016 644.0
226.135269 172.0
988.420532 192.0
1155.980103 188.0
1189.953003 224.0
1343.121948 184.0
1343.997437 148.0
1384.769165 168.0
1404.935913 192.0
1415.332275 148.0
1451.062012 160.0
1473.239136 184.0
1493.160889 144.0
1564.684448 140.0
1612.630371 232.0
1645.760498 164.0
1652.355713 144.0
1671.130127 144.0
1674.875 148.0
1708.849121 188.0
1716.839233 216.0
1719.305908 216.0
1730.606079 156.0
1748.495117 140.0
1750.751221 188.0
1756.96106 264.0
1767.689331 144.0
1783.708496 192.0
1785.381714 236.0
1798.820679 264.0
1799.994141 216.0
1825.271362 160.0
1842.155273 168.0
1849.962891 176.0
1855.171387 172.0
1875.423584 176.0
1881.651855 140.0
1889.871338 192.0
1892.476685 164.0
1896.348999 144.0
1897.51062 168.0
1900.416138 184.0
1935.009399 180.0
1937.286377 144.0
1940.985107 144.0
1942.677734 180.0
1944.660889 220.0
1951.064575 188.0
1951.943848 184.0
1954.477173 152.0
1969.066772 160.0
1990.311523 140.0
1995.616089 184.0
