>compound MLS001146883-01!
>formula C8H13N3O4S
>ionization [M+H]+
>parentmass 248.06995334809054
#inchi InChI=1S/C8H13N3O4S/c1-3-16(14,15)5-4-10-7(2)9-6-8(10)11(12)13/h6H,3-5H2,1-2H3
#inchikey HJLSLZFTEKNLFI
#Ion_Source LC-ESI
#Instrument qTof
#Compound_Source NIH Pharmacologically Active Library
#PI Dorrestein
#Data_Collector VP/LMS
#Scan -1
#Precursor_MZ 248.072
#ExactMass 247.063
#Charge 1
#CAS_Number N/A
#Pubmed_ID N/A
#Smiles CCS(=O)(=O)CCn1c(C)ncc1[N+](=O)[O-]
#INCHI_AUX N/A
#Library_Class 3
#SpectrumID CCMSLIB00000085778
#IonMode Positive
#UpdateWorkflowName UPDATE-SINGLE-ANNOTATED-BRONZE
#LibraryQualityString Bronze
#TaskID d252d724072548979f1f6f1ced849daf
##Scan# 1221
#SpectrumFile p4-F04_GF4_01_18388.mzXML
#LibraryName Pharm_Active_Library.mgf
#MQScore -1
#Organism Pharm_Active_Library
#TIC_Query 0
#RT_Query -1
#MZErrorPPM -1
#SharedPeaks 0
#MassDiff 0
#LibMZ -1
#SpecMZ 248.072
#SpecCharge 0
#internalFilename spec-00000.mgf

>collision 10
45.652645 132.0
47.161713 152.0
47.569923 192.0
48.199352 144.0
49.857761 152.0
51.198986 148.0
51.290173 152.0
52.249672 120.0
53.103416 56.0
53.386623 176.0
55.314663 204.0
56.282547 240.0
56.348267 192.0
57.515148 192.0
63.351379 200.0
64.666695 152.0
66.572403 188.0
67.759911 156.0
68.974449 176.0
69.673782 200.0
69.884941 184.0
70.104744 180.0
70.876785 192.0
76.784416 100.0
78.50843 136.0
81.486595 200.0
83.67511 48.0
87.328163 216.0
88.155952 176.0
88.492653 156.0
90.064857 108.0
90.909286 232.0
92.918587 156.0
93.001389 192.0
93.102867 92.0
93.496986 224.0
95.058777 340.0
95.74865 108.0
95.807083 228.0
97.044258 96.0
97.071709 144.0
98.044968 240.0
103.549599 160.0
104.583084 152.0
107.059044 820.0
108.069801 196.0
109.074982 784.0
109.42112 188.0
109.938072 80.0
110.033646 208.0
110.081589 248.0
110.140594 64.0
110.472977 92.0
110.523186 112.0
111.041878 1172.0
111.064819 204.0
111.093071 160.0
111.74015 160.0
111.78434 108.0
112.061981 1144.0
113.065346 208.0
115.595749 56.0
120.277344 44.0
121.029564 528.0
121.073219 144.0
122.040962 120.0
123.028008 236.0
125.069489 656.0
127.804535 176.0
128.044617 4420.0
128.121994 36.0
128.254959 116.0
128.810059 84.0
129.045624 208.0
129.939743 52.0
129.960159 128.0
130.066833 104.0
133.052872 64.0
133.441147 100.0
153.897415 112.0
154.060532 336.0
156.075455 132.0
156.989349 204.0
167.911438 160.0
172.110397 108.0
178.080826 140.0
190.126694 92.0
191.947861 144.0
202.0755 272.0
203.08548 116.0
215.015549 76.0
239.247116 92.0
247.97937 164.0
248.07341 508.0
249.065018 132.0
250.865005 128.0
293.855286 136.0
310.90625 152.0
310.930817 76.0
382.391296 132.0
407.722626 128.0
739.613831 168.0
818.566223 200.0
892.71051 44.0
1013.295776 128.0
1033.377441 264.0
1088.957764 156.0
1133.046753 168.0
1138.419678 80.0
1174.515625 204.0
1202.373169 88.0
1219.223511 216.0
1237.521118 204.0
1297.235962 152.0
1327.628174 168.0
1354.252808 164.0
1373.872681 168.0
1376.175415 228.0
1382.014771 196.0
1382.976807 132.0
1390.433105 140.0
1409.064453 76.0
1419.686279 232.0
1423.168213 168.0
1429.256714 140.0
1434.641968 136.0
1454.332764 180.0
1466.517944 152.0
1470.728394 124.0
1484.2854 176.0
1492.51709 104.0
1494.216919 92.0
