>compound MLS002472955-01!(E)-1-[3-(2-hydroperoxy-3-methylbut-3-enyl)-2-hydroxy-4-methoxyphenyl]-3-(4-hydroxyphenyl)prop-2-en-1-one
>formula C21H22O6
>ionization [M+H]+
>parentmass 371.149
#inchi InChI=1S/C21H22O6/c1-13(2)20(27-25)12-17-19(26-3)11-9-16(21(17)24)18(23)10-6-14-4-7-15(22)8-5-14/h4-11,20,22,24-25H,1,12H2,2-3H3/b10-6+
#inchikey AJERVVHSERWGFL
#Ion_Source LC-ESI
#Instrument qTof
#Compound_Source NIH Natural Product Library
#PI Dorrestein
#Data_Collector VVP/LMS
#Scan -1
#Precursor_MZ 371.149
#ExactMass 370.142
#Charge 1
#CAS_Number N/A
#Pubmed_ID N/A
#Smiles COc1ccc(C(=O)/C=C/c2ccc(O)cc2)c(O)c1CC(OO)C(=C)C
#INCHI_AUX N/A
#Library_Class 1
#SpectrumID CCMSLIB00000079744
#IonMode Positive
#UpdateWorkflowName UPDATE-SINGLE-ANNOTATED-GOLD
#LibraryQualityString Gold
#TaskID b1d8e8f6646f4e71acdff9ca3d919d08
##Scan# 2378
#SpectrumFile p1-E10_GE10_01_17930.mzXML
#LibraryName NIH_Natural_Products_Library.mgf
#MQScore -1
#Organism NIH_Natural_Products_Library
#TIC_Query 0
#RT_Query -1
#MZErrorPPM -1
#SharedPeaks 0
#MassDiff 0
#LibMZ -1
#SpecMZ 371.149
#SpecCharge 0
#internalFilename spec-00000.mgf

>collision 10
95.011482 196.0
95.07357 252.0
95.153152 120.0
95.230827 256.0
95.602158 188.0
95.693642 152.0
95.999557 120.0
96.140007 140.0
96.532661 112.0
96.708733 116.0
96.916313 100.0
97.04567 124.0
97.169235 204.0
97.341766 204.0
97.424446 208.0
98.111259 208.0
98.142799 176.0
98.35981 116.0
98.513832 140.0
98.624489 176.0
98.685768 320.0
98.978607 180.0
99.162842 84.0
99.244118 212.0
99.272438 168.0
99.424629 220.0
99.567566 144.0
99.808014 160.0
100.096535 180.0
100.397438 208.0
100.688805 136.0
100.847641 120.0
100.942596 148.0
100.997993 212.0
101.038605 140.0
101.060432 224.0
101.224747 188.0
101.362709 192.0
101.457161 72.0
101.493248 100.0
101.607567 32.0
101.651711 164.0
101.673782 184.0
101.800255 220.0
102.085609 180.0
102.141922 140.0
102.168076 144.0
102.216362 144.0
102.607101 120.0
102.863297 148.0
102.986473 28.0
103.016769 140.0
103.054901 504.0
103.475838 132.0
103.694603 140.0
103.992744 96.0
104.027252 144.0
104.052505 292.0
104.541466 164.0
104.844894 104.0
104.999832 52.0
105.033081 3004.0
105.070137 408.0
105.13652 44.0
105.187546 200.0
105.204597 68.0
105.303925 176.0
105.340691 104.0
105.434677 236.0
105.46125 152.0
105.506218 196.0
105.616646 264.0
106.03788 428.0
106.06916 104.0
106.124512 156.0
106.182205 148.0
106.216331 88.0
106.721992 140.0
106.859795 208.0
107.046181 388.0
107.069756 160.0
107.207779 128.0
107.240753 180.0
107.323212 224.0
107.420143 64.0
107.50267 232.0
107.717392 28.0
107.766975 132.0
107.884773 136.0
107.988159 172.0
108.055389 192.0
108.329689 188.0
108.408424 148.0
108.441582 296.0
108.480965 156.0
108.601227 48.0
108.887642 80.0
108.991508 68.0
109.022682 236.0
109.061775 220.0
109.322136 156.0
109.376251 188.0
109.651176 124.0
109.715797 60.0
110.018288 184.0
110.032906 68.0
110.057953 132.0
110.170738 112.0
110.323288 152.0
110.452934 160.0
110.475945 128.0
110.72084 144.0
110.756439 212.0
110.84024 220.0
110.980675 172.0
111.077148 124.0
111.507576 116.0
111.753609 160.0
111.985161 200.0
112.248589 140.0
112.687614 128.0
112.875732 160.0
113.184662 168.0
113.354118 160.0
113.510979 128.0
113.708275 132.0
113.980087 212.0
114.497009 184.0
114.840149 168.0
115.05629 320.0
115.151749 152.0
115.430145 152.0
115.455231 132.0
116.057594 92.0
116.305794 132.0
116.479721 160.0
116.494759 196.0
116.834412 188.0
116.97644 200.0
117.071297 228.0
117.293083 196.0
117.343033 212.0
117.767509 192.0
117.789375 208.0
117.925499 188.0
118.081215 168.0
118.176346 228.0
118.475113 112.0
118.628975 172.0
118.765579 120.0
118.858864 204.0
118.878395 128.0
119.011032 308.0
119.048553 9328.0
119.134598 92.0
119.162834 96.0
119.185448 148.0
119.221504 32.0
119.287514 216.0
119.321495 52.0
119.513809 160.0
119.885239 84.0
120.019791 160.0
120.052307 1296.0
120.096718 104.0
120.190521 176.0
120.382614 212.0
120.661041 176.0
120.872261 92.0
120.935722 116.0
121.030418 140.0
121.063629 148.0
121.095551 204.0
121.117027 144.0
121.131241 164.0
121.964417 60.0
122.02816 144.0
122.043556 184.0
122.115509 172.0
122.32515 200.0
122.35157 60.0
122.424232 72.0
122.468277 40.0
122.644547 176.0
122.805496 84.0
122.979797 164.0
123.015121 216.0
123.042229 572.0
123.154228 100.0
123.348671 156.0
123.603004 164.0
123.802231 180.0
124.038544 212.0
124.077545 164.0
124.489677 80.0
124.707397 108.0
124.740738 164.0
124.84301 112.0
125.26812 132.0
125.586868 76.0
126.042282 92.0
126.127205 96.0
126.180855 164.0
126.599274 160.0
126.807625 164.0
126.908501 52.0
126.984741 188.0
127.057732 200.0
127.087929 184.0
127.368553 108.0
127.403618 164.0
127.692116 196.0
127.926208 132.0
128.034286 44.0
128.061432 1184.0
128.097351 80.0
128.530212 108.0
128.735626 180.0
128.952515 204.0
128.981888 172.0
129.024841 48.0
129.069046 2532.0
129.106247 212.0
129.167313 36.0
129.241959 152.0
129.613297 136.0
129.71756 44.0
129.781036 188.0
129.937531 152.0
130.074738 248.0
130.121353 112.0
130.18721 192.0
130.20311 48.0
130.507599 272.0
130.580368 96.0
130.630402 84.0
130.650879 140.0
130.67363 88.0
130.839767 164.0
130.878479 172.0
131.012817 308.0
131.048889 1024.0
131.081924 408.0
131.341095 56.0
131.690308 156.0
131.72229 68.0
131.946243 128.0
132.021896 240.0
132.054764 332.0
132.14064 184.0
132.273376 160.0
132.488632 168.0
132.720108 124.0
132.869186 132.0
132.960968 216.0
132.995392 220.0
133.028351 6400.0
133.063934 324.0
133.162994 60.0
133.213531 64.0
133.591431 132.0
133.758514 64.0
133.991104 208.0
134.032028 1040.0
134.1017 132.0
134.131668 132.0
134.222076 168.0
134.46611 160.0
134.609238 156.0
134.815796 48.0
135.043854 552.0
135.083023 192.0
135.164001 68.0
135.423279 192.0
135.6689 128.0
136.01738 276.0
136.046799 280.0
136.07486 280.0
136.242111 100.0
137.018448 736.0
137.060013 80.0
137.21489 64.0
137.576492 124.0
137.721268 204.0
137.777328 152.0
137.849762 68.0
138.06015 172.0
138.411163 120.0
138.493118 40.0
138.593857 160.0
138.614944 136.0
138.666504 108.0
139.039398 164.0
139.119202 76.0
139.332901 136.0
139.586746 128.0
139.71376 156.0
139.890244 48.0
139.942047 216.0
140.095123 388.0
140.33551 160.0
140.514755 180.0
140.53363 44.0
140.663422 128.0
140.891663 184.0
141.00827 56.0
141.068024 984.0
141.171402 140.0
141.266006 48.0
141.699234 36.0
141.815338 108.0
142.050079 152.0
142.075211 204.0
142.133118 60.0
142.289764 120.0
142.387115 32.0
142.731689 124.0
142.772125 120.0
142.80304 192.0
142.857742 244.0
143.052872 176.0
143.08017 188.0
143.291016 100.0
143.59137 140.0
143.827576 92.0
144.055771 344.0
144.075912 160.0
144.102203 156.0
144.408447 176.0
144.542145 112.0
144.692932 68.0
145.025894 156.0
145.063034 584.0
145.109802 76.0
145.316055 92.0
145.462448 132.0
145.721802 56.0
146.032928 132.0
146.071106 1380.0
146.831497 216.0
146.980774 132.0
147.005295 196.0
147.043472 10084.0
147.076172 676.0
147.121048 224.0
147.207962 28.0
147.283539 96.0
147.306992 68.0
147.347382 200.0
147.410873 104.0
147.705826 32.0
147.877625 120.0
147.946503 176.0
148.046387 1232.0
148.187576 176.0
148.342682 60.0
148.91774 72.0
148.992081 112.0
149.020874 508.0
149.044266 144.0
149.063507 224.0
149.097916 248.0
149.301727 116.0
149.325378 144.0
149.377136 172.0
150.027313 52.0
150.061447 184.0
150.112656 164.0
150.581207 204.0
150.779099 136.0
150.915985 28.0
151.034714 468.0
151.094528 208.0
151.309891 208.0
151.567062 56.0
151.99617 148.0
152.067337 120.0
152.16507 196.0
152.538925 56.0
152.925095 68.0
153.021103 388.0
153.166397 164.0
153.469513 160.0
153.642151 152.0
154.09642 32.0
154.346054 136.0
154.833542 132.0
154.932632 228.0
155.04837 176.0
155.170547 108.0
155.718933 184.0
155.785995 220.0
156.053101 496.0
156.362854 140.0
156.666626 152.0
156.831085 160.0
156.863495 160.0
156.920837 184.0
157.063812 1736.0
157.300018 84.0
157.569733 216.0
157.6297 188.0
157.647186 196.0
157.912186 44.0
157.987228 80.0
158.035263 768.0
158.072296 1760.0
158.345169 44.0
158.528046 40.0
158.926727 156.0
158.966873 184.0
159.043137 776.0
159.077927 564.0
159.511887 148.0
159.675308 124.0
160.014267 480.0
160.047226 348.0
160.086441 120.0
160.118256 56.0
160.182373 280.0
160.92012 140.0
160.990829 120.0
161.021301 184.0
161.059265 292.0
161.09433 2520.0
161.240921 72.0
161.38501 152.0
161.465927 48.0
161.483643 136.0
161.863235 52.0
162.070938 52.0
162.098679 764.0
162.168625 168.0
162.281311 168.0
162.738007 100.0
162.816711 228.0
163.012207 164.0
163.037766 17700.0
163.103821 52.0
163.180984 56.0
163.211487 104.0
163.241104 40.0
163.290482 116.0
163.330231 116.0
163.538757 164.0
163.671143 96.0
164.040894 1260.0
164.067703 240.0
164.10173 36.0
164.326172 56.0
164.640137 36.0
164.871689 176.0
164.900726 168.0
164.982529 56.0
165.015762 172.0
165.05191 544.0
165.11293 108.0
165.169189 88.0
165.240814 72.0
165.348297 192.0
165.44812 180.0
165.535172 68.0
165.691406 128.0
165.814407 164.0
166.073349 192.0
166.158005 152.0
166.178528 152.0
166.501968 112.0
166.985123 172.0
167.484451 140.0
167.662216 76.0
167.997406 56.0
168.289505 156.0
168.343262 96.0
169.095566 144.0
169.232758 104.0
169.572098 56.0
170.041534 176.0
170.075272 208.0
170.205078 88.0
170.405075 152.0
171.044601 708.0
171.078079 532.0
171.112488 232.0
172.047318 192.0
172.08522 284.0
172.259933 116.0
172.531708 60.0
172.722595 64.0
172.929306 76.0
173.023193 316.0
173.05925 304.0
173.563263 172.0
173.812454 136.0
173.964676 144.0
174.030304 128.0
174.06517 1464.0
174.190506 228.0
175.037476 3400.0
175.075302 624.0
175.121628 44.0
175.414093 56.0
175.452835 52.0
175.989212 164.0
176.015625 108.0
176.038681 736.0
176.077469 360.0
176.332626 36.0
176.369629 240.0
176.745163 44.0
177.020447 236.0
177.052582 824.0
177.086655 156.0
177.412582 64.0
177.441742 116.0
177.656555 196.0
177.773285 32.0
177.807785 228.0
177.834335 72.0
178.016342 208.0
178.053711 308.0
178.836349 204.0
178.870941 132.0
179.059982 104.0
179.082275 316.0
179.382385 60.0
179.587494 260.0
180.049423 168.0
180.993378 316.0
181.046387 808.0
181.722412 140.0
182.050705 332.0
182.071365 188.0
182.229843 132.0
183.04483 220.0
183.076675 180.0
183.848145 188.0
183.904831 108.0
184.047287 160.0
184.147812 160.0
184.72084 84.0
185.058624 4256.0
185.113281 40.0
185.151184 128.0
185.234741 52.0
185.244995 44.0
185.441071 76.0
185.655258 40.0
185.847839 76.0
185.88855 124.0
186.02948 328.0
186.063995 984.0
186.298523 120.0
186.570267 52.0
186.785095 60.0
187.038239 1916.0
187.072144 228.0
187.302277 84.0
187.34314 112.0
187.403076 128.0
188.041016 336.0
188.076645 312.0
188.243179 88.0
188.557343 44.0
188.803391 40.0
189.052856 560.0
189.087585 464.0
189.293228 148.0
189.393036 136.0
189.505783 208.0
189.558945 96.0
189.657593 136.0
190.065277 176.0
190.513733 156.0
190.994781 152.0
191.029114 164.0
191.069168 1228.0
191.349777 156.0
191.46817 80.0
191.72438 124.0
191.991791 108.0
192.040466 216.0
192.073959 212.0
192.411194 60.0
192.590683 120.0
192.701187 124.0
192.936096 184.0
192.974808 176.0
193.048447 2520.0
193.086746 132.0
193.259689 56.0
193.315018 56.0
194.056137 148.0
194.134995 200.0
194.273666 164.0
195.042862 132.0
195.079453 228.0
195.237473 96.0
196.078659 128.0
196.273361 100.0
196.331924 96.0
196.518814 52.0
196.538345 160.0
196.697418 128.0
197.063248 180.0
197.166641 80.0
197.367905 160.0
197.521729 128.0
198.063034 176.0
199.073669 1284.0
199.425583 156.0
199.546448 112.0
199.630814 136.0
200.054825 216.0
200.060608 148.0
200.07756 332.0
200.134491 200.0
200.703644 128.0
200.836197 148.0
200.88414 48.0
201.005463 164.0
201.054138 288.0
201.076828 164.0
201.296204 200.0
202.061096 788.0
203.0224 72.0
203.065247 316.0
204.066055 204.0
204.07576 112.0
204.088196 200.0
205.081772 480.0
205.16626 40.0
205.511353 168.0
205.645477 156.0
206.053665 568.0
206.087585 132.0
207.054977 296.0
207.087219 244.0
207.284149 128.0
207.981033 68.0
208.090118 160.0
208.406052 128.0
209.072433 184.0
209.600143 160.0
210.058548 124.0
211.080933 152.0
211.101181 168.0
211.659653 208.0
213.348221 208.0
213.988251 164.0
214.413544 104.0
214.45726 192.0
214.582611 184.0
214.623428 56.0
214.909256 224.0
215.070343 340.0
215.17778 88.0
215.42308 76.0
215.776688 76.0
216.519928 76.0
216.660522 168.0
216.692749 160.0
216.818741 144.0
216.918396 104.0
216.940628 144.0
217.006348 188.0
217.045441 312.0
217.084854 23544.0
217.165863 44.0
217.207291 52.0
217.237152 40.0
217.290833 76.0
217.334839 48.0
217.399033 64.0
217.478439 60.0
217.543396 320.0
217.596054 104.0
217.637314 80.0
217.675339 140.0
217.698822 72.0
217.748749 48.0
217.784393 60.0
217.920013 80.0
217.982391 68.0
218.088135 3896.0
218.148361 40.0
218.201263 52.0
218.371826 48.0
218.485703 84.0
218.563904 68.0
218.601288 80.0
218.721954 84.0
218.933929 148.0
218.960434 68.0
219.089508 428.0
219.28746 68.0
219.44075 76.0
219.555756 76.0
219.682037 88.0
219.715027 72.0
219.771088 112.0
219.912735 88.0
219.986526 44.0
220.076645 84.0
220.095764 160.0
220.134155 72.0
221.068069 236.0
222.073822 192.0
222.847366 48.0
223.077728 276.0
224.084305 160.0
225.099182 240.0
228.591385 148.0
229.079132 164.0
229.368408 144.0
229.41362 60.0
231.074631 156.0
231.129089 108.0
231.256195 56.0
231.343964 124.0
232.101395 56.0
233.077744 760.0
233.510452 56.0
233.982086 88.0
234.068237 452.0
234.105408 136.0
234.417648 84.0
237.048676 132.0
237.08844 160.0
238.380447 124.0
239.105774 264.0
241.082916 148.0
241.203537 76.0
242.091476 180.0
243.297607 68.0
244.092987 132.0
245.089569 212.0
246.474426 156.0
249.049576 112.0
249.085098 192.0
250.030502 144.0
250.106033 124.0
251.070129 188.0
251.101654 184.0
253.083939 316.0
255.059418 132.0
255.231094 156.0
257.088196 128.0
259.108978 156.0
261.099762 204.0
261.304962 64.0
261.562408 136.0
262.050476 152.0
262.348419 72.0
263.069611 312.0
263.096497 148.0
264.068054 160.0
264.107239 64.0
267.099274 128.0
269.081207 204.0
270.070312 160.0
270.957428 112.0
275.068085 208.0
275.586578 84.0
276.078735 144.0
276.086182 176.0
277.095917 164.0
278.100037 136.0
279.063385 112.0
279.089996 176.0
279.219696 76.0
279.782013 56.0
280.071716 196.0
282.090485 132.0
283.096588 520.0
284.076233 156.0
284.106415 92.0
284.36142 60.0
284.500519 88.0
285.083466 124.0
285.3591 64.0
286.469666 200.0
287.10379 252.0
288.116913 176.0
289.076141 132.0
289.597504 56.0
290.054932 64.0
291.113464 172.0
292.08548 176.0
293.112579 232.0
294.085541 124.0
295.059082 144.0
295.095276 520.0
295.130737 180.0
295.863037 96.0
295.928101 96.0
296.061646 48.0
296.099304 132.0
297.076172 144.0
300.526855 84.0
301.296753 60.0
304.712708 28.0
305.025482 156.0
305.121033 156.0
305.554077 92.0
306.114441 128.0
306.8078 88.0
307.094818 400.0
308.106018 124.0
308.151428 108.0
310.142609 164.0
312.505981 44.0
317.348297 40.0
318.853363 156.0
320.775391 188.0
321.096283 152.0
322.124237 160.0
324.669006 76.0
337.143494 496.0
338.148773 180.0
339.1539 176.0
353.0755 44.0
357.077148 84.0
358.040588 100.0
360.33017 44.0
361.025665 128.0
366.922485 56.0
368.934357 108.0
369.787354 100.0
370.020844 68.0
370.438293 108.0
371.154968 172.0
371.243164 188.0
385.598755 68.0
393.431152 20.0
395.490601 104.0
441.447632 56.0
456.251648 52.0
459.351807 92.0
463.284607 132.0
475.387482 80.0
475.778107 92.0
537.744141 72.0
547.018982 48.0
563.361755 76.0
569.22522 76.0
672.64978 32.0
691.87384 96.0
702.657959 196.0
727.221924 84.0
741.465698 168.0
745.503296 72.0
761.027344 116.0
799.65918 112.0
807.631531 204.0
858.802185 164.0
864.890442 36.0
868.265198 176.0
880.707214 32.0
902.702759 132.0
912.987244 176.0
926.210876 212.0
931.038635 48.0
938.626953 152.0
948.739502 208.0
962.014954 48.0
964.003723 244.0
979.713684 200.0
983.25531 156.0
997.441711 132.0
1002.073364 188.0
1002.275024 168.0
1007.075806 236.0
1008.01709 104.0
1013.16095 124.0
1031.865356 136.0
1034.104126 172.0
1038.672607 152.0
1040.514282 184.0
1045.611572 204.0
1047.710693 196.0
1049.81189 172.0
1052.896606 136.0
1061.16626 172.0
1067.158936 148.0
1078.266602 88.0
1087.901733 208.0
1089.622314 108.0
1092.949097 152.0
1096.360107 176.0
1096.933594 208.0
1101.077026 176.0
1105.096069 56.0
1116.418945 84.0
1122.192017 184.0
1127.558838 188.0
1128.735352 192.0
1130.401001 152.0
1138.861572 148.0
1144.241211 64.0
1150.328613 168.0
1155.85022 184.0
1158.748169 120.0
1163.223877 156.0
1168.50415 124.0
1170.682251 172.0
1182.684448 148.0
1184.711304 128.0
1184.930542 100.0
1185.821411 56.0
1185.93103 36.0
1192.574951 44.0
1196.943481 200.0
1200.843872 116.0
1201.043945 196.0
1205.600586 224.0
1210.145142 152.0
1212.604248 136.0
1216.078979 156.0
1216.828735 160.0
1217.516113 136.0
1221.324707 216.0
1227.285889 56.0
1227.787964 152.0
1231.361206 148.0
1233.72998 104.0
1235.394287 124.0
1239.637207 212.0
1241.053101 172.0
1243.066162 200.0
1243.122314 172.0
1245.059814 176.0
1246.48584 180.0
1248.109619 168.0
1249.136353 140.0
1251.508057 212.0
1265.296753 72.0
1266.14563 180.0
1267.230225 212.0
1270.342407 164.0
1274.282471 236.0
1274.40332 132.0
1275.511963 120.0
1283.91333 148.0
1284.904785 156.0
1285.811035 60.0
1286.353394 156.0
1289.810669 160.0
1289.996582 208.0
1294.02417 184.0
1296.086914 108.0
1300.009277 140.0
1300.655273 56.0
1310.118408 236.0
1312.907837 32.0
1314.668091 224.0
1315.310425 136.0
1315.974487 124.0
1317.455078 200.0
1318.033081 232.0
1318.835205 128.0
1320.230591 120.0
1323.675049 168.0
1326.957275 176.0
1327.878174 216.0
1329.562256 164.0
1330.875244 172.0
1335.92627 156.0
1339.799072 160.0
1341.183594 192.0
1341.832397 248.0
1342.2771 172.0
1343.713989 76.0
1346.093384 160.0
1346.889526 164.0
1351.378052 120.0
1351.51709 236.0
1352.087891 144.0
1352.753906 140.0
1355.038818 172.0
1357.941528 180.0
1358.741089 64.0
1360.164795 132.0
1364.690063 168.0
1365.44751 172.0
1365.800537 116.0
1366.403687 200.0
1368.280396 156.0
1368.972534 152.0
1371.094116 132.0
1371.632202 172.0
1376.021484 176.0
1376.235596 184.0
1381.845337 84.0
1382.518677 124.0
1382.851807 180.0
1384.347168 172.0
1385.650757 184.0
1388.259888 124.0
1389.966064 204.0
1393.492798 144.0
1395.848999 144.0
1396.585205 212.0
1398.33374 128.0
1399.889648 164.0
1400.522583 208.0
1401.044067 140.0
1403.040894 196.0
1403.182983 200.0
1403.39917 144.0
1414.966675 140.0
1416.177856 120.0
1417.856079 188.0
1417.968506 100.0
1419.752686 148.0
1420.532715 168.0
1420.607788 188.0
1421.695679 180.0
1422.27356 148.0
1422.513794 216.0
1424.203247 180.0
1424.676514 124.0
1424.999512 188.0
1425.953857 196.0
1428.615601 204.0
1430.256104 212.0
1430.316284 236.0
1430.369019 164.0
1430.888428 160.0
1433.291016 188.0
1435.348755 200.0
1438.208008 96.0
1441.855957 256.0
1445.387451 172.0
1446.197144 160.0
1446.272827 36.0
1451.917236 156.0
1453.093018 104.0
1453.457153 176.0
1458.226196 220.0
1458.560669 152.0
1461.450439 180.0
1464.928711 156.0
1465.325806 160.0
1467.0177 116.0
1467.711426 172.0
1468.268066 156.0
1468.565552 156.0
1469.099487 124.0
1469.221558 200.0
1470.037964 168.0
1472.060791 192.0
1475.934937 152.0
1476.378418 124.0
1476.638428 44.0
1479.117432 176.0
1485.738281 152.0
1488.376709 136.0
1489.131104 200.0
1490.490845 120.0
1490.721313 128.0
1491.436035 108.0
1491.52063 52.0
1493.012085 92.0
1493.389038 176.0
1494.289062 176.0
1497.275635 144.0
1497.629883 180.0
1503.327271 96.0
