>compound MLS001140587-01!N-cyclopentyl-2-(4-methyl-2-oxochromen-7-yl)oxyacetamide
>formula C17H19NO4
>ionization [M+H]+
>parentmass 302.136963
#inchi InChI=1S/C17H19NO4/c1-11-8-17(20)22-15-9-13(6-7-14(11)15)21-10-16(19)18-12-4-2-3-5-12/h6-9,12H,2-5,10H2,1H3,(H,18,19)
#inchikey XTOJWOBUZUCTGY
#Ion_Source LC-ESI
#Instrument qTof
#Compound_Source NIH Natural Product Library
#PI Dorrestein
#Data_Collector VVP/LMS
#Scan -1
#Precursor_MZ 302.139
#ExactMass 301.131
#Charge 1
#CAS_Number N/A
#Pubmed_ID N/A
#Smiles Cc1cc(=O)oc2cc(OCC(=O)NC3CCCC3)ccc12
#INCHI_AUX N/A
#Library_Class 1
#SpectrumID CCMSLIB00000079410
#IonMode Positive
#UpdateWorkflowName UPDATE-SINGLE-ANNOTATED-GOLD
#LibraryQualityString Gold
#TaskID b1d8e8f6646f4e71acdff9ca3d919d08
##Scan# 1973
#SpectrumFile p1-H05_GH5_01_17961.mzXML
#LibraryName NIH_Natural_Products_Library.mgf
#MQScore -1
#Organism NIH_Natural_Products_Library
#TIC_Query 0
#RT_Query -1
#MZErrorPPM -1
#SharedPeaks 0
#MassDiff 0
#LibMZ -1
#SpecMZ 302.139
#SpecCharge 0
#internalFilename spec-00000.mgf

>collision 10
95.033081 164.0
95.21167 184.0
95.279655 144.0
95.867279 132.0
96.060303 196.0
96.138351 136.0
96.36274 196.0
96.556839 208.0
97.09893 104.0
97.538742 64.0
97.554466 208.0
97.715736 212.0
97.818069 132.0
97.959846 176.0
97.97364 192.0
97.991371 168.0
98.096046 340.0
98.155487 56.0
98.549736 136.0
98.701935 64.0
98.717758 40.0
99.056198 64.0
99.095825 124.0
99.177071 144.0
99.228615 188.0
100.174591 180.0
100.425751 84.0
100.543457 168.0
100.563416 60.0
100.6912 140.0
100.817062 216.0
100.927002 152.0
101.029007 108.0
101.363373 88.0
101.401443 156.0
102.044502 140.0
102.811272 116.0
102.896049 88.0
102.92028 236.0
103.05407 3116.0
103.074867 120.0
103.217308 128.0
103.235512 100.0
103.413544 36.0
103.464149 180.0
103.528946 212.0
103.589706 144.0
103.642387 152.0
103.676834 64.0
103.82077 260.0
103.958717 148.0
104.056107 364.0
104.543991 100.0
104.617264 64.0
104.645767 144.0
104.759811 152.0
104.831123 220.0
104.994217 136.0
105.069962 5852.0
105.096626 188.0
105.161514 96.0
105.53241 136.0
105.580345 216.0
105.641708 108.0
105.918053 136.0
105.936493 172.0
106.04509 188.0
106.07412 572.0
106.098389 156.0
106.190666 224.0
106.393806 176.0
106.40818 172.0
106.519073 152.0
106.658806 120.0
106.71431 112.0
106.765717 44.0
106.786285 164.0
107.00235 160.0
107.047279 376.0
107.336143 220.0
107.447525 164.0
107.95771 104.0
108.048264 144.0
108.30127 220.0
108.344772 136.0
108.427658 96.0
108.489845 176.0
108.599747 160.0
108.657829 156.0
108.807259 84.0
108.903458 196.0
109.014969 92.0
109.02951 160.0
109.066971 172.0
109.445557 60.0
109.460136 116.0
109.510117 164.0
109.847794 256.0
109.908295 148.0
110.062759 124.0
110.432655 128.0
110.578133 168.0
111.023262 120.0
111.102966 136.0
111.191101 32.0
111.215851 232.0
111.367462 212.0
111.472504 212.0
111.617546 168.0
112.183907 220.0
112.398933 160.0
112.610825 124.0
112.654503 136.0
112.673515 68.0
112.844711 52.0
112.918724 100.0
112.948334 200.0
113.001221 188.0
113.278557 120.0
113.306091 172.0
113.528656 208.0
113.63047 140.0
113.846985 176.0
113.948936 156.0
114.055191 172.0
114.176384 112.0
114.342331 76.0
114.634087 132.0
114.676712 232.0
114.823822 136.0
115.024391 172.0
115.055519 1368.0
115.133278 132.0
115.199493 124.0
115.229401 92.0
115.280739 156.0
115.370453 184.0
115.400391 44.0
115.490204 132.0
115.712761 152.0
115.939819 136.0
116.059624 216.0
116.089882 172.0
116.407478 116.0
116.461174 148.0
116.618019 168.0
116.699707 160.0
116.719063 116.0
116.817993 168.0
116.865326 236.0
117.071976 184.0
117.158127 212.0
117.183983 52.0
117.261559 184.0
117.311134 148.0
117.500916 104.0
117.539749 84.0
117.572121 132.0
117.818275 92.0
118.218285 152.0
118.311356 44.0
119.047432 188.0
119.076797 108.0
119.174553 208.0
119.189766 128.0
119.250267 204.0
119.283218 160.0
119.387581 160.0
120.050919 100.0
120.431541 136.0
120.56044 148.0
120.67411 176.0
120.796577 196.0
120.938812 140.0
120.997917 96.0
121.064522 7452.0
121.116165 64.0
121.153793 248.0
121.276115 100.0
121.313385 56.0
121.341881 156.0
121.396698 80.0
121.49321 84.0
121.565613 60.0
121.655602 72.0
121.765396 20.0
121.807129 156.0
121.846672 52.0
121.941154 156.0
122.067589 784.0
122.097252 56.0
122.158844 144.0
122.24025 184.0
122.383324 236.0
122.43177 128.0
122.460403 132.0
123.451332 172.0
123.533165 116.0
123.789909 136.0
123.944969 272.0
124.968575 180.0
125.008629 172.0
125.148865 216.0
125.49868 132.0
125.712822 144.0
125.833351 144.0
126.061188 136.0
126.091461 496.0
126.157295 160.0
126.732483 56.0
126.759369 196.0
126.817635 128.0
127.062065 156.0
127.091232 136.0
127.425774 160.0
127.857513 140.0
127.873268 140.0
127.925034 168.0
127.983574 112.0
128.012848 112.0
128.132217 132.0
128.463623 152.0
128.72995 152.0
128.786407 116.0
129.073425 172.0
129.098297 220.0
129.120911 96.0
129.29512 216.0
129.752686 104.0
129.786697 196.0
129.949997 132.0
130.038498 176.0
130.413269 188.0
131.047989 1684.0
131.21228 48.0
131.488281 228.0
131.600143 204.0
131.954285 124.0
132.004593 172.0
132.020599 248.0
132.055664 204.0
132.244797 80.0
132.437134 128.0
132.453171 172.0
132.498978 132.0
132.764877 48.0
132.877274 120.0
133.062714 2164.0
133.152725 76.0
133.177994 68.0
133.221634 164.0
133.343414 44.0
133.541153 108.0
133.874863 120.0
133.89328 132.0
133.934738 220.0
134.037811 184.0
134.067017 332.0
134.400436 160.0
134.626648 76.0
134.772186 96.0
134.978058 156.0
135.039886 296.0
135.132874 144.0
135.324982 112.0
135.440765 168.0
135.965286 140.0
136.206238 160.0
137.022369 200.0
137.503128 176.0
137.545151 212.0
138.185471 172.0
138.232269 180.0
138.325882 196.0
138.536636 208.0
138.771011 60.0
138.787415 112.0
139.797501 160.0
140.155426 88.0
140.704971 152.0
140.91954 260.0
141.59407 172.0
141.771759 184.0
141.978012 192.0
142.101349 160.0
142.400452 144.0
142.523987 132.0
142.595276 64.0
142.735535 212.0
142.804504 84.0
142.94487 160.0
143.001984 116.0
143.218658 128.0
143.421188 52.0
144.086975 160.0
144.287735 112.0
144.366638 120.0
144.756699 212.0
144.948334 172.0
145.447189 164.0
145.612854 220.0
145.783432 200.0
145.867554 40.0
146.199463 124.0
146.343903 92.0
146.428177 176.0
146.736618 132.0
146.912674 188.0
147.043365 352.0
147.105728 76.0
147.289246 100.0
147.371201 248.0
147.736465 156.0
147.821136 176.0
147.930054 180.0
148.051651 796.0
148.155273 100.0
148.683868 128.0
148.71785 124.0
148.868378 128.0
148.885376 60.0
148.941238 132.0
149.058823 992.0
149.225571 28.0
149.483398 124.0
149.668396 84.0
150.041168 172.0
150.059097 148.0
150.514511 160.0
151.260193 244.0
151.517319 228.0
151.661896 72.0
151.926743 136.0
152.277756 188.0
152.297394 132.0
152.319504 184.0
152.565247 140.0
152.720169 128.0
153.207565 176.0
153.582825 172.0
153.737686 204.0
153.885788 220.0
153.954926 156.0
154.211868 180.0
154.441818 184.0
154.671936 164.0
155.102936 72.0
155.63385 224.0
155.748077 156.0
156.529007 132.0
156.606201 180.0
156.673462 196.0
157.716537 44.0
157.991608 164.0
158.429718 88.0
158.464798 136.0
158.672821 96.0
159.042328 1416.0
159.081741 204.0
159.639526 96.0
159.805542 164.0
159.942535 228.0
160.048279 156.0
160.073715 148.0
160.43013 160.0
161.030685 32.0
161.05864 744.0
161.268173 40.0
161.485626 192.0
161.516449 192.0
161.738647 112.0
162.06192 264.0
162.108414 104.0
162.245285 136.0
162.263031 220.0
162.767944 52.0
162.798416 64.0
163.065186 72.0
163.199905 128.0
163.245682 184.0
163.344879 204.0
163.383026 148.0
163.861664 140.0
163.902435 260.0
163.9534 76.0
164.057907 88.0
164.33844 128.0
164.744385 160.0
165.033188 144.0
165.181519 204.0
165.260818 216.0
165.432297 188.0
165.480942 168.0
165.806259 184.0
166.070343 144.0
166.234528 52.0
166.383408 132.0
166.617111 320.0
166.884399 224.0
167.677261 216.0
167.764908 128.0
167.924774 156.0
168.175049 48.0
168.963196 172.0
169.053757 52.0
169.136581 112.0
169.346313 176.0
169.62616 192.0
170.241058 176.0
170.298203 100.0
170.703629 144.0
171.099121 144.0
171.130356 144.0
171.195465 236.0
171.523743 68.0
171.617599 68.0
172.134247 172.0
172.162964 244.0
172.86618 140.0
173.449051 216.0
173.699341 92.0
173.814774 48.0
173.896133 32.0
174.274277 148.0
175.039719 152.0
175.18721 112.0
175.247803 184.0
175.666992 128.0
175.999527 124.0
176.018021 208.0
176.044144 376.0
176.115738 204.0
176.134216 52.0
176.231964 196.0
176.379959 164.0
176.432831 80.0
176.456635 144.0
176.501572 156.0
176.562393 184.0
176.607361 192.0
176.628525 144.0
176.713181 160.0
176.742279 84.0
176.811081 132.0
176.877258 136.0
176.899429 260.0
176.95932 188.0
176.98291 188.0
177.053772 93612.0
177.094894 360.0
177.140549 120.0
177.172821 104.0
177.193512 60.0
177.224792 52.0
177.260727 196.0
177.285278 100.0
177.307663 40.0
177.328064 100.0
177.348969 120.0
177.374603 100.0
177.381989 132.0
177.410797 136.0
177.455383 128.0
177.489639 156.0
177.531677 136.0
177.567535 108.0
177.602264 240.0
177.669601 88.0
177.689377 44.0
177.715164 92.0
177.770432 52.0
177.796967 44.0
177.875656 68.0
177.931778 112.0
177.972763 144.0
177.990067 124.0
178.056351 9468.0
178.125473 220.0
178.146912 156.0
178.1707 64.0
178.217743 140.0
178.251068 164.0
178.370667 80.0
178.406616 92.0
178.450424 100.0
178.505203 60.0
178.526688 112.0
178.553116 104.0
178.609985 172.0
178.696182 112.0
178.787292 96.0
178.828171 44.0
178.868103 48.0
178.892059 56.0
178.91069 116.0
178.929321 176.0
178.966599 172.0
178.99057 152.0
179.058319 1428.0
179.117447 100.0
179.181381 112.0
179.21431 152.0
179.256943 84.0
179.28093 60.0
179.303253 32.0
179.332794 52.0
179.484818 140.0
179.517334 88.0
179.536438 104.0
179.64621 100.0
179.739594 76.0
179.819656 36.0
179.918411 92.0
179.953125 108.0
180.064789 396.0
180.137405 72.0
180.176132 68.0
180.300385 60.0
180.330704 136.0
180.557037 76.0
180.853165 88.0
181.027008 132.0
181.207504 80.0
181.295929 76.0
181.711563 44.0
182.151825 76.0
183.195572 72.0
183.958725 40.0
184.066727 64.0
184.163956 40.0
185.327209 120.0
185.503372 80.0
186.089371 88.0
186.52948 112.0
186.823166 68.0
187.049026 136.0
187.187881 76.0
187.632004 52.0
187.940216 96.0
188.194046 56.0
188.431671 32.0
188.568298 112.0
189.025009 204.0
189.053329 1692.0
190.059097 392.0
190.159576 112.0
190.20076 40.0
190.717148 76.0
190.997604 76.0
191.053696 176.0
191.388397 68.0
192.042404 140.0
192.712357 72.0
194.340408 48.0
194.484711 136.0
196.44368 92.0
202.560745 136.0
205.186615 124.0
205.374832 56.0
205.454697 116.0
210.760605 88.0
211.564651 96.0
213.037842 104.0
213.595978 104.0
217.048065 64.0
217.605545 112.0
218.046173 164.0
222.248398 72.0
224.360077 92.0
226.814346 88.0
231.61145 120.0
231.838684 56.0
232.463394 244.0
234.072952 368.0
235.077408 124.0
236.088577 140.0
236.379196 56.0
237.782776 180.0
239.436813 108.0
242.002945 128.0
245.01561 128.0
246.994781 144.0
251.04007 168.0
253.483658 180.0
253.816498 104.0
263.295593 56.0
267.637726 100.0
271.454376 92.0
274.89856 84.0
276.746338 80.0
285.765045 60.0
291.017487 176.0
291.265411 108.0
291.496429 44.0
299.936432 48.0
301.109558 136.0
301.769562 88.0
302.136963 2088.0
302.710724 100.0
302.863129 60.0
302.921997 60.0
303.098694 140.0
303.141968 236.0
303.473053 60.0
304.150909 80.0
304.524536 44.0
305.483887 84.0
333.51825 40.0
348.681946 48.0
349.524567 44.0
357.732361 92.0
375.12735 52.0
390.898163 100.0
398.350983 144.0
403.264038 72.0
408.070496 48.0
413.354462 40.0
421.474915 96.0
421.515778 60.0
421.613861 80.0
423.901459 60.0
436.84967 72.0
444.046692 72.0
458.403992 104.0
471.692047 48.0
473.799561 76.0
485.783936 72.0
491.869751 60.0
495.039795 152.0
508.912262 72.0
514.851807 32.0
522.152893 76.0
593.037476 76.0
738.249756 84.0
787.789612 208.0
790.311035 108.0
818.227539 184.0
848.563965 148.0
892.450073 160.0
898.584839 36.0
926.057434 136.0
926.869263 104.0
936.644531 36.0
938.60083 208.0
949.590332 180.0
963.483521 284.0
968.723328 68.0
969.466858 148.0
975.518433 200.0
995.016357 208.0
1025.208008 76.0
1037.544312 172.0
1038.11499 136.0
1038.769165 168.0
1041.195435 160.0
1051.044678 196.0
1053.058838 128.0
1055.721436 160.0
1055.792603 164.0
1057.610718 160.0
1061.575684 204.0
1065.476685 180.0
1070.602173 144.0
1076.621582 180.0
1077.091797 64.0
1077.784302 196.0
1078.019531 204.0
1079.0 156.0
1100.847778 116.0
1103.695801 92.0
1104.529053 60.0
1105.117798 148.0
1110.251587 140.0
1120.647949 184.0
1124.255493 40.0
1124.81604 184.0
1127.040039 180.0
1127.180298 100.0
1127.968994 36.0
1130.068848 164.0
1132.331543 92.0
1133.021484 132.0
1144.26416 140.0
1148.233154 208.0
1150.37207 124.0
1152.11438 128.0
1160.316772 116.0
1161.035522 204.0
1165.291626 200.0
1166.079956 164.0
1170.726562 132.0
1172.906738 188.0
1178.837646 128.0
1185.174072 172.0
1194.421631 44.0
1196.609985 96.0
1197.732544 80.0
1201.137695 124.0
1210.564941 168.0
1213.294922 148.0
1215.549072 60.0
1218.743164 204.0
1219.27832 152.0
1220.779907 56.0
1223.952271 200.0
1224.621582 144.0
1227.799683 164.0
1228.294922 140.0
1228.38562 252.0
1230.175171 188.0
1233.699829 160.0
1235.0354 84.0
1236.301758 144.0
1236.72876 144.0
1241.941772 136.0
1254.761353 244.0
1256.89856 136.0
1259.079834 124.0
1259.976929 148.0
1260.803589 232.0
1263.398682 172.0
1264.283081 128.0
1265.536011 132.0
1267.051636 92.0
1267.56189 196.0
1271.469238 132.0
1271.909302 192.0
1272.818115 176.0
1273.762695 92.0
1278.0354 164.0
1279.786377 124.0
1281.638306 168.0
1283.584229 128.0
1290.395996 164.0
1290.588989 148.0
1291.082397 124.0
1291.704712 192.0
1293.851562 188.0
1301.587891 224.0
1302.550171 168.0
1307.806396 100.0
1308.46875 144.0
1313.477173 192.0
1315.966919 156.0
1318.827637 60.0
1321.4021 172.0
1321.474365 108.0
1323.059448 64.0
1324.319336 188.0
1324.399048 100.0
1325.203247 180.0
1325.804688 208.0
1326.783203 128.0
1329.104126 188.0
1330.548462 188.0
1331.107544 148.0
1333.977417 176.0
1337.010376 176.0
1337.243286 164.0
1337.687378 48.0
1342.364868 232.0
1347.401123 224.0
1352.629883 152.0
1355.86731 176.0
1362.074463 84.0
1367.022583 128.0
1370.166626 168.0
1372.031128 160.0
1372.687378 220.0
1377.004639 140.0
1380.736816 56.0
1382.090576 212.0
1383.104492 56.0
1387.237915 148.0
1389.996948 124.0
1390.509033 164.0
1392.357666 228.0
1393.055786 152.0
1393.457031 112.0
1396.820679 44.0
1402.2229 68.0
1404.273193 156.0
1404.966919 184.0
1406.690796 120.0
1409.319702 164.0
1411.449951 236.0
1411.592041 156.0
1415.24353 236.0
1417.093628 204.0
1418.502563 84.0
1418.974854 120.0
1419.822144 152.0
1420.144653 228.0
1420.737183 184.0
1421.997803 184.0
1422.778564 216.0
1425.93335 48.0
1426.414429 188.0
1428.978882 148.0
1431.507935 88.0
1431.89209 156.0
1434.099609 164.0
1437.885864 196.0
1438.229614 208.0
1438.942627 172.0
1440.105591 140.0
1444.376099 164.0
1444.966187 196.0
1445.904541 168.0
1450.289795 216.0
1450.734497 140.0
1456.519409 196.0
1457.073975 132.0
1459.430054 72.0
1463.021118 200.0
1463.538818 176.0
1468.248169 160.0
1468.721069 124.0
1469.453491 104.0
1469.651855 136.0
1469.834961 172.0
1472.216675 248.0
1474.22583 156.0
1475.25769 192.0
1478.500732 136.0
1479.312134 156.0
1479.549438 132.0
1479.932251 152.0
1480.011353 256.0
1482.222412 156.0
1483.763062 156.0
1488.443359 184.0
1493.300293 140.0
1494.908203 120.0
1495.924194 48.0
1497.548828 152.0
1500.600464 192.0
1501.286743 188.0
1501.710938 156.0
1502.474609 196.0
