>compound MLS001163935-01!(+/-)-Vesamicol hydrochloride
>formula C17H25NO
>ionization [M+H]+
>parentmass 260.201904
#inchi InChI=1S/C17H25NO/c19-17-9-5-4-8-16(17)18-12-10-15(11-13-18)14-6-2-1-3-7-14/h1-3,6-7,15-17,19H,4-5,8-13H2/t16-,17-/m1/s1
#inchikey YSSBJODGIYRAMI
#origInchi InChI=1S/C17H25NO.ClH/c19-17-9-5-4-8-16(17)18-12-10-15(11-13-18)14-6-2-1-3-7-14;/h1-3,6-7,15-17,19H,4-5,8-13H2;1H/t16-,17-;/m1./s1
#Ion_Source LC-ESI
#Instrument qTof
#Compound_Source NIH Pharmacologically Active Library
#PI Dorrestein
#Data_Collector VP/LMS
#Scan -1
#Precursor_MZ 260.204
#ExactMass 259.194
#Charge 1
#CAS_Number N/A
#Pubmed_ID N/A
#Smiles O[C@@H]1CCCC[C@H]1N2CCC(CC2)c3ccccc3.Cl
#INCHI_AUX N/A
#Library_Class 1
#SpectrumID CCMSLIB00000084863
#IonMode Positive
#UpdateWorkflowName UPDATE-SINGLE-ANNOTATED-GOLD
#LibraryQualityString Gold
#TaskID d252d724072548979f1f6f1ced849daf
##Scan# 1441
#SpectrumFile p3-B09_GB9_01_18242.mzXML
#LibraryName Pharm_Active_Library.mgf
#MQScore -1
#Organism Pharm_Active_Library
#TIC_Query 0
#RT_Query -1
#MZErrorPPM -1
#SharedPeaks 0
#MassDiff 0
#LibMZ -1
#SpecMZ 260.204
#SpecCharge 0
#internalFilename spec-00000.mgf

>collision 10
44.888214 56.0
44.920223 176.0
44.949574 164.0
45.047039 36.0
45.096481 176.0
45.132576 128.0
45.423199 176.0
45.437958 148.0
45.550724 212.0
45.833256 112.0
45.844036 180.0
45.892567 88.0
45.973499 120.0
46.029354 128.0
46.120716 180.0
46.372475 188.0
46.512184 148.0
46.559704 132.0
46.570568 228.0
46.760921 212.0
46.838531 212.0
46.976212 160.0
47.253544 52.0
47.312397 144.0
47.387722 72.0
47.483681 128.0
47.531696 172.0
47.571499 184.0
47.64291 200.0
47.710251 236.0
47.748753 148.0
47.895031 144.0
47.985603 184.0
48.039387 168.0
48.065601 156.0
48.082161 244.0
48.119434 92.0
48.297703 152.0
48.307388 204.0
48.411194 212.0
48.694115 152.0
48.719116 168.0
48.768032 240.0
48.89571 164.0
48.952789 60.0
48.980644 192.0
48.991791 216.0
49.023834 108.0
49.101906 60.0
49.121433 200.0
49.157711 60.0
49.189812 136.0
49.259632 108.0
49.283382 76.0
49.374249 196.0
49.388233 172.0
49.547821 156.0
49.59967 208.0
49.681004 196.0
49.842468 144.0
49.978863 76.0
50.177456 100.0
50.359547 228.0
50.47821 136.0
50.495182 88.0
50.53479 128.0
50.550354 140.0
50.568752 124.0
50.682045 132.0
50.781281 160.0
50.806812 232.0
50.831787 220.0
50.863579 120.0
50.880611 132.0
50.930313 124.0
50.994255 204.0
51.153564 184.0
51.268932 64.0
51.502922 132.0
51.515778 168.0
51.657303 84.0
51.7542 176.0
51.76894 160.0
51.821941 168.0
51.839138 108.0
51.862068 100.0
51.90221 168.0
51.946671 156.0
51.989712 92.0
52.18507 176.0
52.218147 156.0
52.235405 128.0
52.245476 124.0
52.267059 96.0
52.314552 172.0
52.393761 140.0
52.488888 160.0
52.530716 52.0
52.569672 148.0
52.779129 116.0
52.871708 196.0
52.891731 168.0
52.920925 160.0
52.987553 144.0
53.349102 160.0
53.5439 64.0
53.756161 96.0
54.170517 108.0
54.192493 132.0
54.22913 184.0
54.258446 152.0
54.387539 136.0
54.435989 104.0
54.766899 180.0
54.940842 132.0
55.08699 184.0
55.109154 28.0
55.163834 196.0
55.178238 124.0
55.19862 196.0
55.283638 196.0
55.526604 192.0
55.753754 172.0
55.767128 220.0
55.787941 176.0
56.006683 180.0
56.115273 180.0
56.184078 196.0
56.219887 164.0
56.340832 212.0
56.42004 148.0
56.628036 140.0
56.949158 200.0
57.006062 160.0
57.021126 240.0
57.215172 164.0
57.421612 112.0
57.438202 104.0
57.631443 100.0
57.705505 120.0
57.749359 152.0
57.781124 120.0
57.918884 128.0
57.937061 132.0
58.32402 168.0
58.360508 128.0
58.430473 164.0
58.477646 160.0
58.497433 152.0
58.797981 244.0
59.141594 200.0
59.181396 160.0
59.218151 76.0
59.294758 140.0
59.441978 164.0
59.454254 144.0
59.50491 136.0
59.534084 132.0
59.558659 164.0
59.60936 164.0
59.626263 128.0
59.732357 224.0
59.826225 28.0
59.880119 184.0
59.935577 192.0
60.032692 156.0
60.087708 216.0
60.219433 168.0
60.298229 164.0
60.318321 156.0
60.353203 192.0
60.429672 112.0
60.533379 104.0
60.692982 180.0
60.793812 140.0
60.810883 152.0
60.893169 160.0
61.039253 56.0
61.160603 120.0
61.227551 120.0
61.784801 64.0
61.86618 100.0
61.947613 84.0
62.148289 160.0
62.168686 188.0
62.214207 88.0
62.272305 124.0
62.308434 128.0
62.353928 84.0
62.383869 160.0
62.418457 88.0
62.527004 40.0
62.583675 176.0
62.712856 252.0
62.768032 140.0
62.785378 172.0
62.876884 116.0
63.001625 224.0
63.294224 180.0
63.493896 148.0
63.570045 220.0
63.817841 232.0
64.023117 68.0
64.123482 200.0
64.329247 164.0
64.356392 128.0
64.474594 32.0
64.60891 244.0
64.653717 136.0
64.833076 80.0
65.025536 64.0
65.11705 132.0
65.234344 148.0
65.321182 96.0
65.655037 156.0
65.95166 104.0
65.964592 64.0
66.199188 112.0
66.229965 248.0
66.322319 136.0
66.336906 172.0
66.366089 216.0
66.630646 128.0
66.759056 152.0
66.781822 156.0
66.965744 40.0
67.118935 224.0
67.178749 136.0
67.337608 188.0
67.39315 204.0
67.412758 156.0
67.563187 176.0
67.648285 112.0
67.689217 172.0
67.797142 172.0
67.857979 156.0
67.887627 192.0
67.905533 208.0
67.943115 176.0
68.197792 44.0
68.260262 136.0
68.909691 164.0
68.927864 172.0
68.967529 204.0
68.99894 136.0
69.018776 168.0
69.041931 144.0
69.118027 136.0
69.13623 168.0
69.187538 196.0
69.31176 148.0
69.452675 128.0
69.668472 52.0
69.736603 160.0
69.81308 192.0
69.833038 136.0
70.041092 204.0
70.167747 160.0
70.216103 128.0
70.4832 156.0
70.903236 96.0
71.012215 136.0
71.050797 180.0
71.092743 136.0
71.227058 212.0
71.364861 160.0
71.443909 164.0
71.482605 200.0
71.65435 180.0
72.000145 148.0
72.099823 176.0
72.294304 240.0
72.351852 104.0
72.409424 184.0
72.429749 120.0
72.560234 176.0
72.582275 164.0
72.631462 188.0
72.774017 56.0
72.86573 236.0
73.253609 228.0
73.359261 208.0
73.422348 164.0
73.476929 136.0
73.504227 140.0
73.517883 120.0
73.630974 332.0
73.857925 144.0
73.926308 128.0
73.97081 128.0
74.198654 188.0
74.26725 216.0
74.36161 164.0
74.442299 56.0
74.538498 104.0
74.553963 164.0
74.5849 208.0
74.5998 60.0
74.686348 132.0
74.842957 156.0
74.861153 136.0
74.899788 144.0
74.999725 104.0
75.049721 172.0
75.191177 112.0
75.244682 148.0
75.256775 144.0
75.510796 124.0
75.63018 176.0
75.663071 172.0
76.080879 192.0
76.105186 144.0
76.459808 232.0
76.599098 152.0
76.680992 140.0
76.745491 120.0
76.787338 48.0
77.04393 80.0
77.101593 132.0
77.18026 108.0
77.236221 144.0
77.344711 160.0
77.39373 248.0
77.405983 184.0
77.519844 216.0
77.612747 60.0
77.717995 76.0
77.928688 176.0
78.225899 136.0
78.273438 172.0
78.331558 56.0
78.400269 196.0
78.534264 140.0
78.555428 132.0
78.592476 100.0
78.611885 236.0
78.775177 176.0
78.834396 116.0
78.970528 176.0
79.236053 184.0
79.390259 224.0
79.42041 224.0
79.533974 84.0
79.59256 220.0
79.645836 44.0
79.809334 96.0
79.821777 168.0
79.923172 112.0
79.951637 80.0
79.994354 128.0
80.092293 124.0
80.168907 76.0
80.277649 192.0
80.29332 228.0
80.334724 236.0
80.357918 136.0
80.376724 192.0
80.590019 96.0
80.822464 144.0
80.963882 144.0
81.033745 64.0
81.241707 148.0
81.367332 140.0
81.563141 224.0
81.58651 148.0
81.698006 48.0
81.802383 120.0
81.829384 128.0
81.870796 88.0
82.323441 244.0
82.363274 228.0
82.675957 112.0
82.93676 128.0
83.05825 236.0
83.085457 216.0
83.123566 104.0
83.187088 132.0
83.203423 128.0
83.26516 168.0
83.460091 164.0
83.497787 196.0
83.515976 32.0
83.563278 124.0
83.691078 164.0
83.790855 216.0
83.96402 176.0
84.013268 156.0
84.069832 224.0
84.257904 152.0
84.404121 244.0
84.702431 160.0
84.827042 380.0
85.026962 152.0
85.054497 180.0
85.085701 188.0
85.219772 172.0
85.247337 108.0
85.260201 128.0
85.427521 144.0
85.456955 204.0
85.498055 240.0
85.550819 48.0
85.924927 148.0
85.995049 180.0
86.026428 176.0
86.466339 144.0
86.484848 164.0
86.749733 204.0
86.838737 160.0
86.851723 172.0
86.879547 116.0
86.912941 96.0
86.951912 176.0
86.966759 148.0
87.127441 128.0
87.185913 248.0
87.221481 176.0
87.241676 192.0
87.311539 204.0
87.399765 172.0
87.43 144.0
87.513298 176.0
87.548683 164.0
87.639954 32.0
87.656723 84.0
87.708908 116.0
87.748055 160.0
88.239075 164.0
88.252167 44.0
88.270866 52.0
88.31575 160.0
88.332581 32.0
88.356499 136.0
88.467316 140.0
88.639626 120.0
88.761467 188.0
88.825233 132.0
88.838364 68.0
88.934059 132.0
89.082405 232.0
89.537582 124.0
89.899544 148.0
90.058128 132.0
90.563141 168.0
90.688187 104.0
90.800049 132.0
90.824707 144.0
90.845573 228.0
91.055206 1312.0
91.083054 156.0
91.194962 180.0
91.242485 152.0
91.331856 188.0
91.415565 144.0
91.472664 160.0
91.615486 264.0
91.710762 68.0
91.756516 148.0
91.850403 204.0
92.06945 236.0
92.191711 160.0
92.250961 96.0
92.35231 84.0
92.482414 88.0
92.514954 160.0
92.580055 192.0
92.635597 140.0
92.77166 140.0
92.826462 152.0
92.96154 80.0
92.988411 144.0
93.011436 104.0
93.061356 180.0
93.316887 192.0
93.363037 164.0
93.464989 216.0
93.738419 192.0
93.807808 132.0
93.933151 132.0
94.063179 392.0
94.191811 180.0
94.487579 104.0
94.514671 132.0
94.537888 68.0
94.570786 96.0
94.919502 140.0
95.162041 140.0
95.216415 132.0
95.453499 168.0
95.579933 180.0
95.747345 108.0
95.829559 176.0
95.862282 160.0
95.881775 212.0
96.080406 632.0
96.160667 104.0
96.227036 132.0
96.314911 184.0
96.504471 204.0
96.563141 156.0
96.72554 212.0
96.790146 244.0
96.893951 148.0
97.064468 220.0
97.088005 200.0
97.115463 44.0
97.354897 144.0
97.462936 192.0
97.891754 304.0
98.004028 132.0
98.096359 160.0
98.147911 148.0
98.252449 172.0
98.291908 160.0
98.327431 144.0
98.463722 232.0
98.536743 52.0
98.704742 200.0
98.817482 92.0
98.87487 240.0
99.07486 144.0
99.092171 108.0
99.409943 76.0
99.475433 160.0
99.538971 156.0
99.608482 80.0
99.705841 128.0
99.75354 172.0
99.89521 164.0
99.920586 120.0
99.956406 236.0
99.976303 140.0
100.036011 160.0
100.074074 148.0
100.141548 44.0
100.189354 192.0
100.255104 148.0
100.283005 180.0
100.384682 156.0
100.588181 84.0
100.815872 148.0
101.268013 140.0
101.522461 200.0
101.578964 180.0
101.711136 204.0
101.775375 68.0
101.821564 176.0
101.87178 128.0
101.940086 252.0
101.994263 176.0
102.044609 112.0
102.100914 52.0
102.235703 192.0
102.268433 244.0
102.459198 228.0
102.566002 116.0
102.656731 112.0
102.69101 152.0
102.77372 156.0
102.816101 152.0
102.93116 124.0
102.957413 124.0
103.054482 3188.0
103.26461 128.0
103.328506 224.0
103.436592 112.0
103.491257 112.0
103.513527 148.0
103.661407 80.0
103.679642 212.0
103.699913 136.0
103.837776 152.0
104.010239 152.0
104.058098 676.0
104.10363 68.0
104.199097 124.0
104.495926 188.0
104.546799 52.0
104.561043 116.0
104.593605 168.0
104.835976 164.0
104.964394 180.0
105.070541 2032.0
105.237816 172.0
105.390999 160.0
105.523849 164.0
105.579063 92.0
105.906525 136.0
106.067947 92.0
106.144249 60.0
106.35556 140.0
106.822006 132.0
106.844635 260.0
107.071053 104.0
107.141083 72.0
107.204956 140.0
107.239998 120.0
107.338951 196.0
107.353386 200.0
107.473022 56.0
107.506042 160.0
107.586533 144.0
107.638153 168.0
108.022568 156.0
108.081215 520.0
108.239876 180.0
108.322723 192.0
108.34758 212.0
108.420097 220.0
108.488503 240.0
108.737411 116.0
108.768539 144.0
108.822563 192.0
109.092598 176.0
109.215279 120.0
109.317223 40.0
109.494171 132.0
109.598328 180.0
109.62542 176.0
109.68586 200.0
109.737976 220.0
110.09864 1004.0
110.115677 164.0
110.153275 120.0
110.182518 64.0
110.439636 128.0
110.546333 160.0
110.577728 112.0
110.623772 164.0
110.721146 164.0
111.002991 160.0
111.10157 48.0
111.118355 172.0
111.166618 188.0
111.185501 64.0
111.227478 136.0
111.503975 168.0
111.597221 172.0
112.034973 84.0
112.112099 516.0
112.169838 120.0
112.302681 180.0
112.351196 136.0
112.391281 80.0
112.508255 292.0
112.891907 84.0
113.046333 120.0
113.249573 52.0
113.440277 156.0
113.588715 192.0
113.92662 156.0
114.07074 168.0
114.260956 104.0
114.277023 108.0
114.528221 32.0
114.653358 180.0
114.677368 196.0
114.741318 172.0
114.939674 160.0
115.054138 1920.0
115.084816 48.0
115.127525 148.0
115.202278 216.0
115.236465 204.0
115.268517 152.0
115.28347 192.0
115.437386 204.0
115.529358 88.0
115.550751 144.0
115.668449 80.0
115.684738 164.0
115.979034 84.0
115.994041 204.0
116.040184 128.0
116.063255 876.0
116.084084 132.0
116.114105 372.0
116.236389 176.0
116.305061 204.0
116.431732 124.0
116.485428 88.0
116.902534 180.0
117.069344 5868.0
117.171677 96.0
117.251404 48.0
117.579216 72.0
117.691467 136.0
117.935577 192.0
118.073761 844.0
118.099907 160.0
118.29248 112.0
118.381248 108.0
118.444061 108.0
118.656425 148.0
118.758347 148.0
118.875496 100.0
118.921074 124.0
118.962318 216.0
118.989494 220.0
119.085167 176.0
119.190361 44.0
119.229477 148.0
119.275116 164.0
119.416443 196.0
119.43602 144.0
119.599213 96.0
119.982597 92.0
120.028389 144.0
120.087021 176.0
120.325119 204.0
120.456146 216.0
120.571945 100.0
120.847473 156.0
121.026947 132.0
121.042274 184.0
121.300797 212.0
121.401649 120.0
121.533264 200.0
121.592514 108.0
121.645187 220.0
121.942818 160.0
122.135201 100.0
122.280411 216.0
122.331039 144.0
122.533646 132.0
122.831253 132.0
122.976875 160.0
123.085052 148.0
123.336899 136.0
123.418701 160.0
123.436386 188.0
123.644333 140.0
123.742691 156.0
123.836952 128.0
123.927773 104.0
124.115158 288.0
124.138351 100.0
124.163673 124.0
124.464539 152.0
124.599663 124.0
124.793381 216.0
125.118202 176.0
125.245132 244.0
125.392181 188.0
125.519745 216.0
125.965614 200.0
126.352356 124.0
126.556023 36.0
126.598564 128.0
126.679199 180.0
126.822601 148.0
126.871918 128.0
126.945908 236.0
126.99749 80.0
127.048241 224.0
127.084984 72.0
127.143326 196.0
127.203926 208.0
127.588066 128.0
127.765724 176.0
127.914246 136.0
128.033585 112.0
128.062637 340.0
128.112411 152.0
128.161972 124.0
128.202545 216.0
128.240845 144.0
128.331024 144.0
128.543045 128.0
128.768799 180.0
128.931458 176.0
129.069748 2008.0
129.090103 208.0
129.10672 152.0
129.408752 136.0
129.646591 52.0
129.79393 144.0
129.82341 176.0
129.893723 156.0
130.076981 1276.0
130.177536 156.0
130.256912 180.0
130.315979 140.0
130.352325 120.0
130.409149 124.0
130.481888 132.0
130.673676 220.0
130.688858 292.0
130.841339 232.0
130.883545 216.0
130.921036 124.0
131.086105 5908.0
131.187622 96.0
131.20813 84.0
131.262848 48.0
131.360931 124.0
131.666779 32.0
131.863251 112.0
131.995834 136.0
132.05072 108.0
132.084763 572.0
132.202652 116.0
132.584518 204.0
132.65062 104.0
132.783615 236.0
132.822601 180.0
132.905197 60.0
132.960266 144.0
133.010757 136.0
133.049789 188.0
133.103638 188.0
133.417358 124.0
133.493225 132.0
134.097961 176.0
134.220886 176.0
134.260086 220.0
134.364304 220.0
134.657028 60.0
135.066132 232.0
135.10083 208.0
135.440262 196.0
135.464279 132.0
135.561584 108.0
135.730804 152.0
135.786453 188.0
135.830307 168.0
135.97438 120.0
136.064911 68.0
136.110657 388.0
136.194946 148.0
136.606384 164.0
136.697113 128.0
136.794861 64.0
136.870148 204.0
136.918274 132.0
137.060364 56.0
137.110001 176.0
137.295807 172.0
137.534317 156.0
137.729919 128.0
137.865417 60.0
137.935547 124.0
137.979721 200.0
138.036072 180.0
138.096878 108.0
138.127899 1244.0
138.174072 60.0
138.202148 144.0
138.241928 132.0
138.270004 176.0
138.335541 76.0
138.440903 116.0
138.497116 192.0
138.524109 152.0
138.632996 84.0
138.775986 132.0
138.811157 220.0
138.865097 108.0
138.916702 164.0
139.106766 112.0
139.135864 132.0
139.219467 60.0
139.389191 176.0
139.515518 204.0
139.875427 160.0
140.016708 128.0
140.068512 184.0
140.110916 120.0
140.20282 168.0
140.393768 172.0
140.712311 176.0
140.802032 180.0
141.253479 136.0
141.341019 116.0
141.397812 116.0
141.430939 184.0
141.45462 104.0
141.509064 164.0
141.786209 188.0
142.486191 48.0
143.023621 172.0
143.085526 804.0
143.145035 152.0
143.235535 56.0
143.702789 168.0
143.972519 148.0
144.013123 176.0
144.078339 132.0
144.098511 160.0
144.173187 48.0
144.189911 132.0
144.242508 168.0
144.299881 196.0
144.400314 220.0
144.424225 140.0
144.625214 80.0
144.732941 192.0
145.025208 216.0
145.074554 252.0
145.101151 1272.0
145.202621 32.0
145.221817 64.0
145.685074 108.0
145.785995 72.0
145.853897 188.0
145.91098 164.0
145.94223 48.0
146.021591 180.0
146.104538 388.0
146.348862 156.0
146.399429 156.0
146.45723 36.0
146.512634 152.0
146.592148 184.0
146.700607 120.0
146.852509 152.0
147.402939 140.0
147.968918 160.0
148.115829 192.0
148.172348 128.0
148.249878 236.0
148.361374 192.0
148.691254 164.0
149.125992 212.0
149.369141 40.0
149.415359 204.0
149.475952 120.0
149.60762 40.0
149.754257 160.0
150.14122 172.0
150.160736 164.0
150.219269 200.0
150.413284 204.0
150.546326 128.0
150.949524 76.0
151.086502 120.0
151.304306 176.0
151.404694 180.0
151.549225 156.0
151.595779 64.0
151.698715 148.0
152.000381 180.0
152.20166 168.0
152.823517 200.0
152.941635 128.0
153.02533 192.0
153.086884 136.0
153.56897 144.0
153.790878 240.0
153.972214 332.0
153.991974 144.0
154.061142 184.0
154.083374 176.0
154.2267 236.0
154.399765 192.0
154.451706 120.0
154.671921 112.0
155.033524 180.0
155.05455 152.0
155.077728 176.0
155.437729 176.0
155.864807 204.0
156.192978 152.0
156.260147 136.0
156.280045 148.0
156.329819 144.0
156.466705 168.0
156.708282 128.0
156.745667 140.0
156.935104 52.0
156.955048 124.0
157.389206 232.0
157.414169 172.0
157.656494 80.0
158.095352 220.0
158.171707 124.0
158.218628 216.0
158.477234 84.0
159.038971 144.0
159.059052 108.0
159.093369 172.0
159.136917 216.0
159.194626 204.0
159.222244 164.0
159.280014 160.0
159.780258 184.0
159.810455 216.0
159.835617 148.0
160.011795 136.0
160.112167 2404.0
160.165405 64.0
160.246033 60.0
160.389664 132.0
160.594299 204.0
160.841171 212.0
160.858841 208.0
160.921951 140.0
160.995178 160.0
161.116745 240.0
161.366623 124.0
161.391907 96.0
161.409607 160.0
161.556183 188.0
161.672684 104.0
161.70401 168.0
161.726288 180.0
161.792099 88.0
161.829559 164.0
161.951172 148.0
161.994232 192.0
162.013718 104.0
162.017654 248.0
162.044907 180.0
162.079971 196.0
162.128235 64516.0
162.203293 160.0
162.23024 152.0
162.271423 96.0
162.31842 128.0
162.355453 88.0
162.390015 88.0
162.431992 100.0
162.506332 68.0
162.549469 72.0
162.56723 108.0
162.605301 40.0
162.641113 112.0
162.666214 104.0
162.692688 84.0
162.740753 144.0
162.772858 48.0
162.81369 48.0
162.847168 180.0
162.876968 88.0
162.937943 52.0
162.963348 36.0
163.014175 156.0
163.131561 6308.0
163.167435 200.0
163.186234 52.0
163.218658 80.0
163.246902 80.0
163.303986 188.0
163.324326 176.0
163.342133 44.0
163.370117 88.0
163.408081 52.0
163.510071 160.0
163.581329 48.0
163.627151 64.0
163.691177 248.0
163.71196 88.0
163.84108 40.0
164.009262 68.0
164.0271 128.0
164.051712 92.0
164.09848 60.0
164.135986 176.0
164.201538 68.0
164.225983 72.0
164.294861 52.0
164.322922 120.0
164.34079 124.0
164.375595 56.0
164.534744 164.0
164.571411 168.0
164.879578 144.0
164.960388 124.0
165.250351 76.0
165.33223 76.0
165.409012 60.0
165.457657 160.0
165.488373 104.0
165.537033 144.0
165.718887 68.0
165.856903 140.0
165.916229 56.0
165.946991 184.0
166.385712 188.0
166.429352 148.0
166.665665 204.0
166.827576 172.0
166.981857 196.0
167.064163 148.0
167.086349 160.0
167.504349 36.0
167.597092 144.0
167.910263 148.0
168.025085 192.0
168.063782 188.0
168.123138 68.0
168.210892 108.0
168.247025 160.0
168.525955 140.0
168.74823 52.0
168.7715 140.0
168.916321 224.0
168.955124 40.0
169.05603 104.0
169.193222 220.0
169.402969 68.0
169.501434 64.0
169.861801 168.0
169.879272 136.0
170.31604 108.0
170.349808 100.0
170.605179 132.0
170.635666 156.0
170.825516 84.0
171.010254 124.0
171.101364 168.0
171.442581 140.0
171.486877 192.0
171.651123 40.0
171.734573 164.0
171.79718 156.0
172.115585 132.0
172.766357 76.0
172.831772 252.0
172.884109 144.0
173.517975 104.0
173.662201 92.0
173.738266 212.0
174.034836 36.0
174.086014 356.0
174.127747 7256.0
174.172119 44.0
174.236389 92.0
174.26355 52.0
174.331665 32.0
174.371078 68.0
174.393814 136.0
174.481476 128.0
174.518295 108.0
174.573517 212.0
174.747116 48.0
174.89711 52.0
174.941864 32.0
174.997147 32.0
175.066956 180.0
175.131516 1572.0
175.166565 120.0
175.315872 44.0
175.619049 36.0
175.793167 132.0
175.951538 40.0
176.147308 244.0
176.239426 44.0
176.265839 56.0
176.330673 136.0
176.360992 128.0
176.556839 148.0
177.00119 124.0
177.380051 156.0
177.41716 84.0
177.444321 260.0
177.515259 132.0
177.708893 132.0
177.772568 176.0
177.99556 48.0
178.641388 132.0
178.715866 80.0
178.755783 88.0
178.814331 76.0
178.902176 40.0
178.944763 68.0
178.98204 136.0
179.036133 148.0
179.123184 132.0
179.528305 136.0
180.000626 132.0
180.337234 100.0
180.599258 136.0
180.64473 48.0
181.343582 196.0
181.386475 176.0
181.407913 124.0
181.544662 136.0
181.965927 176.0
182.011566 104.0
182.294266 164.0
182.484451 136.0
182.559738 64.0
182.694229 148.0
182.785706 200.0
182.831451 200.0
183.022568 92.0
183.566864 144.0
183.774567 232.0
183.833923 180.0
183.936493 156.0
186.132111 164.0
186.691895 92.0
186.719086 168.0
186.852371 124.0
186.982986 116.0
187.26886 76.0
187.317886 120.0
187.5495 132.0
187.753967 172.0
187.95311 88.0
188.24791 180.0
188.603073 140.0
188.704224 136.0
189.100861 180.0
189.136444 184.0
189.15834 100.0
189.232254 224.0
189.322617 132.0
189.448608 168.0
189.659607 156.0
189.917343 180.0
190.274078 120.0
190.664108 148.0
190.719086 88.0
191.377975 88.0
193.015533 116.0
193.043182 120.0
193.588333 64.0
193.726822 180.0
194.154099 124.0
195.648529 124.0
195.684708 216.0
195.949295 112.0
196.282852 208.0
196.869766 192.0
196.925613 208.0
197.230164 112.0
197.314026 68.0
197.523773 52.0
198.13356 192.0
198.397461 120.0
198.475952 72.0
198.661057 36.0
198.739609 72.0
199.123123 240.0
199.646912 180.0
199.677856 124.0
200.146561 544.0
200.201309 68.0
200.240738 40.0
200.302689 168.0
200.39003 136.0
200.471741 76.0
200.499924 36.0
200.674683 80.0
200.714157 72.0
200.894669 108.0
201.044205 144.0
201.066772 232.0
201.14325 124.0
201.68248 120.0
201.713577 168.0
202.018967 336.0
202.160446 184.0
202.183075 136.0
202.327438 88.0
202.621964 176.0
203.688599 44.0
203.935791 184.0
204.286484 132.0
204.350983 240.0
204.769424 240.0
204.897598 188.0
205.085678 52.0
205.139832 124.0
205.302353 216.0
205.322311 180.0
205.342285 104.0
205.707504 180.0
205.738907 36.0
206.195923 152.0
206.57048 232.0
206.676331 148.0
207.658905 188.0
207.888412 152.0
208.088776 184.0
208.158249 108.0
208.207077 172.0
208.281738 160.0
208.531723 132.0
209.584961 188.0
209.636826 228.0
210.147186 172.0
210.184708 96.0
210.629303 200.0
210.770859 116.0
210.987625 152.0
211.022308 36.0
211.111954 216.0
211.44754 192.0
211.9543 176.0
212.149628 208.0
212.215164 168.0
212.348557 140.0
212.519714 116.0
212.612564 72.0
212.996811 128.0
213.091675 144.0
213.181747 108.0
213.446274 188.0
213.504425 128.0
214.161148 292.0
214.205872 208.0
214.255051 172.0
214.310745 156.0
214.331146 172.0
214.937637 188.0
214.981415 144.0
215.267487 176.0
215.647278 204.0
215.714493 160.0
216.170746 72.0
216.571838 164.0
216.689011 196.0
216.850174 188.0
216.914658 132.0
217.058319 164.0
217.397614 132.0
217.974136 68.0
218.347137 168.0
218.635788 56.0
218.777069 44.0
219.316132 164.0
220.0979 132.0
220.124466 200.0
220.375534 172.0
220.478958 64.0
220.697708 152.0
220.892899 52.0
221.120728 148.0
221.23616 200.0
221.804901 92.0
221.858261 44.0
221.9561 180.0
222.350647 112.0
222.653458 168.0
222.781189 100.0
223.58696 96.0
223.819153 124.0
224.808792 200.0
224.838638 132.0
225.095352 144.0
225.376129 180.0
225.624191 112.0
226.186584 56.0
226.438858 108.0
226.794632 148.0
227.211441 108.0
227.481522 108.0
227.505539 144.0
228.079285 124.0
228.229599 208.0
228.662781 92.0
229.228928 76.0
229.451965 108.0
230.568802 152.0
230.59903 100.0
230.6353 28.0
231.9823 200.0
232.877411 252.0
233.707321 144.0
233.77121 124.0
234.078659 204.0
234.35585 188.0
234.489929 140.0
234.526505 152.0
234.688065 56.0
234.922897 164.0
234.950363 156.0
235.01442 192.0
235.072403 156.0
235.167007 40.0
235.267731 200.0
235.518127 148.0
235.927597 156.0
236.120224 196.0
236.778229 60.0
236.928314 176.0
237.391129 180.0
237.734695 140.0
238.130737 192.0
238.161453 104.0
238.315048 176.0
238.431808 132.0
238.502502 176.0
238.5271 72.0
238.631622 124.0
238.659286 160.0
238.754608 236.0
239.311569 32.0
239.456299 184.0
239.573349 164.0
240.007904 36.0
240.182602 352.0
240.208359 52.0
240.479889 132.0
240.770096 100.0
240.810242 100.0
240.887466 88.0
240.946167 116.0
241.174759 160.0
241.264481 196.0
241.304657 232.0
241.338669 152.0
241.378876 104.0
241.434998 212.0
241.487106 52.0
241.530411 212.0
241.625961 72.0
241.646851 312.0
241.712936 136.0
241.751205 208.0
241.796494 60.0
241.836731 184.0
241.880066 108.0
241.926498 156.0
241.959793 132.0
241.981705 120.0
241.99234 164.0
242.028656 40.0
242.053436 88.0
242.087311 136.0
242.126205 320.0
242.191086 94116.0
242.280258 112.0
242.309128 36.0
242.318451 64.0
242.33107 88.0
242.362442 164.0
242.409149 48.0
242.438705 96.0
242.480652 108.0
242.513474 144.0
242.566177 88.0
242.582367 116.0
242.588974 112.0
242.628052 212.0
242.647903 176.0
242.701538 220.0
242.741562 56.0
242.802658 124.0
242.843674 60.0
242.906677 68.0
242.954575 100.0
242.963699 52.0
242.973343 132.0
243.039108 64.0
243.068771 108.0
243.103149 88.0
243.130722 184.0
243.193512 12012.0
243.290512 76.0
243.314453 112.0
243.434677 92.0
243.458511 68.0
243.486969 112.0
243.535812 40.0
243.563492 44.0
243.641571 108.0
243.69075 64.0
243.756561 172.0
243.824753 48.0
243.877594 80.0
243.945969 64.0
244.083084 80.0
244.126297 68.0
244.195404 1648.0
244.349411 120.0
244.415588 44.0
244.437363 52.0
244.468491 36.0
244.505829 100.0
244.549408 84.0
244.630341 208.0
244.65213 88.0
244.677032 52.0
244.698822 88.0
244.72879 128.0
244.816925 112.0
244.860748 40.0
244.891891 104.0
244.916809 100.0
244.966415 224.0
245.06485 152.0
245.102325 116.0
245.204437 76.0
245.231491 40.0
245.262665 52.0
245.334366 36.0
245.381119 116.0
245.539154 60.0
245.774109 124.0
245.802872 184.0
245.87085 64.0
246.045639 60.0
246.111206 136.0
246.161163 36.0
246.248611 152.0
246.295456 108.0
246.364182 84.0
246.59227 60.0
246.767334 44.0
246.842377 148.0
246.886154 164.0
247.080078 96.0
247.302246 40.0
247.349197 64.0
247.818939 132.0
248.615402 48.0
248.992126 180.0
249.03923 112.0
249.139755 52.0
250.753937 272.0
250.889481 72.0
251.507751 100.0
251.555099 140.0
251.73822 100.0
251.826645 32.0
252.208954 152.0
252.253204 84.0
252.86998 148.0
253.101074 116.0
253.148575 176.0
253.300598 52.0
254.086761 104.0
255.331909 104.0
255.573669 184.0
256.267761 60.0
256.771423 100.0
257.767426 48.0
258.464508 36.0
258.603333 116.0
258.65332 68.0
258.704529 128.0
258.912659 76.0
259.14328 56.0
259.191345 180.0
259.249023 128.0
259.322723 96.0
259.402863 120.0
259.492615 124.0
259.527893 84.0
259.646545 60.0
259.717102 164.0
259.763611 140.0
259.829376 100.0
259.887115 52.0
260.02832 192.0
260.095734 116.0
260.12207 116.0
260.201904 37328.0
260.301575 132.0
260.33255 72.0
260.387115 132.0
260.420013 48.0
260.50412 80.0
260.545288 36.0
260.577423 76.0
260.636597 160.0
260.663452 72.0
260.693939 108.0
260.721161 60.0
260.728699 48.0
260.851196 84.0
260.882721 96.0
260.905212 88.0
260.969513 64.0
260.995239 72.0
261.204254 3576.0
261.266296 176.0
261.341003 88.0
261.426056 56.0
261.491669 112.0
261.561462 84.0
261.596863 84.0
261.667694 60.0
261.703094 96.0
261.738007 76.0
261.793274 48.0
261.83075 72.0
261.905975 52.0
262.136688 244.0
262.205872 628.0
262.298004 132.0
262.370941 116.0
262.707458 100.0
262.923126 132.0
262.960297 112.0
262.986115 56.0
263.176575 36.0
263.209381 124.0
263.551239 84.0
263.606171 40.0
263.732208 128.0
265.046112 136.0
265.25354 60.0
267.520905 84.0
268.756073 108.0
269.219604 68.0
269.297974 64.0
272.173248 36.0
278.30484 80.0
279.052399 72.0
280.863983 92.0
291.608368 68.0
296.266052 116.0
300.222198 84.0
303.805481 96.0
304.086548 64.0
307.476349 32.0
309.293793 88.0
309.370819 76.0
309.500336 120.0
310.695496 68.0
315.545013 72.0
321.027313 84.0
325.148499 136.0
329.772888 84.0
332.547241 48.0
334.965179 36.0
335.985901 100.0
338.767883 104.0
342.091187 68.0
352.031525 88.0
355.618042 84.0
368.661591 60.0
368.982635 100.0
378.25769 120.0
389.515381 84.0
389.975098 76.0
390.085144 88.0
390.144104 72.0
396.4039 116.0
398.268524 144.0
400.404297 32.0
401.245056 72.0
402.473907 84.0
404.096619 88.0
408.847534 28.0
411.681519 108.0
416.306122 36.0
423.287354 84.0
425.292053 52.0
427.005341 44.0
434.378082 64.0
437.195038 100.0
448.37262 72.0
454.555176 108.0
455.871582 60.0
457.551636 68.0
481.873352 120.0
522.796814 80.0
523.406799 132.0
532.833313 68.0
539.575806 40.0
543.911743 72.0
544.464233 80.0
552.116516 52.0
552.415833 80.0
557.366699 92.0
563.728027 84.0
602.180481 40.0
612.012695 76.0
621.076111 92.0
626.080872 84.0
660.65332 60.0
663.367371 36.0
675.271973 100.0
690.228333 40.0
723.32782 48.0
753.548462 48.0
760.003662 52.0
780.006836 80.0
788.394897 68.0
815.697327 64.0
816.271545 60.0
841.073181 120.0
846.449768 80.0
854.924927 228.0
858.262695 188.0
859.785217 116.0
883.417419 96.0
886.365845 84.0
890.470947 212.0
916.180298 32.0
916.264648 96.0
920.094238 140.0
922.444153 100.0
927.025757 132.0
938.221558 80.0
940.106262 80.0
947.572083 112.0
953.401306 216.0
956.6427 216.0
962.339172 224.0
964.365356 156.0
980.271423 144.0
981.312317 116.0
989.258911 56.0
991.200439 144.0
1011.315308 32.0
1025.102905 132.0
1027.678955 184.0
1031.491577 176.0
1043.241577 252.0
1046.780273 112.0
1055.698364 56.0
1060.547485 44.0
1062.947021 204.0
1064.758179 136.0
1068.391602 120.0
1074.580811 200.0
1080.526123 112.0
1081.762939 184.0
1081.834961 152.0
1083.550781 156.0
1083.786621 164.0
1084.841797 200.0
1085.097412 188.0
1087.098022 128.0
1090.887695 104.0
1093.294922 156.0
1094.842041 128.0
1096.645508 152.0
1098.5 52.0
1116.868286 36.0
1121.935791 136.0
1124.837524 180.0
1129.64209 252.0
1133.726318 52.0
1133.860352 176.0
1134.859131 76.0
1138.274414 200.0
1145.329224 216.0
1146.272461 204.0
1146.980103 140.0
1149.657593 40.0
1149.887085 132.0
1150.379761 208.0
1151.176514 176.0
1153.466797 172.0
1153.872437 176.0
1155.076172 116.0
1168.998047 100.0
1171.02002 100.0
1173.002808 236.0
1174.557495 64.0
1175.778809 152.0
1176.044922 84.0
1177.594849 192.0
1179.070557 144.0
1180.615601 128.0
1181.689453 228.0
1182.086304 168.0
1187.313232 84.0
1188.431274 188.0
1189.728394 144.0
1190.435669 240.0
1196.802979 152.0
1201.393066 156.0
1203.118286 184.0
1203.636108 84.0
1203.836304 160.0
1206.219971 144.0
1206.918213 188.0
1207.927856 248.0
1208.17688 192.0
1210.447144 112.0
1210.869507 164.0
1211.111938 48.0
1214.369507 168.0
1215.78479 64.0
1218.145508 208.0
1218.322388 216.0
1221.092529 108.0
1221.80896 132.0
1225.993652 40.0
1226.363037 120.0
1227.255371 148.0
1230.094727 260.0
1231.875488 152.0
1239.410278 108.0
1241.61145 152.0
1242.00415 176.0
1243.56189 180.0
1244.158447 156.0
1245.85791 176.0
1246.286499 156.0
1247.453125 144.0
1249.74585 212.0
1251.871582 216.0
1252.653442 124.0
1257.610352 172.0
1259.241333 128.0
1259.552124 212.0
1260.654175 232.0
1263.284424 36.0
1265.31543 92.0
1266.639648 136.0
1267.525269 136.0
1270.588257 184.0
1271.51062 176.0
1273.036987 160.0
1273.193237 240.0
1274.812866 180.0
1275.672852 220.0
1277.472046 140.0
1277.913086 96.0
1279.336426 180.0
1279.642578 140.0
1280.290527 180.0
1281.70105 176.0
1288.626099 76.0
1291.223877 160.0
1294.358276 192.0
1295.368042 204.0
1296.184814 180.0
1296.880005 124.0
1298.005493 196.0
1300.10022 120.0
1301.428101 232.0
1303.252441 140.0
1304.768921 156.0
1305.13562 176.0
1305.703735 60.0
1305.782837 148.0
1306.034546 184.0
1306.128052 100.0
1308.229248 148.0
1308.855591 220.0
1310.003296 220.0
1311.939209 208.0
1313.114624 228.0
1317.293701 128.0
1322.905273 212.0
1323.050049 48.0
1323.781372 132.0
1324.650391 212.0
1325.389404 112.0
1326.686768 172.0
1327.005737 160.0
1332.97937 168.0
1334.680298 212.0
1335.363892 164.0
1336.149414 140.0
1339.665649 136.0
1340.059082 108.0
1340.270386 204.0
1340.620117 136.0
1344.915771 112.0
1352.539429 180.0
1355.278442 180.0
1356.084473 140.0
1358.262085 144.0
1358.768311 104.0
1361.609009 152.0
1362.35083 72.0
1366.099976 96.0
1366.467773 120.0
1367.041626 160.0
1374.373535 76.0
1374.513672 140.0
1375.650269 36.0
1377.503784 152.0
1378.434692 156.0
1379.092407 152.0
1379.16626 92.0
1379.325562 124.0
1380.334351 108.0
1381.687866 208.0
1385.515381 212.0
1386.197021 180.0
1386.508301 180.0
1387.397827 192.0
1390.980713 120.0
1391.478027 84.0
1392.658813 152.0
1393.535278 156.0
1395.28186 116.0
1395.936157 124.0
1396.880737 132.0
1397.47583 64.0
1397.989258 132.0
1399.448242 64.0
1399.911377 168.0
1400.5802 148.0
1402.51001 140.0
1402.815674 44.0
1405.179688 48.0
1405.724365 144.0
1407.150024 240.0
1408.763062 192.0
1409.973511 140.0
1410.990112 160.0
1411.08728 132.0
1411.543457 172.0
1412.882202 172.0
1413.159058 40.0
1413.85498 280.0
1416.805054 36.0
1417.726685 120.0
1420.560791 188.0
1421.438599 160.0
1421.693726 144.0
1424.208862 92.0
1429.930542 84.0
1431.300659 140.0
1434.33667 228.0
1434.494995 148.0
1435.128296 220.0
1435.987915 84.0
1436.998779 160.0
1437.806152 168.0
1437.896729 132.0
1439.029053 36.0
1440.607422 152.0
1446.02124 136.0
1446.134766 148.0
1447.709473 88.0
1447.959473 132.0
1450.747803 200.0
1457.563232 152.0
1460.056641 152.0
1460.429321 148.0
1461.380249 164.0
1461.608521 228.0
1462.559814 168.0
1463.922607 164.0
1467.328491 172.0
1468.304565 136.0
1469.502075 124.0
1471.127686 132.0
1474.648926 168.0
1475.711548 36.0
1476.13208 192.0
1480.784912 180.0
1482.615967 156.0
1482.891846 156.0
1483.006836 164.0
1483.965088 128.0
1485.690674 260.0
1485.943848 196.0
1486.250732 196.0
1486.365845 48.0
1486.542236 172.0
1487.16394 168.0
1487.778076 92.0
1488.584229 164.0
1488.845337 124.0
1489.321411 208.0
1491.603516 160.0
1494.37207 140.0
1496.634888 248.0
1496.688843 84.0
1496.973755 176.0
1498.113647 204.0
1498.390991 132.0
1499.716431 248.0
1500.764771 180.0
1502.916748 104.0
