>compound MLS001157775-01!(2S)-1-[2-[[(2Z)-2-(1,3-benzodioxol-5-ylmethylidene)-3-oxo-1-benzofuran-6-yl]oxy]acetyl]-4-hydroxypyrrolidine-2-carboxylic acid
>formula C23H19NO9
>ionization [M+H]+
>parentmass 454.1138
#inchi InChI=1S/C23H19NO9/c25-13-7-16(23(28)29)24(9-13)21(26)10-30-14-2-3-15-18(8-14)33-20(22(15)27)6-12-1-4-17-19(5-12)32-11-31-17/h1-6,8,13,16,25H,7,9-11H2,(H,28,29)/b20-6-/t13?,16-/m0/s1
#inchikey ITCPJXVUXQJWLA
#Ion_Source LC-ESI
#Instrument qTof
#Compound_Source NIH Natural Product Library
#PI Dorrestein
#Data_Collector VVP/LMS
#Scan -1
#Precursor_MZ 454.114
#ExactMass 453.106
#Charge 1
#CAS_Number N/A
#Pubmed_ID N/A
#Smiles OC1C[C@H](N(C1)C(=O)COc2ccc3C(=O)/C(=C/c4ccc5OCOc5c4)/Oc3c2)C(=O)O
#INCHI_AUX N/A
#Library_Class 1
#SpectrumID CCMSLIB00000080268
#IonMode Positive
#UpdateWorkflowName UPDATE-SINGLE-ANNOTATED-GOLD
#LibraryQualityString Gold
#TaskID b1d8e8f6646f4e71acdff9ca3d919d08
##Scan# 1825
#SpectrumFile p2-D06_GD6_01_18018.mzXML
#LibraryName NIH_Natural_Products_Library.mgf
#MQScore -1
#Organism NIH_Natural_Products_Library
#TIC_Query 0
#RT_Query -1
#MZErrorPPM -1
#SharedPeaks 0
#MassDiff 0
#LibMZ -1
#SpecMZ 454.114
#SpecCharge 0
#internalFilename spec-00000.mgf

>collision 10
95.760399 184.0
96.932549 216.0
97.383759 132.0
98.066658 184.0
98.401833 164.0
99.147552 268.0
99.603889 160.0
99.860291 176.0
100.262451 156.0
100.290352 148.0
100.703362 152.0
100.843216 216.0
100.913185 56.0
101.49984 212.0
103.506798 88.0
103.541222 100.0
105.024902 188.0
105.809601 112.0
106.712318 160.0
107.257851 196.0
108.375877 176.0
108.453537 144.0
108.898643 156.0
109.062782 124.0
109.455971 244.0
109.741432 128.0
110.058998 408.0
110.181801 140.0
112.041962 168.0
113.155655 80.0
113.303902 80.0
113.414093 164.0
114.055107 820.0
114.135887 36.0
115.053558 196.0
115.203651 136.0
115.54142 80.0
116.033997 164.0
116.071259 3420.0
116.319313 88.0
116.461029 52.0
116.47821 236.0
116.497543 196.0
116.656563 188.0
116.714615 40.0
116.962013 220.0
117.073761 172.0
117.582748 204.0
117.656136 148.0
118.133728 56.0
118.170502 76.0
118.549431 208.0
118.573265 160.0
119.049637 152.0
120.584251 76.0
120.662941 172.0
121.029549 188.0
121.07869 156.0
121.927711 216.0
123.207909 144.0
123.840546 108.0
124.270599 116.0
124.810326 212.0
125.199745 132.0
125.286613 152.0
125.380196 192.0
125.560776 120.0
125.899994 60.0
125.915627 236.0
125.944656 144.0
126.053734 220.0
126.094353 132.0
126.508156 44.0
127.054276 236.0
127.884125 124.0
128.07077 284.0
128.517365 152.0
128.564743 180.0
129.07074 148.0
129.768112 156.0
129.849747 84.0
129.93367 48.0
130.046768 248.0
130.231049 132.0
130.396896 144.0
131.903503 36.0
132.006378 216.0
132.06929 256.0
132.143616 56.0
132.292374 140.0
132.624512 184.0
132.835464 44.0
133.021332 100.0
133.342896 216.0
133.77533 192.0
135.016647 152.0
135.042099 192.0
136.073273 204.0
136.738083 188.0
137.026016 240.0
137.609894 112.0
137.771027 136.0
138.032806 144.0
138.374405 100.0
138.472763 224.0
138.592224 200.0
139.874481 224.0
140.060883 276.0
140.100555 36.0
140.402252 168.0
140.957001 144.0
141.070557 260.0
141.165024 136.0
141.477325 152.0
141.543625 156.0
142.036575 152.0
142.065033 168.0
142.898911 148.0
143.401352 184.0
143.98587 208.0
144.066345 2004.0
144.126816 52.0
144.433624 60.0
144.483047 160.0
144.73436 92.0
144.98349 156.0
145.022964 136.0
145.040024 156.0
145.066208 196.0
145.08519 240.0
146.059052 208.0
147.046539 304.0
147.904984 100.0
148.350677 132.0
148.382202 224.0
148.505875 208.0
149.023407 388.0
149.713745 124.0
150.101196 240.0
150.555084 116.0
151.051239 188.0
151.139313 136.0
152.065109 208.0
152.591293 216.0
153.065704 280.0
153.226257 52.0
154.048965 432.0
154.074936 188.0
154.678314 104.0
155.111801 132.0
156.055161 152.0
157.006363 148.0
157.071213 168.0
157.790421 148.0
158.080551 52.0
158.456131 252.0
159.042923 168.0
161.037048 144.0
161.264435 152.0
162.031479 788.0
162.05397 184.0
162.122375 56.0
163.038498 160.0
163.524261 88.0
163.671906 116.0
164.02092 88.0
164.046417 112.0
165.602524 232.0
165.769043 248.0
165.899765 216.0
165.922836 172.0
166.482193 112.0
166.525848 140.0
166.700546 100.0
167.38736 180.0
167.660416 152.0
168.05603 204.0
168.34404 156.0
168.390518 152.0
168.60495 40.0
168.656647 120.0
168.796249 100.0
168.835037 204.0
169.065155 192.0
169.591019 120.0
170.018951 64.0
170.447418 172.0
170.785385 96.0
170.842606 64.0
171.037766 140.0
171.095139 176.0
171.514435 64.0
171.957825 180.0
172.059998 900.0
172.130127 32.0
172.208466 56.0
172.378281 60.0
172.77832 144.0
173.024521 200.0
173.066574 140.0
173.74501 120.0
173.923447 44.0
176.090347 216.0
176.449722 128.0
177.053009 144.0
177.344437 80.0
178.167038 148.0
178.379623 112.0
178.446091 124.0
178.799866 132.0
179.049789 384.0
179.356522 140.0
179.404495 144.0
180.507172 120.0
180.611465 176.0
180.723831 136.0
181.065887 1108.0
181.505951 48.0
181.994278 80.0
182.06842 344.0
182.424133 168.0
183.037552 124.0
183.072556 144.0
183.242249 152.0
183.333862 212.0
183.430893 192.0
183.511765 36.0
184.000092 64.0
184.29718 56.0
184.797379 148.0
185.063324 184.0
185.208847 172.0
186.02504 148.0
186.314835 224.0
186.508545 156.0
189.68306 80.0
190.336014 228.0
190.476074 216.0
190.632675 192.0
191.973282 52.0
192.011887 48.0
194.982498 152.0
196.050766 200.0
196.68425 172.0
196.929962 116.0
197.059204 1292.0
197.500137 44.0
197.959122 152.0
198.060211 168.0
198.261673 100.0
198.5392 88.0
199.044312 164.0
199.072388 152.0
199.572556 60.0
200.38031 192.0
200.718536 220.0
201.573822 176.0
201.992249 44.0
202.077118 80.0
202.348816 168.0
202.612198 140.0
203.000504 104.0
206.935501 104.0
207.045502 156.0
207.347992 60.0
208.044983 184.0
209.059372 864.0
209.675873 96.0
210.063278 188.0
210.974747 164.0
211.073807 716.0
211.110641 108.0
211.365204 48.0
211.643066 144.0
212.078781 184.0
212.106598 104.0
212.573532 64.0
213.045959 156.0
214.061844 224.0
214.242416 64.0
214.702942 152.0
214.947983 168.0
216.055313 204.0
216.07872 160.0
217.999252 144.0
218.36673 116.0
218.884659 92.0
220.903381 148.0
221.04509 120.0
221.053497 108.0
221.064499 200.0
221.566483 60.0
222.203888 116.0
222.450211 128.0
222.871918 260.0
223.071045 168.0
223.138855 168.0
224.043274 400.0
224.336182 128.0
224.506134 152.0
224.634384 176.0
224.705978 136.0
224.977554 140.0
225.013382 136.0
225.055374 9060.0
225.135803 48.0
225.23436 164.0
225.456879 100.0
225.545105 120.0
225.643753 60.0
225.808212 48.0
225.924866 64.0
226.058029 1460.0
226.272018 36.0
226.439713 132.0
226.556534 76.0
226.838211 112.0
226.903839 184.0
227.070267 2252.0
227.204071 36.0
227.795441 128.0
227.954681 124.0
228.071655 484.0
228.207169 88.0
228.556061 108.0
229.200424 48.0
229.302887 172.0
229.535004 112.0
229.637543 52.0
230.552307 96.0
231.999084 88.0
232.857788 80.0
233.398712 144.0
236.847244 64.0
237.055206 752.0
238.065796 276.0
238.46727 216.0
238.953125 40.0
239.00235 68.0
239.069656 660.0
239.190079 88.0
239.876984 84.0
240.049637 172.0
240.197678 164.0
241.059052 108.0
241.179581 152.0
241.43309 124.0
241.779572 220.0
242.051987 112.0
243.733185 236.0
244.401688 64.0
245.994232 176.0
246.175323 32.0
247.069229 124.0
248.516663 136.0
249.062897 132.0
250.30513 220.0
250.620102 156.0
251.028152 144.0
251.061417 136.0
251.083481 220.0
251.717789 236.0
251.815674 128.0
252.033051 128.0
252.830521 120.0
252.862167 204.0
252.900146 128.0
252.976105 124.0
253.04921 3692.0
253.109085 52.0
253.340286 44.0
253.416321 120.0
253.549408 40.0
253.920334 32.0
254.055344 2136.0
254.113831 148.0
254.220245 52.0
254.586777 100.0
255.060577 420.0
255.228653 60.0
255.384476 136.0
255.594437 64.0
255.689911 76.0
255.829956 64.0
256.07196 116.0
256.514832 84.0
256.610474 244.0
256.750793 140.0
256.840088 120.0
257.197449 76.0
258.347809 152.0
258.552582 116.0
259.032837 36.0
259.587311 88.0
260.800842 132.0
261.022644 108.0
261.540619 172.0
262.133179 200.0
262.61676 108.0
263.068512 124.0
264.041382 236.0
264.597595 100.0
264.947357 28.0
265.050293 1480.0
265.219574 60.0
265.504883 120.0
266.060394 1684.0
266.865417 96.0
267.062622 572.0
267.3078 100.0
267.991577 132.0
268.036835 144.0
268.069763 160.0
268.105621 52.0
269.080902 164.0
272.960266 180.0
275.072083 144.0
277.052887 88.0
277.088104 304.0
277.686005 156.0
278.104034 88.0
278.133911 124.0
279.207062 144.0
279.390015 204.0
281.042877 352.0
281.302795 48.0
281.412964 140.0
281.556549 144.0
281.616669 64.0
281.766998 100.0
282.051483 1556.0
282.482391 40.0
282.532562 176.0
282.9375 52.0
283.061432 11348.0
283.103607 172.0
283.115692 220.0
283.16806 140.0
283.252289 48.0
283.280945 72.0
283.324615 68.0
283.714722 40.0
283.818665 72.0
283.912537 184.0
284.063873 2336.0
284.217804 36.0
284.412445 48.0
284.469513 88.0
284.587006 68.0
284.804565 100.0
285.01358 124.0
285.065186 816.0
285.504364 72.0
285.598511 144.0
285.672516 152.0
285.796997 140.0
285.914764 100.0
285.965271 80.0
286.072601 156.0
286.30191 64.0
286.460236 96.0
287.451447 76.0
288.596497 52.0
289.581207 200.0
290.079315 92.0
290.38446 72.0
292.66806 76.0
292.722534 52.0
293.046967 296.0
293.635834 196.0
293.710876 112.0
293.884857 32.0
294.054474 1412.0
294.379791 48.0
294.823883 160.0
295.062408 3016.0
295.141785 60.0
295.340118 164.0
295.388031 112.0
295.449585 64.0
296.004059 44.0
296.062317 408.0
296.528198 88.0
296.76358 96.0
296.901886 60.0
296.939606 164.0
297.040588 1372.0
297.454254 96.0
297.801056 100.0
298.053894 272.0
299.049103 60.0
299.479492 96.0
299.941193 124.0
300.030823 132.0
300.586121 48.0
301.166107 64.0
301.345734 100.0
301.684418 36.0
302.341583 160.0
303.020264 212.0
304.098694 208.0
309.079956 656.0
309.638641 76.0
310.07431 148.0
311.072693 132.0
311.557312 60.0
312.052856 124.0
312.249756 72.0
313.069733 136.0
318.24649 184.0
318.527039 216.0
319.055969 424.0
319.216522 128.0
320.052704 124.0
320.077637 84.0
321.061157 192.0
321.778351 60.0
322.067596 148.0
323.063629 292.0
324.041534 140.0
324.260834 56.0
332.999176 260.0
333.074524 464.0
333.195312 60.0
333.642334 128.0
334.076385 156.0
335.083191 148.0
336.071533 148.0
336.432861 144.0
337.682495 80.0
341.07486 416.0
342.073914 380.0
345.084839 112.0
345.495361 68.0
347.02121 156.0
347.087952 136.0
350.094543 108.0
351.099854 256.0
352.122894 176.0
352.50766 120.0
353.479889 144.0
358.835999 104.0
359.077332 212.0
362.032623 132.0
362.100311 636.0
362.570557 36.0
362.938263 88.0
363.101898 288.0
363.431335 48.0
363.605896 68.0
363.715973 68.0
364.114624 112.0
365.087494 72.0
367.136292 140.0
371.028717 116.0
374.094269 112.0
374.383057 164.0
379.634796 108.0
380.115845 1100.0
381.109436 168.0
381.117249 140.0
382.092072 372.0
383.093231 132.0
390.093475 224.0
390.133972 180.0
392.125671 108.0
396.116333 520.0
405.892639 116.0
408.112701 240.0
408.229645 52.0
408.342255 132.0
409.109833 120.0
410.11676 172.0
424.100098 180.0
424.157471 120.0
424.866882 188.0
425.076141 112.0
429.766876 160.0
434.006409 164.0
434.346466 120.0
434.931519 208.0
435.932404 60.0
436.360535 52.0
441.464142 72.0
447.228546 92.0
453.204071 84.0
453.944733 200.0
454.014313 188.0
454.1138 2420.0
454.204529 100.0
454.238464 52.0
454.594849 212.0
455.114868 784.0
455.252838 104.0
455.295288 60.0
455.325012 36.0
455.397217 104.0
455.432648 140.0
455.843292 108.0
455.915527 56.0
456.000519 56.0
456.130646 164.0
456.391602 80.0
456.480896 72.0
457.135986 64.0
458.217499 56.0
459.266144 100.0
460.696106 36.0
474.337402 80.0
502.324127 120.0
515.004578 80.0
531.546509 20.0
544.223755 72.0
559.540466 140.0
587.193726 40.0
593.892273 32.0
602.547302 40.0
653.75 76.0
661.651184 112.0
675.463074 36.0
800.189148 88.0
893.183777 68.0
990.587341 52.0
1117.29895 124.0
1141.948242 216.0
1179.675781 52.0
1188.476074 108.0
1196.978516 120.0
1227.697388 132.0
1228.429688 68.0
1233.687866 140.0
1256.504517 172.0
1267.271973 52.0
1270.100464 192.0
1291.568359 192.0
1294.352173 168.0
1301.199341 188.0
1304.582886 176.0
1311.39209 76.0
1316.008789 228.0
1316.59375 152.0
1322.06604 44.0
1327.810913 144.0
1333.90979 64.0
1352.436523 168.0
1369.735474 164.0
1373.280762 44.0
1376.549927 168.0
1383.492432 156.0
1389.450562 188.0
1389.687988 144.0
1394.19519 188.0
1412.236938 152.0
1429.852783 44.0
1440.068359 172.0
1445.057373 192.0
1449.083618 128.0
1455.380127 180.0
1459.581787 152.0
1462.160522 120.0
1473.674683 148.0
1476.372925 144.0
1476.839478 144.0
1496.530396 104.0
