>compound MLS000860049-01!SIB 1757
>formula C12H11N3O
>ionization [M+H]+
>parentmass 214.096603
#inchi InChI=1S/C12H11N3O/c1-9-7-8-11(16)12(13-9)15-14-10-5-3-2-4-6-10/h2-8,16H,1H3
#inchikey LOCPVWIREQIGNQ
#Ion_Source LC-ESI
#Instrument qTof
#Compound_Source NIH Pharmacologically Active Library
#PI Dorrestein
#Data_Collector VP/LMS
#Scan -1
#Precursor_MZ 214.1
#ExactMass 213.09
#Charge 1
#CAS_Number N/A
#Pubmed_ID N/A
#Smiles Cc1ccc(O)c(N=Nc2ccccc2)n1
#INCHI_AUX N/A
#Library_Class 1
#SpectrumID CCMSLIB00000085383
#IonMode Positive
#UpdateWorkflowName UPDATE-SINGLE-ANNOTATED-GOLD
#LibraryQualityString Gold
#TaskID d252d724072548979f1f6f1ced849daf
##Scan# 1982
#SpectrumFile p4-A02_GA2_01_18326.mzXML
#LibraryName Pharm_Active_Library.mgf
#MQScore -1
#Organism Pharm_Active_Library
#TIC_Query 0
#RT_Query -1
#MZErrorPPM -1
#SharedPeaks 0
#MassDiff 0
#LibMZ -1
#SpecMZ 214.1
#SpecCharge 0
#internalFilename spec-00000.mgf

>collision 10
45.124573 212.0
45.560143 148.0
45.704002 176.0
45.737648 124.0
45.978909 152.0
45.991055 112.0
46.174809 180.0
46.260052 160.0
46.334538 240.0
46.418571 236.0
46.472828 124.0
46.618122 132.0
46.654819 132.0
46.867142 72.0
46.92984 44.0
47.197464 148.0
47.25491 200.0
47.334297 148.0
47.618176 152.0
47.681374 228.0
47.706116 188.0
47.73774 124.0
47.784508 176.0
48.061451 140.0
48.090431 108.0
48.35857 168.0
48.591373 228.0
48.826126 176.0
49.420383 180.0
49.70483 76.0
49.775013 196.0
49.791866 192.0
49.814339 160.0
49.933815 148.0
50.119637 112.0
50.195755 64.0
50.335453 152.0
50.488075 160.0
50.649426 208.0
50.818127 176.0
50.889095 120.0
50.899033 176.0
50.967213 176.0
51.078106 160.0
51.32449 136.0
51.404369 184.0
52.058575 136.0
52.304428 196.0
52.685131 60.0
52.999088 168.0
53.097664 204.0
53.28492 160.0
53.329967 40.0
53.43504 188.0
53.452129 64.0
53.733341 192.0
53.880798 112.0
54.419777 132.0
54.606403 144.0
54.852299 224.0
54.936352 88.0
55.258419 148.0
55.279133 32.0
55.526535 100.0
55.572521 160.0
55.680889 112.0
55.707623 56.0
55.734367 64.0
56.157154 120.0
56.339268 204.0
56.581543 224.0
56.725357 156.0
57.036083 244.0
57.132324 116.0
57.168434 168.0
57.382328 48.0
58.187222 188.0
58.396927 192.0
58.457779 224.0
58.532372 40.0
58.979378 112.0
58.999249 48.0
59.035946 264.0
59.260963 116.0
59.28701 116.0
59.56472 108.0
59.747654 140.0
59.821522 240.0
59.966316 172.0
60.086594 140.0
60.128258 176.0
60.248699 208.0
60.308964 112.0
60.350704 224.0
60.489941 156.0
60.525551 176.0
60.872894 140.0
61.012733 92.0
61.036057 196.0
61.264847 160.0
61.519039 188.0
62.039982 108.0
62.124664 200.0
62.302059 152.0
62.465549 120.0
62.498589 232.0
62.812103 180.0
62.998375 252.0
63.097939 104.0
63.24189 108.0
63.36224 180.0
63.495392 164.0
63.576302 128.0
63.71603 136.0
63.793903 104.0
64.091522 160.0
64.266914 168.0
64.335381 200.0
64.799339 192.0
65.250328 164.0
66.045349 276.0
66.301155 180.0
66.3125 44.0
66.497398 160.0
66.536354 108.0
66.838669 100.0
67.440453 244.0
67.648193 148.0
67.926765 160.0
68.025223 128.0
68.056419 108.0
68.630661 172.0
69.426048 168.0
69.891174 184.0
70.011024 140.0
70.463066 148.0
71.741898 152.0
71.954468 212.0
72.334839 200.0
72.485573 68.0
72.514381 52.0
72.653427 160.0
72.714516 60.0
72.960815 208.0
73.321678 184.0
73.359505 188.0
73.792809 164.0
74.358101 116.0
74.710358 224.0
75.187645 156.0
75.434639 196.0
75.547043 76.0
76.278847 52.0
76.419708 140.0
76.630386 112.0
76.858795 88.0
77.236153 172.0
77.384903 124.0
77.498749 140.0
78.069244 136.0
78.162476 56.0
78.973923 176.0
79.096863 156.0
79.13681 128.0
79.248398 100.0
79.370697 184.0
79.423897 152.0
79.697296 276.0
80.136772 136.0
80.341805 124.0
80.438171 124.0
80.822411 120.0
80.981743 124.0
81.083862 192.0
81.351128 192.0
81.36908 32.0
81.775337 120.0
82.55471 176.0
82.657822 160.0
82.822571 212.0
82.860611 192.0
83.18705 204.0
83.473503 208.0
83.666977 200.0
83.721603 124.0
83.823181 168.0
84.182983 224.0
84.305382 40.0
84.457123 96.0
84.979225 120.0
85.29142 152.0
85.453255 140.0
85.490234 208.0
85.582092 136.0
86.011642 120.0
86.087341 136.0
86.360863 148.0
87.015007 204.0
87.061432 128.0
87.182182 32.0
87.6474 168.0
87.664169 204.0
87.87674 128.0
88.026619 176.0
88.525352 144.0
89.050476 124.0
89.990158 144.0
90.048698 100.0
90.33979 104.0
90.444923 208.0
90.572624 128.0
90.830414 164.0
91.054382 180.0
91.234894 124.0
91.880501 120.0
91.895767 236.0
91.974007 188.0
92.051147 632.0
92.145882 68.0
92.281578 148.0
92.787025 208.0
92.817703 236.0
92.92128 112.0
92.950058 152.0
93.058937 884.0
93.082512 84.0
93.124756 144.0
93.690292 192.0
93.856049 128.0
94.004578 176.0
94.030045 1468.0
94.063354 140.0
94.276863 80.0
94.348381 204.0
94.568901 224.0
94.801308 160.0
95.040764 168.0
95.06102 168.0
95.220352 176.0
95.948105 116.0
96.044312 1472.0
96.275917 104.0
96.414619 140.0
96.662979 184.0
97.047745 200.0
97.172424 128.0
97.329445 56.0
97.372643 176.0
98.029724 148.0
98.049431 136.0
98.687035 180.0
98.799767 196.0
98.948196 164.0
99.033348 160.0
99.519211 44.0
99.745682 228.0
100.032135 172.0
101.035927 104.0
101.500595 140.0
101.617943 176.0
101.739357 180.0
101.885956 220.0
102.050766 200.0
102.272049 64.0
102.380768 100.0
102.457108 200.0
103.040367 96.0
103.06057 220.0
103.353752 136.0
103.837914 244.0
104.004288 88.0
104.049622 520.0
104.174858 216.0
104.913574 184.0
105.044899 628.0
105.072647 164.0
105.11142 120.0
105.626266 172.0
105.787926 200.0
105.86982 68.0
106.043968 216.0
106.326996 160.0
106.376259 184.0
106.61657 224.0
106.64534 140.0
106.795441 176.0
107.108307 96.0
107.219566 156.0
107.240173 128.0
107.694099 168.0
107.904877 148.0
107.940025 176.0
108.04493 740.0
108.496986 168.0
108.770813 164.0
108.818565 152.0
108.855934 148.0
109.05275 520.0
109.444107 112.0
109.571449 172.0
109.753334 180.0
109.834114 184.0
110.031822 200.0
110.061035 34900.0
110.099487 204.0
110.118233 132.0
110.140953 48.0
110.174377 124.0
110.214729 64.0
110.257957 48.0
110.291397 80.0
110.31604 104.0
110.341568 44.0
110.356201 224.0
110.401054 116.0
110.492149 56.0
110.519348 144.0
110.536087 52.0
110.552834 76.0
110.599747 84.0
110.623993 300.0
110.71669 88.0
110.764297 40.0
110.887917 104.0
110.950798 68.0
110.982246 156.0
111.00322 28.0
111.064484 2860.0
111.184952 152.0
111.486038 128.0
111.523872 56.0
111.650017 120.0
111.763611 68.0
111.778343 128.0
111.879372 72.0
111.91095 48.0
112.041023 608.0
112.06456 344.0
112.585732 80.0
112.621635 152.0
112.820267 40.0
112.9133 68.0
113.037674 224.0
113.402374 108.0
113.582603 136.0
114.043365 132.0
114.105019 176.0
114.153923 216.0
114.385826 184.0
114.47525 176.0
114.635017 180.0
114.726669 180.0
114.801292 72.0
115.055504 2232.0
115.315811 60.0
115.341454 44.0
115.910744 60.0
116.060631 252.0
116.23024 228.0
116.337555 76.0
116.528694 152.0
116.971703 120.0
117.06031 148.0
117.609741 60.0
118.039665 140.0
118.064415 344.0
118.23436 68.0
118.537544 148.0
118.591721 72.0
118.637238 32.0
118.993034 60.0
119.065758 164.0
119.225456 172.0
119.736717 68.0
119.797707 108.0
119.928444 160.0
120.327652 148.0
120.876266 92.0
121.014168 164.0
121.0364 312.0
122.054199 132.0
122.21257 28.0
122.362236 88.0
122.820602 152.0
122.964966 236.0
124.038391 300.0
124.189758 168.0
124.43956 200.0
125.041832 460.0
126.046646 784.0
126.923927 136.0
127.049454 124.0
127.491867 48.0
127.928215 156.0
128.054962 192.0
128.065247 84.0
128.069077 328.0
128.992966 160.0
129.049301 148.0
129.660675 156.0
129.721863 144.0
129.837509 204.0
130.06871 356.0
130.46875 116.0
130.623383 48.0
130.734863 128.0
130.894211 144.0
130.948868 44.0
131.066528 160.0
131.090118 124.0
131.251968 32.0
131.272491 152.0
131.452698 288.0
131.528015 32.0
131.585083 112.0
131.930054 132.0
132.047791 208.0
133.072998 164.0
134.071594 164.0
135.891434 132.0
138.814133 72.0
139.053757 700.0
139.398636 44.0
139.440948 204.0
139.607864 236.0
139.680771 184.0
139.850189 168.0
140.024414 100.0
140.049835 1676.0
140.093201 180.0
140.47934 136.0
140.59259 184.0
140.741302 176.0
140.887741 100.0
141.069809 2920.0
141.116989 56.0
141.209213 80.0
141.464752 64.0
141.625778 144.0
142.067978 1116.0
142.491638 68.0
142.562332 152.0
143.072571 828.0
143.453094 160.0
143.629547 96.0
143.648636 228.0
143.74884 40.0
143.87056 108.0
143.987564 180.0
144.054443 156.0
144.077484 292.0
144.164352 156.0
144.434525 196.0
144.781555 72.0
145.075485 304.0
145.866058 164.0
145.916534 108.0
146.060471 468.0
147.005264 44.0
147.066574 268.0
147.984222 52.0
148.073868 136.0
148.531921 124.0
148.760025 124.0
149.063614 184.0
149.185135 164.0
150.04451 156.0
150.500763 164.0
150.549606 188.0
151.006622 164.0
151.049149 216.0
152.048126 912.0
152.214798 152.0
152.639908 48.0
152.691544 104.0
153.057007 7504.0
153.159195 72.0
153.176437 76.0
153.210922 60.0
153.266357 64.0
153.35878 160.0
153.41301 60.0
153.745987 84.0
153.785477 40.0
153.931137 52.0
153.979355 144.0
154.060822 2044.0
154.296814 108.0
154.576309 56.0
154.648087 100.0
155.022049 148.0
155.062317 476.0
155.222839 68.0
156.078934 676.0
156.136703 156.0
156.256836 96.0
156.506607 136.0
157.02832 128.0
157.079895 164.0
157.752426 64.0
158.025024 104.0
158.064713 148.0
158.070969 200.0
158.095581 228.0
158.297867 140.0
158.388031 64.0
158.641113 52.0
159.08754 188.0
160.080795 316.0
160.224365 172.0
160.75386 92.0
161.079559 304.0
161.815475 88.0
161.887207 208.0
162.944092 64.0
164.048584 144.0
164.369949 116.0
165.069855 56.0
165.417816 88.0
165.971191 148.0
166.027618 256.0
166.065323 1540.0
166.10199 236.0
166.245667 112.0
166.340637 160.0
166.404816 168.0
166.707916 92.0
167.073044 2320.0
167.135086 268.0
167.81218 124.0
168.039154 204.0
168.080765 1924.0
168.842499 56.0
168.969238 160.0
169.07637 396.0
169.386032 112.0
169.601105 120.0
169.831863 168.0
170.000504 144.0
170.061096 3104.0
170.280884 84.0
171.06546 540.0
171.409927 120.0
171.46727 124.0
171.730591 64.0
171.81929 84.0
172.071579 144.0
172.142944 56.0
173.071213 104.0
174.317184 188.0
176.327957 44.0
179.055328 152.0
180.053604 460.0
180.23175 180.0
180.277176 60.0
181.026215 100.0
181.071747 44.0
181.80632 76.0
182.080154 148.0
182.89212 148.0
183.064438 132.0
183.095749 128.0
184.074509 624.0
185.043655 164.0
185.081406 196.0
186.092178 2564.0
186.968216 148.0
187.093079 192.0
187.864655 64.0
188.085678 64.0
188.112976 84.0
188.200348 128.0
188.593735 132.0
188.856216 60.0
194.066635 160.0
194.446671 184.0
195.057739 180.0
195.078079 164.0
196.054138 180.0
196.084686 516.0
196.874329 72.0
197.06958 1408.0
198.077805 344.0
198.584335 128.0
198.895782 136.0
198.926651 172.0
199.074387 280.0
199.120392 192.0
199.508163 104.0
200.248215 112.0
201.043243 116.0
202.102905 136.0
208.700485 156.0
210.247375 184.0
211.469894 124.0
213.082184 144.0
213.26236 172.0
213.483307 144.0
213.503662 52.0
213.538574 144.0
213.864441 72.0
213.980881 116.0
214.096603 3420.0
214.141037 156.0
214.213852 108.0
214.362442 40.0
214.414902 60.0
214.516922 68.0
215.033203 96.0
215.09938 1040.0
215.22879 44.0
216.108582 280.0
216.243195 92.0
216.439331 100.0
216.72052 64.0
216.981384 44.0
219.772552 60.0
224.116409 76.0
224.214752 148.0
228.054718 136.0
242.852722 32.0
250.375763 112.0
270.468781 28.0
273.393127 140.0
285.55365 40.0
296.918121 56.0
334.245972 52.0
378.651398 76.0
395.207184 96.0
408.464661 56.0
445.209106 60.0
673.452698 88.0
787.296814 232.0
808.067078 140.0
809.357544 92.0
813.893738 108.0
823.843628 164.0
842.462646 180.0
856.500854 188.0
881.577209 100.0
890.113403 140.0
890.321228 196.0
900.887756 236.0
902.937927 184.0
921.754517 160.0
925.710693 188.0
932.821472 88.0
938.733398 160.0
941.021545 164.0
944.394775 156.0
944.511047 200.0
946.744995 72.0
955.762573 148.0
958.786133 260.0
960.24115 208.0
975.143799 60.0
981.531067 112.0
982.82843 112.0
989.378479 180.0
997.565186 180.0
1000.093872 220.0
1001.309021 76.0
1009.816833 136.0
1011.107483 76.0
1014.350403 68.0
1014.863953 204.0
1022.32135 188.0
1022.614136 236.0
1023.804688 160.0
1024.60083 184.0
1025.231689 136.0
1027.820679 208.0
1029.237793 204.0
1036.196655 164.0
1045.442993 176.0
1047.593506 48.0
1050.494385 160.0
1050.578247 200.0
1050.700928 228.0
1052.876099 232.0
1055.726196 116.0
1058.541138 188.0
1060.024536 156.0
1065.552734 232.0
1065.890625 188.0
1066.105103 156.0
1068.00354 168.0
1076.306274 96.0
1083.861206 152.0
1084.064331 132.0
1085.526123 144.0
1086.483765 252.0
1091.28479 176.0
1093.870239 112.0
1095.529663 36.0
1096.867432 164.0
1105.963013 156.0
1108.744751 68.0
1113.853638 192.0
1114.62439 156.0
1114.810425 212.0
1115.92041 116.0
1119.540283 128.0
1132.376465 68.0
1134.654785 148.0
1141.711914 136.0
1142.667114 156.0
1146.700684 156.0
1155.052979 208.0
1156.061157 108.0
1162.872192 252.0
1163.79541 152.0
1166.343018 184.0
1167.165649 172.0
1168.226685 160.0
1169.165649 148.0
1169.471924 132.0
1174.152588 60.0
1174.486816 168.0
1174.855103 132.0
1175.544189 52.0
1175.824097 164.0
1177.346436 144.0
1179.936157 176.0
1180.093506 140.0
1180.312256 152.0
1182.15918 184.0
1182.480835 188.0
1187.900757 32.0
1197.234619 272.0
1197.310425 248.0
1199.487671 236.0
1202.460449 160.0
1203.219849 152.0
1206.791748 160.0
1209.635132 52.0
1212.502686 188.0
1215.151611 228.0
1219.477783 160.0
1219.561279 104.0
1220.708374 156.0
1220.944824 92.0
1224.946899 224.0
1227.95813 196.0
1228.837036 64.0
1232.15332 188.0
1232.202271 48.0
1232.286133 108.0
1232.397949 164.0
1233.606934 144.0
1241.406738 156.0
1245.414185 136.0
1245.61084 192.0
1246.152344 200.0
1247.107544 84.0
1247.95813 176.0
1249.463257 156.0
1253.687988 132.0
1255.020264 192.0
1256.452026 168.0
1257.079956 220.0
1259.254395 136.0
1270.778931 164.0
1271.594971 232.0
1272.169922 160.0
1274.734009 216.0
1275.15332 104.0
1275.387817 108.0
1277.848389 336.0
1280.23291 196.0
1288.857178 184.0
1296.05542 204.0
1299.210083 196.0
1303.331299 196.0
1304.883789 116.0
1309.157959 188.0
1310.454468 188.0
1311.074219 176.0
1311.81665 200.0
1312.144043 216.0
1315.914307 152.0
1316.687012 148.0
1318.139038 124.0
1318.276367 112.0
1318.955688 132.0
1319.736572 196.0
1320.589844 204.0
1321.957153 108.0
1322.304565 236.0
1322.623047 172.0
1324.194214 176.0
1325.135986 160.0
1328.362061 128.0
1332.02063 84.0
1333.001465 212.0
1334.622437 216.0
1335.095093 128.0
1336.033325 156.0
1336.244385 208.0
1336.993896 192.0
1337.903687 188.0
1338.289551 260.0
1338.340576 160.0
1343.588135 156.0
1345.71936 172.0
1348.378296 204.0
1348.648682 96.0
1349.686768 200.0
1349.767212 148.0
1350.725342 256.0
1353.586914 128.0
1354.993286 180.0
1359.385376 196.0
1360.611084 80.0
1362.07251 56.0
1363.123047 132.0
1363.225952 196.0
1364.512329 260.0
1367.263306 216.0
1371.093018 168.0
1372.309326 128.0
1379.019531 164.0
1379.37439 180.0
1381.548462 184.0
1382.732422 208.0
1382.969238 92.0
1386.027832 124.0
1386.672485 184.0
1387.221069 136.0
1388.251709 160.0
1388.718872 140.0
1391.041382 184.0
1391.308594 192.0
1391.605591 120.0
1393.55896 216.0
1396.272217 188.0
1397.841919 152.0
1400.388062 168.0
1401.73645 220.0
1401.892944 156.0
1402.750122 156.0
1403.450928 100.0
1411.911499 140.0
1412.225708 144.0
1415.069336 208.0
1415.189087 244.0
1415.818115 112.0
1418.432983 48.0
1421.455444 196.0
1422.235962 156.0
1422.611328 128.0
1423.347168 184.0
1425.533081 172.0
1428.149414 184.0
1429.044556 184.0
1429.443359 160.0
1430.000244 208.0
1431.016479 60.0
1433.637817 52.0
1433.69812 140.0
1435.326416 132.0
1436.321899 188.0
1438.449951 84.0
1440.390503 176.0
1441.863892 136.0
1444.918823 224.0
1446.25061 124.0
1447.53772 116.0
1451.311279 180.0
1452.297119 152.0
1452.797729 52.0
1454.444458 48.0
1456.448975 156.0
1457.573364 156.0
1458.416992 172.0
1461.041748 164.0
1461.755737 56.0
1464.68689 224.0
1464.884888 128.0
1464.96106 172.0
1465.197266 140.0
1467.483643 76.0
1469.810059 52.0
1474.063354 136.0
1476.134888 188.0
1479.792358 164.0
1480.067993 180.0
1480.121704 188.0
1483.623047 56.0
1486.906006 156.0
1487.220703 192.0
1491.007202 232.0
1491.598999 152.0
1491.975708 144.0
1492.029541 136.0
1494.144409 128.0
1494.267578 184.0
1494.890869 180.0
1497.885864 76.0
1499.912354 160.0
1501.18457 100.0
1502.78894 244.0
