>compound MLS002153928-01!FluniSOLIDe3385-03-3
>formula C24H31FO6
>ionization [M+H]+
>parentmass 435.21774338409057
#inchi InChI=1S/C24H31FO6/c1-21(2)30-19-9-14-13-8-16(25)15-7-12(27)5-6-22(15,3)20(13)17(28)10-23(14,4)24(19,31-21)18(29)11-26/h5-7,13-14,16-17,19-20,26,28H,8-11H2,1-4H3/t13-,14-,16-,17-,19+,20+,22-,23-,24+/m0/s1
#inchikey XSFJVAJPIHIPKU
#Ion_Source LC-ESI
#Instrument qTof
#Compound_Source NIH Pharmacologically Active Library
#PI Dorrestein
#Data_Collector VP/LMS
#Scan -1
#Precursor_MZ 435.222
#ExactMass 434.21
#Charge 1
#CAS_Number N/A
#Pubmed_ID N/A
#Smiles CC1(C)O[C@@H]2C[C@H]3[C@@H]4C[C@H](F)C5=CC(=O)C=C[C@]5(C)[C@H]4[C@@H](O)C[C@]3(C)[C@@]2(O1)C(=O)CO
#INCHI_AUX N/A
#Library_Class 1
#SpectrumID CCMSLIB00000084903
#IonMode Positive
#UpdateWorkflowName UPDATE-SINGLE-ANNOTATED-GOLD
#LibraryQualityString Gold
#TaskID d252d724072548979f1f6f1ced849daf
##Scan# 1905
#SpectrumFile p3-C05_GC5_01_18250.mzXML
#LibraryName Pharm_Active_Library.mgf
#MQScore -1
#Organism Pharm_Active_Library
#TIC_Query 0
#RT_Query -1
#MZErrorPPM -1
#SharedPeaks 0
#MassDiff 0
#LibMZ -1
#SpecMZ 435.222
#SpecCharge 0
#internalFilename spec-00000.mgf

>collision 10
44.964245 108.0
45.164669 160.0
45.190086 184.0
45.218189 160.0
45.270401 180.0
45.328007 160.0
45.349449 160.0
45.490295 192.0
45.563274 152.0
45.651531 212.0
45.760948 128.0
45.848083 148.0
45.857521 148.0
45.915497 124.0
46.209984 212.0
46.273598 104.0
46.448421 148.0
46.532562 216.0
46.691013 220.0
46.721478 128.0
46.778633 144.0
46.938046 140.0
46.969414 52.0
47.324745 104.0
47.360352 208.0
47.582512 128.0
47.773544 108.0
47.795559 176.0
47.843731 188.0
47.871269 136.0
47.900192 132.0
47.947041 36.0
47.956688 124.0
48.015976 208.0
48.025631 160.0
48.087723 108.0
48.100143 172.0
48.11533 76.0
48.156757 148.0
48.315731 140.0
48.476349 40.0
48.522091 168.0
48.665001 348.0
48.737228 140.0
48.820633 200.0
48.849842 144.0
49.00856 72.0
49.018314 92.0
49.180096 116.0
49.372906 84.0
49.752644 160.0
49.921253 180.0
50.045086 232.0
50.194447 140.0
50.232529 64.0
50.273445 176.0
50.457752 136.0
50.486771 132.0
50.619797 60.0
50.631126 232.0
50.875015 192.0
50.904831 80.0
51.108105 200.0
51.140839 160.0
51.175003 140.0
51.226276 180.0
51.280422 164.0
51.473019 168.0
51.525867 232.0
51.588753 180.0
51.675995 156.0
51.740398 152.0
51.766174 204.0
51.846397 148.0
51.996986 80.0
52.073082 152.0
52.124802 124.0
52.337696 144.0
52.496204 84.0
52.536591 112.0
52.566891 140.0
52.578438 104.0
52.653511 152.0
52.851562 144.0
52.919594 144.0
52.984768 132.0
53.269192 148.0
53.456673 128.0
53.482872 152.0
53.541111 148.0
53.555676 180.0
53.7131 192.0
53.773899 228.0
53.95406 136.0
54.075474 200.0
54.260048 144.0
54.343651 192.0
54.528683 104.0
54.564697 128.0
54.624256 132.0
54.687531 168.0
54.724335 124.0
54.769985 144.0
54.817135 160.0
54.917385 168.0
55.001492 132.0
55.063507 48.0
55.24976 228.0
55.337078 164.0
55.394836 176.0
55.536472 284.0
55.560875 56.0
55.605392 180.0
55.794044 200.0
55.804455 156.0
55.841629 160.0
55.933884 192.0
55.984505 216.0
56.079857 148.0
56.279766 160.0
56.318592 116.0
56.53838 184.0
56.565319 188.0
56.64019 64.0
56.754093 136.0
56.84248 212.0
56.892124 60.0
56.941677 200.0
56.956696 144.0
57.168694 140.0
57.203312 184.0
57.257515 168.0
57.281616 140.0
57.453472 156.0
57.713253 120.0
57.900902 120.0
57.929153 92.0
58.064587 144.0
58.173836 204.0
58.219387 48.0
58.345505 132.0
58.395687 156.0
58.521996 148.0
58.607292 168.0
58.797913 216.0
59.08366 188.0
59.115791 140.0
59.327164 220.0
59.532772 252.0
59.608044 180.0
59.666451 64.0
59.801823 244.0
59.896538 164.0
60.000542 244.0
60.470142 136.0
60.513485 136.0
60.572334 160.0
60.587826 136.0
60.60952 184.0
60.738197 92.0
60.827557 184.0
60.885647 48.0
60.963326 196.0
61.400795 92.0
61.616211 184.0
61.670906 152.0
61.730316 120.0
61.744389 136.0
61.833569 152.0
61.98391 196.0
61.998013 140.0
62.061237 212.0
62.088943 144.0
62.178368 136.0
62.206623 220.0
62.336987 168.0
62.352699 196.0
62.376278 120.0
62.481644 160.0
62.56348 152.0
62.583946 184.0
62.594971 88.0
62.667427 80.0
62.749386 144.0
62.760422 84.0
62.814045 192.0
62.994003 156.0
63.017704 136.0
63.141003 180.0
63.261261 148.0
63.311928 256.0
63.421249 156.0
63.735481 192.0
63.85471 212.0
63.9263 92.0
63.966091 84.0
64.004143 164.0
64.014137 180.0
64.334335 148.0
64.406197 80.0
64.74688 168.0
64.7677 152.0
64.804543 196.0
64.916748 196.0
64.934395 140.0
65.091667 140.0
65.239487 196.0
65.461525 184.0
65.888962 84.0
65.900276 192.0
66.131531 116.0
66.189812 228.0
66.240013 172.0
66.475113 136.0
66.656982 232.0
66.694366 108.0
66.817955 108.0
66.993042 168.0
67.050812 168.0
67.124176 56.0
67.290604 192.0
67.328163 144.0
67.583176 52.0
68.2146 200.0
68.448227 36.0
68.537178 156.0
68.556946 180.0
68.631126 160.0
68.66246 80.0
68.787865 184.0
68.962952 36.0
69.010895 132.0
69.059807 132.0
69.267418 56.0
69.345291 148.0
69.371437 140.0
69.461365 108.0
69.511131 164.0
69.582512 104.0
69.602608 192.0
69.710411 176.0
69.748634 188.0
69.766922 136.0
69.976547 100.0
70.029839 188.0
70.183151 192.0
70.309937 96.0
70.349998 148.0
70.395073 180.0
70.676765 156.0
70.752899 108.0
70.855057 160.0
70.880188 136.0
70.912033 300.0
71.029404 76.0
71.104912 188.0
71.229156 48.0
71.358559 168.0
71.432556 132.0
71.476303 152.0
71.498177 220.0
71.526794 240.0
71.617722 132.0
71.644676 116.0
71.71376 124.0
71.872284 128.0
71.996803 152.0
72.056328 152.0
72.203392 128.0
72.22876 176.0
72.26429 156.0
72.29982 152.0
72.377693 224.0
72.433319 204.0
72.645477 160.0
73.323921 160.0
73.485924 80.0
73.716438 100.0
73.73011 68.0
73.750618 68.0
73.781387 180.0
73.80191 132.0
73.933624 160.0
73.945602 132.0
74.106575 100.0
74.175125 104.0
74.209419 140.0
74.3312 108.0
74.513206 184.0
74.671356 176.0
74.745331 236.0
74.891457 100.0
74.953682 204.0
75.012283 160.0
75.082977 152.0
75.310799 80.0
75.419655 160.0
75.469788 136.0
75.497978 120.0
75.56665 216.0
75.796936 148.0
75.821198 80.0
75.847198 40.0
75.904411 172.0
75.963379 60.0
75.985931 184.0
76.05014 76.0
76.091805 264.0
76.246407 132.0
76.573486 200.0
76.59613 160.0
76.637939 132.0
76.717873 172.0
76.803558 152.0
76.897781 260.0
77.072418 168.0
77.11261 192.0
77.12484 256.0
77.214012 48.0
77.329483 156.0
77.411774 172.0
77.481834 164.0
77.629753 184.0
77.660637 204.0
77.901115 244.0
77.936256 164.0
78.113823 200.0
78.207085 136.0
78.277504 128.0
78.344437 112.0
78.406105 144.0
78.475082 136.0
78.626564 240.0
78.686577 168.0
78.847321 148.0
78.877373 116.0
78.946327 160.0
78.987007 124.0
79.015312 204.0
79.040085 156.0
79.121498 216.0
79.155144 176.0
79.296867 76.0
79.447586 168.0
79.561172 116.0
79.950211 216.0
80.041229 200.0
80.09375 204.0
80.172852 140.0
80.279381 224.0
80.513802 180.0
80.608482 164.0
80.646011 224.0
80.685341 108.0
80.712158 152.0
80.735405 32.0
80.891068 148.0
80.959106 164.0
81.06839 44.0
81.254868 208.0
81.281784 28.0
81.303314 136.0
81.400253 184.0
81.423599 116.0
81.441559 96.0
81.632065 192.0
81.741798 404.0
81.835403 64.0
82.006538 152.0
82.296982 148.0
82.342125 228.0
82.387283 176.0
82.412575 124.0
82.428841 176.0
82.687447 64.0
82.844978 36.0
82.866722 148.0
82.902962 228.0
82.946465 160.0
83.042564 60.0
83.073395 188.0
83.28553 124.0
83.320297 112.0
83.372993 176.0
83.442062 132.0
83.467522 40.0
83.913803 196.0
84.058815 272.0
84.117943 96.0
84.132545 116.0
84.152634 184.0
84.25856 132.0
84.284142 176.0
84.348106 148.0
84.529167 164.0
84.54747 160.0
84.617027 168.0
84.67746 228.0
84.743973 180.0
84.769058 168.0
84.897385 148.0
84.937729 140.0
85.023964 96.0
85.055168 60.0
85.117592 244.0
85.134117 40.0
85.244675 152.0
85.490761 124.0
85.722794 140.0
85.807579 168.0
85.916397 140.0
86.016045 252.0
86.126839 144.0
86.221069 120.0
86.252487 116.0
86.398575 188.0
86.537384 108.0
86.600349 76.0
86.626282 148.0
86.69854 112.0
86.733757 128.0
86.835739 148.0
87.285156 72.0
87.791672 164.0
87.842026 144.0
87.898003 144.0
88.004395 136.0
88.026802 204.0
88.176254 44.0
88.393188 76.0
88.580414 184.0
89.097542 152.0
89.171463 184.0
89.246658 144.0
89.347946 160.0
89.479965 200.0
89.707924 92.0
90.289482 120.0
90.507103 128.0
90.642189 204.0
90.748543 196.0
91.034264 112.0
91.052971 640.0
91.14064 168.0
91.660973 172.0
91.815109 116.0
91.869835 168.0
91.928986 160.0
92.375809 144.0
92.412422 172.0
92.743721 164.0
92.774391 144.0
92.923988 184.0
93.069504 332.0
93.156288 204.0
93.225456 144.0
93.338867 44.0
93.411957 160.0
93.492767 220.0
93.508163 232.0
93.594788 120.0
93.656418 156.0
93.750824 224.0
93.810577 140.0
93.9282 136.0
93.960999 156.0
94.047836 120.0
94.070999 168.0
94.125061 108.0
94.184929 204.0
94.296997 144.0
94.322121 176.0
94.434273 104.0
94.660698 172.0
94.786613 112.0
95.013374 172.0
95.085258 156.0
95.108551 216.0
95.26001 224.0
95.364944 176.0
95.384377 148.0
95.47995 212.0
95.633354 116.0
95.660606 188.0
96.120567 132.0
96.189003 184.0
96.333382 128.0
96.920319 192.0
96.977158 208.0
97.030083 132.0
97.063835 216.0
97.079102 188.0
97.102638 64.0
97.120285 68.0
97.1968 120.0
97.455986 160.0
97.64077 112.0
97.723389 124.0
97.754036 92.0
97.778488 136.0
97.985245 180.0
98.172501 148.0
98.502113 172.0
98.527794 92.0
98.692825 116.0
98.912369 204.0
99.047958 204.0
99.147133 52.0
99.414856 188.0
99.4347 184.0
99.635262 240.0
99.649162 164.0
99.714745 212.0
99.820107 172.0
99.923538 240.0
100.030998 232.0
100.064842 160.0
100.084755 136.0
100.107185 136.0
100.202271 148.0
100.353745 128.0
100.44548 136.0
100.525284 160.0
100.57119 172.0
100.734932 124.0
100.788872 196.0
101.022789 168.0
101.0448 160.0
101.088821 100.0
101.23896 128.0
101.417267 120.0
101.441322 136.0
101.575676 168.0
101.631851 216.0
101.694061 212.0
102.232681 204.0
102.425964 156.0
102.450134 160.0
102.709145 164.0
102.77272 172.0
102.845367 128.0
102.94632 248.0
103.051704 400.0
103.184746 128.0
103.223167 72.0
103.398567 204.0
103.459892 88.0
103.506462 152.0
103.569237 156.0
103.644196 88.0
103.788116 144.0
104.053909 120.0
104.177788 220.0
104.238747 228.0
104.26461 192.0
104.333382 200.0
104.374939 160.0
104.558891 140.0
104.695366 216.0
104.859444 212.0
104.906326 188.0
104.991966 196.0
105.030716 172.0
105.068016 1636.0
105.098038 192.0
105.205811 164.0
105.363464 128.0
105.457214 164.0
105.702873 148.0
105.896545 128.0
105.923988 108.0
105.940376 168.0
105.962914 144.0
105.994469 120.0
106.018234 156.0
106.072594 292.0
106.135078 172.0
106.149437 208.0
106.229424 232.0
106.379227 108.0
106.627762 56.0
106.742889 144.0
106.786072 156.0
106.851898 36.0
107.020668 92.0
107.048569 432.0
107.08683 692.0
107.232857 192.0
107.25106 168.0
107.274078 168.0
107.393677 212.0
107.410042 180.0
107.548424 152.0
107.876862 72.0
107.907875 100.0
108.067963 268.0
108.083687 140.0
108.243073 72.0
108.267921 228.0
108.431587 116.0
108.55555 156.0
108.632721 144.0
108.67836 192.0
109.043846 388.0
109.066071 808.0
109.118683 52.0
109.178986 116.0
109.554115 124.0
109.664085 188.0
109.726616 88.0
109.820457 116.0
110.041664 220.0
110.075066 152.0
110.173233 80.0
110.263084 204.0
110.505653 260.0
110.614479 152.0
110.646233 188.0
110.725449 192.0
110.899345 144.0
110.947563 172.0
110.987396 156.0
111.046112 184.0
111.083054 144.0
111.289543 144.0
111.379845 140.0
111.693398 192.0
111.777199 172.0
111.882439 136.0
112.095169 120.0
112.149963 184.0
112.280685 188.0
112.37561 92.0
112.450951 176.0
112.500122 224.0
112.593033 136.0
112.715553 152.0
112.859291 88.0
113.003113 56.0
113.02861 168.0
113.057304 184.0
113.09623 156.0
113.170746 120.0
113.530556 136.0
113.602669 336.0
113.819153 84.0
113.846764 236.0
113.955093 144.0
113.980591 128.0
114.025215 136.0
114.105995 96.0
114.316566 168.0
114.35701 160.0
114.491135 164.0
114.510025 184.0
114.601906 60.0
114.650917 144.0
114.687149 68.0
115.042168 388.0
115.051292 644.0
115.639755 148.0
115.973885 144.0
116.038193 112.0
116.063141 132.0
116.314934 76.0
116.458794 156.0
116.555473 124.0
116.682281 164.0
116.757538 40.0
116.867249 168.0
117.013603 112.0
117.069504 980.0
117.384209 180.0
117.494217 148.0
117.653526 200.0
117.675507 48.0
117.833168 56.0
117.993103 164.0
118.075233 368.0
118.369583 140.0
118.402794 96.0
118.525543 176.0
118.547218 128.0
118.640419 176.0
118.818253 172.0
119.028786 164.0
119.0858 1136.0
119.167801 160.0
119.186043 220.0
119.415619 148.0
119.543976 152.0
119.635391 144.0
119.942543 56.0
120.04937 172.0
120.082085 196.0
120.17807 152.0
120.246086 120.0
120.341766 144.0
120.370155 136.0
120.53437 204.0
120.820404 48.0
120.857597 140.0
120.901367 96.0
121.003334 212.0
121.06414 8384.0
121.100594 168.0
121.135643 36.0
121.20137 44.0
121.25396 72.0
121.363571 68.0
121.383301 216.0
121.495163 192.0
121.519295 52.0
121.639999 60.0
121.754173 36.0
121.811279 192.0
121.844231 60.0
121.90136 84.0
122.000267 132.0
122.026649 152.0
122.066071 668.0
122.10141 192.0
122.145401 32.0
122.196617 128.0
122.26519 176.0
122.356667 168.0
122.387489 192.0
122.790764 40.0
122.859138 112.0
122.903267 112.0
123.022446 140.0
123.042313 88.0
123.064209 144.0
123.081055 724.0
123.115181 136.0
123.188072 136.0
123.309601 100.0
123.632492 196.0
123.721024 156.0
123.756447 148.0
123.802948 116.0
123.831741 200.0
123.876045 112.0
123.895981 36.0
124.062187 164.0
124.188583 192.0
124.297295 152.0
124.430466 64.0
124.510406 84.0
124.539276 140.0
124.574821 132.0
124.641472 196.0
124.672585 168.0
124.874893 52.0
125.026184 164.0
125.060951 400.0
125.137482 204.0
125.371368 140.0
125.58094 264.0
125.705872 228.0
125.839798 204.0
125.897858 132.0
126.045288 148.0
126.25766 144.0
126.32476 148.0
126.476921 156.0
126.880142 124.0
126.981049 132.0
127.041878 136.0
127.057503 144.0
127.066772 200.0
127.113411 128.0
127.140343 84.0
127.257065 188.0
127.385078 236.0
127.414284 200.0
127.470451 168.0
127.567101 140.0
127.65638 152.0
127.752365 228.0
128.059586 720.0
128.152405 108.0
128.177032 68.0
128.22435 88.0
128.240814 92.0
128.262665 164.0
128.379913 48.0
128.485916 40.0
128.573914 128.0
128.598755 184.0
128.614548 136.0
128.684525 224.0
128.702591 192.0
128.80452 180.0
129.068817 656.0
129.1772 132.0
129.224701 176.0
129.265442 128.0
129.398987 208.0
129.423889 168.0
129.63681 176.0
129.664017 120.0
129.802292 168.0
129.942932 140.0
129.958801 144.0
130.075409 364.0
130.197159 204.0
130.426636 92.0
130.508469 204.0
130.660858 192.0
131.051697 348.0
131.084839 1004.0
131.115372 168.0
131.158951 184.0
131.207443 176.0
131.271286 44.0
131.310059 72.0
131.433243 188.0
131.515396 176.0
131.611282 36.0
131.675232 68.0
132.056549 376.0
132.085663 216.0
132.164429 184.0
132.198746 220.0
132.219345 240.0
132.487244 56.0
132.533066 172.0
132.824234 136.0
132.860931 196.0
133.064285 2092.0
133.100693 464.0
133.727234 68.0
133.752548 52.0
133.90451 164.0
134.073288 156.0
134.102661 148.0
134.13031 184.0
134.36554 148.0
134.462448 148.0
134.554779 168.0
134.663315 124.0
134.737228 172.0
134.77652 152.0
134.880508 176.0
134.979919 68.0
135.045471 136.0
135.081665 1828.0
135.162659 132.0
135.36174 124.0
135.519241 96.0
135.952866 108.0
136.029449 212.0
136.0457 140.0
136.083923 156.0
136.087769 196.0
136.220749 64.0
136.315125 68.0
136.389496 160.0
136.482498 188.0
136.561569 88.0
136.608078 236.0
136.724426 108.0
136.892151 168.0
136.91066 212.0
136.938614 76.0
136.966568 136.0
137.059082 896.0
137.148315 192.0
137.234558 60.0
137.320847 188.0
137.365173 160.0
137.575195 72.0
137.687271 252.0
137.825089 164.0
137.909225 128.0
138.058853 124.0
138.082245 156.0
138.117325 172.0
138.176453 72.0
138.192184 172.0
138.220261 128.0
138.238983 112.0
138.54805 168.0
138.57077 160.0
138.641769 144.0
138.714432 164.0
138.916107 128.0
139.000565 228.0
139.054733 1352.0
139.258804 164.0
139.366867 40.0
139.430313 196.0
139.496124 148.0
139.524338 176.0
139.576065 76.0
139.630157 192.0
139.728943 164.0
140.058517 520.0
140.129196 28.0
140.184113 208.0
140.354874 168.0
140.492264 104.0
140.820358 108.0
140.874695 180.0
141.018829 172.0
141.06749 1048.0
141.096832 208.0
141.302597 128.0
141.349915 144.0
141.366486 192.0
141.59375 104.0
141.779922 164.0
141.956345 92.0
142.078995 864.0
142.587814 200.0
142.73996 156.0
142.792282 148.0
143.033798 152.0
143.086533 1176.0
143.194504 192.0
143.225464 92.0
143.249298 100.0
143.380341 196.0
143.530518 180.0
143.595932 204.0
143.709412 132.0
144.05542 568.0
144.085159 296.0
144.579208 144.0
144.82103 92.0
144.967163 124.0
145.064713 3792.0
145.099167 712.0
145.166138 96.0
145.316132 168.0
145.384445 200.0
145.410843 88.0
145.855179 164.0
145.908066 124.0
146.040329 160.0
146.068405 796.0
146.102585 192.0
146.545868 136.0
146.813431 124.0
146.859253 64.0
146.919556 176.0
147.008408 180.0
147.080185 3868.0
147.11969 164.0
147.153656 216.0
147.24408 144.0
147.281647 84.0
147.371033 76.0
147.409698 132.0
147.442352 84.0
147.467697 148.0
147.484619 108.0
147.595825 92.0
147.629684 176.0
147.694977 96.0
147.992645 84.0
148.081787 792.0
148.237289 68.0
148.438492 52.0
148.724762 52.0
148.88501 28.0
148.98703 236.0
149.038757 152.0
149.06749 212.0
149.095184 336.0
149.123108 48.0
149.222504 112.0
149.231918 100.0
149.380844 140.0
149.400299 148.0
149.692383 220.0
149.748398 108.0
149.78006 144.0
149.806854 80.0
149.948181 172.0
150.045685 180.0
150.104202 108.0
150.140778 168.0
150.175842 180.0
150.204193 44.0
150.262741 92.0
150.348145 100.0
150.41893 164.0
150.543442 108.0
150.638702 164.0
150.914352 176.0
150.956436 104.0
151.022461 156.0
151.049362 172.0
151.07666 608.0
151.197418 212.0
151.328354 112.0
151.382217 244.0
151.563492 184.0
151.629654 44.0
151.698288 196.0
151.8405 124.0
152.06279 488.0
152.328949 52.0
152.562408 124.0
152.877228 140.0
153.069595 440.0
153.451157 188.0
153.504776 220.0
153.537094 188.0
153.577576 112.0
153.668198 144.0
153.727417 96.0
153.803925 164.0
153.868118 92.0
153.900208 184.0
153.939713 208.0
153.979233 48.0
154.072388 140.0
154.076752 100.0
154.090164 188.0
154.154633 196.0
154.231247 200.0
154.255966 164.0
154.45874 96.0
154.528 92.0
154.577484 100.0
154.76561 164.0
154.901825 56.0
154.986053 180.0
155.043655 148.0
155.081635 772.0
155.256516 172.0
155.299438 176.0
155.49939 36.0
155.532349 100.0
155.8396 76.0
156.045883 132.0
156.07074 236.0
156.094681 192.0
156.128769 216.0
156.242355 36.0
156.409088 40.0
156.648132 164.0
156.914795 196.0
157.063019 264.0
157.100998 1424.0
157.131775 252.0
157.214111 36.0
157.323944 160.0
157.436295 176.0
157.481262 180.0
157.716125 232.0
158.072403 1336.0
158.108795 164.0
158.468307 196.0
158.662369 204.0
159.043655 196.0
159.079773 3596.0
159.169189 84.0
159.231964 44.0
159.493271 40.0
159.827744 200.0
159.940994 148.0
160.083511 712.0
160.129715 156.0
160.187775 60.0
160.218002 44.0
160.245712 224.0
160.401962 104.0
160.432205 72.0
160.931747 232.0
161.059387 384.0
161.096741 804.0
161.189392 44.0
161.662262 260.0
162.100662 204.0
162.277786 48.0
162.321671 132.0
162.363998 144.0
162.391907 124.0
162.465469 140.0
162.587265 172.0
162.660858 180.0
162.881775 172.0
163.07489 1052.0
163.107925 140.0
163.227417 124.0
163.324066 204.0
163.392746 116.0
163.560699 112.0
163.736389 212.0
163.774582 172.0
164.044693 128.0
164.072876 144.0
164.118622 172.0
164.167068 132.0
164.190033 220.0
164.371155 196.0
164.562927 148.0
164.680923 132.0
164.78479 104.0
164.89978 172.0
165.009705 136.0
165.033295 172.0
165.071518 2620.0
165.278259 88.0
165.329437 152.0
165.37294 180.0
165.465103 100.0
165.50351 256.0
165.552155 96.0
165.605942 84.0
165.659729 48.0
166.074203 600.0
166.162201 192.0
166.187866 168.0
166.323883 124.0
166.698364 148.0
166.708527 120.0
166.804214 100.0
166.986786 52.0
167.035995 208.0
167.086029 1352.0
167.424301 172.0
167.486115 148.0
167.519592 208.0
167.576279 156.0
167.790192 136.0
167.921692 132.0
167.975861 132.0
168.053131 304.0
168.091064 876.0
168.177124 68.0
168.414673 184.0
168.978226 156.0
169.063034 1424.0
169.100616 552.0
169.130905 208.0
169.462387 172.0
169.558258 152.0
169.721573 160.0
169.752686 192.0
169.99913 64.0
170.068924 676.0
170.100098 200.0
170.219772 192.0
170.360031 80.0
170.443176 128.0
170.536728 96.0
170.593918 80.0
170.6745 128.0
170.87999 44.0
171.002838 236.0
171.079712 10932.0
171.115646 300.0
171.148071 96.0
171.1689 120.0
171.244644 92.0
171.296524 44.0
171.471085 92.0
171.525833 36.0
171.825729 144.0
171.883133 164.0
172.016235 52.0
172.048172 152.0
172.083572 2372.0
172.212067 32.0
172.366196 148.0
172.810699 176.0
173.057709 380.0
173.095703 1932.0
173.164093 52.0
173.216476 40.0
173.258392 168.0
173.305557 176.0
173.394653 72.0
173.427505 92.0
173.494263 136.0
173.588654 80.0
173.65683 48.0
173.767014 148.0
173.79303 140.0
173.95256 68.0
174.069153 212.0
174.099136 192.0
174.981247 176.0
175.028641 196.0
175.07547 460.0
175.110077 316.0
175.313126 136.0
175.363205 160.0
175.442291 100.0
175.655884 144.0
175.687546 120.0
175.811554 208.0
176.028015 144.0
176.059708 164.0
176.082916 112.0
176.104614 140.0
176.383743 200.0
176.487793 120.0
176.606796 64.0
176.651764 244.0
176.979935 108.0
177.062027 156.0
177.092606 320.0
177.117645 176.0
177.289871 224.0
177.451553 156.0
177.786942 260.0
178.037979 44.0
178.07605 752.0
178.247849 212.0
178.420609 192.0
178.571945 140.0
178.582733 128.0
178.731796 116.0
179.084305 2728.0
179.208405 112.0
179.261688 64.0
179.418945 64.0
179.605621 64.0
179.75502 112.0
179.803055 140.0
180.090973 732.0
180.259705 144.0
180.489594 76.0
180.620636 164.0
180.955154 80.0
180.989746 100.0
181.063568 868.0
181.099823 1256.0
181.145294 100.0
181.383774 96.0
182.035736 260.0
182.074783 1172.0
182.102692 432.0
182.22644 48.0
182.279846 144.0
182.347366 148.0
182.376923 160.0
182.483749 112.0
182.554367 156.0
182.874527 40.0
183.080246 2372.0
183.121384 528.0
183.181488 136.0
183.30542 132.0
183.405136 84.0
183.467133 44.0
183.55072 244.0
183.841187 224.0
184.090317 440.0
184.119659 96.0
184.144424 176.0
184.217346 140.0
184.401093 44.0
184.425415 136.0
184.798599 184.0
184.955566 188.0
184.998871 176.0
185.02594 100.0
185.06369 268.0
185.095078 2488.0
185.128952 420.0
185.237885 160.0
185.296768 140.0
185.472916 128.0
186.061295 116.0
186.099884 532.0
186.12674 176.0
186.414673 64.0
186.50708 124.0
186.623978 64.0
186.841461 116.0
187.015717 120.0
187.070847 344.0
187.095337 128.0
187.114075 872.0
187.440567 104.0
188.076523 176.0
188.179733 116.0
188.564911 212.0
188.655106 124.0
188.914902 152.0
189.067444 940.0
189.131073 96.0
189.246048 192.0
189.54187 148.0
189.879059 164.0
190.07666 2044.0
190.103668 220.0
190.180862 92.0
190.41423 108.0
190.636765 148.0
190.741196 208.0
190.768692 88.0
191.084869 1760.0
191.305115 56.0
191.649384 132.0
191.77063 128.0
191.971893 140.0
191.996704 132.0
192.038086 112.0
192.092651 1172.0
192.153946 104.0
192.214645 44.0
192.264313 92.0
192.637054 88.0
192.74205 120.0
192.91893 60.0
192.985275 104.0
193.007401 160.0
193.101456 1884.0
193.18718 48.0
193.206543 60.0
193.350418 136.0
193.394699 40.0
193.549698 152.0
193.804565 160.0
194.071808 1056.0
194.103195 948.0
194.234268 96.0
194.273102 40.0
194.303619 124.0
194.578384 104.0
194.700562 204.0
194.822769 112.0
194.903351 180.0
195.081131 1880.0
195.116516 2008.0
195.300888 220.0
195.490082 96.0
195.609756 60.0
195.707199 160.0
195.871506 156.0
196.085785 2244.0
196.1241 528.0
196.498749 44.0
196.562927 148.0
196.671768 184.0
196.698212 120.0
196.744339 168.0
196.85881 136.0
196.900711 148.0
197.006851 92.0
197.054337 180.0
197.097183 4336.0
197.130264 296.0
197.408234 164.0
197.71756 176.0
197.750641 60.0
197.865402 128.0
197.983017 176.0
198.029266 184.0
198.0634 268.0
198.100159 2084.0
198.13089 176.0
198.167892 112.0
198.599594 260.0
198.748291 76.0
198.852112 188.0
199.082947 284.0
199.109756 984.0
199.360443 152.0
199.678116 124.0
199.6978 172.0
199.742813 192.0
200.027008 136.0
200.089417 120.0
200.115234 748.0
200.207214 44.0
200.472015 36.0
200.579117 220.0
200.649597 48.0
200.957016 148.0
201.007797 88.0
201.091324 548.0
201.117432 104.0
201.425644 188.0
201.545822 164.0
201.968353 200.0
202.07724 452.0
202.500473 156.0
202.647781 144.0
202.670441 124.0
202.934036 232.0
203.00209 128.0
203.088043 692.0
203.172272 124.0
203.274414 216.0
203.678513 180.0
203.830978 88.0
204.093552 760.0
204.519211 48.0
204.596069 192.0
204.64447 208.0
204.741287 180.0
205.066742 464.0
205.102509 3132.0
205.319809 196.0
205.339783 140.0
205.896301 176.0
206.078552 332.0
206.106888 1204.0
206.141037 96.0
206.324921 40.0
206.350647 188.0
206.456436 192.0
206.505066 92.0
206.539383 160.0
206.81694 60.0
207.0755 352.0
207.115845 1676.0
207.151962 28.0
207.196304 208.0
207.278015 92.0
207.358261 44.0
207.768295 92.0
207.81134 232.0
207.974915 128.0
208.086975 4500.0
208.1194 560.0
208.161514 120.0
208.259171 76.0
208.411423 180.0
208.508789 212.0
208.557114 380.0
208.5914 148.0
208.655731 36.0
208.7276 192.0
208.75061 140.0
209.09581 5680.0
209.134399 100.0
209.219604 28.0
209.360687 60.0
209.426926 68.0
209.539276 60.0
209.570969 56.0
209.632477 116.0
209.668945 48.0
209.772705 144.0
209.922638 52.0
209.953629 96.0
210.020691 32.0
210.040878 32.0
210.102982 2556.0
210.143616 72.0
210.221802 152.0
210.277481 188.0
210.300568 128.0
210.361176 148.0
210.62973 84.0
210.678833 192.0
210.72084 104.0
210.750198 172.0
210.912903 124.0
211.109268 2964.0
211.136337 300.0
211.170242 216.0
211.232986 92.0
211.358276 48.0
211.410355 68.0
211.436401 116.0
211.456665 56.0
211.496567 192.0
211.612976 176.0
211.636139 96.0
211.725906 172.0
211.780945 240.0
212.080109 220.0
212.11322 660.0
212.154739 116.0
212.177933 116.0
212.430237 148.0
212.459244 148.0
212.781387 148.0
212.8685 172.0
212.952713 48.0
213.026123 88.0
213.057495 172.0
213.089676 316.0
213.12616 2128.0
213.205475 208.0
213.228729 64.0
213.353714 44.0
213.440933 80.0
213.664902 120.0
213.693985 104.0
213.810699 148.0
213.99086 152.0
214.073715 124.0
214.126404 600.0
214.241318 104.0
214.30542 88.0
214.349121 92.0
214.58522 216.0
214.704773 164.0
215.083359 724.0
215.141373 304.0
215.247559 48.0
215.390656 152.0
215.481216 80.0
215.677017 160.0
215.717941 180.0
216.095917 480.0
216.262009 124.0
216.297119 176.0
216.464005 28.0
216.496216 204.0
216.537216 160.0
216.657318 136.0
216.809677 160.0
216.83313 164.0
216.859497 104.0
217.0354 200.0
217.097824 724.0
217.176163 40.0
217.290573 72.0
217.363922 168.0
217.419678 68.0
217.446091 44.0
217.551758 36.0
217.581116 40.0
218.068588 492.0
218.108673 792.0
218.216339 132.0
218.242172 156.0
218.368622 156.0
218.456879 44.0
218.625 140.0
218.910126 100.0
219.08287 648.0
219.115509 1192.0
220.086639 1124.0
220.123093 420.0
220.163452 136.0
220.234329 140.0
220.302277 236.0
220.583008 40.0
220.716049 68.0
220.82251 160.0
220.849121 124.0
221.054398 184.0
221.096588 3628.0
221.130493 936.0
221.219009 80.0
221.476624 96.0
221.528229 76.0
221.778839 88.0
221.802567 172.0
222.05162 28.0
222.103271 3196.0
222.139786 144.0
222.410629 36.0
222.514526 36.0
222.550156 124.0
222.582825 68.0
222.633301 144.0
222.713486 108.0
222.737259 84.0
223.028442 68.0
223.07576 332.0
223.111282 5644.0
223.221695 36.0
223.459641 112.0
223.498322 100.0
223.522125 96.0
223.596527 148.0
223.787048 48.0
224.013382 188.0
224.117172 2692.0
224.214005 48.0
224.339737 108.0
224.663254 80.0
224.785583 68.0
224.812439 48.0
224.938705 144.0
224.957199 88.0
225.08847 400.0
225.125153 6036.0
225.218475 208.0
225.328995 36.0
225.352905 164.0
225.415558 120.0
225.538193 88.0
225.57106 52.0
225.600952 164.0
225.774384 44.0
226.130142 672.0
226.345947 184.0
226.579559 104.0
226.660461 136.0
226.699417 88.0
226.76236 204.0
227.086731 752.0
227.136337 496.0
227.255646 64.0
227.275146 132.0
227.326157 136.0
227.434204 212.0
227.602325 68.0
227.650375 112.0
227.821564 212.0
227.890671 60.0
228.09375 268.0
228.132721 104.0
228.865189 116.0
229.015762 132.0
229.099686 1320.0
229.356247 156.0
229.630615 232.0
229.814636 168.0
230.068146 160.0
230.10318 1104.0
230.590714 60.0
230.726746 156.0
231.081085 1684.0
231.11322 956.0
231.313614 28.0
231.395355 120.0
231.474075 44.0
231.622482 96.0
231.875824 156.0
232.016418 52.0
232.086349 1644.0
232.122665 956.0
232.438019 96.0
232.547272 56.0
232.826584 96.0
233.095016 2108.0
233.131378 540.0
233.215469 192.0
233.261063 52.0
233.327942 88.0
233.400909 100.0
233.625977 136.0
233.689865 64.0
233.969864 144.0
234.065033 468.0
234.103577 4640.0
234.133392 396.0
234.196991 96.0
234.438934 40.0
234.513824 48.0
234.53952 76.0
234.563904 144.0
234.960342 232.0
235.0 72.0
235.027466 48.0
235.11116 4884.0
235.148376 792.0
235.302155 116.0
235.482315 68.0
235.50676 48.0
235.726715 76.0
235.828537 164.0
235.962067 60.0
235.999557 216.0
236.083939 220.0
236.116653 2396.0
236.152222 516.0
236.19754 92.0
236.280136 224.0
236.322968 64.0
236.457611 164.0
236.524948 84.0
236.883224 176.0
236.916916 168.0
237.089798 528.0
237.127808 3008.0
237.183517 40.0
237.223373 132.0
237.324539 28.0
237.566818 176.0
237.631256 48.0
237.680344 56.0
237.701828 64.0
237.741714 116.0
237.849136 52.0
237.984207 164.0
238.05484 56.0
238.096741 616.0
238.130539 1344.0
238.171539 52.0
238.5495 96.0
238.598694 68.0
238.749359 228.0
238.807785 48.0
239.010834 136.0
239.106659 656.0
239.139023 864.0
239.253967 116.0
239.326111 168.0
239.444885 48.0
239.472595 48.0
239.565002 56.0
239.863922 68.0
239.974899 96.0
240.101242 304.0
240.143204 212.0
240.335175 164.0
241.008881 64.0
241.097626 532.0
241.161469 128.0
241.283951 40.0
241.355072 200.0
242.105362 696.0
242.590378 32.0
242.720596 120.0
242.981125 48.0
243.116104 1012.0
243.449829 32.0
243.710754 216.0
243.732498 92.0
243.841263 52.0
244.087921 128.0
244.122818 940.0
244.715378 164.0
244.743408 144.0
244.811905 268.0
244.998795 64.0
245.059723 136.0
245.095215 2800.0
245.131226 1300.0
245.974854 160.0
246.10376 2884.0
246.148865 156.0
246.174667 64.0
246.230881 56.0
246.379684 176.0
246.44487 156.0
246.577667 172.0
246.765228 140.0
247.067322 516.0
247.110718 3376.0
247.139511 664.0
247.20314 156.0
247.318939 204.0
247.356491 84.0
248.081909 236.0
248.117157 4596.0
248.569397 136.0
248.603912 92.0
248.694916 168.0
248.961792 120.0
249.018311 116.0
249.085999 648.0
249.126572 2528.0
249.228104 164.0
249.470795 76.0
249.585175 84.0
249.885925 68.0
250.101501 944.0
250.132645 1184.0
250.395874 76.0
250.454666 228.0
250.50296 68.0
250.537613 76.0
250.61322 88.0
250.679398 40.0
250.953629 120.0
251.006439 48.0
251.045074 92.0
251.101486 856.0
251.140884 1660.0
251.666702 144.0
251.691956 48.0
251.840393 200.0
251.950943 124.0
252.102417 172.0
252.145599 656.0
252.287445 84.0
252.311218 144.0
252.504105 144.0
252.693909 68.0
252.902756 52.0
252.941376 100.0
253.093765 136.0
253.124878 648.0
253.158371 508.0
253.232605 68.0
253.295395 132.0
253.437958 56.0
253.735886 56.0
253.792953 144.0
253.992752 100.0
254.108368 276.0
254.158478 356.0
254.233871 84.0
254.691071 136.0
254.951584 200.0
255.077255 332.0
255.117325 468.0
255.469864 52.0
255.6353 176.0
255.848557 140.0
256.026855 188.0
256.080383 216.0
256.122223 320.0
256.533478 172.0
256.571747 60.0
257.092102 340.0
257.13092 624.0
257.347015 120.0
257.63446 204.0
257.778229 120.0
258.102936 960.0
258.144989 352.0
258.329163 64.0
258.539337 140.0
259.065765 260.0
259.11319 2444.0
259.17337 96.0
259.199005 192.0
259.24707 72.0
259.503479 36.0
259.663818 40.0
259.849884 64.0
260.061432 112.0
260.118927 2808.0
260.354492 76.0
260.439362 120.0
260.495148 68.0
260.70401 68.0
260.96759 172.0
261.091949 328.0
261.125946 2596.0
261.266693 80.0
261.292419 44.0
261.318146 68.0
261.343903 52.0
261.446869 172.0
261.482269 40.0
261.79776 44.0
261.865387 68.0
261.96524 44.0
262.023224 64.0
262.094086 312.0
262.131165 2080.0
262.168243 60.0
262.235901 188.0
262.358398 76.0
262.506714 188.0
262.706696 300.0
262.809937 244.0
262.877686 200.0
262.974518 100.0
263.06488 176.0
263.105988 1080.0
263.142151 4308.0
263.500854 52.0
263.57196 72.0
263.620422 56.0
264.011566 96.0
264.037445 68.0
264.08548 260.0
264.113983 776.0
264.14386 1068.0
264.380371 128.0
264.814209 56.0
265.016479 208.0
265.080475 272.0
265.123657 876.0
265.159546 772.0
265.520752 60.0
265.744568 52.0
266.013916 80.0
266.11618 456.0
266.16568 208.0
266.21524 32.0
266.309418 104.0
266.605072 148.0
266.861847 36.0
267.108887 344.0
267.137421 392.0
268.056427 148.0
268.145172 292.0
268.565002 108.0
268.715057 96.0
269.021851 124.0
269.092102 304.0
269.142242 160.0
269.407196 100.0
269.707825 48.0
270.101501 756.0
270.165619 140.0
271.108215 552.0
271.210205 192.0
271.554474 172.0
271.602295 48.0
272.117249 428.0
272.509735 68.0
273.088409 124.0
273.126526 528.0
273.519348 112.0
273.562134 76.0
274.099182 192.0
274.127502 404.0
274.326385 96.0
274.415405 200.0
274.464844 228.0
274.745209 160.0
275.042206 136.0
275.110382 824.0
275.144196 3480.0
275.260101 52.0
275.620148 136.0
276.046539 48.0
276.111053 688.0
276.144012 752.0
276.180389 128.0
276.287994 80.0
276.645416 112.0
276.860626 72.0
277.123322 1528.0
277.152863 272.0
277.390747 32.0
277.496826 48.0
277.675903 116.0
278.129395 940.0
279.044006 56.0
279.09201 372.0
279.133545 1644.0
279.213593 100.0
279.99234 68.0
280.1427 1196.0
280.558807 156.0
280.858917 52.0
281.108185 260.0
281.150055 612.0
281.559814 140.0
281.663361 180.0
282.149841 200.0
282.405396 108.0
282.76004 144.0
282.954193 156.0
283.147827 700.0
283.744843 92.0
283.996338 84.0
284.145966 160.0
284.156403 124.0
284.667572 128.0
285.094421 124.0
285.126434 1088.0
285.157532 180.0
286.002258 48.0
286.129913 244.0
286.359161 96.0
286.783691 64.0
287.104004 252.0
287.132355 156.0
287.184937 124.0
288.116638 988.0
288.217957 108.0
288.383545 60.0
289.119568 128.0
289.222351 76.0
289.598206 76.0
289.937012 40.0
290.128448 260.0
290.744141 152.0
290.822205 104.0
290.876526 72.0
291.13562 1276.0
291.559204 144.0
292.10321 308.0
292.144531 164.0
292.74646 84.0
293.032593 124.0
293.112244 176.0
293.152161 948.0
294.089722 168.0
294.125854 216.0
294.16214 288.0
294.663422 56.0
295.13739 344.0
295.14621 268.0
295.969971 44.0
296.145416 156.0
297.114868 340.0
297.142151 112.0
298.148346 132.0
298.519531 160.0
299.141876 140.0
299.164886 296.0
300.152161 168.0
300.265533 68.0
301.104187 120.0
301.154297 300.0
302.179657 184.0
303.082886 196.0
303.137115 1256.0
303.450287 32.0
303.682648 48.0
303.928955 40.0
304.138062 296.0
305.119232 284.0
305.854248 72.0
306.063141 172.0
306.123413 152.0
307.124573 328.0
307.150482 180.0
308.145386 120.0
309.137634 296.0
310.151733 196.0
311.138184 112.0
311.165863 328.0
312.163116 100.0
312.71109 164.0
313.165466 220.0
313.623322 108.0
314.155792 108.0
315.176117 148.0
316.601685 88.0
317.579865 200.0
318.286102 52.0
319.12207 128.0
321.146393 1516.0
321.218689 32.0
321.593353 56.0
321.818237 100.0
322.149292 324.0
323.143585 164.0
324.136047 152.0
326.933441 76.0
328.15094 128.0
329.161255 152.0
331.168396 128.0
331.508942 92.0
331.954803 96.0
332.201447 120.0
335.226471 104.0
336.247589 92.0
337.142334 108.0
339.155762 336.0
340.165222 268.0
341.155853 256.0
342.141785 172.0
343.169678 152.0
345.256012 56.0
345.844269 64.0
346.24411 128.0
348.068634 104.0
348.180023 72.0
348.480927 116.0
348.525513 64.0
349.466217 92.0
359.282349 128.0
360.380981 96.0
362.534058 56.0
366.691742 100.0
375.683624 52.0
379.163574 120.0
381.181519 144.0
382.118591 60.0
383.010071 176.0
383.504913 84.0
386.191193 128.0
388.443451 96.0
389.444366 32.0
396.800079 104.0
397.196716 160.0
398.188904 148.0
401.428345 116.0
401.739441 128.0
402.5177 64.0
402.845215 80.0
405.774658 80.0
409.821991 32.0
414.537537 76.0
416.91153 48.0
417.679932 76.0
418.212982 52.0
421.115997 80.0
421.741119 36.0
423.41449 48.0
424.545593 72.0
425.58786 44.0
440.927979 104.0
443.828979 60.0
448.942322 160.0
450.968811 80.0
457.726929 44.0
460.21283 52.0
460.60144 192.0
462.5513 56.0
469.050446 188.0
472.531128 116.0
478.999573 60.0
479.348114 108.0
488.692261 56.0
490.12326 36.0
492.191986 128.0
503.681305 84.0
504.691315 104.0
513.664429 60.0
518.284912 88.0
522.043396 48.0
523.017029 60.0
529.683655 56.0
540.239197 60.0
554.201843 92.0
567.327637 100.0
576.762512 96.0
582.709595 64.0
587.741028 100.0
602.159119 68.0
608.922791 80.0
623.939819 64.0
636.666565 140.0
639.195129 44.0
641.340576 72.0
649.826233 156.0
651.278076 56.0
654.996338 48.0
665.968018 40.0
670.691406 112.0
689.276428 64.0
708.857117 80.0
715.847778 68.0
800.896057 44.0
808.455811 56.0
810.6474 88.0
823.567688 96.0
840.682434 100.0
849.952698 84.0
865.52771 132.0
868.52832 132.0
873.074219 212.0
889.054565 44.0
896.339172 196.0
919.43927 192.0
931.360718 172.0
938.706543 148.0
959.147217 224.0
995.124878 176.0
996.770508 172.0
1009.674805 172.0
1018.275085 180.0
1019.85083 60.0
1020.174988 188.0
1031.720093 84.0
1035.32251 176.0
1037.494629 172.0
1049.575562 228.0
1053.900146 180.0
1063.822144 92.0
1064.672729 196.0
1070.929321 180.0
1076.518433 228.0
1082.462646 180.0
1083.124146 172.0
1086.926636 32.0
1098.651123 148.0
1101.265137 184.0
1108.575684 204.0
1117.992432 196.0
1122.602295 172.0
1124.16333 76.0
1124.490234 156.0
1124.677124 148.0
1135.710815 112.0
1135.797974 120.0
1140.182251 232.0
1140.975464 136.0
1141.062866 212.0
1146.070435 220.0
1154.839722 192.0
1163.17395 120.0
1164.117676 156.0
1165.095703 128.0
1165.741211 200.0
1166.726807 176.0
1169.148315 36.0
1169.352417 136.0
1173.494141 164.0
1174.10791 72.0
1176.639404 140.0
1177.219849 164.0
1180.219604 144.0
1181.224976 140.0
1184.79834 196.0
1186.456787 132.0
1190.161743 136.0
1193.301758 144.0
1202.311646 132.0
1209.036011 196.0
1211.660278 52.0
1212.470947 208.0
1213.677246 180.0
1216.660522 144.0
1217.2229 128.0
1224.441406 140.0
1232.191162 56.0
1234.134277 172.0
1235.155273 100.0
1240.23877 104.0
1242.567017 92.0
1243.52832 148.0
1250.078247 168.0
1253.514648 132.0
1253.683838 192.0
1253.831787 168.0
1255.164185 56.0
1255.678955 68.0
1258.515747 244.0
1259.101929 168.0
1261.072998 144.0
1263.505615 192.0
1266.712524 116.0
1271.839111 76.0
1272.51355 140.0
1272.968018 108.0
1277.282104 96.0
1278.612549 164.0
1284.761841 132.0
1284.840332 128.0
1286.046265 164.0
1287.245605 40.0
1290.604004 96.0
1290.797119 240.0
1291.347778 100.0
1291.633911 48.0
1293.229492 184.0
1295.16272 180.0
1307.044312 152.0
1309.902588 272.0
1318.401978 176.0
1320.079102 44.0
1320.491333 168.0
1322.994995 192.0
1323.11084 100.0
1323.885498 140.0
1324.334595 236.0
1326.559082 196.0
1327.320435 164.0
1331.48584 128.0
1333.22937 164.0
1333.927124 120.0
1334.421509 212.0
1342.270752 176.0
1343.109375 180.0
1344.335083 168.0
1344.400757 64.0
1348.760986 236.0
1349.067993 204.0
1354.930054 264.0
1356.315063 120.0
1357.700684 180.0
1358.514893 172.0
1358.646973 160.0
1364.359863 164.0
1364.978149 192.0
1366.905396 32.0
1367.011963 148.0
1369.077026 160.0
1369.526245 176.0
1372.820679 200.0
1372.90918 96.0
1373.108276 136.0
1375.166748 172.0
1376.724487 164.0
1377.884155 204.0
1378.142822 68.0
1380.219849 224.0
1380.737427 104.0
1383.282715 148.0
1383.919434 136.0
1385.304321 144.0
1388.202393 124.0
1388.402588 132.0
1388.706665 164.0
1390.479858 124.0
1394.200684 120.0
1395.6427 156.0
1395.858398 112.0
1403.237183 184.0
1403.446045 152.0
1405.497192 176.0
1410.231934 204.0
1415.199097 52.0
1417.513672 188.0
1417.791016 40.0
1418.255615 224.0
1418.480591 144.0
1419.597656 156.0
1422.291138 92.0
1422.441162 128.0
1423.469849 180.0
1423.522339 312.0
1427.317139 56.0
1428.535522 188.0
1430.680298 192.0
1434.529785 132.0
1435.834229 92.0
1435.932251 240.0
1440.226929 148.0
1444.800293 160.0
1444.928833 216.0
1448.27478 60.0
1450.025024 260.0
1451.973511 160.0
1453.050659 156.0
1453.111328 152.0
1454.006714 80.0
1454.249512 196.0
1460.472412 120.0
1460.632202 164.0
1461.1875 228.0
1461.613525 148.0
1465.420654 132.0
1468.393555 92.0
1469.232666 184.0
1469.469116 148.0
1471.247437 120.0
1471.942139 156.0
1479.664673 112.0
1480.131714 128.0
1481.357178 144.0
1482.552368 156.0
1483.83252 168.0
1486.793335 160.0
1488.674194 148.0
1489.72644 96.0
1490.894287 180.0
1491.701416 116.0
1492.20874 108.0
1493.046875 128.0
1496.948608 252.0
1497.171875 172.0
1497.657104 208.0
1498.512207 144.0
1501.217773 132.0
1502.783569 208.0
1503.431763 164.0
1503.725098 96.0
