>compound Artemisinin
>formula C15H22O5
>ionization [M+H]+
>parentmass 283.1540002560905
#inchi InChI=1S/C15H22O5/c1-8-4-5-11-9(2)12(16)17-13-15(11)10(8)6-7-14(3,18-13)19-20-15/h8-11,13H,4-7H2,1-3H3/t8-,9-,10-,11-,13+,14+,15+/m0/s1
#inchikey BLUAFEHZUWYNDE
#Ion_Source LC-ESI
#Instrument qTof
#Compound_Source Commercial
#PI Dorrestein
#Data_Collector Garg_Neha
#Scan -1
#Precursor_MZ 283.154
#ExactMass 282.147
#Charge 1
#CAS_Number 63968-64-9
#Pubmed_ID N/A
#Smiles [C@@]12(O[C@@]3([C@]4([C@@](CC1)([C@H](CC[C@]4([C@@H](C(O3)=O)C)[H])C)[H])OO2)[H])C
#INCHI_AUX N/A
#Library_Class 1
#SpectrumID CCMSLIB00000078082
#IonMode Positive
#UpdateWorkflowName UPDATE-SINGLE-ANNOTATED-GOLD
#LibraryQualityString Gold
#TaskID 77f51c88eb8b467eb4a01dd2d0cb90d2
##Scan# 1800
#SpectrumFile Plate1_61_88_GG4_01_16491.mzXML
#LibraryName FDALibrary_2_04302014.mgf
#MQScore -1
#Organism FDALibrary_2_04302014
#TIC_Query 0
#RT_Query -1
#MZErrorPPM -1
#SharedPeaks 0
#MassDiff 0
#LibMZ -1
#SpecMZ 283.154
#SpecCharge 0
#internalFilename spec-00000.mgf

>collision 10
45.834225 164.0
45.911064 212.0
46.885841 156.0
48.372051 216.0
48.420513 152.0
48.971912 180.0
49.512428 140.0
49.778885 160.0
49.937695 164.0
50.952679 232.0
51.812988 164.0
53.120579 156.0
55.515896 196.0
56.752106 196.0
57.160679 164.0
59.057156 168.0
59.550701 160.0
59.607544 160.0
59.998501 160.0
60.158943 156.0
60.239246 184.0
60.827698 156.0
62.262646 176.0
63.123104 172.0
63.495266 144.0
64.477592 148.0
65.216476 164.0
66.134262 168.0
67.3097 152.0
67.716911 168.0
68.975677 176.0
69.826286 200.0
69.954414 188.0
70.180992 176.0
72.355202 160.0
72.68911 164.0
72.775681 232.0
73.146301 152.0
73.260399 192.0
73.430855 176.0
73.64592 176.0
74.277542 156.0
74.578033 160.0
75.758362 172.0
76.272011 232.0
76.41114 172.0
77.351791 208.0
77.860268 172.0
79.436508 200.0
79.520882 156.0
80.534805 152.0
81.608276 176.0
82.135948 152.0
88.069405 156.0
88.103027 176.0
90.302391 144.0
90.567383 180.0
91.05336 356.0
91.86953 148.0
92.055679 152.0
94.374046 208.0
94.929794 192.0
95.048126 196.0
95.084808 332.0
96.087151 192.0
97.042969 196.0
97.066238 200.0
97.343788 140.0
97.699554 156.0
97.853455 148.0
98.069763 152.0
98.300507 172.0
98.733154 160.0
99.041092 364.0
100.076599 180.0
100.331627 232.0
101.268829 148.0
101.312897 176.0
101.362991 188.0
101.649742 184.0
102.158073 192.0
102.639442 240.0
103.02697 188.0
103.073441 140.0
103.627853 180.0
104.806351 176.0
105.071472 440.0
106.077583 196.0
106.20472 176.0
106.357246 252.0
106.726357 192.0
107.055374 216.0
107.08506 836.0
108.089836 200.0
109.026924 160.0
109.060234 168.0
110.169037 144.0
110.746384 164.0
110.867905 192.0
111.046234 412.0
111.081772 144.0
111.136314 156.0
111.482803 188.0
112.306007 152.0
112.662758 152.0
112.960838 140.0
113.060501 176.0
113.691833 184.0
113.804337 204.0
114.521011 160.0
115.056259 376.0
116.012558 168.0
116.07045 184.0
116.287125 144.0
117.057777 156.0
117.58712 228.0
119.029877 240.0
119.052826 156.0
119.086174 468.0
119.115814 260.0
120.099709 156.0
120.566948 172.0
120.650009 240.0
121.065704 868.0
121.101067 996.0
121.820274 196.0
122.104073 144.0
122.821869 164.0
123.046967 196.0
123.080505 632.0
123.116318 244.0
123.365097 164.0
123.646011 172.0
124.046928 180.0
124.084618 176.0
124.350815 176.0
124.366348 156.0
124.621742 184.0
125.058327 308.0
125.096581 388.0
125.369423 160.0
125.639221 184.0
125.721786 184.0
126.100471 172.0
127.010529 188.0
127.749588 140.0
128.065094 224.0
128.7052 144.0
129.068634 300.0
131.086487 560.0
131.310471 280.0
131.961288 140.0
132.087082 168.0
132.345688 152.0
132.966934 252.0
133.065079 212.0
133.101044 896.0
133.297638 264.0
133.978699 184.0
134.106552 208.0
134.682281 212.0
135.044113 420.0
135.081528 628.0
135.116592 360.0
135.281204 156.0
135.77475 156.0
136.053894 228.0
136.080978 336.0
136.116714 304.0
137.060516 356.0
137.092606 276.0
137.19548 180.0
138.054749 204.0
138.874466 212.0
139.0728 168.0
139.114609 192.0
139.268799 180.0
139.33223 200.0
139.475586 196.0
140.108612 152.0
140.584915 156.0
140.731262 160.0
141.057175 212.0
141.094772 248.0
141.161331 176.0
142.079544 312.0
143.065765 156.0
143.084366 480.0
143.219025 192.0
144.053925 152.0
144.084976 308.0
145.066971 544.0
145.103775 504.0
145.875183 188.0
146.073471 204.0
146.10408 296.0
146.127701 152.0
146.970047 188.0
147.083237 288.0
147.118744 336.0
147.451584 196.0
147.843384 244.0
148.085495 264.0
149.014603 152.0
149.05574 188.0
149.095551 1224.0
149.134003 536.0
149.308731 144.0
149.83696 180.0
150.336823 184.0
151.056473 140.0
151.075241 584.0
151.112442 768.0
152.085724 144.0
152.113785 164.0
153.058182 632.0
153.095047 176.0
153.648483 176.0
154.766602 252.0
155.071625 160.0
155.091141 164.0
155.853043 184.0
156.094162 168.0
157.092255 228.0
158.074966 172.0
158.111191 480.0
159.077499 628.0
159.116058 1120.0
160.120773 276.0
160.614929 160.0
160.869797 208.0
161.096725 1148.0
161.131409 308.0
161.985001 144.0
162.098206 616.0
162.139572 164.0
163.040527 196.0
163.078293 156.0
163.110107 1088.0
163.149628 308.0
163.175247 204.0
164.087753 228.0
164.117325 140.0
164.901047 180.0
165.092041 748.0
165.681519 140.0
166.09938 216.0
166.630798 180.0
167.114822 220.0
167.470367 184.0
167.585358 192.0
167.642044 148.0
168.107178 152.0
168.297256 184.0
168.552979 204.0
169.095566 232.0
170.109985 192.0
170.46019 140.0
171.080566 368.0
172.088348 588.0
173.095963 1888.0
173.133072 1848.0
173.611145 220.0
173.731812 156.0
173.81839 168.0
173.973251 168.0
174.099518 360.0
174.128891 156.0
174.191208 236.0
175.075058 120.0
175.106461 320.0
175.148239 200.0
175.312073 156.0
176.177521 140.0
177.0905 720.0
177.127502 1316.0
177.630875 168.0
178.088531 156.0
178.126587 152.0
179.107117 952.0
179.178116 144.0
180.125168 184.0
181.12207 884.0
181.165787 188.0
182.129623 160.0
182.193283 184.0
182.628769 224.0
183.10257 224.0
184.135452 172.0
185.138824 148.0
185.244461 180.0
186.123199 184.0
186.982254 168.0
187.112839 812.0
188.11409 288.0
189.090271 1784.0
190.106033 168.0
190.712997 172.0
190.993469 208.0
191.10759 1028.0
191.142807 1792.0
191.645935 208.0
192.108093 456.0
192.150162 188.0
192.95697 148.0
193.090134 156.0
193.112808 284.0
193.373413 96.0
193.995148 184.0
195.101517 412.0
195.140152 288.0
195.230743 184.0
196.101486 180.0
196.152359 156.0
197.077698 156.0
198.118103 176.0
199.41333 156.0
200.651932 180.0
201.127014 3668.0
201.189941 184.0
202.131042 512.0
202.840057 160.0
203.105865 224.0
203.14447 920.0
204.112 156.0
204.15181 156.0
205.011551 200.0
205.088501 168.0
205.122162 1808.0
206.09021 184.0
206.122665 288.0
207.098373 980.0
208.100098 192.0
209.115494 536.0
209.152817 644.0
209.775345 148.0
210.112762 196.0
210.156036 280.0
211.113937 224.0
213.103607 140.0
215.802628 252.0
216.07756 176.0
217.071609 176.0
217.117447 192.0
217.854187 164.0
218.056946 244.0
218.28331 220.0
218.863007 256.0
219.137207 4912.0
220.140076 1172.0
221.115448 144.0
221.141525 296.0
222.165375 184.0
223.130875 764.0
223.189804 148.0
223.528198 188.0
224.132675 232.0
224.949875 180.0
225.137985 192.0
227.083359 164.0
228.389938 164.0
229.122009 2020.0
229.492172 148.0
230.124649 728.0
231.12326 228.0
232.086502 172.0
237.110443 144.0
237.148926 2148.0
238.151016 516.0
239.165237 160.0
244.168396 148.0
246.932266 184.0
247.132004 5212.0
248.030746 152.0
248.138107 1088.0
251.528687 168.0
253.267822 232.0
259.971161 156.0
264.747467 140.0
264.844635 168.0
264.877014 160.0
265.143066 4680.0
266.144012 596.0
267.149872 136.0
281.207703 200.0
281.812134 192.0
282.144562 208.0
283.151703 1408.0
283.223907 144.0
284.159485 296.0
284.299438 296.0
285.279938 264.0
365.314056 144.0
1147.256836 168.0
1187.939331 180.0
1238.223389 184.0
1398.163086 172.0
1399.890259 208.0
1447.653442 204.0
1457.628906 200.0
1461.719971 176.0
1472.202026 160.0
1486.287354 200.0
1513.62915 176.0
1530.86084 208.0
1534.148926 316.0
1566.987427 220.0
1606.884644 144.0
1683.198853 180.0
1729.022705 264.0
1752.223755 160.0
1774.405396 152.0
1781.320557 152.0
1782.345581 200.0
1784.67395 164.0
1786.852417 152.0
1798.912354 248.0
1837.007202 200.0
1839.977051 148.0
1858.55896 140.0
1873.183228 172.0
1883.854248 188.0
1911.843628 212.0
1913.837036 148.0
1930.565308 164.0
1936.437866 176.0
1940.582886 204.0
1942.301758 192.0
1962.776123 260.0
1968.927124 172.0
1972.372925 172.0
1976.688965 144.0
1978.406006 208.0
1992.85376 220.0
