>compound MLS001141034-01!tert-butyl (2S)-2-[4-[[(2R)-1-[(4-fluorophenyl)methylamino]-3-methyl-1-oxobutan-2-yl]carbamoyl]piperidine-1-carbonyl]pyrrolidine-1-carboxylate
>formula C28H41FN4O5
>ionization [M+H]+
>parentmass 533.314
#inchi InChI=1S/C28H41FN4O5/c1-18(2)23(25(35)30-17-19-8-10-21(29)11-9-19)31-24(34)20-12-15-32(16-13-20)26(36)22-7-6-14-33(22)27(37)38-28(3,4)5/h8-11,18,20,22-23H,6-7,12-17H2,1-5H3,(H,30,35)(H,31,34)/t22-,23+/m0/s1
#inchikey LGHWEYMIURUVDB
#Ion_Source LC-ESI
#Instrument qTof
#Compound_Source NIH Natural Product Library
#PI Dorrestein
#Data_Collector VVP/LMS
#Scan -1
#Precursor_MZ 533.314
#ExactMass 532.306
#Charge 1
#CAS_Number N/A
#Pubmed_ID N/A
#Smiles CC(C)[C@@H](NC(=O)C1CCN(CC1)C(=O)[C@@H]2CCCN2C(=O)OC(C)(C)C)C(=O)NCc3ccc(F)cc3
#INCHI_AUX N/A
#Library_Class 1
#SpectrumID CCMSLIB00000080195
#IonMode Positive
#UpdateWorkflowName UPDATE-SINGLE-ANNOTATED-GOLD
#LibraryQualityString Gold
#TaskID b1d8e8f6646f4e71acdff9ca3d919d08
##Scan# 2018
#SpectrumFile p2-D05_GD5_01_18017.mzXML
#LibraryName NIH_Natural_Products_Library.mgf
#MQScore -1
#Organism NIH_Natural_Products_Library
#TIC_Query 0
#RT_Query -1
#MZErrorPPM -1
#SharedPeaks 0
#MassDiff 0
#LibMZ -1
#SpecMZ 533.314
#SpecCharge 0
#internalFilename spec-00000.mgf

>collision 10
95.04866 120.0
95.37104 196.0
96.189125 68.0
96.2145 148.0
96.337532 228.0
96.384422 124.0
96.630783 168.0
96.900963 136.0
97.45031 176.0
98.083984 60.0
98.583313 148.0
99.034386 60.0
99.161186 144.0
99.905792 52.0
100.176529 172.0
100.866959 176.0
101.437447 156.0
101.656059 28.0
101.694191 108.0
101.955276 176.0
101.995468 160.0
102.901993 180.0
103.037308 184.0
103.275833 120.0
103.478195 256.0
103.721291 144.0
103.806442 104.0
104.171768 176.0
104.82486 168.0
104.943077 204.0
105.122574 184.0
105.408455 240.0
106.453163 180.0
108.098824 184.0
108.95031 140.0
108.991859 272.0
109.045151 684.0
109.077065 156.0
109.118645 176.0
109.21846 136.0
109.69738 212.0
109.903847 100.0
110.047409 220.0
110.104248 52.0
110.28183 232.0
110.516045 52.0
110.62278 100.0
110.643715 200.0
110.719093 204.0
110.752602 188.0
111.283157 80.0
111.297859 76.0
111.501617 60.0
111.644577 148.0
111.680328 132.0
111.783417 32.0
111.80867 100.0
111.920235 96.0
111.953926 180.0
111.983406 52.0
112.015007 160.0
112.07634 21436.0
112.121078 104.0
112.164452 156.0
112.188469 76.0
112.238136 32.0
112.310104 52.0
112.369171 124.0
112.588692 40.0
112.728119 76.0
112.776726 36.0
112.797859 152.0
112.842255 80.0
112.869743 116.0
112.899345 140.0
113.080162 2160.0
113.204079 112.0
113.263374 204.0
113.294144 88.0
113.320045 96.0
113.451973 40.0
113.717117 60.0
113.774429 124.0
113.90609 56.0
113.925201 44.0
113.993195 80.0
114.052704 176.0
114.088379 168.0
114.480331 52.0
114.561264 44.0
114.61879 52.0
114.883163 164.0
115.154243 156.0
116.110909 108.0
116.669182 108.0
118.555641 260.0
118.611992 188.0
118.887436 88.0
119.055679 40.0
119.528481 156.0
119.861633 200.0
120.465965 76.0
120.92952 144.0
121.216408 232.0
121.4795 64.0
121.679199 136.0
122.041718 100.0
122.274895 236.0
122.387161 160.0
122.856598 144.0
124.112823 172.0
125.010223 64.0
125.22171 36.0
125.567162 132.0
125.672005 156.0
126.069466 180.0
126.111931 144.0
127.070351 180.0
127.090546 164.0
128.824081 68.0
129.504929 140.0
129.776871 124.0
130.092224 220.0
130.476135 72.0
131.033722 160.0
131.095245 184.0
131.330063 136.0
131.761505 120.0
132.191345 176.0
132.372192 188.0
132.748001 212.0
134.235794 116.0
134.445709 60.0
135.169006 140.0
135.55571 140.0
136.356339 156.0
136.384232 184.0
136.802917 188.0
137.490509 152.0
138.095612 84.0
138.369385 140.0
138.460709 92.0
139.323883 104.0
139.511887 136.0
140.06958 184.0
140.515137 180.0
140.836166 156.0
141.072098 180.0
142.252167 44.0
142.418381 180.0
142.979462 100.0
143.615585 124.0
143.978363 108.0
145.155731 136.0
147.150391 64.0
147.466827 164.0
148.141922 40.0
148.75058 176.0
150.73793 52.0
150.82103 232.0
151.359238 64.0
151.731659 76.0
152.701584 68.0
152.8172 120.0
153.053482 360.0
153.410721 116.0
153.647461 148.0
154.116562 124.0
154.606171 60.0
154.668045 76.0
155.076721 132.0
155.458633 140.0
155.679581 200.0
155.942917 148.0
156.062241 184.0
159.741074 88.0
159.826614 136.0
159.924759 36.0
160.244568 188.0
161.57254 136.0
162.862808 192.0
164.696701 192.0
165.000778 172.0
165.381927 44.0
165.881409 116.0
166.322601 136.0
167.026962 164.0
167.240204 156.0
167.415268 184.0
168.359116 148.0
168.958786 128.0
169.057098 152.0
169.533585 180.0
170.161301 188.0
170.322296 84.0
170.51976 188.0
171.042557 196.0
171.850418 164.0
172.014832 172.0
172.364792 168.0
173.393234 120.0
174.740875 180.0
174.966614 156.0
176.433426 88.0
177.079056 84.0
177.3228 212.0
178.10582 332.0
178.549362 180.0
179.105621 204.0
179.777466 176.0
180.124924 260.0
180.710007 188.0
181.133652 284.0
181.685196 140.0
181.741547 48.0
181.981491 160.0
182.03949 116.0
182.265121 84.0
183.104431 64.0
183.149246 6396.0
183.241806 72.0
183.264526 120.0
183.283691 96.0
183.384613 48.0
183.430435 52.0
183.452011 108.0
183.497833 80.0
183.7659 184.0
184.064667 96.0
184.110352 84.0
184.153214 668.0
184.507538 76.0
184.683304 172.0
185.158493 140.0
185.826477 112.0
186.298859 88.0
186.537994 56.0
186.951401 160.0
186.978607 124.0
187.084763 108.0
187.288986 52.0
188.003296 196.0
188.191635 192.0
189.326431 200.0
189.778549 164.0
190.233963 160.0
190.985901 180.0
191.072144 116.0
192.138306 160.0
193.534027 204.0
193.79715 144.0
193.996689 208.0
194.090942 160.0
196.033966 188.0
196.321091 180.0
196.410339 124.0
196.745193 104.0
197.351456 144.0
197.547211 68.0
197.678711 92.0
197.72908 104.0
200.109451 148.0
200.633469 148.0
201.06221 196.0
201.121475 76.0
202.60321 144.0
202.651367 140.0
203.280838 96.0
204.679367 156.0
204.898682 144.0
205.371872 212.0
206.125549 160.0
206.557251 196.0
206.706009 156.0
206.768967 60.0
206.923538 172.0
207.591156 144.0
208.114075 184.0
208.145416 256.0
208.193787 100.0
208.348892 156.0
208.410126 144.0
208.782913 168.0
208.95549 124.0
209.050446 192.0
209.123779 176.0
209.404541 68.0
210.024902 84.0
210.04393 120.0
210.133835 96.0
210.240601 64.0
210.387802 84.0
210.641922 212.0
210.901978 96.0
211.017609 128.0
211.043625 128.0
211.104355 152.0
211.145325 10128.0
211.263428 44.0
211.315506 56.0
211.357498 140.0
211.419662 40.0
211.448608 48.0
211.480438 68.0
211.599121 40.0
211.73233 76.0
211.801834 72.0
211.868454 60.0
211.926407 52.0
212.1483 1408.0
212.236542 40.0
212.300323 44.0
212.367035 72.0
212.503372 36.0
212.802307 76.0
213.031738 84.0
213.150864 144.0
213.3078 184.0
214.515823 144.0
214.597458 108.0
215.440887 164.0
215.473022 168.0
217.088715 196.0
218.604492 124.0
219.871674 124.0
220.108292 336.0
221.592606 172.0
222.95755 160.0
222.996567 160.0
223.299454 160.0
223.826172 156.0
223.995926 140.0
224.043594 64.0
224.404205 72.0
224.76918 120.0
225.003876 32.0
225.14035 4856.0
225.224854 60.0
225.251724 48.0
225.311478 56.0
225.36824 60.0
225.439957 64.0
225.487778 76.0
225.526627 36.0
226.026047 64.0
226.06662 100.0
226.144852 592.0
226.265488 40.0
226.292435 88.0
226.511047 88.0
226.816681 44.0
227.148575 176.0
227.368546 212.0
227.419556 52.0
227.665741 96.0
228.387039 160.0
228.486313 120.0
228.730057 56.0
229.211914 48.0
230.137909 180.0
232.043991 68.0
232.07431 40.0
232.644684 124.0
232.957458 240.0
234.164993 124.0
235.079575 184.0
237.51181 32.0
238.482056 164.0
239.12793 128.0
239.149475 184.0
240.385284 128.0
240.802048 180.0
242.258911 104.0
242.382843 112.0
243.409546 192.0
248.296478 148.0
249.845001 156.0
250.821182 132.0
251.451996 72.0
252.703323 156.0
254.091003 156.0
254.503601 108.0
254.563919 204.0
255.154907 144.0
255.530182 100.0
255.838882 164.0
257.350067 132.0
258.075317 176.0
259.035431 128.0
259.173187 56.0
259.98764 72.0
262.006897 112.0
262.203461 152.0
263.07431 120.0
263.190552 160.0
263.497375 120.0
264.707062 108.0
264.833344 92.0
264.956451 148.0
268.949677 48.0
269.864349 104.0
270.436829 124.0
272.719635 84.0
274.00296 212.0
274.995514 156.0
275.152496 500.0
276.158508 112.0
276.906494 136.0
276.932983 60.0
277.367035 108.0
277.609039 48.0
279.399292 128.0
280.058411 148.0
280.203857 1740.0
280.238281 160.0
280.281586 108.0
280.59491 48.0
281.055145 140.0
281.2052 620.0
281.338257 116.0
282.01358 196.0
282.110535 148.0
282.21167 140.0
282.689148 184.0
283.700623 108.0
284.290924 72.0
284.62326 100.0
286.193481 104.0
289.861694 108.0
290.248108 136.0
291.439484 104.0
292.003784 132.0
292.047974 80.0
292.184052 136.0
292.599243 148.0
294.071808 136.0
294.358582 148.0
296.589172 76.0
297.093231 180.0
297.432953 144.0
299.843964 68.0
300.474976 72.0
300.668213 80.0
302.171295 120.0
303.414612 120.0
303.605316 140.0
304.4729 176.0
304.625732 152.0
305.1922 196.0
305.654816 148.0
306.762329 240.0
306.852966 48.0
307.04126 164.0
307.826447 168.0
308.195984 1420.0
309.088318 200.0
309.119781 164.0
309.199554 156.0
309.298279 184.0
309.389282 48.0
309.455811 216.0
309.609894 44.0
309.718445 140.0
310.216034 132.0
310.991211 108.0
312.210327 164.0
312.435425 132.0
313.234497 92.0
313.449432 152.0
314.4086 128.0
314.539185 176.0
314.645081 108.0
314.673309 220.0
314.948761 132.0
315.797028 164.0
317.096375 120.0
317.192078 148.0
317.500549 124.0
318.19873 152.0
318.671906 52.0
318.899353 152.0
319.176636 188.0
320.076843 148.0
321.499176 48.0
321.827545 208.0
322.116821 216.0
323.647491 192.0
324.686676 196.0
325.691589 136.0
329.557007 88.0
329.965424 232.0
331.101593 240.0
331.721161 56.0
332.384064 92.0
333.179993 108.0
333.332581 164.0
333.463409 220.0
333.496124 20.0
333.75058 148.0
333.868408 192.0
333.965149 112.0
334.034241 152.0
334.066986 204.0
334.376251 112.0
334.401733 152.0
334.641998 80.0
334.700256 92.0
334.773071 140.0
334.904175 124.0
334.995239 92.0
335.024384 136.0
335.068115 88.0
335.104553 84.0
335.144623 40.0
335.206573 40.0
335.264862 72.0
335.315887 140.0
335.493378 156.0
335.56012 68.0
335.607513 76.0
335.673157 76.0
335.804413 108.0
335.913849 96.0
335.964935 144.0
335.99411 104.0
336.054932 184.0
336.145081 148.0
336.209473 24816.0
336.327118 92.0
336.382263 84.0
336.413788 156.0
336.472656 64.0
336.55423 76.0
336.583923 96.0
336.636505 40.0
336.669373 52.0
336.711151 36.0
336.757324 180.0
336.81311 56.0
336.862793 96.0
336.874634 140.0
336.921387 52.0
336.973907 84.0
337.030426 104.0
337.105164 112.0
337.115387 84.0
337.127075 120.0
337.211395 5504.0
337.255402 264.0
337.294098 48.0
337.35733 68.0
337.381836 68.0
337.639252 60.0
337.754822 40.0
337.791412 60.0
337.952362 60.0
338.129242 108.0
338.215607 584.0
338.314697 32.0
338.362274 68.0
338.464813 60.0
338.500122 72.0
338.587891 196.0
338.713837 140.0
338.82373 152.0
339.083893 52.0
339.125732 96.0
339.16452 92.0
339.245178 144.0
339.307495 36.0
339.446808 100.0
339.53714 132.0
339.567841 72.0
339.652191 32.0
340.349457 120.0
340.577148 132.0
341.154053 64.0
342.103149 136.0
342.136261 84.0
342.261444 116.0
342.603973 52.0
342.677643 76.0
342.861877 108.0
344.023743 84.0
344.11972 100.0
345.805328 40.0
346.405182 72.0
346.875763 72.0
348.233795 144.0
348.311798 64.0
348.787384 96.0
349.553528 80.0
349.847534 88.0
350.521667 100.0
351.177765 56.0
351.771057 108.0
353.755981 76.0
357.012695 132.0
357.148071 112.0
357.791534 76.0
362.577271 56.0
367.082031 188.0
367.654236 40.0
367.715271 88.0
369.645142 60.0
372.908661 136.0
373.43924 56.0
374.000977 76.0
376.209717 152.0
376.537903 100.0
381.555817 148.0
387.47229 84.0
388.644562 172.0
388.813293 72.0
389.669312 80.0
391.801605 100.0
396.848511 56.0
401.042419 172.0
402.822021 180.0
403.677307 148.0
409.588989 140.0
415.393524 64.0
417.505524 136.0
417.631592 172.0
422.690277 40.0
429.060577 56.0
429.658569 156.0
429.811218 44.0
429.856598 92.0
429.902008 80.0
430.095978 108.0
430.215668 100.0
431.16153 180.0
431.19873 44.0
431.293793 96.0
431.335114 88.0
431.459137 112.0
431.785797 208.0
431.893616 168.0
431.926422 104.0
432.017426 112.0
432.124969 120.0
432.176971 120.0
432.209808 136.0
432.36911 184.0
432.440704 68.0
432.513977 96.0
432.679565 124.0
432.946045 248.0
432.990112 160.0
433.093994 96.0
433.188477 272.0
433.261444 16608.0
433.362915 60.0
433.401855 160.0
433.448456 56.0
433.613983 88.0
433.661285 56.0
433.806335 88.0
433.901703 48.0
433.938995 68.0
433.976318 64.0
434.039154 192.0
434.109009 128.0
434.142181 180.0
434.180298 128.0
434.263611 5576.0
434.3703 84.0
434.424225 48.0
434.728973 80.0
434.893097 112.0
434.980255 124.0
435.034241 72.0
435.108948 68.0
435.142151 108.0
435.184662 132.0
435.263428 436.0
435.403748 52.0
435.437958 144.0
435.503448 44.0
435.590668 72.0
435.736053 56.0
435.827454 32.0
436.05603 52.0
436.130829 104.0
436.168243 48.0
436.256226 192.0
436.380249 88.0
436.809845 80.0
436.846008 48.0
436.891785 100.0
436.995789 68.0
437.066528 160.0
437.22464 112.0
437.266266 40.0
438.744965 104.0
439.23703 76.0
439.291229 68.0
440.965576 52.0
441.224731 156.0
443.175049 56.0
443.963104 80.0
448.141266 92.0
448.465759 64.0
452.872528 56.0
454.937531 140.0
456.871094 88.0
460.793243 76.0
467.61554 96.0
468.166595 136.0
470.63736 64.0
471.713104 204.0
480.73172 156.0
482.306152 52.0
482.568451 60.0
484.388947 168.0
489.254486 176.0
490.236694 112.0
491.1008 64.0
505.307037 152.0
518.654663 56.0
527.197266 136.0
530.235962 196.0
530.740234 84.0
535.325989 276.0
535.699097 108.0
537.386353 192.0
545.193237 192.0
562.395752 76.0
577.705933 88.0
584.600525 108.0
587.419006 72.0
618.830078 80.0
619.265869 56.0
639.713379 136.0
648.355347 76.0
658.045288 48.0
682.025818 20.0
686.570923 128.0
687.035156 124.0
691.591614 100.0
697.382019 72.0
717.58783 128.0
757.122681 60.0
763.092651 92.0
811.775818 60.0
815.511292 76.0
815.943298 80.0
823.11084 44.0
827.129822 64.0
842.829956 128.0
906.189453 32.0
909.799744 68.0
922.873169 148.0
945.783325 28.0
981.098999 56.0
988.375 188.0
992.960388 200.0
1003.751465 136.0
1019.812195 124.0
1028.404053 160.0
1032.307495 172.0
1081.157227 176.0
1082.184937 188.0
1089.990112 180.0
1091.942505 68.0
1092.955566 84.0
1098.614868 184.0
1101.195679 248.0
1103.528198 136.0
1111.356812 60.0
1115.427734 224.0
1123.738525 180.0
1133.734863 164.0
1141.030884 188.0
1141.078003 240.0
1147.601807 228.0
1155.368408 160.0
1155.842041 184.0
1157.270142 160.0
1157.649414 172.0
1159.614014 176.0
1160.447754 132.0
1163.324097 188.0
1165.87793 152.0
1166.197388 136.0
1173.849243 252.0
1174.633545 92.0
1178.709229 164.0
1180.568481 140.0
1186.141479 64.0
1193.514526 204.0
1206.57959 80.0
1212.580811 136.0
1212.858032 168.0
1215.528076 216.0
1225.819214 196.0
1232.888062 208.0
1233.419312 176.0
1239.689941 100.0
1240.909546 116.0
1241.624756 256.0
1251.461548 200.0
1255.683228 100.0
1255.781982 144.0
1256.629272 156.0
1259.805298 156.0
1264.790283 208.0
1268.09082 180.0
1284.893311 124.0
1287.020142 156.0
1290.192261 176.0
1292.466553 156.0
1293.447021 132.0
1293.554443 228.0
1302.064941 148.0
1302.603638 160.0
1304.263428 124.0
1305.938721 148.0
1309.220459 200.0
1321.19458 92.0
1322.171387 128.0
1323.727783 152.0
1329.577759 196.0
1334.255371 184.0
1336.437256 160.0
1344.547363 156.0
1350.545532 104.0
1351.094238 180.0
1356.021973 152.0
1359.909058 148.0
1360.17334 212.0
1365.610352 160.0
1371.397339 256.0
1372.318726 204.0
1375.623779 112.0
1377.034058 140.0
1378.644531 144.0
1381.34314 152.0
1382.053345 240.0
1387.548706 140.0
1388.838989 180.0
1390.092773 152.0
1390.322754 204.0
1395.210083 148.0
1395.849487 144.0
1398.817871 160.0
1404.182373 220.0
1404.309204 192.0
1407.39856 184.0
1408.600952 180.0
1408.877319 140.0
1417.458862 136.0
1420.105103 164.0
1420.562622 176.0
1421.417847 180.0
1426.096436 204.0
1432.401611 100.0
1434.971313 188.0
1436.796387 164.0
1441.477539 160.0
1444.44104 208.0
1445.795288 136.0
1447.377441 172.0
1460.60498 208.0
1461.898315 152.0
1463.572876 84.0
1465.225586 180.0
1469.90686 44.0
1472.4729 252.0
1472.861328 144.0
1474.366455 112.0
1475.436523 124.0
1475.772949 244.0
1477.661987 180.0
1479.88147 212.0
1483.903687 232.0
1484.133667 148.0
1486.258301 176.0
1490.250732 76.0
1490.343018 176.0
1498.051514 136.0
1498.251831 156.0
