>compound RIFAXIMIN
>formula C43H51N3O11
>ionization [M+Na]+
>parentmass 808.342773
#inchi InChI=1S/C43H51N3O11/c1-19-14-16-46-28(18-19)44-32-29-30-37(50)25(7)40-31(29)41(52)43(9,57-40)55-17-15-27(54-10)22(4)39(56-26(8)47)24(6)36(49)23(5)35(48)20(2)12-11-13-21(3)42(53)45-33(34(32)46)38(30)51/h11-18,20,22-24,27,35-36,39,48-51H,1-10H3,(H,45,53)/t20-,22+,23+,24+,27-,35-,36+,39+,43-/m0/s1
#inchikey NZCRJKRKKOLAOJ
#Ion_Source LC-ESI
#Instrument qTof
#Compound_Source Commercial
#PI Dorrestein
#Data_Collector Garg_Neha
#Scan -1
#Precursor_MZ 808.342
#ExactMass 785.352
#Charge 1
#CAS_Number N/A
#Pubmed_ID N/A
#Smiles CO[C@H]1C=CO[C@@]2(C)Oc3c(C2=O)c4c5nc6cc(C)ccn6c5c(NC(=O)C(=CC=C[C@H](C)[C@H](O)[C@@H](C)[C@@H](O)[C@@H](C)[C@H](OC(=O)C)[C@@H]1C)C)c(O)c4c(O)c3C
#INCHI_AUX N/A
#Library_Class 1
#SpectrumID CCMSLIB00000079275
#IonMode Positive
#UpdateWorkflowName UPDATE-SINGLE-ANNOTATED-GOLD
#LibraryQualityString Gold
#TaskID 278b19f5865741e282cec7349aa7e7a1
##Scan# 1651
#SpectrumFile NCP003512_A2_B11_BD4_01_15728.mzXML
#LibraryName NIHcollectionI_05062014.mgf
#MQScore -1
#Organism NIHcollectionI_05062014
#TIC_Query 0
#RT_Query -1
#MZErrorPPM -1
#SharedPeaks 0
#MassDiff 0
#LibMZ -1
#SpecMZ 808.342
#SpecCharge 0
#internalFilename spec-00000.mgf

>collision 10
67.820282 144.0
67.948189 156.0
79.404358 180.0
85.359344 188.0
118.036919 176.0
121.098938 156.0
123.078148 288.0
136.306168 140.0
140.754501 220.0
141.092377 168.0
151.073441 192.0
156.877441 168.0
159.064758 200.0
168.099594 180.0
175.110077 172.0
177.096237 168.0
181.086075 196.0
188.061966 180.0
190.078781 176.0
191.084534 152.0
198.801071 192.0
199.109879 160.0
201.055206 160.0
207.098221 188.0
218.11496 160.0
222.124908 264.0
233.115738 272.0
235.093185 132.0
239.129745 168.0
250.139572 164.0
255.557602 156.0
256.713867 220.0
258.995789 208.0
259.13031 184.0
261.152679 196.0
261.178406 144.0
265.142029 340.0
284.397217 152.0
293.134125 360.0
301.179596 220.0
316.185272 272.0
317.190308 168.0
323.145355 108.0
330.474518 156.0
333.698853 140.0
345.090637 156.0
346.097015 196.0
346.493317 180.0
347.105377 792.0
348.102325 172.0
361.193451 280.0
363.11496 172.0
369.085266 3456.0
370.086578 1316.0
370.194397 100.0
371.094574 120.0
371.218933 212.0
376.216888 136.0
377.109161 172.0
377.952209 140.0
383.08786 2048.0
384.095062 1304.0
385.094757 328.0
386.112976 132.0
386.230927 116.0
387.219727 640.0
389.154358 152.0
396.107056 184.0
402.216888 224.0
406.131958 140.0
410.06012 164.0
411.093506 132.0
413.590149 148.0
417.261353 160.0
422.115906 132.0
424.69342 236.0
430.215607 228.0
430.859833 152.0
431.230103 204.0
433.064606 176.0
447.232513 368.0
448.225647 200.0
450.820801 140.0
451.15683 192.0
456.144104 140.0
462.245178 196.0
463.226532 140.0
466.155548 136.0
476.122375 116.0
477.129822 444.0
478.13269 192.0
483.159302 148.0
489.175781 152.0
490.188751 276.0
492.571167 144.0
494.160675 136.0
497.175781 168.0
501.195648 164.0
505.159973 168.0
506.171082 468.0
506.88382 148.0
507.168976 340.0
507.708649 176.0
508.178223 368.0
522.134155 120.0
532.191162 188.0
533.134216 144.0
534.166565 304.0
534.875916 144.0
535.169434 236.0
535.230408 152.0
536.173584 828.0
540.123962 240.0
544.005432 152.0
546.195618 120.0
547.208557 288.0
549.249695 172.0
550.194641 300.0
551.163025 132.0
552.173523 164.0
560.195129 160.0
560.605042 168.0
563.204529 220.0
564.206116 148.0
565.218506 140.0
568.140686 108.0
569.16217 220.0
575.198853 152.0
578.195679 312.0
579.205383 208.0
580.288879 156.0
580.528625 140.0
582.160217 140.0
591.276489 152.0
592.202148 340.0
593.216248 540.0
594.210876 104.0
600.248962 156.0
603.254761 128.0
604.241577 144.0
609.176086 148.0
615.578796 168.0
618.227844 168.0
620.232361 124.0
621.247498 124.0
622.246826 180.0
624.295471 200.0
626.246338 192.0
626.928894 140.0
628.165405 176.0
636.227173 268.0
639.257996 160.0
644.269348 248.0
646.302124 152.0
647.410706 172.0
650.138062 160.0
652.258606 152.0
653.270752 120.0
654.307983 156.0
661.038269 160.0
661.291748 104.0
662.280884 2652.0
663.146973 128.0
663.214844 140.0
663.292725 2584.0
663.630127 140.0
664.286804 808.0
664.502014 140.0
665.296265 176.0
673.27832 160.0
676.323547 164.0
678.338501 140.0
682.281982 136.0
687.784668 156.0
690.287842 276.0
693.244324 136.0
694.240784 268.0
694.277527 180.0
694.340454 144.0
695.321472 148.0
698.278015 212.0
702.313782 176.0
704.293091 168.0
705.286865 108.0
708.316711 140.0
716.294983 2900.0
717.30011 1488.0
717.719727 140.0
718.298645 688.0
719.181396 168.0
719.311584 252.0
721.306213 176.0
722.302673 504.0
723.301392 360.0
724.305908 128.0
724.405579 176.0
730.310791 224.0
731.326904 140.0
734.309143 144.0
746.812195 176.0
747.470459 164.0
748.15625 180.0
748.318604 1568.0
748.438782 248.0
749.326477 2012.0
750.328552 924.0
751.33844 244.0
752.32666 212.0
752.37323 120.0
754.342041 120.0
758.295288 308.0
760.3125 212.0
763.438293 148.0
763.795837 176.0
765.347717 152.0
773.678955 148.0
775.811768 156.0
776.072388 112.0
776.31134 3108.0
776.491333 108.0
776.5401 208.0
777.239319 124.0
777.315735 2048.0
778.225159 148.0
778.3255 1308.0
778.45282 140.0
779.319763 144.0
786.346924 140.0
787.354065 128.0
790.323242 240.0
791.330811 212.0
791.382141 224.0
801.955811 152.0
802.288391 184.0
805.019226 176.0
805.33551 140.0
805.828369 452.0
806.343933 432.0
806.555969 140.0
806.8302 408.0
807.331909 128.0
808.140137 336.0
808.342773 20248.0
808.493408 200.0
808.573608 96.0
808.717102 124.0
809.142944 124.0
809.347107 10972.0
809.507751 124.0
809.650391 128.0
810.34552 2728.0
810.485901 112.0
810.953796 140.0
811.341248 548.0
812.347473 152.0
812.778137 160.0
813.119019 100.0
813.355164 280.0
813.483643 148.0
844.304565 160.0
923.310669 160.0
924.000244 164.0
934.739624 172.0
1899.068604 144.0
