>compound MLS001141335-01!(2R)-1-[6-[(10aS)-1,3-dioxo-10,10a-dihydro-5H-imidazo[1,5-b]isoquinolin-2-yl]hexanoyl]pyrrolidine-2-carboxylic acid
>formula C22H27N3O5
>ionization [M+H]+
>parentmass 414.203
#inchi InChI=1S/C22H27N3O5/c26-19(23-12-6-9-17(23)21(28)29)10-2-1-5-11-24-20(27)18-13-15-7-3-4-8-16(15)14-25(18)22(24)30/h3-4,7-8,17-18H,1-2,5-6,9-14H2,(H,28,29)/t17-,18+/m1/s1
#inchikey PNARHJLMOIEDMU
#Ion_Source LC-ESI
#Instrument qTof
#Compound_Source NIH Natural Product Library
#PI Dorrestein
#Data_Collector VVP/LMS
#Scan -1
#Precursor_MZ 414.203
#ExactMass 413.195
#Charge 1
#CAS_Number N/A
#Pubmed_ID N/A
#Smiles OC(=O)[C@H]1CCCN1C(=O)CCCCCN2C(=O)[C@@H]3Cc4ccccc4CN3C2=O
#INCHI_AUX N/A
#Library_Class 1
#SpectrumID CCMSLIB00000080518
#IonMode Positive
#UpdateWorkflowName UPDATE-SINGLE-ANNOTATED-GOLD
#LibraryQualityString Gold
#TaskID b1d8e8f6646f4e71acdff9ca3d919d08
##Scan# 1853
#SpectrumFile p2-B10_GB10_01_17998.mzXML
#LibraryName NIH_Natural_Products_Library.mgf
#MQScore -1
#Organism NIH_Natural_Products_Library
#TIC_Query 0
#RT_Query -1
#MZErrorPPM -1
#SharedPeaks 0
#MassDiff 0
#LibMZ -1
#SpecMZ 414.203
#SpecCharge 0
#internalFilename spec-00000.mgf

>collision 10
95.40052 244.0
95.832581 208.0
97.064354 172.0
97.972023 192.0
98.708336 204.0
99.385651 160.0
100.272568 208.0
100.779427 160.0
101.217476 180.0
101.331642 176.0
102.048157 148.0
102.3097 172.0
102.724831 76.0
102.989258 164.0
103.056534 396.0
103.85759 132.0
103.979324 192.0
104.460876 36.0
104.50563 28.0
104.931305 132.0
105.07119 292.0
105.509071 244.0
105.644051 96.0
105.84462 196.0
106.30584 208.0
106.355095 164.0
106.572777 164.0
106.628555 140.0
107.066475 88.0
108.287048 136.0
108.514992 132.0
108.859436 208.0
109.063034 172.0
109.131638 184.0
109.59787 196.0
110.059708 164.0
110.228035 76.0
110.510307 188.0
111.031898 184.0
111.346703 172.0
111.649338 128.0
111.760826 132.0
112.074554 268.0
112.414047 152.0
112.428818 104.0
112.523804 172.0
112.684319 160.0
113.590393 180.0
114.474541 148.0
114.566124 120.0
115.053802 444.0
115.374947 216.0
116.00647 180.0
116.027901 220.0
116.045059 200.0
116.070427 5752.0
116.100807 176.0
116.235954 196.0
116.358299 100.0
116.936539 92.0
117.073288 332.0
117.263908 60.0
117.525223 204.0
117.585258 100.0
117.779579 148.0
117.84655 192.0
118.028114 184.0
118.173027 40.0
118.582306 48.0
118.736237 88.0
118.822998 44.0
119.049484 180.0
120.051956 116.0
121.407822 112.0
122.059441 148.0
122.1446 96.0
122.286613 188.0
122.652237 108.0
122.936752 36.0
123.721405 180.0
123.81662 132.0
123.996071 144.0
124.080299 68.0
124.313202 176.0
124.704063 176.0
125.13562 156.0
127.046455 136.0
128.587814 148.0
128.95369 56.0
129.05542 188.0
129.114212 100.0
129.52388 172.0
129.628098 156.0
129.646225 132.0
129.709686 204.0
129.741425 156.0
129.938721 136.0
129.999756 156.0
130.038574 144.0
130.066177 7724.0
130.211121 116.0
130.556564 60.0
131.000397 68.0
131.071304 1024.0
131.422165 148.0
131.476929 244.0
131.691544 228.0
131.842957 216.0
131.910889 76.0
132.080948 4468.0
132.132721 96.0
132.276886 88.0
132.68924 64.0
132.920898 96.0
133.085312 340.0
133.440002 84.0
133.688416 224.0
133.729843 72.0
133.791992 92.0
134.079926 144.0
134.215927 164.0
134.338165 88.0
134.865036 116.0
135.732788 72.0
136.987823 148.0
137.616333 40.0
138.084869 104.0
138.803802 164.0
138.93045 112.0
140.120041 300.0
140.195435 52.0
140.289719 120.0
140.693115 136.0
140.926941 128.0
141.014374 144.0
141.385681 196.0
141.764587 112.0
142.067825 168.0
143.078079 164.0
143.159042 132.0
143.766937 96.0
144.0802 1132.0
144.175308 148.0
144.211151 92.0
144.290039 112.0
144.562714 60.0
144.691956 172.0
145.085022 180.0
145.154388 148.0
145.259918 164.0
146.057205 144.0
147.540451 196.0
148.894943 172.0
149.322693 96.0
149.376205 84.0
149.824127 176.0
150.985977 132.0
151.257568 144.0
151.431412 148.0
154.624695 148.0
155.328369 116.0
156.038605 188.0
156.337097 96.0
156.394333 204.0
157.06958 124.0
157.523895 216.0
157.911316 76.0
158.060944 2660.0
158.1465 44.0
158.206573 120.0
158.261658 44.0
158.665039 44.0
158.875687 72.0
158.910812 148.0
159.061218 672.0
159.229614 180.0
159.724762 84.0
160.076675 752.0
160.896561 176.0
161.083237 152.0
161.439804 156.0
161.556152 148.0
161.999161 144.0
162.082764 156.0
162.10051 184.0
162.196808 128.0
163.443771 196.0
163.690689 84.0
166.393311 108.0
167.07692 148.0
168.081757 164.0
170.05632 156.0
170.671997 172.0
170.955536 172.0
171.11171 28.0
172.180817 56.0
172.878815 136.0
173.507446 160.0
175.085678 1124.0
175.318939 224.0
176.067764 468.0
176.09053 304.0
176.55661 252.0
177.072693 156.0
177.369446 144.0
177.719498 212.0
178.101776 56.0
180.080765 72.0
180.126175 168.0
180.840088 228.0
180.898972 248.0
182.089478 184.0
182.511383 128.0
182.670059 152.0
183.017227 168.0
183.20845 192.0
184.079636 60.0
185.070953 668.0
185.988297 132.0
186.060745 204.0
186.308731 168.0
186.387512 76.0
186.534271 108.0
186.569611 28.0
186.885101 180.0
186.96402 136.0
187.087952 9700.0
187.138229 156.0
187.176346 128.0
187.358826 48.0
187.405151 52.0
187.448746 104.0
187.598648 72.0
187.893173 48.0
188.089447 1300.0
188.149704 36.0
188.231613 52.0
188.319016 44.0
188.559433 76.0
188.953201 44.0
189.109177 168.0
189.203674 92.0
189.248779 120.0
189.942139 64.0
189.992355 136.0
190.491135 124.0
190.634003 248.0
190.721954 36.0
190.831909 156.0
191.503357 68.0
192.118057 96.0
192.463043 168.0
193.065445 140.0
193.102997 152.0
193.810074 136.0
193.999069 84.0
195.070053 172.0
196.024689 160.0
196.073318 652.0
196.761047 220.0
196.978867 172.0
197.076157 136.0
197.775772 40.0
200.100143 152.0
200.274734 192.0
200.460678 204.0
201.010559 140.0
201.060699 636.0
201.165787 120.0
201.993744 104.0
202.064468 132.0
202.525879 136.0
202.728409 176.0
202.76387 188.0
202.797882 128.0
202.891159 208.0
202.962311 120.0
203.009933 96.0
203.044556 72.0
203.082535 10352.0
203.14949 156.0
203.175034 48.0
203.247925 92.0
203.277176 60.0
203.365143 48.0
203.443298 68.0
203.473022 80.0
203.498566 48.0
203.586594 104.0
203.788269 48.0
203.961624 196.0
204.001419 120.0
204.085648 2252.0
204.154953 100.0
204.237289 76.0
204.356918 52.0
204.635834 64.0
205.087555 144.0
205.162903 36.0
205.311172 72.0
205.485168 48.0
205.562057 80.0
205.602158 112.0
205.670654 80.0
205.719177 112.0
206.093307 128.0
206.602219 120.0
210.09845 208.0
210.127304 148.0
212.134323 172.0
212.833511 88.0
213.068771 152.0
213.094925 140.0
214.014008 128.0
215.022141 120.0
215.083359 656.0
215.311646 164.0
216.08374 144.0
216.66301 160.0
217.099426 164.0
218.765686 44.0
219.838547 132.0
226.130188 336.0
227.115936 164.0
227.352951 144.0
228.052719 132.0
228.141815 212.0
229.10289 68.0
230.394073 196.0
231.080353 180.0
232.798996 132.0
233.092392 372.0
234.094437 188.0
235.121796 132.0
235.891479 108.0
237.141998 136.0
238.121628 732.0
239.127472 124.0
242.971512 200.0
243.15654 216.0
243.46814 228.0
245.014038 160.0
246.108765 100.0
248.089172 148.0
252.33931 168.0
253.126373 176.0
254.12561 168.0
254.709732 100.0
255.106842 132.0
255.154587 248.0
256.131744 160.0
257.005096 72.0
257.132721 120.0
258.615723 96.0
258.887848 60.0
258.92627 96.0
266.042694 52.0
270.986877 44.0
271.144592 2372.0
271.85907 76.0
271.88205 176.0
272.010071 68.0
272.150391 640.0
272.712982 200.0
273.673553 80.0
273.737762 64.0
273.782227 84.0
275.424683 72.0
281.12851 408.0
281.17865 56.0
281.295471 84.0
282.126709 304.0
282.692535 88.0
284.301056 64.0
297.117462 132.0
298.694214 180.0
299.072723 136.0
299.141235 2508.0
299.201233 112.0
299.585785 132.0
299.678802 72.0
300.147858 464.0
300.841034 84.0
301.146301 148.0
303.279694 88.0
304.014954 52.0
317.898346 60.0
320.287476 76.0
320.508362 120.0
321.146484 20.0
324.21759 76.0
325.075317 172.0
340.12262 76.0
349.863312 52.0
357.551636 88.0
360.697235 84.0
369.19873 172.0
382.85675 136.0
391.110016 180.0
394.083435 68.0
396.192139 124.0
397.437073 44.0
412.213074 128.0
413.197601 120.0
414.329163 172.0
415.212799 156.0
417.25116 160.0
423.355316 120.0
430.729706 64.0
434.028107 132.0
446.157043 120.0
465.253937 36.0
484.860535 136.0
559.326477 164.0
604.065918 80.0
626.358521 64.0
686.702026 104.0
703.894287 176.0
781.484497 124.0
803.012451 104.0
820.989075 60.0
822.336914 92.0
864.434814 176.0
869.380676 36.0
878.229065 184.0
928.308411 152.0
969.226624 148.0
1050.21814 160.0
1050.734131 192.0
1061.503174 128.0
1067.366699 100.0
1074.055054 36.0
1121.718018 136.0
1125.687622 144.0
1141.952393 216.0
1156.241821 48.0
1166.755371 164.0
1167.986084 200.0
1187.822266 44.0
1191.948364 224.0
1192.305664 136.0
1198.367798 252.0
1199.822021 188.0
1214.238892 136.0
1214.412354 188.0
1226.733521 128.0
1226.838135 156.0
1227.235474 192.0
1233.532471 148.0
1235.462524 132.0
1238.976807 140.0
1244.496338 152.0
1248.164062 236.0
1269.021362 156.0
1278.895508 144.0
1283.333496 164.0
1283.540283 152.0
1287.22937 156.0
1289.701172 164.0
1297.460693 44.0
1306.725098 176.0
1311.607544 188.0
1323.01355 132.0
1324.968872 176.0
1339.02417 164.0
1345.2948 64.0
1345.404297 156.0
1348.099365 164.0
1348.20166 120.0
1349.546631 136.0
1351.462891 124.0
1354.083496 200.0
1357.469238 180.0
1369.794312 112.0
1376.084717 160.0
1376.387451 108.0
1382.138062 228.0
1383.618286 128.0
1385.017822 212.0
1387.492798 96.0
1388.849854 28.0
1399.915894 176.0
1402.918457 116.0
1403.567017 224.0
1405.036377 128.0
1416.466187 156.0
1430.206909 164.0
1438.083252 136.0
1442.101318 136.0
1445.534668 88.0
1446.109741 180.0
1447.502686 236.0
1449.419067 244.0
1456.056641 112.0
1456.231323 172.0
1459.057983 128.0
1461.210327 128.0
1463.188965 148.0
1464.552002 180.0
1466.937012 212.0
1474.60022 200.0
1475.150635 48.0
1496.031128 208.0
1498.942383 216.0
1500.468506 160.0
