>compound MLS001075491-01!(2S)-2-[[2-[(6-oxo-7,8,9,10-tetrahydrobenzo[c]chromen-3-yl)oxy]acetyl]amino]-3-phenylpropanoic acid
>formula C24H23NO6
>ionization [M+H]+
>parentmass 422.16
#inchi InChI=1S/C24H23NO6/c26-22(25-20(23(27)28)12-15-6-2-1-3-7-15)14-30-16-10-11-18-17-8-4-5-9-19(17)24(29)31-21(18)13-16/h1-3,6-7,10-11,13,20H,4-5,8-9,12,14H2,(H,25,26)(H,27,28)/t20-/m0/s1
#inchikey NZIGMFUVQTXHJU
#Ion_Source LC-ESI
#Instrument qTof
#Compound_Source NIH Natural Product Library
#PI Dorrestein
#Data_Collector VVP/LMS
#Scan -1
#Precursor_MZ 422.16
#ExactMass 421.153
#Charge 1
#CAS_Number N/A
#Pubmed_ID N/A
#Smiles OC(=O)[C@H](Cc1ccccc1)NC(=O)COc2ccc3c4CCCCc4c(=O)oc3c2
#INCHI_AUX N/A
#Library_Class 1
#SpectrumID CCMSLIB00000080375
#IonMode Positive
#UpdateWorkflowName UPDATE-SINGLE-ANNOTATED-GOLD
#LibraryQualityString Gold
#TaskID b1d8e8f6646f4e71acdff9ca3d919d08
##Scan# 2149
#SpectrumFile p2-H07_GH7_01_18067.mzXML
#LibraryName NIH_Natural_Products_Library.mgf
#MQScore -1
#Organism NIH_Natural_Products_Library
#TIC_Query 0
#RT_Query -1
#MZErrorPPM -1
#SharedPeaks 0
#MassDiff 0
#LibMZ -1
#SpecMZ 422.16
#SpecCharge 0
#internalFilename spec-00000.mgf

>collision 10
94.980247 200.0
95.050087 192.0
95.137428 172.0
95.184029 200.0
95.199562 208.0
95.27726 124.0
95.560265 200.0
95.629227 164.0
95.781105 104.0
95.876579 176.0
96.24527 64.0
96.347878 60.0
96.397636 152.0
96.497322 172.0
96.540344 120.0
96.638153 244.0
96.722305 200.0
96.85154 208.0
96.888756 176.0
96.927948 120.0
97.265282 228.0
97.46167 60.0
97.526527 196.0
97.599266 204.0
97.672035 204.0
97.695641 156.0
98.06781 164.0
98.284744 184.0
98.509819 148.0
99.089485 168.0
99.333328 140.0
99.384911 168.0
99.505989 152.0
99.551659 152.0
99.933311 208.0
99.951218 208.0
100.295761 268.0
100.341614 56.0
100.385483 48.0
100.473244 176.0
100.614944 80.0
100.708801 128.0
100.752747 52.0
100.798698 76.0
100.990631 180.0
101.491295 208.0
101.621674 100.0
101.711983 216.0
101.876648 164.0
102.031395 180.0
102.049492 412.0
102.468132 180.0
102.585022 132.0
102.730217 172.0
102.886566 228.0
102.944168 144.0
102.980522 92.0
103.028999 196.0
103.053299 3008.0
103.089622 224.0
103.168251 204.0
103.27562 156.0
103.409164 144.0
103.611664 148.0
103.63192 100.0
103.674477 180.0
103.70488 108.0
103.755554 136.0
103.792053 140.0
103.869118 152.0
104.025375 224.0
104.057495 520.0
104.118774 156.0
104.173615 104.0
104.291473 164.0
104.321968 152.0
104.469475 180.0
104.712654 224.0
104.934769 220.0
104.969437 144.0
105.030617 176.0
105.070107 7888.0
105.10318 148.0
105.173454 40.0
105.248993 148.0
105.279625 208.0
105.306175 168.0
105.447151 48.0
105.620949 128.0
105.653679 180.0
105.737579 112.0
105.844109 108.0
105.86451 76.0
106.072937 612.0
106.43869 160.0
106.705803 196.0
106.771606 44.0
106.790115 140.0
106.806572 108.0
106.831261 232.0
106.858002 212.0
106.950607 128.0
107.048836 1632.0
107.280197 88.0
107.443123 108.0
107.556625 124.0
107.675713 124.0
107.725952 156.0
107.849937 164.0
107.901619 124.0
108.054665 140.0
108.197472 56.0
108.342445 144.0
108.582893 48.0
108.638901 188.0
108.655495 112.0
109.23719 132.0
109.451561 128.0
109.905975 144.0
110.055183 148.0
110.116821 152.0
110.246353 124.0
110.3228 220.0
110.708687 120.0
110.75267 108.0
110.809235 68.0
110.90773 196.0
110.959915 192.0
110.976913 192.0
111.01046 176.0
111.044014 368.0
111.636269 120.0
111.67202 220.0
111.690948 180.0
111.804565 104.0
111.857185 160.0
111.881653 180.0
111.909821 108.0
112.044617 156.0
112.438934 144.0
112.576157 80.0
112.625198 220.0
112.939682 76.0
113.380074 152.0
113.394913 112.0
113.441307 180.0
113.513634 136.0
113.670609 168.0
113.744896 168.0
114.138695 168.0
114.561485 208.0
114.755424 176.0
114.772484 228.0
114.80558 108.0
114.970871 120.0
115.054123 2204.0
115.094688 148.0
115.201477 140.0
115.271988 140.0
115.791847 132.0
115.905388 208.0
116.055771 372.0
116.109039 116.0
116.149796 124.0
116.218445 176.0
116.456741 84.0
116.513329 152.0
116.985718 128.0
117.057846 2800.0
117.145081 32.0
118.063545 656.0
118.35022 88.0
118.382706 132.0
119.000702 164.0
119.081947 328.0
119.113632 208.0
119.152733 48.0
119.226616 176.0
119.290131 180.0
119.395401 232.0
119.515839 256.0
119.624657 128.0
119.844627 92.0
119.868591 160.0
119.949234 172.0
120.020485 88.0
120.080086 6072.0
120.154228 108.0
120.182594 44.0
120.278618 96.0
120.309181 140.0
120.376869 148.0
121.084045 848.0
121.106941 196.0
121.170868 52.0
121.245377 256.0
121.554588 220.0
121.646767 56.0
121.708244 184.0
121.763145 168.0
121.949898 168.0
121.985069 100.0
122.002655 96.0
122.020248 124.0
122.073021 136.0
122.105873 132.0
122.488998 212.0
122.623405 80.0
122.865967 112.0
123.00058 56.0
123.043922 208.0
123.091103 72.0
123.155151 64.0
123.22805 48.0
123.497749 160.0
123.70797 184.0
124.082375 144.0
124.148895 168.0
124.366325 84.0
124.62394 152.0
125.024101 172.0
125.151093 108.0
125.414093 148.0
125.676537 196.0
125.806572 48.0
126.403343 212.0
127.020538 160.0
127.055389 436.0
127.338203 264.0
127.632599 64.0
127.970863 180.0
128.061584 3904.0
128.084473 204.0
128.100739 56.0
128.244949 56.0
128.459167 120.0
128.54039 180.0
129.046356 168.0
129.069153 1180.0
129.118713 84.0
129.249924 68.0
129.277084 148.0
129.320084 204.0
129.671158 76.0
129.85762 148.0
130.002274 164.0
130.029495 264.0
130.064896 4088.0
130.233841 252.0
130.561127 168.0
130.664886 164.0
130.743134 136.0
130.786377 104.0
130.886551 160.0
131.04985 948.0
131.072311 928.0
131.532669 80.0
131.586548 144.0
131.611664 136.0
131.664185 96.0
131.714432 172.0
131.760117 212.0
131.805817 188.0
131.924667 152.0
131.940674 236.0
132.008743 208.0
132.026047 204.0
132.080933 22568.0
132.120636 168.0
132.128769 180.0
132.167755 80.0
132.187698 52.0
132.235764 100.0
132.254074 92.0
132.283829 44.0
132.310608 168.0
132.462448 156.0
132.547226 184.0
132.808578 80.0
132.88887 72.0
133.026566 200.0
133.083313 1692.0
133.573486 40.0
133.658615 148.0
133.78981 64.0
133.82196 124.0
133.941788 100.0
133.994781 160.0
134.043167 148.0
134.0616 112.0
134.080032 180.0
134.100784 128.0
134.139969 104.0
134.737671 124.0
134.871704 72.0
135.041641 200.0
135.297363 124.0
135.760773 92.0
135.999756 96.0
136.045807 152.0
136.238937 144.0
136.706284 56.0
136.838974 228.0
136.915817 96.0
137.02977 160.0
137.181442 156.0
137.209412 80.0
137.470657 140.0
137.965836 196.0
137.984543 80.0
138.003235 152.0
138.209076 112.0
138.424438 184.0
138.656357 212.0
139.193588 124.0
139.278137 176.0
139.670685 204.0
140.004898 76.0
140.030807 40.0
140.565964 44.0
140.68161 124.0
141.071289 748.0
141.203827 144.0
141.225113 120.0
141.490143 144.0
141.532761 108.0
141.626007 204.0
141.710403 124.0
142.07605 160.0
142.281998 128.0
142.372238 160.0
142.74057 160.0
142.778625 152.0
142.890427 108.0
142.995132 144.0
143.028458 108.0
143.059708 220.0
143.084839 6684.0
143.123688 212.0
143.251343 80.0
143.288025 60.0
143.333298 40.0
143.360703 64.0
143.554993 176.0
143.597931 68.0
143.94635 156.0
144.055954 324.0
144.089279 648.0
144.120728 52.0
144.137451 212.0
144.166138 192.0
144.201981 48.0
144.828873 40.0
144.994186 124.0
145.066452 1416.0
145.099823 1272.0
145.351517 116.0
145.966461 228.0
146.004929 48.0
146.062668 152.0
146.274414 220.0
146.416473 180.0
146.445374 92.0
146.488739 68.0
146.949219 132.0
147.04451 640.0
147.082886 572.0
147.487747 104.0
148.050797 492.0
148.088333 208.0
149.045761 208.0
149.369431 156.0
149.425385 32.0
150.012314 112.0
150.085663 188.0
150.102753 196.0
150.773865 40.0
150.825195 152.0
151.193451 164.0
151.635361 164.0
151.816788 140.0
151.868286 180.0
152.015503 112.0
152.064575 136.0
152.101395 128.0
152.418213 140.0
152.617325 140.0
152.693558 168.0
152.964218 52.0
153.070023 1168.0
153.09964 176.0
153.326294 216.0
153.43721 144.0
153.661652 192.0
153.989975 44.0
154.07637 192.0
154.442291 108.0
154.516495 36.0
154.942337 144.0
155.01915 40.0
155.084946 1300.0
155.187714 44.0
156.056793 156.0
156.087799 192.0
156.437378 212.0
156.748718 224.0
157.066025 208.0
157.100281 328.0
157.509674 112.0
157.592117 48.0
157.852081 140.0
158.070251 320.0
158.113235 112.0
158.400925 156.0
158.42775 188.0
158.703445 216.0
159.047653 984.0
159.077179 528.0
159.791 120.0
160.051651 568.0
160.078079 396.0
160.824219 36.0
161.056396 684.0
161.086945 320.0
161.170197 44.0
161.443207 168.0
161.579803 76.0
162.058334 180.0
162.10495 200.0
162.255249 224.0
162.895538 116.0
162.992096 148.0
163.0392 448.0
163.093048 160.0
163.419266 56.0
163.994797 132.0
164.43605 164.0
164.729691 196.0
165.041489 100.0
166.084 492.0
166.325027 244.0
166.576675 132.0
166.897934 164.0
167.42804 76.0
167.549103 192.0
167.742386 244.0
168.054443 120.0
169.064819 152.0
169.101059 136.0
169.266739 84.0
169.365158 180.0
170.073898 124.0
170.208038 208.0
170.582153 208.0
170.761581 112.0
171.014389 236.0
171.047928 184.0
171.080444 10936.0
171.137833 48.0
171.179993 36.0
171.197021 164.0
171.246674 116.0
171.295181 88.0
171.338745 72.0
171.501022 56.0
171.62616 144.0
171.647034 28.0
171.696579 140.0
171.983582 108.0
172.004456 192.0
172.082214 796.0
172.890503 228.0
173.000443 36.0
173.057892 432.0
173.095062 1212.0
173.209793 72.0
173.264954 36.0
173.283295 68.0
173.571609 120.0
173.742096 164.0
173.823441 120.0
174.067566 280.0
174.103577 484.0
174.290848 100.0
175.039062 572.0
175.075806 476.0
175.111694 172.0
175.203827 72.0
175.557037 64.0
175.580765 188.0
175.952835 104.0
176.076935 160.0
176.246002 40.0
176.383438 124.0
176.642578 124.0
177.861511 164.0
178.086258 664.0
178.220047 68.0
178.336975 192.0
178.581589 140.0
178.738556 216.0
180.092957 140.0
181.061005 124.0
181.075546 200.0
182.066803 112.0
182.209167 104.0
182.526337 188.0
182.636597 172.0
183.081451 292.0
183.263855 116.0
183.325836 48.0
183.347397 76.0
183.552277 200.0
184.078659 240.0
184.397263 208.0
185.055862 228.0
185.084412 208.0
185.117157 124.0
185.542297 104.0
185.783676 144.0
186.060486 152.0
186.329361 176.0
186.609314 68.0
187.039139 156.0
187.07576 308.0
187.66301 92.0
187.739365 168.0
188.042023 212.0
188.08223 940.0
188.859146 124.0
188.99321 132.0
189.063202 172.0
189.089722 756.0
190.086624 128.0
190.391251 208.0
190.668732 136.0
190.839172 148.0
190.957413 184.0
191.033722 200.0
192.023315 196.0
192.089508 100.0
192.158478 176.0
193.167908 148.0
194.79129 288.0
196.849548 160.0
197.391663 136.0
197.531509 128.0
197.802948 88.0
197.95694 164.0
198.06897 156.0
198.127792 128.0
198.904587 136.0
199.039352 40.0
199.075699 3716.0
200.040253 144.0
200.082489 908.0
200.292984 80.0
200.474014 64.0
200.569839 32.0
200.648773 92.0
200.707977 180.0
200.781296 60.0
200.970306 212.0
201.012634 208.0
201.053467 820.0
201.091385 8096.0
201.150925 84.0
201.187622 76.0
201.283203 80.0
201.382462 64.0
201.667847 72.0
201.761124 88.0
201.824783 148.0
201.871399 68.0
202.012817 48.0
202.061264 160.0
202.09639 1112.0
202.31279 72.0
202.358093 144.0
202.403397 68.0
202.487823 64.0
202.536514 100.0
202.700836 140.0
202.981461 48.0
203.074631 464.0
203.103424 208.0
203.307693 96.0
203.895584 144.0
204.72345 136.0
205.384689 248.0
206.455734 56.0
206.521515 64.0
206.973694 60.0
207.672958 232.0
208.229767 120.0
208.583191 192.0
208.867859 192.0
208.928268 48.0
209.086533 132.0
209.432037 84.0
210.057541 136.0
210.42984 164.0
210.741776 224.0
211.06839 128.0
211.163834 100.0
211.244827 132.0
211.699234 144.0
212.551498 236.0
212.629852 116.0
212.894043 164.0
213.084808 280.0
213.428726 140.0
213.700821 88.0
213.961182 220.0
214.048523 144.0
214.325256 104.0
214.663391 124.0
214.733383 164.0
215.069016 792.0
215.10257 228.0
215.39888 92.0
215.632645 104.0
216.042007 116.0
216.077637 1320.0
216.609924 124.0
216.987976 204.0
217.018845 68.0
217.043686 124.0
217.086441 8988.0
217.172729 120.0
217.193253 96.0
217.222595 48.0
217.281265 120.0
217.318497 108.0
217.386902 48.0
217.75975 84.0
217.800873 84.0
217.909561 44.0
218.087936 1088.0
218.332855 108.0
218.421097 44.0
218.444626 68.0
218.4711 76.0
218.883163 60.0
219.090302 412.0
219.136475 48.0
219.328033 112.0
219.552109 92.0
220.511627 188.0
220.810242 84.0
221.041 84.0
221.091309 152.0
221.556183 176.0
222.208435 52.0
222.570541 92.0
223.072647 76.0
223.664612 128.0
224.639023 100.0
225.035965 156.0
225.087097 156.0
226.234848 44.0
226.366577 212.0
226.573257 232.0
226.744049 112.0
227.081772 3676.0
227.304855 160.0
227.716141 36.0
227.743179 92.0
228.085739 804.0
228.187943 52.0
228.542847 208.0
228.660217 40.0
228.763351 76.0
229.018509 104.0
229.086761 16720.0
229.13298 212.0
229.185455 64.0
229.286667 40.0
229.337906 52.0
229.395172 176.0
229.681641 176.0
229.723877 76.0
229.817398 64.0
230.089371 1828.0
230.342712 164.0
230.620712 80.0
230.747665 116.0
230.862579 40.0
230.986588 96.0
231.093201 316.0
231.685883 140.0
231.778809 132.0
232.069199 252.0
232.158737 76.0
232.823349 136.0
232.941803 64.0
233.039993 164.0
233.075485 176.0
234.083252 144.0
235.692978 32.0
236.081192 124.0
236.114838 164.0
237.097595 144.0
237.882812 48.0
239.078461 148.0
239.278549 128.0
240.064285 200.0
241.091507 656.0
241.222107 204.0
242.835358 44.0
244.917862 48.0
245.139069 40.0
249.181808 52.0
254.662735 192.0
255.088531 116.0
256.097626 184.0
256.457275 128.0
257.084686 776.0
257.407532 140.0
258.089935 148.0
258.306091 76.0
259.084015 140.0
259.757202 76.0
260.865082 180.0
261.141632 120.0
261.888367 48.0
262.129974 108.0
262.494263 56.0
263.136353 176.0
264.762848 128.0
267.640015 96.0
268.696045 36.0
270.110596 132.0
272.089996 144.0
273.128418 132.0
274.11026 280.0
275.084534 336.0
275.128723 140.0
276.090271 140.0
277.079987 132.0
281.714294 60.0
282.048462 36.0
284.087799 140.0
284.211945 68.0
285.111908 212.0
287.121796 148.0
289.125214 168.0
291.05069 136.0
291.127625 148.0
291.366577 108.0
292.151917 80.0
292.373077 136.0
293.920197 104.0
295.122528 128.0
296.046448 148.0
301.122711 292.0
302.118225 112.0
311.42926 92.0
313.128082 64.0
314.319641 104.0
317.105225 360.0
318.103119 148.0
318.135071 216.0
318.220276 68.0
318.85257 84.0
319.083649 212.0
319.133667 772.0
319.254303 56.0
319.336121 44.0
319.64917 56.0
320.097717 68.0
320.138794 484.0
320.426758 52.0
320.874481 64.0
321.131226 164.0
329.130646 136.0
334.141083 144.0
341.113892 156.0
348.156189 228.0
357.66449 112.0
358.145844 172.0
359.715118 72.0
360.104034 148.0
360.368469 48.0
360.50827 92.0
369.156891 112.0
370.684296 52.0
372.310852 40.0
375.072845 112.0
375.466675 96.0
375.570801 48.0
376.157074 1972.0
376.257721 76.0
376.396698 44.0
377.11142 144.0
377.159027 572.0
377.788116 80.0
378.165649 368.0
378.426697 44.0
378.736511 80.0
380.159393 116.0
382.071075 84.0
382.183899 80.0
392.312286 64.0
404.160095 156.0
408.561462 116.0
422.178436 172.0
437.233032 52.0
444.257019 108.0
447.531006 124.0
450.719849 56.0
460.384125 84.0
463.725494 72.0
471.044678 92.0
477.579193 20.0
502.405823 56.0
523.118713 96.0
572.999695 36.0
583.259888 72.0
587.608521 56.0
620.309082 56.0
655.738708 112.0
671.195251 36.0
692.031799 88.0
737.170898 80.0
742.085815 128.0
768.725281 88.0
780.023926 124.0
783.685852 68.0
792.581238 216.0
795.003723 120.0
806.832336 204.0
818.224426 216.0
821.678162 240.0
829.661987 128.0
830.654053 152.0
836.630554 120.0
837.62677 192.0
841.386719 128.0
848.120178 156.0
862.222778 72.0
870.430115 228.0
875.175293 176.0
879.602783 148.0
885.58667 104.0
892.286316 172.0
912.320251 80.0
913.432739 140.0
921.619812 172.0
938.676758 128.0
950.010132 132.0
951.826843 132.0
952.35498 72.0
956.591675 64.0
959.530212 228.0
962.948853 140.0
963.770447 184.0
976.572021 104.0
978.364136 208.0
984.624512 228.0
989.270264 124.0
994.585938 164.0
995.458618 148.0
995.979858 148.0
1002.36554 116.0
1007.166626 188.0
1011.687927 136.0
1017.634766 168.0
1020.39856 192.0
1023.726379 40.0
1024.108521 56.0
1034.523193 224.0
1045.01001 100.0
1058.979492 212.0
1070.689575 192.0
1070.754639 48.0
1074.150513 128.0
1077.937256 172.0
1081.881226 164.0
1096.357788 184.0
1098.269775 128.0
1109.650757 128.0
1117.747437 176.0
1119.624756 216.0
1122.683594 200.0
1125.846802 204.0
1126.307739 196.0
1127.657349 100.0
1132.514893 156.0
1136.490234 116.0
1137.530518 136.0
1142.086304 196.0
1142.93396 188.0
1143.781982 180.0
1147.116333 188.0
1157.114746 132.0
1162.985229 128.0
1165.790161 208.0
1166.109497 176.0
1170.061768 188.0
1174.041016 68.0
1177.699219 52.0
1179.482544 60.0
1181.51355 212.0
1181.787231 224.0
1182.6427 120.0
1190.887573 20.0
1192.945557 144.0
1196.047852 180.0
1196.922241 64.0
1197.376709 356.0
1207.612061 132.0
1208.802002 132.0
1209.978638 200.0
1210.525635 116.0
1213.532959 60.0
1214.267944 140.0
1220.448364 192.0
1225.118408 204.0
1225.376221 60.0
1228.044189 216.0
1228.49939 192.0
1228.590088 156.0
1240.057861 124.0
1240.162964 200.0
1244.28772 160.0
1245.235718 168.0
1246.900879 144.0
1248.025513 152.0
1254.474487 160.0
1256.688965 136.0
1259.216187 120.0
1261.258057 224.0
1267.81897 216.0
1267.875732 164.0
1269.06665 212.0
1269.789917 188.0
1269.85376 180.0
1270.641113 128.0
1272.223755 112.0
1275.150269 128.0
1276.508057 64.0
1276.700073 192.0
1277.802612 132.0
1278.571167 172.0
1281.654541 148.0
1283.151245 128.0
1284.249512 144.0
1289.068481 88.0
1289.704468 212.0
1290.548096 64.0
1295.927856 156.0
1297.313721 188.0
1298.934326 176.0
1299.529785 76.0
1299.810425 176.0
1300.189941 56.0
1300.871826 200.0
1301.862671 108.0
1305.966431 208.0
1306.419556 204.0
1309.089844 180.0
1312.779419 208.0
1314.885986 220.0
1315.340698 184.0
1315.427368 192.0
1316.272095 192.0
1319.248779 140.0
1321.635376 136.0
1324.524048 176.0
1325.994873 108.0
1326.190552 124.0
1328.503662 156.0
1328.583496 112.0
1330.49939 160.0
1330.971313 136.0
1331.421631 168.0
1331.733887 152.0
1336.175415 232.0
1337.907471 200.0
1339.502319 216.0
1340.136108 140.0
1341.59375 220.0
1342.038452 136.0
1342.446777 216.0
1342.629028 212.0
1342.891602 156.0
1343.898315 192.0
1345.175537 216.0
1345.949341 232.0
1346.424072 180.0
1349.734375 184.0
1351.248413 112.0
1351.511841 64.0
1352.031372 148.0
1352.499756 228.0
1353.100098 244.0
1353.290405 152.0
1354.25708 216.0
1354.564697 144.0
1354.916382 168.0
1356.917114 132.0
1359.352295 192.0
1362.560913 204.0
1363.259033 200.0
1364.141968 156.0
1364.589478 196.0
1366.126465 132.0
1367.517212 176.0
1367.715942 168.0
1368.187012 104.0
1368.496338 140.0
1370.595459 188.0
1371.922119 156.0
1375.861572 204.0
1376.599976 172.0
1378.890137 196.0
1385.431152 212.0
1385.779419 176.0
1389.545776 184.0
1389.746094 180.0
1389.872192 28.0
1390.881592 172.0
1392.529907 148.0
1393.517822 148.0
1398.239746 160.0
1398.80542 148.0
1401.002197 208.0
1402.775879 156.0
1403.364746 100.0
1404.177612 252.0
1404.908569 204.0
1405.207031 200.0
1406.587646 176.0
1408.476807 180.0
1410.322388 148.0
1411.241943 56.0
1411.413818 244.0
1411.623291 100.0
1411.757812 48.0
1411.850342 120.0
1412.535645 172.0
1415.656738 204.0
1416.525513 248.0
1418.353882 40.0
1420.10083 192.0
1420.190918 180.0
1420.768433 188.0
1421.864014 160.0
1421.946533 172.0
1422.674683 60.0
1424.244019 124.0
1425.716675 240.0
1427.01709 144.0
1427.74646 144.0
1428.167603 152.0
1428.453491 172.0
1429.205811 92.0
1429.469116 144.0
1429.604614 196.0
1431.426392 200.0
1432.239746 76.0
1433.430054 136.0
1435.36731 64.0
1436.385498 128.0
1437.320923 152.0
1438.294556 192.0
1438.3927 184.0
1440.658081 52.0
1441.511841 196.0
1441.579834 164.0
1442.26001 136.0
1444.324341 216.0
1444.392334 56.0
1444.460449 36.0
1444.573975 132.0
1445.784546 28.0
1446.420288 192.0
1446.670044 144.0
1447.752808 140.0
1452.671875 112.0
1453.27124 152.0
1453.38501 216.0
1454.880127 108.0
1454.98645 216.0
1456.581177 164.0
1456.854614 220.0
1459.491943 132.0
1459.697266 136.0
1461.233643 180.0
1461.537964 96.0
1461.713013 184.0
1462.040283 216.0
1465.543091 60.0
1469.050049 184.0
1470.705933 164.0
1470.995972 132.0
1471.828125 120.0
1472.591797 176.0
1475.541382 148.0
1477.338623 176.0
1477.545166 156.0
1479.466064 120.0
1480.139771 140.0
1480.338867 100.0
1480.522705 228.0
1480.86731 52.0
1482.269287 68.0
1482.765137 140.0
1484.46167 136.0
1485.343628 108.0
1485.949707 208.0
1486.7323 64.0
1488.098633 204.0
1489.219849 220.0
1490.203125 164.0
1490.643188 228.0
1492.816528 212.0
1495.878662 52.0
1496.51001 152.0
1499.283081 132.0
1499.437134 192.0
1499.691528 136.0
1502.38269 140.0
1502.8302 216.0
1502.884155 188.0
1503.779297 140.0
1504.111206 148.0
