>compound Chlorothiazide
>formula C7H6ClN3O4S2 
>ionization [M+H]+
>parentmass 295.95636
#inchi InChI=1S/C7H6ClN3O4S2/c8-4-1-5-7(2-6(4)16(9,12)13)17(14,15)11-3-10-5/h1-3H,(H,10,11)(H2,9,12,13)
#inchikey JBMKAUGHUNFTOL
#Ion_Source LC-ESI
#Instrument qTof
#Compound_Source Isolated
#PI Sirenas
#Data_Collector Ed Esquenazi 
#Scan -1
#Precursor_MZ 295.956
#ExactMass 0.0
#Charge 1
#CAS_Number N/A
#Pubmed_ID N/A
#Smiles N/A
#INCHI_AUX N/A
#Library_Class 3
#SpectrumID CCMSLIB00000006264
#IonMode Positive
#UpdateWorkflowName UPDATE-SINGLE-ANNOTATED-BRONZE
#LibraryQualityString Bronze
#TaskID d19310cd93df49b68e9fcbec27720eb5
##Scan# 2
#SpectrumFile Chlorothiazide.mgf
#LibraryName fda_library.mgf
#MQScore -1
#Organism fda_library
#TIC_Query 0
#RT_Query -1
#MZErrorPPM -1
#SharedPeaks 0
#MassDiff 0
#LibMZ -1
#SpecMZ 295.956
#SpecCharge 0
#internalFilename spec-00000.mgf

>collision 10
104.954575 73.937027
114.010765 21.08737
121.040611 29.087681
122.046349 12.13542
123.991737 85.184967
124.011086 11.75284
124.106422 10.29018
124.287361 10.58173
129.019165 30.644739
131.968994 66.494453
132.189438 13.33681
132.951447 11.7
134.048813 13.21094
139.989502 103.080101
141.01915 51.428028
141.948273 14.49564
152.012878 39.230259
155.001022 11.41352
155.983566 153.560699
157.012207 184.489594
158.000061 58.513
159.960602 78.541809
169.944031 80.846992
187.955811 154.475906
203.952209 374.057892
204.070221 17.560169
204.12146 27.813919
204.227188 10.03068
204.660172 12.11429
204.982468 968.3349
205.143219 10.25055
205.444626 24.643511
206.653961 17.55719
209.249435 11.75531
214.966507 529.681519
215.674377 11.31191
216.979675 49.332661
218.970581 19.202499
220.976501 474.980194
229.646912 15.90434
230.964142 387.050201
241.699921 14.77841
242.974075 263.780212
261.220581 29.61237
268.945526 291.755005
277.820557 10.51
278.929565 1100.279053
278.99292 25.265619
279.135132 20.94483
279.165771 16.02367
279.265808 16.77808
279.330536 14.03846
279.346619 11.65543
279.71994 10.83036
279.807251 19.797581
295.776978 16.66667
295.95636 973.555908
296.093384 21.409731
296.292114 24.884609
296.470581 18.182779
297.076324 10.53397
336.947693 22.03409
