>compound MLS000863574-01!methyl 18-hydroxy-1,3,11,12,14,15,16,17,18,19,20,21-dodecahydroyohimban-19-carboxylate
>formula C21H26N2O3
>ionization [M+H]+
>parentmass 355.201813
#inchi InChI=1S/C21H26N2O3/c1-26-21(25)19-15-10-17-20-14(13-4-2-3-5-16(13)22-20)8-9-23(17)11-12(15)6-7-18(19)24/h2-5,12,15,17-19,22,24H,6-11H2,1H3
#inchikey BLGXFZZNTVWLAY
#Ion_Source LC-ESI
#Instrument qTof
#Compound_Source NIH Natural Product Library
#PI Dorrestein
#Data_Collector VVP/LMS
#Scan -1
#Precursor_MZ 355.202
#ExactMass 354.194
#Charge 1
#CAS_Number N/A
#Pubmed_ID N/A
#Smiles COC(=O)C1C(O)CCC2CN3CCc4c([nH]c5ccccc45)C3CC12
#INCHI_AUX N/A
#Library_Class 1
#SpectrumID CCMSLIB00000080088
#IonMode Positive
#UpdateWorkflowName UPDATE-SINGLE-ANNOTATED-GOLD
#LibraryQualityString Gold
#TaskID b1d8e8f6646f4e71acdff9ca3d919d08
##Scan# 1501
#SpectrumFile p2-H03_GH3_01_18063.mzXML
#LibraryName NIH_Natural_Products_Library.mgf
#MQScore -1
#Organism NIH_Natural_Products_Library
#TIC_Query 0
#RT_Query -1
#MZErrorPPM -1
#SharedPeaks 0
#MassDiff 0
#LibMZ -1
#SpecMZ 355.202
#SpecCharge 0
#internalFilename spec-00000.mgf

>collision 10
94.964516 196.0
94.999435 156.0
95.075523 168.0
95.094513 196.0
95.146927 128.0
95.348335 192.0
95.371147 192.0
95.486984 100.0
95.798424 176.0
95.815964 136.0
95.843819 188.0
95.858826 220.0
95.925095 168.0
96.026489 324.0
96.053879 204.0
96.108421 64.0
96.170876 160.0
96.247009 176.0
96.284798 148.0
96.356392 132.0
96.537064 120.0
96.551071 128.0
96.612289 224.0
96.64576 148.0
96.739708 148.0
96.986526 140.0
97.01593 48.0
97.037498 76.0
97.141441 100.0
97.163017 180.0
97.233658 172.0
97.27095 108.0
97.292549 300.0
97.368462 176.0
97.394661 168.0
97.433952 148.0
97.466026 160.0
97.540573 172.0
97.559731 176.0
97.575455 172.0
97.664864 176.0
97.728874 164.0
97.813499 188.0
97.862068 244.0
97.894218 200.0
98.067596 152.0
98.095192 132.0
98.172089 156.0
98.406906 188.0
98.448372 208.0
98.491821 184.0
98.564926 160.0
98.653862 124.0
98.671654 164.0
98.758667 148.0
98.816292 156.0
98.871445 168.0
98.8853 124.0
98.972404 136.0
99.015968 148.0
99.06945 144.0
99.257744 164.0
99.438271 112.0
99.46209 120.0
99.485916 180.0
99.545479 140.0
99.569313 164.0
99.708382 144.0
99.781929 100.0
99.935081 156.0
99.988808 164.0
100.020348 128.0
100.04129 120.0
100.076401 32.0
100.130165 152.0
100.177971 40.0
100.223793 196.0
100.325439 80.0
100.413177 164.0
100.432365 188.0
100.463554 204.0
100.494972 140.0
100.512924 116.0
100.536873 108.0
100.666634 240.0
100.684608 204.0
100.722633 176.0
100.812469 156.0
101.266617 156.0
101.302673 96.0
101.346298 176.0
101.404869 120.0
101.434937 204.0
101.543213 80.0
101.597374 148.0
101.621445 180.0
101.63549 232.0
101.786041 104.0
101.928658 220.0
102.045532 196.0
102.22628 92.0
102.245811 136.0
102.45179 192.0
102.465889 124.0
102.512238 132.0
102.546494 124.0
102.772362 212.0
102.805328 228.0
102.949997 164.0
103.014633 136.0
103.030792 60.0
103.054276 1800.0
103.473709 200.0
103.493958 192.0
103.579018 200.0
103.641823 260.0
103.803993 168.0
103.857834 200.0
103.904953 168.0
104.055191 364.0
104.122604 132.0
104.246536 120.0
104.327835 172.0
104.433578 124.0
104.46067 212.0
104.49054 148.0
104.547653 176.0
104.576004 60.0
104.671722 240.0
104.722603 160.0
104.751122 152.0
104.806129 148.0
104.85096 136.0
104.869308 168.0
104.975319 216.0
105.050789 172.0
105.070114 1008.0
105.093628 148.0
105.126282 140.0
105.26918 184.0
105.299812 244.0
105.406044 192.0
105.50415 52.0
105.669815 148.0
105.737343 156.0
105.856079 180.0
105.942108 196.0
105.958496 124.0
105.974884 220.0
105.989227 184.0
106.00972 152.0
106.066147 2180.0
106.175781 176.0
106.255783 188.0
106.284508 144.0
106.315147 176.0
106.448723 168.0
106.643898 212.0
106.719963 64.0
106.736412 176.0
107.045074 292.0
107.08358 316.0
107.141884 48.0
107.294395 128.0
107.367363 124.0
107.514587 160.0
107.616257 132.0
107.65136 128.0
107.746376 136.0
107.886909 160.0
108.07959 148.0
108.275497 176.0
108.362923 220.0
108.398354 204.0
108.429237 104.0
108.453499 204.0
108.501785 164.0
108.519325 148.0
108.549477 180.0
108.563988 184.0
108.686378 112.0
108.752792 160.0
108.781853 124.0
108.825943 220.0
108.87529 200.0
108.96888 140.0
108.999931 180.0
109.062386 456.0
109.159996 68.0
109.372208 100.0
109.42009 52.0
109.540878 128.0
109.559624 188.0
109.582542 148.0
109.663818 124.0
109.804405 112.0
109.867729 264.0
109.948875 124.0
109.964165 60.0
110.01635 144.0
110.041397 128.0
110.074448 116.0
110.094368 356.0
110.28791 84.0
110.32972 104.0
110.428001 204.0
110.53051 152.0
110.578644 128.0
110.614227 196.0
110.64563 112.0
110.777565 188.0
110.806892 144.0
110.953606 64.0
111.035385 132.0
111.075233 188.0
111.163353 68.0
111.253609 132.0
111.299797 140.0
111.46785 132.0
111.503571 144.0
111.587654 124.0
111.791885 216.0
111.827469 128.0
111.985382 100.0
112.014877 168.0
112.052795 344.0
112.092827 152.0
112.175026 184.0
112.238274 132.0
112.288887 208.0
112.320526 148.0
112.39859 240.0
112.442909 144.0
112.47879 164.0
112.493568 116.0
112.569572 216.0
112.59137 188.0
112.658287 240.0
112.719559 144.0
112.829468 188.0
112.926743 172.0
113.009247 188.0
113.058899 164.0
113.119301 236.0
113.151054 144.0
113.26329 92.0
113.348038 156.0
113.443413 200.0
113.54731 256.0
113.704315 216.0
113.759499 224.0
113.87841 164.0
114.090248 44.0
114.124924 160.0
114.175964 144.0
114.227013 136.0
114.280197 128.0
114.356812 144.0
114.380226 152.0
114.441963 148.0
114.697609 56.0
114.714668 176.0
114.774361 160.0
114.817017 180.0
114.853271 232.0
114.889038 224.0
114.947144 176.0
115.008339 304.0
115.054718 6088.0
115.079491 276.0
115.14782 156.0
115.216179 48.0
115.248222 80.0
115.340126 92.0
115.432053 140.0
115.472687 176.0
115.49836 88.0
115.573235 56.0
115.650276 88.0
115.838715 172.0
115.87085 140.0
115.898705 168.0
115.954422 64.0
115.975853 108.0
116.033737 116.0
116.055969 1076.0
116.165848 272.0
116.250374 28.0
116.417824 260.0
116.490852 392.0
116.538116 204.0
116.576797 92.0
116.796097 112.0
116.835007 92.0
116.886459 192.0
116.934746 328.0
116.96273 164.0
116.995094 204.0
117.019913 180.0
117.069786 12512.0
117.126823 248.0
117.157745 140.0
117.209457 124.0
117.274109 140.0
117.333466 112.0
117.394844 36.0
117.426559 48.0
117.619232 128.0
117.636497 60.0
117.715645 164.0
117.742302 64.0
117.843826 172.0
117.872612 180.0
117.900009 180.0
117.928108 80.0
117.945404 204.0
117.972 236.0
117.992958 140.0
118.023232 44.0
118.06916 908.0
118.155167 52.0
118.191948 212.0
118.269859 184.0
118.434425 228.0
118.453918 68.0
118.475578 172.0
118.562256 204.0
118.614273 60.0
118.721199 240.0
118.750877 192.0
118.776909 144.0
118.797653 220.0
118.806015 124.0
118.887558 40.0
118.928795 144.0
118.989578 240.0
119.026199 88.0
119.047058 360.0
119.075752 616.0
119.111191 172.0
119.226349 168.0
119.389404 76.0
119.424202 376.0
119.461182 148.0
119.47641 208.0
119.582001 76.0
119.600449 56.0
119.770287 140.0
119.800186 204.0
119.818214 120.0
119.892517 120.0
119.976776 292.0
120.054848 168.0
120.082863 296.0
120.135803 176.0
120.193237 264.0
120.208511 148.0
120.477394 136.0
120.581963 156.0
120.667213 68.0
120.726257 200.0
120.763435 148.0
120.868446 84.0
120.916588 164.0
120.958176 224.0
121.065308 544.0
121.089554 176.0
121.207855 208.0
121.240723 132.0
121.271408 112.0
121.348137 120.0
121.374443 160.0
121.429268 56.0
121.503853 200.0
121.547737 132.0
121.819984 268.0
121.857338 116.0
121.938644 96.0
122.039764 132.0
122.058701 328.0
122.077148 192.0
122.094078 232.0
122.149727 192.0
122.35759 192.0
122.468903 152.0
122.501945 148.0
122.5438 180.0
122.568039 100.0
122.59259 172.0
122.625336 148.0
122.660606 104.0
122.717926 184.0
122.8536 116.0
122.967201 200.0
123.080887 220.0
123.112915 192.0
123.168129 176.0
123.347771 176.0
123.367012 160.0
123.404602 124.0
123.435555 40.0
123.47094 92.0
123.599243 92.0
123.623589 152.0
123.665642 144.0
123.915878 232.0
123.971275 48.0
124.024467 132.0
124.079887 144.0
124.113144 184.0
124.261749 72.0
124.279503 120.0
124.590332 152.0
124.754791 40.0
124.812599 172.0
124.872459 144.0
125.003899 160.0
125.021706 156.0
125.104057 204.0
125.24057 184.0
125.254517 128.0
125.300041 168.0
125.331238 168.0
125.411461 44.0
125.496178 128.0
125.585381 104.0
125.652306 156.0
125.730408 136.0
125.747787 76.0
125.805756 148.0
125.904541 156.0
126.018471 92.0
126.047516 340.0
126.12574 164.0
126.208458 96.0
126.273308 80.0
126.452301 148.0
126.488113 216.0
126.503784 120.0
126.523933 160.0
126.56871 176.0
126.662773 176.0
126.694138 156.0
126.734467 200.0
126.752396 156.0
126.776604 204.0
126.848763 144.0
126.904816 156.0
126.996758 228.0
127.052017 1776.0
127.108932 168.0
127.135864 256.0
127.207687 220.0
127.367119 44.0
127.385094 144.0
127.403061 48.0
127.861778 108.0
127.913544 152.0
127.963074 72.0
128.05011 1184.0
128.120728 36.0
128.181564 184.0
128.264954 172.0
128.292007 192.0
128.384445 140.0
128.416031 124.0
128.47467 76.0
128.510773 124.0
128.655212 188.0
128.736496 176.0
128.759079 148.0
128.808777 180.0
128.874298 112.0
128.92627 140.0
128.942093 148.0
128.989548 168.0
129.027985 156.0
129.05571 456.0
129.145584 48.0
129.172714 204.0
129.204391 120.0
129.417145 144.0
129.529633 176.0
129.657272 72.0
129.720734 192.0
129.852249 36.0
130.00708 160.0
130.063873 2784.0
130.095047 80.0
130.208572 176.0
130.247192 148.0
130.288086 48.0
130.324371 136.0
130.391968 184.0
130.599503 120.0
130.629074 56.0
130.64711 168.0
130.685959 204.0
130.726913 156.0
130.754227 148.0
131.074966 408.0
131.109512 216.0
131.166489 220.0
131.187012 164.0
131.346634 136.0
131.44017 224.0
131.504074 188.0
131.52919 188.0
131.570282 156.0
131.694534 220.0
131.819244 156.0
131.837524 168.0
131.935806 220.0
132.006699 208.0
132.057007 312.0
132.081116 896.0
132.173676 208.0
132.212585 176.0
132.352264 204.0
132.3797 188.0
132.572128 160.0
132.629425 228.0
132.683502 196.0
132.716553 84.0
132.927582 160.0
133.044647 40.0
133.062988 616.0
133.089874 336.0
133.15715 180.0
133.189316 164.0
133.354752 180.0
133.389236 96.0
133.494995 60.0
133.563995 108.0
133.699738 72.0
133.715851 148.0
133.814835 160.0
133.830948 56.0
133.867798 104.0
133.976059 276.0
134.012909 184.0
134.0336 172.0
134.062164 332.0
134.096619 5264.0
134.211136 56.0
134.245728 132.0
134.404892 132.0
134.494904 200.0
134.513367 136.0
134.536453 40.0
134.561859 60.0
134.626511 196.0
134.649597 244.0
134.751236 140.0
134.836746 156.0
134.948166 180.0
135.080124 800.0
135.099182 1692.0
135.179367 208.0
135.216415 204.0
135.248444 60.0
135.275024 188.0
135.310944 108.0
135.343369 160.0
135.38504 172.0
135.48465 36.0
135.58197 56.0
135.881104 128.0
136.022659 64.0
136.079819 384.0
136.111679 256.0
136.378632 212.0
136.400635 180.0
136.489639 136.0
136.512894 128.0
136.63385 48.0
136.761841 72.0
136.780457 180.0
136.845642 172.0
136.99704 68.0
137.018097 184.0
137.059448 188.0
137.098373 300.0
137.148499 148.0
137.171814 172.0
137.251038 192.0
137.264328 176.0
137.367691 184.0
137.468018 112.0
137.62442 152.0
137.722504 100.0
137.755005 240.0
137.960861 140.0
138.035217 244.0
138.09137 648.0
138.235184 224.0
138.311752 212.0
138.405396 104.0
138.426468 240.0
138.454575 72.0
138.475647 164.0
138.620895 248.0
138.810776 192.0
138.834229 180.0
139.057114 144.0
139.078903 196.0
139.147308 244.0
139.188583 144.0
139.352783 176.0
139.465805 120.0
139.566895 336.0
139.717422 128.0
139.778595 184.0
139.88385 156.0
140.094101 140.0
140.139145 164.0
140.17421 200.0
140.277908 64.0
140.306198 160.0
140.341568 132.0
140.768661 148.0
140.827713 52.0
141.042725 200.0
141.07193 148.0
141.236343 168.0
141.286301 132.0
141.537186 96.0
141.622452 396.0
141.681671 180.0
141.699097 164.0
141.719574 172.0
141.821472 124.0
141.866516 116.0
141.935272 144.0
142.067596 716.0
142.248444 292.0
142.319672 168.0
142.400421 28.0
142.445541 180.0
142.47168 136.0
142.576233 136.0
142.676727 128.0
142.701569 160.0
142.73114 176.0
142.741379 136.0
142.749603 112.0
142.783066 176.0
142.87822 140.0
142.906357 228.0
142.994812 236.0
143.024628 244.0
143.072998 14652.0
143.156708 172.0
143.237686 148.0
143.276062 36.0
143.335373 44.0
143.368729 80.0
143.390182 188.0
143.414017 160.0
143.478577 236.0
143.499832 172.0
143.554672 136.0
143.576141 188.0
143.59761 132.0
143.62146 56.0
143.656845 172.0
143.687225 84.0
143.716324 172.0
143.738358 140.0
143.770981 184.0
143.802124 196.0
143.830078 352.0
143.852402 148.0
143.87854 208.0
143.896851 308.0
143.915985 160.0
143.979782 188.0
144.036102 376.0
144.04213 288.0
144.081345 140536.0
144.151398 164.0
144.167068 380.0
144.22905 116.0
144.2547 212.0
144.273071 96.0
144.291367 208.0
144.322739 252.0
144.377548 176.0
144.393082 132.0
144.442749 92.0
144.474411 1552.0
144.518188 268.0
144.563339 52.0
144.579544 92.0
144.615204 80.0
144.644241 252.0
144.673126 148.0
144.69249 220.0
144.720871 112.0
144.745331 144.0
144.783035 52.0
144.805557 40.0
144.829712 124.0
144.859695 324.0
144.908691 132.0
144.926773 240.0
144.946808 100.0
145.020599 180.0
145.084274 16096.0
145.142502 84.0
145.176956 236.0
145.23291 88.0
145.26796 64.0
145.305206 24.0
145.341599 36.0
145.358383 92.0
145.374634 52.0
145.439987 80.0
145.461594 52.0
145.5 52.0
145.530411 132.0
145.550903 40.0
145.611969 96.0
145.641693 192.0
145.668106 104.0
145.693756 148.0
145.725769 164.0
145.778946 112.0
145.817078 132.0
145.841125 44.0
145.875412 136.0
145.883224 108.0
145.943161 116.0
145.955078 140.0
145.97197 132.0
146.02269 140.0
146.040283 48.0
146.064026 664.0
146.092804 1652.0
146.131989 352.0
146.151047 124.0
146.159637 60.0
146.181229 220.0
146.217773 60.0
146.256821 96.0
146.28302 80.0
146.336685 168.0
146.353546 40.0
146.370392 80.0
146.413742 72.0
146.498688 152.0
146.554947 52.0
146.587204 92.0
146.61853 72.0
146.646027 64.0
146.717361 68.0
146.746292 64.0
146.772812 116.0
146.825867 60.0
146.857056 228.0
146.91394 80.0
146.934418 40.0
147.062592 336.0
147.1008 384.0
147.12265 80.0
147.170288 116.0
147.192673 36.0
147.233063 188.0
147.405258 44.0
147.429413 32.0
147.579285 60.0
147.743759 60.0
147.801819 60.0
147.92041 80.0
147.937363 76.0
147.980942 68.0
148.076706 124.0
148.11702 168.0
148.172272 60.0
148.344345 108.0
148.487396 80.0
148.727615 112.0
148.815002 212.0
149.059799 188.0
149.075974 64.0
149.083313 140.0
149.09935 220.0
149.658722 84.0
149.834076 60.0
149.865753 56.0
149.929108 44.0
150.087662 328.0
150.24855 156.0
150.343704 188.0
150.43158 432.0
150.513641 52.0
150.651367 32.0
151.037598 256.0
151.069397 40.0
151.238907 208.0
151.279861 64.0
151.39003 144.0
151.510056 64.0
151.777222 80.0
151.799286 184.0
151.970993 64.0
152.077103 356.0
152.10994 716.0
152.223816 80.0
152.376114 240.0
152.550598 88.0
152.739944 48.0
152.757172 56.0
153.005722 28.0
153.037735 176.0
153.059891 132.0
153.089447 124.0
153.392502 124.0
153.540436 124.0
153.629242 84.0
153.718063 188.0
154.06218 316.0
154.083496 284.0
154.152679 124.0
154.226822 144.0
154.355392 212.0
154.583221 236.0
154.741379 108.0
154.805771 68.0
154.981644 152.0
155.060959 1820.0
155.18985 32.0
155.218353 88.0
155.653854 196.0
155.750717 56.0
155.842636 76.0
155.86499 144.0
156.080765 948.0
156.165817 68.0
156.223022 112.0
156.317566 144.0
156.391586 172.0
156.603882 52.0
156.631271 44.0
156.748367 148.0
156.795715 88.0
156.925354 152.0
157.065002 116.0
157.087677 960.0
157.174774 108.0
157.237167 52.0
157.269608 48.0
157.486847 140.0
158.058685 192.0
158.096481 2352.0
158.152451 220.0
158.181992 72.0
158.27713 32.0
158.397964 80.0
158.434921 72.0
159.034241 180.0
159.056824 152.0
159.100922 328.0
159.531616 132.0
159.55423 72.0
159.576859 60.0
159.713058 128.0
160.074905 168.0
160.483292 168.0
160.533722 120.0
160.669922 124.0
160.947556 84.0
161.053284 176.0
161.073837 224.0
161.110855 172.0
161.245651 156.0
161.475739 200.0
162.059814 144.0
162.091812 4256.0
162.245529 160.0
162.268341 56.0
162.293167 192.0
162.39006 72.0
162.435715 136.0
162.5905 116.0
162.83168 88.0
163.006973 152.0
163.077576 332.0
163.094086 292.0
163.510513 124.0
163.979141 160.0
164.027573 56.0
164.063263 88.0
164.086212 140.0
164.106857 584.0
164.232651 208.0
165.148544 60.0
165.307159 100.0
165.711731 128.0
166.087112 160.0
166.096848 180.0
166.196335 136.0
166.327225 100.0
166.599426 172.0
166.9207 64.0
166.938705 68.0
167.073746 480.0
167.311798 40.0
167.876083 124.0
168.083603 972.0
168.139236 48.0
168.263138 208.0
168.296707 52.0
168.606689 128.0
169.089371 688.0
169.126556 136.0
169.20813 176.0
169.240479 232.0
169.341476 108.0
169.359604 68.0
169.644638 176.0
169.737976 184.0
169.90657 200.0
170.02594 144.0
170.057083 136.0
170.096786 916.0
170.176498 184.0
170.410263 192.0
170.886063 108.0
171.098297 272.0
171.159363 88.0
171.195831 68.0
171.550186 156.0
171.967529 108.0
172.072845 344.0
172.113495 120.0
172.20253 124.0
172.320068 52.0
172.531769 104.0
172.659897 64.0
172.905823 68.0
173.044571 112.0
173.183365 160.0
173.455872 116.0
173.568604 80.0
174.096634 148.0
174.127579 208.0
174.248413 224.0
174.32724 164.0
174.805862 172.0
175.072998 196.0
175.643677 132.0
175.670059 52.0
175.691162 168.0
176.102966 160.0
176.237686 124.0
176.264114 156.0
176.605164 136.0
177.090378 564.0
177.182251 136.0
177.397797 204.0
177.490952 76.0
177.733734 180.0
178.089401 372.0
178.254196 148.0
178.331268 204.0
178.575882 56.0
179.08371 176.0
179.30806 64.0
179.332047 208.0
179.494675 56.0
179.596222 156.0
179.638687 188.0
179.678711 60.0
179.766769 180.0
179.87085 88.0
179.985657 180.0
180.101852 2472.0
180.132217 128.0
180.196671 28.0
180.47998 36.0
180.619781 224.0
181.103409 984.0
181.178543 100.0
181.559174 124.0
181.59404 96.0
181.618179 276.0
182.094986 756.0
182.289368 100.0
182.378067 48.0
182.488281 132.0
182.687302 96.0
182.792236 32.0
182.811066 84.0
182.872971 164.0
183.075256 60.0
183.10228 452.0
183.147614 136.0
183.179932 48.0
183.51413 172.0
184.068909 188.0
184.09433 128.0
184.117035 212.0
184.188812 172.0
184.210419 40.0
184.302277 96.0
184.407669 204.0
184.513092 264.0
184.634781 100.0
185.116486 144.0
185.162537 144.0
185.642227 96.0
186.120789 340.0
186.987015 168.0
187.444534 192.0
187.700775 100.0
187.763489 52.0
188.566452 204.0
188.626312 116.0
189.020157 184.0
189.066666 116.0
189.087204 112.0
189.124146 196.0
189.299362 104.0
189.597977 136.0
189.748734 196.0
189.820023 176.0
190.827744 156.0
190.912994 84.0
190.945999 80.0
191.072449 140.0
191.449631 188.0
192.075241 204.0
192.101501 1032.0
192.293274 160.0
192.329147 124.0
192.674347 88.0
192.900955 220.0
193.09465 352.0
193.360107 40.0
193.534515 100.0
193.803192 180.0
193.99324 216.0
194.030457 68.0
194.116943 5024.0
194.166336 144.0
194.196838 48.0
194.274765 44.0
194.360519 88.0
194.465973 52.0
194.533325 168.0
194.590897 56.0
194.790039 164.0
194.876984 120.0
194.965897 36.0
195.076111 184.0
195.081253 120.0
195.094833 124.0
195.120743 840.0
195.461792 128.0
195.522125 76.0
195.600052 120.0
195.734619 96.0
195.945374 176.0
196.07077 204.0
196.111343 496.0
196.554749 168.0
196.578339 132.0
196.664856 248.0
197.080963 168.0
197.10936 436.0
197.12999 212.0
197.181564 104.0
197.329712 120.0
197.732529 72.0
197.91394 140.0
198.117325 416.0
198.752594 168.0
198.89711 140.0
199.005219 92.0
199.122711 276.0
199.721848 144.0
199.811859 52.0
200.104568 136.0
200.758301 128.0
201.071457 144.0
201.09967 136.0
201.240829 132.0
201.495026 72.0
201.794601 204.0
202.108566 88.0
202.13121 148.0
202.35199 172.0
202.558716 164.0
203.066101 140.0
203.091629 136.0
203.5457 88.0
203.841141 108.0
204.082748 476.0
204.108337 224.0
204.239166 84.0
204.39563 72.0
204.720871 176.0
205.030685 112.0
205.050629 184.0
205.094498 392.0
205.290115 52.0
205.335739 152.0
205.521164 64.0
205.592514 52.0
206.098633 468.0
206.118378 952.0
206.426682 44.0
206.604019 192.0
206.804321 136.0
206.948486 92.0
207.101639 716.0
207.847488 48.0
207.965164 92.0
208.113266 860.0
208.489075 124.0
208.783997 52.0
209.040024 232.0
209.084808 164.0
209.116653 432.0
209.152267 140.0
209.293335 104.0
209.37973 184.0
209.613083 144.0
209.987854 56.0
210.095444 560.0
210.121628 496.0
210.163834 36.0
210.553543 60.0
210.579529 112.0
210.697968 148.0
210.834503 64.0
211.013 168.0
211.094254 156.0
211.128662 156.0
211.25592 68.0
211.41217 156.0
211.551102 200.0
211.710358 84.0
211.81752 128.0
211.84938 152.0
211.929062 208.0
212.037201 176.0
212.07869 152.0
212.128601 26552.0
212.195038 164.0
212.265015 60.0
212.295746 44.0
212.321854 60.0
212.34938 148.0
212.370224 56.0
212.42627 64.0
212.507507 88.0
212.548126 64.0
212.600357 104.0
212.693237 108.0
212.713562 52.0
212.751297 60.0
212.803558 72.0
212.859909 88.0
212.953598 84.0
213.064941 68.0
213.101196 216.0
213.130142 2256.0
213.361389 116.0
213.384079 124.0
213.628937 60.0
213.762787 104.0
213.783157 56.0
213.931595 80.0
214.027679 44.0
214.135025 428.0
214.313126 56.0
214.350998 84.0
214.700821 52.0
214.797073 160.0
215.883591 52.0
215.947937 128.0
215.980103 88.0
216.015213 192.0
216.102982 148.0
216.934723 140.0
217.088013 308.0
217.119446 168.0
217.183975 40.0
217.706406 156.0
218.100067 612.0
218.223572 120.0
218.564774 176.0
219.006363 136.0
219.104034 1084.0
219.174286 176.0
219.955841 96.0
220.108566 1288.0
220.762436 92.0
220.854126 56.0
221.078979 152.0
221.118988 892.0
221.354279 112.0
221.603104 64.0
221.718674 112.0
222.089371 160.0
222.126648 296.0
222.700729 204.0
223.060272 108.0
223.138016 184.0
223.223785 40.0
223.42009 112.0
223.595657 104.0
223.932098 164.0
224.075073 148.0
224.128464 4260.0
224.217117 96.0
224.468536 72.0
224.525192 56.0
224.691208 104.0
224.820541 84.0
224.841431 68.0
224.927994 32.0
225.133942 544.0
225.346085 36.0
225.884216 108.0
226.087677 132.0
226.142151 460.0
226.623688 116.0
226.662643 40.0
226.797501 68.0
227.079193 156.0
227.14534 136.0
228.082214 320.0
228.795166 100.0
229.454956 104.0
229.853104 116.0
229.892334 40.0
230.094574 408.0
230.73204 84.0
231.067749 112.0
231.100143 604.0
232.042999 120.0
232.11293 876.0
232.834991 96.0
232.916992 108.0
232.947372 176.0
233.120529 268.0
233.740906 84.0
234.014847 52.0
234.127426 1764.0
234.197571 40.0
234.785797 32.0
234.855957 176.0
235.131454 276.0
235.170227 180.0
236.120911 308.0
236.134567 332.0
236.142944 332.0
236.291733 100.0
237.134155 320.0
237.431244 72.0
237.940613 140.0
238.12149 148.0
238.330688 56.0
239.102554 148.0
239.28418 52.0
241.086716 220.0
241.138123 144.0
241.756668 116.0
242.099945 144.0
242.128174 116.0
242.949585 36.0
243.111084 164.0
244.080139 192.0
244.10965 244.0
244.229416 184.0
245.038818 172.0
245.119934 848.0
245.272537 48.0
245.637375 64.0
246.125229 728.0
246.161728 40.0
246.489716 104.0
246.614731 200.0
246.761658 52.0
246.8367 144.0
247.097748 96.0
247.135284 500.0
247.343536 192.0
247.468765 28.0
247.606552 68.0
247.76004 124.0
247.91983 144.0
248.104095 92.0
248.143066 1352.0
248.590942 104.0
248.656845 68.0
248.986496 140.0
249.04303 120.0
249.109009 136.0
249.146622 304.0
249.82576 76.0
250.074341 156.0
250.119537 168.0
250.133911 160.0
250.143356 156.0
250.219147 96.0
250.348251 196.0
250.445877 96.0
250.597092 32.0
250.757812 84.0
251.119614 192.0
252.151993 196.0
252.333008 120.0
253.111374 120.0
254.030502 124.0
254.116165 144.0
254.154236 80.0
254.455765 56.0
255.192886 172.0
255.93425 144.0
256.096649 120.0
256.319672 168.0
256.762787 144.0
256.85849 132.0
257.085022 100.0
257.813141 68.0
258.140137 172.0
259.131226 144.0
260.143921 1316.0
260.446777 64.0
260.539948 104.0
260.887024 36.0
261.112091 160.0
261.151917 192.0
261.237549 84.0
262.120361 444.0
262.151093 164.0
262.564606 68.0
263.120789 212.0
263.148376 196.0
263.197113 112.0
263.239105 28.0
263.365051 80.0
263.426819 164.0
263.471649 160.0
264.136078 388.0
265.131592 100.0
265.679596 68.0
265.708801 140.0
266.116028 180.0
266.150543 448.0
266.504242 80.0
267.128357 220.0
267.143433 140.0
267.151581 172.0
267.313934 76.0
268.137848 104.0
268.953278 144.0
270.548523 100.0
271.049622 140.0
271.115173 136.0
271.144684 176.0
271.954803 232.0
272.713531 52.0
273.108093 136.0
274.112213 120.0
274.326477 52.0
275.12262 276.0
275.805298 120.0
276.139282 492.0
276.281494 68.0
277.013519 160.0
277.10257 180.0
277.166046 484.0
278.115265 252.0
278.14624 304.0
279.113434 140.0
279.12146 116.0
279.155823 232.0
279.184265 312.0
280.133942 184.0
281.133087 208.0
282.148132 272.0
282.198273 216.0
283.098419 68.0
283.141937 96.0
283.168732 52.0
286.137238 144.0
286.85144 184.0
287.158264 200.0
287.546265 196.0
288.132355 392.0
288.170044 52.0
288.198029 140.0
289.130676 200.0
289.645996 148.0
290.117035 132.0
290.147156 168.0
290.568085 92.0
291.128174 128.0
292.073029 100.0
292.12439 316.0
292.249939 52.0
292.372437 100.0
292.617523 140.0
292.777557 180.0
293.056885 160.0
293.13913 248.0
293.169342 168.0
293.926361 72.0
294.147766 1204.0
294.455505 52.0
294.585327 56.0
295.15802 240.0
295.18457 204.0
295.265503 124.0
295.860901 100.0
296.145111 148.0
297.159821 36.0
297.633514 124.0
298.262207 96.0
298.475372 152.0
298.667969 156.0
298.736755 76.0
300.669769 160.0
301.477905 132.0
301.740601 52.0
303.360809 208.0
303.728394 168.0
304.151703 76.0
305.131348 144.0
305.169617 108.0
305.204376 76.0
305.552185 20.0
305.701813 144.0
306.147675 756.0
306.715332 88.0
307.159882 244.0
307.186066 264.0
308.16391 1460.0
308.890778 180.0
309.164551 172.0
309.321198 68.0
309.94809 56.0
310.046234 200.0
310.144348 156.0
310.551086 60.0
310.884399 104.0
311.140625 80.0
311.172211 140.0
311.969727 176.0
312.155151 240.0
312.178284 140.0
312.7612 72.0
313.169647 144.0
314.071991 152.0
314.700165 128.0
315.555206 52.0
318.14856 156.0
318.205383 48.0
319.154053 128.0
319.260712 48.0
319.299835 80.0
319.854889 168.0
320.159576 276.0
321.073456 136.0
321.158691 524.0
321.164093 220.0
321.24823 56.0
322.176422 144.0
323.178558 244.0
323.424408 100.0
323.449463 96.0
324.155518 268.0
324.20163 156.0
324.420258 132.0
324.717896 152.0
325.144501 172.0
325.167664 316.0
325.288391 68.0
326.174072 988.0
326.213867 204.0
326.25116 140.0
326.341034 132.0
326.79422 136.0
327.178223 396.0
328.213379 80.0
329.328522 140.0
330.275543 120.0
331.303619 36.0
334.139038 56.0
335.173096 152.0
335.89859 48.0
336.169281 84.0
337.001129 100.0
337.121735 80.0
337.191925 428.0
337.571381 96.0
338.173737 704.0
338.78653 104.0
339.170532 252.0
339.552643 68.0
339.919495 48.0
340.055267 132.0
340.180084 112.0
340.209442 72.0
341.385223 96.0
342.84967 116.0
344.555176 76.0
345.512695 112.0
348.240997 104.0
349.073486 212.0
350.733978 104.0
351.155304 120.0
352.189178 160.0
352.3685 104.0
353.182495 312.0
353.207001 224.0
353.523926 84.0
353.909485 88.0
354.184998 252.0
354.445129 192.0
354.576294 220.0
354.722473 136.0
354.763702 128.0
354.977417 72.0
355.007416 124.0
355.044922 152.0
355.087585 180.0
355.152374 440.0
355.201813 13468.0
355.326233 144.0
355.412384 92.0
355.465088 32.0
355.523132 76.0
355.556335 96.0
355.593201 56.0
355.637726 32.0
355.746582 28.0
355.845642 72.0
355.889252 68.0
355.986877 84.0
356.031921 148.0
356.099548 64.0
356.204376 3292.0
356.377533 48.0
356.4151 56.0
356.512817 72.0
356.614288 56.0
356.708252 64.0
356.757111 72.0
356.790955 40.0
356.882721 92.0
356.910095 76.0
357.131348 116.0
357.21106 436.0
357.306183 36.0
357.373932 64.0
357.526001 96.0
357.622284 40.0
357.693817 48.0
357.846283 104.0
358.126831 68.0
358.160736 116.0
358.200745 84.0
358.211548 204.0
358.312805 184.0
358.38678 60.0
358.47345 56.0
358.558807 92.0
358.624207 104.0
358.703339 68.0
358.817963 80.0
358.922028 132.0
359.140747 56.0
359.55957 120.0
359.699219 56.0
360.042816 36.0
360.197662 40.0
360.409241 104.0
360.866577 96.0
361.380981 64.0
361.577759 72.0
362.987 88.0
367.677643 84.0
369.297607 80.0
371.024628 48.0
371.898438 96.0
372.406067 108.0
375.053284 128.0
375.755157 48.0
375.840027 52.0
377.465454 156.0
377.539734 60.0
381.323639 56.0
384.205688 128.0
384.782776 84.0
388.383026 72.0
389.065826 68.0
389.328918 88.0
415.846283 100.0
416.873779 64.0
420.976044 36.0
425.771637 88.0
433.187866 44.0
437.098877 52.0
442.692627 84.0
447.391083 64.0
451.209137 112.0
452.135498 64.0
463.99881 76.0
466.97467 112.0
470.033386 52.0
472.574066 56.0
481.013947 164.0
488.520569 20.0
493.928802 88.0
495.602264 72.0
503.752899 48.0
513.899292 116.0
514.702759 116.0
515.963318 72.0
521.039307 32.0
523.30426 92.0
526.646912 80.0
526.706299 64.0
538.381714 88.0
541.966736 100.0
562.267456 88.0
567.964111 36.0
569.093567 68.0
571.669922 52.0
586.473999 92.0
592.717957 68.0
598.951172 72.0
602.160583 68.0
606.108459 28.0
635.353394 20.0
640.778076 36.0
655.696472 60.0
661.611511 112.0
696.309265 60.0
700.21698 124.0
751.275452 200.0
757.167786 204.0
758.881531 76.0
763.055725 204.0
768.541504 104.0
773.2276 96.0
773.299561 180.0
774.190918 152.0
776.818115 96.0
783.834595 192.0
784.648376 80.0
801.553223 180.0
810.101562 156.0
812.908081 132.0
824.297119 212.0
833.057434 212.0
841.62738 172.0
872.002563 36.0
874.490479 44.0
879.512329 88.0
883.897461 64.0
887.59375 228.0
890.620422 176.0
891.713684 52.0
896.343628 72.0
898.889832 176.0
900.501709 88.0
904.034973 116.0
910.077271 172.0
920.959351 140.0
923.225769 172.0
926.330688 116.0
927.172913 216.0
929.198181 104.0
929.55011 184.0
930.126709 44.0
930.503052 156.0
931.256042 88.0
936.608643 92.0
939.077148 172.0
945.51062 220.0
946.679871 148.0
947.243347 184.0
948.309509 124.0
949.339478 140.0
949.805603 132.0
952.813599 172.0
954.079651 180.0
954.719116 204.0
955.278809 184.0
957.26062 152.0
957.771851 36.0
963.632385 96.0
964.590271 100.0
965.492981 136.0
970.980103 76.0
972.363647 104.0
973.332092 164.0
973.828918 172.0
974.661316 156.0
977.484375 32.0
978.368225 52.0
979.146545 148.0
981.445984 112.0
981.726624 140.0
982.312927 172.0
983.46106 148.0
986.08429 260.0
993.015137 124.0
994.590027 168.0
996.429993 124.0
998.202454 156.0
999.039001 196.0
999.995422 144.0
1003.30249 240.0
1003.472717 116.0
1004.570068 128.0
1007.13916 160.0
1007.650818 32.0
1011.71106 156.0
1013.129639 196.0
1013.490723 132.0
1014.625244 64.0
1016.470947 128.0
1026.426025 140.0
1027.299805 52.0
1028.06543 108.0
1029.980835 72.0
1031.527222 124.0
1032.441528 64.0
1033.253784 160.0
1036.423096 180.0
1038.974854 208.0
1041.516968 180.0
1042.789062 140.0
1044.814697 244.0
1045.818481 148.0
1048.414062 144.0
1053.963623 164.0
1054.099243 188.0
1056.601562 196.0
1060.998901 220.0
1061.965088 220.0
1064.716919 236.0
1066.14624 220.0
1067.979614 100.0
1068.317871 108.0
1068.49353 176.0
1071.990112 100.0
1074.02417 164.0
1076.027588 164.0
1077.039795 108.0
1077.444824 120.0
1078.098267 116.0
1079.667236 56.0
1079.948486 36.0
1080.151245 60.0
1082.572876 220.0
1088.205444 128.0
1088.645386 224.0
1089.321899 48.0
1090.346802 144.0
1093.56958 120.0
1093.786743 152.0
1097.594727 164.0
1098.933716 116.0
1099.923584 172.0
1100.544189 184.0
1102.644897 124.0
1103.180298 212.0
1104.502808 36.0
1108.342529 224.0
1109.601929 152.0
1111.598389 212.0
1112.394775 128.0
1113.563477 156.0
1113.689575 144.0
1114.074951 172.0
1114.433716 156.0
1115.696411 116.0
1116.520996 52.0
1116.860107 220.0
1117.112915 164.0
1119.189331 132.0
1119.935303 148.0
1125.957886 172.0
1126.205078 164.0
1126.378662 264.0
1126.532349 204.0
1128.15625 192.0
1129.312988 100.0
1130.630981 152.0
1133.249268 172.0
1135.380981 224.0
1138.810547 116.0
1138.944824 140.0
1139.079224 148.0
1139.213501 156.0
1140.71875 140.0
1142.292358 208.0
1148.219604 168.0
1149.427124 40.0
1149.602539 132.0
1149.750977 136.0
1150.405762 96.0
1152.722412 140.0
1156.48938 192.0
1157.274658 172.0
1160.723511 172.0
1161.659424 156.0
1161.754395 144.0
1162.54834 188.0
1162.86731 120.0
1165.28479 152.0
1166.936279 180.0
1168.112793 136.0
1168.33728 72.0
1168.466553 220.0
1168.623047 160.0
1168.691162 120.0
1171.13501 192.0
1173.452026 64.0
1174.222534 228.0
1174.611328 172.0
1175.955566 232.0
1176.289917 156.0
1176.781494 48.0
1177.86731 132.0
1178.659912 124.0
1182.920654 160.0
1183.064453 204.0
1183.790161 128.0
1184.235352 144.0
1185.338379 144.0
1186.462402 44.0
1187.625 140.0
1188.458252 124.0
1189.261108 104.0
1190.709839 168.0
1191.554688 176.0
1194.12561 220.0
1195.804321 172.0
1198.18689 232.0
1199.627197 164.0
1200.461548 160.0
1200.882202 168.0
1201.392578 168.0
1201.503052 184.0
1203.269775 192.0
1204.644043 136.0
1205.728882 240.0
1206.544556 32.0
1206.897095 40.0
1208.591797 164.0
1209.249146 72.0
1209.844482 148.0
1213.738281 84.0
1216.103882 184.0
1218.35376 176.0
1219.02771 52.0
1220.661255 196.0
1222.497681 72.0
1223.869019 168.0
1225.77063 152.0
1225.972656 152.0
1228.873413 128.0
1231.295654 200.0
1231.477295 132.0
1231.826538 200.0
1232.685181 180.0
1232.804688 112.0
1232.958496 116.0
1233.244995 196.0
1234.559326 128.0
1235.076904 168.0
1235.328735 152.0
1235.51062 156.0
1237.837402 192.0
1238.947998 136.0
1239.242188 232.0
1239.592651 224.0
1241.450317 156.0
1242.319946 172.0
1242.790039 224.0
1244.320068 164.0
1245.605225 124.0
1246.497559 232.0
1248.768188 184.0
1248.817505 276.0
1249.626465 100.0
1249.682739 252.0
1251.026978 88.0
1251.604248 52.0
1251.914062 204.0
1252.395386 156.0
1252.548828 188.0
1252.695923 200.0
1253.012939 176.0
1253.84436 212.0
1257.406006 160.0
1257.878906 140.0
1260.965576 148.0
1262.478394 284.0
1262.775513 200.0
1263.07959 180.0
1265.407837 228.0
1266.484253 136.0
1266.753418 180.0
1267.008423 144.0
1267.100586 204.0
1267.24939 136.0
1269.460938 192.0
1269.893555 184.0
1270.943359 172.0
1271.255615 184.0
1271.425903 164.0
1271.546631 80.0
1271.773682 152.0
1271.958252 128.0
1272.405518 172.0
1272.485718 204.0
1272.881226 148.0
1273.723022 160.0
1273.875488 48.0
1274.536255 212.0
1274.706787 128.0
1274.891602 192.0
1275.865356 180.0
1276.064453 188.0
1277.387207 148.0
1278.226685 112.0
1278.511353 120.0
1278.88147 176.0
1279.123413 140.0
1280.155762 180.0
1280.284058 92.0
1280.640137 152.0
1282.670776 176.0
1282.898926 216.0
1283.255371 52.0
1284.795898 60.0
1285.116943 216.0
1286.46582 148.0
1287.272583 112.0
1287.472534 160.0
1288.001099 76.0
1288.636841 232.0
1289.480103 136.0
1289.889282 196.0
1290.516602 132.0
1292.218872 112.0
1292.412109 184.0
1292.68396 136.0
1293.299438 136.0
1294.738525 152.0
1295.175415 72.0
1295.562256 164.0
1296.429199 184.0
1298.207031 196.0
1298.896973 144.0
1299.684692 176.0
1299.828247 140.0
1300.09375 100.0
1301.156128 116.0
1302.283447 180.0
1302.384033 64.0
1303.124023 152.0
1303.246094 104.0
1304.230713 88.0
1305.474487 152.0
1306.622681 172.0
1307.064209 200.0
1307.308838 132.0
1307.510376 44.0
1308.510864 128.0
1311.334717 52.0
1311.435547 48.0
1311.651855 192.0
1311.731079 164.0
1312.89917 172.0
1314.998535 128.0
1315.092407 104.0
1315.460571 140.0
1315.886475 184.0
1316.233032 112.0
1316.384644 32.0
1316.449707 160.0
1317.287476 192.0
1317.475342 144.0
1319.817017 156.0
1320.663086 168.0
1322.667358 136.0
1323.825806 184.0
1324.043091 136.0
1324.311035 164.0
1324.36731 200.0
1325.187622 88.0
1326.470337 192.0
1327.884277 188.0
1328.246826 132.0
1328.297607 144.0
1328.413696 76.0
1331.027222 148.0
1331.934326 212.0
1332.101318 120.0
1332.849731 180.0
1333.750854 164.0
1334.543213 76.0
1334.81958 152.0
1335.241333 120.0
1335.546875 124.0
1336.092407 228.0
1337.007812 188.0
1337.766235 100.0
1340.774414 208.0
1341.226318 108.0
1341.277344 204.0
1341.663696 104.0
1342.079224 128.0
1345.33313 88.0
1346.720581 144.0
1347.502441 112.0
1352.057739 160.0
1352.394409 88.0
1354.378662 172.0
1354.700928 196.0
1357.867432 148.0
1358.608276 96.0
1358.901733 104.0
1359.19519 196.0
1359.334595 232.0
1359.689697 136.0
1359.89978 172.0
1361.470825 264.0
1362.403687 112.0
1362.587402 160.0
1362.726929 232.0
1362.96936 128.0
1363.704346 192.0
1363.927124 188.0
1363.998291 164.0
1364.307007 172.0
1364.557007 200.0
1365.108521 128.0
1365.182007 68.0
1365.277588 164.0
1365.373169 80.0
1365.454102 140.0
1365.895386 72.0
1366.049927 296.0
1366.123535 212.0
1367.057861 136.0
1367.352295 180.0
1367.565674 120.0
1368.132446 120.0
1368.728882 76.0
1369.708374 220.0
1369.776733 72.0
1370.223999 188.0
1370.717651 152.0
1371.550537 144.0
1372.162354 36.0
1372.34668 192.0
1373.505859 212.0
1374.131592 132.0
1374.537354 168.0
1374.736572 192.0
1376.094727 140.0
1376.331055 176.0
1376.390137 52.0
1377.246826 184.0
1377.46106 140.0
1377.911621 192.0
1378.6875 180.0
1378.805786 172.0
1379.374878 144.0
1380.631836 204.0
1381.445435 168.0
1382.229614 160.0
1382.43689 176.0
1382.969727 80.0
1383.147339 140.0
1383.62854 124.0
1383.909912 164.0
1384.102417 192.0
1384.502319 176.0
1384.946655 136.0
1385.12439 112.0
1385.457764 80.0
1386.591431 192.0
1386.650757 148.0
1387.488403 132.0
1387.658936 156.0
1388.140869 124.0
1388.229858 64.0
1388.407837 220.0
1389.038208 144.0
1390.863647 144.0
1392.125732 212.0
1392.237183 64.0
1392.326294 180.0
1392.898193 180.0
1393.650024 184.0
1394.465942 172.0
1395.387695 124.0
1395.945435 144.0
1396.071777 188.0
1396.577515 136.0
1396.800659 196.0
1397.083374 172.0
1397.589233 60.0
1397.708374 240.0
1398.139893 148.0
1398.586548 132.0
1398.63855 216.0
1398.788208 204.0
1399.889404 52.0
1400.380859 120.0
1400.641602 88.0
1400.96936 124.0
1401.751709 208.0
1401.818726 148.0
1401.923096 124.0
1402.899414 184.0
1402.959106 240.0
1403.138062 44.0
1403.287109 152.0
1403.421387 112.0
1403.89856 60.0
1404.532593 404.0
1404.801025 132.0
1405.815796 144.0
1406.539795 152.0
1407.14856 264.0
1407.241455 144.0
1408.107666 164.0
1409.885742 88.0
1409.990356 116.0
1410.28186 100.0
1411.104248 140.0
1413.422852 172.0
1414.365845 144.0
1415.062012 200.0
1415.256714 140.0
1415.653564 140.0
1416.005493 176.0
1417.82959 164.0
1418.118408 148.0
1419.167847 184.0
1420.091553 200.0
1420.622803 56.0
1421.057983 128.0
1421.358032 96.0
1421.613159 204.0
1422.095703 124.0
1422.889282 204.0
1423.437378 156.0
1423.700195 216.0
1425.232544 108.0
1426.871094 148.0
1427.126709 128.0
1427.344727 112.0
1427.878662 148.0
1428.141968 128.0
1428.811401 232.0
1430.060547 148.0
1431.453247 168.0
1431.9729 172.0
1432.17627 108.0
1432.281738 228.0
1432.454956 200.0
1432.876831 136.0
1433.283691 252.0
1433.487183 168.0
1433.879028 64.0
1434.052368 140.0
1435.575317 244.0
1435.801514 108.0
1436.103271 120.0
1436.427612 68.0
1438.736694 156.0
1438.849976 56.0
1440.92688 96.0
1442.219116 204.0
1442.453369 64.0
1442.638428 212.0
1442.718018 68.0
1444.336182 128.0
1444.510254 156.0
1445.210571 244.0
1445.395386 152.0
1445.826782 84.0
1446.462524 124.0
1446.969727 192.0
1447.174072 128.0
1447.764771 192.0
1448.113159 88.0
1448.355469 128.0
1448.666138 48.0
1449.173706 108.0
1449.431274 120.0
1449.620728 144.0
1450.96228 196.0
1451.386963 196.0
1451.561279 148.0
1452.974243 56.0
1453.055542 192.0
1453.791504 108.0
1454.542969 208.0
1455.081909 240.0
1455.226196 136.0
1455.545044 180.0
1456.691895 140.0
1457.193359 44.0
1458.477539 148.0
1459.25293 204.0
1459.838501 152.0
1460.06665 76.0
1460.188354 256.0
1460.484985 160.0
1460.583862 184.0
1460.956543 132.0
1462.447998 124.0
1462.584961 216.0
1463.300537 128.0
1463.544189 256.0
1463.818359 204.0
1464.122925 172.0
1464.2677 76.0
1465.852173 156.0
1466.934448 208.0
1467.490967 220.0
1467.796021 76.0
1467.994263 196.0
1468.238281 60.0
1468.802734 192.0
1469.412964 92.0
1469.763916 176.0
1471.107178 108.0
1471.35144 140.0
1472.565674 96.0
1472.76416 92.0
1472.840576 116.0
1473.199585 180.0
1473.596924 148.0
1473.780273 148.0
1473.879517 200.0
1474.124146 192.0
1474.62854 168.0
1475.209351 152.0
1475.285889 136.0
1475.915771 148.0
1476.073364 176.0
1476.18811 136.0
1476.715698 184.0
1476.96814 140.0
1477.067627 160.0
1477.618408 180.0
1478.490723 140.0
1479.064697 184.0
1480.366211 116.0
1480.45813 144.0
1480.542358 116.0
1480.649658 164.0
1480.841064 232.0
1481.063232 92.0
1481.254639 148.0
1482.166382 180.0
1482.4729 192.0
1482.61084 172.0
1482.787109 160.0
1483.078369 188.0
1483.61499 128.0
1484.028931 144.0
1484.166992 172.0
1484.258911 188.0
1484.366333 244.0
1484.696045 196.0
1485.217651 148.0
1485.463013 116.0
1486.690674 124.0
1487.258545 160.0
1487.335327 164.0
1487.511963 120.0
1488.993774 132.0
1489.516113 160.0
1490.107666 216.0
1490.437988 172.0
1490.883667 188.0
1491.498535 168.0
1491.613892 152.0
1492.167358 156.0
1492.459473 124.0
1492.928589 60.0
1493.697754 132.0
1493.890015 236.0
1494.174683 156.0
1494.597778 48.0
1494.682495 148.0
1495.536743 156.0
1496.464233 92.0
1497.415283 216.0
1497.507812 152.0
1498.385864 136.0
1499.534058 168.0
1500.405151 276.0
1500.659546 180.0
1500.713501 60.0
1501.037354 120.0
1501.276367 156.0
1501.955078 152.0
1502.579956 208.0
1502.718872 164.0
1503.899536 184.0
1504.254639 180.0
