>compound MLS001048974-01!3-hydroxy-2,3-dihydro-1H-pyrrolo[2,1-b]quinazolin-9-one
>formula C11H10N2O2
>ionization [M+H]+
>parentmass 203.082306
#inchi InChI=1S/C11H10N2O2/c14-9-5-6-13-10(9)12-8-4-2-1-3-7(8)11(13)15/h1-4,9,14H,5-6H2
#inchikey SDIVYZXRQHWCKF
#Ion_Source LC-ESI
#Instrument qTof
#Compound_Source NIH Natural Product Library
#PI Dorrestein
#Data_Collector VVP/LMS
#Scan -1
#Precursor_MZ 203.082
#ExactMass 202.074
#Charge 1
#CAS_Number N/A
#Pubmed_ID N/A
#Smiles OC1CCn2c1nc3ccccc3c2=O
#INCHI_AUX N/A
#Library_Class 1
#SpectrumID CCMSLIB00000079505
#IonMode Positive
#UpdateWorkflowName UPDATE-SINGLE-ANNOTATED-GOLD
#LibraryQualityString Gold
#TaskID b1d8e8f6646f4e71acdff9ca3d919d08
##Scan# 1351
#SpectrumFile p1-C07_GC7_01_17903.mzXML
#LibraryName NIH_Natural_Products_Library.mgf
#MQScore -1
#Organism NIH_Natural_Products_Library
#TIC_Query 0
#RT_Query -1
#MZErrorPPM -1
#SharedPeaks 0
#MassDiff 0
#LibMZ -1
#SpecMZ 203.082
#SpecCharge 0
#internalFilename spec-00000.mgf

>collision 10
95.007744 180.0
95.110588 76.0
95.129997 176.0
95.260674 68.0
95.330048 56.0
96.08551 232.0
96.351318 132.0
96.487823 132.0
96.934074 172.0
97.088936 168.0
97.353867 132.0
97.768654 164.0
97.808022 172.0
98.148834 132.0
98.687859 192.0
98.761032 56.0
99.097557 236.0
99.523987 192.0
99.716675 52.0
99.979187 84.0
100.050842 188.0
100.114555 168.0
101.274902 204.0
101.998863 172.0
102.034615 552.0
102.117867 136.0
102.361374 200.0
102.399635 180.0
102.597099 204.0
102.617264 100.0
103.055885 944.0
103.200752 44.0
103.241188 140.0
103.318054 164.0
103.800087 44.0
103.990784 164.0
104.015137 172.0
104.051003 1332.0
104.696236 136.0
104.90406 108.0
104.995811 196.0
105.036148 336.0
105.061867 176.0
105.087601 152.0
105.888908 152.0
105.999527 160.0
106.035416 168.0
106.067162 180.0
106.118408 164.0
106.136864 100.0
106.670639 196.0
106.794006 168.0
106.851608 184.0
107.02861 140.0
107.092445 144.0
107.17485 140.0
107.19339 236.0
107.32119 152.0
107.438744 48.0
107.901344 116.0
108.255157 156.0
108.396019 96.0
108.578438 120.0
109.015686 212.0
109.251411 100.0
109.29718 116.0
109.649109 64.0
110.051704 196.0
110.406929 324.0
110.591034 36.0
110.844437 184.0
111.320602 216.0
111.574829 152.0
111.606369 108.0
111.970413 48.0
112.107346 156.0
112.429993 132.0
112.486984 76.0
112.99839 232.0
113.036476 400.0
113.474915 200.0
113.697067 180.0
113.769798 180.0
113.958817 140.0
114.036316 212.0
114.120346 112.0
114.993721 168.0
115.052979 1384.0
115.192299 192.0
115.470154 68.0
116.049225 660.0
116.072578 204.0
116.097633 48.0
116.140533 28.0
116.301453 44.0
117.054985 316.0
117.584198 144.0
117.810913 68.0
118.056488 260.0
118.223938 148.0
118.277985 188.0
118.414391 152.0
118.628899 144.0
118.841431 188.0
118.962967 80.0
119.039703 316.0
119.060112 140.0
119.306198 168.0
119.410568 56.0
119.500359 72.0
119.541092 188.0
119.647743 176.0
119.823273 180.0
120.04248 188.0
120.40873 216.0
120.850281 200.0
120.95314 176.0
121.056038 172.0
121.268539 76.0
121.465874 176.0
122.430725 140.0
122.448341 108.0
123.291084 208.0
123.518814 52.0
123.753387 132.0
123.963814 212.0
125.198936 168.0
125.94384 56.0
125.997452 232.0
126.417801 96.0
126.735764 168.0
126.937492 212.0
127.208961 100.0
128.049835 1228.0
128.950073 148.0
128.986237 180.0
129.024673 164.0
129.045868 480.0
129.300629 128.0
129.454559 168.0
129.504379 152.0
129.610855 40.0
129.941879 176.0
129.966843 40.0
130.029449 1172.0
130.065414 8604.0
130.096664 136.0
130.127991 124.0
130.162048 52.0
130.257431 48.0
130.486954 44.0
130.616562 124.0
130.728043 64.0
130.78949 52.0
130.828186 168.0
130.985321 168.0
131.066101 760.0
131.802048 152.0
131.978699 188.0
132.044662 400.0
133.052246 288.0
133.16806 216.0
133.233994 52.0
133.61792 52.0
133.983963 140.0
134.433563 112.0
134.87468 100.0
135.177643 140.0
135.942337 160.0
136.6138 136.0
137.053818 220.0
137.646271 148.0
137.994415 124.0
138.048187 196.0
138.469437 184.0
138.701385 204.0
138.811569 148.0
138.942917 168.0
139.212845 124.0
139.351425 188.0
139.412506 136.0
139.737 204.0
140.050888 2708.0
140.290421 76.0
140.472 156.0
140.958344 152.0
141.053619 388.0
141.192383 252.0
141.703659 152.0
142.021317 180.0
142.053406 1032.0
142.177887 176.0
142.403427 136.0
142.498444 36.0
142.638657 184.0
143.069809 820.0
143.832016 108.0
144.045975 224.0
144.077515 428.0
144.240463 168.0
144.35762 60.0
144.90094 212.0
145.050415 828.0
145.932953 116.0
146.03772 164.0
146.058273 320.0
146.204773 136.0
146.245682 212.0
146.397354 144.0
146.676834 160.0
146.983109 208.0
147.055054 588.0
147.195526 168.0
147.964386 68.0
148.051392 196.0
148.187195 112.0
148.330185 172.0
148.606644 168.0
149.140884 132.0
149.170059 76.0
149.255142 100.0
149.961105 208.0
150.390366 72.0
151.748032 212.0
152.278061 104.0
152.383682 144.0
152.408249 104.0
152.745056 196.0
152.919754 112.0
153.129013 140.0
153.409912 56.0
153.937897 124.0
154.177521 112.0
154.714249 72.0
154.914841 176.0
154.984207 160.0
155.060257 1420.0
155.716003 176.0
155.795486 108.0
156.042648 416.0
156.06839 2808.0
156.19516 92.0
156.213104 76.0
156.237976 128.0
156.583969 156.0
156.623825 108.0
156.795731 128.0
156.990173 64.0
157.075943 2672.0
157.109009 192.0
157.273056 84.0
157.292068 68.0
157.539276 176.0
157.746689 104.0
157.849182 76.0
157.891693 96.0
157.943054 180.0
157.969238 184.0
158.059052 4152.0
158.109344 64.0
158.20195 40.0
158.259537 96.0
158.284576 196.0
158.397278 60.0
158.537582 108.0
158.805832 224.0
159.064423 392.0
159.099411 84.0
159.207382 96.0
159.453583 76.0
159.782974 200.0
160.001923 80.0
160.064011 292.0
160.134674 72.0
160.581482 80.0
161.088806 168.0
161.857651 172.0
162.547104 28.0
162.575012 180.0
163.047363 80.0
163.085495 92.0
163.12616 168.0
163.189713 128.0
163.316864 68.0
163.456787 48.0
163.484772 160.0
164.455765 208.0
165.048431 136.0
165.253052 84.0
166.057388 160.0
166.231842 184.0
166.506516 152.0
167.025696 112.0
167.06015 2440.0
167.198074 204.0
167.264999 148.0
167.566299 108.0
167.862701 60.0
168.039963 272.0
168.066071 1024.0
168.402069 52.0
168.732819 56.0
169.04744 288.0
169.068359 160.0
169.784332 208.0
170.391464 120.0
170.809982 176.0
171.053146 152.0
171.914658 192.0
173.004562 188.0
173.44725 196.0
174.197723 212.0
175.053436 144.0
175.885574 116.0
176.250015 132.0
177.592194 180.0
178.388763 124.0
178.473846 176.0
178.754272 168.0
180.433456 156.0
181.509766 216.0
182.108215 160.0
182.328522 124.0
182.788361 180.0
182.817963 160.0
183.003677 168.0
183.030609 172.0
183.053711 512.0
183.11409 136.0
183.488632 52.0
183.566833 124.0
183.898651 120.0
184.062683 6476.0
184.219971 204.0
184.441544 124.0
184.528046 32.0
184.59024 204.0
184.676773 64.0
184.69841 52.0
184.828278 128.0
184.992004 160.0
185.008392 180.0
185.071365 39708.0
185.132416 112.0
185.156876 92.0
185.210068 128.0
185.242493 68.0
185.274475 116.0
185.323761 52.0
185.388794 128.0
185.424026 188.0
185.456543 44.0
185.515015 32.0
185.536667 240.0
185.635468 40.0
185.657745 80.0
185.684296 36.0
185.733536 76.0
185.781937 36.0
185.8172 204.0
185.855179 88.0
185.931168 48.0
185.961014 76.0
186.00444 232.0
186.074112 3824.0
186.118469 56.0
186.177216 44.0
186.218948 164.0
186.251541 76.0
186.335754 116.0
186.365631 60.0
186.835968 76.0
187.07663 388.0
187.108124 64.0
187.173462 72.0
187.240601 116.0
187.292038 104.0
187.396805 84.0
187.41861 56.0
187.445847 84.0
187.470383 136.0
187.511261 144.0
187.532104 152.0
187.585907 72.0
187.841171 48.0
188.048538 96.0
188.127686 92.0
188.225983 100.0
188.526459 84.0
189.00499 128.0
189.041199 212.0
191.054443 188.0
191.203033 84.0
192.799789 124.0
192.821899 52.0
195.87114 96.0
196.046661 220.0
197.204834 32.0
199.059708 188.0
201.933899 136.0
202.890976 140.0
202.961853 112.0
203.082306 1396.0
204.087128 308.0
204.575562 64.0
205.093979 236.0
205.533157 140.0
206.38147 88.0
238.28685 124.0
242.843094 60.0
256.509247 80.0
260.946259 64.0
322.979584 136.0
346.03244 112.0
357.040314 56.0
382.630859 56.0
389.309235 108.0
395.111176 120.0
437.904572 72.0
440.081329 36.0
485.479706 36.0
607.261475 56.0
609.603149 80.0
617.03595 76.0
662.983276 52.0
664.77301 224.0
682.157898 132.0
685.957825 136.0
689.81012 64.0
700.377991 212.0
802.240723 188.0
809.948242 48.0
838.954773 272.0
845.09967 180.0
847.554626 48.0
879.539246 156.0
883.581177 132.0
899.758057 156.0
900.408936 80.0
905.420532 276.0
915.732361 132.0
927.611267 20.0
970.447571 132.0
978.362549 164.0
988.848938 172.0
990.20752 124.0
1008.579468 144.0
1013.547302 40.0
1017.13678 192.0
1022.303772 176.0
1032.095215 68.0
1033.803101 20.0
1035.160156 196.0
1047.091919 180.0
1053.277222 116.0
1053.716431 248.0
1061.19812 20.0
1066.469238 132.0
1070.437622 168.0
1077.828003 224.0
1109.167847 164.0
1121.76416 40.0
1130.714233 152.0
1133.071167 116.0
1137.362915 116.0
1138.591553 164.0
1138.860229 180.0
1139.028076 256.0
1149.665771 220.0
1150.826782 88.0
1154.292969 112.0
1155.875732 80.0
1176.796875 188.0
1177.54126 92.0
1178.477051 164.0
1183.155029 196.0
1185.689331 164.0
1191.947754 116.0
1192.31189 124.0
1193.624878 116.0
1198.002075 196.0
1199.152832 148.0
1222.359131 208.0
1222.832397 156.0
1226.593506 124.0
1227.081421 184.0
1229.376221 208.0
1230.039307 112.0
1242.221802 152.0
1244.285034 124.0
1245.127686 196.0
1245.190796 76.0
1249.598145 132.0
1253.858276 180.0
1257.624512 136.0
1263.595581 156.0
1263.88562 128.0
1265.010986 176.0
1265.995117 200.0
1267.440063 140.0
1267.709351 220.0
1279.314819 40.0
1282.142456 252.0
1283.36853 172.0
1283.525391 52.0
1287.571533 244.0
1288.185669 148.0
1289.486084 216.0
1292.883179 80.0
1292.94043 152.0
1299.38208 156.0
1308.905396 132.0
1311.088013 164.0
1314.816406 136.0
1316.794556 124.0
1319.193359 156.0
1322.086426 184.0
1334.497437 160.0
1334.620972 176.0
1344.031494 104.0
1348.098755 120.0
1354.793457 140.0
1359.970215 184.0
1362.657837 108.0
1364.495239 208.0
1364.664307 192.0
1364.71582 52.0
1366.569214 96.0
1372.468872 112.0
1372.771118 212.0
1376.763428 132.0
1377.679321 156.0
1378.565918 156.0
1379.541504 180.0
1380.983398 120.0
1382.470459 196.0
1383.166138 184.0
1384.121094 180.0
1384.239624 112.0
1389.605835 296.0
1392.092407 152.0
1394.372803 148.0
1398.002197 192.0
1402.269409 156.0
1411.391602 160.0
1412.775269 196.0
1414.533813 148.0
1427.768799 124.0
1429.491577 228.0
1430.31189 56.0
1432.037231 124.0
1433.271484 164.0
1435.314209 260.0
1437.516724 212.0
1440.710449 168.0
1441.012695 52.0
1441.201538 196.0
1442.18396 140.0
1447.047974 148.0
1456.443604 176.0
1458.092285 92.0
1473.54541 132.0
1477.008301 180.0
1478.23999 172.0
1489.80957 136.0
1491.569336 60.0
1492.061279 192.0
1495.71521 232.0
1498.364258 164.0
1498.911255 148.0
1499.127075 156.0
1499.281128 212.0
1502.535034 144.0
1504.10144 108.0
