>compound Rifabutin (Mycobutin)
>formula C46H62N4O11
>ionization [M+Na]+
>parentmass 869.430054
#inchi InChI=1S/C46H62N4O11/c1-22(2)21-50-18-16-46(17-19-50)48-34-31-32-39(54)28(8)42-33(31)43(56)45(10,61-42)59-20-15-30(58-11)25(5)41(60-29(9)51)27(7)38(53)26(6)37(52)23(3)13-12-14-24(4)44(57)47-36(40(32)55)35(34)49-46/h12-15,20,22-23,25-27,30,37-38,41,49,52-54H,16-19,21H2,1-11H3,(H,47,57)/b13-12+,20-15+,24-14-/t23-,25-,26+,27-,30+,37+,38-,41-,45-/m1/s1
#inchikey ATEBXHFBFRCZMA
#Ion_Source LC-ESI
#Instrument qTof
#Compound_Source Commercial
#PI Dorrestein
#Data_Collector Garg_Neha
#Scan -1
#Precursor_MZ 869.431
#ExactMass 846.442
#Charge 1
#CAS_Number 72559-06-9
#Pubmed_ID N/A
#Smiles [C@@H]1([C@H]([C@@H]([C@@H]([C@H](/C=C/O[C@@]2(OC3C(=C(C4C(C(NC(/C(=C\C=C\[C@H]([C@@H]([C@@H]1C)O)C)C)=O)=C5C(C=4C=3C2=O)=NC6(N5)CCN(CC6)CC(C)C)=O)O)C)C)OC)C)OC(=O)C)C)O
#INCHI_AUX N/A
#Library_Class 1
#SpectrumID CCMSLIB00000078270
#IonMode Positive
#UpdateWorkflowName UPDATE-SINGLE-ANNOTATED-GOLD
#LibraryQualityString Gold
#TaskID 77f51c88eb8b467eb4a01dd2d0cb90d2
##Scan# 1333
#SpectrumFile Plate4_41_60_GH4_01_16505.mzXML
#LibraryName FDALibrary_2_04302014.mgf
#MQScore -1
#Organism FDALibrary_2_04302014
#TIC_Query 0
#RT_Query -1
#MZErrorPPM -1
#SharedPeaks 0
#MassDiff 0
#LibMZ -1
#SpecMZ 869.431
#SpecCharge 0
#internalFilename spec-00000.mgf

>collision 10
94.648506 148.0
107.087845 216.0
107.960838 140.0
112.109138 208.0
151.079803 148.0
152.143387 196.0
154.442474 176.0
158.971924 140.0
159.061081 140.0
160.067917 164.0
163.111511 160.0
180.159164 148.0
181.272202 140.0
188.076965 140.0
221.151794 160.0
221.415298 140.0
223.130386 148.0
267.152069 188.0
301.170471 184.0
323.157318 156.0
333.073212 184.0
343.18866 152.0
343.269775 212.0
344.096283 184.0
344.125793 180.0
345.086426 148.0
345.212158 140.0
352.434631 144.0
355.07373 152.0
356.109589 164.0
358.100494 164.0
359.08548 128.0
360.090607 180.0
362.523163 180.0
370.076721 152.0
371.092041 168.0
372.204773 148.0
377.882263 144.0
387.097748 304.0
389.087402 164.0
393.141602 168.0
402.23056 152.0
403.15036 148.0
405.125732 140.0
405.173798 192.0
415.097198 160.0
416.135925 156.0
417.108246 116.0
420.228088 164.0
426.265839 184.0
428.144653 188.0
432.058807 152.0
434.142212 152.0
438.108948 156.0
439.095337 152.0
441.275055 156.0
441.919159 144.0
443.137543 180.0
443.171051 140.0
445.129883 180.0
445.189667 276.0
446.20166 196.0
454.128693 360.0
454.182587 148.0
457.156586 180.0
464.162598 132.0
464.230835 148.0
465.123199 236.0
465.157562 168.0
466.13797 116.0
467.145447 308.0
474.167938 164.0
480.147186 192.0
484.135803 144.0
485.15155 176.0
485.516266 168.0
487.337952 144.0
496.169403 228.0
497.145172 172.0
506.17218 144.0
509.159546 144.0
509.208191 152.0
510.178558 184.0
515.158386 144.0
524.164368 172.0
526.194092 160.0
527.1651 136.0
527.221069 168.0
529.097168 168.0
530.189819 276.0
530.256042 148.0
531.315308 144.0
537.202393 120.0
538.147766 228.0
539.232544 200.0
540.180786 128.0
541.201782 152.0
542.184204 148.0
543.268433 156.0
549.236572 152.0
554.177979 296.0
555.188354 220.0
560.191345 140.0
560.224304 228.0
565.238403 160.0
566.175659 156.0
567.26062 396.0
568.20166 156.0
568.258179 152.0
569.265503 128.0
570.223206 160.0
574.281738 152.0
580.218018 148.0
580.251587 144.0
582.266968 176.0
584.232849 156.0
585.257812 108.0
586.267761 140.0
588.2229 140.0
595.252747 168.0
595.286743 156.0
596.203186 324.0
596.256409 272.0
596.31665 140.0
597.27063 436.0
598.270935 224.0
599.231506 164.0
599.282776 160.0
600.255066 148.0
601.292053 148.0
604.221985 152.0
611.270691 172.0
612.247131 216.0
612.305603 152.0
613.237183 176.0
613.300842 144.0
615.218384 120.0
617.289856 156.0
622.24884 688.0
623.264038 272.0
624.267334 108.0
625.288574 120.0
626.143127 168.0
626.291077 136.0
627.312195 96.0
629.888916 140.0
630.228271 108.0
639.279053 356.0
640.285706 100.0
642.324341 96.0
644.23584 144.0
648.261414 152.0
652.277405 144.0
653.302856 180.0
653.353027 152.0
654.306641 348.0
655.320312 116.0
656.282593 104.0
657.264282 144.0
658.263245 132.0
658.317261 136.0
659.229675 164.0
660.231628 140.0
660.277649 156.0
661.638733 156.0
662.294189 156.0
663.965027 144.0
664.289856 296.0
665.264709 132.0
665.324524 180.0
666.023132 188.0
666.292297 304.0
668.300903 164.0
668.897461 188.0
670.31665 156.0
671.293213 168.0
674.290894 352.0
676.255981 112.0
677.265076 256.0
678.273987 376.0
679.268372 140.0
679.306458 200.0
680.28064 116.0
681.218506 124.0
681.295654 220.0
682.269897 256.0
683.301575 136.0
685.293701 148.0
686.403931 148.0
687.335876 188.0
687.567261 140.0
689.368896 184.0
690.290894 96.0
690.707336 200.0
692.289368 492.0
693.260742 148.0
694.304382 148.0
696.308594 284.0
696.360535 148.0
697.320862 636.0
698.323059 552.0
698.544128 152.0
699.08606 172.0
699.333435 148.0
700.323303 152.0
705.363403 260.0
706.313904 268.0
706.37561 296.0
708.293274 804.0
708.394409 144.0
709.298584 728.0
710.30188 388.0
711.309509 220.0
723.371338 780.0
723.493042 132.0
724.317688 292.0
724.37323 804.0
725.320251 368.0
725.366455 660.0
726.390564 260.0
727.397644 124.0
731.388123 176.0
733.362305 192.0
733.413025 128.0
734.346313 140.0
734.394714 172.0
736.320679 164.0
737.250671 148.0
738.283386 272.0
738.408813 160.0
739.381104 136.0
740.314148 164.0
741.299377 96.0
741.363525 168.0
746.944885 164.0
748.37616 140.0
749.351074 172.0
749.390625 140.0
750.369202 108.0
750.430237 176.0
751.379944 140.0
751.436584 104.0
752.094055 200.0
752.342224 208.0
752.394287 144.0
753.365723 176.0
755.397034 152.0
756.301514 380.0
756.406738 152.0
757.307373 176.0
759.363647 104.0
760.384521 148.0
761.423645 148.0
766.328552 244.0
768.31665 368.0
769.23114 156.0
769.327087 428.0
770.318237 188.0
773.728027 152.0
777.382751 604.0
778.373047 180.0
778.460632 180.0
779.417236 440.0
780.401733 144.0
781.424683 348.0
782.374878 212.0
783.043091 164.0
783.395386 636.0
784.326233 120.0
784.408203 784.0
785.391052 180.0
787.410706 196.0
791.379395 364.0
791.429321 228.0
792.370544 124.0
792.410583 512.0
792.864685 148.0
794.382446 144.0
794.934021 144.0
797.345825 180.0
808.713379 160.0
809.27948 184.0
809.407593 3732.0
809.583984 124.0
809.811768 156.0
810.4151 1468.0
811.408752 628.0
812.428162 208.0
819.392456 180.0
837.384949 252.0
837.452698 240.0
838.415894 396.0
839.396912 552.0
841.42688 104.0
849.798523 164.0
851.413269 112.0
852.427612 148.0
852.992615 172.0
853.888 164.0
854.642395 124.0
855.12146 216.0
862.014587 160.0
863.07843 140.0
866.391113 156.0
866.897949 124.0
867.398987 192.0
869.214478 216.0
869.294373 124.0
869.430054 13244.0
869.586365 268.0
869.778625 148.0
869.90802 116.0
869.999634 216.0
870.136902 140.0
870.436951 8920.0
870.566223 112.0
870.756653 160.0
870.995972 156.0
871.226624 100.0
871.338318 180.0
871.434692 2648.0
871.711304 152.0
872.446411 240.0
872.559082 156.0
873.348083 160.0
873.447571 196.0
873.878662 132.0
874.10376 116.0
874.781067 104.0
878.379456 124.0
1221.954468 236.0
1313.171509 220.0
1969.234497 152.0
