>compound MLS001401416-01!ROSIGLITAZONE HCl
>formula C18H19N3O3S
>ionization [M+H]+
>parentmass 358.122559
#inchi InChI=1S/C18H19N3O3S/c1-21(16-4-2-3-9-19-16)10-11-24-14-7-5-13(6-8-14)12-15-17(22)20-18(23)25-15/h2-9,15H,10-12H2,1H3,(H,20,22,23)
#inchikey YASAKCUCGLMORW
#origInchi InChI=1S/C18H19N3O3S.ClH/c1-21(16-4-2-3-9-19-16)10-11-24-14-7-5-13(6-8-14)12-15-17(22)20-18(23)25-15;/h2-9,15H,10-12H2,1H3,(H,20,22,23);1H
#Ion_Source LC-ESI
#Instrument qTof
#Compound_Source NIH Pharmacologically Active Library
#PI Dorrestein
#Data_Collector VP/LMS
#Scan -1
#Precursor_MZ 358.127
#ExactMass 357.115
#Charge 1
#CAS_Number N/A
#Pubmed_ID N/A
#Smiles CN(CCOc1ccc(CC2SC(=O)NC2=O)cc1)c3ccccn3.Cl
#INCHI_AUX N/A
#Library_Class 1
#SpectrumID CCMSLIB00000084871
#IonMode Positive
#UpdateWorkflowName UPDATE-SINGLE-ANNOTATED-GOLD
#LibraryQualityString Gold
#TaskID d252d724072548979f1f6f1ced849daf
##Scan# 1452
#SpectrumFile p3-B10_GB10_01_18243.mzXML
#LibraryName Pharm_Active_Library.mgf
#MQScore -1
#Organism Pharm_Active_Library
#TIC_Query 0
#RT_Query -1
#MZErrorPPM -1
#SharedPeaks 0
#MassDiff 0
#LibMZ -1
#SpecMZ 358.127
#SpecCharge 0
#internalFilename spec-00000.mgf

>collision 10
44.899094 192.0
44.971142 92.0
45.007187 112.0
45.020538 184.0
45.043247 32.0
45.083328 76.0
45.114071 100.0
45.154392 156.0
45.192982 132.0
45.223763 196.0
45.25589 132.0
45.281334 144.0
45.340282 148.0
45.355026 184.0
45.38184 28.0
45.440857 188.0
45.499165 200.0
45.559002 200.0
45.599613 180.0
45.630966 264.0
45.643188 396.0
45.670364 204.0
45.846951 156.0
45.868515 144.0
45.900116 164.0
45.927845 144.0
45.948082 164.0
46.018749 212.0
46.130398 228.0
46.279221 152.0
46.33297 216.0
46.39167 180.0
46.487972 128.0
46.516476 124.0
46.547703 104.0
46.583553 212.0
46.695835 156.0
46.778839 292.0
46.80743 164.0
46.827858 168.0
46.873268 192.0
46.916431 144.0
46.932793 144.0
46.980186 160.0
47.067879 168.0
47.088364 140.0
47.141644 144.0
47.167614 152.0
47.218204 72.0
47.227776 192.0
47.249256 160.0
47.274296 136.0
47.298931 168.0
47.352329 148.0
47.364658 48.0
47.385208 176.0
47.411243 188.0
47.475677 164.0
47.505852 192.0
47.522316 172.0
47.541592 168.0
47.556625 172.0
47.609554 168.0
47.652752 36.0
47.671368 124.0
47.7421 228.0
47.770985 204.0
47.799877 192.0
47.817211 148.0
47.839794 124.0
47.947231 140.0
47.972042 144.0
47.995483 144.0
48.00927 172.0
48.036858 148.0
48.093433 248.0
48.132088 116.0
48.204231 160.0
48.230179 188.0
48.28825 136.0
48.310383 184.0
48.386501 164.0
48.505638 196.0
48.564564 200.0
48.576008 304.0
48.601334 120.0
48.638805 208.0
48.655464 72.0
48.705456 56.0
48.71796 176.0
48.763813 132.0
48.790226 136.0
48.898914 208.0
48.928074 192.0
48.964432 248.0
48.995296 160.0
49.053337 216.0
49.077038 256.0
49.136517 56.0
49.141613 176.0
49.167713 164.0
49.210987 144.0
49.265453 152.0
49.292835 168.0
49.3591 168.0
49.437435 172.0
49.45322 244.0
49.549458 132.0
49.564869 80.0
49.641968 224.0
49.727547 208.0
49.793152 220.0
49.85535 116.0
49.920017 184.0
49.931271 72.0
49.94252 220.0
49.955181 176.0
49.993172 188.0
50.014282 248.0
50.02961 160.0
50.056519 168.0
50.081867 160.0
50.104408 140.0
50.136818 140.0
50.166416 176.0
50.200256 148.0
50.235516 136.0
50.253857 88.0
50.276436 176.0
50.29055 172.0
50.308796 164.0
50.347023 184.0
50.376686 168.0
50.42897 116.0
50.457241 180.0
50.489765 148.0
50.608631 60.0
50.619961 176.0
50.629871 160.0
50.645451 68.0
50.670952 200.0
50.720551 164.0
50.783215 248.0
50.832596 220.0
50.848206 172.0
50.922035 184.0
50.961811 152.0
50.980957 152.0
51.061317 168.0
51.089767 156.0
51.160923 208.0
51.183704 140.0
51.24168 256.0
51.290558 192.0
51.320496 244.0
51.339031 272.0
51.359001 120.0
51.377544 208.0
51.416073 168.0
51.450268 188.0
51.504322 168.0
51.514595 180.0
51.567463 116.0
51.608921 112.0
51.643242 140.0
51.655251 152.0
51.714783 36.0
51.726234 144.0
51.749142 164.0
51.794968 140.0
51.824135 200.0
51.849415 172.0
51.895645 176.0
51.940517 208.0
51.956959 236.0
51.98135 400.0
51.998569 180.0
52.014359 340.0
52.023804 160.0
52.047382 176.0
52.076103 196.0
52.107708 368.0
52.195385 180.0
52.255795 196.0
52.287453 136.0
52.376724 188.0
52.424267 160.0
52.437241 88.0
52.476162 164.0
52.507767 196.0
52.564148 232.0
52.584351 148.0
52.63895 192.0
52.668716 80.0
52.707104 120.0
52.727337 176.0
52.806854 216.0
52.833252 208.0
52.850254 208.0
52.924072 168.0
52.958832 124.0
52.968971 164.0
53.19809 164.0
53.285229 108.0
53.389885 168.0
53.421886 156.0
53.452438 144.0
53.557262 100.0
53.576199 176.0
53.590767 160.0
53.603882 176.0
53.646152 144.0
53.68552 212.0
53.716148 152.0
53.733654 36.0
53.866505 56.0
53.881111 188.0
53.914719 180.0
53.948338 168.0
53.994141 136.0
54.164696 212.0
54.219128 148.0
54.229385 96.0
54.31443 96.0
54.324699 180.0
54.349392 188.0
54.396606 124.0
54.546051 136.0
54.56702 144.0
54.608196 132.0
54.684864 148.0
54.796619 140.0
54.867363 72.0
54.924877 192.0
54.951824 180.0
54.983124 176.0
55.006035 196.0
55.022682 116.0
55.05476 144.0
55.136147 176.0
55.205608 212.0
55.307583 136.0
55.335709 176.0
55.37273 216.0
55.431988 140.0
55.474972 196.0
55.515125 192.0
55.529835 52.0
55.550598 192.0
55.59808 216.0
55.611439 156.0
55.655975 252.0
55.703499 192.0
55.730728 256.0
55.743614 188.0
55.780094 220.0
55.801586 60.0
55.846195 148.0
55.86256 148.0
55.940781 192.0
55.958778 208.0
55.967197 196.0
56.041214 112.0
56.07996 196.0
56.102322 136.0
56.125343 172.0
56.139595 168.0
56.212692 192.0
56.424793 76.0
56.495083 148.0
56.67025 204.0
56.689728 156.0
56.701542 204.0
56.731697 192.0
56.74519 128.0
56.764683 192.0
56.791679 132.0
56.823181 132.0
56.845688 168.0
56.856194 160.0
56.879646 224.0
56.883854 140.0
56.909943 124.0
56.938766 132.0
56.973312 56.0
56.985332 180.0
57.074013 52.0
57.11161 176.0
57.128159 256.0
57.164268 204.0
57.182327 196.0
57.241039 232.0
57.254593 244.0
57.341976 148.0
57.385693 164.0
57.414341 152.0
57.461102 172.0
57.521469 168.0
57.532036 256.0
57.563744 132.0
57.62265 164.0
57.67403 148.0
57.729973 160.0
57.872211 168.0
57.892586 228.0
58.051014 80.0
58.064663 76.0
58.122311 52.0
58.187576 140.0
58.21339 144.0
58.233131 248.0
58.261993 184.0
58.330379 180.0
58.394241 156.0
58.436836 144.0
58.472752 412.0
58.488575 212.0
58.546432 216.0
58.573849 440.0
58.587559 172.0
58.648514 156.0
58.774357 116.0
58.80714 108.0
58.822403 212.0
58.838142 220.0
58.912502 196.0
58.92931 108.0
58.959869 72.0
58.999611 172.0
59.06435 204.0
59.076077 108.0
59.101921 160.0
59.125038 92.0
59.146469 172.0
59.164837 136.0
59.186272 180.0
59.22205 144.0
59.267456 124.0
59.288906 104.0
59.306252 152.0
59.373226 160.0
59.408844 164.0
59.477562 36.0
59.497517 172.0
59.543648 96.0
59.562016 256.0
59.62711 196.0
59.663437 48.0
59.674198 168.0
59.690399 176.0
59.715721 152.0
59.743408 228.0
59.797264 144.0
59.865002 84.0
59.888103 160.0
59.971306 188.0
59.999054 168.0
60.023724 88.0
60.034519 152.0
60.066021 188.0
60.100849 144.0
60.197254 212.0
60.241344 184.0
60.256794 200.0
60.310665 172.0
60.323883 208.0
60.347984 228.0
60.37891 44.0
60.442337 164.0
60.481026 148.0
60.527912 168.0
60.569286 152.0
60.611118 68.0
60.635311 176.0
60.714981 128.0
60.749256 204.0
60.792549 200.0
60.815826 200.0
60.842216 144.0
60.88414 196.0
60.933849 76.0
60.968033 184.0
61.011555 236.0
61.068012 208.0
61.086201 204.0
61.128208 172.0
61.171787 40.0
61.182686 136.0
61.193584 180.0
61.218498 148.0
61.260551 160.0
61.276131 172.0
61.422672 148.0
61.444511 136.0
61.461674 108.0
61.472595 128.0
61.505371 200.0
61.528408 148.0
61.550648 168.0
61.639683 168.0
61.660892 140.0
61.680321 200.0
61.721375 216.0
61.742859 144.0
61.817951 148.0
61.846123 168.0
61.877064 204.0
61.897785 208.0
61.91188 148.0
61.938507 88.0
61.966705 208.0
62.024689 136.0
62.147015 140.0
62.195663 232.0
62.213879 188.0
62.23962 188.0
62.328743 152.0
62.388206 160.0
62.409321 128.0
62.495831 144.0
62.509991 196.0
62.549339 180.0
62.571377 136.0
62.585251 148.0
62.589432 120.0
62.595642 204.0
62.77306 144.0
62.787254 156.0
62.803127 192.0
62.848778 164.0
62.891384 280.0
62.943676 196.0
62.967171 108.0
63.007538 204.0
63.025623 152.0
63.158421 172.0
63.18317 204.0
63.285023 140.0
63.324612 132.0
63.380058 192.0
63.395905 132.0
63.413986 216.0
63.457726 168.0
63.532265 48.0
63.552307 144.0
63.565502 152.0
63.584629 44.0
63.660831 120.0
63.754559 240.0
63.791119 192.0
63.814186 172.0
63.830864 152.0
63.859489 164.0
63.894485 224.0
63.93745 172.0
63.953365 132.0
63.993164 176.0
64.012268 140.0
64.095222 156.0
64.18277 200.0
64.20031 192.0
64.248161 68.0
64.318382 184.0
64.346123 180.0
64.372284 152.0
64.410248 160.0
64.436127 256.0
64.450935 204.0
64.577225 140.0
64.60762 148.0
64.662025 216.0
64.766098 128.0
64.894875 200.0
64.939201 72.0
64.963264 52.0
65.043495 168.0
65.080421 164.0
65.10611 124.0
65.117355 192.0
65.154305 68.0
65.265198 168.0
65.355278 168.0
65.366539 336.0
65.397118 156.0
65.408386 192.0
65.437363 120.0
65.452377 224.0
65.503387 104.0
65.666183 176.0
65.751694 188.0
65.763168 180.0
65.77726 124.0
65.801735 104.0
65.851791 212.0
65.919647 84.0
65.981316 156.0
65.995621 148.0
66.032814 144.0
66.053841 184.0
66.153015 140.0
66.184929 120.0
66.221245 188.0
66.258934 232.0
66.28434 184.0
66.338844 44.0
66.350197 144.0
66.387489 136.0
66.41333 188.0
66.425453 352.0
66.484825 136.0
66.501053 68.0
66.525398 200.0
66.536766 136.0
66.551376 148.0
66.567619 116.0
66.602432 248.0
66.67646 132.0
66.687836 112.0
66.723602 208.0
66.800034 156.0
66.891159 156.0
66.954536 156.0
66.992126 212.0
67.003525 172.0
67.018188 40.0
67.045891 120.0
67.072952 140.0
67.098053 212.0
67.119247 164.0
67.132294 72.0
67.153183 216.0
67.177963 280.0
67.194283 128.0
67.225281 100.0
67.261185 52.0
67.295471 136.0
67.333031 168.0
67.390205 196.0
67.440788 172.0
67.462112 216.0
67.480309 216.0
67.660065 140.0
67.681351 124.0
67.710823 160.0
67.79274 112.0
67.83535 168.0
67.874229 180.0
67.893692 200.0
67.918983 200.0
67.940308 128.0
67.986252 188.0
68.069969 164.0
68.1521 216.0
68.247429 180.0
68.291832 156.0
68.309929 152.0
68.426773 192.0
68.523941 200.0
68.57338 108.0
68.609642 160.0
68.647301 180.0
68.687149 184.0
68.732109 192.0
68.758102 228.0
68.786156 164.0
68.804321 112.0
68.819176 132.0
69.076988 156.0
69.105118 184.0
69.164696 108.0
69.176277 128.0
69.209389 160.0
69.230507 384.0
69.33149 204.0
69.338371 144.0
69.342278 184.0
69.366783 140.0
69.378387 112.0
69.408226 364.0
69.426468 176.0
69.482864 152.0
69.504433 168.0
69.576614 384.0
69.690529 212.0
69.781815 164.0
69.810081 168.0
69.836693 140.0
69.908913 108.0
69.956451 132.0
70.002342 232.0
70.049759 188.0
70.068611 76.0
70.081413 160.0
70.194756 100.0
70.209763 204.0
70.225876 188.0
70.261475 204.0
70.287514 204.0
70.326553 224.0
70.376633 156.0
70.403351 144.0
70.427498 132.0
70.448448 176.0
70.562851 132.0
70.596924 188.0
70.6036 156.0
70.654793 168.0
70.697578 216.0
70.756165 324.0
70.813103 148.0
70.849953 248.0
70.888489 140.0
70.9086 192.0
70.930389 128.0
70.973976 160.0
70.987396 208.0
71.034721 200.0
71.059517 176.0
71.072945 132.0
71.096436 208.0
71.161903 68.0
71.180367 208.0
71.367447 208.0
71.393791 128.0
71.419014 160.0
71.437523 192.0
71.456024 144.0
71.490593 220.0
71.607529 148.0
71.65638 180.0
71.674911 136.0
71.787849 156.0
71.907631 208.0
71.958771 176.0
71.993736 148.0
72.037651 144.0
72.125519 168.0
72.198219 136.0
72.281113 156.0
72.292953 56.0
72.32328 172.0
72.33696 164.0
72.372948 156.0
72.414848 184.0
72.480919 160.0
72.499557 152.0
72.52668 168.0
72.55719 140.0
72.608925 164.0
72.686096 232.0
72.843346 228.0
72.928947 184.0
72.987076 188.0
73.019058 144.0
73.070091 252.0
73.114334 152.0
73.136459 220.0
73.182915 208.0
73.236916 144.0
73.24884 36.0
73.265877 204.0
73.289734 188.0
73.311882 104.0
73.330627 356.0
73.361313 172.0
73.415871 164.0
73.438042 144.0
73.475571 204.0
73.524353 204.0
73.595047 80.0
73.61554 88.0
73.646278 168.0
73.714615 152.0
73.76931 188.0
73.794952 236.0
73.810341 172.0
73.870201 100.0
73.883888 208.0
73.895859 196.0
74.008827 208.0
74.061913 64.0
74.202438 164.0
74.271027 156.0
74.315636 208.0
74.331078 144.0
74.440941 164.0
74.531982 180.0
74.545822 148.0
74.568069 140.0
74.593849 216.0
74.643707 184.0
74.662628 224.0
74.700462 120.0
74.727554 204.0
74.831261 200.0
74.900856 204.0
74.939766 176.0
74.962166 156.0
74.988014 196.0
75.050079 180.0
75.095276 152.0
75.255402 156.0
75.312393 84.0
75.350395 40.0
75.398445 208.0
75.45755 184.0
75.485214 168.0
75.503418 164.0
75.518074 124.0
75.566505 228.0
75.582085 156.0
75.627037 172.0
75.640533 248.0
75.692863 84.0
75.814125 184.0
75.82972 168.0
75.855721 160.0
75.925079 44.0
75.992279 200.0
76.055199 208.0
76.099335 180.0
76.180229 152.0
76.195442 296.0
76.260155 112.0
76.30014 200.0
76.319267 112.0
76.374916 176.0
76.409706 220.0
76.444504 172.0
76.461906 212.0
76.522835 80.0
76.796425 144.0
76.812126 136.0
77.021591 160.0
77.056526 204.0
77.219055 176.0
77.237061 208.0
77.320572 144.0
77.446632 268.0
77.691727 200.0
77.795586 120.0
77.853523 208.0
77.916756 224.0
77.980019 208.0
78.038025 104.0
78.055611 140.0
78.150597 164.0
78.17347 164.0
78.285477 172.0
78.395355 372.0
78.430603 140.0
78.628143 204.0
78.700523 180.0
78.73584 112.0
78.967361 144.0
78.995552 192.0
79.000618 180.0
79.007454 156.0
79.038124 144.0
79.055817 208.0
79.091217 180.0
79.127121 156.0
79.147865 220.0
79.165573 164.0
79.190369 208.0
79.206795 212.0
79.247055 116.0
79.405846 272.0
79.427887 52.0
79.470459 104.0
79.504173 48.0
79.604309 148.0
79.639404 192.0
79.68174 172.0
79.711945 216.0
79.735046 236.0
79.783173 220.0
79.847054 60.0
79.888229 108.0
79.973373 212.0
79.987617 120.0
80.010757 112.0
80.199585 208.0
80.226318 204.0
80.261978 200.0
80.30835 180.0
80.347588 120.0
80.373413 148.0
80.461807 196.0
80.49395 44.0
80.512344 240.0
80.556458 180.0
80.576111 228.0
80.588615 176.0
80.622566 148.0
80.733406 168.0
80.747711 128.0
80.796753 184.0
80.890854 60.0
80.929558 104.0
81.069962 136.0
81.111183 168.0
81.165298 196.0
81.179314 84.0
81.211594 144.0
81.233124 80.0
81.270798 240.0
81.346176 64.0
81.380287 52.0
81.529381 160.0
81.608467 140.0
81.621056 140.0
81.643806 172.0
81.6912 152.0
81.777565 108.0
81.844177 252.0
81.860382 172.0
81.898201 172.0
81.912613 120.0
81.927025 264.0
82.020729 160.0
82.083832 92.0
82.148758 128.0
82.195671 216.0
82.257034 148.0
82.341896 128.0
82.473785 180.0
82.490059 84.0
82.5355 176.0
82.588493 228.0
82.638351 116.0
82.651016 168.0
82.840042 336.0
82.980667 172.0
83.091293 208.0
83.131218 132.0
83.252846 112.0
83.303703 192.0
83.372742 168.0
83.418182 224.0
83.471909 304.0
83.496368 52.0
83.567314 140.0
83.735924 160.0
83.778816 252.0
83.811295 180.0
83.82769 180.0
83.966248 188.0
84.067467 76.0
84.212631 268.0
84.283882 128.0
84.318604 84.0
84.378922 184.0
84.431953 180.0
84.463043 152.0
84.505119 156.0
84.530739 224.0
84.566841 132.0
84.596626 128.0
84.635071 132.0
84.744972 144.0
84.843941 36.0
84.875107 136.0
84.922791 52.0
85.023697 208.0
85.040215 120.0
85.056732 160.0
85.076927 136.0
85.197769 192.0
85.247742 208.0
85.33046 240.0
85.343323 192.0
85.380104 172.0
85.437126 160.0
85.472084 216.0
85.600937 116.0
85.678291 144.0
85.694878 124.0
85.768585 44.0
85.875534 120.0
85.98069 44.0
86.041603 156.0
86.095154 192.0
86.117317 208.0
86.141327 180.0
86.157951 64.0
86.226181 208.0
86.335396 144.0
86.350197 140.0
86.548203 216.0
86.570427 128.0
86.606369 156.0
86.6371 124.0
86.67601 176.0
86.68898 160.0
86.733459 152.0
86.764977 124.0
86.789078 196.0
86.826164 148.0
86.844711 244.0
86.965317 164.0
87.041428 128.0
87.102722 176.0
87.147308 188.0
87.290428 168.0
87.370461 140.0
87.509995 104.0
87.54351 172.0
87.579025 176.0
87.597519 48.0
87.625404 124.0
87.810013 144.0
87.834259 184.0
87.847313 208.0
87.870407 212.0
87.899551 240.0
87.951813 136.0
88.017151 148.0
88.047028 132.0
88.074966 192.0
88.17968 76.0
88.282501 148.0
88.339508 184.0
88.352707 188.0
88.473351 188.0
88.501434 192.0
88.62693 128.0
88.719063 180.0
88.750641 124.0
88.790016 76.0
88.898827 136.0
89.062164 96.0
89.094101 228.0
89.129799 164.0
89.229408 148.0
89.265137 144.0
89.327202 180.0
89.38929 180.0
89.417519 172.0
89.513527 128.0
89.57756 52.0
89.628433 68.0
89.705704 128.0
89.722672 232.0
89.741524 132.0
89.779236 148.0
89.828278 140.0
89.850914 140.0
89.867889 144.0
89.940002 188.0
90.0019 100.0
90.024567 144.0
90.051003 108.0
90.079338 144.0
90.118126 232.0
90.188286 212.0
90.266441 156.0
90.347771 36.0
90.362267 188.0
90.370354 124.0
90.372955 180.0
90.408325 288.0
90.706436 80.0
90.777725 104.0
90.844109 192.0
90.944679 156.0
91.037506 152.0
91.052391 624.0
91.071892 164.0
91.09716 292.0
91.284744 144.0
91.313271 88.0
91.33419 204.0
91.408394 128.0
91.475006 152.0
91.490234 120.0
91.545448 132.0
91.558777 184.0
91.631165 176.0
91.655762 136.0
91.790527 228.0
91.880913 140.0
91.92289 212.0
91.945793 152.0
91.9916 152.0
92.008781 100.0
92.047577 464.0
92.064201 156.0
92.104553 184.0
92.161575 212.0
92.301109 196.0
92.389091 144.0
92.469452 228.0
92.580498 200.0
92.703094 196.0
92.73568 224.0
92.764427 152.0
92.808525 64.0
92.835373 260.0
92.900581 156.0
92.93512 108.0
92.969658 224.0
92.986931 160.0
93.01902 164.0
93.038757 272.0
93.058075 1936.0
93.098839 232.0
93.136688 68.0
93.167427 188.0
93.203926 140.0
93.219299 88.0
93.24044 128.0
93.334633 156.0
93.362183 136.0
93.460388 212.0
93.48275 76.0
93.570023 176.0
93.665657 156.0
93.771629 112.0
93.794754 144.0
93.892502 184.0
93.962532 92.0
94.030067 172.0
94.064842 7468.0
94.121635 92.0
94.137627 504.0
94.172943 172.0
94.188393 40.0
94.247749 168.0
94.285645 132.0
94.300461 152.0
94.319786 148.0
94.346169 148.0
94.359329 176.0
94.387451 176.0
94.583321 176.0
94.619629 172.0
94.637054 88.0
94.699028 140.0
94.722267 140.0
94.737762 188.0
94.766823 68.0
94.811394 148.0
94.824959 52.0
94.840469 124.0
94.857445 200.0
94.900566 192.0
94.918015 160.0
94.941055 136.0
94.976196 176.0
95.023643 148.0
95.062027 2148.0
95.086784 160.0
95.170258 160.0
95.189674 164.0
95.205215 176.0
95.228691 204.0
95.261536 96.0
95.292625 112.0
95.313995 36.0
95.372299 184.0
95.385902 164.0
95.399513 40.0
95.541473 144.0
95.572601 92.0
95.621254 176.0
95.673454 196.0
95.714958 176.0
95.756226 196.0
95.792229 188.0
95.816254 196.0
95.966789 136.0
95.987495 188.0
96.062027 168.0
96.085022 188.0
96.102577 144.0
96.133797 232.0
96.20797 60.0
96.243111 112.0
96.262642 164.0
96.364204 72.0
96.391563 160.0
96.420082 184.0
96.457497 196.0
96.476486 200.0
96.587296 240.0
96.714256 116.0
96.781357 272.0
96.833687 168.0
96.851311 64.0
96.92968 208.0
96.96299 148.0
97.036652 212.0
97.108078 124.0
97.20813 104.0
97.233643 148.0
97.268967 148.0
97.361252 120.0
97.443748 328.0
97.518425 156.0
97.573463 148.0
97.599022 140.0
97.616722 80.0
97.638351 136.0
97.699326 200.0
97.734741 192.0
97.77607 140.0
97.817398 160.0
97.831177 124.0
97.907967 160.0
97.921753 188.0
97.947357 192.0
97.982819 204.0
98.087265 224.0
98.197678 144.0
98.240395 220.0
98.2687 164.0
98.29435 132.0
98.341713 172.0
98.35553 148.0
98.383163 164.0
98.487823 136.0
98.5653 220.0
98.626129 128.0
98.656517 204.0
98.743126 184.0
98.764542 148.0
98.798172 116.0
98.825867 152.0
98.853569 72.0
98.877319 148.0
98.899086 128.0
99.019867 136.0
99.063438 116.0
99.20414 164.0
99.335014 148.0
99.40049 204.0
99.414383 52.0
99.565254 228.0
99.602997 160.0
99.638748 120.0
99.690414 132.0
99.804535 224.0
99.85144 128.0
99.887245 164.0
99.929024 208.0
100.072319 168.0
100.128082 212.0
100.142021 96.0
100.199791 224.0
100.241631 60.0
100.305634 140.0
100.371201 260.0
100.407433 164.0
100.441002 196.0
100.514816 176.0
100.668526 116.0
100.868317 236.0
100.8983 192.0
101.080811 192.0
101.097839 248.0
101.145531 116.0
101.177757 204.0
101.264267 144.0
101.314568 192.0
101.416763 92.0
101.492943 136.0
101.63488 152.0
101.661438 152.0
101.675491 48.0
101.719643 100.0
101.737709 148.0
101.769836 100.0
101.795937 144.0
101.814011 136.0
101.830078 244.0
101.956078 140.0
101.984787 172.0
102.045586 164.0
102.084869 128.0
102.103409 272.0
102.143631 160.0
102.175819 152.0
102.193932 72.0
102.210022 192.0
102.276436 100.0
102.311745 252.0
102.39724 136.0
102.554398 204.0
102.590683 132.0
102.689484 64.0
102.71167 136.0
102.758072 168.0
102.822639 108.0
102.850899 56.0
102.909439 152.0
102.957199 172.0
103.00322 192.0
103.024559 44.0
103.055847 436.0
103.108475 324.0
103.13974 152.0
103.16198 56.0
103.210495 108.0
103.307579 212.0
103.342209 172.0
103.408752 112.0
103.469475 152.0
103.552498 84.0
103.59301 188.0
103.637581 172.0
103.661896 60.0
103.692291 192.0
103.723999 224.0
103.785545 160.0
103.815567 184.0
103.86869 180.0
103.905205 148.0
103.939697 208.0
103.968109 164.0
104.048889 312.0
104.140678 116.0
104.17318 248.0
104.215843 172.0
104.242256 108.0
104.379089 192.0
104.486252 180.0
104.526138 172.0
104.590034 176.0
104.720345 160.0
104.819672 180.0
104.983246 164.0
105.023811 180.0
105.047974 136.0
105.070381 1156.0
105.101555 192.0
105.158699 100.0
105.209732 168.0
105.228104 136.0
105.301613 116.0
105.360855 132.0
105.375153 52.0
105.416023 108.0
105.452805 148.0
105.488899 140.0
105.530487 96.0
105.600014 188.0
105.661385 168.0
105.713554 192.0
105.765747 164.0
105.802589 136.0
105.897049 188.0
105.921364 112.0
105.939804 184.0
105.959778 128.0
105.985977 192.0
106.011513 116.0
106.031235 116.0
106.065186 6872.0
106.114929 248.0
106.130402 60.0
106.210381 104.0
106.253464 36.0
106.293365 192.0
106.333946 180.0
106.351959 176.0
106.415855 160.0
106.499794 72.0
106.538826 408.0
106.604568 156.0
106.62307 128.0
106.7752 128.0
106.908928 128.0
106.933655 228.0
106.983604 152.0
107.062149 13044.0
107.140869 140.0
107.156013 36.0
107.188187 64.0
107.207527 80.0
107.233002 188.0
107.263176 180.0
107.289978 68.0
107.316093 132.0
107.362144 88.0
107.417831 92.0
107.510674 56.0
107.543701 224.0
107.594231 52.0
107.609756 164.0
107.64119 144.0
107.661377 228.0
107.676552 172.0
107.735733 148.0
107.758461 100.0
107.890732 36.0
107.961029 100.0
108.014809 196.0
108.068504 9236.0
108.100151 160.0
108.145798 156.0
108.1642 180.0
108.228752 180.0
108.263168 84.0
108.308731 84.0
108.358452 32.0
108.469933 176.0
108.49987 168.0
108.574028 120.0
108.630737 140.0
108.675667 52.0
108.750374 156.0
108.773209 80.0
108.789818 100.0
108.808502 144.0
108.872116 308.0
108.91069 152.0
108.949722 224.0
109.074867 2808.0
109.123688 164.0
109.174644 56.0
109.196938 176.0
109.236595 64.0
109.284584 180.0
109.329506 160.0
109.357285 28.0
109.376015 132.0
109.409325 140.0
109.4468 140.0
109.505104 184.0
109.525932 112.0
109.588432 204.0
109.630104 72.0
109.659286 184.0
109.698883 100.0
109.742668 68.0
109.790627 164.0
109.82608 80.0
109.862381 180.0
109.899002 88.0
109.907578 216.0
109.984657 128.0
110.032669 180.0
110.063988 164.0
110.078606 108.0
110.143349 136.0
110.176239 188.0
110.204399 144.0
110.272896 52.0
110.3172 184.0
110.402512 244.0
110.429703 148.0
110.449966 128.0
110.479904 176.0
110.588715 192.0
110.633179 116.0
110.670357 32.0
110.777168 136.0
110.946907 152.0
110.961586 76.0
111.009056 188.0
111.041267 144.0
111.062241 196.0
111.093704 100.0
111.192322 76.0
111.26432 160.0
111.317451 164.0
111.412804 224.0
111.432564 128.0
111.570419 188.0
111.616669 88.0
111.641907 136.0
111.76812 160.0
111.795471 124.0
111.812309 108.0
111.986778 152.0
112.056572 168.0
112.083961 120.0
112.16449 172.0
112.206207 44.0
112.250359 132.0
112.261467 156.0
112.410805 148.0
112.488892 132.0
112.583908 180.0
112.630371 116.0
112.64727 168.0
112.736008 196.0
112.832123 144.0
112.864952 124.0
112.951805 180.0
113.046867 208.0
113.182343 252.0
113.32637 188.0
113.436577 232.0
113.544708 128.0
113.601982 144.0
113.731415 128.0
113.873672 168.0
113.954391 148.0
113.977768 52.0
114.060654 188.0
114.096786 160.0
114.124428 48.0
114.279266 180.0
114.404488 224.0
114.420166 124.0
114.547935 188.0
114.562851 124.0
114.637421 164.0
114.654472 148.0
114.70562 152.0
114.761047 136.0
114.882652 212.0
114.92955 168.0
114.963692 204.0
115.002106 204.0
115.056046 328.0
115.083229 116.0
115.121666 52.0
115.145096 148.0
115.194283 56.0
115.303253 112.0
115.341721 80.0
115.385376 172.0
115.45932 112.0
115.544876 64.0
115.615486 188.0
115.763199 136.0
115.812454 188.0
115.934578 176.0
116.048553 300.0
116.088928 96.0
116.106079 140.0
116.147667 380.0
116.187592 164.0
116.27771 184.0
116.32708 148.0
116.389343 112.0
116.453766 216.0
116.499535 156.0
116.528954 156.0
116.878311 200.0
116.907394 84.0
116.950432 200.0
117.020988 176.0
117.059158 784.0
117.111916 176.0
117.206711 180.0
117.223946 124.0
117.276894 204.0
117.358299 196.0
117.38562 72.0
117.42012 84.0
117.515038 188.0
117.560349 44.0
117.612144 120.0
117.657478 68.0
117.672592 224.0
117.696869 228.0
117.753807 144.0
117.795853 160.0
117.89724 76.0
117.92749 168.0
118.000923 176.0
118.066231 2372.0
118.111282 100.0
118.245636 160.0
118.364487 156.0
118.611465 152.0
118.691681 160.0
118.771011 228.0
118.774948 132.0
118.832664 180.0
118.852196 104.0
118.905876 192.0
118.956367 132.0
118.971565 180.0
119.001457 140.0
119.027245 124.0
119.060883 38440.0
119.103668 296.0
119.112709 32.0
119.120552 212.0
119.175713 188.0
119.227127 188.0
119.233406 124.0
119.242233 200.0
119.310463 144.0
119.336555 80.0
119.369171 44.0
119.400513 184.0
119.447464 232.0
119.464867 184.0
119.523605 212.0
119.547546 148.0
119.587715 184.0
119.643311 52.0
119.66291 284.0
119.685753 248.0
119.713219 76.0
119.734764 36.0
119.79406 36.0
119.827827 124.0
119.946899 144.0
119.980988 100.0
120.007576 204.0
120.067596 14460.0
120.10965 84.0
120.131462 28.0
120.148911 36.0
120.166916 108.0
120.194733 72.0
120.215912 204.0
120.275482 56.0
120.328407 196.0
120.35273 104.0
120.399933 108.0
120.433441 128.0
120.576385 148.0
120.596558 120.0
120.657768 216.0
120.732109 80.0
120.762726 172.0
120.787811 68.0
120.820908 188.0
120.859024 216.0
120.884277 200.0
120.913689 84.0
120.930229 180.0
120.953087 116.0
120.974976 48.0
121.00425 172.0
121.037857 128.0
121.076096 17512.0
121.128265 52.0
121.14579 148.0
121.200562 56.0
121.218086 64.0
121.244385 36.0
121.267502 92.0
121.296989 152.0
121.370552 108.0
121.464157 68.0
121.492157 56.0
121.516289 60.0
121.566757 164.0
121.59967 80.0
121.628204 164.0
121.68309 84.0
121.70504 136.0
121.742371 44.0
121.776573 236.0
121.789764 148.0
121.871971 120.0
121.887352 224.0
121.923553 212.0
121.946686 156.0
121.977463 180.0
122.011169 180.0
122.020645 224.0
122.079758 1464.0
122.109383 204.0
122.126984 132.0
122.159973 192.0
122.219376 60.0
122.292549 64.0
122.399872 68.0
122.481354 136.0
122.525414 60.0
122.565071 164.0
122.703926 140.0
122.721565 40.0
122.744408 212.0
122.820801 140.0
122.874115 168.0
122.917877 68.0
122.999428 84.0
123.079468 212.0
123.140846 188.0
123.160721 60.0
123.238045 176.0
123.260139 132.0
123.409187 92.0
123.509956 172.0
123.564659 176.0
123.5896 172.0
123.647133 236.0
123.706894 208.0
123.751175 112.0
123.850822 140.0
123.89724 168.0
123.91507 188.0
123.968246 144.0
124.096809 156.0
124.320839 68.0
124.358574 216.0
124.460686 56.0
124.629494 212.0
124.671715 216.0
124.769516 208.0
124.8041 224.0
124.891823 176.0
124.949654 148.0
125.016411 52.0
125.290276 132.0
125.330383 124.0
125.403923 152.0
125.504845 192.0
125.633591 52.0
125.722839 140.0
125.765251 108.0
125.780869 188.0
125.896973 140.0
125.999718 264.0
126.042168 44.0
126.180748 252.0
126.200867 176.0
126.328346 208.0
126.40889 52.0
126.426788 140.0
126.462601 132.0
126.740784 180.0
126.750816 40.0
126.757683 168.0
126.926376 196.0
126.993607 144.0
127.022766 136.0
127.103531 148.0
127.141678 200.0
127.188812 124.0
127.521233 212.0
127.626892 52.0
127.822578 148.0
127.863091 144.0
127.968887 188.0
128.004913 124.0
128.038696 96.0
128.060242 148.0
128.206665 108.0
128.49176 96.0
128.672318 120.0
128.699402 152.0
128.762634 152.0
128.938858 216.0
128.972977 208.0
128.988388 232.0
129.01796 280.0
129.0858 148.0
129.246399 152.0
129.307495 88.0
129.488617 152.0
129.538452 120.0
129.605896 212.0
129.660873 136.0
129.75827 160.0
129.853516 124.0
129.92836 136.0
130.150787 164.0
130.211716 188.0
130.247009 200.0
130.33931 68.0
130.44841 176.0
130.505249 128.0
130.821762 128.0
130.90799 180.0
131.08223 184.0
131.127029 172.0
131.176834 176.0
131.20192 172.0
131.386642 128.0
131.441406 168.0
131.49617 132.0
131.59433 84.0
131.658264 144.0
131.932449 104.0
131.948456 224.0
132.051086 168.0
132.07251 204.0
132.156631 172.0
132.259567 172.0
132.280121 208.0
132.383194 84.0
132.435867 176.0
132.516037 244.0
132.575623 52.0
132.614578 144.0
132.674179 104.0
132.818649 224.0
132.933365 52.0
133.015457 176.0
133.035645 128.0
133.068192 5012.0
133.113586 180.0
133.172119 156.0
133.32605 148.0
133.346725 76.0
133.385803 128.0
133.422592 76.0
133.484665 88.0
133.623383 104.0
133.67099 152.0
133.717346 56.0
133.799881 112.0
133.930542 184.0
133.970306 224.0
134.00946 164.0
134.032501 96.0
134.068909 876.0
134.12178 76.0
134.168488 188.0
134.193848 120.0
134.22525 272.0
134.276855 64.0
134.295929 60.0
134.355286 168.0
134.385284 196.0
134.415283 112.0
134.444305 208.0
134.48912 172.0
134.593018 168.0
134.617294 272.0
134.646118 148.0
134.676437 232.0
134.716919 212.0
134.759872 132.0
134.801849 224.0
134.832748 188.0
134.857224 192.0
134.875961 216.0
134.907532 208.0
134.931442 232.0
134.951538 196.0
134.96756 236.0
135.00058 208.0
135.024231 688.0
135.04895 332.0
135.09288 180420.0
135.17012 180.0
135.215149 192.0
135.233276 164.0
135.258331 104.0
135.277191 168.0
135.312546 276.0
135.359375 148.0
135.378067 64.0
135.408234 132.0
135.431946 136.0
135.453491 236.0
135.473114 2032.0
135.492035 148.0
135.512192 148.0
135.518936 112.0
135.556274 148.0
135.571671 160.0
135.605469 116.0
135.627686 132.0
135.6577 160.0
135.695618 208.0
135.717529 108.0
135.737747 156.0
135.75798 60.0
135.805664 52.0
135.83226 92.0
135.836685 96.0
135.863831 116.0
135.878479 140.0
135.916107 72.0
135.951813 28.0
135.977341 28.0
136.002106 132.0
136.031937 304.0
136.096069 23052.0
136.148178 48.0
136.175186 56.0
136.201263 64.0
136.225327 128.0
136.275406 168.0
136.306763 144.0
136.355911 88.0
136.397751 68.0
136.414017 96.0
136.432617 124.0
136.484406 72.0
136.510803 64.0
136.565155 128.0
136.582962 60.0
136.604416 64.0
136.648132 84.0
136.694656 96.0
136.711731 104.0
136.730011 116.0
136.786209 76.0
136.802505 68.0
136.827744 128.0
136.846191 68.0
136.866959 64.0
136.877441 84.0
136.915741 176.0
136.934204 92.0
136.956451 176.0
136.976471 144.0
137.025848 272.0
137.058167 76.0
137.077255 200.0
137.100388 1452.0
137.141342 112.0
137.151306 184.0
137.190933 108.0
137.208969 96.0
137.225342 216.0
137.24762 148.0
137.282242 124.0
137.371094 108.0
137.413086 108.0
137.548447 40.0
137.634827 132.0
137.669556 64.0
137.724731 56.0
137.781967 40.0
137.838043 40.0
137.902206 140.0
137.966583 92.0
138.008667 76.0
138.029709 52.0
138.090515 124.0
138.125595 64.0
138.172379 68.0
138.209824 124.0
138.247253 76.0
138.333862 116.0
138.366638 52.0
138.392395 96.0
138.460297 56.0
138.481369 76.0
138.710999 128.0
138.870438 84.0
138.938461 76.0
139.032318 108.0
139.098038 88.0
139.422165 160.0
139.502075 60.0
139.560852 104.0
139.619644 44.0
139.830048 164.0
140.149277 64.0
140.366135 80.0
140.911362 112.0
140.932632 128.0
141.019058 56.0
141.232864 140.0
141.299103 76.0
141.533417 168.0
141.71579 172.0
142.503494 48.0
142.521133 76.0
142.672241 188.0
142.70076 52.0
142.933868 144.0
142.974319 168.0
143.043335 84.0
143.190552 116.0
143.333893 140.0
143.393478 148.0
143.636673 76.0
143.707397 136.0
143.973999 80.0
144.073364 188.0
144.080811 168.0
144.190598 124.0
144.381851 128.0
144.750381 128.0
145.030685 52.0
145.064835 964.0
145.161942 96.0
145.431244 88.0
145.55368 80.0
145.720856 112.0
145.815521 80.0
145.839554 136.0
145.880417 100.0
146.071075 780.0
146.1185 168.0
146.156998 48.0
146.241226 48.0
146.373627 48.0
146.867676 92.0
146.896622 80.0
147.07814 248.0
147.921204 52.0
148.076157 112.0
148.265121 136.0
148.641006 100.0
148.976044 96.0
149.002777 108.0
149.039215 120.0
149.25798 44.0
149.30661 88.0
149.389313 48.0
149.584244 184.0
149.822632 76.0
150.015152 88.0
150.073502 188.0
150.268784 32.0
150.529953 68.0
151.025681 152.0
151.05777 728.0
151.234039 92.0
151.270752 52.0
151.307465 52.0
152.01828 132.0
152.059998 196.0
152.802094 188.0
153.06546 124.0
153.228012 76.0
153.807526 136.0
154.113754 84.0
154.578613 112.0
154.86084 120.0
155.004517 68.0
155.155716 48.0
155.706558 48.0
156.032074 196.0
156.86853 136.0
156.918396 96.0
157.887238 88.0
158.481949 124.0
158.929306 312.0
159.062317 84.0
159.617538 176.0
159.796112 116.0
160.024841 196.0
160.614838 208.0
161.008575 196.0
161.041397 152.0
161.6026 176.0
162.086212 136.0
162.281372 192.0
163.129318 172.0
164.01004 40.0
164.530426 36.0
164.630005 128.0
165.530136 96.0
166.833511 112.0
167.559235 204.0
168.555176 48.0
168.632706 132.0
169.19635 196.0
169.248383 180.0
172.032852 160.0
173.052444 176.0
173.16243 52.0
175.491257 160.0
175.714844 132.0
176.681778 56.0
177.029968 164.0
177.121216 144.0
177.914093 164.0
178.032166 204.0
179.050995 1088.0
179.102142 164.0
180.054108 164.0
181.049744 124.0
183.465286 132.0
184.069641 144.0
184.156067 56.0
184.185776 132.0
184.518158 128.0
184.63443 160.0
188.065887 132.0
188.912964 92.0
189.855164 48.0
190.088333 160.0
190.475433 56.0
190.54686 120.0
190.876694 88.0
191.033463 132.0
191.088486 204.0
191.204056 204.0
192.289917 64.0
192.403076 136.0
195.15979 36.0
196.103485 144.0
196.220566 104.0
196.491089 76.0
196.574799 168.0
197.113724 128.0
197.734543 48.0
197.874512 56.0
198.106949 160.0
199.380798 140.0
200.388153 96.0
201.468674 124.0
202.070847 132.0
202.090652 132.0
202.113297 120.0
202.155746 108.0
202.229324 128.0
202.753265 148.0
204.81311 212.0
206.351257 168.0
206.499954 120.0
206.748856 172.0
207.938187 84.0
208.225296 28.0
210.087601 132.0
210.398132 80.0
210.977066 140.0
211.396439 48.0
212.130173 132.0
212.535217 80.0
212.61647 72.0
213.107208 152.0
213.583969 68.0
214.10495 152.0
215.32692 176.0
215.791534 92.0
216.086929 84.0
217.179581 36.0
220.630753 136.0
221.101059 56.0
221.518524 132.0
222.984283 128.0
223.115082 88.0
223.668381 168.0
224.150833 60.0
224.341583 72.0
225.093445 116.0
225.135239 124.0
227.116531 124.0
227.290527 100.0
227.83696 72.0
229.136612 140.0
229.633987 80.0
230.119812 176.0
230.999237 200.0
232.162277 160.0
232.75705 84.0
233.151947 132.0
233.827103 80.0
234.03775 296.0
234.704422 176.0
235.128448 164.0
235.473434 168.0
235.613937 152.0
238.224014 128.0
238.761902 112.0
239.087997 120.0
241.138885 176.0
241.828583 156.0
242.140854 668.0
242.283768 124.0
243.384796 128.0
243.745117 128.0
243.816589 56.0
244.037277 180.0
245.971878 140.0
246.677841 144.0
246.793518 176.0
247.093765 108.0
247.907852 144.0
250.062241 220.0
250.336136 120.0
250.729919 80.0
251.316437 196.0
252.864853 132.0
253.200439 156.0
254.015015 176.0
254.986588 192.0
256.154297 144.0
258.33136 176.0
260.575439 48.0
262.793732 104.0
263.022858 36.0
263.093872 44.0
263.442657 104.0
265.196442 160.0
266.088501 136.0
267.173981 128.0
267.636108 204.0
269.132721 188.0
272.933563 116.0
273.065094 136.0
273.726562 124.0
276.178619 152.0
276.483002 48.0
278.830994 172.0
279.176758 84.0
280.571869 124.0
281.135559 176.0
283.714355 40.0
286.648529 40.0
287.116852 436.0
287.167694 48.0
287.471313 172.0
287.694092 56.0
288.048645 196.0
288.119598 148.0
289.120453 124.0
289.38446 92.0
290.028107 76.0
291.725342 88.0
292.306915 276.0
293.410461 128.0
297.769836 192.0
299.53775 136.0
300.199463 144.0
300.489197 172.0
300.706604 36.0
301.950348 96.0
302.195953 132.0
303.040741 124.0
304.740814 156.0
306.884796 112.0
307.470825 96.0
307.715179 92.0
309.852051 116.0
310.917999 60.0
311.328735 56.0
312.664642 156.0
315.118835 108.0
316.197357 140.0
317.327332 148.0
318.022614 104.0
318.413147 44.0
320.462097 92.0
320.72937 196.0
321.364136 160.0
321.421234 120.0
322.914459 188.0
323.118347 96.0
324.131622 92.0
325.340302 140.0
325.494659 144.0
326.256348 180.0
327.328522 68.0
327.393341 92.0
327.97702 112.0
328.687469 144.0
329.680481 176.0
330.096222 132.0
330.584564 160.0
330.689514 120.0
330.80896 136.0
330.950134 168.0
332.599609 132.0
334.176788 180.0
335.072418 92.0
337.214386 180.0
338.740173 104.0
339.902374 108.0
341.901428 136.0
342.195892 196.0
342.497864 108.0
344.500854 88.0
344.534088 104.0
344.74469 184.0
344.862946 156.0
346.172607 92.0
346.365173 104.0
346.457794 256.0
347.143463 116.0
347.551514 184.0
348.676666 108.0
348.92572 140.0
350.291443 52.0
351.868896 140.0
351.97345 48.0
352.294647 52.0
352.395508 88.0
353.09079 48.0
353.3414 100.0
353.768036 236.0
354.547089 36.0
354.914459 76.0
355.197418 180.0
355.585938 120.0
355.661011 152.0
355.69104 96.0
356.096527 156.0
356.201691 104.0
356.29187 100.0
356.705231 116.0
356.806732 72.0
356.968414 156.0
357.194061 160.0
357.4198 216.0
357.483765 132.0
357.5289 84.0
357.705811 112.0
357.753662 140.0
357.826263 80.0
357.903534 92.0
358.122559 34712.0
358.260773 108.0
358.314484 124.0
358.394989 184.0
358.432098 52.0
358.486694 156.0
358.55249 168.0
358.636536 84.0
358.705292 96.0
358.73819 136.0
358.819824 100.0
358.848328 100.0
359.02829 80.0
359.062225 56.0
359.123871 5304.0
359.217926 56.0
359.26474 52.0
359.300018 88.0
359.364746 60.0
359.397949 120.0
359.465851 48.0
359.552673 32.0
359.590393 52.0
359.662109 188.0
359.777527 56.0
359.845947 136.0
359.894989 140.0
360.013214 92.0
360.119019 2048.0
360.194519 88.0
360.262512 48.0
360.296234 52.0
360.341858 132.0
360.467285 40.0
360.508087 52.0
360.62149 88.0
360.764801 48.0
360.802917 76.0
360.956146 76.0
361.114655 364.0
361.177277 44.0
361.235046 120.0
361.347504 44.0
361.413422 76.0
361.442108 96.0
361.483734 132.0
361.508545 56.0
361.57077 112.0
361.604187 144.0
361.713959 72.0
361.994751 64.0
362.11972 128.0
362.354584 76.0
362.464478 136.0
362.544037 100.0
363.1203 44.0
363.23407 96.0
363.476868 64.0
363.773346 72.0
364.722534 44.0
365.334747 80.0
365.890381 56.0
366.972382 52.0
367.075317 132.0
368.078888 88.0
369.714966 44.0
371.876495 128.0
372.871216 40.0
374.082794 100.0
375.230804 84.0
382.992798 108.0
388.818329 144.0
398.560394 60.0
402.228271 76.0
405.644348 36.0
406.294006 104.0
409.445282 60.0
418.731903 128.0
426.916901 68.0
432.987518 100.0
442.07547 76.0
444.329681 140.0
462.950867 116.0
470.237885 64.0
470.302612 104.0
477.586151 48.0
477.751434 104.0
479.64566 56.0
497.639099 120.0
502.784821 56.0
504.517853 80.0
511.475372 44.0
516.777893 56.0
520.544556 104.0
523.245361 68.0
525.268677 40.0
528.365906 92.0
530.348694 72.0
531.527283 32.0
532.28009 72.0
539.546021 76.0
549.941956 72.0
552.797424 120.0
553.68219 20.0
556.796204 84.0
559.980225 36.0
566.735413 64.0
573.65509 92.0
573.883911 92.0
578.905884 68.0
582.224426 60.0
583.310242 44.0
590.934692 76.0
598.905701 100.0
601.231323 160.0
614.484863 72.0
639.538269 100.0
640.332153 92.0
659.071533 36.0
659.669495 188.0
661.367737 116.0
678.682556 132.0
678.770752 132.0
682.062195 96.0
690.226379 128.0
702.041504 136.0
718.65509 104.0
721.239807 188.0
724.461121 100.0
728.586548 76.0
730.102295 160.0
733.014587 196.0
735.484619 128.0
736.013672 32.0
741.569458 60.0
749.400024 104.0
754.125793 180.0
754.295227 128.0
767.813049 160.0
773.005859 80.0
775.586609 112.0
778.788147 220.0
780.244019 168.0
781.751343 164.0
783.962158 132.0
785.813354 148.0
788.750732 100.0
788.884888 168.0
789.746033 196.0
790.674744 140.0
794.664429 164.0
795.354736 200.0
796.241821 204.0
796.590027 120.0
797.393555 184.0
797.562134 200.0
798.214294 220.0
799.423706 84.0
801.631165 224.0
804.078613 64.0
805.343323 168.0
806.710754 112.0
808.481079 220.0
808.588623 80.0
808.66217 124.0
814.411377 228.0
817.879761 184.0
818.255493 160.0
820.152405 136.0
824.284302 60.0
826.130981 64.0
829.446533 132.0
830.696533 100.0
830.822754 44.0
831.409363 180.0
833.492493 200.0
833.992493 188.0
834.101685 140.0
836.298889 56.0
838.71228 152.0
838.942871 100.0
840.453918 120.0
842.162659 68.0
842.520813 104.0
842.9021 180.0
843.439575 168.0
847.339966 68.0
847.907776 160.0
848.893311 108.0
850.413269 140.0
851.946228 148.0
857.852844 68.0
858.360046 152.0
859.870972 184.0
860.349609 136.0
864.710144 148.0
865.494568 148.0
865.804932 124.0
866.144653 176.0
867.568604 152.0
869.351624 168.0
870.478699 212.0
871.007263 196.0
873.193726 64.0
877.185913 148.0
877.297791 204.0
878.919678 180.0
879.427185 148.0
882.652771 168.0
886.405579 168.0
887.994324 84.0
888.777405 176.0
889.483643 212.0
891.021667 116.0
891.366272 148.0
892.923828 288.0
893.744751 184.0
893.923218 40.0
896.746094 176.0
897.044128 116.0
897.676086 172.0
898.737854 152.0
904.834106 132.0
906.451294 120.0
907.542236 124.0
907.614136 76.0
908.11792 184.0
908.915771 184.0
909.305847 208.0
911.317505 164.0
911.479736 44.0
914.185669 160.0
917.655151 132.0
917.715454 144.0
921.80188 216.0
922.871765 136.0
924.232666 100.0
925.285767 132.0
926.630249 72.0
927.102905 152.0
927.599915 176.0
928.369873 92.0
928.885437 228.0
930.074707 144.0
933.264099 192.0
934.036438 208.0
936.598999 156.0
937.744446 44.0
941.630859 148.0
943.170532 148.0
943.855225 144.0
944.696167 212.0
945.984314 156.0
946.921143 132.0
951.363708 228.0
952.729919 168.0
954.905884 220.0
956.308655 152.0
957.047424 224.0
957.1521 188.0
958.020508 160.0
958.414795 156.0
959.450195 160.0
959.573486 176.0
959.789307 216.0
960.702087 164.0
961.954773 240.0
963.751953 172.0
963.949646 56.0
964.419373 68.0
965.35907 124.0
965.507507 196.0
967.865173 52.0
967.945679 168.0
968.311035 208.0
970.690735 176.0
971.968506 156.0
973.166443 176.0
975.387024 136.0
975.912659 144.0
976.379028 184.0
977.809937 52.0
979.005249 60.0
979.808777 204.0
980.238647 136.0
980.526855 180.0
981.379333 40.0
981.504028 176.0
981.822083 124.0
981.946777 152.0
982.957397 180.0
983.107178 132.0
983.918579 48.0
984.948975 172.0
985.829895 136.0
985.954895 124.0
988.393677 156.0
989.921021 128.0
993.274048 216.0
993.405762 180.0
993.512451 68.0
993.951599 228.0
994.980957 128.0
995.200684 56.0
995.922852 180.0
996.199219 152.0
997.506287 192.0
997.694885 76.0
1001.067322 208.0
1003.732788 108.0
1003.997681 188.0
1004.407654 228.0
1005.827332 220.0
1007.582886 164.0
1009.137634 208.0
1011.073242 144.0
1011.712524 224.0
1012.814331 108.0
1013.340149 184.0
1013.542908 156.0
1013.999146 72.0
1014.144958 180.0
1014.994446 220.0
1015.381287 60.0
1015.425659 236.0
1016.028259 192.0
1016.472412 172.0
1017.316528 188.0
1017.894287 112.0
1019.062988 88.0
1020.086182 204.0
1021.014465 236.0
1021.377014 152.0
1024.750977 80.0
1025.190674 152.0
1025.796143 144.0
1026.031982 136.0
1026.427246 204.0
1026.510132 140.0
1027.211792 96.0
1027.352051 144.0
1027.556274 100.0
1029.260376 204.0
1029.381714 236.0
1029.490234 144.0
1030.454712 188.0
1031.911987 168.0
1031.9823 188.0
1034.534912 216.0
1035.412109 184.0
1035.572266 196.0
1036.264038 156.0
1038.329956 180.0
1039.970581 160.0
1041.293213 156.0
1041.845581 268.0
1041.896973 72.0
1042.282471 192.0
1042.893066 60.0
1044.101685 160.0
1046.662842 204.0
1046.93335 152.0
1047.081421 128.0
1047.371338 220.0
1047.622559 48.0
1048.924194 76.0
1049.994507 136.0
1051.065308 212.0
1051.723633 176.0
1052.446655 236.0
1052.795288 140.0
1053.570435 356.0
1053.886963 200.0
1054.029175 168.0
1054.914551 120.0
1056.401855 176.0
1056.511841 204.0
1056.608887 264.0
1058.466431 160.0
1058.550659 136.0
1058.900391 188.0
1059.217773 184.0
1059.995117 220.0
1060.137695 104.0
1060.189575 212.0
1061.421265 80.0
1061.615723 132.0
1061.832031 104.0
1062.711914 192.0
1063.081787 168.0
1063.36084 196.0
1065.146484 204.0
1066.927002 184.0
1067.265015 152.0
1067.390259 80.0
1067.843872 156.0
1068.169067 60.0
1068.357666 156.0
1069.776367 172.0
1070.824707 188.0
1071.326172 48.0
1071.866943 176.0
1072.414429 132.0
1072.518677 152.0
1074.540161 180.0
1074.7229 176.0
1075.858521 228.0
1076.361206 224.0
1077.229858 28.0
1077.621826 196.0
1078.608643 172.0
1079.275513 128.0
1079.595825 192.0
1079.667847 60.0
1080.086426 104.0
1080.688232 228.0
1081.14624 48.0
1081.440796 152.0
1081.669922 144.0
1082.239502 192.0
1082.737183 160.0
1083.529663 224.0
1083.575562 156.0
1083.719727 200.0
1083.935913 48.0
1085.423828 188.0
1085.633667 144.0
1086.01416 204.0
1086.919434 140.0
1087.142578 136.0
1087.661011 48.0
1087.746338 224.0
1087.890747 68.0
1089.108521 232.0
1091.372803 212.0
1092.102783 164.0
1092.181641 100.0
1092.333008 128.0
1092.661865 208.0
1093.655518 108.0
1094.939453 152.0
1095.025024 112.0
1096.07251 168.0
1096.151489 152.0
1098.043579 132.0
1098.149048 36.0
1098.624023 40.0
1099.006592 212.0
1099.58728 160.0
1099.838745 160.0
1100.53125 96.0
1101.039795 216.0
1101.588013 92.0
1102.142944 136.0
1102.949219 116.0
1103.411865 108.0
1103.729248 96.0
1104.139282 112.0
1104.258301 180.0
1104.641968 156.0
1104.886719 156.0
1105.045532 208.0
1105.230713 172.0
1106.197021 120.0
1106.269897 136.0
1106.925293 184.0
1107.335938 184.0
1107.706787 132.0
1108.170532 132.0
1108.395874 92.0
1108.853027 192.0
1108.952515 196.0
1109.157959 116.0
1109.509277 152.0
1110.45752 92.0
1110.802368 184.0
1111.240234 216.0
1112.169312 76.0
1112.441528 100.0
1112.68042 148.0
1113.344482 172.0
1113.404175 40.0
1113.490601 148.0
1113.703125 172.0
1114.300903 68.0
1114.706299 144.0
1114.839111 200.0
1115.709839 44.0
1115.782959 88.0
1116.208496 168.0
1117.79834 124.0
1118.603638 164.0
1119.928711 148.0
1120.035278 212.0
1120.927979 156.0
1121.227905 56.0
1121.441162 156.0
1122.774536 116.0
1122.907959 136.0
1123.78186 164.0
1123.848511 180.0
1124.108765 132.0
1124.415771 184.0
1124.701416 140.0
1124.802856 148.0
1125.310181 124.0
1125.684082 164.0
1125.904541 212.0
1126.706055 192.0
1127.871338 136.0
1129.854858 124.0
1130.142578 264.0
1130.349976 212.0
1130.396851 84.0
1130.657837 184.0
1130.845215 228.0
1132.452026 140.0
1132.64624 160.0
1132.713257 184.0
1133.108521 132.0
1133.316162 132.0
1133.377075 236.0
1133.435913 152.0
1134.053345 188.0
1134.643311 116.0
1134.750488 124.0
1135.085815 256.0
1135.883911 192.0
1136.568115 136.0
1137.360107 184.0
1138.058228 48.0
1140.550659 164.0
1141.229614 156.0
1141.559082 108.0
1141.781006 76.0
1142.339233 176.0
1142.675659 144.0
1143.052368 88.0
1143.187012 116.0
1143.954224 80.0
1144.6073 84.0
1145.051758 216.0
1145.772583 124.0
1145.92749 272.0
1146.291382 200.0
1147.208008 196.0
1147.403442 180.0
1148.023804 176.0
1148.421631 160.0
1148.669312 172.0
1148.765747 196.0
1149.049072 216.0
1149.156982 180.0
1149.217651 132.0
1150.067993 132.0
1152.019409 172.0
1152.073486 108.0
1153.12085 192.0
1153.37085 212.0
1153.492554 200.0
1153.769775 208.0
1154.195679 148.0
1154.324219 180.0
1154.574341 212.0
1154.696045 128.0
1154.946411 156.0
1155.988281 164.0
1156.245361 72.0
1156.516113 188.0
1157.057617 44.0
1157.369141 136.0
1157.55188 192.0
1157.700928 120.0
1158.696533 88.0
1158.757568 124.0
1159.299683 172.0
1160.696045 128.0
1160.804565 200.0
1160.953735 208.0
1161.062256 128.0
1162.102539 188.0
1162.873657 52.0
1163.260498 184.0
1164.061646 156.0
1164.516724 188.0
1164.645752 116.0
1165.060059 136.0
1166.092896 176.0
1166.283203 156.0
1166.412354 172.0
1166.589111 164.0
1166.990234 180.0
1167.234985 136.0
1167.50708 180.0
1167.690674 136.0
1168.00354 244.0
1168.224243 136.0
1168.316406 144.0
1168.860718 208.0
1169.132935 164.0
1169.36438 212.0
1169.459595 192.0
1169.622925 152.0
1170.00415 164.0
1170.889404 184.0
1171.986084 112.0
1172.422241 192.0
1172.510864 160.0
1172.769775 176.0
1173.05603 248.0
1173.921997 136.0
1174.460693 208.0
1174.992798 188.0
1175.054199 132.0
1175.129272 156.0
1175.443115 44.0
1176.071411 124.0
1176.644409 68.0
1177.354492 156.0
1177.935059 168.0
1178.21521 144.0
1179.052246 128.0
1179.527222 244.0
1179.766479 124.0
1180.176636 164.0
1180.551147 196.0
1181.058838 168.0
1181.414551 192.0
1181.469238 92.0
1182.215088 128.0
1182.290405 204.0
1182.968018 192.0
1183.748535 204.0
1184.064209 204.0
1184.152588 148.0
1186.317749 96.0
1186.7771 92.0
1187.229736 196.0
1188.574219 88.0
1188.70459 172.0
1189.432007 132.0
1189.924561 160.0
1190.15979 192.0
1190.358887 156.0
1190.880859 180.0
1191.217407 156.0
1191.519653 152.0
1192.124268 192.0
1192.241089 128.0
1192.729126 128.0
1192.914673 156.0
1192.969727 152.0
1193.485352 120.0
1194.028564 256.0
1194.682007 144.0
1195.060425 136.0
1195.638428 124.0
1195.858643 160.0
1196.299194 140.0
1196.368042 156.0
1196.471313 168.0
1196.595215 148.0
1196.804932 132.0
1196.898193 156.0
1198.578857 184.0
1199.371338 124.0
1200.067627 232.0
1200.350342 144.0
1201.874756 44.0
1202.136963 96.0
1202.226685 188.0
1202.37854 172.0
1203.55896 180.0
1204.470581 80.0
1205.451538 172.0
1205.685181 232.0
1206.21875 176.0
1206.585083 156.0
1207.663818 96.0
1207.822998 180.0
1207.870728 144.0
1207.989014 384.0
1208.072021 72.0
1208.155029 216.0
1208.258789 76.0
1208.411011 184.0
1208.500854 164.0
1209.109863 232.0
1210.583984 128.0
1210.66748 120.0
1210.993042 156.0
1211.117676 144.0
1211.422485 168.0
1211.713379 156.0
1212.108398 228.0
1212.434082 164.0
1212.526489 240.0
1212.843018 176.0
1213.328247 168.0
1213.411377 220.0
1213.522339 140.0
1213.661011 156.0
1214.087402 180.0
1214.257324 72.0
1214.625 132.0
1216.158447 168.0
1216.776245 144.0
1216.991455 192.0
1218.623657 144.0
1218.713989 228.0
1219.485352 92.0
1219.81897 212.0
1219.91626 104.0
1220.041382 152.0
1220.848022 252.0
1221.974854 156.0
1222.489746 184.0
1222.775024 96.0
1224.055908 196.0
1224.369385 176.0
1224.849976 204.0
1224.90564 128.0
1226.105835 220.0
1226.424683 148.0
1226.522217 136.0
1227.1427 192.0
1227.593384 176.0
1227.830322 160.0
1228.300293 164.0
1229.172363 184.0
1229.332886 148.0
1230.17041 204.0
1230.491577 180.0
1230.69397 164.0
1230.86853 132.0
1230.973267 176.0
1231.022217 68.0
1231.559937 140.0
1232.398315 188.0
1232.740601 172.0
1233.369629 156.0
1233.481445 120.0
1233.649292 224.0
1234.397339 156.0
1235.320557 152.0
1235.782349 240.0
1236.454102 128.0
1236.790039 172.0
1236.865845 176.0
1237.125977 216.0
1237.38501 236.0
1237.546021 152.0
1237.672119 176.0
1237.728149 236.0
1237.819092 132.0
1238.113281 180.0
1238.197266 200.0
1238.575562 184.0
1238.848755 152.0
1239.10791 140.0
1239.297119 108.0
1239.493286 164.0
1239.738525 148.0
1240.109985 116.0
1240.376343 164.0
1240.740845 160.0
1240.986206 176.0
1241.263062 212.0
1241.484131 184.0
1241.764648 192.0
1242.254761 160.0
1242.908081 116.0
1243.357178 240.0
1243.442139 284.0
1243.644897 124.0
1244.332886 164.0
1244.480347 212.0
1244.571655 180.0
1244.68396 96.0
1244.845459 124.0
1244.894653 220.0
1245.30188 140.0
1245.639038 312.0
1246.095703 160.0
1246.559448 156.0
1247.177856 152.0
1247.409912 168.0
1247.880859 172.0
1248.555908 196.0
1248.654419 136.0
1248.731812 188.0
1248.823242 228.0
1249.280151 204.0
1249.323608 228.0
1249.533691 124.0
1249.632202 124.0
1249.744751 176.0
1250.469604 164.0
1250.539917 220.0
1250.744019 172.0
1250.891846 196.0
1251.539551 224.0
1251.905762 224.0
1252.060669 132.0
1252.278931 200.0
1253.249268 248.0
1253.462524 96.0
1254.040405 128.0
1254.153198 232.0
1254.40686 164.0
1255.944092 164.0
1256.028687 200.0
1256.494263 196.0
1256.762451 200.0
1256.903564 88.0
1257.369263 180.0
1257.572998 168.0
1257.828125 52.0
1257.91272 224.0
1258.096313 192.0
1258.399902 236.0
1258.569336 120.0
1258.700562 152.0
1259.317871 216.0
1259.939453 132.0
1260.193848 172.0
1260.737915 152.0
1260.928711 212.0
1261.176147 196.0
1261.303345 176.0
1261.578979 248.0
1262.123413 160.0
1262.187012 40.0
1262.661621 180.0
1262.716553 160.0
1264.549927 208.0
1264.790527 184.0
1265.739136 176.0
1265.89502 224.0
1266.03772 200.0
1266.433228 164.0
1266.695312 236.0
1266.907471 188.0
1267.382446 180.0
1268.622803 160.0
1269.579956 236.0
1271.074585 224.0
1271.871582 144.0
1272.169678 380.0
1272.290405 236.0
1272.38269 208.0
1272.624023 164.0
1272.716309 144.0
1272.972046 184.0
1273.166138 200.0
1273.390991 188.0
1273.454956 140.0
1273.994751 60.0
1274.264771 196.0
1274.371338 156.0
1274.875854 172.0
1274.996582 96.0
1275.046387 164.0
1275.721558 172.0
1275.810181 164.0
1275.998901 116.0
1276.133911 164.0
1277.3927 208.0
1278.032959 144.0
1278.111206 152.0
1278.209473 168.0
1279.214355 64.0
1279.292725 180.0
1279.435059 84.0
1280.140015 176.0
1280.289551 196.0
1281.571655 184.0
1281.856689 148.0
1281.935059 172.0
1282.569336 180.0
1283.068359 208.0
1283.275146 180.0
1283.436401 188.0
1283.610229 188.0
1284.088013 180.0
1284.259277 100.0
1284.501709 164.0
1285.036743 64.0
1285.178833 204.0
1285.885132 216.0
1286.207153 172.0
1286.671875 192.0
1286.899658 124.0
1287.056641 132.0
1287.777954 192.0
1287.920776 192.0
1287.970825 172.0
1288.478027 148.0
1288.985352 176.0
1289.099609 60.0
1289.228271 108.0
1289.27832 168.0
1289.371216 152.0
1289.564941 192.0
1290.021606 184.0
1290.866699 140.0
1291.015503 160.0
1291.737793 40.0
1291.902344 152.0
1291.973877 216.0
1292.116943 136.0
1292.245728 212.0
1293.018555 152.0
1293.118774 168.0
1293.863159 208.0
1294.758301 140.0
1295.14502 168.0
1295.580566 168.0
1295.703735 100.0
1296.069214 200.0
1296.212891 156.0
1297.294678 184.0
1297.682739 152.0
1300.946045 156.0
1301.060913 188.0
1301.376831 172.0
1301.477417 156.0
1301.664062 136.0
1301.757446 36.0
1301.922607 192.0
1302.748535 80.0
1303.517334 188.0
1303.869507 184.0
1303.9198 84.0
1304.293579 212.0
1304.401367 124.0
1304.739258 164.0
1305.15625 120.0
1305.551758 140.0
1306.242188 168.0
1306.565918 176.0
1306.781738 200.0
1306.911255 204.0
1307.220703 128.0
1307.429321 208.0
1307.551636 204.0
1307.961914 208.0
1308.278687 180.0
1308.408203 212.0
1309.358765 60.0
1310.656494 220.0
1311.113647 200.0
1311.758057 156.0
1312.154541 208.0
1312.4646 232.0
1312.731323 172.0
1313.091919 216.0
1313.142456 32.0
1313.34436 176.0
1313.80603 152.0
1314.094604 176.0
1314.541992 148.0
1314.751221 136.0
1314.873901 96.0
1315.81958 168.0
1316.072266 224.0
1316.404419 164.0
1316.866577 168.0
1317.401123 144.0
1317.653931 184.0
1318.087524 152.0
1318.318726 176.0
1318.853516 212.0
1319.034302 188.0
1319.771606 168.0
1319.83667 84.0
1320.43689 180.0
1320.54541 188.0
1321.572632 204.0
1321.898315 160.0
1322.079224 196.0
1322.650879 200.0
1322.958252 248.0
1323.078003 120.0
1323.179443 164.0
1323.606567 44.0
1323.751343 164.0
1323.814697 172.0
1324.439453 64.0
1324.738647 168.0
1324.946533 212.0
1325.040649 116.0
1326.38855 140.0
1326.468262 116.0
1326.722046 168.0
1326.895996 96.0
1327.651611 172.0
1327.853149 136.0
1328.085205 236.0
1328.505981 196.0
1328.607544 148.0
1328.738159 96.0
1328.941284 48.0
1329.108154 160.0
1329.420166 200.0
1329.754028 160.0
1330.160522 172.0
1330.516235 136.0
1331.351196 208.0
1331.939453 168.0
1332.179199 140.0
1332.506104 132.0
1333.051025 188.0
1333.145508 188.0
1333.30542 204.0
1333.414429 188.0
1333.988647 144.0
1334.077881 208.0
1334.286743 148.0
1334.657471 88.0
1334.839233 132.0
1335.312012 192.0
1335.428345 156.0
1335.537476 144.0
1336.759644 148.0
1337.181763 60.0
1337.84668 232.0
1337.982422 116.0
1338.098999 224.0
1338.259155 100.0
1338.433838 76.0
1338.652344 240.0
1339.154785 160.0
1339.795898 124.0
1339.890503 136.0
1340.488037 116.0
1340.670166 120.0
1340.785645 184.0
1341.231445 52.0
1341.479248 232.0
1341.851074 160.0
1342.047852 120.0
1342.317627 120.0
1342.55835 176.0
1342.63855 164.0
1343.149048 164.0
1343.231689 212.0
1343.346069 92.0
1343.594116 120.0
1344.075562 152.0
1344.221558 100.0
1344.82373 256.0
1345.798218 124.0
1346.31665 368.0
1346.491943 72.0
1346.57959 152.0
1346.696411 128.0
1346.900879 128.0
1347.244263 160.0
1347.667969 260.0
1347.850708 156.0
1347.916382 116.0
1348.873779 120.0
1349.721924 156.0
1349.802368 112.0
1350.504395 176.0
1350.595337 140.0
1351.009155 148.0
1351.309082 88.0
1351.389526 140.0
1351.711548 76.0
1351.872437 156.0
1351.928833 200.0
1352.026123 132.0
1352.658081 176.0
1352.745972 212.0
1353.065552 144.0
1353.195435 136.0
1353.295288 96.0
1353.409668 204.0
1353.709839 244.0
1354.332397 152.0
1354.618042 120.0
1354.691284 160.0
1354.88916 104.0
1354.955078 56.0
1355.692139 224.0
1355.878296 144.0
1355.958984 204.0
1356.230103 80.0
1356.376709 132.0
1356.611328 220.0
1356.948486 384.0
1357.131836 204.0
1358.862793 208.0
1359.046143 212.0
1359.126831 248.0
1359.185547 140.0
1359.978149 252.0
1360.63147 216.0
1360.961914 168.0
1361.189453 152.0
1361.314331 144.0
1361.659424 164.0
1361.923828 80.0
1362.592407 96.0
1363.084595 100.0
1363.341797 68.0
1363.632324 184.0
1364.312012 108.0
1364.819336 196.0
1364.87085 204.0
1364.95166 192.0
1365.376343 212.0
1365.775391 168.0
1365.996094 128.0
1366.143188 52.0
1366.414795 196.0
1366.755859 136.0
1366.842163 132.0
1366.952515 200.0
1367.585449 228.0
1368.505615 160.0
1368.940063 144.0
1369.035767 136.0
1369.168335 172.0
1369.418701 140.0
1369.470337 140.0
1369.742798 204.0
1370.066895 144.0
1370.273193 172.0
1370.936401 88.0
1371.268066 84.0
1371.349121 192.0
1371.55542 208.0
1371.651245 240.0
1371.74707 184.0
1372.344238 212.0
1372.5802 128.0
1373.457886 60.0
1373.679077 216.0
1373.893066 76.0
1374.11499 180.0
1374.35791 124.0
1374.512817 152.0
1374.977661 48.0
1375.332031 244.0
1375.553467 156.0
1375.721558 196.0
1375.782227 212.0
1375.878296 160.0
1376.247437 76.0
1377.177856 160.0
1377.835327 216.0
1377.968262 56.0
1378.419067 84.0
1378.529907 164.0
1378.588989 68.0
1378.718384 240.0
1378.77832 332.0
1378.862427 28.0
1379.121094 92.0
1379.261475 180.0
1379.594116 164.0
1380.414917 200.0
1380.800903 172.0
1381.041016 188.0
1381.450317 128.0
1381.502075 236.0
1381.692017 224.0
1382.533936 176.0
1382.626709 180.0
1382.693359 96.0
1382.944946 176.0
1383.063477 184.0
1383.352173 128.0
1383.98877 156.0
1384.225708 164.0
1384.41687 168.0
1384.721924 216.0
1384.773804 108.0
1385.151489 180.0
1385.618286 184.0
1386.033203 200.0
1386.248047 184.0
1386.299927 176.0
1386.574097 160.0
1386.72229 200.0
1387.463623 168.0
1388.620361 96.0
1389.072754 168.0
1389.206299 232.0
1389.681152 108.0
1390.601318 192.0
1390.779419 144.0
1391.269409 228.0
1391.351074 164.0
1391.729614 136.0
1391.796509 116.0
1392.004395 152.0
1392.412842 200.0
1392.836182 208.0
1392.940186 132.0
1393.222534 144.0
1393.452759 208.0
1394.240479 156.0
1394.344482 136.0
1394.730957 180.0
1394.842407 156.0
1395.348022 80.0
1395.868408 176.0
1396.076904 140.0
1396.800049 224.0
1397.153687 188.0
1397.222168 96.0
1397.928955 156.0
1398.137329 116.0
1398.241577 108.0
1398.539185 132.0
1399.365479 124.0
1400.020752 164.0
1400.231689 176.0
1400.661377 124.0
1401.369019 84.0
1401.495728 60.0
1401.741577 200.0
1402.173828 168.0
1402.244873 204.0
1402.509155 184.0
1403.329224 164.0
1403.508179 192.0
1404.391357 172.0
1405.111694 96.0
1405.574341 64.0
1405.776123 112.0
1406.305664 184.0
1406.522095 68.0
1406.970093 184.0
1407.492676 152.0
1407.716675 140.0
1408.231934 172.0
1408.284302 80.0
1408.627808 152.0
1408.949097 132.0
1409.061157 96.0
1409.113403 180.0
1409.367432 224.0
1409.741089 176.0
1409.980225 120.0
1410.578125 156.0
1410.824829 152.0
1411.6698 112.0
1412.013794 156.0
1412.68689 36.0
1412.956299 116.0
1413.203125 168.0
1413.255493 164.0
1414.43042 176.0
1414.48291 60.0
1414.699951 176.0
1415.036865 152.0
1415.373779 212.0
1415.7677 184.0
1415.799316 112.0
1415.825439 164.0
1416.759399 80.0
1416.871704 160.0
1417.133911 32.0
1417.201416 184.0
1417.462769 136.0
1418.168091 144.0
1418.445435 208.0
1418.550415 160.0
1418.692749 144.0
1418.7677 172.0
1420.36499 164.0
1420.507568 144.0
1420.837646 204.0
1420.911865 216.0
1421.092651 216.0
1423.051636 132.0
1423.577271 44.0
1423.818848 188.0
1424.110474 44.0
1424.455933 156.0
1424.606201 200.0
1424.741455 164.0
1424.996826 192.0
1425.89856 260.0
1427.447266 76.0
1427.958618 196.0
1428.069092 316.0
1428.856567 276.0
1429.071899 76.0
1429.463135 232.0
1429.767334 160.0
1429.992188 152.0
1430.110352 172.0
1430.291016 116.0
1430.434082 176.0
1430.795898 168.0
1431.043823 148.0
1431.119141 204.0
1432.165894 132.0
1432.813721 152.0
1432.897705 172.0
1433.243164 136.0
1433.408936 148.0
1433.567261 80.0
1433.63501 116.0
1434.237915 184.0
1434.690308 136.0
1434.931519 168.0
1435.006958 120.0
1435.089844 148.0
1435.194458 136.0
1435.35376 128.0
1435.579956 172.0
1436.14563 132.0
1436.251221 132.0
1436.62085 140.0
1437.963867 148.0
1438.152588 136.0
1438.40918 176.0
1438.582886 156.0
1438.937622 168.0
1439.073608 136.0
1439.34668 204.0
1439.798462 108.0
1440.01001 136.0
1440.138306 124.0
1440.447998 216.0
1441.014648 108.0
1441.112793 184.0
1441.331909 164.0
1441.483032 220.0
1442.160645 160.0
1442.268921 140.0
1442.752808 80.0
1442.805786 200.0
1443.009888 164.0
1444.138062 200.0
1444.999023 144.0
1445.256226 224.0
1445.384888 164.0
1445.64978 168.0
1445.876709 92.0
1445.997803 156.0
1446.224976 152.0
1446.399048 52.0
1446.610962 152.0
1447.19519 216.0
1447.254517 124.0
1447.534668 216.0
1447.602783 180.0
1447.746704 172.0
1448.034424 156.0
1448.087524 60.0
1448.17688 180.0
1448.494507 232.0
1448.61377 268.0
1448.634521 128.0
1448.657349 168.0
1450.102783 144.0
1450.178589 172.0
1450.352905 144.0
1450.511108 224.0
1450.618164 124.0
1450.875977 148.0
1451.02002 232.0
1451.854126 200.0
1452.817383 132.0
1453.060181 212.0
1453.910034 72.0
1454.046631 132.0
1454.122437 200.0
1454.304688 168.0
1454.409424 184.0
1454.479248 132.0
1454.630981 144.0
1454.835938 164.0
1455.165527 188.0
1455.686401 188.0
1456.073608 156.0
1456.354736 164.0
1456.544556 180.0
1456.776855 196.0
1457.076294 120.0
1457.152344 220.0
1457.560303 196.0
1458.010986 108.0
1458.132568 140.0
1458.451782 92.0
1458.717773 176.0
1459.234741 188.0
1459.287964 144.0
1459.424805 212.0
1459.690918 156.0
1459.789795 100.0
1459.911499 128.0
1460.307007 120.0
1460.664917 176.0
1460.877441 48.0
1461.006714 96.0
1461.158936 164.0
1461.368652 244.0
1461.486084 176.0
1461.579834 140.0
1461.653442 220.0
1461.851318 180.0
1462.07959 200.0
1462.269897 184.0
1462.353638 120.0
1462.452515 224.0
1462.884521 160.0
1463.031006 172.0
1463.35083 168.0
1463.624878 164.0
1463.716309 124.0
1464.037598 168.0
1464.348389 168.0
1464.905273 164.0
1465.311035 216.0
1465.437744 208.0
1465.486084 164.0
1465.635742 244.0
1465.719604 40.0
1465.833862 228.0
1466.108276 160.0
1467.54126 208.0
1467.625122 156.0
1468.037476 152.0
1468.296265 356.0
1468.715698 196.0
1468.990356 160.0
1469.141357 144.0
1469.369507 228.0
1469.661621 152.0
1469.805664 152.0
1469.989746 148.0
1471.111694 160.0
1471.348389 208.0
1473.395142 196.0
1473.746582 212.0
1473.800049 236.0
1474.327271 96.0
1474.73999 168.0
1475.099243 128.0
1475.771973 160.0
1476.10083 192.0
1476.869873 176.0
1476.952026 172.0
1477.049194 208.0
1477.393433 204.0
1477.803101 192.0
1478.42627 124.0
1478.594727 40.0
1478.724854 160.0
1479.076904 68.0
1479.145752 176.0
1479.520874 36.0
1479.589722 160.0
1479.727539 200.0
1480.091064 380.0
1480.784302 172.0
1481.00647 152.0
1481.182617 152.0
1481.557983 384.0
1482.339478 160.0
1483.404785 84.0
1483.542725 204.0
1484.964844 140.0
1485.298828 168.0
1485.751343 152.0
1486.204102 92.0
1486.840942 156.0
1488.069092 232.0
1488.245728 180.0
1488.455933 172.0
1488.69873 172.0
1488.798584 204.0
1488.906128 176.0
1489.013672 196.0
1489.390015 80.0
1490.505127 184.0
1491.003418 112.0
1491.610596 148.0
1492.421509 152.0
1492.502441 180.0
1492.933105 156.0
1493.125366 240.0
1493.240723 140.0
1494.05603 72.0
1494.394531 132.0
1494.886963 184.0
1495.264038 180.0
1495.595093 168.0
1495.77356 148.0
1496.087646 184.0
1496.310913 52.0
1496.711304 136.0
1496.78064 148.0
1497.080933 188.0
1497.134888 260.0
1497.211792 40.0
1497.997437 104.0
1498.059082 212.0
1498.182373 116.0
1498.351807 220.0
1498.583008 148.0
1498.798706 212.0
1499.538574 208.0
1500.124268 304.0
1500.432739 152.0
1501.041748 52.0
1501.226807 156.0
1501.319458 56.0
1501.620117 188.0
1501.793213 164.0
1501.959595 180.0
1502.430054 432.0
1502.661499 152.0
1503.062744 76.0
1503.263428 192.0
1503.433105 156.0
1503.996582 144.0
1504.183472 172.0
1504.305298 164.0
1504.359375 108.0
1504.606445 148.0
1504.828491 188.0
1504.938354 104.0
