>compound MLS001159163-01!(2S)-2-[[(2S)-3-methyl-2-[(3-oxo-2,4-dihydroquinoxaline-1-carbonyl)amino]butanoyl]amino]-3-phenylpropanoic acid
>formula C23H26N4O5
>ionization [M+H]+
>parentmass 439.198
#inchi InChI=1S/C23H26N4O5/c1-14(2)20(21(29)25-17(22(30)31)12-15-8-4-3-5-9-15)26-23(32)27-13-19(28)24-16-10-6-7-11-18(16)27/h3-11,14,17,20H,12-13H2,1-2H3,(H,24,28)(H,25,29)(H,26,32)(H,30,31)/t17-,20-/m0/s1
#inchikey VBFXAALSKCTOAO
#Ion_Source LC-ESI
#Instrument qTof
#Compound_Source NIH Natural Product Library
#PI Dorrestein
#Data_Collector VVP/LMS
#Scan -1
#Precursor_MZ 439.198
#ExactMass 438.19
#Charge 1
#CAS_Number N/A
#Pubmed_ID N/A
#Smiles CC(C)[C@H](NC(=O)N1CC(=O)Nc2ccccc12)C(=O)N[C@@H](Cc3ccccc3)C(=O)O
#INCHI_AUX N/A
#Library_Class 1
#SpectrumID CCMSLIB00000080116
#IonMode Positive
#UpdateWorkflowName UPDATE-SINGLE-ANNOTATED-GOLD
#LibraryQualityString Gold
#TaskID b1d8e8f6646f4e71acdff9ca3d919d08
##Scan# 1826
#SpectrumFile p2-C04_GC4_01_18004.mzXML
#LibraryName NIH_Natural_Products_Library.mgf
#MQScore -1
#Organism NIH_Natural_Products_Library
#TIC_Query 0
#RT_Query -1
#MZErrorPPM -1
#SharedPeaks 0
#MassDiff 0
#LibMZ -1
#SpecMZ 439.198
#SpecCharge 0
#internalFilename spec-00000.mgf

>collision 10
95.047829 156.0
95.071121 328.0
95.395477 204.0
95.749603 168.0
95.796349 92.0
95.86454 164.0
95.919113 108.0
96.008797 164.0
96.063408 164.0
96.079018 140.0
96.248817 152.0
96.731712 188.0
96.864868 240.0
97.033401 172.0
97.051048 116.0
97.196198 252.0
97.398407 176.0
97.414124 120.0
97.427872 132.0
97.467171 132.0
97.579201 148.0
97.681465 56.0
97.907806 144.0
97.931442 192.0
98.016151 100.0
98.060463 540.0
98.515312 128.0
99.015732 120.0
99.152435 112.0
99.176216 224.0
99.295181 232.0
99.348732 160.0
99.78167 160.0
99.968643 152.0
100.046265 152.0
100.141846 176.0
100.315201 188.0
100.413895 144.0
100.67234 260.0
100.704292 152.0
100.902122 196.0
100.970108 104.0
101.050117 188.0
101.102142 188.0
101.134171 224.0
101.426605 196.0
101.571884 144.0
101.639183 144.0
101.695374 148.0
101.777679 176.0
102.493484 132.0
102.600571 104.0
102.669449 152.0
102.891083 208.0
102.975891 128.0
103.056824 216.0
103.133484 152.0
103.212326 160.0
103.341782 124.0
103.633331 188.0
103.649544 132.0
103.698181 192.0
103.787376 136.0
104.022713 32.0
104.049889 176.0
104.40876 212.0
104.62851 192.0
104.70385 136.0
104.746124 164.0
104.783295 180.0
104.862762 196.0
104.903526 64.0
104.921875 96.0
105.24015 148.0
105.29937 220.0
105.313667 216.0
105.623146 208.0
105.712326 228.0
105.960083 180.0
106.113792 196.0
106.394859 96.0
106.44619 192.0
106.526291 112.0
106.542725 168.0
106.616692 132.0
106.731812 240.0
106.772934 148.0
106.818184 132.0
106.970459 192.0
106.986931 196.0
107.050758 144.0
107.102242 180.0
107.244415 204.0
107.293884 84.0
107.401115 172.0
107.419678 136.0
107.467133 108.0
107.917389 196.0
108.041481 88.0
108.219467 108.0
108.349945 140.0
108.565514 120.0
108.598694 40.0
109.097054 112.0
109.330002 52.0
109.457664 196.0
109.750786 60.0
109.938522 204.0
110.01992 112.0
110.203712 140.0
110.228783 100.0
110.343742 56.0
110.362556 220.0
110.38974 160.0
110.453339 232.0
110.500603 156.0
110.563538 156.0
110.584305 140.0
110.668037 148.0
110.705727 68.0
110.963455 108.0
111.101868 152.0
111.169014 164.0
111.231972 80.0
111.395767 108.0
111.555473 148.0
112.136414 112.0
112.153275 172.0
112.170135 228.0
112.24604 52.0
112.26712 168.0
112.400017 172.0
112.467552 104.0
112.530884 128.0
112.564667 192.0
112.976807 136.0
113.408783 244.0
113.430367 176.0
113.4851 152.0
113.688728 220.0
114.481667 184.0
114.564735 180.0
114.748016 200.0
114.938286 116.0
115.050957 120.0
115.138504 200.0
115.431274 140.0
115.50399 184.0
115.540352 212.0
115.670891 136.0
115.887192 148.0
116.068352 140.0
116.190338 192.0
116.277466 36.0
116.380501 240.0
116.49218 196.0
116.932968 100.0
117.079361 220.0
117.409088 128.0
117.454376 248.0
117.478111 156.0
117.521545 208.0
117.767349 176.0
117.86673 200.0
117.979118 72.0
118.059113 216.0
118.085068 52.0
118.134819 124.0
118.379387 180.0
118.42379 184.0
118.588165 240.0
118.65023 188.0
118.834579 128.0
118.882317 156.0
119.040115 180.0
119.061409 9312.0
119.092903 144.0
119.12114 80.0
119.249336 96.0
119.371078 240.0
119.391197 80.0
119.534225 136.0
119.633461 364.0
119.664825 168.0
119.714905 132.0
119.756287 88.0
119.839066 44.0
119.930588 124.0
119.980728 216.0
120.011604 228.0
120.037354 152.0
120.080956 5204.0
120.139923 52.0
120.235931 108.0
120.267212 40.0
120.380013 132.0
120.399666 192.0
120.432426 100.0
120.642616 104.0
120.692482 36.0
120.804024 96.0
120.841217 148.0
120.891541 140.0
120.979088 136.0
121.007553 156.0
121.032829 212.0
121.049149 144.0
121.077164 14692.0
121.13588 72.0
121.156471 36.0
121.171806 32.0
121.25946 64.0
121.312065 64.0
121.366875 192.0
121.479309 120.0
121.516022 244.0
121.66745 40.0
121.753082 268.0
121.845444 168.0
121.946419 80.0
121.966202 40.0
122.012367 52.0
122.08123 1560.0
122.192703 132.0
122.243309 156.0
122.261177 172.0
122.373177 184.0
122.390793 220.0
122.42823 72.0
122.501419 52.0
122.59565 208.0
122.730118 44.0
122.752296 136.0
122.924225 88.0
122.946289 52.0
122.963943 128.0
123.025749 92.0
123.054451 112.0
123.072113 132.0
123.111862 192.0
123.136154 140.0
123.255447 104.0
123.432281 196.0
123.742043 184.0
124.003433 40.0
124.098747 176.0
124.180801 172.0
124.19854 64.0
124.51815 204.0
124.593674 188.0
124.751457 148.0
124.882645 156.0
125.57309 164.0
125.780594 124.0
125.802917 108.0
125.970398 132.0
126.026245 48.0
126.29451 228.0
126.357147 224.0
126.453362 132.0
126.533951 96.0
126.572014 192.0
126.843407 208.0
126.87896 204.0
127.41758 180.0
127.840294 148.0
128.053024 332.0
128.252441 104.0
128.389969 136.0
128.459885 168.0
128.658478 144.0
128.778152 176.0
128.796219 128.0
128.927261 144.0
128.952133 164.0
129.010895 88.0
129.046036 172.0
129.160141 128.0
129.17598 84.0
129.261948 124.0
129.531357 248.0
129.839615 196.0
129.943954 136.0
130.065598 212.0
130.101791 44.0
130.427658 156.0
130.566345 144.0
130.634583 192.0
130.787033 148.0
130.891754 176.0
131.051529 140.0
131.079681 180.0
131.402313 232.0
131.479904 248.0
131.639694 64.0
131.740295 184.0
131.760757 76.0
131.900146 116.0
131.977478 252.0
132.047577 832.0
132.070709 520.0
132.339386 108.0
132.437866 240.0
132.467636 224.0
132.492844 108.0
132.639496 156.0
132.903229 172.0
133.015686 284.0
133.031754 164.0
133.052414 176.0
133.079651 184.0
133.220062 168.0
133.376312 84.0
133.668396 40.0
134.052948 172.0
134.147446 124.0
134.408051 248.0
134.50499 156.0
134.551147 116.0
134.719742 232.0
135.050278 200.0
135.302505 128.0
135.615234 92.0
135.789124 124.0
135.886536 152.0
136.162781 140.0
136.258011 60.0
136.378845 132.0
136.599747 168.0
136.720734 356.0
136.795212 56.0
136.81723 200.0
136.881348 116.0
136.932587 236.0
137.102661 168.0
137.135284 212.0
137.235519 196.0
137.464111 184.0
137.534134 200.0
137.700165 212.0
137.765305 32.0
138.176758 196.0
138.321838 112.0
138.541962 64.0
138.591171 200.0
138.827911 268.0
139.034363 260.0
139.081299 72.0
139.189285 128.0
139.339615 124.0
139.551132 196.0
139.765167 192.0
139.861664 136.0
139.967606 76.0
140.2668 152.0
140.56868 156.0
140.807114 68.0
140.870895 164.0
140.918137 160.0
140.979568 156.0
141.187607 224.0
141.35083 100.0
141.947769 160.0
142.142273 148.0
142.325043 160.0
142.531693 220.0
143.01445 184.0
143.076355 124.0
143.102539 164.0
143.183502 164.0
143.734161 132.0
143.791443 132.0
143.908401 152.0
144.08992 136.0
144.431763 196.0
144.450897 144.0
145.042343 216.0
145.157425 196.0
145.351715 172.0
145.462128 68.0
145.928177 160.0
145.973862 224.0
146.061783 1764.0
146.101334 132.0
146.257751 164.0
146.286636 176.0
146.31311 168.0
146.356461 84.0
146.423874 168.0
146.467239 232.0
146.486511 96.0
146.532272 140.0
146.593689 148.0
146.602905 220.0
146.612991 216.0
146.645538 136.0
146.667221 120.0
146.719803 164.0
146.805756 192.0
146.831177 200.0
146.876236 156.0
146.932236 232.0
146.960495 220.0
147.016037 376.0
147.057022 59724.0
147.151291 196.0
147.188171 76.0
147.252472 64.0
147.261261 80.0
147.291183 88.0
147.310196 96.0
147.369202 68.0
147.4534 376.0
147.487183 68.0
147.538651 64.0
147.558395 48.0
147.589432 68.0
147.608765 44.0
147.637329 104.0
147.686157 36.0
147.712769 72.0
147.744217 112.0
147.810745 128.0
147.867615 108.0
147.928131 60.0
148.01268 52.0
148.058807 7124.0
148.107956 180.0
148.135376 124.0
148.160614 48.0
148.315247 64.0
148.364182 40.0
148.405396 84.0
148.452499 80.0
148.495117 108.0
148.514526 40.0
148.56546 32.0
148.72319 80.0
148.808151 148.0
148.83728 44.0
148.884445 124.0
148.919144 68.0
148.928558 48.0
148.938065 96.0
148.956284 84.0
149.007309 88.0
149.024307 68.0
149.070526 3256.0
149.101242 376.0
149.125763 96.0
149.148254 68.0
149.172363 100.0
149.196869 104.0
149.227249 72.0
149.2612 148.0
149.316956 144.0
149.384109 60.0
149.451569 116.0
149.668869 84.0
149.690781 28.0
149.944855 48.0
150.027008 64.0
150.071579 468.0
150.30748 40.0
150.353851 104.0
150.407547 64.0
150.495438 80.0
150.666397 32.0
150.922607 192.0
150.928207 160.0
150.93634 116.0
152.197144 176.0
152.246246 188.0
152.636963 64.0
152.764862 60.0
152.890121 180.0
153.156235 144.0
153.602386 168.0
154.241928 128.0
154.343292 40.0
154.372955 164.0
154.657471 168.0
155.066132 100.0
155.105789 168.0
155.89006 148.0
156.0392 168.0
156.280457 136.0
156.494507 192.0
156.756241 152.0
156.98288 156.0
157.159988 72.0
157.584427 120.0
157.851929 192.0
158.001953 220.0
158.087021 148.0
158.432556 120.0
158.876282 84.0
159.054443 128.0
159.766342 212.0
159.909012 80.0
160.347244 148.0
160.425385 168.0
160.934998 108.0
161.068848 124.0
161.129471 72.0
161.344284 48.0
161.68576 56.0
161.961731 76.0
162.755508 148.0
163.111176 164.0
163.197617 188.0
163.317139 136.0
163.398529 144.0
163.43161 116.0
163.846603 128.0
163.887375 192.0
165.08197 132.0
165.409454 164.0
165.642471 128.0
166.094955 168.0
167.056885 132.0
167.564056 220.0
167.955887 128.0
168.128738 172.0
168.340424 80.0
168.562576 208.0
168.7099 148.0
168.903839 192.0
169.919327 216.0
169.942673 148.0
170.111359 220.0
170.519165 180.0
170.831177 128.0
172.531464 136.0
172.908127 156.0
173.059952 144.0
173.078278 200.0
173.110077 172.0
173.355942 116.0
173.806961 176.0
173.953934 128.0
174.127518 376.0
174.305862 52.0
174.455673 96.0
174.551392 116.0
174.587143 272.0
174.626587 96.0
174.676559 224.0
174.808105 136.0
174.897583 156.0
174.926544 116.0
174.993103 184.0
175.05188 25536.0
175.121765 668.0
175.213593 76.0
175.276825 88.0
175.313995 76.0
175.382233 44.0
175.40596 112.0
175.440231 52.0
175.516693 56.0
175.547729 88.0
175.586334 68.0
175.630081 48.0
175.756714 112.0
175.798935 76.0
175.89003 132.0
175.914093 184.0
176.012756 44.0
176.054352 2092.0
176.128952 544.0
176.292755 72.0
176.344727 36.0
176.602081 176.0
176.62059 56.0
176.790802 60.0
177.054749 228.0
177.20224 172.0
177.21315 124.0
177.216721 152.0
177.396439 72.0
177.449463 84.0
177.550232 116.0
177.595322 72.0
177.640228 60.0
177.929672 60.0
178.043839 60.0
178.394562 124.0
178.564743 80.0
179.60881 68.0
179.913025 160.0
180.388519 156.0
180.704086 148.0
180.915512 92.0
182.32637 236.0
183.524246 92.0
184.007187 140.0
184.115204 136.0
184.347519 152.0
184.420502 120.0
185.075668 160.0
185.882919 44.0
186.355362 64.0
186.681549 60.0
187.095123 244.0
187.119614 48.0
187.23671 92.0
187.492798 168.0
187.678162 48.0
187.819962 56.0
189.079514 36.0
189.967255 128.0
190.076996 328.0
190.129135 140.0
191.20369 180.0
191.751755 160.0
191.798615 180.0
192.044006 80.0
192.077103 188.0
192.524216 68.0
193.054886 144.0
193.162674 40.0
193.403397 120.0
194.059952 48.0
194.107086 100.0
195.106613 132.0
198.207458 124.0
199.377625 164.0
199.979492 28.0
200.1315 148.0
200.734497 192.0
201.008118 108.0
201.070206 180.0
201.102798 896.0
201.416382 164.0
201.753754 92.0
202.062012 172.0
202.102783 160.0
202.121429 160.0
203.069824 352.0
203.121979 1004.0
204.092758 252.0
204.113998 128.0
204.149628 192.0
205.131897 144.0
205.242645 128.0
205.554001 144.0
207.066269 124.0
208.121552 44.0
209.012604 104.0
209.303314 168.0
209.937271 52.0
211.025848 144.0
211.06633 188.0
211.433716 84.0
212.09407 152.0
212.5755 52.0
213.080704 100.0
214.970398 236.0
215.078384 136.0
216.584229 144.0
217.133957 1088.0
218.130524 2652.0
218.174683 40.0
218.518768 188.0
218.580566 80.0
218.944809 76.0
218.995651 36.0
219.08107 60.0
219.134613 164.0
219.181244 168.0
219.251968 100.0
219.281448 68.0
219.558578 220.0
219.667694 92.0
220.343735 60.0
220.367371 92.0
220.497391 148.0
220.69249 124.0
220.722061 108.0
220.816681 76.0
220.961624 116.0
221.100693 224.0
221.301987 148.0
222.191116 88.0
222.318695 244.0
222.57399 96.0
223.058243 212.0
223.221756 148.0
223.548981 116.0
223.593613 92.0
226.600571 128.0
227.119171 144.0
227.293182 232.0
227.539291 136.0
228.729721 216.0
229.096558 964.0
230.10524 512.0
230.294617 144.0
230.515152 164.0
232.601868 120.0
234.109879 192.0
234.719315 56.0
234.978577 88.0
236.029251 152.0
236.579971 164.0
236.647324 100.0
236.809616 164.0
236.889252 76.0
237.882797 240.0
238.033234 184.0
238.653915 212.0
239.410889 52.0
239.487885 44.0
240.400436 92.0
241.194168 188.0
242.082092 224.0
242.271027 116.0
242.850677 200.0
243.049225 156.0
243.244751 152.0
243.608063 112.0
244.466187 116.0
244.690292 88.0
244.72142 192.0
245.035995 92.0
245.129654 4032.0
245.176208 60.0
245.219833 76.0
245.316467 68.0
245.462997 36.0
245.531601 228.0
245.60022 88.0
245.650131 96.0
245.671967 124.0
245.693802 124.0
245.718765 92.0
245.746841 76.0
245.785889 136.0
245.840454 300.0
245.890381 76.0
245.9216 108.0
246.054825 188.0
246.125748 33868.0
246.202576 92.0
246.224442 80.0
246.31665 44.0
246.34404 124.0
246.394226 124.0
246.47142 44.0
246.497513 96.0
246.556076 52.0
246.618103 60.0
246.649796 84.0
246.670319 136.0
246.693115 84.0
246.745117 140.0
246.830688 180.0
246.877594 84.0
247.001907 208.0
247.090286 296.0
247.127808 6288.0
247.228897 200.0
247.32811 72.0
247.365677 80.0
247.408768 68.0
247.451645 104.0
247.59111 160.0
247.659668 112.0
247.690994 76.0
247.775909 84.0
247.797836 64.0
247.829178 144.0
247.871063 140.0
247.995255 72.0
248.036011 116.0
248.130966 284.0
248.178757 64.0
248.266602 80.0
248.382431 108.0
248.418564 116.0
248.562881 112.0
248.598557 152.0
248.658218 72.0
248.72905 116.0
248.82045 64.0
248.854797 136.0
248.881393 152.0
249.011795 92.0
249.077011 84.0
249.373108 20.0
249.505127 68.0
249.637192 104.0
249.857361 116.0
250.62558 44.0
250.786301 56.0
251.252991 40.0
252.652496 92.0
255.650909 60.0
256.593719 76.0
256.794617 64.0
258.001617 112.0
258.583771 32.0
259.650635 80.0
259.70517 48.0
260.103027 148.0
263.028961 112.0
265.089142 56.0
265.131256 180.0
266.416168 84.0
268.026642 44.0
268.783112 100.0
269.155212 96.0
271.927979 48.0
273.160126 100.0
273.696564 112.0
273.904053 92.0
274.068756 60.0
274.11554 544.0
275.129456 436.0
276.959412 108.0
277.715118 100.0
277.814606 40.0
282.31778 92.0
282.735931 28.0
285.130463 56.0
289.367188 80.0
291.132629 180.0
291.53125 124.0
291.71817 116.0
292.126221 172.0
292.837616 140.0
293.099945 124.0
293.461243 80.0
294.051361 60.0
301.808197 92.0
305.842834 84.0
308.476379 112.0
314.588745 64.0
315.213867 88.0
323.37204 60.0
325.706177 56.0
328.957764 64.0
332.787994 136.0
333.5 116.0
333.758118 28.0
340.933838 88.0
347.543671 48.0
366.785126 76.0
367.013855 100.0
369.366364 80.0
374.760162 52.0
379.421173 88.0
381.136658 72.0
382.221497 48.0
384.977417 48.0
387.55127 76.0
388.97876 160.0
414.526703 72.0
416.270966 32.0
435.932281 68.0
474.151093 68.0
477.150482 100.0
491.631531 92.0
505.567993 80.0
506.096191 140.0
508.243164 88.0
508.934357 92.0
527.249146 100.0
539.567932 44.0
560.652588 120.0
568.526428 88.0
588.902832 76.0
613.620056 100.0
635.830566 180.0
670.950867 44.0
671.806946 68.0
683.895813 28.0
698.515381 156.0
700.452454 172.0
705.978333 88.0
731.788879 40.0
750.394165 56.0
759.296265 36.0
775.777039 72.0
776.032104 164.0
778.828918 88.0
788.18811 76.0
788.691101 136.0
796.198608 172.0
808.856262 164.0
814.214111 148.0
817.357666 40.0
819.86322 240.0
838.604004 64.0
857.381775 140.0
858.326111 136.0
860.298096 92.0
883.067383 84.0
883.428223 52.0
902.376221 196.0
906.134094 140.0
908.262207 148.0
936.312683 244.0
939.482178 204.0
948.851074 140.0
956.00061 236.0
965.259644 232.0
966.484314 148.0
967.14032 228.0
969.921387 132.0
970.88855 104.0
979.097961 220.0
983.043945 196.0
984.579651 120.0
994.433838 164.0
1001.362183 148.0
1003.567749 176.0
1010.996033 108.0
1013.522583 140.0
1024.602905 116.0
1025.839233 200.0
1028.148071 72.0
1029.756836 232.0
1031.571533 148.0
1033.848022 156.0
1040.617188 148.0
1040.674927 144.0
1041.053833 88.0
1043.91333 212.0
1044.408569 188.0
1044.903931 188.0
1053.626465 188.0
1056.41272 208.0
1060.82251 220.0
1064.111694 188.0
1064.657104 52.0
1066.411133 136.0
1071.401978 100.0
1087.395752 164.0
1087.441772 72.0
1089.733521 120.0
1089.910889 120.0
1091.494995 224.0
1092.224976 116.0
1100.251099 128.0
1100.680176 180.0
1102.073853 144.0
1104.144043 108.0
1107.730225 180.0
1110.666626 120.0
1110.97168 112.0
1111.323364 172.0
1120.87793 156.0
1126.609009 88.0
1129.342896 172.0
1132.488647 100.0
1133.774902 104.0
1134.867554 68.0
1137.202026 136.0
1137.408325 144.0
1143.997559 172.0
1144.670776 148.0
1156.830078 144.0
1159.051514 44.0
1164.47168 152.0
1164.532837 216.0
1167.169434 228.0
1170.986328 176.0
1175.192993 76.0
1179.071533 180.0
1179.522583 152.0
1182.846924 128.0
1184.545044 152.0
1188.960449 160.0
1189.880249 180.0
1190.07251 196.0
1190.505127 192.0
1196.190918 136.0
1204.037109 152.0
1204.49292 192.0
1205.017944 96.0
1206.863281 176.0
1207.561768 100.0
1209.665161 152.0
1211.029175 148.0
1211.749634 192.0
1217.110962 52.0
1219.000244 140.0
1219.257446 136.0
1221.99707 88.0
1224.001587 144.0
1226.202881 228.0
1226.411987 148.0
1229.620239 36.0
1230.813843 200.0
1233.664307 176.0
1238.429443 148.0
1248.444214 212.0
1250.026978 120.0
1251.69519 88.0
1255.126709 168.0
1255.373413 164.0
1256.269165 168.0
1258.315796 44.0
1264.069092 180.0
1270.105103 188.0
1270.218628 116.0
1270.786133 164.0
1274.030518 196.0
1276.091431 152.0
1277.748535 168.0
1282.740479 104.0
1283.503296 96.0
1285.935913 216.0
1286.999512 140.0
1293.225952 148.0
1297.409058 160.0
1300.558105 216.0
1301.785767 220.0
1304.098999 92.0
1304.508667 196.0
1305.105469 160.0
1305.824463 116.0
1306.723633 108.0
1307.846191 52.0
1308.875732 216.0
1312.975952 56.0
1316.143677 108.0
1316.793701 128.0
1319.669556 100.0
1322.143433 136.0
1327.489624 160.0
1328.795166 184.0
1329.252197 60.0
1329.665894 104.0
1329.840088 200.0
1332.258057 216.0
1332.468628 240.0
1334.612671 128.0
1335.04895 160.0
1335.943604 148.0
1337.042236 64.0
1340.545044 128.0
1340.836548 220.0
1344.657959 176.0
1346.227539 156.0
1349.925049 152.0
1351.307495 140.0
1351.951416 152.0
1353.136353 164.0
1358.296143 152.0
1361.944092 184.0
1363.104858 160.0
1364.141113 156.0
1364.280762 204.0
1365.927979 200.0
1370.713257 240.0
1370.772217 112.0
1371.044922 176.0
1371.877686 108.0
1372.54126 172.0
1373.817139 188.0
1374.385254 188.0
1374.45166 156.0
1374.614136 180.0
1375.182251 152.0
1376.843384 144.0
1377.308594 140.0
1382.698364 196.0
1382.838989 212.0
1383.638428 104.0
1384.549194 160.0
1385.386108 124.0
1385.867676 128.0
1385.978882 124.0
1386.075195 144.0
1391.051514 140.0
1392.196899 76.0
1393.30896 152.0
1394.966187 168.0
1395.427124 212.0
1397.747681 164.0
1400.54187 184.0
1401.358765 156.0
1401.597168 132.0
1403.035645 88.0
1403.132568 172.0
1403.721558 124.0
1404.154053 164.0
1404.609009 176.0
1404.855225 184.0
1405.086426 140.0
1405.660889 180.0
1406.810303 160.0
1410.403198 152.0
1410.612549 180.0
1410.732056 136.0
1414.015625 180.0
1415.115967 208.0
1416.531372 180.0
1418.472168 92.0
1421.366943 212.0
1422.68042 124.0
1422.770508 224.0
1423.648926 44.0
1425.316528 196.0
1426.083008 92.0
1426.985107 168.0
1427.067749 204.0
1430.837036 240.0
1431.740479 108.0
1436.677368 108.0
1437.718628 180.0
1438.043091 168.0
1438.631836 40.0
1441.169434 96.0
1441.464111 168.0
1443.27063 156.0
1445.275024 200.0
1445.51709 52.0
1445.683594 128.0
1445.842529 140.0
1449.484863 228.0
1449.583374 196.0
1451.175049 240.0
1451.614868 156.0
1453.10144 132.0
1453.260742 152.0
1454.748291 28.0
1456.441528 180.0
1457.109985 104.0
1458.227051 184.0
1459.298828 152.0
1460.226562 160.0
1460.736084 140.0
1462.113281 180.0
1462.774658 184.0
1463.376831 200.0
1464.199219 88.0
1465.326538 120.0
1466.980225 148.0
1467.483276 204.0
1467.620605 192.0
1471.374268 176.0
1471.626221 168.0
1473.74939 236.0
1475.400269 192.0
1475.713623 236.0
1476.845459 112.0
1477.08252 196.0
1477.541504 156.0
1477.924072 200.0
1478.138306 236.0
1479.033691 224.0
1480.718018 64.0
1481.422729 208.0
1481.644897 164.0
1482.135254 152.0
1482.594971 248.0
1484.197021 172.0
1484.856567 164.0
1486.390747 160.0
1488.240601 56.0
1488.294312 52.0
1488.731934 136.0
1489.960938 164.0
1490.698486 124.0
1490.882935 124.0
1492.251099 216.0
1492.84314 156.0
1493.989136 156.0
1494.335327 80.0
1494.596924 156.0
1495.652222 180.0
1497.006226 204.0
1497.614624 100.0
1499.178467 196.0
1499.702637 148.0
1500.697021 128.0
1501.113403 184.0
1503.273193 176.0
1503.381226 228.0
