>compound MLS002153939-01!Vitexin3681-93-4
>formula C21H20O10
>ionization [M+H]+
>parentmass 433.1129232920905
#inchi InChI=1S/C21H20O10/c22-7-14-17(27)18(28)19(29)21(31-14)16-11(25)5-10(24)15-12(26)6-13(30-20(15)16)8-1-3-9(23)4-2-8/h1-6,14,17-19,21-25,27-29H,7H2/t14-,17-,18+,19-,21?/m1/s1
#inchikey SGEWCQFRYRRZDC
#Ion_Source LC-ESI
#Instrument qTof
#Compound_Source NIH Pharmacologically Active Library
#PI Dorrestein
#Data_Collector VP/LMS
#Scan -1
#Precursor_MZ 433.115
#ExactMass 432.106
#Charge 1
#CAS_Number N/A
#Pubmed_ID N/A
#Smiles OC[C@H]1OC([C@H](O)[C@@H](O)[C@@H]1O)c2c(O)cc(O)c3c(=O)cc(oc23)c4ccc(O)cc4
#INCHI_AUX N/A
#Library_Class 1
#SpectrumID CCMSLIB00000084922
#IonMode Positive
#UpdateWorkflowName UPDATE-SINGLE-ANNOTATED-GOLD
#LibraryQualityString Gold
#TaskID d252d724072548979f1f6f1ced849daf
##Scan# 1399
#SpectrumFile p3-C07_GC7_01_18252.mzXML
#LibraryName Pharm_Active_Library.mgf
#MQScore -1
#Organism Pharm_Active_Library
#TIC_Query 0
#RT_Query -1
#MZErrorPPM -1
#SharedPeaks 0
#MassDiff 0
#LibMZ -1
#SpecMZ 433.115
#SpecCharge 0
#internalFilename spec-00000.mgf

>collision 10
45.151604 44.0
46.314545 68.0
46.550533 140.0
47.308643 140.0
47.574604 236.0
49.820396 140.0
50.757603 184.0
51.845322 212.0
53.860905 212.0
54.127087 140.0
54.45853 120.0
54.749744 128.0
55.13628 56.0
59.956253 92.0
60.3097 220.0
60.591343 128.0
60.954422 212.0
61.340408 164.0
62.196064 224.0
62.764011 112.0
62.940742 144.0
63.294945 164.0
63.315533 144.0
63.331371 156.0
64.397057 108.0
64.638466 156.0
64.779358 140.0
65.201355 172.0
65.357346 156.0
65.445877 168.0
66.306908 180.0
67.266586 176.0
67.694954 208.0
67.89325 164.0
69.446915 188.0
69.564728 120.0
69.63945 92.0
73.30909 216.0
73.506905 144.0
73.663986 148.0
74.218506 140.0
74.30426 204.0
74.324852 128.0
75.192184 116.0
75.406349 160.0
77.176079 188.0
77.889359 168.0
78.181229 156.0
78.44014 140.0
81.42955 184.0
81.501411 164.0
81.654213 180.0
81.906204 176.0
82.178421 128.0
82.433022 144.0
84.753151 140.0
85.200829 192.0
85.232063 36.0
86.036949 168.0
86.10527 88.0
86.310394 192.0
87.810928 176.0
88.537949 160.0
88.790955 88.0
88.849106 80.0
89.222839 168.0
89.63504 160.0
91.055779 96.0
91.120369 92.0
91.25531 196.0
91.447449 120.0
91.552155 180.0
91.582634 152.0
92.055611 180.0
92.460899 136.0
92.512581 108.0
93.035942 132.0
93.080101 172.0
93.743759 176.0
94.49102 168.0
95.16745 216.0
95.390869 244.0
95.780052 124.0
96.349678 132.0
96.956268 164.0
97.150383 28.0
97.916977 160.0
98.550209 120.0
99.038849 92.0
100.304596 88.0
100.983482 80.0
101.241661 172.0
101.644592 92.0
102.087502 248.0
102.910683 144.0
105.035522 204.0
106.332924 144.0
106.507278 208.0
106.848526 216.0
107.013359 176.0
107.904488 180.0
108.012024 216.0
109.030052 160.0
109.325363 232.0
114.728439 148.0
114.967331 152.0
115.039902 204.0
115.086876 160.0
117.838303 112.0
118.041489 124.0
118.665085 196.0
119.050697 388.0
119.867088 184.0
120.052383 152.0
120.213814 200.0
120.790611 156.0
121.027596 1192.0
121.926376 112.0
122.029694 136.0
123.116035 128.0
124.213844 228.0
124.240463 32.0
126.058403 192.0
126.782394 124.0
127.062683 184.0
127.873886 104.0
127.952675 68.0
128.04274 180.0
128.229752 56.0
130.525299 208.0
130.884811 128.0
130.941742 140.0
131.379395 132.0
132.900848 140.0
133.070694 136.0
134.234985 208.0
134.883759 96.0
135.66156 40.0
135.695236 188.0
136.160431 240.0
137.060699 192.0
137.517792 64.0
137.730255 124.0
138.028519 324.0
138.38974 76.0
138.649765 136.0
138.987442 172.0
139.024994 128.0
139.050812 132.0
143.081192 156.0
143.112152 184.0
143.519592 204.0
143.927612 152.0
144.276443 144.0
145.025665 168.0
145.064438 192.0
145.16954 144.0
145.337448 64.0
145.464645 92.0
145.767273 120.0
145.998047 176.0
146.411987 168.0
146.976074 180.0
147.046371 184.0
147.08226 112.0
147.901672 192.0
148.046936 140.0
148.102646 140.0
148.248016 44.0
148.669983 168.0
148.871475 212.0
149.023865 292.0
149.576553 108.0
150.019897 132.0
150.564026 144.0
152.779877 160.0
152.905365 156.0
153.017334 304.0
153.839554 164.0
154.101334 148.0
155.15567 180.0
155.537689 96.0
155.572449 168.0
157.020615 176.0
157.065201 164.0
158.63588 168.0
159.044754 136.0
159.072372 164.0
159.612534 188.0
159.6754 116.0
160.012589 220.0
160.521561 192.0
161.061661 148.0
161.230942 140.0
162.49704 216.0
162.621384 100.0
162.867661 136.0
162.999771 124.0
163.041565 552.0
164.25238 168.0
164.824249 108.0
165.017807 560.0
165.335693 144.0
166.209534 176.0
167.035049 200.0
168.268646 80.0
168.837128 84.0
169.258926 176.0
169.958786 196.0
170.506714 104.0
171.032104 304.0
171.933899 188.0
172.851151 124.0
173.025253 168.0
173.055313 136.0
174.022797 152.0
174.06218 212.0
174.209259 124.0
174.750839 212.0
175.03775 160.0
175.807495 188.0
175.828598 172.0
177.354706 212.0
178.02063 76.0
178.549469 140.0
179.032883 180.0
179.065796 172.0
179.534851 120.0
181.125122 212.0
181.194763 184.0
182.071899 172.0
183.053467 172.0
183.075012 96.0
183.355194 168.0
183.630188 124.0
183.649063 140.0
183.703018 232.0
184.048477 172.0
184.280762 176.0
185.057007 180.0
185.91629 236.0
186.057434 140.0
187.039124 284.0
189.01918 208.0
190.35788 132.0
191.032166 292.0
191.163315 172.0
192.050446 100.0
192.293243 52.0
192.376053 64.0
192.538956 52.0
193.032333 120.0
193.059616 260.0
193.22171 136.0
193.29364 36.0
194.499222 168.0
195.031143 232.0
195.254959 92.0
196.240723 160.0
196.804337 120.0
196.99704 136.0
197.061935 172.0
198.057205 132.0
199.04158 188.0
199.072464 136.0
200.043182 128.0
200.180435 40.0
201.013672 160.0
201.596558 228.0
202.094223 172.0
202.198929 260.0
203.07724 144.0
203.119781 124.0
203.872177 40.0
205.056091 376.0
205.252792 100.0
206.02626 140.0
206.930008 144.0
206.958633 120.0
207.024506 168.0
207.119019 168.0
207.1763 244.0
207.342499 156.0
208.754929 148.0
209.177872 220.0
209.618515 108.0
210.053879 144.0
210.073074 208.0
210.339539 212.0
211.01265 80.0
211.072433 124.0
211.139877 88.0
211.322128 220.0
211.55365 40.0
211.672348 176.0
211.817169 164.0
212.893204 68.0
212.919342 128.0
213.052582 292.0
213.273804 100.0
214.047668 108.0
214.519653 204.0
215.029587 68.0
215.070953 92.0
216.123169 164.0
216.99292 148.0
217.046631 452.0
217.124863 208.0
218.017349 156.0
218.055084 148.0
219.014725 136.0
219.070694 176.0
221.053162 248.0
221.981979 204.0
222.177734 120.0
223.633789 120.0
223.684387 108.0
225.342514 136.0
226.656036 144.0
227.065552 316.0
227.351746 116.0
227.850189 188.0
228.079041 276.0
228.47551 160.0
228.571793 176.0
229.04747 160.0
229.083618 172.0
229.541733 136.0
231.067154 136.0
231.421173 148.0
233.037781 88.0
233.128952 128.0
233.642807 116.0
234.056732 228.0
234.132874 148.0
234.390091 200.0
235.050446 132.0
235.474777 164.0
235.560303 152.0
236.073776 136.0
236.443954 104.0
237.044174 32.0
237.068695 128.0
237.960129 200.0
238.064667 156.0
238.790985 112.0
239.064789 32.0
239.129425 56.0
241.049576 160.0
241.98793 48.0
242.054764 164.0
243.029968 668.0
243.061295 484.0
243.156586 76.0
243.585068 100.0
244.03273 172.0
244.079224 156.0
244.34671 196.0
244.505402 184.0
244.53653 176.0
245.087723 120.0
245.209259 56.0
245.380707 176.0
245.645782 60.0
245.683212 56.0
246.004654 140.0
247.070297 112.0
247.420822 152.0
248.831619 136.0
249.046768 172.0
249.447372 240.0
250.624405 204.0
250.804047 136.0
252.891846 160.0
253.040634 184.0
253.075455 144.0
253.363663 228.0
253.563293 96.0
254.689651 88.0
255.062439 620.0
255.296692 156.0
255.484344 108.0
255.684814 128.0
255.818497 164.0
256.070007 1196.0
256.270721 116.0
257.068085 140.0
257.754456 48.0
258.579529 156.0
258.928497 152.0
259.057922 268.0
259.287323 148.0
259.431549 36.0
260.400604 228.0
261.037933 268.0
261.239532 148.0
261.403625 120.0
261.731964 200.0
262.036407 248.0
263.544678 36.0
264.084564 108.0
265.042816 164.0
265.428528 240.0
265.662048 160.0
266.044983 160.0
266.074219 124.0
266.772675 212.0
267.062073 284.0
267.88559 132.0
268.062347 224.0
269.673737 136.0
269.928741 136.0
270.053162 156.0
271.055908 876.0
271.17276 40.0
272.028839 180.0
272.061676 128.0
272.508331 148.0
272.593781 224.0
273.02771 164.0
273.067169 124.0
273.350098 120.0
273.850494 48.0
274.041565 116.0
274.415955 140.0
275.343689 148.0
276.663879 152.0
277.064575 160.0
277.097717 212.0
277.684448 212.0
278.384705 136.0
278.500946 76.0
279.069702 312.0
279.308655 224.0
279.558167 64.0
279.754547 88.0
279.897705 128.0
280.073578 124.0
280.410736 48.0
280.58075 92.0
280.734131 100.0
280.900879 208.0
281.077698 180.0
281.107758 40.0
281.197845 132.0
281.496582 208.0
281.822327 60.0
282.032867 192.0
282.320374 100.0
282.832275 64.0
282.855713 56.0
282.929352 52.0
282.989624 128.0
283.060669 7452.0
283.193878 44.0
283.259247 252.0
283.294373 56.0
283.46524 104.0
283.522217 220.0
283.545685 144.0
283.599304 212.0
283.711212 104.0
283.749207 56.0
283.983154 108.0
284.068268 6448.0
284.191162 88.0
284.300018 56.0
284.353943 56.0
284.427795 48.0
284.454651 220.0
284.481506 88.0
284.625885 40.0
284.928589 64.0
285.07074 1740.0
285.375153 68.0
285.772034 124.0
285.916748 76.0
285.953766 36.0
285.987427 116.0
286.072327 312.0
286.169464 128.0
286.56662 44.0
286.701416 124.0
286.842987 64.0
287.075714 148.0
287.170044 76.0
287.193665 68.0
287.352203 56.0
288.088165 72.0
288.375397 92.0
288.419342 160.0
288.9198 76.0
289.024689 44.0
289.610352 128.0
290.264435 104.0
290.932831 268.0
291.024506 124.0
292.741699 100.0
293.078918 132.0
294.078094 156.0
294.14978 40.0
294.248779 144.0
295.014038 176.0
295.059723 1612.0
295.38678 84.0
295.77002 44.0
295.824799 208.0
296.060852 368.0
296.355621 88.0
296.396759 164.0
296.849243 52.0
296.962402 176.0
297.016937 160.0
297.073578 3576.0
297.168243 132.0
297.274597 56.0
297.398163 60.0
298.046204 156.0
298.077454 716.0
298.425293 64.0
298.535339 68.0
298.721069 164.0
299.05127 272.0
299.292358 72.0
299.447327 116.0
299.643677 112.0
299.743622 160.0
300.071045 132.0
300.19519 80.0
301.406799 176.0
305.084869 128.0
306.803864 84.0
307.059113 136.0
307.091461 168.0
307.518951 80.0
308.064301 268.0
308.89566 172.0
309.011108 160.0
309.077637 176.0
309.252563 52.0
310.075165 184.0
310.808533 88.0
311.049805 424.0
311.096344 516.0
311.141968 88.0
311.412354 84.0
311.44046 124.0
311.714478 68.0
312.023804 68.0
312.067413 376.0
312.315674 40.0
312.400085 56.0
312.547852 112.0
312.67807 108.0
313.001923 136.0
313.069916 10732.0
313.122925 156.0
313.170959 84.0
313.213226 28.0
313.244934 28.0
313.31012 64.0
313.491577 64.0
313.632538 40.0
313.674835 84.0
313.834656 132.0
313.992188 228.0
314.073181 2324.0
314.157959 104.0
314.249695 36.0
314.390839 80.0
314.436707 36.0
314.461426 36.0
314.976929 56.0
315.077057 528.0
315.549408 120.0
315.634277 72.0
315.787567 104.0
315.970276 176.0
316.06012 284.0
316.19165 172.0
316.225067 128.0
316.292328 68.0
316.320618 272.0
316.398529 68.0
316.50827 44.0
316.798706 108.0
317.055084 176.0
317.787811 80.0
317.919128 180.0
318.075287 192.0
318.586639 44.0
318.906433 108.0
319.059296 188.0
321.062347 132.0
322.081177 108.0
322.906799 204.0
323.053009 676.0
323.088715 1788.0
323.268127 92.0
323.325409 136.0
323.651154 192.0
324.058716 128.0
324.09314 532.0
324.202789 140.0
324.235046 88.0
324.805145 68.0
325.023987 168.0
325.069244 820.0
325.257263 172.0
325.910889 64.0
326.070282 428.0
326.119324 52.0
326.687439 64.0
327.082794 256.0
328.097809 292.0
329.055206 188.0
329.322418 84.0
329.719849 168.0
331.482239 88.0
331.906342 60.0
332.631927 76.0
333.081207 132.0
333.216614 92.0
335.061157 124.0
335.18869 212.0
335.400085 80.0
335.447449 72.0
335.604218 100.0
335.921509 96.0
336.092987 36.0
337.070526 1656.0
337.363983 76.0
338.073456 676.0
338.168701 56.0
338.736237 64.0
339.086334 248.0
340.0979 128.0
340.562927 60.0
341.066437 132.0
341.165558 116.0
342.085236 128.0
343.081604 1212.0
343.699493 168.0
343.732727 104.0
344.0849 428.0
345.080902 128.0
345.450714 68.0
346.991333 152.0
347.321381 32.0
349.067047 308.0
349.479767 40.0
350.060455 100.0
350.447845 108.0
350.745972 212.0
351.086456 944.0
351.197144 56.0
352.084381 292.0
353.079529 132.0
354.08252 80.0
354.873199 160.0
355.078888 188.0
356.081512 184.0
357.01355 92.0
361.073486 256.0
361.283295 140.0
361.324921 84.0
367.074524 1644.0
367.144135 136.0
367.598114 84.0
368.087616 348.0
368.132538 80.0
369.105255 80.0
370.031647 144.0
370.113312 116.0
370.450348 76.0
371.090363 184.0
372.0802 148.0
372.84845 44.0
377.149719 104.0
377.19223 120.0
377.807098 164.0
378.120514 108.0
378.825226 44.0
378.860077 164.0
379.081451 1476.0
379.313477 60.0
379.348358 56.0
379.379395 80.0
379.573242 56.0
379.782654 76.0
380.090637 104.0
380.186157 68.0
382.658325 148.0
383.542633 56.0
386.898224 104.0
394.33667 68.0
396.632355 48.0
397.090729 2544.0
397.278717 100.0
397.369965 104.0
397.623932 68.0
397.792603 80.0
398.090271 264.0
398.767761 60.0
399.0979 164.0
399.722198 84.0
400.498535 52.0
400.566223 92.0
400.633972 56.0
401.706299 88.0
403.943298 72.0
405.160278 132.0
405.913788 60.0
408.142365 104.0
415.101288 648.0
415.472961 48.0
415.623077 60.0
416.110504 116.0
416.57309 132.0
416.617798 64.0
417.107269 152.0
417.438812 56.0
420.775879 148.0
433.117767 264.0
433.241486 96.0
434.116028 168.0
447.028687 168.0
461.019043 52.0
471.233032 112.0
478.745911 132.0
480.441437 56.0
527.797241 92.0
551.771851 60.0
552.478027 116.0
609.737671 84.0
640.886414 76.0
641.128296 80.0
648.334839 40.0
679.568848 72.0
686.63446 40.0
692.765686 56.0
722.283936 32.0
731.255188 52.0
745.832031 72.0
747.550659 104.0
775.422729 56.0
787.490601 52.0
800.918457 84.0
813.182373 56.0
820.799805 84.0
844.819458 44.0
847.424744 76.0
995.546143 72.0
998.342712 88.0
1052.977173 72.0
1085.963257 56.0
1093.413696 100.0
1102.177856 80.0
1174.388794 164.0
1259.160034 48.0
1285.241577 164.0
1303.537109 164.0
1347.542603 164.0
1362.613525 176.0
1434.215576 224.0
1454.282349 152.0
