>compound MLS001048961-01!2-(3,4-dimethoxyphenyl)-N-[2-(3,4-dimethoxyphenyl)ethyl]acetamide
>formula C20H25NO5
>ionization [M+H]+
>parentmass 360.181
#inchi InChI=1S/C20H25NO5/c1-23-16-7-5-14(11-18(16)25-3)9-10-21-20(22)13-15-6-8-17(24-2)19(12-15)26-4/h5-8,11-12H,9-10,13H2,1-4H3,(H,21,22)
#inchikey KDIKNBJFJOYFNY
#Ion_Source LC-ESI
#Instrument qTof
#Compound_Source NIH Natural Product Library
#PI Dorrestein
#Data_Collector VVP/LMS
#Scan -1
#Precursor_MZ 360.181
#ExactMass 359.173
#Charge 1
#CAS_Number N/A
#Pubmed_ID N/A
#Smiles COc1ccc(CCNC(=O)Cc2ccc(OC)c(OC)c2)cc1OC
#INCHI_AUX N/A
#Library_Class 1
#SpectrumID CCMSLIB00000079967
#IonMode Positive
#UpdateWorkflowName UPDATE-SINGLE-ANNOTATED-GOLD
#LibraryQualityString Gold
#TaskID b1d8e8f6646f4e71acdff9ca3d919d08
##Scan# 1831
#SpectrumFile p2-D02_GD2_01_18014.mzXML
#LibraryName NIH_Natural_Products_Library.mgf
#MQScore -1
#Organism NIH_Natural_Products_Library
#TIC_Query 0
#RT_Query -1
#MZErrorPPM -1
#SharedPeaks 0
#MassDiff 0
#LibMZ -1
#SpecMZ 360.181
#SpecCharge 0
#internalFilename spec-00000.mgf

>collision 10
95.046745 144.0
95.079735 140.0
95.093323 172.0
95.254478 148.0
95.297218 268.0
95.345795 96.0
95.456604 140.0
95.514954 160.0
95.68425 192.0
96.087677 192.0
96.122795 116.0
96.232101 176.0
96.501724 204.0
96.574081 176.0
96.599503 224.0
96.761932 268.0
96.852013 116.0
96.95977 188.0
96.977409 140.0
97.95002 112.0
98.044594 136.0
98.107666 128.0
98.216118 172.0
98.674263 228.0
98.883942 152.0
99.019157 120.0
99.294044 184.0
99.540123 164.0
99.595726 40.0
99.959541 160.0
100.013275 68.0
100.501518 120.0
100.753082 76.0
100.922966 32.0
101.147026 112.0
101.199074 216.0
101.291199 180.0
101.339272 100.0
101.549759 116.0
102.015602 132.0
102.041733 156.0
102.176483 160.0
102.255333 108.0
102.341515 208.0
102.470421 220.0
102.496613 176.0
102.732498 84.0
103.055023 972.0
103.253616 116.0
104.062569 320.0
104.135231 196.0
104.153511 48.0
104.362831 204.0
104.480789 200.0
104.65786 152.0
104.751541 168.0
104.975731 160.0
105.030449 328.0
105.070297 1748.0
105.145683 52.0
105.261414 36.0
105.283875 96.0
105.316551 48.0
105.39064 180.0
105.602699 108.0
105.649742 172.0
105.870796 168.0
106.043045 204.0
106.073715 204.0
106.133087 64.0
106.227425 148.0
106.496315 68.0
106.666862 172.0
106.740875 112.0
106.97953 176.0
107.020706 160.0
107.050804 2888.0
107.076309 148.0
107.296783 148.0
107.604187 160.0
107.670265 56.0
107.955452 84.0
108.057106 508.0
108.083694 100.0
108.659691 92.0
108.783714 252.0
109.06559 212.0
109.241371 192.0
109.376625 152.0
109.416176 212.0
109.447411 256.0
109.747444 68.0
109.79332 132.0
109.871254 220.0
109.996094 192.0
110.317398 140.0
110.993637 152.0
111.060745 164.0
111.115288 132.0
111.383987 44.0
111.642502 56.0
112.120384 156.0
112.238434 188.0
112.295372 168.0
112.918411 164.0
112.977638 176.0
113.329079 156.0
113.589836 212.0
113.676826 176.0
113.865761 232.0
114.108002 132.0
114.339859 88.0
114.412231 140.0
114.614563 80.0
114.804276 80.0
114.913063 164.0
115.075264 144.0
115.29528 160.0
115.335892 236.0
115.765915 116.0
115.924438 200.0
116.261116 164.0
116.282578 136.0
117.067261 224.0
117.284859 88.0
117.576019 132.0
117.625664 188.0
117.660202 188.0
117.971283 216.0
118.042801 1156.0
118.083725 164.0
118.139961 220.0
118.473343 176.0
118.512337 144.0
118.560005 60.0
118.809357 192.0
119.048111 684.0
119.247978 236.0
119.276237 204.0
119.293625 212.0
119.844231 196.0
119.966278 136.0
119.994621 220.0
120.057442 700.0
120.269478 200.0
120.324051 168.0
120.49659 152.0
120.529358 168.0
121.064728 776.0
121.122231 160.0
121.271225 152.0
121.31945 156.0
121.806602 152.0
121.885696 84.0
121.991188 184.0
122.032959 176.0
122.073174 1272.0
122.107727 56.0
122.208916 136.0
122.30574 176.0
122.481888 52.0
122.658165 140.0
122.832367 164.0
122.929443 216.0
123.04303 276.0
123.075127 132.0
123.095001 144.0
123.12812 140.0
123.33139 100.0
123.645447 96.0
123.6875 172.0
123.986504 152.0
124.106201 212.0
124.83007 164.0
124.974655 224.0
125.054764 148.0
125.355415 140.0
126.5952 180.0
127.039238 140.0
127.285858 184.0
127.598167 168.0
127.674622 76.0
128.226181 184.0
128.269012 140.0
128.318604 152.0
128.397522 44.0
128.505798 204.0
128.821869 124.0
128.844452 260.0
129.201645 152.0
129.307999 140.0
129.396271 164.0
129.79277 116.0
130.062744 40.0
130.124039 188.0
130.237579 128.0
130.296646 144.0
130.37616 204.0
130.737747 52.0
130.999588 156.0
131.048355 192.0
131.326874 152.0
131.553726 124.0
131.576553 192.0
131.715851 200.0
132.061447 196.0
132.170792 208.0
132.84436 68.0
132.871887 48.0
132.890244 168.0
133.00499 372.0
133.030182 172.0
133.066269 2344.0
133.223129 200.0
133.508133 40.0
133.913193 168.0
134.028122 148.0
134.073959 1872.0
134.134384 48.0
134.224289 84.0
134.501144 116.0
134.630432 120.0
134.958557 44.0
134.995544 180.0
135.044495 3016.0
135.079895 1276.0
135.108887 152.0
135.185242 52.0
135.219955 112.0
135.25235 60.0
135.340332 200.0
135.435272 144.0
135.465393 128.0
135.54184 220.0
135.595139 184.0
135.69249 48.0
135.755096 212.0
135.845551 184.0
135.920303 164.0
135.998703 72.0
136.052139 544.0
136.079895 360.0
136.084763 204.0
136.551666 172.0
136.777359 176.0
136.919373 40.0
137.056824 164.0
137.084076 388.0
137.343567 88.0
137.411209 128.0
137.871201 132.0
137.945999 112.0
138.03952 40.0
138.067398 212.0
138.202621 176.0
138.207489 128.0
138.315582 148.0
138.502899 180.0
138.549759 116.0
138.924835 112.0
139.04216 120.0
139.183014 208.0
139.363556 156.0
139.845947 172.0
140.229843 108.0
140.885818 192.0
141.046509 164.0
141.240402 132.0
141.429688 64.0
141.479401 156.0
142.026779 120.0
142.330551 196.0
142.437408 184.0
142.820099 160.0
143.42012 68.0
143.436798 40.0
143.596558 172.0
143.677658 160.0
144.05722 172.0
144.355972 168.0
144.521027 216.0
144.683762 128.0
144.71489 160.0
144.990356 228.0
145.299683 64.0
145.465256 128.0
145.518082 128.0
145.775085 172.0
145.876022 36.0
145.989029 168.0
146.783676 32.0
147.483795 64.0
148.083832 204.0
148.275223 148.0
148.292191 120.0
148.316437 120.0
148.804031 152.0
148.835587 152.0
148.925446 120.0
149.06189 524.0
149.088699 180.0
149.370255 216.0
149.457825 236.0
149.489471 52.0
149.589249 212.0
149.641953 124.0
149.996307 184.0
150.068405 11092.0
150.144775 140.0
150.327728 172.0
150.3741 44.0
150.593842 176.0
150.889511 108.0
150.922455 148.0
150.948196 56.0
151.01178 156.0
151.035187 132.0
151.076218 27192.0
151.114151 148.0
151.159042 40.0
151.2173 44.0
151.239319 52.0
151.322556 68.0
151.361725 100.0
151.398453 80.0
151.422943 104.0
151.527664 160.0
151.544022 132.0
151.567474 56.0
151.687561 68.0
151.911942 104.0
151.967133 64.0
152.079254 2708.0
152.153671 84.0
152.205231 84.0
152.300995 72.0
152.337845 72.0
152.386978 88.0
152.406631 52.0
152.46315 136.0
152.563934 40.0
152.59343 56.0
152.780334 88.0
153.011673 108.0
153.08136 356.0
153.184052 228.0
153.233322 76.0
153.282608 124.0
153.374557 116.0
153.457596 56.0
153.474869 92.0
154.09436 92.0
154.121536 168.0
154.245102 104.0
154.334106 72.0
154.418182 140.0
154.564133 132.0
154.648285 140.0
154.764633 92.0
155.161041 104.0
155.332153 104.0
155.895737 152.0
156.134399 136.0
156.467819 184.0
156.505157 128.0
156.988571 56.0
157.777573 44.0
157.795074 152.0
157.911667 32.0
158.000153 228.0
158.20285 164.0
158.287979 72.0
158.41571 68.0
158.563538 128.0
158.668823 176.0
159.020004 48.0
159.539948 156.0
160.660599 272.0
161.064484 192.0
161.099854 132.0
161.683914 224.0
162.020676 188.0
162.167648 120.0
162.931427 208.0
163.040695 184.0
163.078812 144.0
163.358521 124.0
163.521362 184.0
163.597717 224.0
163.653732 144.0
163.740311 176.0
163.987442 96.0
164.084305 128.0
164.222 168.0
164.298523 192.0
164.344452 68.0
164.482254 168.0
164.51799 124.0
164.604797 84.0
164.643112 44.0
164.775925 112.0
164.962097 212.0
165.000824 132.0
165.092117 46376.0
165.146591 40.0
165.174728 64.0
165.233551 108.0
165.254028 68.0
165.317825 172.0
165.337463 164.0
165.36441 176.0
165.40918 112.0
165.42688 96.0
165.447891 80.0
165.474136 104.0
165.511261 24.0
165.556076 96.0
165.616058 44.0
165.640594 48.0
165.714874 56.0
165.753311 40.0
165.802002 124.0
165.884018 64.0
166.027603 172.0
166.05838 96.0
166.094955 4508.0
166.194336 56.0
166.253357 48.0
166.340622 84.0
166.422577 52.0
166.499802 28.0
166.646225 60.0
166.733582 36.0
166.792709 56.0
166.882675 60.0
167.052414 92.0
167.0979 684.0
167.132172 120.0
167.191345 104.0
167.211945 112.0
167.308578 100.0
167.356094 100.0
167.376694 116.0
167.435928 80.0
167.456528 124.0
167.505463 56.0
167.817291 60.0
167.933334 76.0
168.201675 88.0
168.279129 68.0
169.108902 112.0
169.481812 72.0
170.221069 64.0
170.925491 128.0
171.15976 88.0
172.992523 108.0
173.010849 156.0
173.086777 44.0
174.127869 148.0
175.272186 76.0
175.849716 64.0
177.818802 64.0
178.089615 156.0
178.61058 180.0
178.714325 104.0
178.786179 52.0
178.91127 80.0
179.071045 168.0
179.118988 92.0
180.969681 72.0
181.693298 84.0
182.114243 664.0
183.1194 96.0
188.992523 144.0
191.529144 68.0
196.091156 196.0
205.443237 40.0
209.358521 32.0
222.113205 132.0
222.138153 152.0
229.875366 72.0
233.115509 124.0
244.846298 36.0
255.094574 144.0
269.119507 120.0
270.122803 48.0
271.137787 148.0
279.429321 68.0
279.735474 84.0
282.070496 176.0
284.072937 64.0
290.516113 164.0
290.706116 92.0
296.150665 100.0
301.13092 80.0
306.504517 92.0
310.805298 116.0
313.051453 120.0
314.477509 40.0
329.07312 104.0
339.989807 112.0
343.154694 360.0
345.109985 48.0
354.936218 116.0
354.962463 100.0
359.287781 88.0
360.212646 124.0
361.225677 104.0
364.056885 120.0
368.654846 48.0
373.80481 52.0
388.864441 104.0
391.466949 68.0
392.82196 84.0
398.154114 96.0
404.621674 108.0
405.214386 44.0
419.121674 28.0
421.753876 132.0
434.469971 52.0
472.335876 56.0
488.854095 92.0
520.30603 64.0
556.863708 100.0
598.162048 52.0
611.21936 44.0
634.448975 60.0
636.978088 64.0
678.133362 88.0
684.13269 60.0
685.544128 184.0
708.394287 68.0
714.919495 108.0
764.511963 176.0
789.41449 88.0
863.876221 76.0
875.915588 56.0
887.783203 208.0
893.384094 164.0
897.099915 164.0
923.272522 180.0
924.530823 160.0
928.759644 76.0
929.002258 176.0
930.203735 176.0
948.503113 76.0
952.903076 192.0
978.084412 164.0
980.089661 224.0
992.722412 192.0
996.915649 140.0
1005.833618 52.0
1011.541443 152.0
1012.871155 176.0
1020.034973 48.0
1024.107056 156.0
1028.244873 192.0
1033.107178 188.0
1033.433472 152.0
1036.231323 172.0
1037.115601 100.0
1037.519531 156.0
1041.478638 160.0
1046.526733 156.0
1048.401123 176.0
1053.9375 164.0
1056.75647 248.0
1057.84375 212.0
1068.408203 192.0
1087.652466 184.0
1090.450439 48.0
1091.383911 188.0
1095.641968 144.0
1097.57312 168.0
1100.766724 60.0
1112.09375 164.0
1121.431641 168.0
1134.21106 240.0
1137.967651 180.0
1145.9375 96.0
1146.732544 244.0
1147.858398 132.0
1150.631348 180.0
1152.786011 140.0
1154.286621 128.0
1161.132935 68.0
1161.661987 128.0
1164.397217 216.0
1167.013428 180.0
1170.183838 216.0
1171.75708 68.0
1178.853027 156.0
1180.001343 128.0
1184.894653 192.0
1185.223511 196.0
1187.76001 212.0
1190.601318 184.0
1192.476929 188.0
1193.913696 52.0
1195.055542 312.0
1204.5 216.0
1204.914429 152.0
1207.66626 208.0
1210.863037 148.0
1211.160889 248.0
1213.572388 116.0
1216.048828 64.0
1217.972046 252.0
1221.27356 48.0
1221.983154 156.0
1222.950317 184.0
1223.416748 212.0
1228.510742 72.0
1228.985107 136.0
1230.122681 176.0
1231.31665 192.0
1236.399048 252.0
1236.951904 180.0
1238.443359 196.0
1252.202026 236.0
1255.323853 148.0
1261.162231 268.0
1262.760132 184.0
1272.517578 176.0
1274.591431 128.0
1277.392578 100.0
1281.044189 112.0
1282.177124 228.0
1284.950806 188.0
1287.15625 216.0
1287.256226 172.0
1288.284668 140.0
1292.424072 160.0
1292.753174 172.0
1293.626953 180.0
1295.488159 68.0
1306.068481 168.0
1307.622559 152.0
1314.713989 200.0
1316.55481 120.0
1316.908569 184.0
1321.636353 52.0
1325.191284 188.0
1326.74939 108.0
1332.199219 184.0
1333.025879 224.0
1341.506348 204.0
1341.819824 140.0
1342.133301 120.0
1349.046997 100.0
1350.589844 152.0
1353.78064 168.0
1354.857422 164.0
1355.31897 168.0
1356.887329 108.0
1359.9021 60.0
1360.584839 260.0
1362.611694 108.0
1364.199097 204.0
1365.029785 176.0
1365.103394 176.0
1365.478394 148.0
1366.346313 208.0
1366.522949 148.0
1367.479492 164.0
1369.349487 228.0
1370.366089 48.0
1370.896606 136.0
1372.149536 196.0
1373.0271 136.0
1375.048462 224.0
1378.925781 232.0
1379.3396 220.0
1380.50769 152.0
1381.180786 244.0
1382.986084 140.0
1383.272095 220.0
1384.363037 140.0
1386.652222 140.0
1392.186401 192.0
1399.011841 212.0
1399.696777 56.0
1399.927612 104.0
1400.67981 84.0
1403.899414 160.0
1406.346436 112.0
1409.953613 196.0
1414.388672 180.0
1415.227173 200.0
1415.579102 208.0
1417.06958 212.0
1418.905762 144.0
1419.483032 152.0
1420.525513 208.0
1422.641602 168.0
1423.993164 112.0
1424.69165 208.0
1427.427368 68.0
1433.51709 124.0
1435.559814 220.0
1436.932617 64.0
1437.241943 156.0
1437.407959 172.0
1438.132446 172.0
1439.559204 168.0
1440.68457 132.0
1440.896118 192.0
1442.105103 240.0
1442.845947 152.0
1444.570068 216.0
1448.172974 116.0
1449.597168 116.0
1453.927124 180.0
1454.777222 156.0
1457.199707 208.0
1460.681396 180.0
1461.868286 92.0
1462.918579 176.0
1463.238281 20.0
1463.984497 200.0
1464.31189 176.0
1464.624146 172.0
1467.35437 188.0
1467.558105 100.0
1467.818115 200.0
1468.362793 248.0
1469.670776 132.0
1470.647583 80.0
1472.739502 172.0
1473.373535 116.0
1474.252197 204.0
1477.654785 148.0
1477.7771 128.0
1479.391846 136.0
1479.766968 184.0
1479.996704 192.0
1484.586548 200.0
1485.130981 180.0
1486.90332 160.0
1487.432861 120.0
1491.257812 212.0
1495.526367 56.0
1499.731689 144.0
1501.003662 44.0
1501.134766 196.0
1501.474121 32.0
1502.353394 48.0
