>compound MLS002153278-01!DIHYDROOUABAIN
>formula C29H46O12
>ionization [M+H]+
>parentmass 587.3062033640905
#inchi InChI=1S/C29H46O12/c1-13-22(34)23(35)24(36)25(40-13)41-15-8-19(32)28(12-30)21-17(3-5-27(28,37)9-15)29(38)6-4-16(14-7-20(33)39-11-14)26(29,2)10-18(21)31/h13-19,21-25,30-32,34-38H,3-12H2,1-2H3/t13-,14?,15-,16+,17+,18+,19+,21+,22-,23+,24+,25-,26+,27-,28+,29-/m0/s1
#inchikey ZTFGOPUOTATSAL
#Ion_Source LC-ESI
#Instrument qTof
#Compound_Source NIH Pharmacologically Active Library
#PI Dorrestein
#Data_Collector VP/LMS
#Scan -1
#Precursor_MZ 587.311
#ExactMass 586.299
#Charge 1
#CAS_Number N/A
#Pubmed_ID N/A
#Smiles C[C@@H]1O[C@@H](O[C@H]2C[C@@H](O)[C@]3(CO)[C@H]4[C@H](O)C[C@]5(C)[C@H](CC[C@]5(O)[C@@H]4CC[C@]3(O)C2)C6COC(=O)C6)[C@H](O)[C@H](O)[C@H]1O
#INCHI_AUX N/A
#Library_Class 3
#SpectrumID CCMSLIB00000085790
#IonMode Positive
#UpdateWorkflowName UPDATE-SINGLE-ANNOTATED-BRONZE
#LibraryQualityString Bronze
#TaskID d252d724072548979f1f6f1ced849daf
##Scan# 1223
#SpectrumFile p4-F06_GF6_01_18390.mzXML
#LibraryName Pharm_Active_Library.mgf
#MQScore -1
#Organism Pharm_Active_Library
#TIC_Query 0
#RT_Query -1
#MZErrorPPM -1
#SharedPeaks 0
#MassDiff 0
#LibMZ -1
#SpecMZ 587.311
#SpecCharge 0
#internalFilename spec-00000.mgf

>collision 10
45.022991 168.0
45.145943 60.0
45.235592 124.0
45.325329 44.0
45.448692 28.0
45.596413 160.0
45.67709 192.0
45.852131 108.0
46.145065 136.0
46.517632 180.0
46.571949 148.0
46.920326 120.0
46.957394 220.0
47.567421 52.0
47.780434 180.0
50.662319 104.0
51.820644 212.0
51.833538 196.0
51.932461 112.0
52.051582 92.0
52.182339 192.0
52.698341 88.0
52.855949 160.0
52.945705 72.0
54.091633 36.0
54.450874 128.0
55.220245 136.0
55.369728 112.0
55.528316 124.0
56.763176 224.0
56.986835 164.0
57.11763 128.0
57.430943 172.0
57.560734 128.0
57.658932 112.0
57.723938 144.0
57.866173 128.0
58.025261 136.0
58.160278 164.0
58.233162 164.0
58.341049 140.0
58.714115 128.0
60.797295 180.0
60.876472 116.0
61.694756 124.0
62.65184 152.0
63.185471 184.0
63.299435 112.0
63.661003 156.0
64.069794 44.0
64.460716 152.0
64.771103 72.0
64.823975 128.0
64.897713 128.0
64.979515 136.0
65.132027 132.0
65.8908 116.0
66.350441 196.0
66.434776 176.0
66.590607 192.0
66.730362 204.0
66.761261 96.0
67.12278 172.0
67.320244 144.0
67.419899 180.0
67.971779 76.0
68.479782 200.0
68.662727 176.0
68.923561 116.0
69.009514 160.0
69.034317 120.0
69.395309 156.0
72.450859 144.0
72.932808 64.0
72.982109 200.0
73.360077 188.0
73.880951 176.0
74.100098 116.0
74.293831 92.0
74.383072 196.0
74.434578 148.0
74.802513 160.0
75.335381 220.0
75.425247 180.0
76.02626 224.0
77.661087 112.0
78.184669 124.0
78.276207 92.0
78.325523 124.0
78.770058 176.0
79.535034 192.0
79.829971 212.0
80.961426 140.0
81.751343 56.0
82.283096 136.0
82.47097 148.0
82.783966 124.0
82.88179 168.0
82.925285 156.0
83.008682 136.0
83.717415 168.0
84.317642 184.0
84.495018 196.0
84.507828 112.0
84.936523 180.0
84.973213 48.0
84.989723 140.0
85.327682 132.0
85.570549 128.0
86.0924 144.0
87.202179 180.0
87.771851 116.0
88.622345 160.0
88.697311 116.0
88.822945 176.0
89.098915 144.0
89.882187 152.0
91.049362 156.0
91.316322 152.0
91.780998 148.0
91.969872 136.0
93.068611 188.0
93.437813 148.0
93.532104 140.0
93.57061 116.0
94.398399 152.0
94.760368 60.0
95.083145 264.0
95.558365 148.0
95.895264 136.0
97.716484 220.0
97.740097 264.0
97.974403 68.0
98.309608 176.0
98.568298 228.0
98.918373 160.0
98.965889 256.0
98.987671 84.0
99.041145 124.0
99.646217 148.0
99.697884 168.0
100.085793 188.0
100.101723 216.0
100.221245 156.0
101.081879 188.0
102.610458 132.0
103.030762 80.0
103.048439 108.0
103.098953 92.0
103.274857 204.0
103.295082 124.0
103.521774 160.0
104.353737 184.0
104.526634 144.0
104.614151 184.0
104.952362 88.0
105.068764 404.0
105.319717 44.0
105.706123 208.0
106.011253 212.0
106.156807 124.0
106.678329 164.0
106.826393 128.0
106.918991 116.0
107.087158 388.0
107.213501 172.0
107.434128 88.0
107.640533 152.0
108.426666 48.0
108.675514 120.0
108.731247 200.0
109.06179 148.0
109.100784 232.0
109.128311 60.0
109.32177 112.0
109.869774 48.0
110.101471 184.0
110.452614 100.0
110.898621 212.0
111.044151 352.0
111.087341 168.0
111.368629 120.0
112.029152 92.0
112.077614 212.0
112.18721 64.0
112.438225 132.0
112.541664 100.0
112.645149 112.0
113.004555 164.0
113.267067 108.0
114.884827 132.0
115.056847 208.0
116.052597 172.0
116.82148 268.0
116.922615 172.0
117.068573 636.0
117.101318 92.0
118.070389 156.0
118.156914 168.0
118.180717 76.0
118.733116 84.0
118.800362 152.0
119.056488 164.0
119.0849 1140.0
120.059769 132.0
120.094666 168.0
120.245216 152.0
121.025658 172.0
121.067337 412.0
121.086975 204.0
121.363098 36.0
121.53199 60.0
122.83223 124.0
123.082176 176.0
123.556839 196.0
123.815826 144.0
123.939888 120.0
124.376793 172.0
124.48558 176.0
124.545547 140.0
124.832253 136.0
125.014671 140.0
125.056961 124.0
125.076996 132.0
125.266273 272.0
125.290779 176.0
125.353172 208.0
126.342316 40.0
126.357971 172.0
126.852913 208.0
127.052505 244.0
127.086159 88.0
127.310638 152.0
127.75119 224.0
127.843445 176.0
128.059586 272.0
128.167709 180.0
128.589432 176.0
128.623291 200.0
128.964371 120.0
129.06781 952.0
129.446274 36.0
129.711349 192.0
130.056152 208.0
130.072037 316.0
130.126526 176.0
131.013519 168.0
131.047684 164.0
131.08493 1012.0
131.62706 216.0
131.725281 116.0
131.770966 48.0
131.887512 152.0
132.088745 176.0
132.954849 132.0
133.09938 352.0
133.303909 152.0
134.360794 152.0
134.476181 156.0
135.049194 208.0
135.085632 292.0
135.153305 160.0
135.630386 144.0
136.322037 168.0
136.473129 188.0
137.099716 208.0
138.105606 132.0
138.435608 132.0
139.087402 92.0
139.639587 228.0
139.874878 124.0
140.22821 44.0
140.511185 244.0
140.971634 132.0
141.037811 184.0
141.068527 1360.0
141.170212 64.0
141.271912 140.0
141.321594 84.0
142.074142 800.0
142.882797 156.0
142.958939 32.0
143.083893 1716.0
143.84082 120.0
144.060516 204.0
144.090164 304.0
145.063232 496.0
145.10022 1064.0
145.80011 180.0
146.054977 64.0
146.108246 192.0
146.233032 52.0
146.717224 132.0
147.076294 708.0
147.116669 456.0
148.084946 136.0
148.181839 176.0
148.373306 148.0
148.511536 148.0
148.683807 48.0
148.829453 168.0
149.091721 720.0
149.135559 112.0
149.189041 116.0
149.33252 40.0
149.568542 40.0
149.741409 128.0
149.914383 120.0
150.182587 80.0
150.524261 96.0
150.788101 104.0
150.856552 188.0
150.89566 160.0
151.075424 136.0
151.245499 76.0
151.688873 236.0
152.307251 48.0
152.454666 120.0
152.707901 244.0
152.74971 240.0
153.071609 192.0
153.092285 204.0
153.148483 176.0
153.264282 32.0
154.07872 228.0
154.884979 224.0
155.050735 160.0
155.055588 144.0
155.083878 1024.0
156.073425 148.0
156.08223 128.0
156.092056 200.0
156.224594 236.0
156.778244 176.0
157.040039 160.0
157.064987 180.0
157.09964 3704.0
157.139816 112.0
157.167267 36.0
157.184738 76.0
157.264603 124.0
157.307037 56.0
157.344482 68.0
157.459351 220.0
157.546631 140.0
158.036819 232.0
158.071854 124.0
158.102234 832.0
158.131912 140.0
158.540146 104.0
159.080154 560.0
159.115982 968.0
159.265244 44.0
159.335587 108.0
159.360718 76.0
159.468765 228.0
159.679977 44.0
160.083023 192.0
160.125458 180.0
160.352219 168.0
160.909714 164.0
161.092331 1024.0
161.12944 164.0
161.172394 112.0
161.71106 84.0
162.02507 68.0
162.102097 200.0
162.397705 48.0
163.074356 168.0
163.111069 132.0
163.116791 200.0
164.104111 156.0
164.668091 200.0
165.091629 304.0
165.120468 192.0
166.084686 160.0
166.345276 200.0
167.021103 124.0
167.084717 592.0
167.110626 320.0
167.134308 52.0
167.306747 176.0
167.718918 164.0
168.090622 220.0
169.098389 1512.0
169.263901 104.0
169.885941 52.0
170.100952 156.0
170.641708 184.0
171.084641 440.0
171.115723 308.0
171.180344 152.0
171.605072 76.0
172.11911 192.0
172.432602 216.0
173.096695 708.0
173.133759 488.0
174.151398 132.0
174.206558 148.0
174.240723 48.0
175.110138 308.0
176.116791 200.0
176.449341 64.0
177.089111 508.0
177.134781 144.0
178.076431 144.0
178.095795 176.0
179.081512 368.0
179.104752 512.0
179.268326 188.0
180.076706 120.0
180.095413 232.0
181.098846 1168.0
181.924362 248.0
182.106796 132.0
182.964783 188.0
183.079391 280.0
183.116058 728.0
183.293396 32.0
183.395798 60.0
183.527908 44.0
184.120987 196.0
184.440414 196.0
185.054535 148.0
185.093964 632.0
185.1306 132.0
185.829712 144.0
186.136444 168.0
186.932922 180.0
187.071808 148.0
187.113358 708.0
187.930252 160.0
188.091278 132.0
188.121292 136.0
188.312439 160.0
189.085052 124.0
189.13031 172.0
189.173798 108.0
189.507919 200.0
189.576431 176.0
189.834122 236.0
191.02066 132.0
191.102997 504.0
192.106216 144.0
193.098083 788.0
193.197281 148.0
193.922791 88.0
194.078217 188.0
194.110199 160.0
194.707977 132.0
195.117218 1592.0
195.17485 204.0
195.266617 52.0
196.119553 336.0
196.252441 56.0
196.467194 188.0
196.707199 48.0
196.866348 168.0
196.911026 132.0
197.102448 228.0
197.126038 176.0
197.332993 132.0
198.10347 552.0
198.141861 168.0
199.108765 584.0
199.141785 356.0
199.789871 116.0
200.121979 160.0
200.150558 164.0
200.651672 224.0
201.091736 204.0
201.126312 404.0
201.523819 160.0
201.543594 72.0
202.349701 128.0
202.924866 144.0
203.103531 360.0
203.682602 176.0
204.106079 112.0
204.57869 160.0
205.098602 276.0
205.567429 124.0
206.109985 184.0
206.899399 64.0
207.08992 212.0
207.114334 1008.0
207.326202 52.0
207.357727 84.0
207.400726 60.0
207.492798 168.0
207.598557 128.0
207.653046 48.0
207.916992 52.0
208.116272 292.0
208.155273 136.0
208.485641 80.0
208.853668 68.0
209.006149 64.0
209.057938 176.0
209.092209 252.0
209.122757 516.0
209.625259 160.0
210.124039 176.0
211.11058 164.0
211.14621 312.0
211.470734 48.0
211.554688 156.0
212.113129 188.0
212.84201 164.0
212.917511 64.0
213.130798 180.0
213.298141 64.0
213.885742 124.0
215.108963 336.0
215.218079 120.0
215.732285 100.0
216.106644 180.0
216.516479 124.0
217.121414 332.0
217.155411 132.0
218.126434 124.0
218.868744 180.0
219.107697 524.0
219.127182 432.0
220.127899 156.0
221.133713 772.0
221.74617 228.0
222.133408 188.0
223.093216 372.0
223.143661 204.0
224.114685 132.0
224.138519 236.0
225.112198 360.0
225.158783 140.0
226.13443 212.0
226.97374 144.0
227.032272 128.0
227.105286 176.0
227.141281 164.0
227.149689 192.0
227.524384 232.0
228.116043 148.0
228.2034 36.0
228.239487 104.0
228.544785 136.0
229.003891 160.0
229.117508 300.0
230.113342 156.0
230.152893 44.0
230.62117 116.0
231.026382 100.0
231.107925 176.0
231.132233 316.0
231.643936 40.0
231.771194 108.0
231.931824 196.0
232.11676 256.0
232.404922 164.0
233.130722 460.0
233.364746 72.0
233.510712 52.0
233.766266 100.0
234.13385 288.0
234.457581 116.0
234.780746 120.0
234.847839 176.0
234.994278 48.0
235.14537 304.0
235.421631 144.0
236.109253 160.0
236.153122 372.0
236.926544 136.0
236.963318 232.0
237.124619 188.0
237.158676 596.0
237.4814 96.0
238.144302 164.0
238.155289 160.0
238.16748 92.0
239.100067 192.0
239.14032 364.0
239.473129 64.0
240.117294 156.0
241.108353 156.0
241.148529 156.0
242.101456 124.0
242.44223 104.0
242.525909 208.0
242.854584 144.0
243.086731 184.0
243.132538 324.0
244.666275 68.0
245.132904 320.0
246.129807 248.0
247.106934 128.0
247.142883 572.0
247.182022 128.0
247.416779 168.0
247.614059 40.0
248.011978 124.0
248.106018 148.0
248.153961 276.0
248.711472 56.0
249.158829 464.0
249.254791 52.0
249.465378 112.0
249.85849 156.0
250.056747 40.0
250.160614 164.0
250.358978 44.0
251.119141 128.0
251.172394 220.0
252.113068 132.0
252.14151 256.0
252.887939 136.0
253.119507 164.0
253.195053 44.0
254.156815 196.0
255.137711 284.0
255.693695 152.0
255.817825 72.0
256.113983 144.0
257.121521 88.0
257.156616 244.0
258.131104 140.0
258.950317 104.0
259.14386 768.0
259.783752 80.0
260.151459 132.0
260.400055 160.0
261.123535 152.0
261.162537 1440.0
262.167847 324.0
262.540314 64.0
263.14743 376.0
263.177521 192.0
264.135895 116.0
265.121277 48.0
265.157867 556.0
265.428162 36.0
266.157745 104.0
267.158661 344.0
268.1362 156.0
268.174622 188.0
269.154144 324.0
270.566528 180.0
271.132477 196.0
271.160614 268.0
271.339722 48.0
271.588959 96.0
272.148621 232.0
272.564026 68.0
273.115723 296.0
273.157288 564.0
274.1297 132.0
274.171356 208.0
274.690918 60.0
275.138245 264.0
275.179871 460.0
275.235474 148.0
275.311432 196.0
276.185638 148.0
277.146973 184.0
279.075897 140.0
279.139435 148.0
279.175873 472.0
280.162201 276.0
280.830933 148.0
281.153076 188.0
281.191772 180.0
282.139954 120.0
283.113647 172.0
283.166443 164.0
284.167664 288.0
285.124359 136.0
285.161407 420.0
285.365295 60.0
286.166443 192.0
287.177032 452.0
287.335632 108.0
288.115509 100.0
288.456848 188.0
289.157623 156.0
289.207794 184.0
289.234863 44.0
290.200378 144.0
290.380127 148.0
291.172852 620.0
292.149872 184.0
292.177094 280.0
292.265564 108.0
293.152313 220.0
293.188171 384.0
294.143005 156.0
294.193604 196.0
295.161438 92.0
295.329163 48.0
295.589172 172.0
295.886963 44.0
296.17807 156.0
296.349365 64.0
297.137939 92.0
297.181458 400.0
297.645935 40.0
298.189972 380.0
299.158752 136.0
299.196381 160.0
301.127716 84.0
301.172607 236.0
302.178589 136.0
303.16507 656.0
304.119263 92.0
304.176025 392.0
305.151031 204.0
305.182892 292.0
305.561432 84.0
306.193573 264.0
306.951233 144.0
307.055847 104.0
307.159668 428.0
307.202332 96.0
307.244202 80.0
307.439606 92.0
307.823608 64.0
308.127502 44.0
308.18277 148.0
308.463013 76.0
308.539917 88.0
308.567871 96.0
308.707764 168.0
309.184875 620.0
310.190948 144.0
311.158752 164.0
311.172729 148.0
311.214386 380.0
311.620667 64.0
311.652313 196.0
311.77179 48.0
311.972137 52.0
312.204407 192.0
313.02417 116.0
313.183014 352.0
314.060333 100.0
314.176727 164.0
314.254364 128.0
314.748535 84.0
315.176971 352.0
315.207733 156.0
315.907806 168.0
316.183807 156.0
316.633453 152.0
317.136566 64.0
318.186615 152.0
320.976196 84.0
321.1828 2224.0
321.36499 240.0
321.50415 80.0
321.986145 32.0
322.182465 440.0
322.825989 96.0
323.199615 1800.0
323.355469 76.0
323.871063 184.0
324.206451 440.0
324.308228 152.0
324.960907 76.0
325.133148 208.0
325.17981 700.0
325.963318 100.0
326.168854 156.0
326.3797 116.0
326.552307 228.0
327.163818 176.0
327.172089 120.0
327.184753 48.0
328.194489 284.0
329.064056 192.0
331.781158 132.0
332.437714 52.0
332.909637 32.0
333.183624 796.0
333.392822 112.0
333.818146 144.0
334.098236 136.0
334.189148 300.0
334.1987 460.0
335.193787 180.0
335.207397 160.0
336.167847 120.0
336.200562 108.0
336.240845 60.0
337.194092 168.0
338.723572 64.0
339.193146 2676.0
339.342926 32.0
339.522583 60.0
339.871094 44.0
340.19519 476.0
340.807434 68.0
341.201843 260.0
342.214661 312.0
342.499756 28.0
343.056183 136.0
343.193756 304.0
344.189178 360.0
344.24704 64.0
344.521301 36.0
344.643219 36.0
345.149628 168.0
345.327148 108.0
347.950806 136.0
348.370453 32.0
349.170227 192.0
350.33844 96.0
350.759552 172.0
350.890015 136.0
351.195801 1972.0
351.341309 96.0
351.580109 64.0
351.871277 76.0
351.931 84.0
352.013153 56.0
352.113983 68.0
352.196808 568.0
352.453949 44.0
353.018402 172.0
353.123138 76.0
353.209351 188.0
353.856598 60.0
354.188324 172.0
354.482147 136.0
356.245605 104.0
356.613861 68.0
357.202881 896.0
357.279449 80.0
357.313324 36.0
357.358459 132.0
357.606842 144.0
357.69342 56.0
357.915527 52.0
358.205902 656.0
359.151703 80.0
359.203949 192.0
361.191467 108.0
363.999878 80.0
364.24295 140.0
364.51651 220.0
365.581299 64.0
367.185242 176.0
367.231018 88.0
369.033508 156.0
369.203674 2368.0
369.469513 52.0
370.204376 848.0
370.947754 52.0
371.212189 136.0
371.595886 92.0
372.229248 212.0
372.42511 88.0
373.932343 68.0
375.214478 152.0
376.00589 60.0
376.229767 112.0
378.123871 80.0
378.228363 100.0
381.611298 152.0
381.692963 200.0
382.825378 112.0
385.185089 208.0
385.212433 128.0
386.31485 72.0
386.623962 200.0
386.964508 84.0
387.216003 1208.0
387.310913 80.0
388.136078 60.0
388.212158 468.0
389.231049 192.0
389.851562 64.0
390.000916 44.0
392.575806 84.0
397.223236 100.0
399.181335 56.0
399.2211 188.0
405.218964 380.0
406.213593 172.0
415.205902 88.0
422.255981 100.0
427.21524 208.0
430.698578 128.0
441.944519 152.0
455.749908 80.0
477.199554 68.0
483.581787 64.0
485.250824 72.0
497.258728 112.0
512.423218 36.0
515.256592 140.0
523.789978 68.0
529.870544 108.0
540.71521 80.0
541.020691 88.0
569.311401 144.0
608.75769 80.0
613.338257 84.0
727.295227 56.0
764.259216 188.0
773.049744 68.0
865.756287 52.0
912.213257 144.0
996.398315 44.0
1006.690796 136.0
1014.131104 236.0
1064.283813 200.0
1102.641479 52.0
1125.941895 232.0
1137.787598 148.0
1147.718628 144.0
1153.207275 160.0
1165.310547 72.0
1196.49939 164.0
1220.425415 200.0
1225.346313 112.0
1225.77832 224.0
1234.231812 88.0
1236.337402 44.0
1258.297363 152.0
1276.259033 164.0
1291.65686 152.0
1292.200684 136.0
1328.055664 164.0
1337.60376 104.0
1357.022461 148.0
1374.802124 224.0
1382.006958 196.0
1382.554565 128.0
1403.682495 156.0
1404.674438 176.0
1406.159302 140.0
1411.545776 144.0
1414.763184 144.0
1416.470581 160.0
1419.243652 136.0
1419.821045 160.0
1422.957642 136.0
1439.161011 140.0
1444.095947 52.0
1446.138794 160.0
1447.902954 160.0
1449.68335 172.0
1450.880981 156.0
1458.54834 160.0
1460.966553 164.0
1462.458008 180.0
1472.072021 84.0
1477.560181 188.0
1484.5 152.0
1492.017212 196.0
1503.787842 180.0
1504.189209 32.0
