>compound MLS001140940-01!4-[[2-(6-chloro-4-methyl-2-oxochromen-7-yl)oxypropanoylamino]methyl]cyclohexane-1-carboxylic acid
>formula C21H24ClNO6
>ionization [M+H]+
>parentmass 422.137
#inchi InChI=1S/C21H24ClNO6/c1-11-7-19(24)29-17-9-18(16(22)8-15(11)17)28-12(2)20(25)23-10-13-3-5-14(6-4-13)21(26)27/h7-9,12-14H,3-6,10H2,1-2H3,(H,23,25)(H,26,27)/t12?,13-,14-
#inchikey BFYMPCVNAMZPLB
#Ion_Source LC-ESI
#Instrument qTof
#Compound_Source NIH Natural Product Library
#PI Dorrestein
#Data_Collector VVP/LMS
#Scan -1
#Precursor_MZ 422.137
#ExactMass 421.129
#Charge 1
#CAS_Number N/A
#Pubmed_ID N/A
#Smiles CC(Oc1cc2oc(=O)cc(C)c2cc1Cl)C(=O)NC[C@H]3CC[C@@H](CC3)C(=O)O
#INCHI_AUX N/A
#Library_Class 1
#SpectrumID CCMSLIB00000080512
#IonMode Positive
#UpdateWorkflowName UPDATE-SINGLE-ANNOTATED-GOLD
#LibraryQualityString Gold
#TaskID b1d8e8f6646f4e71acdff9ca3d919d08
##Scan# 1973
#SpectrumFile p2-A10_GA10_01_17986.mzXML
#LibraryName NIH_Natural_Products_Library.mgf
#MQScore -1
#Organism NIH_Natural_Products_Library
#TIC_Query 0
#RT_Query -1
#MZErrorPPM -1
#SharedPeaks 0
#MassDiff 0
#LibMZ -1
#SpecMZ 422.137
#SpecCharge 0
#internalFilename spec-00000.mgf

>collision 10
95.015137 156.0
95.036476 228.0
95.086128 4520.0
95.125748 208.0
95.164581 256.0
95.207298 80.0
95.263626 84.0
95.298599 120.0
95.502724 188.0
95.526062 72.0
95.60778 212.0
95.656441 136.0
95.720688 68.0
95.784966 148.0
96.044266 164.0
96.087868 384.0
96.202271 136.0
96.290138 144.0
96.54068 148.0
96.618538 244.0
96.816231 124.0
97.069031 216.0
97.08683 52.0
97.104332 136.0
97.151405 36.0
97.290741 88.0
97.369286 224.0
97.48716 188.0
97.723122 100.0
97.774284 32.0
97.833336 172.0
98.059395 212.0
98.170265 76.0
98.373489 208.0
98.620407 204.0
98.824097 120.0
98.903259 208.0
98.942848 180.0
98.96463 152.0
99.000038 168.0
99.02404 272.0
99.063652 160.0
99.172638 96.0
99.281685 176.0
99.402695 192.0
99.515831 64.0
99.667931 272.0
99.71846 144.0
99.736351 196.0
99.752251 96.0
99.921288 84.0
99.977005 124.0
100.138268 68.0
100.309631 152.0
100.373428 136.0
101.022537 156.0
101.088562 192.0
101.278763 208.0
101.637619 124.0
102.044304 172.0
102.145912 156.0
102.292816 68.0
102.905685 180.0
103.055054 624.0
103.465721 152.0
103.617615 228.0
103.761513 128.0
103.972473 148.0
104.019157 164.0
104.0597 156.0
104.147079 108.0
104.234436 192.0
104.254761 116.0
104.319801 124.0
104.431641 164.0
104.714554 208.0
104.912209 156.0
105.07132 200.0
105.483795 48.0
105.510376 176.0
105.557404 144.0
105.968826 40.0
106.266121 124.0
106.510414 128.0
107.003975 220.0
107.051331 124.0
107.092522 144.0
107.43058 76.0
107.45327 156.0
107.53788 152.0
107.645233 116.0
107.709259 148.0
107.744377 96.0
107.899376 192.0
108.193153 48.0
108.224213 128.0
108.373344 144.0
108.387848 116.0
108.445877 132.0
108.481117 140.0
108.514282 184.0
108.698891 176.0
109.101486 144.0
109.199562 140.0
109.38475 180.0
109.420143 100.0
109.438881 172.0
109.572182 252.0
109.634689 160.0
110.06041 272.0
110.097206 512.0
110.237793 132.0
110.383469 140.0
110.48452 88.0
110.55825 168.0
110.685448 100.0
110.905426 124.0
110.976707 192.0
111.045906 196.0
111.070053 200.0
111.104454 2244.0
111.163391 220.0
111.293533 128.0
111.314537 172.0
111.357185 168.0
111.505707 280.0
111.711769 224.0
111.930656 144.0
112.038078 160.0
112.075203 284.0
112.112038 2092.0
112.181381 76.0
112.246742 136.0
112.398613 156.0
112.666763 152.0
112.692116 40.0
112.732262 32.0
112.859093 124.0
113.028313 64.0
113.085205 172.0
113.114037 164.0
113.199776 52.0
113.494316 88.0
113.827454 148.0
114.080292 120.0
114.18235 56.0
114.267441 128.0
114.346176 236.0
114.623024 152.0
114.968491 144.0
115.056343 152.0
115.096573 156.0
115.372719 176.0
115.738045 112.0
115.774452 156.0
115.932983 104.0
116.065796 180.0
116.177414 116.0
116.604721 208.0
116.929482 112.0
117.037117 144.0
117.070236 568.0
117.532883 168.0
117.936729 108.0
117.969154 192.0
118.354263 104.0
118.466888 160.0
118.750847 132.0
119.051521 512.0
119.215446 188.0
119.382835 124.0
119.826889 132.0
120.01651 124.0
120.057236 332.0
120.07975 224.0
120.284859 36.0
120.492088 188.0
120.542572 104.0
120.98423 160.0
121.065407 164.0
121.249435 176.0
121.30423 208.0
121.354652 140.0
121.527931 128.0
121.624489 224.0
121.703522 56.0
121.731178 236.0
122.069206 420.0
122.096878 168.0
122.206863 180.0
122.622391 196.0
122.784012 192.0
122.799446 124.0
123.083275 468.0
123.116028 316.0
123.150383 32.0
123.16806 56.0
123.490768 136.0
123.818329 184.0
123.962326 176.0
124.004433 160.0
124.077911 864.0
124.119713 176.0
124.15741 180.0
124.303825 128.0
124.552483 64.0
125.020424 172.0
125.026443 332.0
125.084602 200.0
125.181892 132.0
125.213074 176.0
125.257927 144.0
125.32 92.0
125.844147 80.0
125.882111 84.0
126.034004 112.0
126.076149 172.0
126.505913 136.0
126.602196 180.0
126.741081 156.0
127.012352 312.0
127.044128 120.0
127.227776 192.0
127.277222 176.0
127.301872 232.0
127.335564 144.0
127.495071 124.0
128.061142 308.0
128.318939 96.0
128.339218 192.0
128.447479 140.0
128.632507 144.0
128.982635 216.0
129.043686 212.0
129.069519 1260.0
129.287979 196.0
129.446442 180.0
129.552902 112.0
129.736801 132.0
129.90654 148.0
129.981415 128.0
130.024292 224.0
130.044968 196.0
130.073318 140.0
130.128952 116.0
130.228867 176.0
130.299301 176.0
130.508392 160.0
130.799606 80.0
130.822357 252.0
131.048737 876.0
131.080124 296.0
131.280334 176.0
132.056534 1936.0
132.184952 172.0
132.354355 164.0
132.475739 36.0
132.549057 176.0
132.574265 108.0
132.606339 44.0
132.626968 64.0
132.645309 120.0
132.734726 132.0
133.062836 164.0
133.400543 48.0
133.655838 136.0
133.902161 64.0
133.943619 136.0
134.21788 172.0
134.712357 176.0
134.792648 204.0
135.222168 192.0
135.340851 76.0
135.384857 152.0
135.730133 184.0
135.848419 132.0
135.878586 108.0
135.897141 68.0
136.087463 40.0
136.417374 108.0
136.677856 160.0
136.810516 92.0
137.014664 368.0
137.076035 196.0
137.110992 148.0
137.141296 216.0
137.178589 36.0
137.22522 148.0
137.25087 48.0
137.267181 136.0
137.299835 68.0
137.474808 160.0
137.521484 120.0
137.670898 184.0
138.026093 116.0
138.045975 176.0
138.09201 1484.0
138.127701 3724.0
138.155624 180.0
138.172852 160.0
138.222595 76.0
138.245987 72.0
138.341949 108.0
138.415619 260.0
138.447998 108.0
138.508209 40.0
138.531647 48.0
138.561798 160.0
138.583176 240.0
138.644104 192.0
138.693329 140.0
138.709732 180.0
139.013077 180.0
139.038101 124.0
139.097916 208.0
139.133499 708.0
139.269928 180.0
139.345718 76.0
139.397415 128.0
139.444412 40.0
139.637207 128.0
139.79248 136.0
139.827774 116.0
139.851318 72.0
140.037323 192.0
140.071915 192.0
140.107407 15528.0
140.167709 160.0
140.21402 108.0
140.244095 204.0
140.262466 80.0
140.357819 52.0
140.426071 68.0
140.487549 36.0
140.564819 80.0
140.657455 56.0
140.742447 80.0
140.792038 44.0
140.859909 184.0
140.919586 84.0
141.01265 568.0
141.111496 1624.0
141.144135 60.0
141.183395 120.0
141.278946 208.0
141.539307 148.0
141.59613 48.0
141.714584 128.0
141.920792 68.0
141.982437 56.0
142.115555 140.0
142.233948 120.0
142.269547 48.0
142.314667 112.0
142.575958 120.0
142.637756 132.0
142.97551 260.0
143.004059 156.0
143.153183 228.0
143.17421 112.0
143.232651 168.0
143.399445 184.0
143.516251 132.0
143.54248 44.0
143.845474 176.0
144.189438 60.0
144.35199 276.0
144.773544 128.0
144.85701 156.0
145.007965 164.0
145.024734 156.0
145.064117 1384.0
145.242935 132.0
145.298111 148.0
145.444489 192.0
145.557327 72.0
145.66301 56.0
146.07312 200.0
146.191956 144.0
146.567612 188.0
146.685715 208.0
146.733917 164.0
147.045044 516.0
147.078888 200.0
147.095795 228.0
147.272064 228.0
147.426682 120.0
147.644257 112.0
147.762787 64.0
147.779724 164.0
147.825699 252.0
147.842636 144.0
147.891052 168.0
148.051636 1232.0
148.113815 128.0
148.274979 400.0
148.339172 140.0
148.64476 60.0
148.74913 152.0
148.88266 132.0
148.906952 192.0
148.999252 200.0
149.030197 164.0
149.094025 148.0
149.130478 144.0
149.402832 132.0
149.470474 120.0
149.509888 52.0
149.529358 216.0
149.585068 180.0
149.765533 76.0
149.909271 104.0
149.972641 156.0
150.026276 160.0
150.055527 164.0
150.072586 220.0
150.455643 48.0
150.574326 244.0
151.164459 148.0
151.237503 128.0
151.485199 84.0
152.054062 184.0
152.076157 112.0
152.107086 1160.0
152.488785 188.0
152.596939 148.0
152.697769 172.0
153.015198 172.0
153.048172 448.0
153.111908 220.0
153.318176 68.0
153.737427 136.0
153.7621 160.0
154.345108 100.0
154.530609 108.0
154.572678 148.0
154.844223 168.0
154.882141 160.0
155.026184 920.0
155.045837 348.0
155.296082 80.0
155.474716 112.0
155.546814 84.0
155.68573 64.0
155.95903 84.0
155.986374 172.0
156.028641 212.0
156.047699 156.0
156.162918 200.0
156.347031 48.0
156.635849 136.0
156.685669 132.0
157.024414 324.0
157.066086 320.0
157.13443 88.0
157.408997 196.0
157.573853 68.0
158.0728 856.0
158.229126 76.0
158.479584 64.0
158.612411 192.0
159.048721 204.0
159.078812 220.0
159.35524 88.0
159.581451 196.0
159.936157 64.0
159.986511 256.0
160.049454 180.0
160.187973 180.0
160.417282 160.0
160.548401 220.0
160.699753 36.0
160.817429 196.0
161.060745 124.0
161.096115 152.0
161.161804 124.0
161.265411 184.0
161.356415 216.0
161.401932 156.0
161.543564 88.0
161.584045 148.0
162.351547 128.0
162.402267 32.0
162.458069 100.0
162.770264 64.0
162.856598 208.0
162.95314 164.0
163.026871 156.0
163.097992 248.0
163.293777 140.0
163.499847 60.0
164.491348 132.0
164.542404 152.0
164.708389 120.0
164.818253 192.0
164.884689 168.0
165.014496 128.0
165.045578 328.0
165.153152 68.0
165.370636 248.0
166.016434 292.0
166.092026 164.0
166.122589 1512.0
166.149643 200.0
166.272797 112.0
167.024246 536.0
167.041595 176.0
167.07193 156.0
167.130737 11504.0
167.18074 168.0
167.223755 64.0
167.29068 40.0
167.460617 120.0
167.481232 44.0
167.60231 44.0
168.038055 52.0
168.105148 32.0
168.13623 1708.0
168.283249 100.0
168.371048 76.0
168.590637 208.0
168.919006 48.0
169.015762 280.0
169.040771 184.0
169.097549 96.0
169.140808 368.0
169.185547 100.0
169.206268 220.0
169.348694 124.0
169.366821 48.0
169.436768 80.0
169.734833 196.0
169.856735 100.0
170.014999 188.0
170.251236 128.0
170.446075 172.0
170.607208 188.0
170.643616 156.0
171.005203 96.0
171.044312 160.0
171.372787 108.0
171.408859 164.0
171.528748 180.0
171.619995 48.0
171.841705 48.0
171.963257 144.0
171.970398 212.0
172.015213 148.0
172.034821 104.0
172.120987 176.0
172.359177 148.0
172.559952 136.0
172.724701 188.0
172.986374 132.0
173.058502 856.0
173.232544 60.0
173.36879 64.0
173.675537 104.0
173.727997 128.0
173.755783 132.0
173.785721 104.0
174.068848 2364.0
174.155869 112.0
174.17688 48.0
174.347672 192.0
175.035629 108.0
175.072403 140.0
175.221268 224.0
175.37674 152.0
175.682632 188.0
175.748581 88.0
175.804001 116.0
175.830399 48.0
175.999344 148.0
176.073288 140.0
176.196274 160.0
176.221207 176.0
176.247635 116.0
176.31369 84.0
176.56485 160.0
176.916779 152.0
177.020035 148.0
177.221344 148.0
177.258453 152.0
177.632278 212.0
177.672073 156.0
177.844559 60.0
178.102112 172.0
179.03566 208.0
179.352707 72.0
179.406021 128.0
179.478012 108.0
179.630035 184.0
179.718063 92.0
179.774109 120.0
179.934265 44.0
180.155914 164.0
180.492676 152.0
180.548843 160.0
180.835114 108.0
180.94754 144.0
181.002106 220.0
181.041077 632.0
181.563843 48.0
181.649673 160.0
181.740891 48.0
181.759674 124.0
181.888504 104.0
182.023804 168.0
182.043716 148.0
182.105988 248.0
182.148972 136.0
182.208069 88.0
182.560196 164.0
182.759247 132.0
182.950333 204.0
183.030762 504.0
183.076889 136.0
183.284302 136.0
183.478363 92.0
183.499939 100.0
183.534988 152.0
183.626678 116.0
183.820923 116.0
184.033783 176.0
184.095078 932.0
184.13356 4276.0
184.188095 140.0
184.217804 216.0
184.57457 60.0
184.755783 188.0
184.847778 160.0
184.885666 172.0
184.972275 196.0
185.012497 172.0
185.023056 148.0
185.047363 152.0
185.099518 140.0
185.136246 292.0
185.712006 184.0
185.780197 372.0
185.918198 136.0
186.032196 128.0
186.102264 188.0
186.143509 188.0
186.195114 116.0
186.521164 68.0
186.629913 188.0
186.73053 256.0
186.806686 148.0
187.057037 204.0
187.160492 36.0
187.910034 88.0
188.00827 68.0
188.15567 148.0
188.213013 88.0
188.25943 152.0
188.477966 172.0
188.93457 160.0
189.539658 104.0
189.712326 172.0
190.17865 40.0
190.288452 216.0
190.695007 120.0
191.024643 328.0
191.07724 172.0
191.368988 108.0
192.201401 164.0
192.772995 176.0
192.872498 228.0
193.004379 136.0
193.043732 660.0
193.090927 132.0
193.212631 48.0
193.404694 128.0
194.009186 268.0
194.037949 268.0
194.08786 152.0
194.116455 2232.0
194.190475 56.0
194.264069 120.0
194.415192 84.0
195.021332 628.0
195.121017 332.0
195.151306 76.0
195.179108 88.0
195.201355 56.0
195.372543 176.0
195.53241 244.0
195.681183 144.0
195.710571 192.0
195.735626 176.0
195.79689 172.0
196.012238 212.0
196.053207 156.0
196.419647 176.0
196.996277 164.0
197.016403 152.0
197.264999 124.0
197.359604 128.0
198.023438 112.0
198.100784 112.0
198.426361 136.0
198.454407 168.0
198.917313 188.0
199.077759 160.0
199.125092 184.0
199.484741 92.0
199.550705 104.0
199.768768 200.0
199.909454 240.0
200.157166 220.0
200.323334 76.0
200.517761 116.0
200.720734 68.0
201.054596 916.0
201.429718 156.0
202.061386 1212.0
202.625793 80.0
202.65979 220.0
202.707962 132.0
202.739761 212.0
202.826996 172.0
202.872345 148.0
203.069138 444.0
203.674622 208.0
204.172806 180.0
204.761932 148.0
205.326233 120.0
205.437469 48.0
205.494537 188.0
205.608673 164.0
205.919876 152.0
206.97226 136.0
207.126907 172.0
208.03421 220.0
208.196732 204.0
208.446655 184.0
208.604736 56.0
208.705353 156.0
208.794495 204.0
208.999969 140.0
209.036789 3644.0
209.079315 48.0
209.150085 68.0
209.182938 72.0
209.761948 128.0
209.842667 128.0
209.953491 120.0
210.000153 156.0
210.040359 524.0
210.087799 200.0
210.151276 128.0
210.307114 84.0
210.3302 100.0
210.451447 180.0
210.517868 156.0
210.54097 140.0
210.58429 60.0
210.620209 156.0
210.694061 160.0
210.772064 104.0
210.800964 168.0
210.8535 136.0
210.881882 120.0
210.907898 172.0
210.942596 208.0
211.017044 44288.0
211.101608 52.0
211.12294 80.0
211.162338 120.0
211.225693 224.0
211.286728 48.0
211.308395 100.0
211.357895 92.0
211.418716 136.0
211.487549 100.0
211.524017 72.0
211.550079 32.0
211.660095 40.0
211.72467 56.0
211.804901 160.0
211.864517 124.0
211.949753 200.0
212.019119 3704.0
212.068573 28.0
212.172928 128.0
212.419434 48.0
212.445541 68.0
212.539917 76.0
212.595078 104.0
212.699493 180.0
212.799606 28.0
212.851868 100.0
212.88382 80.0
212.909958 56.0
213.013962 10004.0
213.076263 172.0
213.112198 192.0
213.140915 504.0
213.169189 92.0
213.240128 116.0
213.270218 76.0
213.299286 208.0
213.329697 104.0
213.358612 108.0
213.380692 76.0
213.433029 92.0
213.607529 172.0
213.674438 104.0
213.730789 68.0
213.773361 52.0
213.919205 76.0
214.018921 1272.0
214.08194 132.0
214.132889 252.0
214.300415 64.0
214.44873 76.0
215.131607 44.0
215.248383 84.0
215.458679 68.0
215.520035 148.0
215.578476 40.0
215.598938 136.0
215.665573 160.0
215.710007 104.0
215.82695 124.0
215.999496 164.0
216.488281 60.0
217.537949 164.0
217.65831 68.0
217.787537 144.0
217.89035 44.0
218.110748 132.0
218.313614 216.0
218.746124 148.0
219.022934 524.0
220.521835 140.0
220.654846 48.0
221.003464 180.0
221.012131 156.0
221.107437 124.0
221.249512 80.0
221.78569 120.0
222.008118 228.0
222.313614 56.0
223.011551 348.0
224.023254 140.0
224.371933 120.0
224.491211 180.0
224.565765 40.0
224.604538 164.0
224.998444 336.0
225.341904 172.0
225.548111 164.0
227.210129 104.0
228.029892 108.0
228.757812 100.0
229.010742 116.0
229.039505 204.0
229.230667 124.0
229.293961 68.0
229.625595 204.0
230.063126 176.0
230.168808 156.0
230.504105 92.0
231.058426 132.0
231.899246 216.0
232.056885 252.0
232.335907 224.0
233.49321 132.0
234.086639 204.0
234.321167 148.0
235.117035 148.0
235.41011 84.0
235.773651 48.0
235.828659 76.0
235.893875 60.0
236.054901 68.0
236.302658 88.0
236.547485 124.0
236.596466 84.0
236.816177 80.0
236.958801 152.0
237.032379 28156.0
237.129456 36.0
237.15271 68.0
237.19075 80.0
237.235474 80.0
237.259933 148.0
237.304184 104.0
237.347107 84.0
237.401459 172.0
237.451508 56.0
237.477066 80.0
237.512726 80.0
237.706009 44.0
237.750946 56.0
237.801147 56.0
237.8349 108.0
237.954636 128.0
237.986938 188.0
238.035126 3148.0
238.111237 64.0
238.135803 40.0
238.195038 120.0
238.218735 108.0
238.271561 188.0
238.338562 32.0
238.400024 80.0
238.438049 148.0
238.489151 152.0
238.556778 140.0
238.624405 96.0
238.68898 76.0
238.747406 152.0
238.845825 188.0
239.030441 7308.0
239.128906 52.0
239.178146 64.0
239.212006 72.0
239.236633 60.0
239.267426 56.0
239.316681 136.0
239.373489 80.0
239.44458 120.0
239.479904 124.0
239.584625 44.0
239.633926 140.0
239.679031 92.0
239.7202 148.0
239.744858 132.0
239.902054 108.0
239.926712 112.0
239.982208 32.0
240.031235 1016.0
240.083969 36.0
240.179581 148.0
240.370865 88.0
240.472702 52.0
240.53952 104.0
240.694977 60.0
240.722763 92.0
240.858658 52.0
240.908081 116.0
240.93898 88.0
240.963699 44.0
241.03624 92.0
241.396423 48.0
241.489212 48.0
241.560349 88.0
241.727432 32.0
241.868805 100.0
241.906937 104.0
242.13916 164.0
242.706268 80.0
244.290222 120.0
244.685455 124.0
251.39653 40.0
253.508987 112.0
253.642105 80.0
254.5336 72.0
255.935867 104.0
256.445587 100.0
256.557159 32.0
258.812805 124.0
263.195465 136.0
263.550781 100.0
264.03891 156.0
265.024414 540.0
265.684387 48.0
266.059601 304.0
266.580536 36.0
267.027008 96.0
267.064972 84.0
267.527039 52.0
267.751709 80.0
267.875488 88.0
268.03186 132.0
268.057922 52.0
268.20459 148.0
269.118042 120.0
275.611816 168.0
276.541107 228.0
278.045776 144.0
279.112152 148.0
280.843903 80.0
282.005859 160.0
282.053314 2020.0
282.346863 72.0
282.594391 56.0
282.996063 136.0
283.057404 432.0
283.498505 28.0
283.746552 52.0
284.049042 764.0
284.118805 48.0
284.142303 132.0
284.662567 116.0
284.697815 104.0
285.028717 104.0
285.052216 120.0
287.544312 84.0
292.108429 100.0
293.941406 96.0
294.051361 1008.0
294.918152 132.0
295.058289 132.0
296.045166 144.0
297.052277 156.0
301.769562 72.0
306.392517 96.0
308.164886 104.0
316.508209 48.0
329.206848 64.0
330.533508 84.0
334.791656 136.0
337.627289 44.0
341.161957 96.0
348.123138 68.0
350.168579 92.0
353.236755 116.0
355.492249 124.0
361.143494 160.0
362.150299 96.0
366.088715 132.0
367.838745 60.0
374.784271 60.0
375.269928 116.0
376.132233 2500.0
376.732635 108.0
377.136444 504.0
377.327789 48.0
377.408997 28.0
377.745453 44.0
378.126709 1180.0
378.294952 36.0
378.461426 92.0
378.581482 52.0
378.937836 40.0
379.130768 252.0
380.780426 140.0
382.627472 68.0
386.190247 116.0
394.040619 52.0
404.13504 116.0
417.955841 52.0
421.127502 188.0
422.68512 100.0
423.200836 160.0
430.074432 20.0
440.421814 68.0
445.662628 76.0
448.76889 48.0
465.955841 56.0
480.734406 88.0
483.032562 60.0
485.178345 68.0
505.455902 64.0
508.444916 32.0
521.065979 80.0
535.668945 44.0
577.967651 80.0
622.528809 68.0
667.720764 88.0
672.925293 20.0
689.689453 40.0
704.851562 48.0
706.606995 108.0
708.385742 60.0
737.004333 196.0
778.868652 140.0
798.59967 164.0
820.320923 84.0
832.705994 20.0
832.754822 128.0
837.8974 100.0
839.868896 204.0
840.930542 120.0
841.155701 184.0
866.453003 20.0
891.988403 52.0
896.005249 88.0
899.684875 212.0
911.033325 160.0
921.195923 176.0
930.479736 52.0
931.548584 212.0
940.676697 152.0
944.586975 224.0
944.777161 184.0
947.182922 64.0
953.201477 176.0
955.691772 220.0
955.833252 56.0
956.073242 168.0
956.971985 184.0
961.299072 92.0
962.169312 60.0
963.283508 76.0
963.515686 84.0
963.99762 128.0
965.505981 152.0
965.895691 188.0
973.127747 192.0
984.985046 224.0
990.877991 64.0
991.510864 196.0
995.387695 156.0
996.587402 164.0
999.851013 192.0
1003.208191 184.0
1012.939819 268.0
1013.43396 148.0
1018.166077 112.0
1025.227661 72.0
1025.450684 48.0
1029.738159 244.0
1030.03833 164.0
1034.482544 204.0
1035.141968 176.0
1038.628418 104.0
1041.304932 176.0
1042.480591 184.0
1042.67334 216.0
1047.164062 208.0
1049.155151 120.0
1049.418823 208.0
1050.72876 172.0
1055.249634 60.0
1058.452393 200.0
1059.845093 248.0
1062.172485 76.0
1070.270142 136.0
1078.614136 172.0
1083.174927 204.0
1086.570679 132.0
1090.425171 168.0
1091.878174 20.0
1093.358398 28.0
1094.964844 32.0
1095.406128 84.0
1095.702515 92.0
1104.138306 152.0
1106.58667 208.0
1111.544556 188.0
1112.832275 164.0
1114.805054 140.0
1116.380493 176.0
1116.653198 228.0
1119.168579 160.0
1119.288452 208.0
1121.886841 184.0
1122.046875 36.0
1124.074463 176.0
1128.897461 208.0
1132.297119 52.0
1133.402466 192.0
1137.090698 44.0
1137.902954 68.0
1146.108521 164.0
1148.259033 140.0
1151.444458 72.0
1155.405518 124.0
1168.424561 180.0
1171.004395 112.0
1174.309937 156.0
1184.364136 180.0
1186.255249 248.0
1187.71582 200.0
1189.644043 188.0
1197.227905 212.0
1198.398926 184.0
1204.172729 168.0
1205.360962 144.0
1205.540649 40.0
1209.835938 168.0
1212.925415 148.0
1216.629639 156.0
1217.914307 144.0
1219.574951 80.0
1220.534302 172.0
1223.038818 184.0
1223.832397 156.0
1224.08313 164.0
1227.21167 80.0
1227.867065 136.0
1229.457764 208.0
1238.287598 132.0
1241.329102 40.0
1245.884155 168.0
1247.099854 180.0
1250.616577 156.0
1252.841797 172.0
1254.476685 132.0
1256.479492 120.0
1257.728516 88.0
1261.316772 104.0
1264.549072 204.0
1265.738403 160.0
1266.510376 152.0
1270.075684 152.0
1271.003906 132.0
1272.367676 64.0
1273.418701 100.0
1273.894531 144.0
1277.783203 112.0
1279.519775 228.0
1281.827393 124.0
1285.52832 212.0
1288.884521 124.0
1290.685791 188.0
1291.729858 128.0
1296.964233 160.0
1298.3479 168.0
1302.625732 212.0
1303.358521 220.0
1303.660278 160.0
1306.608276 40.0
1307.162354 60.0
1307.752441 148.0
1308.213135 216.0
1309.206665 272.0
1314.887573 176.0
1315.183472 148.0
1317.133057 220.0
1317.226929 188.0
1318.036133 76.0
1318.382935 160.0
1319.778076 212.0
1322.382324 212.0
1322.823853 100.0
1323.692627 200.0
1326.228271 192.0
1328.156982 188.0
1328.2948 124.0
1342.564819 204.0
1344.11853 152.0
1344.264526 152.0
1344.454224 128.0
1348.507568 96.0
1349.370117 36.0
1351.417969 164.0
1353.789551 96.0
1359.669067 232.0
1361.526367 92.0
1362.143311 116.0
1362.202148 80.0
1363.950928 152.0
1366.392456 152.0
1369.690308 80.0
1370.404907 40.0
1374.069214 168.0
1375.013672 40.0
1375.210693 116.0
1378.425415 112.0
1383.632446 140.0
1385.091309 180.0
1387.588623 136.0
1387.736938 224.0
1390.310913 244.0
1390.385132 56.0
1390.460205 172.0
1391.154663 64.0
1393.607788 184.0
1396.231812 212.0
1396.566528 76.0
1396.640869 200.0
1398.166138 84.0
1400.407104 72.0
1400.988037 184.0
1401.673584 172.0
1401.874756 176.0
1402.068481 176.0
1403.790527 104.0
1405.148071 152.0
1406.22998 152.0
1407.90979 216.0
1408.671631 164.0
1411.863159 108.0
1415.55249 176.0
1419.880005 196.0
1422.840332 116.0
1423.553589 140.0
1423.989258 164.0
1425.025879 164.0
1426.062866 148.0
1434.251953 152.0
1435.329956 192.0
1435.691895 128.0
1437.932617 144.0
1439.238525 236.0
1444.158203 180.0
1446.231323 140.0
1449.449951 124.0
1449.692383 156.0
1450.897583 212.0
1452.103149 176.0
1454.432495 196.0
1457.272705 204.0
1462.81665 160.0
1463.95874 152.0
1464.080566 200.0
1465.25354 100.0
1465.672607 148.0
1466.076538 136.0
1467.035767 144.0
1468.630493 144.0
1472.347412 136.0
1472.591797 52.0
1476.336548 204.0
1476.581299 36.0
1480.16272 128.0
1480.737061 136.0
1483.595093 80.0
1484.085815 72.0
1484.193115 140.0
1485.059692 116.0
1486.432861 108.0
1486.793579 192.0
1487.553467 148.0
1489.07373 144.0
1493.423828 120.0
1495.116455 164.0
1496.740723 172.0
1499.97644 136.0
1500.346436 156.0
1500.400391 220.0
1500.546875 152.0
1501.47998 180.0
1502.073853 204.0
1503.001221 172.0
1503.663208 172.0
