>compound (6R,7R)-7-[[(2R)-2-amino-2-phenylacetyl]amino]-3-chloro-8-oxo-5-thia-1-azabicyclo[4.2.0]oct-2-ene-2-carboxylic acid
>formula C15H14ClN3O4S
>ionization [M+H]+
>parentmass 368.04663106009053
#inchi InChI=1S/C15H14ClN3O4S/c16-8-6-24-14-10(13(21)19(14)11(8)15(22)23)18-12(20)9(17)7-4-2-1-3-5-7/h1-5,9-10,14H,6,17H2,(H,18,20)(H,22,23)/t9-,10-,14-/m1/s1
#inchikey QYIYFLOTGYLRGG
#Ion_Source LC-ESI
#Instrument qTof
#Compound_Source Commercial
#PI Dorrestein
#Data_Collector Garg_Neha
#Scan -1
#Precursor_MZ 368.047
#ExactMass 367.039
#Charge 1
#CAS_Number N/A
#Pubmed_ID N/A
#Smiles N[C@@H](C(=O)N[C@H]1[C@H]2SCC(=C(N2C1=O)C(=O)O)Cl)c3ccccc3
#INCHI_AUX N/A
#Library_Class 1
#SpectrumID CCMSLIB00000079052
#IonMode Positive
#UpdateWorkflowName UPDATE-SINGLE-ANNOTATED-GOLD
#LibraryQualityString Gold
#TaskID 278b19f5865741e282cec7349aa7e7a1
##Scan# 1000
#SpectrumFile NCP003432_A2_B11_BC8_01_15722.mzXML
#LibraryName NIHcollectionI_05062014.mgf
#MQScore -1
#Organism NIHcollectionI_05062014
#TIC_Query 0
#RT_Query -1
#MZErrorPPM -1
#SharedPeaks 0
#MassDiff 0
#LibMZ -1
#SpecMZ 368.047
#SpecCharge 0
#internalFilename spec-00000.mgf

>collision 10
45.578018 140.0
48.114304 164.0
48.546001 180.0
57.896454 152.0
58.578423 180.0
69.632133 208.0
74.01722 196.0
79.232666 180.0
80.772522 144.0
87.735138 140.0
91.052589 184.0
97.498413 184.0
98.222961 168.0
99.356476 172.0
103.05246 148.0
103.33551 152.0
104.552429 164.0
105.058319 156.0
106.065704 3856.0
107.066315 480.0
113.999153 284.0
115.055031 160.0
117.059418 144.0
118.040466 776.0
118.064468 392.0
119.047333 144.0
119.070351 412.0
121.016541 140.0
123.026375 440.0
128.050873 248.0
128.069733 184.0
128.881866 188.0
130.061752 144.0
132.974152 148.0
133.0522 180.0
134.059647 144.0
134.075775 164.0
137.037201 152.0
137.055832 180.0
138.022171 272.0
143.975052 220.0
145.080475 248.0
146.014526 188.0
146.057465 572.0
146.775482 172.0
147.027847 248.0
147.062561 312.0
148.366379 168.0
150.036591 636.0
151.040176 148.0
151.603287 152.0
157.079926 180.0
157.996719 168.0
158.064072 204.0
159.961426 512.0
160.96254 168.0
161.957947 332.0
161.978119 144.0
162.038406 132.0
163.084305 276.0
164.027298 152.0
164.055176 572.0
164.565582 152.0
164.790344 168.0
164.936005 156.0
165.058731 200.0
166.080551 204.0
169.07695 168.0
174.054794 6896.0
174.275208 104.0
175.0578 1084.0
176.04155 196.0
177.973938 812.0
177.99823 188.0
178.030914 752.0
179.971207 260.0
182.078964 164.0
183.100937 216.0
184.098755 164.0
189.52562 164.0
189.975052 168.0
190.02916 172.0
190.100311 396.0
191.039749 2044.0
191.081177 676.0
191.969254 152.0
192.048416 1884.0
192.112717 188.0
193.053268 308.0
193.10434 148.0
194.051514 324.0
197.023712 172.0
198.036316 196.0
200.047241 152.0
201.97406 144.0
203.007797 156.0
204.980606 164.0
205.037598 200.0
205.988739 256.0
207.060303 408.0
213.039795 176.0
215.066528 180.0
217.005966 164.0
218.023697 156.0
218.048035 168.0
219.02478 140.0
219.069046 140.0
225.048477 240.0
232.974243 332.0
233.98175 144.0
234.980576 396.0
235.055359 196.0
236.059601 208.0
243.058121 144.0
243.092438 200.0
244.786575 172.0
245.72789 160.0
249.847687 164.0
260.082214 192.0
261.082733 160.0
262.001648 132.0
264.075623 144.0
266.526398 152.0
269.115845 164.0
272.04425 124.0
272.98233 176.0
279.028564 160.0
280.014862 176.0
289.045471 176.0
290.047913 168.0
295.031525 144.0
304.080536 148.0
305.007904 196.0
307.03064 128.0
308.028625 124.0
310.023254 196.0
323.026642 444.0
324.036011 188.0
325.018097 160.0
335.950562 152.0
342.950623 156.0
353.017822 208.0
366.998657 156.0
368.044617 376.0
370.040344 300.0
371.009216 200.0
371.157074 260.0
478.835083 152.0
635.310791 144.0
1629.345825 212.0
1723.46228 260.0
1729.56897 192.0
1756.849731 200.0
1867.806763 148.0
1886.467041 180.0
1912.811768 188.0
1932.622437 252.0
1949.633911 148.0
1949.950317 140.0
1961.744995 140.0
