>compound 55268-74-1
>formula C19H24N2O2 
>ionization [M+H]+
>parentmass 313.191895
#inchi InChI=1S/C19H24N2O2/c22-18-13-20(19(23)15-7-2-1-3-8-15)12-17-16-9-5-4-6-14(16)10-11-21(17)18/h4-6,9,15,17H,1-3,7-8,10-13H2
#inchikey FSVJFNAIGNNGKK
#Ion_Source LC-ESI
#Instrument qTof
#Compound_Source Commercial
#PI Dorrestein
#Data_Collector Garg_Neha
#Scan -1
#Precursor_MZ 313.193
#ExactMass 312.184
#Charge 1
#CAS_Number N/A
#Pubmed_ID N/A
#Smiles N/A
#INCHI_AUX N/A
#Library_Class 1
#SpectrumID CCMSLIB00000077003
#IonMode Positive
#UpdateWorkflowName UPDATE-SINGLE-ANNOTATED-GOLD
#LibraryQualityString Gold
#TaskID 48f7f52fc6d249b5abbcc6e7b3df5969
##Scan# 1439
#SpectrumFile NCP002928_E2_F11_BA4_01_15698.mzXML
#LibraryName NIH_Clinical_Collection_2.mgf
#MQScore -1
#Organism NIHcollection2_04212014_2_mgf
#TIC_Query 0
#RT_Query -1
#MZErrorPPM -1
#SharedPeaks 0
#MassDiff 0
#LibMZ -1
#SpecMZ 313.193
#SpecCharge 0
#internalFilename spec-00000.mgf

>collision 10
46.017315 140.0
46.396141 148.0
46.839157 180.0
47.339039 220.0
47.370541 192.0
47.551537 216.0
49.176495 172.0
49.495239 192.0
49.820633 152.0
49.859978 188.0
51.824039 196.0
52.128242 176.0
52.306587 220.0
53.017208 200.0
53.918072 204.0
54.711632 188.0
54.962193 200.0
55.42057 228.0
57.777313 148.0
58.408386 188.0
58.510345 160.0
59.03524 192.0
59.540977 216.0
60.644138 176.0
61.855999 180.0
62.109852 172.0
62.384655 148.0
62.523071 160.0
62.743595 152.0
63.413837 204.0
63.847271 140.0
64.132263 148.0
64.317291 180.0
66.131538 156.0
66.305336 140.0
67.542778 140.0
67.721191 168.0
68.996513 172.0
71.199425 156.0
71.584534 160.0
72.315552 152.0
73.263077 148.0
74.336845 168.0
75.092094 160.0
75.224953 148.0
75.658875 232.0
76.776146 192.0
77.029228 196.0
77.352737 180.0
77.845406 168.0
78.258629 184.0
78.668839 184.0
79.16449 252.0
79.766586 136.0
79.815735 140.0
80.161072 168.0
82.026863 200.0
83.092033 152.0
83.215454 232.0
83.914116 212.0
83.939636 228.0
84.206085 188.0
85.202576 192.0
85.758308 236.0
88.539711 176.0
88.78334 160.0
88.824257 172.0
89.486122 152.0
90.286201 200.0
90.92466 172.0
91.055656 316.0
91.567268 156.0
91.592026 176.0
92.71357 168.0
94.129433 176.0
94.193169 144.0
94.239532 220.0
94.454124 144.0
94.663147 152.0
96.999237 144.0
97.252274 232.0
97.315086 272.0
97.43293 144.0
101.901436 180.0
102.03006 140.0
102.753082 224.0
103.05513 280.0
103.34507 144.0
103.462685 156.0
104.208809 148.0
104.403946 152.0
104.961922 184.0
105.033302 148.0
105.069176 452.0
105.094505 148.0
105.48867 176.0
107.548347 196.0
108.795143 140.0
108.812317 176.0
108.849129 164.0
109.927422 152.0
110.497375 124.0
110.516685 212.0
110.818192 164.0
111.080101 444.0
112.040962 204.0
112.173721 148.0
112.433159 204.0
112.919075 184.0
114.334175 164.0
114.464035 204.0
114.621666 148.0
115.053421 144.0
115.965897 152.0
116.133141 156.0
116.861389 240.0
116.99913 148.0
117.069893 820.0
117.356781 172.0
117.630768 180.0
118.070671 256.0
118.355026 140.0
119.090202 176.0
119.398827 176.0
123.199745 140.0
124.029572 144.0
124.344528 216.0
124.70211 200.0
126.721664 172.0
126.777687 200.0
127.056778 176.0
127.900665 144.0
128.060776 580.0
128.784546 148.0
129.070053 2036.0
129.331726 236.0
129.678268 144.0
130.064346 660.0
130.211441 180.0
130.425018 224.0
131.051102 160.0
131.073349 548.0
132.002701 164.0
132.018707 160.0
132.081207 10424.0
132.826569 124.0
133.084793 1000.0
133.150833 152.0
136.201996 148.0
136.294922 192.0
138.780792 180.0
139.351135 144.0
140.042755 172.0
140.115784 156.0
141.067856 196.0
142.341492 192.0
142.424622 148.0
142.754974 140.0
143.073807 196.0
143.36441 148.0
143.760269 228.0
143.79129 176.0
143.98468 176.0
144.053955 152.0
144.081406 1020.0
144.601517 216.0
144.900833 312.0
145.084503 392.0
145.164505 212.0
145.428406 176.0
145.894409 160.0
146.096725 8484.0
146.361176 184.0
147.067535 136.0
147.100266 788.0
147.133362 208.0
147.45639 144.0
148.068497 172.0
148.097549 188.0
148.946518 148.0
149.167633 140.0
149.469223 164.0
150.083038 228.0
152.740265 140.0
153.067596 208.0
154.076385 192.0
154.120865 380.0
154.565933 168.0
155.123199 168.0
155.433212 212.0
155.537445 184.0
155.99202 180.0
156.080292 164.0
157.579529 140.0
158.096695 2364.0
158.496246 156.0
158.863846 144.0
159.097794 180.0
160.070267 172.0
160.102997 156.0
161.046265 148.0
161.111938 164.0
161.144775 196.0
161.175095 220.0
162.091095 156.0
162.162064 176.0
162.253311 160.0
162.402924 164.0
162.473953 208.0
162.507874 152.0
163.607407 152.0
164.836792 176.0
165.010605 212.0
168.425934 164.0
169.359695 144.0
170.316818 148.0
170.901749 208.0
170.932968 168.0
172.419418 180.0
173.10463 684.0
173.156326 144.0
174.031357 164.0
174.091629 26132.0
174.171326 184.0
174.28067 104.0
174.477097 156.0
175.094528 2640.0
175.122284 3952.0
175.781631 112.0
175.891724 144.0
176.015808 148.0
176.10498 348.0
176.124039 552.0
176.31752 132.0
177.063034 144.0
177.359772 228.0
179.324005 160.0
180.004288 176.0
181.615692 192.0
183.08287 140.0
183.859299 164.0
185.107147 308.0
186.093811 320.0
189.87468 152.0
190.225891 176.0
190.319229 196.0
192.920059 148.0
193.113617 156.0
194.399689 192.0
194.629501 160.0
195.416092 164.0
197.38385 200.0
200.450668 200.0
201.10051 896.0
201.186813 188.0
201.805542 180.0
202.16478 176.0
202.278 144.0
202.356293 164.0
202.924133 160.0
202.956528 180.0
203.022568 212.0
203.070831 280.0
203.118561 122408.0
203.22525 128.0
203.268723 116.0
203.358154 104.0
203.420975 112.0
203.451401 164.0
203.546341 188.0
203.583435 332.0
204.120895 13608.0
204.175049 120.0
204.30867 124.0
204.354752 108.0
204.461472 156.0
204.876892 160.0
205.122986 1284.0
205.248718 120.0
205.466919 144.0
205.50737 152.0
205.61412 232.0
205.746216 160.0
205.859451 124.0
205.975861 124.0
206.129654 176.0
211.753281 140.0
217.529633 168.0
221.10495 176.0
236.119553 216.0
238.987762 156.0
242.15506 228.0
246.707458 184.0
246.74498 140.0
252.15802 196.0
253.037415 148.0
254.160477 276.0
255.098114 100.0
255.990372 204.0
256.168915 1992.0
257.173645 608.0
257.502045 188.0
258.170441 136.0
267.029541 168.0
267.194885 144.0
267.481812 200.0
268.126709 200.0
269.209808 228.0
271.025299 148.0
273.893341 152.0
275.850098 172.0
281.041046 144.0
283.991638 160.0
285.195312 2104.0
286.198181 776.0
286.233215 156.0
294.327393 148.0
297.957977 220.0
299.767822 196.0
303.119751 332.0
304.142853 204.0
304.879181 140.0
305.195496 144.0
305.296326 180.0
309.154694 148.0
311.282562 164.0
311.447632 140.0
311.820068 204.0
312.087219 144.0
312.121674 224.0
312.3349 168.0
312.410797 228.0
312.555054 144.0
312.774139 140.0
312.883942 244.0
313.045502 156.0
313.073547 352.0
313.104553 168.0
313.191895 120200.0
313.292084 192.0
313.320038 204.0
313.354309 192.0
313.382355 252.0
313.413025 96.0
313.547424 152.0
313.769226 288.0
314.125488 120.0
314.194702 13524.0
314.278076 156.0
314.331848 136.0
314.55249 200.0
314.667542 104.0
314.719269 104.0
314.833862 164.0
314.899475 132.0
315.039917 168.0
315.197388 2632.0
315.256195 116.0
315.443726 104.0
315.915619 156.0
315.954407 168.0
316.04184 104.0
316.18103 124.0
316.274048 212.0
316.420593 132.0
316.455475 96.0
317.376556 140.0
317.959503 144.0
318.123596 184.0
318.320435 144.0
341.500458 180.0
343.235016 144.0
346.006104 160.0
419.128662 192.0
463.814606 144.0
994.261597 196.0
1148.568604 156.0
1276.482788 216.0
1289.121704 172.0
1344.12085 216.0
1379.108276 144.0
1408.585449 144.0
1411.066528 220.0
1425.450317 148.0
1465.951416 176.0
1546.823486 144.0
1575.266357 176.0
1587.946777 224.0
1603.362671 152.0
1641.393555 160.0
1662.158081 160.0
1669.25769 140.0
1686.247192 160.0
1689.378906 220.0
1692.37439 172.0
1694.225342 140.0
1736.369141 248.0
1763.539185 156.0
1813.494263 144.0
1817.768555 140.0
1863.218994 200.0
1876.654785 224.0
1877.335205 188.0
1882.038086 176.0
1889.358643 144.0
1895.982666 208.0
1941.763184 152.0
1952.196411 192.0
1960.074951 140.0
1971.98877 180.0
1988.74646 200.0
1995.524536 140.0
1999.741089 156.0
