>compound Roxithromycin (Roxl-150)
>formula C41H76N2O15
>ionization [M+Na]+
>parentmass 859.514709
#inchi InChI=1S/C41H76N2O15/c1-15-29-41(10,49)34(45)24(4)31(42-53-21-52-17-16-50-13)22(2)19-39(8,48)36(58-38-32(44)28(43(11)12)18-23(3)54-38)25(5)33(26(6)37(47)56-29)57-30-20-40(9,51-14)35(46)27(7)55-30/h22-30,32-36,38,44-46,48-49H,15-21H2,1-14H3/b42-31+/t22-,23-,24+,25+,26-,27+,28+,29-,30+,32-,33-,34-,35+,36-,38+,39-,40-,41-/m1/s1
#inchikey RXZBMPWDPOLZGW
#Ion_Source LC-ESI
#Instrument qTof
#Compound_Source Commercial
#PI Dorrestein
#Data_Collector Garg_Neha
#Scan -1
#Precursor_MZ 859.514
#ExactMass 836.525
#Charge 1
#CAS_Number 80214-83-1
#Pubmed_ID N/A
#Smiles [C@@]1([C@H](OC([C@@H]([C@@H]([C@@H]([C@H]([C@](C[C@H](C(/[C@@H]([C@H]1O)C)=N\OCOCCOC)C)(C)O)O[C@H]2[C@@H]([C@H](C[C@H](O2)C)N(C)C)O)C)O[C@@H]3O[C@H]([C@@H]([C@](C3)(C)OC)O)C)C)=O)CC)(O)C
#INCHI_AUX N/A
#Library_Class 1
#SpectrumID CCMSLIB00000078497
#IonMode Positive
#UpdateWorkflowName UPDATE-SINGLE-ANNOTATED-GOLD
#LibraryQualityString Gold
#TaskID 77f51c88eb8b467eb4a01dd2d0cb90d2
##Scan# 1194
#SpectrumFile Plate8_1_20_GC9_01_15762.mzXML
#LibraryName FDALibrary_2_04302014.mgf
#MQScore -1
#Organism FDALibrary_2_04302014
#TIC_Query 0
#RT_Query -1
#MZErrorPPM -1
#SharedPeaks 0
#MassDiff 0
#LibMZ -1
#SpecMZ 859.514
#SpecCharge 0
#internalFilename spec-00000.mgf

>collision 10
58.547455 160.0
100.82235 156.0
103.629532 172.0
115.077103 164.0
136.070938 152.0
151.073639 156.0
152.083221 164.0
158.118683 156.0
164.106552 164.0
165.096573 180.0
167.059937 132.0
167.465454 152.0
176.099304 120.0
180.099731 140.0
182.095078 136.0
192.100464 112.0
196.09317 356.0
197.080215 148.0
197.202713 184.0
198.081329 172.0
198.110901 148.0
206.145218 152.0
209.107758 160.0
210.086395 192.0
211.101257 208.0
224.103348 204.0
226.948837 152.0
234.143677 412.0
236.159836 244.0
239.087814 420.0
241.105057 144.0
245.164795 164.0
245.473419 196.0
247.167679 136.0
253.141174 160.0
263.137024 144.0
263.799286 140.0
271.158966 236.0
277.843048 236.0
278.134949 136.0
281.190582 176.0
291.156281 264.0
292.151733 176.0
293.255615 140.0
294.128662 556.0
294.193665 160.0
295.132416 168.0
296.146454 212.0
297.143738 160.0
297.169495 144.0
297.19519 228.0
306.165466 328.0
307.169647 268.0
308.161102 144.0
309.164062 1012.0
310.164642 408.0
311.16629 132.0
318.172272 108.0
324.218628 144.0
325.195648 448.0
336.225708 204.0
338.150238 140.0
340.2323 144.0
351.170532 160.0
351.216888 172.0
356.192413 112.0
362.197906 188.0
363.203918 156.0
364.21228 128.0
365.129578 168.0
375.196472 112.0
391.255219 1932.0
391.598816 160.0
392.25708 756.0
392.289764 176.0
396.196777 148.0
397.184082 148.0
398.982758 148.0
404.242188 292.0
404.281342 264.0
405.220795 148.0
405.280884 232.0
406.276093 124.0
407.255798 252.0
408.034241 156.0
408.225311 148.0
409.262909 452.0
410.262329 164.0
411.220612 156.0
411.267212 168.0
411.297272 148.0
412.238312 180.0
420.220093 140.0
421.304169 192.0
422.218872 224.0
422.253021 476.0
422.285614 228.0
423.230347 244.0
423.291046 152.0
425.252045 132.0
433.834747 168.0
434.066925 144.0
435.274475 156.0
438.250458 112.0
439.219269 136.0
440.258026 120.0
441.253052 168.0
446.751801 168.0
448.26004 128.0
448.916718 152.0
453.257507 2376.0
453.351288 188.0
454.261292 652.0
455.226715 424.0
456.224945 432.0
457.23291 140.0
457.266968 288.0
459.798553 156.0
463.776215 144.0
464.230682 324.0
465.289001 228.0
466.27417 1364.0
467.280273 444.0
467.822662 184.0
468.273895 140.0
477.367493 152.0
478.236969 112.0
483.255096 252.0
484.269135 116.0
485.275299 184.0
493.285675 244.0
494.287933 128.0
495.251617 160.0
496.258484 164.0
498.315369 280.0
500.265076 184.0
504.901825 192.0
506.259308 108.0
507.316315 136.0
508.291229 148.0
510.228851 192.0
512.318298 496.0
512.425171 164.0
513.320801 200.0
514.326538 268.0
515.321716 164.0
516.090088 172.0
520.286682 164.0
521.307556 248.0
522.301086 300.0
526.295471 148.0
535.301941 120.0
538.295959 1308.0
538.42804 176.0
538.561951 164.0
539.296509 336.0
539.546265 140.0
541.28418 148.0
541.355408 168.0
541.50824 180.0
552.323364 280.0
561.333496 140.0
562.253418 168.0
562.34314 196.0
566.954285 140.0
567.357849 140.0
573.64917 196.0
575.874939 144.0
577.343506 216.0
579.36145 1156.0
580.354614 1592.0
581.343994 420.0
582.34729 288.0
590.278381 144.0
595.350525 708.0
596.342896 380.0
597.370483 5816.0
597.524902 268.0
598.373657 2232.0
599.377258 412.0
600.387024 264.0
610.398743 212.0
611.259583 180.0
611.349976 3472.0
612.352234 1208.0
613.356506 664.0
614.337219 152.0
614.511597 148.0
615.313782 120.0
615.355591 140.0
617.939575 172.0
621.410706 128.0
622.3573 160.0
623.372559 144.0
624.376038 680.0
625.352295 132.0
625.412048 272.0
626.360901 108.0
627.372559 124.0
639.419617 168.0
639.584656 144.0
640.36084 244.0
640.411804 280.0
641.395569 368.0
651.377686 144.0
652.399292 160.0
656.053345 180.0
656.348511 168.0
657.352356 268.0
658.387695 120.0
667.38208 116.0
668.396851 96.0
669.36969 280.0
669.405762 156.0
674.580688 220.0
681.386597 156.0
683.402039 524.0
684.404236 416.0
685.407166 160.0
686.651917 156.0
695.402466 176.0
696.390991 180.0
698.753662 148.0
701.41687 1696.0
701.708313 140.0
702.10907 224.0
702.416016 680.0
702.610168 144.0
703.243408 156.0
703.422668 188.0
704.432861 204.0
706.958801 208.0
707.428345 124.0
710.412476 280.0
711.407104 128.0
717.438477 184.0
723.405701 160.0
723.445557 108.0
730.413879 148.0
732.373169 248.0
737.462219 304.0
737.539246 160.0
738.442383 280.0
738.585938 152.0
739.448486 480.0
744.146057 148.0
748.016846 156.0
753.448914 360.0
754.440125 304.0
755.226807 120.0
755.46582 16156.0
755.612061 96.0
755.766418 124.0
755.885437 156.0
756.139832 100.0
756.467957 6512.0
756.619995 312.0
757.467834 2508.0
758.460083 384.0
758.541687 192.0
759.703247 120.0
759.971436 108.0
760.238037 152.0
761.275574 148.0
761.371887 112.0
762.328125 180.0
764.370483 152.0
783.455933 148.0
783.522827 172.0
784.832581 148.0
786.442383 216.0
788.969727 144.0
792.635803 244.0
794.884399 152.0
796.045776 108.0
801.438293 256.0
813.913208 176.0
815.412903 168.0
820.064148 128.0
827.895752 144.0
834.79364 160.0
841.502441 368.0
843.002625 172.0
843.091187 160.0
843.524231 112.0
843.596313 172.0
846.317749 144.0
846.685425 128.0
847.761536 112.0
850.571594 104.0
850.845276 140.0
852.950256 144.0
855.173645 112.0
856.504822 108.0
856.676819 192.0
856.89856 104.0
857.15033 156.0
857.255066 168.0
857.757507 116.0
857.855103 136.0
858.045837 240.0
858.429443 124.0
858.492981 152.0
858.597778 128.0
858.822205 112.0
859.02655 304.0
859.152832 168.0
859.265869 172.0
859.370728 176.0
859.514709 81440.0
859.736145 244.0
859.799866 200.0
859.890808 208.0
859.96344 228.0
860.060364 192.0
860.208557 140.0
860.262878 204.0
860.393555 224.0
860.516846 31324.0
860.701599 304.0
860.906738 120.0
861.065308 108.0
861.24115 168.0
861.423401 228.0
861.518738 10080.0
861.713379 96.0
861.855591 140.0
861.905701 144.0
862.152405 152.0
862.420715 120.0
862.52124 1956.0
862.717163 108.0
862.862976 180.0
863.390686 236.0
863.519043 776.0
863.882751 164.0
864.242065 96.0
864.517395 196.0
864.604187 172.0
864.728577 200.0
864.80011 108.0
864.913391 136.0
864.960327 116.0
865.10144 116.0
865.158813 268.0
865.298706 108.0
865.498596 96.0
865.562073 104.0
865.795288 180.0
865.934753 192.0
867.006348 120.0
867.137207 108.0
868.013184 148.0
873.537842 160.0
882.558594 104.0
886.096924 124.0
888.384949 124.0
891.943054 116.0
1250.79834 140.0
1318.585449 140.0
1358.620728 144.0
1730.546265 144.0
1749.941772 168.0
1887.966919 180.0
