>compound Genistein
>formula C15H10O5
>ionization [M+H]+
>parentmass 271.061005
#inchi InChI=1S/C15H10O5/c16-9-3-1-8(2-4-9)11-7-20-13-6-10(17)5-12(18)14(13)15(11)19/h1-7,16-18H
#inchikey TZBJGXHYKVUXJN
#Ion_Source LC-ESI
#Instrument qTof
#Compound_Source Commercial
#PI Dorrestein
#Data_Collector Garg_Neha
#Scan -1
#Precursor_MZ 271.06
#ExactMass 270.053
#Charge 1
#CAS_Number 446-72-0
#Pubmed_ID N/A
#Smiles C1(=CC2=C(C(=C1)O)C(C(=CO2)C3=CC=C(C=C3)O)=O)O
#INCHI_AUX N/A
#Library_Class 1
#SpectrumID CCMSLIB00000078106
#IonMode Positive
#UpdateWorkflowName UPDATE-SINGLE-ANNOTATED-GOLD
#LibraryQualityString Gold
#TaskID 77f51c88eb8b467eb4a01dd2d0cb90d2
##Scan# 1224
#SpectrumFile Plate2_21_40_GG6_01_16494.mzXML
#LibraryName FDALibrary_2_04302014.mgf
#MQScore -1
#Organism FDALibrary_2_04302014
#TIC_Query 0
#RT_Query -1
#MZErrorPPM -1
#SharedPeaks 0
#MassDiff 0
#LibMZ -1
#SpecMZ 271.06
#SpecCharge 0
#internalFilename spec-00000.mgf

>collision 10
46.216541 144.0
46.308594 152.0
46.468376 152.0
46.956913 236.0
47.490059 264.0
47.759544 184.0
47.923367 168.0
48.55788 208.0
48.962574 212.0
49.609261 208.0
50.482224 232.0
51.55555 156.0
51.815975 208.0
52.008133 152.0
52.569431 156.0
52.655128 144.0
52.747082 172.0
53.947838 152.0
54.240612 228.0
55.551571 180.0
55.876923 152.0
55.936451 176.0
55.99802 160.0
56.136097 144.0
56.517006 148.0
57.299263 188.0
57.472652 164.0
57.51189 168.0
58.08234 184.0
59.285313 180.0
59.334362 200.0
59.805965 140.0
60.174404 228.0
60.417046 184.0
60.607483 156.0
60.787357 200.0
60.987705 224.0
61.152576 140.0
61.761093 160.0
61.923874 176.0
61.944237 188.0
62.044533 148.0
62.300339 140.0
62.449669 172.0
62.74099 180.0
64.040398 144.0
64.557495 176.0
64.964325 244.0
65.034935 172.0
65.198753 152.0
65.51252 160.0
65.651131 276.0
66.030655 164.0
66.137444 164.0
66.532982 148.0
66.589813 212.0
66.91993 192.0
67.076324 252.0
67.448502 172.0
68.076004 244.0
68.828552 232.0
69.633392 240.0
70.220909 188.0
70.336037 172.0
70.514763 204.0
70.688683 156.0
72.1064 232.0
73.116463 108.0
73.461411 196.0
73.551849 216.0
74.601936 140.0
74.742966 208.0
76.038864 132.0
76.410942 180.0
76.588509 188.0
76.666908 156.0
76.991402 172.0
78.77774 204.0
80.938728 192.0
81.42292 184.0
82.233109 204.0
83.016479 208.0
83.197922 176.0
83.901978 200.0
84.843506 176.0
85.109543 208.0
85.175659 140.0
85.641029 208.0
85.947052 144.0
86.227753 188.0
86.606247 232.0
87.314194 204.0
87.468628 148.0
88.235359 160.0
88.740868 184.0
88.855278 148.0
89.577179 204.0
91.054428 480.0
91.077225 144.0
91.518433 160.0
91.58699 204.0
91.609848 168.0
91.930168 216.0
95.313683 180.0
96.479218 200.0
96.694389 248.0
97.180374 180.0
97.433647 144.0
99.747803 188.0
100.289223 148.0
101.226212 164.0
103.062889 228.0
103.325592 228.0
103.457138 184.0
103.48143 176.0
104.944336 196.0
105.03611 368.0
105.610085 140.0
105.790154 204.0
106.07695 208.0
106.441147 140.0
106.585938 144.0
106.629089 160.0
107.048454 368.0
107.337265 256.0
107.564217 184.0
107.791397 184.0
108.457809 172.0
108.754425 224.0
109.027802 204.0
109.199059 140.0
109.375923 176.0
110.030502 168.0
110.720543 196.0
111.006584 244.0
111.125114 180.0
111.570358 176.0
112.681038 192.0
113.076469 152.0
114.328629 180.0
114.452095 160.0
114.957298 140.0
115.051018 176.0
116.718132 196.0
116.972008 276.0
117.071045 192.0
117.627319 152.0
119.050873 728.0
119.075874 176.0
119.843788 224.0
120.048691 160.0
120.258133 152.0
120.288689 168.0
120.966347 252.0
121.033241 192.0
121.117439 156.0
121.512039 352.0
121.990799 192.0
122.034767 196.0
122.149124 180.0
122.657791 164.0
122.734955 152.0
123.72036 140.0
123.795639 160.0
124.09478 168.0
124.685249 252.0
125.176895 176.0
126.276833 148.0
127.056671 204.0
127.112762 148.0
127.636147 212.0
128.063049 208.0
129.070557 352.0
130.094345 152.0
131.049133 360.0
131.085938 136.0
131.199982 164.0
131.275223 152.0
131.82309 168.0
132.50267 156.0
132.936035 192.0
133.023254 384.0
133.062271 220.0
133.60466 192.0
133.648376 312.0
135.039444 332.0
135.245377 160.0
135.717972 168.0
136.872818 164.0
137.025101 332.0
137.385574 164.0
137.646988 172.0
138.666977 244.0
139.227707 156.0
139.363953 152.0
139.902527 172.0
140.053238 176.0
141.071121 1200.0
141.285477 164.0
141.455872 232.0
141.922592 184.0
142.073624 224.0
142.651443 140.0
144.055176 220.0
144.179291 144.0
144.396866 156.0
144.423172 152.0
145.028809 1112.0
145.057724 192.0
146.024994 176.0
146.27803 176.0
146.329224 196.0
146.989014 184.0
147.010742 160.0
147.044769 212.0
147.082336 460.0
148.193176 188.0
148.56897 180.0
148.675735 200.0
149.023819 2184.0
150.029037 300.0
150.157364 184.0
150.352539 232.0
150.897263 204.0
151.030655 200.0
151.112503 144.0
152.06015 296.0
152.210587 160.0
152.746368 152.0
153.01799 6152.0
153.058136 184.0
154.02063 416.0
154.045471 176.0
154.902435 168.0
154.951614 100.0
155.048584 468.0
155.407135 212.0
156.062851 160.0
156.222031 144.0
156.734909 176.0
157.070465 128.0
157.388443 212.0
157.480835 148.0
157.498322 232.0
157.738205 156.0
158.203491 236.0
158.947357 172.0
159.0056 164.0
159.043839 472.0
159.080032 180.0
160.056519 224.0
160.081589 140.0
160.837952 180.0
161.059143 216.0
162.789978 144.0
163.038513 224.0
163.539978 252.0
164.449905 220.0
164.587769 340.0
165.019531 1216.0
166.025314 192.0
167.025482 140.0
167.091919 144.0
168.068436 168.0
168.145844 172.0
168.734802 156.0
169.065109 1068.0
169.55278 144.0
170.06987 388.0
171.081985 232.0
172.243149 192.0
172.572433 196.0
172.653488 140.0
173.058365 412.0
173.119324 196.0
174.063812 140.0
175.074463 252.0
175.144287 180.0
175.304993 168.0
176.107025 140.0
176.582779 196.0
176.929428 180.0
177.013596 236.0
177.056519 148.0
177.109497 232.0
177.95546 156.0
178.031906 524.0
178.436356 272.0
179.043274 148.0
180.190063 168.0
180.780991 216.0
181.019241 140.0
181.067978 392.0
182.513885 156.0
183.0439 460.0
183.157104 168.0
183.289108 144.0
183.421173 160.0
183.553268 192.0
183.790649 168.0
184.049042 176.0
184.452316 160.0
184.828247 220.0
185.012299 176.0
185.059326 308.0
185.597519 148.0
186.063293 156.0
186.585815 240.0
187.040161 460.0
187.075943 1428.0
188.073196 324.0
188.105942 272.0
189.059845 164.0
189.081741 204.0
189.709 148.0
189.887222 164.0
189.950317 172.0
190.925369 156.0
190.974884 168.0
191.032959 240.0
192.095978 156.0
192.391251 200.0
194.015198 216.0
195.016953 160.0
195.217468 156.0
196.058197 144.0
196.415085 156.0
197.06015 2692.0
197.518448 156.0
198.059052 160.0
198.170746 156.0
198.193161 212.0
199.073959 144.0
199.891998 152.0
200.043839 304.0
201.056259 996.0
201.408783 160.0
201.583954 172.0
202.900131 180.0
203.026398 332.0
203.072708 144.0
203.816895 216.0
204.155167 184.0
204.42543 148.0
205.000671 208.0
205.097565 236.0
206.076416 156.0
207.046143 152.0
209.245712 184.0
209.795975 144.0
211.0401 160.0
211.459793 176.0
212.54364 140.0
212.726471 188.0
212.80777 168.0
213.058182 256.0
214.056763 164.0
214.702133 176.0
214.734207 140.0
214.923828 144.0
215.037643 212.0
215.070023 7092.0
215.185608 152.0
215.215714 148.0
216.031021 196.0
216.074432 900.0
217.056229 204.0
217.076965 352.0
217.373032 156.0
217.505585 100.0
218.072006 204.0
218.76326 180.0
218.881027 152.0
219.063629 264.0
220.299683 188.0
221.28746 164.0
223.98996 156.0
224.049545 156.0
225.056808 524.0
226.055206 340.0
226.798767 156.0
227.029633 168.0
227.072433 704.0
228.038681 472.0
228.071457 316.0
229.052246 168.0
229.219742 184.0
229.854355 148.0
231.386795 208.0
231.556366 156.0
231.789642 184.0
231.995743 140.0
234.323715 216.0
235.0336 180.0
235.809814 168.0
236.244019 176.0
236.693939 148.0
236.90834 176.0
237.282227 220.0
237.763824 220.0
237.788376 184.0
238.156815 152.0
239.146881 188.0
240.351852 160.0
241.052811 252.0
241.946701 196.0
242.005524 148.0
242.056488 628.0
242.981827 200.0
243.06459 4616.0
243.279755 220.0
244.025391 172.0
244.069611 952.0
244.383072 152.0
244.55423 184.0
245.211411 164.0
246.659698 168.0
247.576431 144.0
247.96492 168.0
248.89978 160.0
251.118439 168.0
253.048767 2460.0
253.222321 152.0
254.054871 504.0
255.467575 204.0
255.860809 156.0
257.939392 120.0
258.054047 156.0
260.101166 148.0
261.042511 188.0
262.294952 148.0
262.943268 224.0
263.589142 160.0
265.774841 180.0
265.940338 196.0
267.025543 188.0
268.745544 252.0
269.135742 160.0
269.571686 164.0
269.663208 164.0
269.855164 160.0
269.915497 228.0
270.053894 348.0
270.199493 120.0
270.248566 176.0
270.278015 172.0
270.329224 196.0
270.446716 160.0
270.503265 208.0
270.552856 156.0
270.639221 164.0
270.673553 176.0
270.740906 236.0
270.8255 116.0
270.864044 168.0
270.905518 96.0
270.926819 224.0
270.991058 212.0
271.061005 78144.0
271.190216 148.0
271.257538 148.0
271.329803 100.0
271.373688 100.0
271.406311 120.0
271.435303 100.0
271.493683 112.0
271.544617 132.0
271.600037 244.0
271.641571 180.0
271.693787 156.0
271.754303 108.0
271.79483 96.0
271.972931 144.0
272.063995 9972.0
272.141113 188.0
272.22644 116.0
272.323792 116.0
272.591431 96.0
272.629211 180.0
273.066589 1856.0
273.132721 172.0
273.169617 180.0
273.447418 148.0
273.56958 120.0
273.764191 236.0
273.798401 204.0
273.883453 100.0
273.955322 128.0
274.077454 184.0
274.787445 120.0
423.021362 172.0
447.05957 168.0
603.007202 180.0
836.602661 148.0
1196.568481 160.0
1244.369873 340.0
1355.362427 232.0
1425.070435 140.0
1457.318481 156.0
1515.891479 152.0
1516.837769 188.0
1536.543335 148.0
1538.072876 232.0
1545.199951 176.0
1632.62085 176.0
1646.127075 160.0
1697.960205 152.0
1758.266479 224.0
1784.317749 172.0
1793.063721 176.0
1828.729492 280.0
1834.632568 176.0
1839.40979 172.0
1843.44104 188.0
1854.044189 144.0
1857.894165 260.0
1877.471191 272.0
1878.877197 196.0
1884.722412 160.0
1889.919067 188.0
1892.022217 176.0
1894.784912 188.0
1921.74646 208.0
1941.656128 200.0
1947.229248 160.0
1958.575562 196.0
