>compound MLS001159167-01!(2S)-3-(1H-indol-3-yl)-2-[[(2S)-3-methyl-2-[(3-oxo-2,4-dihydroquinoxaline-1-carbonyl)amino]pentanoyl]amino]propanoic acid
>formula C26H29N5O5
>ionization [M+H]+
>parentmass 492.225
#inchi InChI=1S/C26H29N5O5/c1-3-15(2)23(30-26(36)31-14-22(32)28-19-10-6-7-11-21(19)31)24(33)29-20(25(34)35)12-16-13-27-18-9-5-4-8-17(16)18/h4-11,13,15,20,23,27H,3,12,14H2,1-2H3,(H,28,32)(H,29,33)(H,30,36)(H,34,35)/t15?,20-,23-/m0/s1
#inchikey WOTLZHIBNVZFQZ
#Ion_Source LC-ESI
#Instrument qTof
#Compound_Source NIH Natural Product Library
#PI Dorrestein
#Data_Collector VVP/LMS
#Scan -1
#Precursor_MZ 492.225
#ExactMass 491.217
#Charge 1
#CAS_Number N/A
#Pubmed_ID N/A
#Smiles CCC(C)[C@H](NC(=O)N1CC(=O)Nc2ccccc12)C(=O)N[C@@H](Cc3c[nH]c4ccccc34)C(=O)O
#INCHI_AUX N/A
#Library_Class 1
#SpectrumID CCMSLIB00000079547
#IonMode Positive
#UpdateWorkflowName UPDATE-SINGLE-ANNOTATED-GOLD
#LibraryQualityString Gold
#TaskID b1d8e8f6646f4e71acdff9ca3d919d08
##Scan# 1949
#SpectrumFile p1-A08_GA8_01_17873.mzXML
#LibraryName NIH_Natural_Products_Library.mgf
#MQScore -1
#Organism NIH_Natural_Products_Library
#TIC_Query 0
#RT_Query -1
#MZErrorPPM -1
#SharedPeaks 0
#MassDiff 0
#LibMZ -1
#SpecMZ 492.225
#SpecCharge 0
#internalFilename spec-00000.mgf

>collision 10
95.068306 172.0
95.095474 204.0
95.140114 192.0
95.34404 208.0
95.417892 116.0
95.44706 156.0
96.241959 172.0
96.257576 172.0
96.623039 148.0
96.843246 196.0
96.857925 188.0
97.040154 176.0
97.220596 180.0
97.293213 192.0
97.670471 152.0
97.818031 164.0
98.154892 52.0
99.341438 168.0
99.379128 252.0
99.410873 96.0
99.670975 232.0
99.85981 196.0
100.240005 56.0
100.666847 164.0
100.718773 140.0
100.932587 128.0
100.968575 176.0
101.745949 196.0
101.944778 88.0
102.047279 144.0
102.084679 232.0
102.467873 140.0
102.623047 180.0
102.933746 252.0
103.05014 136.0
103.204483 160.0
103.333908 136.0
103.424965 40.0
103.603142 64.0
103.868668 252.0
103.882866 124.0
103.901123 228.0
104.129295 152.0
104.230003 120.0
104.246254 172.0
104.581787 248.0
104.83226 148.0
104.858749 232.0
105.044083 124.0
105.08712 116.0
105.41787 76.0
105.504578 196.0
105.522102 168.0
105.777794 176.0
105.828964 108.0
106.288048 132.0
106.614517 152.0
106.752235 104.0
108.262054 220.0
108.650223 164.0
108.988602 244.0
109.421173 152.0
109.475304 116.0
109.539864 156.0
110.16143 204.0
110.535629 204.0
111.227165 176.0
111.292236 140.0
111.48127 136.0
111.769318 144.0
111.832451 212.0
112.077393 172.0
112.312798 160.0
112.642044 184.0
113.016205 144.0
113.249329 176.0
113.439728 48.0
113.660271 172.0
113.692101 136.0
114.142395 204.0
114.174294 164.0
114.323189 144.0
114.453026 164.0
114.495613 220.0
114.646851 192.0
114.674553 164.0
115.049934 152.0
115.289131 148.0
115.603455 224.0
115.97821 108.0
116.355713 216.0
116.768242 200.0
116.895325 196.0
117.19442 132.0
117.235359 32.0
118.067894 396.0
118.354179 208.0
118.683495 204.0
119.024117 160.0
119.060471 2912.0
119.137047 32.0
119.189186 48.0
119.254372 52.0
119.846222 80.0
120.045403 124.0
120.063522 360.0
120.330368 128.0
120.812004 152.0
120.883308 176.0
120.903 60.0
121.007225 236.0
121.054848 204.0
121.076485 9920.0
121.130676 76.0
121.167915 60.0
121.189026 44.0
121.238029 112.0
121.275284 112.0
121.378975 92.0
121.413391 148.0
121.435318 164.0
121.494537 68.0
121.564743 104.0
121.755707 136.0
122.079147 800.0
122.16449 208.0
122.450607 184.0
122.814232 96.0
122.842911 88.0
122.956299 192.0
122.979698 84.0
123.063576 136.0
123.624962 140.0
123.892845 100.0
124.331825 48.0
124.369553 176.0
124.709343 152.0
125.185387 176.0
125.278923 204.0
125.669029 196.0
126.169258 200.0
126.274338 160.0
126.746635 216.0
127.552238 164.0
127.720863 192.0
127.923363 52.0
128.017914 200.0
128.193604 220.0
128.353638 40.0
129.16658 256.0
129.261597 168.0
129.293274 168.0
129.807449 180.0
130.065018 2076.0
130.087921 236.0
130.106918 144.0
130.261322 96.0
130.861633 148.0
131.065033 200.0
132.043549 164.0
132.081131 224.0
132.306656 80.0
133.044769 168.0
133.079605 184.0
133.253738 136.0
133.547943 136.0
133.906952 152.0
133.925385 184.0
133.957626 156.0
134.077423 140.0
134.125824 184.0
134.287201 176.0
135.902008 160.0
136.263885 200.0
136.740524 136.0
136.798706 100.0
136.852249 160.0
137.213333 124.0
137.262299 168.0
138.091248 144.0
138.402451 148.0
138.86171 68.0
138.896896 232.0
139.068161 72.0
139.375763 96.0
139.723694 144.0
140.013184 156.0
141.47934 156.0
141.512482 176.0
141.796707 156.0
142.00296 96.0
142.066299 344.0
142.434891 148.0
142.674881 52.0
143.07196 120.0
143.134018 144.0
143.199051 64.0
144.044968 424.0
144.082291 760.0
144.240891 136.0
144.692978 40.0
145.224884 112.0
145.258469 164.0
145.53923 48.0
145.632874 160.0
146.059982 2136.0
146.339798 80.0
146.513184 68.0
146.640884 184.0
146.751984 260.0
146.983292 180.0
147.009293 200.0
147.020538 100.0
147.030563 244.0
147.055237 26344.0
147.114655 268.0
147.16188 68.0
147.199707 84.0
147.216385 140.0
147.252487 84.0
147.291214 64.0
147.340591 80.0
147.38649 76.0
147.44902 68.0
147.485138 184.0
147.565323 48.0
147.807175 88.0
147.857986 132.0
147.90155 68.0
147.942688 64.0
147.979004 124.0
148.058105 2292.0
148.112183 100.0
148.233307 52.0
148.257538 64.0
148.54361 140.0
148.727997 224.0
148.820236 68.0
148.856659 144.0
148.939224 76.0
149.024231 188.0
149.069656 1328.0
149.116562 48.0
149.147446 108.0
149.184891 144.0
149.221085 140.0
149.276993 72.0
150.069565 380.0
150.54892 212.0
151.098831 172.0
151.502731 40.0
151.995239 180.0
152.02002 64.0
152.550476 144.0
152.688156 96.0
153.513062 48.0
154.090576 120.0
155.008438 220.0
155.057999 72.0
155.844543 128.0
157.00441 128.0
157.094193 136.0
157.263855 180.0
157.683411 64.0
157.825882 136.0
157.955917 88.0
158.085342 556.0
158.2612 68.0
159.053314 200.0
159.091415 1748.0
159.412415 128.0
159.56572 60.0
159.781982 144.0
160.005951 88.0
160.091797 424.0
160.348495 124.0
160.383774 84.0
161.079361 332.0
161.223663 124.0
161.385895 192.0
161.411163 104.0
161.813431 148.0
161.995743 92.0
162.342941 148.0
162.614365 164.0
162.700668 232.0
162.920715 188.0
163.595413 120.0
164.082718 1052.0
165.081314 180.0
165.141571 48.0
166.05069 144.0
166.928879 184.0
166.990601 220.0
167.055588 360.0
168.371857 160.0
168.756851 36.0
169.074799 136.0
169.098267 192.0
169.639557 80.0
170.057877 800.0
170.514191 136.0
170.537582 180.0
170.96405 160.0
171.061417 176.0
171.263428 164.0
171.427536 168.0
171.523956 144.0
171.623016 144.0
171.96994 36.0
172.00386 40.0
172.108276 172.0
172.210114 76.0
172.28064 152.0
172.335495 172.0
172.560242 156.0
173.075623 164.0
173.520996 128.0
174.048309 172.0
174.221634 84.0
174.418701 152.0
174.466003 56.0
174.502808 108.0
175.049911 13448.0
175.092178 140.0
175.12114 36.0
175.159119 48.0
175.197067 92.0
175.266022 56.0
175.287094 76.0
175.453125 148.0
175.487396 212.0
175.516403 172.0
175.582321 116.0
175.603409 68.0
175.827652 104.0
175.901535 44.0
176.054108 1452.0
176.165573 148.0
176.236908 96.0
176.292389 44.0
176.68103 48.0
176.720703 220.0
176.845062 112.0
176.929764 152.0
176.953583 28.0
177.055939 128.0
177.088623 136.0
177.221069 92.0
177.337662 124.0
177.682343 192.0
178.043289 180.0
178.386002 44.0
178.436508 108.0
178.572113 56.0
178.758316 172.0
179.413467 88.0
180.534775 68.0
181.096725 32.0
181.509399 96.0
181.807129 124.0
181.976212 136.0
184.063034 168.0
184.925003 148.0
185.070816 1124.0
185.122604 56.0
185.90596 96.0
186.078476 212.0
186.166534 84.0
186.82695 48.0
187.025574 36.0
187.066391 164.0
187.090897 172.0
187.115387 204.0
187.251526 108.0
187.384995 72.0
187.447647 56.0
188.069992 3208.0
188.14035 80.0
188.268661 264.0
188.334213 80.0
188.459854 52.0
188.478989 156.0
188.56604 144.0
188.612885 180.0
189.070587 544.0
189.103516 292.0
189.136765 276.0
190.077927 300.0
190.105072 112.0
190.132812 200.0
190.234344 124.0
190.55014 72.0
190.808456 172.0
191.061447 52.0
191.477036 232.0
191.5569 60.0
191.9758 156.0
192.036453 132.0
192.075531 5092.0
192.15506 64.0
192.284744 32.0
192.359253 68.0
192.472443 32.0
192.582886 152.0
192.604004 160.0
192.881271 68.0
193.079544 736.0
193.107971 44.0
193.237976 156.0
193.290543 208.0
193.36525 52.0
193.819351 96.0
194.06601 132.0
194.085419 124.0
194.296188 124.0
194.615326 72.0
195.101471 180.0
195.262726 64.0
195.713486 208.0
196.117386 100.0
196.845459 148.0
197.029785 36.0
197.071686 132.0
198.00029 180.0
198.793564 156.0
199.079086 172.0
199.879471 176.0
200.590576 144.0
200.683594 80.0
201.067184 212.0
201.386185 216.0
202.058899 136.0
202.126801 140.0
203.067429 176.0
204.076385 2000.0
205.022995 136.0
205.084671 512.0
206.544617 120.0
206.759171 100.0
207.088379 108.0
207.171448 164.0
211.591644 148.0
213.056046 188.0
213.093811 132.0
215.0784 352.0
215.108856 136.0
216.078979 180.0
216.119934 164.0
217.133469 412.0
217.961121 180.0
219.011276 152.0
220.935699 144.0
221.776581 196.0
222.123459 128.0
222.720032 136.0
223.043869 124.0
223.073593 148.0
223.094391 96.0
224.246216 124.0
225.03067 132.0
225.069489 88.0
225.138153 108.0
226.037857 168.0
226.142578 112.0
227.159912 144.0
227.452286 60.0
229.024689 220.0
231.394974 108.0
231.631165 120.0
231.867462 52.0
232.106918 112.0
232.144699 1296.0
232.200928 68.0
232.285843 228.0
233.147583 136.0
233.877884 272.0
234.237152 76.0
235.75029 172.0
237.029266 192.0
237.137817 356.0
238.139679 152.0
239.154205 144.0
240.387192 168.0
240.568893 128.0
241.18045 220.0
243.047668 340.0
243.112137 284.0
248.184402 160.0
248.237701 136.0
248.297272 104.0
248.918564 144.0
248.956238 228.0
250.034439 140.0
251.967148 92.0
254.135666 176.0
254.163055 272.0
254.500641 52.0
255.040634 164.0
255.170959 388.0
255.212296 204.0
255.86763 160.0
256.176514 120.0
256.233856 196.0
256.766113 80.0
259.192169 88.0
259.2146 192.0
259.269073 40.0
259.547943 124.0
259.628082 88.0
259.724304 172.0
259.878265 140.0
259.907135 140.0
260.006622 164.0
260.076447 148.0
260.138763 21196.0
260.190765 160.0
260.269806 36.0
260.356506 40.0
260.394928 108.0
260.440002 140.0
260.487854 156.0
260.536346 44.0
260.589417 52.0
260.660431 168.0
260.696259 104.0
260.7677 52.0
260.812683 36.0
260.947693 32.0
261.065674 192.0
261.089142 84.0
261.14151 3316.0
261.214569 52.0
261.283569 88.0
261.408447 60.0
261.474396 132.0
261.601868 124.0
261.736908 68.0
261.874359 40.0
261.974182 80.0
262.144409 256.0
262.26416 64.0
262.309296 48.0
262.416992 88.0
262.444672 64.0
262.528503 168.0
262.5672 56.0
262.886536 112.0
262.910339 128.0
263.012421 80.0
263.14151 44.0
263.299713 48.0
264.395569 64.0
270.12146 76.0
270.150879 44.0
270.805481 44.0
271.142883 132.0
271.59201 100.0
273.043549 128.0
273.069885 48.0
275.928497 84.0
277.076782 140.0
279.028015 124.0
279.393829 200.0
280.286011 88.0
288.129578 184.0
289.132324 124.0
292.823914 128.0
293.556519 144.0
296.009796 108.0
296.468781 84.0
297.837555 160.0
298.15329 2876.0
298.476715 88.0
299.155457 788.0
300.156433 244.0
300.826141 52.0
307.210724 40.0
308.125275 172.0
310.50177 76.0
313.112762 100.0
319.078064 68.0
324.934601 92.0
326.160889 180.0
327.155334 152.0
327.400146 88.0
328.149567 116.0
333.295898 92.0
338.115082 136.0
341.116211 68.0
344.158966 192.0
356.127014 236.0
357.126953 116.0
358.131531 136.0
360.523224 72.0
361.116699 136.0
363.207245 108.0
367.26532 108.0
370.104462 160.0
374.146881 100.0
376.11264 112.0
376.749725 64.0
380.141113 144.0
393.120331 64.0
412.041748 80.0
415.267609 72.0
427.160889 160.0
441.176178 204.0
443.176483 132.0
455.136383 176.0
455.63858 80.0
456.301483 40.0
457.134064 112.0
457.177612 64.0
458.148773 112.0
477.28241 72.0
482.129272 140.0
482.203552 52.0
485.390198 96.0
486.186646 276.0
487.171906 128.0
491.305206 36.0
492.731018 88.0
493.075623 92.0
493.221466 108.0
496.102875 104.0
499.948914 48.0
504.202972 72.0
548.177185 108.0
558.311218 36.0
601.360535 148.0
608.182739 164.0
608.973145 20.0
609.990173 76.0
641.997375 68.0
642.64917 116.0
654.12677 88.0
668.682251 116.0
669.536743 56.0
675.228638 80.0
682.15509 104.0
697.1698 68.0
698.142273 124.0
699.152222 92.0
711.402832 176.0
729.005432 76.0
738.374023 124.0
786.303894 192.0
797.212097 164.0
811.293091 116.0
859.874512 96.0
928.384583 152.0
971.383484 196.0
973.220276 124.0
986.601501 240.0
988.408813 184.0
988.784241 88.0
1003.065613 108.0
1036.088745 184.0
1052.068115 152.0
1072.512451 68.0
1163.869019 180.0
1171.069946 236.0
1172.078735 180.0
1173.788818 184.0
1178.491089 156.0
1181.369019 168.0
1185.003906 100.0
1186.12085 112.0
1188.109375 128.0
1207.172485 176.0
1208.991699 224.0
1217.392822 172.0
1218.128906 136.0
1223.517822 124.0
1227.419067 188.0
1251.083984 144.0
1255.748169 212.0
1257.095459 196.0
1258.704712 124.0
1261.806152 180.0
1265.067139 76.0
1268.020508 188.0
1269.459473 192.0
1271.935303 108.0
1275.372803 212.0
1279.39856 140.0
1286.926514 160.0
1287.019287 168.0
1287.075073 88.0
1296.424683 108.0
1298.180786 200.0
1301.739746 168.0
1301.991089 240.0
1309.90918 204.0
1313.152344 160.0
1314.840332 56.0
1316.890503 272.0
1317.627319 56.0
1323.434448 132.0
1323.49231 108.0
1323.579224 44.0
1330.132324 180.0
1340.006958 140.0
1342.258911 192.0
1347.279907 188.0
1348.624268 104.0
1353.56189 100.0
1358.611206 32.0
1360.856689 144.0
1362.516357 240.0
1364.147583 168.0
1370.453979 188.0
1370.734009 208.0
1377.779419 88.0
1382.289062 280.0
1382.710815 116.0
1386.872803 188.0
1387.747437 100.0
1389.252808 276.0
1396.925659 76.0
1404.83606 156.0
1409.546631 52.0
1409.621338 192.0
1410.136963 140.0
1413.180176 148.0
1417.972168 128.0
1418.054565 32.0
1418.241943 172.0
1419.171387 144.0
1422.37439 188.0
1426.152222 128.0
1426.80603 64.0
1427.129395 256.0
1429.799438 200.0
1435.833374 180.0
1442.794434 212.0
1445.350586 48.0
1453.131104 128.0
1456.706421 132.0
1461.465088 188.0
1469.349854 104.0
1470.830078 200.0
1475.382446 184.0
1476.353394 240.0
1477.049316 232.0
1480.653076 180.0
1481.994263 76.0
1483.319946 128.0
1484.446899 164.0
1488.759033 116.0
1496.755493 192.0
1501.293823 84.0
1502.774658 216.0
1503.932129 144.0
