>compound NCGC00160233-01!8,8-Dimethyl-10H-pyrano[2,3-f]chromen-2,9-dione
>formula C14H12O4
>ionization [M+H]+
>parentmass 245.080612
#inchi InChI=1S/C14H12O4/c1-14(2)11(15)7-9-10(18-14)5-3-8-4-6-12(16)17-13(8)9/h3-6H,7H2,1-2H3
#inchikey UKSKSIFYCHCZDG
#Ion_Source LC-ESI
#Instrument qTOF
#Compound_Source Prestwick Phytochem Lib
#PI Dorrestein
#Data_Collector VVP/LMS
#Scan -1
#Precursor_MZ 245.081
#ExactMass 245.081
#Charge 1
#CAS_Number N/A
#Pubmed_ID N/A
#Smiles CC1(C)OC2=CC=C3C=CC(=O)OC3=C2CC1=O
#INCHI_AUX N/A
#Library_Class 1
#SpectrumID CCMSLIB00000078766
#IonMode Positive
#UpdateWorkflowName UPDATE-SINGLE-ANNOTATED-GOLD
#LibraryQualityString Gold
#TaskID 67c915c6594c435cadc1fe2b5358144d
##Scan# 2013
#SpectrumFile p1-F03_GF3_01_17935.mzXML
#LibraryName phytochem_lib.mgf
#MQScore -1
#Organism phytochem_lib
#TIC_Query 0
#RT_Query -1
#MZErrorPPM -1
#SharedPeaks 0
#MassDiff 0
#LibMZ -1
#SpecMZ 245.081
#SpecCharge 0
#internalFilename spec-00000.mgf

>collision 10
95.782669 132.0
96.532112 152.0
97.213814 148.0
97.990501 68.0
100.24939 140.0
100.87809 72.0
101.036079 124.0
101.665237 196.0
101.892128 180.0
101.948387 176.0
102.040848 128.0
103.048431 172.0
103.06562 284.0
104.063286 156.0
104.142288 196.0
105.035126 236.0
105.064598 168.0
107.493698 184.0
108.629784 232.0
109.338303 180.0
112.716728 48.0
115.053947 420.0
115.514664 148.0
115.662308 184.0
116.065071 320.0
119.012543 152.0
119.049164 320.0
120.712151 164.0
121.022865 304.0
121.513817 168.0
122.351151 76.0
122.395187 180.0
123.556129 204.0
125.07399 144.0
126.051262 204.0
127.053108 680.0
127.637848 56.0
128.061493 2380.0
129.068863 144.0
130.043808 200.0
130.073318 188.0
130.232254 72.0
131.049759 780.0
132.048782 140.0
132.112823 212.0
133.026154 172.0
134.034531 296.0
135.851761 64.0
136.485809 184.0
137.265854 172.0
139.053162 112.0
140.058075 148.0
141.068192 300.0
142.076035 176.0
143.047821 160.0
143.088959 184.0
143.963364 204.0
144.709412 40.0
145.056519 184.0
145.354172 120.0
146.062897 80.0
147.042648 1636.0
147.113541 64.0
147.188385 44.0
148.047699 344.0
148.068619 60.0
148.660141 160.0
149.505829 140.0
149.608063 56.0
149.654312 140.0
151.056152 400.0
152.061752 484.0
152.573105 80.0
153.067215 396.0
154.066544 192.0
154.308746 64.0
155.052444 180.0
155.08342 124.0
155.693893 48.0
155.877716 52.0
156.059387 380.0
157.062012 212.0
158.034561 100.0
159.039398 144.0
159.207687 120.0
161.025223 440.0
161.589706 20.0
162.030228 172.0
162.951187 212.0
163.00708 128.0
163.035034 200.0
165.082092 140.0
169.059204 104.0
170.075165 204.0
170.093323 128.0
170.462128 48.0
171.041885 168.0
171.079224 320.0
171.273834 116.0
171.362411 64.0
172.413986 72.0
172.712051 68.0
173.075806 208.0
173.09938 200.0
174.059097 184.0
174.487366 48.0
174.855637 180.0
174.931961 184.0
174.981979 188.0
175.03801 2808.0
175.970657 224.0
176.042145 404.0
176.546692 32.0
176.78479 172.0
177.049515 156.0
178.057297 168.0
180.057388 192.0
181.06218 364.0
181.515854 56.0
182.068558 116.0
182.377625 108.0
183.034042 148.0
183.163315 104.0
184.050156 424.0
185.051926 188.0
186.02153 120.0
186.054108 152.0
186.679031 32.0
187.063828 196.0
187.084442 60.0
189.018951 292.0
189.046677 264.0
189.05571 144.0
189.145416 52.0
190.016861 212.0
190.048508 180.0
190.085464 116.0
191.542587 72.0
197.066132 132.0
198.07045 196.0
199.042206 232.0
199.077469 184.0
199.335754 180.0
200.07547 108.0
203.028198 120.0
212.045135 136.0
214.294281 196.0
215.034958 120.0
217.085709 168.0
217.669708 88.0
221.891968 48.0
225.048721 168.0
225.697098 136.0
227.066086 828.0
228.074432 384.0
228.245789 60.0
245.080612 360.0
295.470367 40.0
333.937622 56.0
338.455475 72.0
365.419647 56.0
426.392456 168.0
615.332336 48.0
745.101196 88.0
885.339172 152.0
892.495544 56.0
894.000488 44.0
953.510437 148.0
1067.4021 188.0
1075.721924 216.0
1096.725464 196.0
1105.046021 132.0
1125.023804 236.0
1184.63623 20.0
1198.924194 212.0
1210.924561 168.0
1222.894165 196.0
1262.385864 96.0
1296.492798 196.0
1311.506714 232.0
1337.64856 64.0
1341.633179 148.0
1349.064819 180.0
1351.639282 48.0
1365.732178 164.0
1381.036987 192.0
1398.465698 80.0
1414.820679 188.0
1482.018555 136.0
1495.164917 196.0
1503.580688 136.0
