>compound Olanzapine
>formula C17H20N4S 
>ionization [M+H]+
>parentmass 313.147125
#inchi InChI=1S/C17H20N4S/c1-12-11-13-16(21-9-7-20(2)8-10-21)18-14-5-3-4-6-15(14)19-17(13)22-12/h3-6,11,18H,7-10H2,1-2H3
#inchikey WXPNDRBBWZMPQG
#Ion_Source LC-ESI
#Instrument qTof
#Compound_Source Isolated
#PI Sirenas
#Data_Collector Ed Esquenazi 
#Scan -1
#Precursor_MZ 313.149
#ExactMass 0.0
#Charge 1
#CAS_Number N/A
#Pubmed_ID N/A
#Smiles N/A
#INCHI_AUX N/A
#Library_Class 3
#SpectrumID CCMSLIB00000004376
#IonMode Positive
#UpdateWorkflowName UPDATE-SINGLE-ANNOTATED-BRONZE
#LibraryQualityString Bronze
#TaskID d19310cd93df49b68e9fcbec27720eb5
##Scan# 3
#SpectrumFile Olanzapine.mgf
#LibraryName fda_library.mgf
#MQScore -1
#Organism fda_library
#TIC_Query 0
#RT_Query -1
#MZErrorPPM -1
#SharedPeaks 0
#MassDiff 0
#LibMZ -1
#SpecMZ 313.149
#SpecCharge 0
#internalFilename spec-00000.mgf

>collision 10
100.102623 13.00397
101.037575 31.566561
101.107513 458.747009
101.141602 2.345833
101.152107 2.204167
101.166107 1.008333
101.400681 4.035201
101.502373 5.026175
101.800842 2.296875
102.046463 44.516571
102.174911 4.066123
102.828728 25.27939
102.859329 2.033333
103.039726 4.668982
104.048332 355.264893
104.140343 3.206731
104.156532 6.633772
104.190605 2.671875
104.255028 12.65646
104.478325 2.017045
104.489113 3.503205
104.578598 4.444444
105.060143 18.805941
105.209152 3.755482
105.433609 3.0
105.579582 9.565217
106.065155 377.677307
106.09742 7.356419
106.120735 4.975379
106.138496 4.833818
106.174362 1.675
106.218788 6.446509
106.235626 2.816667
106.303169 1.928571
106.404564 16.25069
106.482841 2.695513
107.073448 126.171097
107.142822 8.177083
107.248886 2.016667
107.328178 2.761364
107.475952 1.52381
108.419334 3.199597
109.011696 190.2677
109.286804 3.167339
109.549828 5.767262
109.643509 5.104167
109.927826 6.851894
110.005585 325.6362
110.201569 3.6
110.260002 3.539216
110.289253 2.240741
110.406364 12.94466
110.418961 8.208333
110.610893 8.452712
110.983116 7.233797
111.025963 65.074432
111.054123 2.35
112.086792 3.125
114.433952 9.699054
114.504677 5.848333
114.530739 5.043269
114.660843 4.833333
114.713158 4.189312
115.053604 489.037903
115.101074 2.342262
115.124664 6.906746
115.139305 2.224537
115.164787 3.12004
115.244095 5.227904
115.257957 7.214285
115.296082 9.4875
115.384903 3.201868
115.398666 6.142424
115.448456 5.763889
115.463615 2.449074
115.616989 6.846154
115.777618 2.506944
116.001465 4.533333
116.049484 469.133087
116.100151 8.484584
116.244453 8.380029
116.493683 5.001894
116.524826 4.713362
116.573837 5.840278
116.801781 5.198506
116.978432 29.057079
117.039047 15.67814
117.057266 385.104187
117.103188 2.843254
117.121582 2.678571
117.223289 8.362939
117.237869 3.841666
117.257095 3.185185
117.295135 5.969477
117.37397 2.673611
117.718102 7.817581
117.834221 3.729167
118.052055 114.416298
118.061264 148.564102
118.102303 1.745192
118.114502 0.854167
118.371101 8.069636
118.677879 5.561484
118.939522 3.921569
119.060547 545.845215
119.068893 34.650002
119.110123 14.489
119.121704 1.540064
119.311493 3.518518
119.528328 1.340278
119.695732 4.672024
119.89772 2.701389
119.985168 8.834596
119.996605 4.335526
120.004051 9.005068
120.079437 188.382202
120.194145 1.847222
120.280952 5.742424
120.379631 4.628205
120.408638 6.25
120.435257 3.760417
121.006027 27.89007
122.003082 42.012611
122.05748 29.147739
122.086388 2.240741
122.982491 16.81719
123.011215 54.56617
123.029289 15.30556
124.021339 22.866211
125.036537 8.515782
126.032967 43.854172
126.957954 14.87884
127.040077 80.746918
127.052437 106.159302
127.099274 2.340833
127.283684 2.375
127.334702 3.402778
128.049393 31.526711
128.061264 115.642403
128.115982 1.388889
128.333771 2.33443
128.755219 3.893382
129.042816 40.259621
129.051422 58.070148
129.07991 3.335784
130.06488 91.119652
130.156601 4.053728
130.291992 4.351293
130.359528 5.500463
131.059479 122.824203
131.071701 55.33363
131.100983 6.560898
131.166779 5.155012
131.414215 3.565104
132.067856 260.709991
132.222809 4.815587
132.261047 5.454545
132.453033 4.5625
132.521927 12.16001
132.529282 4.834239
132.606552 12.86242
133.075684 456.686798
133.140533 7.168982
133.198792 5.667763
133.890396 2.667572
134.003876 14.04735
134.390503 5.845833
134.446487 3.190104
135.052048 6.198412
136.020264 159.405304
136.101715 20.36517
136.198761 6.248547
136.259171 3.80303
136.336868 2.689312
137.014359 83.027496
137.028732 40.465988
137.039993 51.508869
137.171112 4.849116
137.199387 3.727941
138.03566 123.010597
138.081039 5.012821
138.121292 7.889399
138.285553 5.208333
138.309998 7.174242
138.585251 3.78125
139.028214 43.692631
139.408661 1.183712
139.561829 1.446759
140.027191 19.18775
140.049362 280.931702
140.099564 1.5125
140.19017 4.53293
140.474533 4.033333
140.577637 3.000595
140.993744 16.44676
141.287979 7.713542
141.345886 7.225
141.440994 2.530637
141.759781 6.75
141.879929 5.742284
142.064804 963.468384
142.10379 3.167892
142.114273 4.695633
142.186737 3.333333
142.222 1.0625
142.240677 2.020833
142.323715 3.282051
142.381866 6.108334
142.414993 5.004361
142.496643 3.440476
142.548019 4.869933
142.584808 6.086926
142.601913 9.391666
142.888672 8.285985
142.91362 3.044384
142.989548 34.441769
143.071365 120.8274
143.121643 1.540064
143.2173 2.335227
143.504791 3.690104
143.638199 4.980183
144.086731 10.62644
145.011703 37.982239
145.072678 40.293331
145.28511 3.841666
146.016861 418.284607
146.038971 2.860577
146.08223 78.245453
146.251678 5.640625
146.260086 9.835592
146.287003 3.12963
146.303665 7.082937
146.319 3.838401
146.457901 2.0
146.491806 4.194221
146.644302 2.375
146.676743 5.754902
148.021286 80.086502
148.097031 65.033829
148.586975 1.8375
149.025421 94.020264
149.350143 9.77484
149.487869 6.002451
149.616089 1.183712
150.017807 15.35503
150.035782 99.539879
150.2668 3.291667
150.333374 3.4375
150.366714 1.260417
150.425629 5.44676
150.886322 8.335227
151.034042 32.96154
151.057693 24.9221
151.164154 8.285985
152.048889 204.6306
152.09697 2.168056
152.31282 2.234722
152.425034 7.964015
152.950012 25.2819
153.053162 182.237595
153.198364 1.502315
153.254349 8.009137
153.288818 7.670656
153.314651 4.607456
153.495621 5.170656
153.636856 5.168561
153.909698 5.681159
154.064362 322.322906
154.376282 5.390752
154.462601 1.5125
154.580307 9.723485
155.061905 669.782898
155.108444 5.373397
155.126083 3.018648
155.172714 4.344697
155.211502 2.835938
155.234055 7.389352
155.254257 1.55787
155.28952 3.852083
155.311203 5.505682
155.328537 3.420259
155.352829 5.136364
155.369659 3.502976
155.384048 13.95455
155.415634 4.334722
155.514114 2.129808
155.568298 5.787037
155.722015 4.800833
155.901382 2.340833
155.988281 2.167659
156.076706 120.069397
156.104095 6.079751
156.136459 1.3375
156.262131 4.529167
156.460052 5.333333
156.762421 7.368421
156.832703 4.745098
157.075256 106.237801
157.089035 22.617359
157.202866 5.004361
157.224686 5.720238
157.829834 2.580357
158.019318 8.173612
158.069901 40.974651
158.085571 260.866089
159.024734 64.664612
159.056534 21.30735
159.111084 4.259339
160.022568 167.513596
160.125687 1.350379
160.267258 15.41186
160.319443 2.167892
161.011765 8.567935
161.041092 15.05583
161.104996 19.27669
161.126541 4.851191
161.497604 5.280093
161.674591 2.500718
162.035995 87.000183
162.11412 10.22409
162.195984 2.0
162.871124 2.174819
163.122711 40.745541
164.045456 58.12851
164.364075 4.979167
164.437714 7.501389
164.51358 7.193348
165.619751 5.729167
166.066803 123.843697
166.146347 5.409722
166.2211 23.86108
166.361145 4.393939
166.415146 2.953373
166.487198 2.334105
166.569427 17.44158
166.761398 10.91813
166.802811 5.53373
167.036575 20.769381
167.059799 882.616028
167.111725 8.140199
167.140549 3.173611
167.251175 3.868421
167.588776 2.333333
167.755447 5.037037
167.99765 2.6875
168.067398 527.066223
168.138458 26.65909
168.183105 29.427919
168.206345 2.034722
168.233887 31.037649
168.255264 52.667511
168.267151 41.467239
168.290649 9.762897
168.320465 13.99526
168.3517 28.65144
168.364288 4.711957
168.374268 5.482456
168.414444 21.536131
168.441315 2.868056
168.484879 2.75947
168.524063 27.139971
168.549011 6.197551
168.588348 5.790134
168.604614 4.099265
168.621689 2.027412
168.651093 26.302059
168.669373 2.755208
168.71759 20.015511
168.806961 2.51282
168.942856 8.702571
168.951706 2.942935
168.974442 2.25
169.010727 14.51571
169.037766 27.0054
169.075653 14291.0
169.129303 27.779631
169.150528 15.35004
169.169006 9.559675
169.193069 18.101721
169.2285 36.252911
169.240616 41.55608
169.278946 8.725595
169.28775 30.50419
169.320084 76.229179
169.337906 6.721877
169.370453 59.38102
169.389526 15.51339
169.416 8.648809
169.431641 31.97753
169.449722 28.79113
169.463409 22.316509
169.479187 10.94766
169.502594 10.79509
169.537659 21.863199
169.567902 13.73882
169.586868 34.771591
169.617371 14.4287
169.647171 15.24457
169.666885 17.878151
169.686234 7.389423
169.698471 9.000718
169.749557 16.54529
169.765884 9.667721
169.802902 7.500563
169.907028 13.47544
169.9207 3.833965
170.003799 66.046913
170.020477 2.166667
170.377075 8.556224
170.482773 7.747086
170.838715 6.731482
170.972885 22.500521
171.012421 218.225998
171.066757 8.408891
171.165527 3.080128
171.218475 7.129299
171.28656 3.421875
171.352158 4.360119
171.402283 1.673611
171.815521 2.946759
171.940155 2.060049
172.032806 44.75761
172.085983 21.682211
172.098755 27.01996
172.145477 10.60478
172.250473 4.017857
172.312012 11.20157
172.474274 6.335
172.657074 10.84135
172.734787 3.673132
172.830505 3.5125
172.936035 5.852594
173.02034 1385.73999
173.071991 9.431811
173.131912 3.1875
173.164856 8.180278
173.255417 10.42641
173.279465 10.88668
173.343536 3.393939
173.579803 9.079546
173.641281 3.528846
173.704681 5.125
173.742157 4.388158
173.814224 3.68109
174.031647 70.662819
174.596115 5.336623
174.678879 2.060049
174.989517 7.633772
175.031906 47.640839
175.134354 6.349039
175.286316 1.52381
175.419907 2.722222
175.854935 1.668561
177.049789 85.632713
177.471741 4.59375
177.68956 2.344363
178.049377 56.962769
178.065186 21.703859
178.078766 3.588816
178.094482 11.77083
178.16687 12.64881
178.186081 3.697917
178.200043 1.347756
178.237549 4.170833
178.63649 5.515152
178.711243 2.174819
178.864746 5.0
178.915939 5.08188
178.936432 5.355324
178.950302 24.268141
178.987228 5.451389
179.004532 2.604167
179.021912 12.84381
179.060013 3345.881104
179.120392 41.11195
179.148682 5.020833
179.166306 34.605419
179.17601 6.574405
179.194 5.224537
179.225266 21.021099
179.248245 17.34049
179.271149 9.281068
179.28421 13.31588
179.29805 3.074074
179.315918 71.713531
179.336044 6.357143
179.353561 4.667659
179.378052 36.424019
179.409531 6.25511
179.428772 8.409091
179.442154 3.503205
179.452942 7.418478
179.488052 11.56068
179.498077 3.840833
179.507401 4.667201
179.540298 4.580128
179.562561 6.482774
179.581985 6.056019
179.591309 5.378623
179.605286 3.336806
179.646484 6.5675
179.68103 19.515261
179.866989 7.041667
179.89566 2.1875
180.007843 8.812331
180.039734 20.67852
180.067795 11279.30957
180.137192 7.66723
180.171204 5.611883
180.194962 47.37632
180.217056 9.526114
180.226349 31.53091
180.250702 39.38596
180.277664 14.09988
180.291336 41.24366
180.324066 36.943581
180.333344 4.683468
180.362793 40.94569
180.394577 78.550072
180.419205 8.252696
180.43042 12.90755
180.440811 2.860119
180.454742 18.74127
180.486267 22.313169
180.507965 17.836411
180.546265 11.87872
180.568192 7.052739
180.591721 7.067804
180.605865 19.9821
180.630966 19.895411
180.64772 25.642
180.690201 27.535179
180.70961 6.875
180.722061 4.046875
180.745041 21.207911
180.773514 24.40139
180.974716 7.779321
181.180801 13.54545
181.512543 8.174933
181.562668 3.207108
181.582855 4.209936
181.594955 7.176605
181.700562 9.895833
181.733765 4.422149
181.812683 8.836871
181.878311 2.358135
182.079773 353.113007
182.394867 5.026175
182.47934 1.833333
182.490051 2.893518
182.657974 1.863971
182.803741 3.515152
182.940186 3.667385
183.083633 183.630905
183.321518 4.872578
183.351364 2.208333
183.367935 2.411859
183.530487 2.19391
183.623093 11.00024
183.911331 2.296875
184.014603 0.860119
184.030609 279.618011
184.085968 226.054092
184.146744 0.888889
184.367325 1.520833
184.897675 5.424679
184.909286 17.973289
184.96817 7.81713
185.064896 9.024235
185.106323 1.002976
185.124924 31.603081
185.139648 11.92735
185.158401 9.500285
185.175171 14.18095
185.238678 13.51852
185.275391 17.76609
185.314484 6.511111
185.332687 6.595833
185.408737 18.685949
185.428314 6.967741
185.516266 4.098711
185.703384 8.096275
185.722198 12.94664
185.881943 3.705128
186.001968 1.677696
186.03688 7336.84082
186.096771 56.430538
186.138794 7.921568
186.153122 7.041667
186.187805 9.307292
186.229752 2.553728
186.249725 14.04323
186.26181 25.51634
186.294464 13.82137
186.307663 7.006467
186.335022 6.095833
186.362015 41.093201
186.376602 7.006945
186.428741 15.32842
186.452866 37.719841
186.485443 9.814312
186.502335 7.873026
186.542984 15.46836
186.554871 6.047619
186.572235 3.469697
186.586014 11.17182
186.647552 16.407749
186.675842 36.233002
186.743713 8.509006
186.809937 12.10074
186.890274 5.019737
186.94223 3.060049
187.123383 3.01796
187.220963 4.691667
187.338394 5.148284
187.387894 4.982253
187.480469 5.843161
187.566376 6.432398
187.637695 4.388158
187.690109 4.523438
187.723755 5.369932
187.766388 13.33464
187.912369 2.427083
188.018967 7.556019
188.548996 2.181818
188.595459 6.319746
188.688263 5.580044
189.049362 50.10099
189.117874 2.0
189.411591 4.948994
189.572617 1.720238
189.986389 17.451799
190.055084 12.85294
191.059906 37.320148
191.321762 5.606771
191.806503 7.130208
191.869141 4.043269
191.942276 4.625
192.066559 96.916298
192.095688 2.85
192.163361 8.069036
192.235962 3.270833
192.459991 2.880953
192.825333 15.95026
192.848953 5.785715
193.076263 228.046906
193.303009 5.461436
193.627213 4.192842
193.871399 7.65438
193.977844 22.41963
193.990845 4.745098
194.014694 6.009804
194.074539 418.994812
194.11644 1.501389
194.149124 10.79167
194.160065 1.501603
194.175659 7.130435
194.223083 4.66723
194.263657 26.44734
194.412216 3.191667
194.436783 23.344959
194.727646 3.839015
195.02388 2.845238
195.04332 7.052083
195.080429 2128.835938
195.141495 51.201279
195.184631 15.09259
195.198822 1.340278
195.214417 14.1754
195.235138 11.33883
195.253372 4.373397
195.302658 4.422149
195.3246 7.905799
195.370209 5.230065
195.397369 14.18333
195.469757 6.574405
195.502365 3.878788
195.54097 11.44558
195.578125 3.375
195.621857 5.191667
195.694901 3.502193
195.721008 4.761905
195.972717 7.286557
196.02092 402.012604
196.092941 943.061401
196.198517 3.858135
196.282349 21.411819
196.298828 5.194257
196.33783 3.6675
196.373718 2.380952
196.40361 9.216565
196.41568 3.548611
196.538452 12.62703
196.563217 3.409091
196.606018 2.727273
196.634689 17.391319
196.689728 2.666667
196.791428 9.000353
196.81839 24.439671
196.830566 5.035201
196.860001 37.947281
196.888535 57.573551
196.911591 34.51799
196.929092 12.40028
196.972504 30.52017
197.059326 15.05102
197.104309 196.768799
197.149002 39.286789
197.177475 2.416667
197.22139 17.007589
197.241333 22.400311
197.299408 7.667439
197.346558 10.24735
197.357956 5.351243
197.369461 8.282586
197.428711 9.091423
197.448517 8.815587
197.483292 8.942857
197.494949 11.86905
197.548096 11.80329
197.567795 27.524879
197.665985 9.375
197.768707 2.4
197.790909 13.4588
197.932297 6.193473
197.947571 5.385378
197.996353 47.933449
198.024673 31585.509766
198.198624 10.12464
198.257782 18.13225
198.316849 82.053123
198.345871 6.810024
198.360184 28.25754
198.372086 40.87627
198.408417 47.166809
198.440811 46.340199
198.464752 34.44912
198.4785 7.578241
198.491623 30.76881
198.511475 59.21632
198.531479 26.84309
198.558212 32.544899
198.57164 14.01292
198.588287 47.536591
198.612717 10.6421
198.633087 53.98563
198.655243 18.909229
198.671906 24.631411
198.69812 22.195259
198.713425 22.71637
198.72641 39.020512
198.754471 33.842899
198.776123 32.923721
198.84523 11.42517
198.880142 21.060579
199.076279 32.074791
199.101196 10.82974
199.165695 22.108089
199.206497 21.52914
199.29422 15.71157
199.454132 7.744044
199.928772 1.820076
199.977783 6.080128
200.015823 4.501225
200.050293 672.802979
200.099045 8.885417
200.137878 3.463141
200.19249 8.85307
200.20787 22.71512
200.271271 6.067902
200.412201 6.8375
200.52417 11.70207
200.562271 1.720238
200.65097 7.04023
200.769226 8.4875
200.782837 6.060049
200.818542 4.953526
200.927002 1.183712
201.048218 775.245728
201.11937 1.008333
201.134171 2.522645
201.183502 1.851852
201.329544 8.026786
201.366119 1.168269
201.420425 3.402778
201.504379 1.835227
201.707169 8.761505
201.746429 3.509804
201.804733 5.594697
201.860138 2.240741
201.919403 6.030682
201.944519 12.30022
202.068359 23.036579
202.984116 2.1125
203.003128 3.016801
204.0159 8.892669
204.068069 2.333333
204.428528 2.834052
204.906326 3.866263
205.078766 146.230499
205.175354 3.100833
205.294937 9.055147
205.449478 2.900833
205.719452 3.889661
206.014938 5.273438
206.080231 159.526901
206.232681 3.697304
206.665756 4.815104
206.723007 3.211111
206.843079 3.260031
206.893097 6.502976
207.085037 181.474792
207.143372 1.668056
207.23851 2.501225
207.288803 11.81949
207.378784 4.640351
207.6698 3.857143
207.859985 3.168982
208.087341 502.841705
208.151077 4.003412
208.187836 2.006944
208.216064 3.291667
208.261978 4.851852
208.327286 6.3375
208.427933 3.730556
208.472351 5.000563
208.522537 11.70513
208.58287 3.035201
208.629272 8.953431
208.654144 6.70376
208.703522 2.213542
208.789001 6.224915
208.939926 11.48981
209.094803 194.140396
209.149551 4.487179
209.271713 3.544384
209.315994 6.006945
209.367401 3.333333
209.791107 9.272223
210.10051 177.343506
210.340057 2.508929
210.398987 3.334722
210.420792 3.334167
210.440979 5.514881
210.477829 1.633333
210.636124 1.592803
210.652985 2.848485
210.684494 9.094697
210.708282 2.335648
210.748779 1.533333
210.809158 8.711957
210.889069 22.00272
210.909454 12.54679
210.920685 7.002884
210.954254 4.001389
210.994339 3.983553
211.031464 923.52948
211.090424 9.106482
211.111908 208.726395
211.17308 10.54725
211.242477 7.286991
211.355408 4.408333
211.481705 5.836805
211.658783 3.291667
211.724304 31.8009
211.743256 6.293561
211.765305 24.93544
211.789764 16.774309
211.817581 28.46435
211.849045 12.72222
211.861725 7.570076
211.886307 32.099731
211.900574 10.54583
211.91539 7.355511
211.947388 13.00333
211.975464 67.826637
211.998138 39.217602
212.013641 39.891151
212.039871 7180.375977
212.15535 9.387536
212.170776 5.334005
212.194229 42.74268
212.235413 10.59722
212.246658 21.477631
212.279114 75.339706
212.311691 67.429413
212.337433 90.974281
212.364899 15.67743
212.404465 15.92977
212.412827 42.07935
212.442001 14.80935
212.457947 2.870833
212.54245 34.567581
212.560928 10.28963
212.589951 7.858334
212.646469 6.670494
212.67244 4.007936
212.732971 7.709936
212.749573 15.83353
212.779892 15.7025
212.936813 12.8623
212.962524 5.333333
213.047989 19083.380859
213.147018 22.83338
213.211761 43.585491
213.230682 22.87429
213.246887 13.24098
213.266098 35.925709
213.322998 36.88448
213.361954 51.516239
213.38916 52.319778
213.423218 31.56144
213.446518 74.638527
213.464706 12.23016
213.484604 19.026091
213.500412 49.94157
213.526962 36.106258
213.558365 8.62004
213.571823 9.740196
213.586029 6.689312
213.606735 14.4647
213.62764 32.882801
213.66394 24.224751
213.688141 39.721882
213.731583 19.631109
213.764786 31.910641
213.809143 20.331409
213.84964 23.43626
213.901169 6.440476
214.003738 1.501603
214.138962 26.231371
214.553192 6.156863
214.571274 5.420139
214.660782 9.319853
214.722107 5.754902
214.794983 20.833031
214.902237 2.481618
214.973892 16.81513
215.022873 25.904961
215.063675 926.953796
215.189896 7.434166
215.302917 18.565149
215.359604 3.168982
215.385132 3.346154
215.41066 2.544384
215.446487 4.004167
215.544922 6.160088
215.607285 3.020833
215.717224 8.354885
215.870438 6.041325
215.947586 3.226716
216.407471 7.683402
216.482269 8.593508
217.175812 6.168333
217.765579 6.76875
217.971191 2.170139
218.212479 4.522645
218.382309 6.514077
219.079712 46.270649
219.211197 4.745098
219.258194 4.27855
219.896347 3.199597
219.978897 4.66711
220.086548 295.752289
220.35556 2.053571
220.479675 3.002604
220.562592 6.46007
220.608841 4.360923
220.625351 14.63065
220.677689 1.671296
220.702209 6.826666
220.717361 3.342262
220.740616 4.520833
220.755432 6.627976
220.779388 1.833333
220.7939 21.404369
220.841156 1.729167
220.872437 9.308532
220.894882 12.0173
220.90863 5.174603
220.92453 5.80934
220.967026 10.40774
220.989243 10.86012
221.046509 16.846689
221.09584 290.071198
221.198349 54.14978
221.224167 2.888889
221.353912 1.501225
221.417557 4.948994
221.59169 2.005952
221.612411 3.335938
221.64035 2.8
221.6642 2.852623
221.731537 2.016667
221.878662 4.844804
221.902527 12.39263
221.918793 13.90909
221.976166 4.27855
222.016541 4.364268
222.032486 10.1626
222.054672 18.97748
222.10231 5174.383789
222.1306 4.335145
222.162613 16.942209
222.177643 6.500834
222.235245 30.45071
222.268341 18.998489
222.309006 25.96306
222.34967 1.6875
222.361923 12.46062
222.376328 8.069445
222.401474 18.92758
222.422791 11.21667
222.443054 51.694191
222.462601 12.51389
222.484894 20.70579
222.513428 7.636143
222.539581 8.734797
222.558578 34.28191
222.577652 14.85698
222.603104 16.76033
222.667679 44.10413
222.708694 14.64653
222.752579 4.170139
222.772888 26.85533
222.796585 7.063025
222.82254 6.711361
222.900726 20.41563
222.954041 14.96813
223.030594 384.848785
223.073563 20.873301
223.109589 2388.113037
223.209045 13.39461
223.251968 4.167572
223.279343 16.88413
223.327469 13.0744
223.35762 11.72828
223.382065 3.645833
223.424774 31.361349
223.500366 3.148809
223.605576 11.0817
223.624405 10.80861
223.649399 4.440834
223.69725 5.296474
223.744675 5.092948
223.794968 7.403799
223.807663 6.167201
223.876801 2.850379
223.912598 5.402369
223.988998 19.689699
224.117111 1581.522949
224.182983 13.52958
224.26123 7.503788
224.28923 26.406031
224.308609 19.82399
224.343155 22.668671
224.382263 2.851974
224.396988 3.734167
224.465836 5.002315
224.481064 39.34729
224.621506 5.0
224.646927 3.42803
224.71759 22.866659
224.73024 3.060049
224.761353 6.814815
224.807465 3.814951
224.856903 6.352623
224.902954 5.334257
224.935745 20.27755
225.047623 480.200897
225.165878 3.878788
225.268127 4.207825
225.644363 1.5625
225.675934 4.734167
225.760376 6.535417
225.82193 4.170656
225.918152 2.966666
226.055542 756.325317
226.16188 3.511111
226.235611 2.1125
226.365952 3.166667
226.421371 10.55456
226.449707 3.836538
226.606842 2.226716
226.635498 2.315476
226.778244 14.79189
226.799057 27.438231
226.87587 6.324404
227.06279 2004.837036
227.124954 5.636111
227.178207 7.679449
227.225174 3.339799
227.246613 14.04921
227.339645 2.533333
227.356293 1.166667
227.395645 2.1675
227.474457 11.23725
227.492706 2.515152
227.508835 8.94697
227.565201 9.068207
227.597961 6.280093
227.662445 3.913377
227.68161 10.74536
227.82341 22.338381
228.014496 57.718029
228.06044 1262.998047
228.157761 8.868056
228.19133 7.049603
228.269943 2.500718
228.289444 22.337549
228.304382 7.391072
228.359161 5.095282
228.406815 9.470555
228.485504 8.313611
228.526642 7.730903
228.706406 4.748547
228.722183 5.171027
228.759018 6.681667
228.865372 11.43362
228.937958 5.575
229.054016 3.994971
229.077911 553.961121
229.12207 5.180556
229.177704 12.85488
229.21904 8.44697
229.232925 2.335227
229.480453 5.951389
229.564774 5.282609
229.580582 1.668561
229.63858 7.080647
229.780853 5.000992
229.854782 1.840278
230.072617 354.117188
230.694016 4.334559
231.60376 2.863971
231.819229 6.1125
232.097641 202.870804
233.104233 6.588235
233.439407 3.907738
233.455307 5.5625
233.651031 1.847222
233.700363 3.942935
234.168121 1.335227
234.333023 8.294139
235.090088 8.220109
235.126297 3.782408
235.319427 3.834239
236.040421 4.372578
236.099243 11.16697
236.11525 61.85495
236.554001 11.84771
237.047348 266.404114
237.408081 12.24804
237.592651 6.84157
237.786789 2.1125
237.834335 3.887769
237.851181 11.87054
237.947021 8.012931
237.996613 8.35666
238.135178 38.55088
238.516235 15.90371
238.575302 1.701389
238.640778 3.694444
238.709656 5.669271
238.736389 5.94079
238.752777 9.555449
238.849426 5.833841
238.918671 25.251169
238.973099 3.551136
239.063919 1629.822998
239.164536 12.10377
239.197662 15.75522
239.306824 6.03293
239.393188 27.385839
239.474686 3.921875
239.501236 22.70085
239.570419 3.355392
239.600342 11.5002
239.615433 7.703804
239.691345 20.84396
239.769531 8.169118
239.877441 4.734848
239.93132 3.166667
240.061752 974.160095
240.152313 4.571429
240.319504 9.861486
240.38063 10.46329
240.447906 9.260942
240.482224 3.889661
240.718628 2.407408
240.742233 4.574846
240.78978 44.268799
240.859436 15.30217
241.031876 11.36752
241.067215 1923.087036
241.08548 14.02894
241.131088 7.572645
241.166458 3.854167
241.233551 19.187429
241.275101 11.46186
241.294296 9.453704
241.318222 4.23869
241.345627 4.673611
241.421783 10.01339
241.454529 5.602431
241.604752 2.046875
241.642273 6.004167
241.669632 7.570402
241.716003 15.53027
241.982544 6.104167
241.999634 2.185185
242.120178 3.745192
242.20105 2.129808
242.308212 4.872549
242.438187 5.0375
242.459747 4.714286
242.694229 9.177631
243.083252 6.513481
243.269089 2.707108
243.289566 13.61523
243.566208 5.500463
244.093491 28.26734
244.115753 4.354167
246.047791 2.540064
246.099625 44.855591
246.118866 14.68254
246.579391 1.540064
246.619247 9.71124
246.650085 11.40604
246.714478 5.183712
246.938553 2.695513
246.957993 1.041667
247.480927 2.666667
247.825089 3.463735
247.852356 2.027412
248.0112 5.245614
248.079468 13.3225
248.118103 782.550903
248.185074 1.1875
248.288086 7.675926
248.380081 3.266667
248.438812 5.683468
248.782379 10.13043
249.067276 5.815587
249.191071 2.1125
249.248169 8.108171
250.132248 345.196106
250.38916 3.01929
250.420837 3.463542
250.455215 7.349537
250.509949 6.564717
250.609604 10.90351
250.673523 4.266667
250.8573 2.560606
250.884949 6.716095
251.052689 40.17852
251.320343 3.201868
251.629288 2.181818
252.0569 75.809776
252.303146 1.5625
252.374832 3.025
252.497055 6.001984
252.524078 2.841486
252.611389 3.949074
252.765137 3.234722
252.86319 3.640152
252.900177 3.440476
253.07193 1506.037964
253.181061 1.5625
253.481522 10.26434
253.733459 4.8125
253.814148 12.56202
254.14093 2.363971
254.189392 4.722222
254.277908 1.5625
254.373901 2.000906
254.423157 4.68109
254.447098 7.202486
254.474243 19.00437
254.499741 11.47538
254.517548 16.082081
254.541992 9.778109
254.560165 91.204376
254.603683 65.821426
254.64296 44.545269
254.662399 58.312599
254.684326 64.694099
254.698196 8.708333
254.741257 10.35993
254.758453 20.84449
254.791824 14.29167
254.806793 25.62425
254.845871 17.1528
254.862427 6.946934
254.879074 5.3625
254.905701 9.688272
254.939713 34.43438
254.991043 9.586658
255.040207 14.88607
255.098495 5.729167
255.210541 7.173611
255.255508 29.885611
255.323898 13.09025
255.376556 8.231854
255.401352 33.402061
255.418091 7.455883
255.71286 7.348128
255.739685 18.626989
255.855515 13.86835
255.96347 4.288075
256.007294 25.49634
256.033508 37.537781
256.055389 62.6898
256.090332 27857.339844
256.282501 42.53738
256.369324 13.62148
256.411407 13.71878
256.436859 57.389839
256.454071 16.297871
256.468658 26.783541
256.488556 6.346243
256.511108 85.099342
256.530212 64.484016
256.614502 12.87156
256.651245 79.962471
256.723938 60.575729
256.759827 8.693494
256.814301 60.035549
256.860168 60.867249
256.8927 55.529011
256.960449 24.111851
256.977234 41.139568
257.142883 2.241667
257.160858 15.53064
257.202637 10.31002
257.286194 7.55609
257.330566 11.96323
257.379517 32.9151
257.494141 11.21649
257.524048 1.679167
257.579895 2.502976
257.59317 24.685961
257.639465 1.760417
257.750824 7.902243
257.818787 5.909052
258.075195 12.30833
258.144104 4.041667
258.298065 5.820513
258.360168 9.629902
258.441589 15.72382
258.46286 5.89797
258.546722 7.779454
258.837677 3.682449
258.995972 2.893518
259.311554 16.01906
259.33139 4.629704
259.470886 6.289352
259.568604 4.854167
259.840515 6.26923
259.930237 5.676136
259.958801 10.07341
260.05365 5.689352
260.079834 3.746711
260.883972 5.682449
261.27359 5.186275
261.531189 5.705246
263.122955 6.244949
264.139465 10.8871
264.266937 3.002778
264.620758 6.62963
265.073059 49.136799
265.14679 11.88262
266.073975 352.701508
266.144867 13.19207
266.242279 2.380952
266.317413 1.575
266.454498 2.747024
266.918365 1.592803
267.409302 5.002778
267.469482 9.041103
268.088898 59.235661
268.144165 2.208333
269.461151 1.666667
270.103973 158.681
270.535919 4.174603
270.570282 2.505952
270.838745 3.673611
270.982422 1.843202
271.12561 3.520833
272.490662 1.668561
276.340271 4.876603
279.158264 9.766666
280.087006 79.413811
280.188904 9.471897
280.292633 5.876603
280.352966 4.1875
280.379974 3.01282
280.418915 31.081181
280.440247 6.981771
280.485809 23.443171
280.514069 11.64352
280.625488 9.970689
280.648193 1.335648
280.741211 3.842262
280.776245 4.681667
280.834717 5.911574
280.875336 3.01282
281.003632 1.540064
281.044464 4.355392
281.094879 81.442123
281.155273 5.578526
281.312988 3.505208
281.645477 8.288691
281.987122 2.291667
282.105621 5684.258789
282.180389 43.591518
282.218109 8.380897
282.241699 18.76568
282.262451 12.16164
282.288391 22.42841
282.317444 19.094721
282.346344 56.66972
282.388245 7.354861
282.412079 25.7281
282.444244 27.64241
282.469696 16.882099
282.546448 39.651718
282.600342 18.02961
282.632202 11.67083
282.734558 23.28159
282.760498 24.52667
282.855316 6.76875
282.872864 2.871142
282.984253 2.668561
283.002075 5.231482
283.059326 11.39798
283.153809 5.501603
283.21817 4.503205
283.709259 3.206731
283.886017 3.182449
284.188782 6.6875
285.418884 12.92708
286.088348 3.724856
286.312378 9.37606
287.706329 10.60417
294.158783 5.868421
295.610504 4.667151
302.437439 1.513889
305.245972 4.500719
308.262543 4.745098
312.177429 5.051136
312.292816 5.088816
313.147125 13.71594
313.357605 18.139721
313.414215 6.140019
364.554871 6.035088
502.391388 2.083333
591.962097 10.97917
596.532227 5.390752
752.992798 7.318561
867.830627 3.387769
982.492004 1.446759
1053.014648 4.024802
1066.780151 3.201868
1087.797119 18.097879
1214.302612 3.670455
1639.363037 1.720238
