>compound MLS001076132-01!
>formula C16H18N4O2
>ionization [M+H]+
>parentmass 299.149
#inchi InChI=1S/C16H18N4O2/c21-15(18-12-13-4-2-1-3-5-13)8-11-19-20-16(22)14-6-9-17-10-7-14/h1-7,9-10,19H,8,11-12H2,(H,18,21)(H,20,22)
#inchikey NOIIUHRQUVNIDD
#Ion_Source LC-ESI
#Instrument qTof
#Compound_Source NIH Pharmacologically Active Library
#PI Dorrestein
#Data_Collector VP/LMS
#Scan -1
#Precursor_MZ 299.149
#ExactMass 298.143
#Charge 1
#CAS_Number N/A
#Pubmed_ID N/A
#Smiles O=C(CCNNC(=O)c1ccncc1)NCc2ccccc2
#INCHI_AUX N/A
#Library_Class 1
#SpectrumID CCMSLIB00000085064
#IonMode Positive
#UpdateWorkflowName UPDATE-SINGLE-ANNOTATED-GOLD
#LibraryQualityString Gold
#TaskID d252d724072548979f1f6f1ced849daf
##Scan# 1287
#SpectrumFile p3-E05_GE5_01_18274.mzXML
#LibraryName Pharm_Active_Library.mgf
#MQScore -1
#Organism Pharm_Active_Library
#TIC_Query 0
#RT_Query -1
#MZErrorPPM -1
#SharedPeaks 0
#MassDiff 0
#LibMZ -1
#SpecMZ 299.149
#SpecCharge 0
#internalFilename spec-00000.mgf

>collision 10
45.031055 168.0
45.377663 160.0
45.730984 220.0
45.980335 196.0
46.007332 168.0
46.440376 136.0
46.718861 148.0
47.153862 180.0
47.319389 200.0
47.385136 128.0
47.563423 216.0
47.640324 172.0
47.951317 164.0
47.973373 180.0
48.005089 152.0
48.038193 288.0
48.405823 164.0
48.586052 84.0
48.833321 156.0
48.946053 76.0
48.979477 236.0
49.019882 204.0
49.389881 204.0
49.553677 188.0
50.351315 116.0
50.611526 164.0
51.124004 112.0
51.526127 156.0
51.689133 200.0
51.800812 200.0
51.904011 176.0
52.227158 72.0
52.352379 236.0
52.744839 72.0
52.976379 192.0
53.050293 228.0
53.141663 204.0
53.42062 144.0
53.855026 188.0
53.909084 212.0
54.376286 208.0
54.529037 184.0
54.807182 156.0
55.013676 176.0
55.202805 168.0
55.239784 184.0
55.536049 160.0
55.983421 208.0
56.04599 176.0
56.102627 176.0
56.392227 128.0
56.91058 172.0
57.306171 188.0
57.396614 192.0
57.46751 152.0
57.598858 204.0
57.683479 112.0
57.851402 176.0
58.482906 212.0
58.522488 228.0
58.735855 112.0
59.03981 136.0
59.660835 160.0
59.81929 132.0
59.970253 252.0
59.98875 96.0
60.245235 164.0
60.637978 128.0
60.793072 200.0
61.153652 124.0
61.164547 120.0
61.476273 156.0
61.618374 216.0
61.730919 184.0
61.808411 204.0
61.998627 44.0
62.252777 200.0
62.683823 188.0
62.792603 76.0
62.806801 116.0
62.982014 136.0
63.377537 220.0
63.417156 252.0
63.512299 136.0
63.620209 180.0
63.68214 156.0
63.807682 216.0
64.071884 68.0
64.996071 212.0
65.092392 76.0
65.159851 176.0
65.325447 192.0
65.459213 188.0
65.757301 232.0
66.190575 236.0
66.224579 176.0
66.831757 88.0
66.978287 160.0
67.048347 100.0
67.084206 228.0
67.258759 188.0
67.639633 36.0
67.744438 180.0
67.846046 208.0
67.885406 104.0
67.928047 160.0
67.957581 236.0
68.171051 200.0
68.36676 140.0
68.384865 200.0
68.64682 124.0
69.207008 120.0
69.435699 84.0
69.796074 112.0
69.817696 176.0
69.835991 172.0
69.884239 164.0
70.594864 188.0
70.852638 192.0
71.309082 172.0
71.5429 120.0
71.714722 156.0
72.22805 156.0
72.918053 176.0
73.086525 152.0
73.243156 192.0
73.260193 160.0
73.381203 172.0
73.621811 192.0
73.932961 200.0
74.104202 176.0
74.947876 136.0
75.03923 148.0
75.142715 144.0
75.322266 116.0
75.877792 84.0
76.39534 208.0
76.419693 188.0
76.51194 132.0
76.550247 68.0
76.592049 208.0
76.666969 144.0
76.841347 196.0
76.867523 156.0
76.909409 136.0
77.530327 180.0
77.742531 212.0
78.266388 80.0
78.423187 164.0
78.657791 124.0
78.714287 168.0
79.039551 172.0
79.353073 168.0
79.534027 172.0
79.748955 140.0
80.047844 132.0
81.162918 172.0
81.254395 176.0
82.013298 144.0
82.146736 160.0
82.57122 160.0
82.645393 116.0
82.748566 176.0
83.098373 168.0
83.583527 192.0
83.867645 176.0
84.064621 160.0
84.084694 132.0
84.449715 236.0
84.847504 164.0
84.89151 208.0
85.218254 220.0
85.32486 60.0
85.748245 172.0
85.847801 200.0
85.886536 192.0
86.228127 168.0
86.514847 212.0
87.05999 128.0
87.36483 168.0
87.595673 164.0
87.731712 72.0
87.750359 128.0
87.867859 152.0
87.946236 64.0
89.036484 196.0
89.233253 212.0
89.306595 196.0
90.240097 64.0
90.516357 148.0
90.904976 128.0
91.016975 188.0
91.052856 3148.0
91.313446 32.0
91.646591 208.0
91.787262 276.0
91.987984 196.0
92.059547 384.0
92.550079 248.0
92.971817 204.0
93.049706 364.0
93.163834 144.0
93.796967 228.0
93.891449 168.0
93.98983 304.0
94.011063 164.0
94.327827 180.0
94.418701 48.0
94.637375 220.0
94.763275 80.0
94.869873 140.0
94.95713 84.0
95.023087 136.0
95.057793 432.0
95.23275 160.0
95.349327 144.0
95.460136 160.0
95.701431 200.0
96.054192 216.0
96.321625 148.0
96.509247 92.0
96.657906 160.0
97.275291 120.0
97.463844 132.0
97.865112 44.0
99.044151 184.0
99.355385 136.0
99.822159 220.0
100.156532 124.0
100.711052 240.0
100.762993 132.0
101.018898 152.0
101.102844 172.0
101.644012 176.0
102.092087 176.0
102.603455 180.0
102.9384 176.0
103.646408 160.0
103.759918 156.0
104.025681 136.0
104.045982 188.0
104.09153 200.0
104.377182 176.0
104.397514 148.0
104.680389 136.0
104.820946 164.0
104.984032 132.0
105.043327 4488.0
105.067757 312.0
105.333061 28.0
105.386177 96.0
105.500633 200.0
105.96727 204.0
106.028503 5664.0
106.045418 744.0
106.064583 288.0
106.120987 56.0
106.145599 144.0
106.297401 236.0
106.677376 120.0
106.694817 68.0
106.753448 36.0
107.035812 864.0
107.061035 240.0
107.132179 228.0
107.656097 184.0
107.78624 144.0
107.974365 92.0
108.041031 420.0
108.075729 164.0
108.096428 160.0
108.786629 148.0
109.054749 164.0
109.281273 76.0
109.483192 232.0
110.029518 140.0
110.604416 112.0
112.245293 56.0
112.54493 196.0
113.073433 216.0
113.208931 108.0
113.33252 168.0
114.002357 120.0
114.449074 188.0
114.562958 208.0
115.044983 160.0
117.550941 60.0
117.717171 116.0
118.032669 164.0
118.071594 136.0
119.024353 168.0
119.374992 48.0
120.054337 296.0
120.08062 148.0
120.792702 168.0
120.812393 136.0
120.928368 160.0
121.00061 192.0
121.038696 14168.0
121.100685 40.0
121.162682 40.0
121.193939 60.0
121.21965 68.0
121.254715 56.0
121.270058 60.0
121.338013 48.0
121.410378 68.0
121.53981 36.0
121.680283 48.0
121.851593 40.0
122.044998 1864.0
122.102196 64.0
122.225388 76.0
122.410301 76.0
122.711052 180.0
122.826859 124.0
122.873184 152.0
122.950417 264.0
122.970284 80.0
123.054153 6252.0
123.115265 448.0
123.210983 60.0
123.235283 60.0
123.451912 148.0
123.544815 132.0
124.037514 176.0
124.055824 724.0
124.080772 212.0
124.278175 48.0
124.686783 88.0
124.942505 52.0
125.051544 164.0
125.113876 80.0
125.733559 48.0
127.664749 116.0
128.114929 120.0
128.389923 56.0
128.922714 108.0
129.298141 152.0
129.359253 160.0
129.433975 44.0
131.281509 172.0
131.47998 192.0
131.669479 156.0
132.054138 1388.0
132.234207 132.0
133.031906 156.0
133.058334 376.0
133.082413 220.0
133.873459 40.0
133.905701 72.0
134.279083 184.0
134.431351 92.0
134.96727 64.0
135.794037 156.0
136.374496 264.0
136.553528 100.0
136.581451 188.0
136.78157 160.0
137.030777 356.0
137.057571 876.0
137.147278 80.0
137.630203 52.0
138.066315 6392.0
138.511917 60.0
138.57048 180.0
138.940918 84.0
139.008972 152.0
139.068054 796.0
139.09346 48.0
139.173279 132.0
139.633881 52.0
139.904495 116.0
140.062271 204.0
142.865143 116.0
143.086472 208.0
143.300827 180.0
143.48436 92.0
144.01413 144.0
145.049942 468.0
146.063583 144.0
146.270538 100.0
147.053925 176.0
148.037918 120.0
148.093613 132.0
148.675507 56.0
149.896317 148.0
149.925034 148.0
150.020615 164.0
150.065598 11496.0
150.149857 96.0
150.186432 68.0
150.215714 88.0
150.276703 60.0
150.327942 88.0
150.366989 44.0
150.486603 96.0
150.557419 48.0
150.682007 68.0
150.804184 32.0
150.889755 72.0
150.999786 44.0
151.068069 916.0
151.364441 204.0
151.567749 76.0
152.069336 76.0
152.274292 64.0
152.377457 52.0
152.790512 76.0
153.433319 60.0
153.7836 44.0
159.063309 88.0
160.066483 156.0
160.330994 172.0
161.0728 160.0
162.090607 340.0
162.861145 260.0
163.093811 252.0
163.937363 52.0
164.041779 120.0
164.079971 488.0
164.166794 32.0
164.879074 180.0
165.085678 172.0
166.678085 60.0
166.996872 172.0
171.101135 136.0
174.063629 532.0
175.070816 192.0
176.416504 128.0
176.683609 56.0
177.091278 176.0
177.234329 72.0
181.091949 124.0
185.118515 148.0
185.335068 92.0
188.423279 64.0
190.057877 104.0
192.075073 316.0
192.422241 64.0
192.947174 152.0
193.074371 172.0
194.085159 148.0
194.232147 56.0
199.055038 124.0
202.106277 644.0
203.110794 156.0
203.525146 76.0
213.102127 144.0
214.085327 188.0
216.11412 196.0
228.262146 44.0
236.968002 100.0
240.114044 192.0
255.975464 88.0
259.249908 56.0
261.688019 124.0
274.821198 144.0
285.138306 112.0
296.913147 132.0
398.189148 128.0
405.979645 28.0
443.097168 72.0
455.160675 76.0
466.586182 108.0
505.227234 104.0
561.800354 32.0
611.708313 68.0
639.747192 84.0
656.641541 68.0
710.214783 100.0
747.579773 48.0
805.270752 40.0
805.948669 152.0
810.860718 148.0
817.75592 192.0
834.419983 160.0
845.56488 180.0
858.90564 180.0
866.300476 268.0
902.051514 96.0
916.039795 160.0
924.535278 220.0
928.042725 132.0
942.193665 184.0
949.649719 116.0
963.481873 204.0
964.112122 180.0
971.114563 156.0
972.256104 124.0
975.678711 180.0
985.963867 152.0
1000.510376 156.0
1023.666199 228.0
1041.182861 112.0
1041.895874 224.0
1042.082153 76.0
1051.503418 156.0
1053.834595 192.0
1056.013184 220.0
1058.62793 112.0
1059.301514 140.0
1060.137329 228.0
1060.390137 60.0
1062.439209 184.0
1063.451538 212.0
1064.574707 232.0
1068.930176 188.0
1069.021362 152.0
1073.933716 268.0
1074.422974 204.0
1075.330078 108.0
1079.740234 184.0
1079.884033 48.0
1090.952881 140.0
1091.952393 188.0
1102.772095 108.0
1105.900757 224.0
1107.012939 272.0
1118.186401 172.0
1122.903564 124.0
1126.71521 140.0
1129.11499 176.0
1132.675781 152.0
1133.037598 192.0
1134.263916 192.0
1135.571533 216.0
1140.08313 184.0
1141.992554 224.0
1142.732544 148.0
1142.96814 252.0
1146.463135 216.0
1147.555176 212.0
1149.072754 180.0
1152.225708 180.0
1162.993042 128.0
1170.335327 176.0
1170.614502 120.0
1171.901978 140.0
1172.324463 76.0
1181.78894 160.0
1187.481689 216.0
1191.263916 200.0
1194.192261 212.0
1195.83667 216.0
1198.143555 68.0
1204.186401 148.0
1207.46936 140.0
1207.739136 156.0
1210.182007 124.0
1211.338623 176.0
1212.197754 120.0
1215.026733 188.0
1222.39209 192.0
1223.457031 204.0
1223.965332 44.0
1225.246826 148.0
1234.929199 168.0
1234.992065 144.0
1243.849121 156.0
1247.92395 172.0
1252.054688 220.0
1252.378662 192.0
1253.033813 148.0
1260.463745 128.0
1264.05603 176.0
1267.292114 164.0
1269.291016 104.0
1270.14917 48.0
1270.489624 152.0
1270.82312 176.0
1273.130127 140.0
1275.425049 180.0
1277.508667 152.0
1278.490601 196.0
1283.063599 196.0
1283.113525 64.0
1292.427368 176.0
1295.004639 180.0
1296.566528 116.0
1298.681641 172.0
1307.36084 68.0
1307.67749 152.0
1309.71521 164.0
1310.41394 140.0
1310.586914 216.0
1311.667969 112.0
1314.762207 128.0
1315.281982 212.0
1316.025513 172.0
1317.014893 236.0
1317.260498 152.0
1317.368896 228.0
1317.448364 244.0
1318.141968 192.0
1328.104126 124.0
1328.604614 140.0
1331.602661 184.0
1334.858521 176.0
1339.706055 44.0
1340.077515 160.0
1340.216064 124.0
1341.906982 184.0
1343.212402 136.0
1344.292236 144.0
1346.482422 216.0
1347.936279 144.0
1349.149536 148.0
1353.356567 168.0
1354.748169 132.0
1356.734253 112.0
1356.968872 100.0
1360.446411 140.0
1361.165894 224.0
1362.135376 128.0
1363.0979 152.0
1363.590332 232.0
1364.192993 160.0
1365.376831 188.0
1366.340454 144.0
1371.377441 176.0
1371.620728 64.0
1371.716553 124.0
1374.851318 232.0
1375.146484 164.0
1376.82251 92.0
1377.324707 148.0
1377.391235 164.0
1377.605469 132.0
1381.945312 140.0
1387.952515 160.0
1396.247681 204.0
1397.080811 176.0
1397.214722 216.0
1400.750854 116.0
1401.905762 204.0
1402.38269 180.0
1404.79126 184.0
1407.92627 164.0
1410.369507 200.0
1416.430542 220.0
1416.857544 148.0
1417.172241 224.0
1417.516968 152.0
1420.156006 268.0
1420.411011 188.0
1421.033691 176.0
1422.992676 132.0
1423.390625 168.0
1425.456421 132.0
1425.809692 172.0
1426.666504 236.0
1427.583862 184.0
1429.592529 220.0
1434.880371 192.0
1438.018555 168.0
1439.377441 184.0
1442.505371 140.0
1442.936279 64.0
1445.53833 132.0
1446.060547 152.0
1446.643311 148.0
1447.574707 236.0
1449.263916 164.0
1450.484131 92.0
1451.735107 176.0
1455.3396 184.0
1456.129395 156.0
1461.138794 212.0
1461.808472 104.0
1465.943604 212.0
1470.405029 84.0
1480.542847 192.0
1482.948608 220.0
1483.515869 128.0
1483.60022 128.0
1483.876221 164.0
1485.762939 160.0
1486.821777 300.0
1487.735229 40.0
1488.810303 144.0
1491.192017 100.0
1493.175659 164.0
1498.772339 228.0
1500.653076 44.0
1500.776367 176.0
1502.59668 196.0
1502.697021 188.0
1503.707886 124.0
1504.850464 116.0
