>compound MLS001076142-01!
>formula C21H28O5
>ionization [M+H]+
>parentmass 361.199158
#inchi InChI=1S/C21H28O5/c1-19-7-5-13(23)9-12(19)3-4-14-15-6-8-21(26,17(25)11-22)20(15,2)10-16(24)18(14)19/h9,14-15,18,22,26H,3-8,10-11H2,1-2H3/t14-,15-,18+,19-,20-,21-/m0/s1
#inchikey MFYSYFVPBJMHGN
#Ion_Source LC-ESI
#Instrument qTof
#Compound_Source NIH Pharmacologically Active Library
#PI Dorrestein
#Data_Collector VP/LMS
#Scan -1
#Precursor_MZ 361.207
#ExactMass 360.194
#Charge 1
#CAS_Number N/A
#Pubmed_ID N/A
#Smiles C[C@@]12CC(=O)[C@H]3[C@@H](CCC4=CC(=O)CC[C@]34C)[C@@H]2CC[C@]1(O)C(=O)CO
#INCHI_AUX N/A
#Library_Class 1
#SpectrumID CCMSLIB00000085485
#IonMode Positive
#UpdateWorkflowName UPDATE-SINGLE-ANNOTATED-GOLD
#LibraryQualityString Gold
#TaskID d252d724072548979f1f6f1ced849daf
##Scan# 1685
#SpectrumFile p4-B07_GB7_01_18343.mzXML
#LibraryName Pharm_Active_Library.mgf
#MQScore -1
#Organism Pharm_Active_Library
#TIC_Query 0
#RT_Query -1
#MZErrorPPM -1
#SharedPeaks 0
#MassDiff 0
#LibMZ -1
#SpecMZ 361.207
#SpecCharge 0
#internalFilename spec-00000.mgf

>collision 10
45.086254 136.0
45.104965 128.0
45.313728 208.0
45.438412 176.0
45.470615 200.0
45.693676 72.0
45.785206 192.0
45.808102 88.0
45.884918 140.0
46.04414 196.0
46.545185 240.0
47.267628 172.0
47.574631 140.0
47.602093 212.0
47.615826 172.0
47.856468 196.0
47.901917 208.0
48.010799 84.0
48.394943 180.0
48.522408 168.0
48.620888 52.0
48.897453 156.0
49.065998 156.0
49.124569 188.0
49.155262 156.0
49.327045 184.0
49.45573 136.0
49.644863 152.0
49.922913 228.0
50.159443 188.0
50.40501 148.0
50.804268 120.0
50.966118 220.0
51.067051 116.0
51.088387 160.0
51.242142 132.0
51.304848 180.0
51.703579 204.0
51.742001 188.0
51.783527 128.0
51.88813 136.0
52.115494 164.0
52.165199 148.0
52.499226 156.0
52.767796 140.0
52.880627 144.0
52.93351 172.0
53.048645 116.0
53.071842 152.0
53.312801 72.0
53.595097 188.0
53.630074 184.0
53.682556 120.0
53.808041 64.0
54.08432 68.0
54.183167 224.0
54.509624 164.0
54.530197 212.0
54.562534 136.0
54.706707 80.0
54.718483 172.0
54.744987 40.0
54.85738 212.0
54.932167 152.0
55.452633 184.0
55.713787 180.0
55.726425 152.0
55.871368 332.0
56.106667 136.0
56.306614 200.0
56.438114 132.0
56.460545 240.0
56.533848 180.0
56.611691 196.0
56.797531 184.0
57.299622 204.0
57.390049 180.0
57.424732 108.0
57.623989 132.0
57.691998 76.0
57.81905 156.0
58.052345 184.0
58.4762 80.0
58.567554 56.0
58.958126 188.0
59.264164 140.0
59.795483 196.0
59.823189 220.0
60.208652 96.0
60.429695 220.0
60.818661 144.0
61.391186 232.0
61.409901 148.0
61.606575 204.0
61.640949 144.0
61.812954 188.0
61.889652 208.0
62.181225 152.0
62.382271 176.0
62.700214 100.0
62.820042 200.0
62.974731 148.0
63.302094 132.0
63.438347 136.0
63.58427 200.0
63.663647 92.0
63.693825 332.0
63.717651 220.0
64.087837 172.0
64.298843 52.0
64.426582 164.0
64.540054 204.0
64.861839 180.0
64.92437 216.0
65.131409 156.0
65.227814 132.0
65.388657 112.0
65.435341 88.0
65.504585 180.0
65.535194 228.0
65.849754 144.0
65.945076 200.0
66.213646 100.0
66.637016 172.0
66.716644 128.0
66.97538 116.0
67.131836 208.0
67.28521 176.0
67.594116 124.0
67.653038 220.0
68.462494 140.0
68.48391 188.0
68.533325 188.0
68.772446 204.0
68.831871 176.0
68.878113 212.0
68.962379 180.0
69.0467 208.0
69.432571 100.0
69.611801 196.0
69.736397 184.0
69.831161 68.0
70.172531 140.0
70.496346 156.0
70.553169 172.0
70.584938 116.0
70.715424 144.0
70.748901 152.0
70.790756 224.0
70.98011 152.0
71.122711 188.0
71.317543 256.0
71.576622 132.0
71.622093 196.0
71.981308 88.0
72.173935 168.0
72.21283 108.0
72.327881 188.0
72.627213 164.0
72.731293 224.0
72.814491 164.0
72.952118 136.0
73.115402 244.0
73.358963 144.0
73.890076 220.0
73.982483 196.0
74.086945 124.0
74.32869 188.0
74.373314 160.0
74.531303 128.0
74.808197 188.0
74.823692 124.0
74.866737 68.0
74.951141 72.0
74.963203 44.0
75.066628 140.0
75.164955 160.0
75.320328 116.0
75.37043 172.0
75.635025 108.0
75.66272 208.0
75.820343 196.0
75.858475 40.0
75.908897 200.0
76.019775 128.0
76.05275 28.0
76.15345 48.0
76.41246 172.0
77.494926 192.0
77.631645 136.0
77.724617 72.0
77.882614 112.0
78.030228 108.0
78.885231 192.0
79.000175 176.0
79.586792 164.0
79.926285 164.0
80.198753 264.0
80.296631 196.0
80.59671 88.0
81.162323 48.0
81.395584 132.0
81.524918 148.0
81.915344 148.0
82.03968 164.0
82.243515 264.0
82.319336 188.0
82.490974 204.0
82.881889 120.0
82.932632 232.0
83.137566 212.0
83.393639 172.0
83.628265 68.0
83.830414 160.0
83.881447 188.0
83.954376 160.0
84.014565 180.0
84.096672 76.0
84.259193 116.0
84.299393 168.0
84.542336 164.0
84.789833 152.0
85.513443 160.0
85.778671 156.0
86.389893 168.0
86.402847 208.0
86.497223 120.0
87.15744 256.0
87.174164 160.0
87.432655 92.0
87.568558 148.0
87.749313 140.0
88.483536 64.0
88.850861 68.0
88.9935 168.0
89.917763 44.0
89.953621 168.0
90.905701 180.0
90.996719 100.0
91.055618 668.0
91.114471 140.0
91.365417 68.0
91.531181 204.0
92.063019 152.0
92.380295 252.0
92.420471 144.0
92.581261 128.0
92.60041 96.0
92.669373 104.0
92.68853 144.0
92.728775 44.0
93.070076 548.0
93.348854 200.0
93.404625 228.0
93.441177 192.0
93.593224 192.0
93.691452 104.0
93.782013 164.0
93.959419 160.0
93.978714 176.0
94.077446 176.0
94.486832 128.0
94.761749 172.0
94.928444 164.0
94.994385 80.0
95.050644 172.0
95.082664 328.0
95.116631 172.0
95.374969 176.0
95.623924 132.0
95.643387 36.0
95.705681 148.0
95.845924 60.0
95.892693 60.0
96.027214 200.0
96.652336 52.0
96.716919 160.0
96.904907 164.0
97.06559 1064.0
97.136238 68.0
97.19902 148.0
97.334457 76.0
97.483742 180.0
97.578087 68.0
98.068245 132.0
98.166817 152.0
98.454926 232.0
98.528008 200.0
98.595192 168.0
99.047134 176.0
99.242477 180.0
99.367432 196.0
99.478561 156.0
99.720886 60.0
100.104843 168.0
100.302078 240.0
100.505493 156.0
101.155006 128.0
101.237099 192.0
101.383331 128.0
101.44146 60.0
101.463509 208.0
101.752403 116.0
102.077896 168.0
102.144264 156.0
103.055717 772.0
103.243469 80.0
103.520706 180.0
104.060059 204.0
104.078331 36.0
104.580452 220.0
104.59877 120.0
104.680206 136.0
104.832985 112.0
104.902283 192.0
104.987915 96.0
105.037247 172.0
105.070869 3668.0
105.100105 136.0
105.218483 108.0
105.78035 184.0
106.074165 584.0
106.286865 120.0
106.393585 156.0
106.944473 236.0
106.997993 148.0
107.050598 596.0
107.086273 1476.0
107.154518 188.0
107.315277 40.0
107.602051 184.0
107.781738 180.0
107.831337 60.0
108.048454 160.0
108.089767 352.0
108.114662 140.0
108.759216 76.0
108.993889 180.0
109.065376 352.0
109.104797 148.0
109.147705 80.0
109.180977 136.0
109.201195 168.0
109.268333 64.0
109.391113 220.0
109.424423 112.0
109.736938 92.0
110.006058 56.0
110.068687 136.0
110.095833 168.0
110.691811 204.0
111.083725 340.0
111.113098 140.0
111.150864 140.0
111.22641 180.0
111.844376 164.0
112.588615 136.0
112.998688 220.0
113.138359 200.0
113.195526 140.0
113.428574 144.0
113.48793 108.0
113.787086 176.0
113.846535 180.0
114.31633 212.0
114.493019 168.0
114.79776 172.0
114.921471 168.0
115.055428 496.0
115.365891 128.0
115.787201 140.0
115.827896 180.0
115.907166 196.0
116.063637 240.0
116.99176 148.0
117.070038 1572.0
117.118813 160.0
117.386047 152.0
117.539192 160.0
117.573723 44.0
117.726997 244.0
117.94088 120.0
118.001404 172.0
118.053299 76.0
118.074928 152.0
118.143921 196.0
118.248001 188.0
118.529526 148.0
119.002365 72.0
119.048805 284.0
119.086502 1716.0
119.504425 184.0
119.648186 140.0
119.809219 164.0
119.892014 52.0
120.096992 224.0
120.319527 160.0
120.382843 48.0
120.590385 48.0
120.636292 160.0
120.741241 212.0
120.798103 176.0
120.826546 120.0
120.96003 140.0
121.003815 184.0
121.065582 3252.0
121.101494 1004.0
121.194359 68.0
121.953651 152.0
122.067245 536.0
122.155937 164.0
122.272552 128.0
122.525772 224.0
122.748383 224.0
122.764923 152.0
123.041832 140.0
123.081711 1256.0
123.13678 152.0
123.572243 164.0
123.654114 140.0
123.848953 144.0
124.083847 220.0
124.170326 120.0
124.467682 228.0
124.498772 240.0
124.63427 92.0
125.063469 76.0
125.228233 164.0
125.288376 104.0
126.749557 180.0
127.054855 616.0
127.290138 148.0
127.308105 128.0
127.339546 68.0
127.541756 172.0
127.708138 128.0
127.753128 152.0
127.901642 188.0
127.917397 56.0
128.064072 712.0
128.117813 156.0
128.207947 176.0
128.244003 200.0
128.55748 152.0
128.954956 56.0
129.070694 804.0
129.323608 212.0
130.075394 556.0
130.128342 144.0
130.439575 140.0
130.548706 224.0
130.753448 104.0
130.89003 208.0
130.908249 152.0
131.050568 348.0
131.084076 1148.0
131.136581 228.0
131.174805 48.0
131.466751 52.0
131.83017 136.0
132.04245 208.0
132.060745 192.0
132.092926 348.0
132.156815 40.0
132.459 124.0
132.82576 228.0
132.844101 108.0
132.997849 136.0
133.036865 160.0
133.065323 432.0
133.100449 1056.0
133.128708 128.0
133.174637 132.0
133.215988 204.0
133.249588 80.0
133.287201 76.0
133.807007 184.0
133.924438 180.0
134.074402 308.0
134.134125 144.0
135.049026 136.0
135.080826 980.0
135.118866 1348.0
135.201172 40.0
135.404892 240.0
135.490601 140.0
135.645859 156.0
136.091278 128.0
136.119141 156.0
136.167908 184.0
136.423508 40.0
136.728195 112.0
136.786392 104.0
137.019257 200.0
137.058151 364.0
137.098175 180.0
137.12645 164.0
137.161407 36.0
137.3806 140.0
137.670013 148.0
138.102371 160.0
138.348068 52.0
138.373825 212.0
139.033905 208.0
139.075241 504.0
139.274292 152.0
139.953934 128.0
140.533737 168.0
140.876053 172.0
140.989471 120.0
141.070923 624.0
141.09584 164.0
141.564316 92.0
141.779892 164.0
141.824921 192.0
142.076538 640.0
142.097626 140.0
142.681854 28.0
142.991074 204.0
143.086899 2140.0
143.12439 200.0
143.283966 72.0
144.053802 216.0
144.090744 488.0
144.300644 104.0
144.748077 192.0
144.997208 52.0
145.018784 196.0
145.063629 584.0
145.101105 3536.0
145.179413 164.0
145.200989 184.0
145.344925 160.0
145.508133 52.0
145.544144 132.0
145.950211 64.0
146.072739 340.0
146.102875 516.0
146.140228 216.0
146.332764 56.0
146.677246 32.0
146.738541 136.0
146.911163 136.0
147.044373 212.0
147.0811 1432.0
147.119324 508.0
147.348114 36.0
147.490692 92.0
147.548706 116.0
148.087967 1296.0
148.12706 148.0
148.144028 148.0
148.439713 156.0
148.473663 180.0
148.592407 196.0
148.944504 168.0
149.057251 312.0
149.095352 336.0
149.282318 140.0
149.519943 200.0
149.849457 148.0
149.895752 220.0
149.988358 136.0
150.099945 176.0
150.478683 60.0
150.642303 80.0
150.705826 56.0
150.999161 156.0
151.072495 364.0
152.025635 152.0
152.58075 204.0
153.070694 292.0
153.112228 176.0
153.245239 120.0
153.405426 172.0
154.032196 116.0
154.076843 384.0
154.308975 44.0
155.084 772.0
155.109818 360.0
155.282135 240.0
155.376389 204.0
155.567474 184.0
155.840652 172.0
156.09053 544.0
156.365341 136.0
156.591904 116.0
156.756317 128.0
157.066452 444.0
157.102051 1016.0
157.185211 92.0
157.23761 64.0
157.321716 224.0
157.414856 116.0
157.549728 184.0
157.794647 236.0
158.069916 292.0
158.104294 240.0
158.874023 156.0
158.924194 140.0
159.081238 1520.0
159.117477 792.0
159.245514 132.0
159.456558 132.0
159.78093 60.0
159.8992 104.0
160.086655 340.0
160.12326 140.0
160.284485 160.0
160.435699 52.0
161.054062 356.0
161.095993 2080.0
161.13356 308.0
161.369797 36.0
161.45578 56.0
161.496246 248.0
161.969559 120.0
162.058228 140.0
162.101639 612.0
162.134232 48.0
162.15451 180.0
162.273651 44.0
162.697327 164.0
162.9151 244.0
162.963577 216.0
163.003403 168.0
163.028442 164.0
163.050385 212.0
163.072876 396.0
163.112427 13044.0
163.152649 160.0
163.182999 192.0
163.220886 56.0
163.232742 60.0
163.282028 72.0
163.335144 52.0
163.370758 144.0
163.431824 124.0
163.50882 108.0
163.630341 132.0
163.688904 60.0
163.729645 120.0
163.844269 68.0
163.887268 100.0
163.966568 232.0
164.012451 132.0
164.048141 216.0
164.086807 212.0
164.11731 1420.0
164.401642 100.0
164.433289 36.0
164.540497 40.0
165.075714 528.0
165.151215 92.0
165.279129 48.0
165.353333 96.0
165.450607 88.0
165.716385 144.0
166.07695 336.0
166.170761 108.0
166.360657 100.0
167.086884 400.0
167.371048 124.0
167.412247 88.0
167.796158 140.0
168.092377 300.0
168.198593 192.0
168.3974 28.0
168.441315 104.0
168.498138 148.0
168.753998 160.0
168.857437 116.0
169.101898 848.0
169.35437 44.0
169.421707 92.0
169.781998 52.0
170.072571 132.0
170.110107 352.0
170.410156 180.0
171.080597 728.0
171.115356 796.0
172.022186 200.0
172.087311 188.0
172.124008 184.0
172.834961 184.0
173.097809 648.0
173.130142 120.0
173.201477 84.0
173.877914 104.0
174.104599 436.0
174.143082 260.0
175.055634 156.0
175.076706 128.0
175.11261 656.0
176.120026 324.0
176.522812 136.0
176.930267 164.0
177.087234 200.0
177.12529 468.0
177.815582 76.0
178.072952 196.0
178.097015 164.0
178.532883 180.0
179.084457 852.0
179.129059 196.0
179.171677 72.0
179.21698 48.0
179.422195 116.0
179.608856 116.0
180.067932 296.0
180.095978 572.0
180.348465 184.0
180.803116 216.0
181.022629 184.0
181.102753 1136.0
181.405762 184.0
181.969131 100.0
182.079224 316.0
182.107025 368.0
182.286072 116.0
182.899246 100.0
182.97731 132.0
183.072449 372.0
183.116592 1900.0
183.192749 156.0
183.281662 212.0
183.300522 80.0
183.365204 48.0
183.411011 64.0
183.429886 128.0
184.089111 256.0
184.126755 472.0
184.250244 40.0
184.571869 164.0
184.647583 100.0
184.726028 96.0
184.969559 140.0
184.999329 176.0
185.098007 672.0
185.132065 528.0
185.259308 112.0
185.440842 60.0
185.839462 232.0
185.904587 144.0
186.107864 108.0
186.135529 216.0
186.161041 220.0
186.861023 176.0
187.046082 148.0
187.07637 184.0
187.109879 628.0
187.148483 344.0
187.430069 36.0
188.057297 88.0
188.119034 168.0
189.01651 56.0
189.091644 524.0
189.12468 452.0
189.421692 48.0
189.734085 44.0
189.849243 60.0
190.098877 140.0
190.123398 124.0
190.133316 116.0
190.141098 188.0
190.299255 144.0
191.092499 116.0
192.092102 180.0
192.143204 176.0
192.388824 136.0
193.050415 124.0
193.104111 832.0
193.145966 148.0
193.863022 52.0
194.10405 360.0
194.206802 164.0
194.251175 52.0
194.537003 64.0
195.08078 124.0
195.113525 296.0
195.545975 156.0
196.089066 40.0
196.122528 304.0
196.931641 196.0
197.009842 76.0
197.095291 436.0
197.131287 872.0
197.16095 152.0
197.613708 88.0
197.770416 68.0
197.820801 52.0
198.101028 204.0
198.13884 340.0
198.277344 108.0
199.037552 168.0
199.068451 160.0
199.111008 548.0
199.148575 400.0
199.827347 60.0
200.151382 152.0
201.098221 176.0
201.12381 256.0
201.391861 84.0
202.101639 200.0
202.129578 172.0
202.87175 208.0
203.061722 180.0
203.085098 332.0
203.098312 200.0
203.10611 172.0
203.137436 184.0
204.096832 196.0
205.101242 160.0
205.122498 168.0
205.160172 108.0
205.211487 44.0
206.030563 204.0
206.103485 372.0
206.871307 148.0
207.005875 212.0
207.078583 208.0
207.115768 500.0
207.183456 48.0
208.088943 120.0
208.124084 168.0
208.170105 84.0
208.440109 212.0
208.589554 40.0
208.99794 60.0
209.09024 184.0
209.132217 1120.0
209.331833 36.0
209.931213 92.0
210.006195 60.0
210.097092 376.0
210.141769 212.0
210.574768 76.0
210.791428 184.0
211.031326 144.0
211.115082 332.0
211.153 424.0
211.20195 60.0
211.83876 56.0
211.879318 72.0
212.114044 336.0
212.153656 96.0
212.923538 52.0
212.961288 148.0
212.990341 176.0
213.100266 316.0
213.123947 324.0
213.461151 36.0
213.915009 128.0
214.034378 44.0
214.098434 152.0
214.133575 328.0
214.167542 132.0
214.905869 76.0
215.14006 196.0
215.171631 192.0
215.259048 56.0
216.104095 144.0
216.133026 112.0
216.155121 152.0
216.358383 128.0
217.124924 436.0
217.34021 276.0
218.059662 176.0
218.109024 192.0
218.156662 36.0
218.536041 144.0
218.721436 128.0
218.765594 56.0
219.122513 428.0
220.08342 124.0
220.119797 192.0
221.134369 652.0
221.218689 148.0
221.245331 64.0
221.390411 104.0
221.633408 112.0
222.101974 128.0
222.139084 192.0
222.517151 156.0
223.031067 112.0
223.114883 800.0
223.149048 596.0
224.072586 52.0
224.120102 252.0
224.150696 268.0
224.504776 128.0
225.015015 232.0
225.056808 80.0
225.084427 176.0
225.128082 692.0
225.160019 760.0
225.191193 48.0
225.89061 160.0
226.134705 724.0
226.169174 208.0
227.109055 184.0
227.142807 820.0
227.208694 28.0
227.256699 212.0
227.490784 88.0
227.553818 108.0
228.150696 160.0
228.371185 204.0
229.125107 320.0
229.159531 324.0
229.253281 60.0
230.115036 200.0
230.161697 180.0
230.24881 160.0
230.998383 144.0
231.127899 128.0
231.697662 100.0
232.137146 108.0
233.08725 132.0
233.125809 132.0
233.649719 216.0
233.740997 192.0
234.133698 148.0
234.39566 160.0
234.78891 128.0
235.072601 172.0
235.118378 148.0
235.151825 548.0
236.043976 92.0
236.08374 136.0
236.119095 192.0
236.166306 64.0
236.411057 152.0
237.01123 60.0
237.127716 576.0
237.165283 236.0
237.195114 132.0
237.891418 168.0
238.084854 204.0
238.139496 228.0
238.17392 188.0
239.114655 128.0
239.143295 1240.0
240.149963 492.0
240.609711 40.0
241.120636 468.0
241.159241 948.0
241.440887 32.0
241.592453 84.0
241.648132 76.0
241.700729 124.0
241.827606 48.0
241.892609 56.0
241.997864 28.0
242.128769 200.0
242.164078 688.0
242.502792 96.0
242.77562 76.0
242.843842 44.0
242.936905 72.0
243.137009 1340.0
243.16951 604.0
243.399338 120.0
243.452118 76.0
243.644699 120.0
244.146942 296.0
244.179321 180.0
244.957458 120.0
245.054031 76.0
245.094528 156.0
245.13707 192.0
245.142715 164.0
245.154938 268.0
245.231644 88.0
245.755539 168.0
245.94902 104.0
246.117599 216.0
246.15506 68.0
246.230011 240.0
246.567413 136.0
247.139175 412.0
247.333694 132.0
248.129364 160.0
248.152756 156.0
249.004822 164.0
249.036224 128.0
249.128952 500.0
249.15094 200.0
249.252991 164.0
250.131424 152.0
250.158752 188.0
250.508301 56.0
251.015717 160.0
251.141678 516.0
251.18013 244.0
251.293274 116.0
251.66571 128.0
252.156006 188.0
252.183777 164.0
253.098022 108.0
253.154068 496.0
253.360886 44.0
253.604874 48.0
253.864838 52.0
254.086868 160.0
254.127274 228.0
254.160934 128.0
254.931458 132.0
255.090363 148.0
255.139755 348.0
255.177399 248.0
255.370178 100.0
255.825195 60.0
256.111755 128.0
256.17691 480.0
256.943756 48.0
256.988434 36.0
257.155426 380.0
257.189423 340.0
258.162231 2364.0
258.291809 44.0
259.128571 116.0
259.167419 920.0
260.041229 88.0
260.098999 152.0
260.171356 344.0
260.384766 112.0
260.641754 156.0
260.747803 120.0
260.889221 80.0
261.125458 188.0
261.136078 88.0
261.148102 156.0
261.175415 236.0
261.651642 152.0
262.218567 36.0
262.799011 88.0
263.138214 168.0
264.129822 128.0
264.151794 172.0
264.450287 136.0
264.803192 88.0
265.157776 660.0
265.234131 176.0
265.798401 92.0
265.989899 72.0
266.126251 164.0
266.16507 372.0
266.808502 80.0
266.928802 128.0
267.142303 220.0
267.173553 836.0
267.247559 128.0
267.296356 128.0
268.13559 348.0
268.160248 176.0
268.204987 144.0
268.266907 132.0
269.118408 124.0
269.152222 912.0
269.693359 80.0
270.164062 176.0
270.396515 84.0
271.138855 132.0
271.162567 444.0
271.428406 88.0
272.068207 132.0
272.176544 244.0
273.149323 160.0
274.212799 48.0
277.157501 296.0
279.176147 636.0
280.150604 120.0
280.17392 144.0
280.207214 68.0
281.161102 116.0
282.166565 340.0
283.173431 440.0
283.233765 92.0
283.263458 172.0
284.177124 1484.0
285.138824 304.0
285.181183 324.0
285.92981 108.0
286.061493 68.0
286.16684 136.0
286.19223 156.0
286.451691 144.0
286.622437 172.0
286.984161 92.0
287.161346 192.0
287.264069 32.0
289.154999 256.0
289.291595 136.0
289.504913 204.0
293.09198 164.0
293.149109 156.0
294.169678 116.0
295.169556 284.0
296.166595 136.0
297.153839 148.0
297.186066 724.0
299.16214 1124.0
299.202148 132.0
299.822144 100.0
300.168427 140.0
301.180115 808.0
302.184937 376.0
302.218597 212.0
303.188141 124.0
303.212402 64.0
304.096802 72.0
304.714905 64.0
304.846924 48.0
304.98941 56.0
305.427521 100.0
306.168854 112.0
307.149017 172.0
307.179871 148.0
308.162689 292.0
310.646179 56.0
312.159912 216.0
312.332245 96.0
312.356842 120.0
313.174896 560.0
314.183777 96.0
315.156006 144.0
315.197693 236.0
315.399841 80.0
316.174408 72.0
316.269958 140.0
317.173706 116.0
318.170166 136.0
321.027069 96.0
325.180237 284.0
325.385132 68.0
334.043915 76.0
336.324921 60.0
336.847076 116.0
338.774841 112.0
340.061859 140.0
341.231903 112.0
343.186768 228.0
344.196716 256.0
353.271973 112.0
354.338898 52.0
358.313721 68.0
361.152405 88.0
361.199158 1396.0
361.269684 128.0
362.208466 88.0
362.23877 136.0
362.981567 124.0
363.212921 224.0
363.239471 28.0
367.145538 136.0
368.118652 64.0
371.847351 128.0
387.157623 104.0
412.133209 52.0
415.258331 200.0
420.625092 40.0
429.467468 48.0
437.448059 92.0
472.399353 104.0
477.587158 92.0
485.913239 56.0
491.567169 56.0
500.018158 88.0
561.587891 44.0
566.229065 80.0
583.498962 116.0
645.69696 224.0
652.471252 128.0
735.699829 80.0
747.809204 108.0
748.233765 236.0
762.147766 40.0
790.729614 140.0
814.353271 128.0
827.56604 120.0
830.047058 40.0
861.556824 132.0
871.510742 64.0
910.762695 132.0
911.778076 140.0
913.900757 132.0
914.309937 180.0
917.882141 200.0
948.977661 180.0
961.193115 240.0
1003.698303 160.0
1034.070801 164.0
1040.769775 184.0
1043.963379 168.0
1050.590942 180.0
1058.333496 136.0
1064.077881 140.0
1066.702393 156.0
1074.458252 192.0
1082.275024 108.0
1088.937622 144.0
1089.618286 232.0
1094.599731 184.0
1095.297852 44.0
1095.976318 168.0
1099.722046 260.0
1113.147827 164.0
1114.283569 76.0
1116.224487 216.0
1118.300049 184.0
1118.406494 192.0
1118.692749 136.0
1120.797241 124.0
1126.888916 180.0
1134.820068 192.0
1145.619995 140.0
1151.353149 232.0
1157.520386 124.0
1158.360107 176.0
1161.593506 152.0
1163.059204 156.0
1169.536621 192.0
1173.378662 240.0
1175.595459 180.0
1183.421875 56.0
1183.736816 136.0
1183.860107 136.0
1184.236816 160.0
1188.013672 156.0
1190.058838 168.0
1190.532593 184.0
1192.628052 200.0
1194.739014 48.0
1196.900146 184.0
1197.354614 164.0
1198.057251 28.0
1198.367188 168.0
1203.201782 196.0
1210.46167 204.0
1211.819214 100.0
1214.196777 128.0
1214.488037 196.0
1222.651611 96.0
1228.14856 168.0
1228.818237 136.0
1239.305664 160.0
1239.719116 184.0
1242.783325 84.0
1247.798096 208.0
1248.444946 44.0
1249.106079 168.0
1249.436768 156.0
1252.667847 248.0
1255.501221 224.0
1255.90332 168.0
1256.143066 132.0
1260.583984 236.0
1261.396729 180.0
1262.839111 184.0
1263.914429 148.0
1269.645142 180.0
1272.277588 148.0
1275.06189 128.0
1275.82959 92.0
1277.223267 168.0
1279.543213 152.0
1287.514893 88.0
1291.216919 116.0
1298.328369 216.0
1301.342041 148.0
1302.304321 108.0
1303.288452 200.0
1305.969971 152.0
1307.336792 108.0
1310.116089 88.0
1312.876587 240.0
1314.261597 184.0
1318.435303 48.0
1323.484375 200.0
1323.88269 216.0
1324.541748 156.0
1328.361816 116.0
1329.950806 80.0
1330.647705 156.0
1340.036987 196.0
1355.409912 92.0
1356.538574 204.0
1360.000732 112.0
1360.94043 60.0
1364.819946 120.0
1367.173828 264.0
1372.293091 180.0
1376.063232 44.0
1379.69812 72.0
1379.912476 224.0
1382.442139 180.0
1383.463501 56.0
1384.663086 188.0
1387.358154 168.0
1387.42688 56.0
1391.232544 152.0
1394.969116 172.0
1399.023315 252.0
1399.953979 192.0
1400.534912 140.0
1402.442383 232.0
1402.494507 196.0
1402.767456 120.0
1406.805908 192.0
1407.925903 208.0
1408.067871 188.0
1408.120117 72.0
1409.300415 240.0
1415.42627 132.0
1415.860596 180.0
1416.260864 204.0
1418.782837 232.0
1422.233398 180.0
1422.481079 156.0
1423.111694 188.0
1425.981201 236.0
1431.766602 160.0
1433.823364 172.0
1442.019531 136.0
1446.32312 40.0
1448.518921 136.0
1450.345093 168.0
1454.105103 192.0
1456.536621 80.0
1458.063843 212.0
1466.153564 68.0
1466.824219 192.0
1467.235962 164.0
1468.188965 120.0
1474.005859 212.0
1474.907715 204.0
1477.018066 148.0
1479.642822 164.0
1483.286133 264.0
1484.45459 176.0
1485.420898 160.0
1489.421631 132.0
1489.527588 132.0
1491.379395 240.0
1497.665527 92.0
1498.06604 132.0
1498.497437 120.0
1499.383667 136.0
1501.025635 52.0
1501.334106 220.0
