>compound MLS002153837-01!Benperidol2062-84-2
>formula C22H24FN3O2
>ionization [M+H]+
>parentmass 382.192383
#inchi InChI=1S/C22H24FN3O2/c23-17-9-7-16(8-10-17)21(27)6-3-13-25-14-11-18(12-15-25)26-20-5-2-1-4-19(20)24-22(26)28/h1-2,4-5,7-10,18H,3,6,11-15H2,(H,24,28)
#inchikey FEBOTPHFXYHVPL
#Ion_Source LC-ESI
#Instrument qTof
#Compound_Source NIH Pharmacologically Active Library
#PI Dorrestein
#Data_Collector VP/LMS
#Scan -1
#Precursor_MZ 382.197
#ExactMass 381.185
#Charge 1
#CAS_Number N/A
#Pubmed_ID N/A
#Smiles Oc1nc2ccccc2n1C3CCN(CCCC(=O)c4ccc(F)cc4)CC3
#INCHI_AUX N/A
#Library_Class 1
#SpectrumID CCMSLIB00000085742
#IonMode Positive
#UpdateWorkflowName UPDATE-SINGLE-ANNOTATED-GOLD
#LibraryQualityString Gold
#TaskID d252d724072548979f1f6f1ced849daf
##Scan# 1563
#SpectrumFile p4-E10_GE10_01_18382.mzXML
#LibraryName Pharm_Active_Library.mgf
#MQScore -1
#Organism Pharm_Active_Library
#TIC_Query 0
#RT_Query -1
#MZErrorPPM -1
#SharedPeaks 0
#MassDiff 0
#LibMZ -1
#SpecMZ 382.197
#SpecCharge 0
#internalFilename spec-00000.mgf

>collision 10
44.914299 196.0
44.92897 316.0
44.950321 136.0
44.990364 128.0
44.99971 92.0
45.009056 136.0
45.041107 284.0
45.058475 220.0
45.103912 112.0
45.119953 200.0
45.146698 124.0
45.168167 236.0
45.208237 136.0
45.220879 204.0
45.231857 204.0
45.248394 168.0
45.268478 152.0
45.301964 84.0
45.323402 336.0
45.351543 244.0
45.38372 128.0
45.414566 208.0
45.424274 184.0
45.43531 152.0
45.44706 216.0
45.455818 192.0
45.505821 120.0
45.574322 128.0
45.591793 168.0
45.617329 152.0
45.672462 132.0
45.683224 172.0
45.707443 168.0
45.733013 148.0
45.781483 184.0
45.790909 140.0
45.813808 356.0
45.86367 100.0
45.921307 188.0
45.937675 136.0
45.949459 212.0
45.98917 184.0
45.999912 36.0
46.032314 156.0
46.125542 116.0
46.171513 148.0
46.186649 168.0
46.197041 156.0
46.222919 144.0
46.237808 212.0
46.26894 188.0
46.298012 188.0
46.309566 120.0
46.331242 148.0
46.361607 156.0
46.392227 132.0
46.415276 64.0
46.460789 144.0
46.504814 240.0
46.526535 144.0
46.612106 112.0
46.624336 84.0
46.640648 120.0
46.671917 120.0
46.689594 180.0
46.717743 184.0
46.72699 252.0
46.771694 164.0
46.819813 188.0
46.84885 180.0
46.866051 220.0
46.885643 120.0
46.945625 80.0
46.959267 156.0
46.969921 192.0
46.981091 172.0
46.998829 196.0
47.020664 96.0
47.034645 148.0
47.061615 176.0
47.097122 220.0
47.108051 192.0
47.137543 208.0
47.180107 380.0
47.220139 200.0
47.243393 168.0
47.301228 228.0
47.317295 160.0
47.326881 84.0
47.340763 144.0
47.35701 188.0
47.387146 156.0
47.437855 148.0
47.466648 128.0
47.477619 136.0
47.487221 48.0
47.516029 184.0
47.586025 160.0
47.601131 92.0
47.647831 160.0
47.673939 212.0
47.687027 168.0
47.7248 116.0
47.734425 132.0
47.74818 160.0
47.761932 72.0
47.771561 156.0
47.78532 188.0
47.808994 176.0
47.863777 212.0
47.884434 152.0
47.898785 192.0
47.911716 144.0
47.950569 92.0
47.985031 104.0
48.008121 204.0
48.011955 152.0
48.049854 132.0
48.087112 116.0
48.140957 204.0
48.156151 164.0
48.203121 140.0
48.215622 176.0
48.229382 128.0
48.243206 144.0
48.273624 120.0
48.312149 164.0
48.355247 56.0
48.366322 180.0
48.37878 340.0
48.393478 104.0
48.431049 204.0
48.45322 144.0
48.513161 80.0
48.549389 156.0
48.561695 104.0
48.603313 128.0
48.633846 116.0
48.675854 248.0
48.697231 172.0
48.710217 160.0
48.721333 144.0
48.743561 140.0
48.756069 168.0
48.77692 80.0
48.792244 172.0
48.824352 208.0
48.840881 144.0
48.856186 140.0
48.874271 160.0
48.912666 252.0
48.936909 104.0
48.955009 164.0
49.0177 104.0
49.030243 152.0
49.040672 132.0
49.073032 184.0
49.124462 168.0
49.134327 168.0
49.218571 48.0
49.231136 196.0
49.258755 140.0
49.325428 132.0
49.34013 172.0
49.384441 184.0
49.421249 172.0
49.438042 128.0
49.489838 252.0
49.510841 192.0
49.532085 144.0
49.578091 156.0
49.639011 204.0
49.64959 144.0
49.66642 164.0
49.715527 180.0
49.727474 152.0
49.768368 224.0
49.785721 172.0
49.809597 192.0
49.892509 140.0
49.905167 156.0
49.927666 204.0
49.961601 160.0
49.982452 148.0
50.002232 48.0
50.062767 140.0
50.082485 132.0
50.11869 172.0
50.138844 168.0
50.171265 148.0
50.195854 228.0
50.227673 64.0
50.284115 204.0
50.299641 188.0
50.322227 136.0
50.34906 216.0
50.384422 112.0
50.491127 284.0
50.508121 164.0
50.571037 136.0
50.589436 132.0
50.610676 52.0
50.626251 128.0
50.658829 252.0
50.689999 164.0
50.705029 152.0
50.743862 124.0
50.761646 240.0
50.776646 172.0
50.803429 160.0
50.823292 184.0
50.837482 40.0
50.877834 252.0
50.894646 180.0
50.953476 128.0
50.992287 104.0
51.002235 144.0
51.037781 148.0
51.056267 48.0
51.071911 116.0
51.088982 80.0
51.104633 188.0
51.141632 212.0
51.168682 184.0
51.185768 216.0
51.196728 184.0
51.223564 172.0
51.258415 220.0
51.276711 172.0
51.281696 144.0
51.295475 172.0
51.321136 192.0
51.358215 176.0
51.393753 224.0
51.420521 180.0
51.436775 148.0
51.459045 208.0
51.465 136.0
51.470436 184.0
51.500954 236.0
51.525238 184.0
51.562172 200.0
51.58955 36.0
51.623817 116.0
51.638168 200.0
51.648182 64.0
51.682327 120.0
51.751629 172.0
51.779861 164.0
51.806961 144.0
51.83287 136.0
51.857231 172.0
51.906948 212.0
51.927486 164.0
51.947571 72.0
51.979134 164.0
51.999226 144.0
52.014545 184.0
52.035114 224.0
52.049473 128.0
52.062298 172.0
52.077324 188.0
52.087509 232.0
52.128479 152.0
52.139977 128.0
52.157227 176.0
52.221523 196.0
52.260025 108.0
52.275162 200.0
52.294704 272.0
52.303726 180.0
52.326981 156.0
52.453758 136.0
52.4725 148.0
52.502781 112.0
52.520088 140.0
52.598038 196.0
52.641323 144.0
52.683212 140.0
52.764145 144.0
52.786427 136.0
52.797977 152.0
52.886185 44.0
53.04417 112.0
53.048985 48.0
53.053226 148.0
53.065296 184.0
53.106926 232.0
53.146648 204.0
53.198769 108.0
53.235069 160.0
53.277191 220.0
53.310612 72.0
53.320786 196.0
53.342587 160.0
53.362942 88.0
53.428391 416.0
53.450214 132.0
53.501156 144.0
53.523968 144.0
53.563778 140.0
53.582714 148.0
53.608173 296.0
53.616501 172.0
53.655586 156.0
53.680374 176.0
53.694111 172.0
53.724133 124.0
53.776665 64.0
53.819 80.0
53.838112 140.0
53.899342 140.0
53.925644 488.0
53.935879 168.0
53.960732 188.0
54.045563 32.0
54.070442 276.0
54.092396 200.0
54.118752 100.0
54.130085 200.0
54.171391 136.0
54.200779 84.0
54.248169 208.0
54.294003 272.0
54.325401 68.0
54.366486 224.0
54.396034 216.0
54.45332 196.0
54.483955 188.0
54.50935 212.0
54.528038 228.0
54.548462 224.0
54.573612 184.0
54.591255 124.0
54.603024 176.0
54.614788 108.0
54.658924 168.0
54.676586 96.0
54.710442 168.0
54.726814 164.0
54.74136 32.0
54.789021 168.0
54.798317 180.0
54.82386 144.0
54.848915 280.0
54.872501 152.0
54.9207 176.0
54.944359 172.0
54.959526 160.0
54.981663 200.0
55.021805 164.0
55.036995 256.0
55.080589 180.0
55.093884 136.0
55.133778 112.0
55.178829 132.0
55.196911 180.0
55.216896 164.0
55.228405 200.0
55.287548 152.0
55.331993 172.0
55.365467 172.0
55.386787 116.0
55.39864 228.0
55.422344 216.0
55.43568 116.0
55.453465 176.0
55.505352 160.0
55.542431 196.0
55.561714 60.0
55.582489 208.0
55.640377 188.0
55.707207 220.0
55.728004 164.0
55.741379 196.0
55.78894 32.0
55.861008 148.0
55.882603 168.0
55.927284 172.0
55.945148 212.0
55.963905 160.0
55.992828 180.0
56.013649 208.0
56.067291 260.0
56.088158 120.0
56.106045 168.0
56.121483 192.0
56.128235 68.0
56.133823 184.0
56.152271 60.0
56.182106 132.0
56.21344 136.0
56.223885 176.0
56.244781 68.0
56.300026 196.0
56.325417 148.0
56.343342 116.0
56.385181 176.0
56.407604 132.0
56.432507 140.0
56.446335 168.0
56.452221 152.0
56.476387 52.0
56.494339 136.0
56.51614 140.0
56.575695 168.0
56.590126 92.0
56.614082 160.0
56.624569 36.0
56.64518 168.0
56.689877 256.0
56.792439 104.0
56.807438 136.0
56.852043 204.0
56.88097 132.0
56.929016 68.0
56.959789 196.0
57.016151 120.0
57.061249 228.0
57.073277 160.0
57.09919 156.0
57.110874 132.0
57.128925 80.0
57.160522 240.0
57.184601 200.0
57.196644 88.0
57.219223 164.0
57.237293 140.0
57.27179 168.0
57.306732 120.0
57.350285 96.0
57.403053 160.0
57.428692 220.0
57.457352 208.0
57.479984 172.0
57.514698 172.0
57.534325 148.0
57.55777 420.0
57.584473 208.0
57.603035 184.0
57.611042 220.0
57.615051 176.0
57.655163 392.0
57.692352 212.0
57.73378 136.0
57.751957 216.0
57.776131 172.0
57.812584 176.0
57.836662 128.0
57.888138 140.0
57.945057 160.0
57.967365 188.0
58.003288 144.0
58.027546 188.0
58.059387 144.0
58.080826 180.0
58.094276 168.0
58.123066 168.0
58.153454 128.0
58.198997 248.0
58.258423 192.0
58.277985 272.0
58.291061 112.0
58.329655 324.0
58.363102 152.0
58.385807 204.0
58.402645 100.0
58.428505 136.0
58.500034 204.0
58.515495 204.0
58.544189 100.0
58.567036 168.0
58.589886 108.0
58.634075 92.0
58.66151 200.0
58.71793 160.0
58.753014 172.0
58.771324 180.0
58.788109 184.0
58.894981 252.0
58.909351 164.0
58.921318 184.0
58.93623 244.0
58.979023 140.0
58.991253 148.0
59.001953 104.0
59.018772 120.0
59.098312 140.0
59.132526 224.0
59.167404 120.0
59.183563 132.0
59.192413 176.0
59.213123 232.0
59.259083 108.0
59.274403 160.0
59.28727 192.0
59.305054 124.0
59.367916 192.0
59.380459 180.0
59.456898 236.0
59.469177 136.0
59.479919 164.0
59.499878 200.0
59.541336 168.0
59.565098 204.0
59.593567 208.0
59.645821 40.0
59.698093 188.0
59.715012 208.0
59.755741 208.0
59.773472 52.0
59.796558 124.0
59.836582 140.0
59.873539 140.0
59.887402 188.0
59.909737 128.0
59.970604 148.0
59.999893 220.0
60.070835 108.0
60.090889 128.0
60.185951 184.0
60.307381 148.0
60.339554 140.0
60.359653 156.0
60.379162 176.0
60.397648 156.0
60.423134 152.0
60.43922 216.0
60.504787 120.0
60.529873 140.0
60.548454 132.0
60.567043 204.0
60.577885 172.0
60.598026 192.0
60.613522 172.0
60.635513 168.0
60.684231 200.0
60.718616 192.0
60.743755 40.0
60.768578 120.0
60.78875 132.0
60.812031 128.0
60.847023 128.0
60.867088 112.0
60.925735 288.0
60.962681 28.0
60.985992 204.0
61.017082 164.0
61.029522 92.0
61.055958 92.0
61.068401 152.0
61.122852 144.0
61.204163 204.0
61.221184 144.0
61.242729 148.0
61.2957 172.0
61.311283 100.0
61.375542 164.0
61.40015 148.0
61.434467 116.0
61.476593 296.0
61.504837 168.0
61.516396 192.0
61.52697 132.0
61.549965 72.0
61.564018 156.0
61.58276 124.0
61.672852 176.0
61.712467 128.0
61.723415 140.0
61.75782 172.0
61.787857 200.0
61.818836 116.0
61.843815 192.0
61.857967 204.0
61.872055 64.0
61.883015 128.0
61.896973 184.0
61.929996 188.0
61.942528 164.0
61.956627 336.0
61.998936 164.0
62.023228 120.0
62.039688 68.0
62.07732 220.0
62.111824 196.0
62.150227 136.0
62.237377 128.0
62.253853 208.0
62.27507 44.0
62.292347 332.0
62.385067 192.0
62.410221 120.0
62.436954 108.0
62.452682 84.0
62.465267 180.0
62.484146 128.0
62.515728 280.0
62.584881 116.0
62.600624 172.0
62.625824 148.0
62.665211 156.0
62.695114 180.0
62.726673 104.0
62.743046 228.0
62.764511 128.0
62.794476 92.0
62.81498 160.0
62.931767 60.0
62.944916 196.0
62.987041 132.0
63.078697 132.0
63.097668 116.0
63.110317 100.0
63.14827 208.0
63.209332 208.0
63.228962 152.0
63.241623 144.0
63.273281 196.0
63.289116 144.0
63.323746 152.0
63.35722 176.0
63.379402 88.0
63.393085 164.0
63.433289 156.0
63.458656 160.0
63.503059 168.0
63.527599 136.0
63.533585 180.0
63.568104 136.0
63.579212 180.0
63.590031 152.0
63.696709 148.0
63.707829 180.0
63.718952 96.0
63.796825 128.0
63.850185 160.0
63.868385 128.0
63.890656 136.0
63.936802 128.0
63.96386 152.0
63.986149 192.0
64.003662 100.0
64.032326 116.0
64.083305 140.0
64.14621 196.0
64.204453 164.0
64.220406 164.0
64.285812 192.0
64.310287 144.0
64.348068 128.0
64.382675 148.0
64.394379 152.0
64.408752 132.0
64.423134 176.0
64.444168 48.0
64.483856 140.0
64.496643 168.0
64.527969 240.0
64.559547 104.0
64.574989 116.0
64.612549 224.0
64.642181 160.0
64.681038 100.0
64.699806 164.0
64.72702 272.0
64.749443 84.0
64.77507 196.0
64.797501 220.0
64.81192 172.0
64.853584 64.0
64.893669 140.0
64.911301 120.0
64.966354 148.0
65.033234 196.0
65.08049 248.0
65.171349 184.0
65.262962 180.0
65.380394 144.0
65.438347 208.0
65.528542 320.0
65.546745 220.0
65.605904 200.0
65.61898 216.0
65.64299 68.0
65.67202 212.0
65.725258 176.0
65.818878 132.0
65.8423 204.0
65.854408 80.0
65.893715 204.0
65.938423 224.0
65.965904 144.0
65.99662 144.0
66.035339 136.0
66.039322 228.0
66.067787 76.0
66.100952 200.0
66.12928 164.0
66.158417 200.0
66.181084 144.0
66.202133 116.0
66.226486 104.0
66.245865 124.0
66.262062 180.0
66.280746 196.0
66.325607 152.0
66.373909 132.0
66.385254 176.0
66.404716 100.0
66.435318 204.0
66.456978 188.0
66.479347 208.0
66.521545 140.0
66.535202 176.0
66.60112 208.0
66.622238 108.0
66.663162 148.0
66.707352 180.0
66.717056 104.0
66.799431 216.0
66.823837 296.0
66.871025 176.0
66.94429 136.0
66.958946 160.0
66.992302 172.0
67.011673 152.0
67.03878 348.0
67.050186 132.0
67.063225 164.0
67.084412 180.0
67.130066 120.0
67.293243 172.0
67.379883 172.0
67.405952 192.0
67.463432 188.0
67.495018 312.0
67.516479 164.0
67.552109 168.0
67.594826 156.0
67.610367 400.0
67.665588 180.0
67.687729 140.0
67.75119 100.0
67.768379 152.0
67.782318 180.0
67.80854 204.0
67.83149 184.0
67.892159 144.0
67.933159 84.0
67.970894 168.0
68.007004 144.0
68.038193 172.0
68.066109 196.0
68.099106 168.0
68.11866 184.0
68.159737 120.0
68.222816 168.0
68.258369 168.0
68.283035 348.0
68.329094 216.0
68.345551 204.0
68.370232 188.0
68.393272 44.0
68.429138 300.0
68.465439 172.0
68.47551 236.0
68.510193 128.0
68.55468 136.0
68.585388 120.0
68.604843 160.0
68.622261 76.0
68.677597 152.0
68.757706 152.0
68.788895 216.0
68.841728 172.0
68.859947 136.0
68.878067 180.0
68.926636 160.0
68.965637 92.0
69.068161 168.0
69.150894 72.0
69.208832 180.0
69.30159 356.0
69.359596 148.0
69.388474 124.0
69.455772 164.0
69.485634 188.0
69.507202 208.0
69.518814 60.0
69.545372 196.0
69.575249 192.0
69.621742 220.0
69.647545 188.0
69.68985 92.0
69.704811 48.0
69.741371 136.0
69.753006 116.0
69.777946 124.0
69.799561 76.0
69.814529 164.0
69.837814 96.0
69.864426 80.0
69.900208 156.0
69.95359 180.0
69.959908 96.0
69.996414 188.0
70.0616 128.0
70.076645 124.0
70.090691 168.0
70.11615 184.0
70.144501 156.0
70.172539 172.0
70.190804 252.0
70.209229 112.0
70.234764 196.0
70.252594 156.0
70.265938 140.0
70.301453 256.0
70.329353 148.0
70.349388 124.0
70.399475 40.0
70.438057 124.0
70.473473 428.0
70.563232 180.0
70.642014 136.0
70.702858 212.0
70.732201 200.0
70.75061 132.0
70.764008 204.0
70.80587 276.0
70.874557 176.0
70.898018 220.0
70.936569 132.0
70.959862 76.0
70.983513 148.0
71.025444 100.0
71.04557 144.0
71.065704 152.0
71.094536 184.0
71.1278 84.0
71.181526 36.0
71.199287 160.0
71.218712 168.0
71.252579 308.0
71.287361 188.0
71.352913 144.0
71.436279 204.0
71.456161 124.0
71.47065 84.0
71.534607 184.0
71.581749 200.0
71.593536 96.0
71.633965 116.0
71.651711 172.0
71.679451 84.0
71.797462 160.0
71.814323 224.0
71.832878 156.0
71.871223 132.0
71.881813 164.0
71.92907 136.0
71.960197 136.0
72.009819 180.0
72.035454 116.0
72.062485 116.0
72.145302 116.0
72.185883 76.0
72.207863 148.0
72.229202 160.0
72.255226 324.0
72.278252 172.0
72.283669 104.0
72.28791 152.0
72.326302 180.0
72.355087 136.0
72.380486 148.0
72.397415 144.0
72.441452 224.0
72.497368 172.0
72.521294 172.0
72.52916 116.0
72.531593 144.0
72.546524 212.0
72.618286 112.0
72.672943 104.0
72.688995 180.0
72.728851 176.0
72.753494 80.0
72.784058 244.0
72.882385 204.0
72.92453 192.0
72.960266 220.0
72.984566 176.0
73.008369 236.0
73.027077 184.0
73.056 188.0
73.086624 136.0
73.113853 100.0
73.128517 188.0
73.151085 220.0
73.182076 208.0
73.200676 172.0
73.242401 40.0
73.255104 192.0
73.313416 156.0
73.335266 144.0
73.386406 160.0
73.43586 168.0
73.485336 116.0
73.526291 132.0
73.538239 156.0
73.576157 208.0
73.602943 164.0
73.616508 156.0
73.630432 156.0
73.67556 220.0
73.702179 144.0
73.719269 160.0
73.772354 208.0
73.843895 232.0
73.850586 208.0
73.876572 152.0
73.900528 156.0
73.926765 228.0
73.968987 156.0
73.98439 72.0
74.040901 172.0
74.097427 140.0
74.136841 80.0
74.150551 168.0
74.212303 172.0
74.229408 120.0
74.262634 172.0
74.334053 144.0
74.375244 112.0
74.390106 160.0
74.425026 168.0
74.438766 164.0
74.462898 156.0
74.47921 124.0
74.509186 168.0
74.522934 48.0
74.559021 132.0
74.588104 152.0
74.619797 124.0
74.6381 144.0
74.701736 48.0
74.760239 328.0
74.780891 84.0
74.801544 44.0
74.819839 176.0
74.85598 208.0
74.86245 128.0
74.907356 228.0
74.939789 148.0
74.972061 272.0
74.997917 180.0
75.020325 140.0
75.058258 140.0
75.129723 156.0
75.165207 60.0
75.197998 152.0
75.229065 248.0
75.243324 200.0
75.267052 148.0
75.289429 192.0
75.293236 180.0
75.324043 200.0
75.339592 260.0
75.430084 164.0
75.443283 112.0
75.474701 196.0
75.495155 200.0
75.54705 160.0
75.569901 180.0
75.58889 196.0
75.605171 156.0
75.687241 36.0
75.702827 48.0
75.778633 152.0
75.803299 156.0
75.872635 108.0
75.888237 248.0
75.902107 152.0
75.928123 132.0
76.056519 112.0
76.076698 376.0
76.113808 56.0
76.125961 76.0
76.143333 184.0
76.18502 44.0
76.213989 208.0
76.230194 172.0
76.29277 188.0
76.348412 264.0
76.439621 176.0
76.511978 160.0
76.539833 36.0
76.561562 176.0
76.574669 120.0
76.611244 168.0
76.638351 208.0
76.693146 148.0
76.715805 112.0
76.740219 164.0
76.796021 244.0
76.87104 124.0
76.948906 184.0
76.977531 240.0
76.989754 276.0
77.022934 184.0
77.036911 164.0
77.061371 148.0
77.078842 132.0
77.110306 152.0
77.125076 308.0
77.178482 208.0
77.204712 112.0
77.234444 184.0
77.269432 120.0
77.295059 124.0
77.338623 112.0
77.384949 104.0
77.43924 128.0
77.458504 196.0
77.473282 184.0
77.48761 208.0
77.507217 244.0
77.535599 168.0
77.547867 92.0
77.59375 160.0
77.656578 68.0
77.674736 124.0
77.730263 80.0
77.74781 120.0
77.793442 120.0
77.845284 412.0
77.858414 168.0
77.872459 260.0
77.900566 140.0
77.92868 128.0
77.965477 208.0
78.00441 132.0
78.056297 172.0
78.069305 156.0
78.092171 172.0
78.136147 84.0
78.152428 188.0
78.178375 104.0
78.191246 140.0
78.205376 196.0
78.259491 148.0
78.293213 140.0
78.313942 172.0
78.326271 196.0
78.416992 156.0
78.458443 28.0
78.488419 184.0
78.539558 188.0
78.553673 76.0
78.614723 100.0
78.674774 200.0
78.689178 164.0
78.712845 132.0
78.746078 180.0
78.786888 192.0
78.885666 164.0
78.899811 176.0
78.936943 152.0
78.981155 128.0
78.996407 220.0
79.046623 180.0
79.067284 148.0
79.158142 236.0
79.220139 136.0
79.275063 112.0
79.312279 284.0
79.347229 404.0
79.395615 160.0
79.420448 120.0
79.447052 48.0
79.466568 152.0
79.478989 128.0
79.526909 204.0
79.53933 152.0
79.663635 160.0
79.69384 152.0
79.708054 160.0
79.728516 140.0
79.763153 116.0
79.78093 184.0
79.842979 196.0
79.856926 152.0
79.889412 224.0
79.937454 208.0
79.949577 172.0
80.051384 152.0
80.065628 204.0
80.081657 132.0
80.108376 56.0
80.135101 80.0
80.165398 140.0
80.192131 172.0
80.22065 104.0
80.297325 212.0
80.374802 220.0
80.393211 200.0
80.486877 148.0
80.577583 152.0
80.601715 152.0
80.63298 144.0
80.686607 156.0
80.7061 212.0
80.772446 188.0
80.797493 176.0
80.835426 216.0
80.883102 228.0
80.908447 144.0
80.933517 132.0
81.032341 160.0
81.108215 188.0
81.141487 168.0
81.159286 212.0
81.217545 148.0
81.236412 184.0
81.283058 148.0
81.360237 124.0
81.389221 168.0
81.442978 212.0
81.455093 132.0
81.487755 92.0
81.565033 152.0
81.613571 204.0
81.62616 52.0
81.654846 168.0
81.7071 164.0
81.721497 228.0
81.733078 176.0
81.746689 420.0
81.776283 228.0
81.79348 200.0
81.811485 168.0
81.82769 280.0
81.858299 164.0
81.902466 176.0
81.933945 120.0
81.978996 164.0
82.004227 132.0
82.020447 160.0
82.040276 148.0
82.052895 68.0
82.072731 164.0
82.087791 204.0
82.105194 208.0
82.120644 176.0
82.155907 204.0
82.179153 136.0
82.2369 128.0
82.297974 188.0
82.31723 152.0
82.359505 164.0
82.36364 148.0
82.369125 192.0
82.390388 144.0
82.416481 200.0
82.42907 148.0
82.473518 240.0
82.516907 140.0
82.538605 120.0
82.57296 132.0
82.591255 140.0
82.618187 216.0
82.645325 192.0
82.669411 128.0
82.694183 220.0
82.738693 196.0
82.770027 188.0
82.840981 120.0
82.935371 208.0
82.973152 168.0
82.993103 176.0
83.007469 160.0
83.047508 272.0
83.068146 144.0
83.116447 96.0
83.163628 64.0
83.187225 152.0
83.246033 176.0
83.411087 204.0
83.450661 172.0
83.490669 164.0
83.528862 196.0
83.544533 140.0
83.576164 172.0
83.654427 152.0
83.689018 132.0
83.732727 168.0
83.778259 140.0
83.803383 168.0
83.821991 224.0
83.836571 132.0
83.873024 92.0
83.930801 196.0
83.94635 144.0
83.962975 216.0
83.984207 176.0
84.002495 44.0
84.015259 160.0
84.086494 104.0
84.139366 148.0
84.250771 168.0
84.269043 192.0
84.309242 144.0
84.347626 112.0
84.403969 132.0
84.464653 100.0
84.491043 160.0
84.504906 136.0
84.541496 196.0
84.578102 228.0
84.633026 224.0
84.662331 188.0
84.709953 92.0
84.742928 76.0
84.796074 96.0
84.922585 136.0
84.964775 204.0
85.016151 144.0
85.041847 148.0
85.124466 176.0
85.140991 132.0
85.159355 120.0
85.19426 208.0
85.207115 132.0
85.25016 188.0
85.263428 124.0
85.266335 160.0
85.333893 164.0
85.381744 68.0
85.420372 92.0
85.45533 140.0
85.470047 88.0
85.493973 224.0
85.713112 176.0
85.727852 104.0
85.754517 60.0
85.777618 136.0
85.84584 108.0
85.881935 140.0
85.896278 172.0
85.973129 176.0
86.028107 224.0
86.085747 216.0
86.12822 112.0
86.218758 192.0
86.263115 140.0
86.307487 160.0
86.354546 208.0
86.377769 136.0
86.394989 240.0
86.425224 148.0
86.448967 196.0
86.473991 48.0
86.499901 172.0
86.523827 144.0
86.570877 192.0
86.594337 136.0
86.611008 164.0
86.629532 200.0
86.755547 172.0
86.774086 396.0
86.800323 160.0
86.872383 256.0
86.885368 168.0
86.96331 92.0
87.078369 144.0
87.10257 184.0
87.14238 420.0
87.188042 160.0
87.208481 304.0
87.279129 112.0
87.301445 40.0
87.3312 136.0
87.431244 244.0
87.448418 124.0
87.534058 44.0
87.576935 188.0
87.613327 140.0
87.670052 84.0
87.698189 84.0
87.722244 92.0
87.757668 80.0
87.809959 184.0
87.849052 212.0
87.94706 284.0
87.975952 160.0
88.000221 160.0
88.01329 176.0
88.084267 192.0
88.104813 84.0
88.129105 172.0
88.14547 232.0
88.166473 140.0
88.185165 148.0
88.213203 156.0
88.23938 176.0
88.255356 88.0
88.278641 136.0
88.301086 164.0
88.345917 124.0
88.381531 88.0
88.409599 292.0
88.505791 176.0
88.540649 128.0
88.570618 224.0
88.649307 148.0
88.696167 92.0
88.748657 108.0
88.802742 100.0
88.812279 104.0
88.816437 196.0
88.823051 132.0
88.831131 152.0
88.883713 164.0
88.909821 140.0
88.99144 164.0
89.022079 124.0
89.063942 92.0
89.102043 164.0
89.122185 48.0
89.142853 132.0
89.187195 128.0
89.236839 100.0
89.28009 116.0
89.347809 116.0
89.362854 168.0
89.434372 144.0
89.458839 200.0
89.511604 164.0
89.530396 128.0
89.562408 120.0
89.579361 160.0
89.612389 212.0
89.643425 44.0
89.681122 152.0
89.726364 164.0
89.73568 136.0
89.742455 292.0
89.772964 184.0
89.828201 244.0
89.848953 116.0
89.953445 172.0
89.972946 184.0
89.992393 212.0
90.109497 164.0
90.13028 128.0
90.177528 144.0
90.255035 152.0
90.278885 144.0
90.286926 88.0
90.289703 132.0
90.31366 80.0
90.340149 124.0
90.531319 152.0
90.546371 160.0
90.567299 176.0
90.608978 100.0
90.624138 156.0
90.719231 204.0
90.745438 80.0
90.77388 124.0
90.827545 204.0
90.891495 160.0
90.944633 180.0
90.982597 204.0
91.011078 160.0
91.049057 164.0
91.069954 104.0
91.142143 68.0
91.174446 108.0
91.22197 196.0
91.2733 72.0
91.290413 148.0
91.33226 156.0
91.344734 132.0
91.395042 152.0
91.410263 188.0
91.480682 108.0
91.511902 172.0
91.539711 156.0
91.560661 124.0
91.636856 132.0
91.716896 156.0
91.76265 64.0
91.808411 128.0
91.880898 156.0
91.894257 152.0
91.915245 180.0
91.93148 116.0
91.947685 84.0
91.982903 80.0
92.02977 164.0
92.043137 156.0
92.06414 88.0
92.083244 188.0
92.117622 72.0
92.130997 124.0
92.16703 144.0
92.199127 140.0
92.222717 32.0
92.271812 176.0
92.285805 124.0
92.306839 120.0
92.329788 172.0
92.364365 156.0
92.412048 132.0
92.448563 244.0
92.479027 160.0
92.507736 112.0
92.524971 152.0
92.542198 140.0
92.60363 204.0
92.649452 144.0
92.705017 168.0
92.743553 188.0
92.771049 188.0
92.797813 216.0
92.835381 196.0
92.873741 148.0
92.889084 228.0
92.988861 100.0
93.010323 176.0
93.032402 68.0
93.096375 152.0
93.137093 220.0
93.242386 92.0
93.336586 40.0
93.379333 176.0
93.404282 160.0
93.479645 228.0
93.502029 64.0
93.538597 132.0
93.559776 48.0
93.629097 108.0
93.648354 124.0
93.732384 220.0
93.743423 208.0
93.77552 176.0
93.802505 200.0
93.821785 160.0
93.839134 124.0
93.904701 184.0
93.923042 152.0
94.010811 140.0
94.099609 252.0
94.116982 308.0
94.162865 148.0
94.178474 148.0
94.211624 80.0
94.246399 168.0
94.327576 192.0
94.374695 172.0
94.387505 264.0
94.401047 64.0
94.418449 100.0
94.46167 260.0
94.501633 116.0
94.538399 144.0
94.553879 128.0
94.587524 324.0
94.646805 104.0
94.759026 264.0
94.790855 164.0
94.843292 180.0
94.900635 148.0
94.939415 48.0
95.029213 8264.0
95.094139 160.0
95.107742 132.0
95.126236 156.0
95.155571 184.0
95.178108 80.0
95.224052 216.0
95.260475 216.0
95.274887 164.0
95.298531 164.0
95.321854 216.0
95.341286 292.0
95.362663 124.0
95.387566 148.0
95.481262 328.0
95.514328 184.0
95.567734 136.0
95.613617 156.0
95.660179 196.0
95.662918 180.0
95.670792 200.0
95.737442 184.0
95.745209 116.0
95.781006 72.0
95.86441 164.0
95.878891 168.0
95.917412 124.0
95.964203 64.0
95.97879 172.0
96.032089 620.0
96.075729 220.0
96.104637 232.0
96.133911 136.0
96.146202 120.0
96.176842 176.0
96.190506 124.0
96.231506 128.0
96.247131 132.0
96.265022 172.0
96.333061 160.0
96.401451 120.0
96.44249 148.0
96.469856 112.0
96.514824 188.0
96.544159 140.0
96.57753 196.0
96.628273 200.0
96.654724 208.0
96.671318 96.0
96.762527 196.0
96.784309 200.0
96.835777 168.0
96.85144 136.0
96.880829 136.0
96.93177 144.0
96.950226 96.0
96.966545 156.0
96.982727 228.0
97.006248 260.0
97.041397 168.0
97.100365 140.0
97.151367 212.0
97.202385 112.0
97.308372 148.0
97.373177 132.0
97.437828 176.0
97.462547 236.0
97.513313 172.0
97.563782 176.0
97.656204 204.0
97.705383 148.0
97.736649 180.0
97.786064 140.0
97.799843 180.0
97.851028 432.0
97.876625 148.0
97.90419 196.0
97.934723 88.0
97.959343 148.0
97.98101 88.0
97.995926 204.0
98.019791 288.0
98.095314 204.0
98.120949 124.0
98.197029 192.0
98.221519 164.0
98.371498 88.0
98.410576 196.0
98.46035 160.0
98.491951 136.0
98.528465 132.0
98.536896 64.0
98.544205 116.0
98.564064 104.0
98.575806 144.0
98.581902 144.0
98.59774 180.0
98.617538 236.0
98.652626 180.0
98.691559 60.0
98.731224 132.0
98.781425 172.0
98.861275 204.0
98.903244 188.0
98.986397 168.0
99.025978 752.0
99.06562 116.0
99.109207 192.0
99.164696 52.0
99.216278 172.0
99.295921 172.0
99.323357 220.0
99.351097 172.0
99.443115 64.0
99.466194 268.0
99.514191 204.0
99.533699 196.0
99.567459 136.0
99.607178 116.0
99.733223 176.0
99.752243 236.0
99.771759 176.0
99.821831 212.0
99.867577 180.0
99.8815 72.0
99.915321 128.0
99.933228 236.0
99.9571 72.0
99.98098 320.0
100.026123 188.0
100.060608 152.0
100.148224 144.0
100.186264 168.0
100.227913 196.0
100.24984 124.0
100.405334 172.0
100.433258 152.0
100.454536 180.0
100.48513 180.0
100.541481 200.0
100.582916 416.0
100.598885 196.0
100.656792 156.0
100.672768 164.0
100.69873 52.0
100.802612 148.0
100.848579 64.0
100.876564 192.0
100.896561 124.0
100.918549 92.0
100.952545 164.0
100.994179 152.0
101.038551 124.0
101.082573 192.0
101.18866 136.0
101.246735 208.0
101.31884 88.0
101.344887 236.0
101.358917 176.0
101.376953 176.0
101.405006 160.0
101.484085 224.0
101.535332 80.0
101.558815 192.0
101.575653 156.0
101.611557 216.0
101.627609 156.0
101.66172 172.0
101.705872 100.0
101.832375 148.0
101.854645 136.0
101.880585 56.0
101.932823 180.0
101.977661 232.0
102.015785 188.0
102.162033 52.0
102.190201 160.0
102.214348 220.0
102.256607 204.0
102.298882 168.0
102.327065 160.0
102.34317 168.0
102.359283 112.0
102.377403 52.0
102.435814 60.0
102.455963 100.0
102.518532 156.0
102.544624 260.0
102.603088 308.0
102.64946 164.0
102.790665 172.0
102.824974 104.0
102.917839 228.0
102.94207 212.0
102.962265 144.0
102.996597 168.0
103.011826 168.0
103.030945 188.0
103.056679 192.0
103.127937 244.0
103.156242 216.0
103.247231 144.0
103.288879 196.0
103.316002 172.0
103.338257 128.0
103.388969 332.0
103.407059 180.0
103.484642 148.0
103.507042 124.0
103.530563 84.0
103.653664 120.0
103.798058 200.0
103.852814 52.0
103.869041 148.0
104.080116 208.0
104.108543 124.0
104.141037 116.0
104.171509 156.0
104.187759 116.0
104.206612 172.0
104.240059 184.0
104.281235 152.0
104.321892 328.0
104.350357 100.0
104.370689 144.0
104.395088 124.0
104.439835 160.0
104.472382 60.0
104.491943 180.0
104.523247 148.0
104.598549 140.0
104.61322 156.0
104.67601 180.0
104.735939 172.0
104.781837 176.0
104.846634 220.0
104.889847 152.0
104.96936 144.0
104.995872 128.0
105.022385 172.0
105.054001 240.0
105.083588 144.0
105.140511 156.0
105.171341 140.0
105.197777 172.0
105.218292 168.0
105.234627 264.0
105.273422 184.0
105.289757 116.0
105.342865 180.0
105.379639 396.0
105.414375 136.0
105.451164 204.0
105.48497 52.0
105.559517 168.0
105.592239 120.0
105.627014 156.0
105.653252 160.0
105.686264 200.0
105.704758 104.0
105.72113 164.0
105.743645 164.0
105.769157 172.0
105.789734 116.0
105.833717 164.0
105.866516 224.0
105.909492 132.0
105.927925 104.0
105.984428 180.0
106.007835 36.0
106.034706 196.0
106.059074 316.0
106.106224 116.0
106.143127 188.0
106.216965 220.0
106.257996 164.0
106.335976 160.0
106.401062 272.0
106.430824 176.0
106.461212 220.0
106.500229 156.0
106.516663 156.0
106.565971 184.0
106.580353 172.0
106.676949 148.0
106.746857 112.0
106.77565 228.0
106.808556 108.0
106.829132 192.0
106.847649 228.0
106.878098 140.0
106.944366 168.0
106.969063 236.0
107.043289 160.0
107.125572 208.0
107.230659 140.0
107.253334 172.0
107.292503 184.0
107.330566 52.0
107.381172 32.0
107.481773 136.0
107.513214 160.0
107.527657 176.0
107.55555 144.0
107.734146 204.0
107.783737 156.0
107.808533 96.0
107.861946 176.0
107.969788 184.0
108.02977 172.0
108.044258 144.0
108.07943 224.0
108.122887 148.0
108.137375 220.0
108.180847 216.0
108.195335 156.0
108.257454 200.0
108.300949 72.0
108.325806 120.0
108.364571 180.0
108.39003 144.0
108.511948 200.0
108.535133 160.0
108.620163 172.0
108.680328 168.0
108.711456 196.0
108.74556 148.0
108.786697 176.0
108.819397 124.0
108.854698 140.0
108.892075 188.0
108.910774 148.0
108.928307 56.0
108.995949 180.0
109.044418 2672.0
109.06501 140.0
109.074211 208.0
109.099876 160.0
109.123474 216.0
109.138664 140.0
109.173447 104.0
109.208008 208.0
109.230156 216.0
109.306793 120.0
109.334923 180.0
109.349487 160.0
109.391121 120.0
109.515831 72.0
109.547302 180.0
109.566055 144.0
109.611893 144.0
109.662094 184.0
109.678589 220.0
109.722366 176.0
109.740067 204.0
109.772408 136.0
109.88504 136.0
109.927521 108.0
110.050072 424.0
110.070816 136.0
110.106316 232.0
110.137642 144.0
110.178917 132.0
110.231659 104.0
110.268875 124.0
110.301636 184.0
110.327812 212.0
110.403084 144.0
110.426086 172.0
110.453285 200.0
110.469391 160.0
110.476669 112.0
110.48336 180.0
110.536972 408.0
110.555206 168.0
110.61496 212.0
110.631157 40.0
110.708626 184.0
110.798698 140.0
110.886711 168.0
110.918152 132.0
110.945404 176.0
110.981041 44.0
110.997818 244.0
111.022957 272.0
111.100594 176.0
111.119476 172.0
111.190186 92.0
111.266388 132.0
111.320984 120.0
111.343185 208.0
111.371391 60.0
111.394501 184.0
111.413406 148.0
111.440002 200.0
111.47644 84.0
111.579437 132.0
111.606766 320.0
111.625694 152.0
111.646782 160.0
111.674065 200.0
111.709053 208.0
111.735069 136.0
111.769012 152.0
111.817139 172.0
111.907654 128.0
111.930817 140.0
111.949768 132.0
111.989784 136.0
112.006638 108.0
112.027359 344.0
112.061417 180.0
112.088806 128.0
112.168892 124.0
112.196297 164.0
112.225815 180.0
112.260666 304.0
112.283539 140.0
112.319908 208.0
112.457802 120.0
112.478981 116.0
112.53064 136.0
112.582443 96.0
112.69017 76.0
112.734543 88.0
112.768364 104.0
112.810638 156.0
112.855034 40.0
112.891808 360.0
112.920593 212.0
112.935394 176.0
112.956551 40.0
113.039665 1104.0
113.083511 136.0
113.098328 96.0
113.132195 160.0
113.229599 160.0
113.287376 188.0
113.314331 176.0
113.344788 96.0
113.365189 96.0
113.460571 220.0
113.53196 144.0
113.564476 184.0
113.596298 132.0
113.717247 136.0
113.744843 176.0
113.846756 48.0
113.891357 140.0
113.952965 160.0
114.000923 196.0
114.008896 112.0
114.028885 176.0
114.048264 356.0
114.139854 160.0
114.158844 140.0
114.25061 188.0
114.280403 176.0
114.340942 196.0
114.395325 172.0
114.435776 236.0
114.450684 132.0
114.470078 296.0
114.514572 160.0
114.550781 236.0
114.572083 124.0
114.667976 136.0
114.744713 140.0
114.766037 144.0
114.793762 176.0
114.868408 152.0
114.955765 140.0
114.977226 164.0
115.045532 92.0
115.165359 172.0
115.186478 200.0
115.233475 180.0
115.303993 84.0
115.325363 152.0
115.364998 212.0
115.417297 84.0
115.445091 68.0
115.493927 120.0
115.545631 172.0
115.573441 160.0
115.596985 180.0
115.611961 124.0
115.708282 148.0
115.77681 164.0
115.796082 52.0
115.868912 168.0
115.94606 180.0
115.999329 192.0
116.06102 140.0
116.134735 172.0
116.177925 148.0
116.239861 152.0
116.297806 168.0
116.31498 56.0
116.359146 188.0
116.406776 164.0
116.486771 68.0
116.531258 164.0
116.652237 196.0
116.67318 140.0
116.703835 120.0
116.748642 172.0
116.783401 160.0
116.807304 180.0
116.843636 200.0
116.936172 120.0
116.959846 160.0
116.989983 176.0
117.067497 200.0
117.093338 184.0
117.12751 204.0
117.155807 136.0
117.198898 176.0
117.21917 156.0
117.241997 120.0
117.286392 184.0
117.341156 124.0
117.36924 148.0
117.444855 136.0
117.53096 56.0
117.57196 204.0
117.597572 212.0
117.621605 124.0
117.688141 180.0
117.770599 296.0
117.803329 184.0
117.848366 196.0
117.876457 56.0
117.9132 232.0
117.939133 124.0
117.973724 204.0
117.988853 144.0
118.045074 208.0
118.081841 216.0
118.112122 72.0
118.194336 196.0
118.231125 52.0
118.304718 412.0
118.339355 168.0
118.374001 168.0
118.460327 188.0
118.472023 264.0
118.489571 164.0
118.605827 104.0
118.623169 212.0
118.640511 120.0
118.686043 208.0
118.723854 196.0
118.756531 208.0
118.783638 92.0
118.809669 188.0
118.82486 292.0
118.872589 128.0
118.900803 84.0
119.002831 116.0
119.072319 144.0
119.105125 184.0
119.257004 176.0
119.281998 176.0
119.309174 136.0
119.368858 108.0
119.383102 176.0
119.485336 88.0
119.503052 168.0
119.542755 176.0
119.594147 136.0
119.609383 76.0
119.652924 132.0
119.691795 136.0
119.78508 236.0
119.811905 108.0
119.840233 144.0
119.927399 184.0
119.984077 52.0
120.037651 148.0
120.079597 168.0
120.104019 240.0
120.226204 112.0
120.258942 92.0
120.287315 176.0
120.368103 88.0
120.394302 208.0
120.409592 220.0
120.459831 92.0
120.564529 148.0
120.588753 136.0
120.628098 140.0
120.661995 164.0
120.676193 248.0
120.717743 144.0
120.74836 64.0
120.786957 216.0
120.868675 176.0
120.897125 128.0
120.960602 152.0
120.975922 136.0
120.993439 192.0
121.043358 472.0
121.109505 96.0
121.140167 116.0
121.179604 360.0
121.215393 152.0
121.243149 156.0
121.30233 100.0
121.325996 176.0
121.368202 184.0
121.407379 220.0
121.503639 156.0
121.528229 144.0
121.551949 128.0
121.607231 128.0
121.80265 48.0
121.871094 104.0
121.892479 176.0
121.915764 156.0
121.941078 144.0
121.989441 196.0
122.011421 72.0
122.040001 196.0
122.070648 124.0
122.135803 164.0
122.182968 176.0
122.300804 248.0
122.325203 196.0
122.34803 144.0
122.392067 112.0
122.424286 240.0
122.46682 144.0
122.499985 144.0
122.537239 180.0
122.541519 164.0
122.58371 164.0
122.610748 296.0
122.636147 156.0
122.642288 124.0
122.656441 240.0
122.686508 164.0
122.713943 128.0
122.734886 200.0
122.758995 132.0
122.775452 172.0
122.809563 36.0
122.824165 200.0
122.853371 292.0
122.890793 348.0
122.913986 232.0
122.922966 128.0
122.931702 312.0
122.939842 184.0
122.953972 544.0
122.979454 360.0
123.024895 197288.0
123.071732 216.0
123.102585 84.0
123.137314 64.0
123.154076 152.0
123.183075 164.0
123.21109 192.0
123.23101 720.0
123.254295 80.0
123.268806 96.0
123.297966 140.0
123.320129 84.0
123.34301 72.0
123.363541 720.0
123.388428 4312.0
123.423012 244.0
123.453468 312.0
123.475159 172.0
123.52906 48.0
123.551506 64.0
123.57196 88.0
123.601707 84.0
123.636345 132.0
123.687828 224.0
123.724304 144.0
123.751518 188.0
123.772148 64.0
123.804779 60.0
123.822868 40.0
123.862068 200.0
123.910583 40.0
123.936066 36.0
123.972229 176.0
123.998116 32.0
124.027336 25276.0
124.076401 152.0
124.102531 100.0
124.123627 52.0
124.13858 156.0
124.165955 40.0
124.191017 44.0
124.217636 68.0
124.245682 104.0
124.282585 116.0
124.315521 68.0
124.371796 76.0
124.399498 168.0
124.430679 44.0
124.458305 112.0
124.475998 88.0
124.49633 276.0
124.528389 80.0
124.546158 120.0
124.57119 184.0
124.590851 268.0
124.64196 132.0
124.681519 140.0
124.693817 88.0
124.711823 144.0
124.758492 80.0
124.781052 132.0
124.797989 232.0
124.811996 156.0
124.828026 80.0
124.875542 232.0
124.903549 152.0
124.921219 116.0
124.936134 112.0
124.962112 116.0
125.030006 1764.0
125.094421 72.0
125.12178 188.0
125.150467 176.0
125.177544 72.0
125.200058 68.0
125.221169 48.0
125.260201 56.0
125.293968 212.0
125.344307 64.0
125.41066 188.0
125.529884 204.0
125.549957 164.0
125.577736 44.0
125.605713 52.0
125.639175 148.0
125.673538 120.0
125.697189 52.0
125.712814 136.0
125.746284 64.0
125.775307 36.0
125.809235 100.0
125.891403 180.0
125.913734 184.0
125.933838 32.0
125.958412 44.0
125.980751 96.0
126.010445 164.0
126.032936 168.0
126.074135 216.0
126.13736 148.0
126.186363 160.0
126.210953 128.0
126.231079 172.0
126.251205 124.0
126.33844 152.0
126.369766 172.0
126.407158 208.0
126.443611 172.0
126.474945 164.0
126.519714 80.0
126.544662 56.0
126.575691 208.0
126.657753 200.0
126.67424 180.0
126.692162 96.0
126.720093 172.0
126.748177 232.0
126.806442 208.0
126.837822 36.0
126.907318 184.0
126.934227 80.0
126.972351 68.0
127.012726 180.0
127.056511 124.0
127.093491 148.0
127.214691 148.0
127.255104 212.0
127.28878 144.0
127.477478 88.0
127.549744 104.0
127.592117 40.0
127.751793 168.0
127.774284 148.0
127.790039 152.0
127.848541 64.0
127.904808 176.0
127.943085 180.0
127.999367 212.0
128.055222 240.0
128.06308 192.0
128.114243 104.0
128.139023 164.0
128.1548 112.0
128.238586 176.0
128.3013 32.0
128.538116 52.0
128.648712 184.0
128.673553 172.0
128.894913 160.0
128.931061 136.0
128.978531 44.0
129.074875 208.0
129.23497 216.0
129.415161 56.0
129.458191 44.0
129.511353 168.0
129.56691 96.0
129.673965 116.0
129.688889 164.0
129.734619 208.0
129.877472 68.0
129.942474 196.0
129.995453 56.0
130.064789 744.0
130.140732 184.0
130.324722 148.0
130.367889 60.0
130.411499 216.0
130.446487 204.0
130.517929 168.0
130.561127 140.0
130.597519 184.0
130.624817 88.0
130.686249 76.0
130.752243 184.0
130.822937 136.0
130.859222 176.0
130.881989 64.0
130.922989 44.0
130.957153 128.0
130.986176 160.0
131.00499 156.0
131.053101 184.0
131.070435 396.0
131.173035 188.0
131.191849 60.0
131.216934 52.0
131.252045 80.0
131.399399 192.0
131.431335 104.0
131.507874 216.0
131.626053 132.0
131.649216 108.0
131.714432 36.0
131.830963 272.0
131.894958 172.0
131.958221 208.0
131.990982 160.0
132.018417 72.0
132.070023 100.0
132.17627 136.0
132.249496 244.0
132.453293 68.0
132.51973 200.0
132.634308 176.0
132.659531 296.0
132.720413 252.0
132.764999 148.0
132.787445 168.0
132.817749 40.0
132.863632 68.0
132.927887 172.0
132.978119 220.0
133.045029 176.0
133.132874 244.0
133.253937 64.0
133.324051 132.0
133.35965 60.0
133.555084 172.0
133.587296 40.0
133.715469 176.0
133.819748 160.0
133.851974 80.0
133.877304 96.0
133.957932 140.0
134.008606 92.0
134.048737 144.0
134.063919 196.0
134.091568 92.0
134.142548 136.0
134.186081 56.0
134.299088 196.0
134.322144 60.0
134.464371 156.0
134.631439 148.0
134.647598 172.0
134.675323 144.0
134.693802 116.0
134.726135 48.0
134.909088 168.0
134.950317 208.0
135.056198 1748.0
135.128418 108.0
135.248764 184.0
135.276535 192.0
135.29274 180.0
135.336731 164.0
135.389984 116.0
135.444504 64.0
135.559113 180.0
135.585358 160.0
135.61937 116.0
135.644867 96.0
135.721375 180.0
135.746872 212.0
135.779343 36.0
135.886047 216.0
135.927826 204.0
135.990479 124.0
136.018341 164.0
136.059128 168.0
136.132095 172.0
136.153 164.0
136.287735 56.0
136.326828 136.0
136.466705 92.0
136.717773 172.0
136.778458 128.0
136.81105 164.0
136.845963 168.0
136.922821 204.0
136.990372 68.0
137.037445 184.0
137.062302 284.0
137.076279 376.0
137.109192 204.0
137.134842 144.0
137.175705 156.0
137.263062 220.0
137.286377 160.0
137.496353 52.0
137.585052 144.0
137.648575 116.0
137.730637 152.0
137.778885 172.0
137.798645 164.0
137.838745 156.0
137.865341 168.0
137.933121 180.0
137.951828 96.0
138.078094 168.0
138.145935 180.0
138.267609 144.0
138.379959 132.0
138.534546 180.0
138.625916 128.0
138.72905 140.0
138.761871 136.0
138.790009 96.0
138.921341 32.0
139.014526 152.0
139.076218 204.0
139.353333 168.0
139.461441 80.0
139.48024 68.0
139.757751 128.0
139.790695 112.0
139.931931 196.0
140.011993 164.0
140.06395 212.0
140.165115 68.0
140.313004 140.0
140.374924 156.0
140.422089 36.0
140.455109 116.0
140.476334 300.0
140.499924 152.0
140.518799 208.0
140.63208 152.0
140.648605 200.0
140.901276 80.0
141.15419 200.0
141.175476 112.0
141.258255 80.0
141.312668 68.0
141.461777 112.0
141.573059 156.0
141.639374 88.0
141.738876 164.0
141.798126 160.0
141.900055 84.0
141.945114 108.0
141.985428 124.0
142.158615 68.0
142.198959 92.0
142.253555 184.0
142.327148 148.0
142.365143 132.0
142.453033 136.0
142.507675 160.0
142.550446 184.0
142.571823 180.0
142.602722 56.0
142.652649 32.0
142.738235 140.0
142.764389 112.0
143.076111 172.0
143.128479 176.0
143.190399 196.0
143.216599 120.0
143.385773 144.0
143.448425 140.0
143.481125 124.0
143.61705 144.0
143.774521 176.0
143.846115 112.0
144.101654 48.0
144.204422 168.0
144.242661 92.0
144.347107 176.0
144.460281 204.0
144.608627 180.0
144.685226 196.0
144.807358 56.0
144.904846 132.0
144.953491 112.0
145.041046 176.0
145.072601 308.0
145.16925 148.0
145.315567 156.0
145.367416 164.0
145.44516 156.0
145.47876 44.0
145.52919 48.0
145.557999 112.0
145.59642 132.0
145.622849 92.0
145.787766 184.0
145.827072 168.0
145.884766 136.0
146.000183 140.0
146.053574 260.0
146.079544 224.0
146.221512 228.0
146.276871 32.0
146.505661 56.0
146.710495 180.0
146.804535 212.0
146.855179 204.0
146.87207 80.0
146.929962 108.0
147.058762 1960.0
147.217209 192.0
147.24295 176.0
147.265503 60.0
147.28241 120.0
147.335861 192.0
147.475723 64.0
147.499893 48.0
147.533737 36.0
147.657059 172.0
147.71228 264.0
147.971634 32.0
148.062881 324.0
148.095139 104.0
148.182465 176.0
148.301102 164.0
148.439285 220.0
148.480515 140.0
148.519318 196.0
148.59668 180.0
148.61879 164.0
148.681885 64.0
148.71344 200.0
148.76683 76.0
148.890671 52.0
148.965973 124.0
149.05101 144.0
149.074417 612.0
149.143356 220.0
149.204132 100.0
149.243042 100.0
149.317184 172.0
149.374359 136.0
149.461945 60.0
149.503326 128.0
149.574509 144.0
149.853973 216.0
149.910019 100.0
149.931946 180.0
149.961197 224.0
150.04895 108.0
150.076431 164.0
150.130783 96.0
150.166 176.0
150.334351 148.0
150.366074 64.0
150.639023 140.0
150.801926 204.0
150.827713 260.0
150.85704 180.0
150.888824 36.0
150.967072 160.0
151.047791 152.0
151.08313 200.0
151.113831 160.0
151.135864 164.0
151.294952 136.0
151.312088 136.0
151.351257 200.0
151.621765 232.0
151.711426 204.0
151.774338 188.0
151.897797 156.0
151.937057 100.0
152.059738 48.0
152.099014 156.0
152.322479 96.0
152.624771 100.0
152.651825 216.0
152.728058 160.0
152.795746 172.0
152.83139 148.0
152.853531 188.0
152.892914 220.0
152.939682 148.0
153.038147 176.0
153.176071 228.0
153.286499 228.0
153.405243 64.0
153.548264 36.0
153.632126 80.0
153.676529 108.0
153.804871 152.0
153.938187 208.0
154.044388 148.0
154.078979 160.0
154.275497 136.0
154.387955 156.0
154.407745 68.0
154.46463 208.0
154.496796 48.0
154.541321 76.0
154.692291 104.0
154.729431 204.0
154.828476 196.0
155.061371 248.0
155.133255 148.0
155.182831 164.0
155.200195 168.0
155.363556 212.0
155.470444 216.0
155.56987 140.0
155.939987 112.0
155.9897 224.0
156.036926 56.0
156.064285 100.0
156.258286 172.0
156.327957 108.0
156.489761 244.0
156.654129 136.0
156.74881 44.0
156.77623 248.0
156.796158 136.0
156.880905 136.0
157.132797 216.0
157.152756 108.0
157.172729 148.0
157.240097 172.0
157.329971 148.0
157.362427 128.0
157.42485 140.0
157.449814 176.0
157.599701 212.0
157.67218 112.0
157.689667 80.0
157.709671 160.0
157.766891 152.0
157.775467 136.0
157.865555 288.0
157.907196 88.0
157.967224 104.0
158.046158 116.0
158.082321 176.0
158.11235 156.0
158.149887 196.0
158.235001 316.0
158.251343 172.0
158.274277 140.0
158.360657 228.0
158.380249 136.0
158.413223 148.0
158.462921 212.0
158.573181 196.0
158.608276 132.0
158.670944 80.0
158.771255 84.0
158.798843 212.0
158.864059 112.0
158.962112 100.0
159.014618 172.0
159.05687 168.0
159.113419 156.0
159.212952 164.0
159.245605 152.0
159.313431 108.0
159.373734 60.0
159.567261 136.0
159.58989 72.0
159.610001 192.0
159.745819 216.0
159.818787 100.0
159.96727 184.0
160.007553 148.0
160.052872 56.0
160.138504 188.0
160.385437 116.0
160.471146 148.0
160.572006 152.0
160.645157 56.0
160.746078 100.0
160.900055 136.0
161.06926 204.0
161.124832 64.0
161.165253 124.0
161.182953 180.0
161.238541 224.0
161.362411 200.0
161.433212 176.0
161.501495 156.0
161.708969 176.0
161.797577 132.0
161.972305 164.0
162.053375 148.0
162.125626 120.0
162.149673 104.0
162.301773 140.0
162.438736 168.0
162.492004 220.0
162.53006 144.0
162.621429 136.0
162.730591 140.0
162.888046 68.0
162.958008 236.0
163.030334 192.0
163.05574 144.0
163.083694 100.0
163.327805 120.0
163.350693 184.0
163.421936 196.0
163.551727 136.0
163.592453 112.0
163.717209 104.0
163.752869 224.0
163.791077 188.0
163.82164 180.0
163.849106 196.0
163.867508 192.0
163.898087 128.0
164.020416 64.0
164.066299 132.0
164.094345 124.0
164.112961 80.0
164.161407 120.0
164.184906 156.0
164.242264 124.0
164.322952 152.0
164.403 96.0
164.428513 208.0
164.462662 148.0
164.510193 148.0
164.538406 196.0
164.568924 196.0
164.590851 192.0
164.601471 80.0
164.607376 196.0
164.673615 124.0
164.707809 280.0
164.727539 264.0
164.762726 136.0
164.783371 240.0
164.829926 156.0
164.854874 244.0
164.897827 144.0
164.920502 296.0
164.941177 700.0
164.986649 260.0
165.07132 218880.0
165.139175 152.0
165.151382 56.0
165.175049 144.0
165.207718 68.0
165.247955 152.0
165.27829 248.0
165.309784 44.0
165.313583 136.0
165.336823 180.0
165.367584 100.0
165.395554 112.0
165.424713 56.0
165.450058 208.0
165.491501 2936.0
165.52742 204.0
165.56575 288.0
165.603714 156.0
165.650513 184.0
165.706543 216.0
165.763336 172.0
165.797195 128.0
165.828644 132.0
165.846024 136.0
165.895996 188.0
165.919922 56.0
165.942749 68.0
165.999603 216.0
166.028854 64.0
166.074326 29756.0
166.158615 60.0
166.2005 128.0
166.224457 120.0
166.262177 52.0
166.300522 60.0
166.328247 80.0
166.346527 108.0
166.371368 56.0
166.417084 84.0
166.449677 80.0
166.474075 100.0
166.510162 72.0
166.521729 72.0
166.570206 64.0
166.595016 88.0
166.632263 96.0
166.674438 80.0
166.698685 108.0
166.718124 80.0
166.752045 60.0
166.80899 184.0
166.836365 92.0
166.865738 80.0
166.915482 104.0
166.952774 148.0
166.985504 36.0
167.011826 68.0
167.031296 56.0
167.075546 1984.0
167.132019 276.0
167.156937 284.0
167.17337 200.0
167.195847 148.0
167.224792 148.0
167.266983 156.0
167.286224 60.0
167.303619 204.0
167.340317 100.0
167.364944 380.0
167.392639 108.0
167.421814 264.0
167.48999 32.0
167.508026 80.0
167.546677 40.0
167.600281 104.0
167.639435 140.0
167.759766 76.0
167.788925 60.0
167.845657 80.0
167.88092 124.0
167.995255 60.0
168.033951 56.0
168.082474 392.0
168.126846 144.0
168.170715 84.0
168.195419 28.0
168.237839 84.0
168.279144 76.0
168.302383 40.0
168.354019 64.0
168.362564 52.0
168.370422 80.0
168.431519 84.0
168.494507 64.0
168.622711 48.0
168.808853 92.0
168.951111 36.0
169.018387 28.0
169.468933 68.0
169.741104 80.0
170.013489 104.0
170.11731 76.0
170.675903 168.0
170.842361 56.0
170.868378 48.0
170.988083 52.0
171.053162 220.0
171.240631 104.0
171.273193 144.0
171.707169 160.0
172.054214 116.0
172.129944 144.0
172.194122 44.0
172.312775 56.0
172.417297 84.0
172.615982 140.0
172.822632 112.0
172.923233 204.0
173.069885 8044.0
173.225815 96.0
173.278214 120.0
173.333237 96.0
173.359451 64.0
173.388275 112.0
173.46167 76.0
173.487885 76.0
173.545853 36.0
173.810486 56.0
173.84198 84.0
173.897095 48.0
173.957458 132.0
174.025726 56.0
174.074799 1124.0
174.159653 44.0
174.233215 44.0
174.254227 112.0
174.306778 40.0
174.377731 128.0
174.551254 200.0
174.664337 40.0
174.685379 76.0
174.761688 60.0
175.045959 72.0
175.072296 372.0
175.143417 104.0
175.210083 116.0
175.264603 64.0
175.318268 88.0
175.354202 116.0
175.520294 84.0
175.623138 92.0
175.773529 84.0
175.831573 104.0
175.852692 68.0
175.997894 72.0
176.032227 52.0
176.079758 100.0
176.140503 96.0
176.293747 84.0
176.351349 232.0
176.380966 48.0
177.082153 116.0
177.233154 140.0
177.654724 72.0
177.837814 112.0
177.941345 44.0
178.100693 100.0
178.121933 44.0
178.270721 88.0
178.781326 172.0
178.943695 132.0
179.359299 172.0
179.527267 88.0
179.746017 64.0
179.786041 68.0
181.047897 100.0
182.784775 96.0
183.180557 124.0
183.239822 148.0
183.654984 116.0
183.878922 100.0
183.997696 72.0
184.016602 64.0
184.313721 164.0
184.356949 96.0
184.667862 96.0
185.849014 120.0
185.922287 80.0
186.080139 156.0
186.813522 96.0
186.919632 76.0
187.082932 184.0
187.289886 60.0
188.075195 136.0
188.146164 152.0
188.544968 148.0
188.837509 80.0
188.985245 68.0
189.933151 100.0
190.10051 128.0
190.276184 176.0
191.009933 68.0
191.6707 108.0
192.073227 40.0
193.078613 108.0
194.098572 280.0
194.133759 116.0
194.153168 92.0
194.241928 92.0
194.350128 56.0
194.494446 88.0
195.233505 156.0
195.614685 52.0
196.473022 108.0
196.785614 84.0
196.919662 204.0
197.691284 216.0
198.12529 152.0
198.952606 88.0
199.112671 128.0
199.452652 112.0
199.621338 84.0
200.054642 56.0
200.257385 112.0
200.339081 108.0
200.564514 40.0
200.592697 152.0
200.970612 88.0
201.100784 4476.0
201.165359 48.0
201.233109 116.0
201.289581 76.0
201.682297 64.0
201.823654 88.0
201.922623 76.0
202.103241 1188.0
202.494339 44.0
202.652985 28.0
202.733414 52.0
203.04985 56.0
203.600433 112.0
203.776566 140.0
203.844757 64.0
204.416336 140.0
205.422104 56.0
205.953049 64.0
206.098099 264.0
206.235931 56.0
206.447495 60.0
207.120102 116.0
207.736404 144.0
207.816742 100.0
208.103775 192.0
210.029068 88.0
211.415909 96.0
211.647491 64.0
211.91687 80.0
213.539627 132.0
213.874237 72.0
214.459702 52.0
215.133545 132.0
215.337952 116.0
215.720734 60.0
216.010239 180.0
216.048264 188.0
217.032364 208.0
217.225937 108.0
217.974625 124.0
218.128128 7176.0
218.189194 52.0
218.233292 92.0
218.262695 44.0
218.295044 92.0
218.445053 68.0
218.556839 64.0
219.127869 596.0
219.213516 184.0
219.42868 28.0
219.478806 32.0
219.614471 32.0
220.089615 76.0
220.325897 96.0
220.641785 68.0
221.127258 132.0
221.784805 72.0
221.822968 64.0
222.315704 48.0
222.484894 48.0
222.975006 96.0
223.200943 92.0
223.620422 52.0
224.970749 132.0
226.310165 92.0
226.531784 100.0
226.840454 76.0
227.401367 76.0
227.473404 76.0
229.122375 140.0
229.627838 144.0
230.132645 1108.0
230.476151 68.0
230.908447 100.0
231.00827 56.0
231.130814 176.0
231.159546 184.0
231.528885 188.0
233.161102 108.0
234.945465 124.0
237.432327 176.0
237.72377 168.0
239.725739 92.0
240.438141 144.0
240.993988 276.0
241.040344 252.0
241.497894 52.0
241.72374 120.0
242.711899 112.0
242.811127 68.0
244.261673 60.0
245.06488 148.0
245.981796 40.0
246.125961 716.0
246.437759 44.0
247.134796 384.0
247.510635 168.0
247.538818 60.0
247.883408 164.0
247.961761 36.0
248.143402 4816.0
248.190598 48.0
248.221954 136.0
248.554474 76.0
248.686279 52.0
248.723953 56.0
249.145981 352.0
249.232727 88.0
250.152451 264.0
250.210907 80.0
250.308517 52.0
250.736359 128.0
252.599884 40.0
252.770737 208.0
253.01445 140.0
253.549774 76.0
253.644867 188.0
253.71051 48.0
253.895355 120.0
253.987335 132.0
255.047897 52.0
255.238647 180.0
255.629913 104.0
258.028595 164.0
258.319611 88.0
258.966187 52.0
259.065491 140.0
260.309967 112.0
260.357513 100.0
260.44165 124.0
261.550995 52.0
263.337311 92.0
263.502075 48.0
264.151886 68.0
265.875641 72.0
266.999725 84.0
267.220947 100.0
267.346588 44.0
267.885101 84.0
268.158813 104.0
268.217468 108.0
270.720184 104.0
270.899506 144.0
271.897125 92.0
272.064545 92.0
272.471771 140.0
272.833313 100.0
273.7052 52.0
274.95462 120.0
278.238342 116.0
281.241028 92.0
281.407959 112.0
281.7052 76.0
283.21048 108.0
283.408142 172.0
283.800293 36.0
284.00824 56.0
284.870941 92.0
285.704651 64.0
286.098419 116.0
286.82605 68.0
287.031708 120.0
288.267212 84.0
288.368591 128.0
288.689789 248.0
290.057648 60.0
290.274628 184.0
290.318726 168.0
290.484924 72.0
290.549377 48.0
291.211304 120.0
291.289429 72.0
292.448975 60.0
292.66684 44.0
295.924225 124.0
296.499725 68.0
297.171844 96.0
301.99826 128.0
303.092255 56.0
303.934875 112.0
304.53894 80.0
304.604919 160.0
305.067108 152.0
305.595764 88.0
306.832184 156.0
309.190033 60.0
311.177612 132.0
311.560425 76.0
311.637726 84.0
312.066528 56.0
313.203247 152.0
315.46521 96.0
315.914337 36.0
318.111481 128.0
318.310303 92.0
318.395538 124.0
319.753662 92.0
323.505219 156.0
323.702148 136.0
324.390045 88.0
329.619659 32.0
329.728088 64.0
330.36087 56.0
332.302765 124.0
332.328156 176.0
332.87265 116.0
333.45755 168.0
333.530243 148.0
334.101196 52.0
335.452271 204.0
336.506622 64.0
337.657715 144.0
339.987793 64.0
341.089691 48.0
341.703827 76.0
346.499847 132.0
347.048401 144.0
347.823792 76.0
348.250793 64.0
349.808838 88.0
353.724731 104.0
354.263977 120.0
360.328644 232.0
361.353241 176.0
364.176514 464.0
364.34082 160.0
364.523193 92.0
364.998383 92.0
365.186981 280.0
365.721222 52.0
365.877289 116.0
366.437164 108.0
367.13855 116.0
367.829132 68.0
368.203339 72.0
369.53363 196.0
370.440948 80.0
370.690002 112.0
371.779114 84.0
372.059326 84.0
372.424133 48.0
372.950531 76.0
373.281189 40.0
373.685059 108.0
375.063751 92.0
375.140839 116.0
376.043488 128.0
376.676727 84.0
376.73468 116.0
378.219604 72.0
378.916687 120.0
379.296448 44.0
379.606628 96.0
379.964172 112.0
380.180786 116.0
380.40979 84.0
380.510712 148.0
380.677673 88.0
380.891296 132.0
380.988434 64.0
381.066132 88.0
381.180756 160.0
381.318726 124.0
381.787109 200.0
381.80307 96.0
381.81015 160.0
381.851379 248.0
381.933044 80.0
382.008667 64.0
382.057159 124.0
382.106293 136.0
382.192383 20348.0
382.298767 160.0
382.399963 72.0
382.470032 32.0
382.563446 220.0
382.676361 156.0
382.787628 104.0
382.822235 156.0
382.886627 96.0
382.921692 28.0
382.996521 264.0
383.04245 112.0
383.073608 84.0
383.116455 36.0
383.195862 3896.0
383.313751 100.0
383.358032 68.0
383.408691 44.0
383.615295 96.0
383.857025 48.0
384.19754 724.0
384.715393 52.0
385.07074 56.0
385.187927 156.0
385.213989 144.0
385.241455 176.0
385.281677 184.0
385.411011 120.0
385.48999 140.0
385.547394 120.0
385.671173 172.0
385.856201 72.0
385.903107 84.0
386.149475 112.0
386.838135 76.0
387.672424 36.0
387.770386 120.0
388.342834 68.0
389.783661 40.0
390.157043 104.0
390.23175 36.0
393.426971 80.0
393.667816 116.0
398.583862 84.0
403.230621 128.0
403.546448 132.0
411.074066 88.0
418.536896 92.0
418.846405 88.0
420.371246 92.0
421.363464 56.0
424.876251 112.0
426.790222 80.0
427.925842 60.0
434.679993 72.0
435.610016 48.0
447.681335 44.0
447.778198 32.0
449.907654 56.0
451.602173 108.0
455.969269 96.0
463.180206 52.0
467.254242 76.0
477.328186 112.0
477.61087 60.0
478.546539 60.0
480.320282 48.0
480.555847 52.0
499.718628 80.0
505.242065 136.0
507.042175 64.0
507.624969 68.0
512.601318 92.0
513.101624 56.0
513.823242 80.0
514.414429 108.0
515.245422 112.0
515.665649 56.0
522.608643 140.0
528.448975 72.0
529.776672 52.0
539.98645 76.0
546.355408 120.0
550.583191 36.0
557.314819 88.0
559.746765 32.0
560.877502 80.0
565.946716 100.0
569.175842 96.0
584.34729 92.0
585.454407 64.0
596.102173 88.0
597.556091 92.0
600.298462 68.0
604.881409 80.0
612.354736 52.0
614.671814 100.0
616.790588 84.0
624.023682 80.0
633.411072 88.0
634.25293 20.0
663.6745 132.0
666.46167 76.0
680.962891 44.0
683.239746 120.0
700.984985 96.0
704.229614 104.0
705.524292 56.0
707.142944 88.0
709.441895 188.0
724.695618 80.0
727.468384 144.0
729.692566 72.0
733.655029 88.0
740.095276 140.0
750.789795 164.0
751.046143 232.0
753.355225 112.0
755.591248 240.0
760.303711 200.0
765.873413 160.0
782.153137 172.0
783.495178 72.0
784.877502 84.0
785.875916 152.0
793.886292 160.0
799.825073 188.0
800.951294 180.0
802.095154 44.0
807.244324 80.0
808.2229 88.0
810.640869 128.0
810.958252 132.0
812.285095 104.0
813.056763 68.0
815.089844 40.0
815.311462 120.0
816.420044 164.0
816.545166 172.0
819.243286 48.0
820.314636 84.0
822.779175 228.0
825.527588 80.0
830.0802 112.0
833.093506 112.0
835.922363 236.0
836.699402 56.0
836.90094 184.0
837.332825 188.0
837.476807 164.0
839.811218 124.0
841.265381 128.0
842.639893 172.0
842.697693 244.0
853.69397 68.0
853.967285 124.0
856.10907 276.0
856.901245 48.0
858.317688 120.0
865.253235 120.0
870.078308 156.0
871.329285 172.0
873.40448 96.0
874.134033 96.0
874.475342 64.0
875.199463 244.0
877.467896 132.0
881.670776 180.0
882.462891 148.0
883.76416 84.0
889.524841 192.0
889.797913 172.0
893.577942 116.0
896.698303 160.0
896.835388 108.0
899.340576 76.0
901.335327 76.0
902.17804 56.0
905.271484 136.0
910.350891 96.0
911.263916 192.0
914.746094 92.0
915.583008 28.0
916.137146 172.0
916.305847 108.0
917.209839 208.0
919.447571 116.0
920.08136 84.0
920.2323 176.0
921.277161 124.0
923.955383 196.0
925.341309 108.0
925.734924 212.0
927.104065 92.0
927.789001 180.0
928.104248 176.0
931.6427 124.0
932.019409 192.0
933.78241 140.0
933.843201 240.0
934.354187 160.0
934.567139 100.0
934.932251 140.0
935.090515 248.0
937.471802 148.0
937.532715 144.0
938.233704 100.0
941.829041 176.0
945.398621 220.0
946.029114 212.0
948.466858 84.0
948.57135 124.0
950.129089 208.0
950.662903 120.0
951.552917 208.0
956.10791 180.0
957.597839 144.0
958.078308 96.0
958.811584 152.0
959.181396 176.0
960.22345 84.0
960.871155 88.0
964.774414 168.0
965.003174 48.0
967.589355 172.0
968.196167 120.0
970.13562 276.0
974.728577 204.0
976.73053 240.0
977.203369 152.0
977.794495 128.0
979.755981 180.0
981.725708 100.0
982.212158 172.0
984.502808 76.0
985.033691 116.0
988.165833 160.0
988.215881 168.0
988.829163 204.0
989.655518 108.0
989.774475 220.0
990.081299 148.0
991.735413 248.0
991.89209 172.0
992.299561 108.0
993.102295 216.0
993.817444 208.0
994.765137 256.0
995.88916 164.0
996.335144 160.0
996.467102 164.0
997.101807 176.0
1000.020142 136.0
1002.079346 196.0
1003.560547 128.0
1003.92627 180.0
1004.298401 104.0
1004.601196 80.0
1005.263733 164.0
1007.296753 168.0
1007.814819 100.0
1009.692322 160.0
1012.179382 204.0
1012.293335 208.0
1012.977417 88.0
1014.650452 148.0
1015.341675 172.0
1015.855469 180.0
1016.369324 36.0
1017.353149 240.0
1017.832092 212.0
1018.089661 204.0
1018.242126 140.0
1020.129272 36.0
1021.852783 144.0
1024.44397 88.0
1025.552734 136.0
1025.814087 120.0
1026.222168 168.0
1027.510498 36.0
1028.199585 132.0
1028.391113 160.0
1028.793335 180.0
1030.409058 36.0
1031.233398 148.0
1031.278198 180.0
1031.431519 180.0
1031.655273 252.0
1032.480225 168.0
1032.748779 184.0
1033.394897 40.0
1036.154419 168.0
1036.241943 152.0
1037.186157 224.0
1037.62854 196.0
1038.205688 108.0
1038.545532 216.0
1039.289795 140.0
1039.578491 112.0
1042.397705 124.0
1042.9375 196.0
1043.512207 144.0
1043.67041 104.0
1044.879639 84.0
1046.192017 196.0
1046.276245 168.0
1046.623901 168.0
1046.701172 164.0
1046.784912 176.0
1047.718872 176.0
1048.053833 104.0
1048.369629 180.0
1048.453369 156.0
1048.93042 64.0
1049.394531 156.0
1050.168457 72.0
1050.291016 128.0
1050.394165 148.0
1051.755737 96.0
1052.556274 92.0
1054.035522 188.0
1054.09375 164.0
1054.177734 140.0
1054.339233 144.0
1054.474976 128.0
1054.772339 132.0
1054.876831 124.0
1055.263672 144.0
1056.013794 152.0
1056.304932 184.0
1057.786743 192.0
1059.133667 260.0
1059.315063 204.0
1059.55481 56.0
1059.813965 208.0
1059.872192 180.0
1059.937012 136.0
1060.656494 124.0
1061.389038 192.0
1061.849487 104.0
1062.245117 136.0
1062.394409 204.0
1062.699341 204.0
1062.919922 208.0
1063.296265 100.0
1063.61438 132.0
1064.166138 144.0
1064.360962 140.0
1064.77124 164.0
1066.173462 132.0
1067.460571 144.0
1068.63147 220.0
1069.457886 92.0
1069.900635 128.0
1070.877319 132.0
1071.984863 312.0
1072.389038 212.0
1072.610596 72.0
1072.851807 208.0
1072.910522 136.0
1073.314697 184.0
1074.221313 184.0
1074.345215 176.0
1075.337158 152.0
1076.100952 152.0
1076.159668 148.0
1076.205322 160.0
1077.557373 148.0
1078.727173 184.0
1078.956055 248.0
1079.171753 168.0
1081.304443 140.0
1082.345337 156.0
1082.738159 148.0
1083.209839 196.0
1083.334229 232.0
1084.994385 180.0
1085.287354 160.0
1086.461426 80.0
1086.723877 56.0
1087.110962 212.0
1087.170044 228.0
1087.458862 120.0
1087.970825 192.0
1088.312256 180.0
1088.443604 76.0
1088.634033 200.0
1090.39563 188.0
1091.43335 108.0
1091.499146 48.0
1092.716064 208.0
1093.005493 104.0
1093.347778 100.0
1093.749268 144.0
1094.170532 144.0
1094.381226 160.0
1095.117065 220.0
1095.691895 212.0
1096.687012 204.0
1096.812256 148.0
1097.26709 136.0
1099.080933 144.0
1099.496704 144.0
1100.354858 196.0
1100.608765 176.0
1100.970459 160.0
1102.230713 140.0
1102.336426 60.0
1103.817139 136.0
1103.975952 176.0
1104.1875 92.0
1104.266846 188.0
1104.326416 76.0
1105.517334 148.0
1105.889038 148.0
1107.106201 164.0
1107.616211 168.0
1108.499023 64.0
1109.723633 144.0
1109.949097 160.0
1110.015381 56.0
1112.417236 184.0
1112.669434 176.0
1112.835449 152.0
1113.293701 156.0
1113.937866 180.0
1114.256836 120.0
1114.595703 120.0
1114.914673 164.0
1115.266968 148.0
1115.692383 76.0
1116.204346 200.0
1116.869385 192.0
1117.188721 164.0
1117.434814 152.0
1117.647827 156.0
1117.70105 160.0
1117.867432 176.0
1118.313232 128.0
1119.251953 160.0
1119.711426 164.0
1119.957886 152.0
1120.117798 160.0
1120.184448 176.0
1120.650757 200.0
1121.397095 116.0
1121.697144 204.0
1122.050415 68.0
1122.437134 136.0
1122.583862 132.0
1124.709961 160.0
1125.306396 184.0
1125.386475 164.0
1125.733643 152.0
1125.934082 208.0
1127.657837 44.0
1128.098999 160.0
1128.292847 244.0
1128.533569 56.0
1129.061768 216.0
1129.315918 224.0
1129.77356 108.0
1130.563477 124.0
1131.015503 168.0
1131.169556 148.0
1131.25647 140.0
1131.363647 160.0
1131.410522 156.0
1131.872559 220.0
1132.187256 152.0
1132.294434 224.0
1132.629272 140.0
1132.870483 132.0
1133.011108 192.0
1133.245605 136.0
1134.304565 144.0
1135.712646 132.0
1136.349976 68.0
1136.927124 184.0
1136.974121 156.0
1137.047852 140.0
1137.094849 84.0
1137.249268 152.0
1137.44397 188.0
1137.866821 144.0
1138.027954 180.0
1138.269775 216.0
1138.786865 144.0
1139.451904 152.0
1139.80127 168.0
1140.446411 200.0
1140.675049 48.0
1140.809448 140.0
1141.098511 280.0
1142.497437 128.0
1143.257812 140.0
1143.526978 100.0
1143.614502 156.0
1144.132812 148.0
1144.213623 188.0
1144.893799 76.0
1146.072632 204.0
1146.268066 160.0
1146.60498 164.0
1147.755371 204.0
1147.960083 176.0
1148.216309 120.0
1148.317505 204.0
1148.621094 216.0
1148.809937 140.0
1149.376709 180.0
1149.558838 180.0
1149.768066 164.0
1150.07251 116.0
1150.247314 132.0
1150.335083 192.0
1150.787354 152.0
1151.010254 152.0
1152.198975 172.0
1152.253052 168.0
1152.313843 180.0
1152.381348 144.0
1152.89502 92.0
1153.327515 120.0
1154.375488 132.0
1154.977417 124.0
1155.058594 160.0
1155.246826 192.0
1155.335938 248.0
1155.755493 152.0
1155.95166 152.0
1156.026123 112.0
1156.344238 200.0
1156.554077 152.0
1156.648804 108.0
1156.939819 60.0
1157.759155 220.0
1157.867554 172.0
1158.084229 168.0
1158.179077 116.0
1158.40271 184.0
1158.748169 188.0
1159.114014 64.0
1159.222534 224.0
1159.324097 160.0
1159.886719 168.0
1160.001953 128.0
1160.218872 124.0
1160.293457 124.0
1160.354492 128.0
1160.876587 72.0
1161.229248 152.0
1161.419189 132.0
1161.771973 108.0
1162.065674 184.0
1162.396118 144.0
1162.497925 180.0
1162.687988 168.0
1162.789795 144.0
1163.115601 188.0
1163.726562 160.0
1163.835205 48.0
1163.930298 136.0
1164.174683 64.0
1164.303711 252.0
1164.752075 152.0
1164.989746 128.0
1165.608154 48.0
1165.750854 196.0
1165.886719 168.0
1166.478027 152.0
1166.62085 112.0
1166.858765 260.0
1166.953979 64.0
1167.021362 128.0
1167.21228 172.0
1167.994507 212.0
1168.409424 212.0
1168.806763 116.0
1169.151123 48.0
1169.491455 204.0
1169.7229 72.0
1170.383301 216.0
1170.573975 168.0
1170.682861 184.0
1171.017578 196.0
1171.145996 44.0
1171.656982 104.0
1172.140747 176.0
1172.447388 184.0
1172.733643 144.0
1172.890381 116.0
1173.088135 124.0
1173.432007 108.0
1174.042725 148.0
1174.138184 184.0
1174.271973 196.0
1174.438232 188.0
1174.561035 144.0
1175.04541 160.0
1175.796021 128.0
1176.24646 236.0
1176.294312 160.0
1176.499146 200.0
1176.628784 128.0
1176.772217 196.0
1176.949707 108.0
1177.057983 208.0
1177.357544 140.0
1178.691528 52.0
1179.210938 168.0
1179.580078 136.0
1179.730469 96.0
1180.003906 164.0
1180.23645 112.0
1181.429443 180.0
1181.987549 180.0
1182.19043 148.0
1182.363892 200.0
1182.548706 184.0
1182.870483 148.0
1183.842651 172.0
1184.609863 152.0
1184.746826 204.0
1184.870117 216.0
1185.089355 124.0
1185.172852 184.0
1185.617065 96.0
1185.973511 280.0
1186.207397 192.0
1186.480713 148.0
1186.941528 192.0
1187.090942 52.0
1187.317261 164.0
1187.365356 460.0
1188.401123 132.0
1188.607056 128.0
1188.682495 180.0
1188.737427 80.0
1189.252075 140.0
1189.561035 76.0
1189.917969 100.0
1190.213257 120.0
1191.060669 260.0
1191.758789 224.0
1191.935181 152.0
1192.198608 124.0
1192.308472 160.0
1192.844604 172.0
1193.958496 180.0
1194.109863 184.0
1194.192505 180.0
1194.73584 216.0
1195.162354 112.0
1195.850586 128.0
1196.029541 196.0
1196.112183 92.0
1196.215454 176.0
1196.587891 192.0
1197.289551 124.0
1198.191895 108.0
1198.508789 208.0
1198.563965 124.0
1199.590942 204.0
1200.825195 120.0
1201.425293 180.0
1201.480469 152.0
1201.6875 172.0
1202.218872 140.0
1202.598389 216.0
1202.846924 196.0
1202.998779 168.0
1203.406128 240.0
1203.553345 200.0
1204.041382 120.0
1204.490356 104.0
1204.5802 96.0
1204.670044 208.0
1205.015381 176.0
1205.277954 68.0
1205.326416 48.0
1206.052002 192.0
1206.204102 176.0
1206.315186 180.0
1206.770996 176.0
1207.144409 132.0
1207.241211 168.0
1207.550781 180.0
1208.209595 56.0
1208.306519 144.0
1208.493286 184.0
1208.825439 76.0
1208.991455 132.0
1209.337524 196.0
1209.503662 136.0
1210.002075 152.0
1210.064453 132.0
1210.50061 152.0
1210.635498 188.0
1211.740601 128.0
1211.82373 96.0
1211.941528 164.0
1212.149414 148.0
1212.488892 164.0
1213.140503 368.0
1213.431641 216.0
1213.521851 156.0
1213.930908 92.0
1214.083496 192.0
1214.263794 232.0
1215.221191 112.0
1215.713867 136.0
1215.831787 212.0
1216.137207 136.0
1216.491211 148.0
1216.727295 156.0
1216.810547 160.0
1218.102295 132.0
1218.269043 104.0
1218.623291 104.0
1219.054199 196.0
1219.200073 148.0
1219.568481 128.0
1220.10376 140.0
1220.340088 28.0
1221.466797 144.0
1221.682373 132.0
1222.065063 156.0
1222.587036 148.0
1222.955566 160.0
1223.018555 108.0
1223.380493 184.0
1224.424927 148.0
1224.578125 228.0
1224.94043 192.0
1225.421143 204.0
1225.574341 160.0
1226.389771 220.0
1226.515259 132.0
1226.661621 60.0
1226.856079 184.0
1227.668457 132.0
1228.481689 188.0
1228.621216 232.0
1228.760742 108.0
1229.071289 156.0
1229.556274 128.0
1229.709839 168.0
1230.17749 144.0
1230.456787 176.0
1231.148071 192.0
1231.203979 160.0
1231.615967 164.0
1232.53125 180.0
1232.719849 196.0
1232.985474 44.0
1233.19519 104.0
1233.602539 216.0
1234.138916 200.0
1235.446777 200.0
1235.53772 160.0
1235.768677 88.0
1236.104492 204.0
1236.188477 136.0
1236.706421 192.0
1236.895386 116.0
1237.189453 140.0
1237.637451 180.0
1238.604004 164.0
1239.598877 164.0
1239.703979 232.0
1240.094604 160.0
1240.685303 180.0
1240.937744 292.0
1241.098999 224.0
1241.155029 272.0
1241.540771 64.0
1241.842285 188.0
1241.912476 100.0
1241.989624 180.0
1242.410522 124.0
1242.459595 96.0
1242.740234 128.0
1242.905029 184.0
1243.34375 72.0
1243.610474 136.0
1244.249268 116.0
1245.597656 148.0
1245.696045 160.0
1246.061279 120.0
1246.187744 224.0
1246.672607 180.0
1246.735962 140.0
1246.890503 116.0
1246.967773 160.0
1247.686768 172.0
1247.811401 184.0
1247.867676 140.0
1248.099731 176.0
1248.2052 168.0
1248.338745 144.0
1248.48645 120.0
1248.697388 248.0
1248.992798 168.0
1249.196899 172.0
1249.414917 192.0
1249.485229 176.0
1249.865234 64.0
1250.048218 144.0
1250.567017 128.0
1250.674561 176.0
1251.132202 208.0
1251.550171 188.0
1251.667236 124.0
1252.90686 164.0
1253.195801 184.0
1253.78772 132.0
1254.584229 116.0
1254.788696 216.0
1255.105957 144.0
1255.380981 144.0
1255.536133 180.0
1256.051025 120.0
1256.396729 244.0
1256.481323 224.0
1257.328125 104.0
1257.511597 184.0
1257.610474 116.0
1257.829224 116.0
1258.125732 164.0
1258.817749 204.0
1258.916626 132.0
1259.08606 92.0
1259.644043 52.0
1260.060913 108.0
1260.536133 156.0
1260.703979 136.0
1261.234009 124.0
1261.431885 212.0
1261.509644 184.0
1261.686401 152.0
1261.813721 124.0
1262.244995 184.0
1262.338989 220.0
1262.93103 216.0
1262.980591 132.0
1263.06543 72.0
1263.907349 128.0
1264.18335 72.0
1264.678711 112.0
1265.025635 168.0
1265.117676 184.0
1265.45752 164.0
1265.549561 136.0
1265.832764 188.0
1266.038086 144.0
1266.22229 188.0
1266.286011 228.0
1266.498535 200.0
1266.7677 68.0
1267.008545 152.0
1267.880127 172.0
1268.00061 32.0
1268.050171 64.0
1268.66687 208.0
1268.915039 196.0
1268.978882 152.0
1269.234131 164.0
1269.404297 156.0
1269.546143 144.0
1269.694946 196.0
1270.042603 144.0
1270.581787 228.0
1270.716553 192.0
1270.773315 152.0
1271.464233 220.0
1271.589355 192.0
1272.107544 192.0
1272.217163 232.0
1272.48291 204.0
1272.803345 136.0
1272.961914 72.0
1273.165527 200.0
1273.307617 212.0
1273.64856 176.0
1273.81604 220.0
1274.245239 128.0
1274.358887 68.0
1274.572144 132.0
1274.856323 132.0
1275.766113 52.0
1276.598022 156.0
1276.974976 128.0
1277.366211 168.0
1277.740967 148.0
1277.90686 32.0
1278.301392 160.0
1278.447754 208.0
1278.931641 176.0
1279.081177 164.0
1279.636475 120.0
1279.736206 96.0
1279.935547 156.0
1280.305786 152.0
1280.441162 180.0
1280.925537 104.0
1281.951538 200.0
1282.129639 184.0
1282.229492 56.0
1282.762695 148.0
1282.856689 92.0
1283.070557 32.0
1283.391479 116.0
1283.626709 196.0
1283.869263 100.0
1284.37561 132.0
1284.618164 164.0
1286.073853 124.0
1286.18811 96.0
1286.338013 216.0
1286.837646 52.0
1286.951904 260.0
1287.109009 116.0
1287.394653 148.0
1287.630371 216.0
1287.6875 184.0
1287.984863 208.0
1288.287476 68.0
1288.371948 160.0
1288.43042 148.0
1288.560303 64.0
1288.908081 136.0
1290.102783 184.0
1290.288574 164.0
1290.445923 200.0
1291.067993 180.0
1291.304077 156.0
1291.965088 212.0
1292.391357 144.0
1293.915894 168.0
1294.023315 204.0
1294.474487 144.0
1294.631958 152.0
1294.997314 156.0
1295.147705 176.0
1296.107666 316.0
1296.30835 148.0
1296.982056 216.0
1297.039429 128.0
1297.096802 212.0
1297.931763 156.0
1298.337158 108.0
1298.595337 148.0
1298.78186 200.0
1298.839233 164.0
1299.284058 172.0
1299.434692 144.0
1299.922607 108.0
1300.582886 88.0
1300.739624 176.0
1300.920288 88.0
1301.056641 244.0
1301.595215 180.0
1301.911133 152.0
1302.464233 36.0
1302.844971 176.0
1303.326294 220.0
1303.499634 208.0
1303.901245 152.0
1304.03064 72.0
1304.095337 172.0
1304.217529 168.0
1304.382812 424.0
1304.548096 156.0
1305.082886 184.0
1305.226074 216.0
1305.971924 44.0
1306.518677 240.0
1306.698486 100.0
1306.88562 156.0
1306.99353 148.0
1307.468506 120.0
1307.608887 152.0
1307.835571 144.0
1307.965088 36.0
1308.188232 192.0
1308.468994 120.0
1308.85791 116.0
1309.794067 152.0
1310.003052 184.0
1310.305664 196.0
1310.867676 152.0
1311.819092 188.0
1311.869507 164.0
1312.186768 128.0
1312.972778 136.0
1313.0448 120.0
1313.102539 168.0
1313.401001 300.0
1313.463135 108.0
1313.62915 180.0
1314.141357 152.0
1314.249634 124.0
1314.437134 128.0
1315.050659 128.0
1315.115601 132.0
1315.296021 92.0
1315.498169 176.0
1315.570312 176.0
1316.147949 180.0
1316.342896 96.0
1316.523438 136.0
1316.639038 220.0
1316.747314 88.0
1317.066406 160.0
1317.16626 168.0
1317.628662 68.0
1317.751465 164.0
1318.033203 104.0
1318.293457 124.0
1318.44519 148.0
1318.755981 120.0
1318.813721 124.0
1318.948608 172.0
1319.013794 216.0
1319.175171 156.0
1319.458374 72.0
1320.08606 148.0
1320.368286 120.0
1321.16394 80.0
1321.945435 188.0
1322.017822 192.0
1322.292847 204.0
1322.372437 132.0
1322.587402 232.0
1323.161499 144.0
1323.37146 32.0
1323.820312 156.0
1324.167969 140.0
1324.530151 148.0
1324.725708 60.0
1325.319824 188.0
1325.522705 144.0
1325.754639 44.0
1326.218506 160.0
1326.627441 176.0
1326.827393 144.0
1327.503906 148.0
1328.379395 144.0
1328.74939 68.0
1328.836426 192.0
1328.950317 188.0
1329.460449 228.0
1329.925049 100.0
1330.041138 108.0
1330.621948 148.0
1330.708984 152.0
1331.115601 176.0
1331.388062 196.0
1332.052612 184.0
1332.110718 164.0
1332.786377 100.0
1332.931763 136.0
1333.469482 156.0
1333.672974 176.0
1333.985596 128.0
1334.269165 116.0
1334.320068 148.0
1334.85083 152.0
1334.91626 152.0
1334.974487 112.0
1335.148926 120.0
1335.476318 216.0
1335.556274 124.0
1335.716309 148.0
1335.767212 180.0
1335.854492 160.0
1335.91272 212.0
1336.203735 100.0
1336.334717 136.0
1336.516602 176.0
1336.91687 104.0
1337.098755 284.0
1337.907837 396.0
1338.081543 164.0
1338.360962 252.0
1338.765991 196.0
1339.611572 196.0
1339.83667 88.0
1339.951904 192.0
1340.047974 64.0
1340.135498 172.0
1340.215576 172.0
1340.42688 196.0
1340.893311 184.0
1341.170288 164.0
1341.272339 56.0
1341.403564 108.0
1341.47644 112.0
1341.549316 156.0
1341.666016 140.0
1341.738892 216.0
1342.526367 88.0
1342.784912 136.0
1343.284912 76.0
1343.664307 156.0
1343.783203 216.0
1343.875977 148.0
1344.094849 168.0
1344.598389 108.0
1344.700562 132.0
1344.977905 224.0
1345.620361 176.0
1345.974854 180.0
1346.547729 188.0
1347.117554 168.0
1347.212524 184.0
1347.402466 216.0
1347.504761 120.0
1347.725952 176.0
1348.02356 180.0
1348.301392 148.0
1349.327026 184.0
1349.543945 172.0
1350.172852 84.0
1350.253296 196.0
1350.326416 196.0
1350.421509 124.0
1350.692139 120.0
1350.831177 144.0
1350.977417 268.0
1351.043335 128.0
1351.489624 172.0
1351.657837 120.0
1351.738403 224.0
1352.140869 200.0
1352.192139 152.0
1352.484863 140.0
1352.638672 32.0
1353.246216 172.0
1353.421997 172.0
1353.553833 104.0
1353.93457 136.0
1354.148193 152.0
1354.593872 152.0
1354.828247 152.0
1355.135986 180.0
1355.221436 220.0
1355.39978 48.0
1355.956665 96.0
1356.205933 196.0
1356.314453 192.0
1356.484009 192.0
1356.916992 140.0
1357.356934 76.0
1357.452271 168.0
1357.877686 172.0
1358.266357 76.0
1358.338867 180.0
1358.476807 212.0
1358.507446 144.0
1358.532349 192.0
1359.183472 124.0
1359.645264 256.0
1359.939331 232.0
1360.275757 164.0
1360.438477 180.0
1360.548706 112.0
1360.651489 156.0
1360.717529 228.0
1360.776245 228.0
1361.069946 300.0
1361.275513 188.0
1361.39856 180.0
1361.539917 212.0
1361.892456 220.0
1362.142212 156.0
1362.527466 120.0
1362.781372 88.0
1363.817627 140.0
1364.045532 216.0
1364.263062 120.0
1364.755371 140.0
1365.075439 156.0
1365.221924 100.0
1365.310181 184.0
1365.4646 136.0
1365.538208 152.0
1365.5896 196.0
1365.663208 180.0
1365.795532 192.0
1365.957397 160.0
1366.479736 212.0
1366.678467 184.0
1366.737305 160.0
1367.311279 144.0
1367.587891 200.0
1367.819214 212.0
1367.865356 144.0
1368.378662 216.0
1369.257935 240.0
1369.335938 160.0
1369.404785 168.0
1369.969482 204.0
1370.028442 192.0
1370.603149 144.0
1370.949463 60.0
1371.027344 192.0
1371.885498 140.0
1372.099365 204.0
1372.471558 208.0
1372.574097 216.0
1372.740845 148.0
1373.360352 132.0
1373.500488 88.0
1373.588989 148.0
1373.802979 116.0
1374.002197 120.0
1374.068604 216.0
1374.275146 164.0
1374.474365 128.0
1374.644043 156.0
1374.806396 180.0
1374.946655 104.0
1375.201538 136.0
1375.625732 52.0
1375.73645 60.0
1375.805908 196.0
1376.260742 136.0
1376.401001 120.0
1376.895752 172.0
1376.999146 136.0
1377.375854 172.0
1377.612305 148.0
1377.7323 208.0
1377.796997 104.0
1378.225464 96.0
1378.351074 184.0
1378.594971 236.0
1378.897949 192.0
1379.075317 84.0
1379.127075 216.0
1379.274902 152.0
1379.48938 140.0
1379.555908 192.0
1379.740723 188.0
1379.88855 184.0
1380.006836 116.0
1380.213867 104.0
1380.53186 144.0
1380.63623 192.0
1381.02002 140.0
1381.175293 108.0
1381.671021 176.0
1382.018677 208.0
1382.181519 120.0
1382.307251 116.0
1382.551514 148.0
1382.965942 92.0
1383.05481 208.0
1383.128784 168.0
1383.333496 220.0
1383.632202 116.0
1383.869629 204.0
1384.017212 80.0
1384.343018 132.0
1384.394897 100.0
1384.631958 76.0
1384.908447 120.0
1385.061523 164.0
1385.209595 212.0
1385.957886 88.0
1386.024658 192.0
1386.202515 128.0
1386.306274 184.0
1386.528564 44.0
1386.600952 156.0
1386.684204 168.0
1387.099243 160.0
1387.633057 168.0
1387.952637 176.0
1388.401855 208.0
1389.487305 220.0
1389.553833 184.0
1389.680176 180.0
1389.739502 204.0
1389.791504 144.0
1389.85083 136.0
1390.143677 192.0
1390.28125 148.0
1390.667114 184.0
1390.889893 128.0
1391.223877 148.0
1391.513428 116.0
1391.804199 204.0
1391.89209 112.0
1392.300537 208.0
1392.435059 184.0
1392.627319 196.0
1392.969116 104.0
1393.325806 164.0
1393.496582 152.0
1393.563477 72.0
1393.741699 220.0
1394.105835 204.0
1394.420898 224.0
1394.514648 148.0
1394.849121 80.0
1395.072144 240.0
1395.131592 200.0
1395.503296 132.0
1395.644653 244.0
1395.704102 224.0
1395.756226 192.0
1395.909668 204.0
1396.28418 136.0
1396.523071 208.0
1396.745361 176.0
1397.213989 160.0
1397.474365 68.0
1397.556274 144.0
1397.652954 200.0
1398.464111 148.0
1398.637085 188.0
1398.732178 124.0
1398.935425 92.0
1399.36499 168.0
1399.513916 148.0
1399.603149 188.0
1399.893677 240.0
1400.079834 224.0
1400.154297 208.0
1400.258545 292.0
1400.420044 280.0
1400.53418 308.0
1400.951294 84.0
1401.167358 112.0
1401.241821 168.0
1401.428101 292.0
1401.808105 140.0
1402.121216 152.0
1402.598145 164.0
1402.889771 196.0
1403.04541 228.0
1403.686646 124.0
1403.813477 148.0
1403.895508 140.0
1404.201294 172.0
1404.305664 132.0
1404.387817 136.0
1404.581665 124.0
1405.06665 104.0
1405.661377 136.0
1405.962036 132.0
1406.626343 124.0
1406.678589 140.0
1406.924927 140.0
1407.102783 176.0
1407.656616 316.0
1407.716431 140.0
1407.962891 172.0
1408.358765 184.0
1408.657471 204.0
1409.068359 140.0
1409.150635 116.0
1409.202881 184.0
1410.107056 220.0
1410.249146 228.0
1410.966797 160.0
1411.340576 176.0
1411.490112 108.0
1411.699585 208.0
1411.77124 260.0
1412.080933 200.0
1412.290405 192.0
1412.45166 172.0
1412.709351 184.0
1413.135742 184.0
1413.340332 252.0
1413.734375 100.0
1413.794189 152.0
1414.282837 184.0
1414.393066 120.0
1414.462646 356.0
1414.582886 164.0
1414.924561 192.0
1415.119141 136.0
1415.24646 136.0
1415.426147 156.0
1415.575928 160.0
1415.680786 100.0
1415.733276 84.0
1415.905518 56.0
1416.167603 244.0
1416.324951 160.0
1416.727539 220.0
1416.961182 336.0
1417.089111 172.0
1417.329712 164.0
1417.388794 96.0
1417.606079 96.0
1417.658569 236.0
1417.823486 116.0
1417.890869 148.0
1418.354492 164.0
1419.285278 176.0
1419.513794 132.0
1419.97522 132.0
1420.072632 212.0
1420.147705 144.0
1420.297729 112.0
1420.715576 192.0
1421.010376 140.0
1421.408081 180.0
1421.580688 152.0
1422.008423 148.0
1422.203613 176.0
1422.451294 108.0
1422.616455 164.0
1422.915283 176.0
1423.096924 176.0
1423.217163 168.0
1423.4198 184.0
1423.720703 136.0
1423.942261 148.0
1424.148315 156.0
1424.351196 124.0
1424.967773 96.0
1425.102417 212.0
1425.455566 120.0
1425.613403 104.0
1425.696045 160.0
1425.921509 124.0
1426.139526 152.0
1426.402588 160.0
1426.63562 204.0
1426.883789 120.0
1426.973999 176.0
1427.041626 172.0
1427.264526 204.0
1427.4552 156.0
1427.530396 120.0
1427.826782 96.0
1427.876343 268.0
1427.951538 148.0
1428.094482 132.0
1428.522583 204.0
1428.688721 160.0
1428.75647 180.0
1428.884399 144.0
1428.997192 148.0
1429.155151 188.0
1429.253052 232.0
1429.441162 112.0
1429.53894 124.0
1429.719604 132.0
1429.787354 104.0
1429.900269 132.0
1430.125977 76.0
1430.178711 184.0
1430.276611 180.0
1430.826172 132.0
1430.901367 116.0
1431.006836 160.0
1431.164917 212.0
1431.398315 104.0
1431.556519 132.0
1431.683228 116.0
1432.008423 92.0
1432.867188 240.0
1433.032959 240.0
1433.085693 160.0
1433.153442 148.0
1433.213745 128.0
1433.456543 160.0
1433.552856 120.0
1433.758911 140.0
1433.937012 184.0
1434.057861 188.0
1434.660889 188.0
1434.72876 164.0
1434.887085 80.0
1435.377075 180.0
1435.663696 176.0
1435.739136 160.0
1435.920166 88.0
1436.259521 100.0
1436.576416 92.0
1436.674438 112.0
1436.827637 140.0
1436.900757 132.0
1437.119629 92.0
1437.355347 184.0
1437.5271 184.0
1437.677979 176.0
1438.561157 88.0
1438.795166 176.0
1439.217896 120.0
1439.391602 164.0
1439.497314 156.0
1439.663452 140.0
1439.716309 144.0
1440.116699 416.0
1440.539673 132.0
1440.826782 72.0
1441.15918 164.0
1441.234741 144.0
1441.453857 80.0
1441.846802 164.0
1441.975342 176.0
1442.06604 148.0
1442.187012 164.0
1442.693481 228.0
1442.799316 128.0
1443.353394 156.0
1443.547852 200.0
1443.645264 136.0
1443.804932 160.0
1443.873047 164.0
1444.016724 184.0
1444.364624 160.0
1444.78833 172.0
1445.015259 144.0
1445.771973 80.0
1445.840088 164.0
1446.052002 164.0
1446.123047 228.0
1446.271484 184.0
1446.503418 216.0
1446.574341 180.0
1447.073975 132.0
1447.25415 192.0
1447.854004 76.0
1447.929688 172.0
1448.028198 156.0
1448.194824 96.0
1448.846191 44.0
1448.913208 176.0
1449.05835 128.0
1449.189697 184.0
1449.338745 220.0
1449.391724 176.0
1449.543335 132.0
1449.622803 160.0
1449.92981 156.0
1450.331543 160.0
1450.506348 176.0
1450.672607 104.0
1450.884888 216.0
1451.171387 192.0
1451.332275 32.0
1451.400513 148.0
1451.665894 204.0
1451.908569 56.0
1451.976807 136.0
1452.113403 76.0
1452.265015 152.0
1452.562622 168.0
1452.614014 188.0
1453.03125 88.0
1453.17627 212.0
1453.416992 124.0
1453.509277 164.0
1453.714111 188.0
1453.865967 184.0
1454.032959 76.0
1454.20752 104.0
1454.404785 124.0
1454.579468 148.0
1454.693237 176.0
1454.845093 120.0
1454.917969 216.0
1455.619629 132.0
1455.695557 160.0
1455.809448 156.0
1456.082764 236.0
1456.325928 180.0
1456.480835 272.0
1456.614502 40.0
1456.728516 116.0
1456.994385 192.0
1457.047485 152.0
1457.100708 120.0
1457.305908 108.0
1457.58606 132.0
1457.662964 196.0
1457.8302 204.0
1458.088623 120.0
1458.476196 160.0
1458.733765 152.0
1458.848755 184.0
1459.02356 120.0
1459.092041 88.0
1459.380859 152.0
1459.631836 196.0
1459.837158 156.0
1459.897949 192.0
1460.034912 132.0
1460.285889 176.0
1460.366333 172.0
1460.445557 196.0
1460.560303 156.0
1460.704224 152.0
1461.084595 212.0
1461.183472 92.0
1461.358521 144.0
1461.700928 180.0
1462.073853 152.0
1462.213013 168.0
1462.66748 244.0
1463.086182 152.0
1463.200439 196.0
1463.634399 120.0
1463.878052 192.0
1464.015137 108.0
1464.296997 148.0
1464.540649 152.0
1464.609253 196.0
1464.944946 188.0
1465.180542 164.0
1465.462524 192.0
1465.553955 192.0
1465.805054 200.0
1465.934937 144.0
1466.072144 192.0
1466.133057 148.0
1466.552246 172.0
1467.072144 184.0
1467.169678 100.0
1467.315796 176.0
1467.619507 180.0
1467.848145 136.0
1467.970337 280.0
1468.100342 160.0
1468.584351 124.0
1468.850952 132.0
1468.992432 44.0
1469.411987 196.0
1469.541626 176.0
1469.717163 204.0
1469.852905 144.0
1470.060547 144.0
1470.144531 100.0
1470.396362 148.0
1470.549072 100.0
1470.747437 124.0
1471.022217 152.0
1471.205444 376.0
1471.297119 124.0
1471.549072 140.0
1471.801025 176.0
1471.877441 172.0
1472.137085 112.0
1472.228638 252.0
1472.366089 204.0
1472.579956 176.0
1473.229248 140.0
1473.320923 132.0
1473.607178 184.0
1473.932251 112.0
1474.008667 148.0
1474.116699 164.0
1474.184326 156.0
1474.367798 92.0
1474.604736 80.0
1474.794434 204.0
1474.895142 144.0
1474.971558 200.0
1475.093506 140.0
1475.468506 96.0
1475.896729 152.0
1476.113525 320.0
1476.363159 180.0
1476.615601 112.0
1476.958374 152.0
1477.124756 216.0
1477.250366 160.0
1477.400757 128.0
1477.50293 96.0
1477.816528 100.0
1478.061401 180.0
1478.191528 232.0
1479.431519 48.0
1479.79895 104.0
1480.051636 232.0
1480.250732 132.0
1480.429688 192.0
1480.771484 188.0
1481.006348 200.0
1481.093262 180.0
1481.759644 64.0
1481.908447 212.0
1482.25769 184.0
1482.43396 92.0
1482.487671 132.0
1482.640869 148.0
1483.1698 172.0
1483.636108 172.0
1483.919922 132.0
1483.943848 112.0
1484.273804 172.0
1484.626587 212.0
1484.70752 136.0
1484.97937 180.0
1485.336548 104.0
1485.715698 104.0
1486.40625 204.0
1486.64856 176.0
1486.797607 212.0
1487.043213 44.0
1487.181396 200.0
1487.741821 132.0
1487.973755 188.0
1488.064209 144.0
1488.4021 152.0
1488.501953 152.0
1488.901245 156.0
1489.081055 224.0
1489.185425 188.0
1489.692383 84.0
1490.506836 188.0
1490.796143 124.0
1491.344482 148.0
1491.429077 80.0
1491.78894 152.0
1492.074829 164.0
1492.205566 120.0
1492.828369 116.0
1492.889893 200.0
1493.135986 72.0
1493.266724 200.0
1493.728271 88.0
1493.88208 212.0
1494.189697 220.0
1494.312988 112.0
1494.451416 140.0
1494.551514 76.0
1494.692993 164.0
1495.110596 152.0
1495.190186 256.0
1495.253052 192.0
1495.628906 196.0
1495.729004 164.0
1496.052368 200.0
1496.167847 176.0
1496.785278 156.0
1496.829956 156.0
1497.153442 128.0
1497.448486 100.0
1497.530762 364.0
1497.731079 176.0
1497.962158 76.0
1498.091553 176.0
1498.115356 140.0
1498.408936 156.0
1498.717163 156.0
1499.01001 116.0
1499.287476 160.0
1499.341431 184.0
1499.657349 88.0
1499.865479 188.0
1500.011963 120.0
1500.651855 132.0
1500.983398 144.0
1501.222412 184.0
1501.430664 80.0
1501.508057 200.0
1501.638916 144.0
1501.808594 128.0
1501.9552 216.0
1502.164062 200.0
1502.263794 316.0
1502.484741 196.0
1502.726685 208.0
1502.850098 124.0
1503.212769 184.0
1503.390259 152.0
1503.452026 36.0
1503.567749 228.0
1503.659058 192.0
1503.82251 244.0
1504.030884 160.0
1504.262451 160.0
1504.810547 96.0
1504.918701 140.0
1505.019043 132.0
1505.173462 128.0
