>compound TIBOLONE
>formula C21H28O2
>ionization [M+H]+
>parentmass 313.215668
#inchi InChI=1S/C21H28O2/c1-4-21(23)10-8-18-19-13(2)11-14-12-15(22)5-6-16(14)17(19)7-9-20(18,21)3/h1,13,17-19,23H,5-12H2,2-3H3/t13-,17-,18+,19-,20+,21+/m1/s1
#inchikey WZDGZWOAQTVYBX
#Ion_Source LC-ESI
#Instrument qTof
#Compound_Source Commercial
#PI Dorrestein
#Data_Collector Garg_Neha
#Scan -1
#Precursor_MZ 313.216
#ExactMass 312.209
#Charge 1
#CAS_Number N/A
#Pubmed_ID N/A
#Smiles C[C@@H]1CC2=C(CCC(=O)C2)[C@H]3CC[C@@]4(C)[C@@H](CC[C@@]4(O)C#C)[C@H]13
#INCHI_AUX N/A
#Library_Class 1
#SpectrumID CCMSLIB00000079085
#IonMode Positive
#UpdateWorkflowName UPDATE-SINGLE-ANNOTATED-GOLD
#LibraryQualityString Gold
#TaskID 278b19f5865741e282cec7349aa7e7a1
##Scan# 1912
#SpectrumFile NCP003432_E2_F11_BD2_01_15724.mzXML
#LibraryName NIHcollectionI_05062014.mgf
#MQScore -1
#Organism NIHcollectionI_05062014
#TIC_Query 0
#RT_Query -1
#MZErrorPPM -1
#SharedPeaks 0
#MassDiff 0
#LibMZ -1
#SpecMZ 313.216
#SpecCharge 0
#internalFilename spec-00000.mgf

>collision 10
51.349045 348.0
52.950142 176.0
71.435577 148.0
71.941124 152.0
79.186485 216.0
84.228676 180.0
86.627426 188.0
87.904724 168.0
91.051552 300.0
92.057884 200.0
93.047882 172.0
93.703705 160.0
95.086342 188.0
97.107567 240.0
102.344643 132.0
103.05027 164.0
105.070724 368.0
107.083939 264.0
107.105995 144.0
109.069611 180.0
110.105156 156.0
111.085487 244.0
115.055183 176.0
116.06041 208.0
116.090431 140.0
117.069962 292.0
119.08416 1068.0
120.091217 188.0
121.066269 144.0
121.10363 340.0
125.100304 176.0
127.271179 188.0
128.065964 200.0
129.068512 340.0
131.087204 1504.0
132.090073 324.0
133.099869 472.0
135.081497 628.0
135.117706 156.0
137.096756 468.0
137.293381 144.0
141.052399 184.0
141.07251 316.0
142.076538 420.0
143.085648 416.0
143.221161 140.0
144.096634 168.0
145.05867 184.0
145.100769 712.0
147.075272 536.0
147.11795 428.0
148.121384 152.0
149.091705 428.0
149.125916 180.0
151.105988 160.0
153.071442 200.0
153.128677 144.0
154.081161 144.0
155.085968 568.0
157.101486 600.0
158.106552 208.0
159.11676 552.0
160.114975 144.0
161.092789 272.0
161.133347 128.0
162.098038 340.0
163.111893 372.0
164.111176 144.0
167.084686 204.0
168.097778 144.0
169.102921 416.0
170.110855 160.0
171.010208 168.0
171.08371 468.0
171.115448 484.0
173.096161 164.0
173.137558 312.0
175.113953 328.0
177.128571 412.0
178.078873 176.0
179.088531 164.0
180.084641 148.0
181.101395 364.0
182.10553 276.0
183.11969 428.0
183.157196 168.0
184.124725 160.0
185.132996 156.0
186.126663 156.0
186.151108 148.0
187.109222 328.0
187.140854 336.0
188.157791 208.0
189.125443 156.0
193.099106 236.0
194.067703 176.0
195.11586 332.0
196.124252 200.0
197.09285 140.0
197.132141 292.0
198.958542 160.0
199.110855 184.0
199.148743 392.0
200.111221 144.0
200.156509 220.0
203.141403 148.0
207.118088 284.0
207.1418 124.0
208.126724 140.0
210.155899 208.0
211.112015 244.0
211.147705 268.0
213.126984 252.0
213.159653 160.0
215.144928 156.0
218.115295 176.0
219.118774 168.0
221.134079 408.0
222.144775 344.0
223.145691 144.0
225.129807 216.0
226.129822 144.0
226.16275 172.0
227.180771 408.0
228.109467 164.0
228.185776 372.0
229.157303 172.0
233.135788 124.0
235.146271 268.0
237.162781 124.0
239.141144 132.0
239.177902 212.0
245.189682 308.0
249.164734 560.0
250.16983 112.0
250.911758 200.0
251.180679 400.0
253.163147 120.0
253.194305 252.0
255.166794 152.0
261.674377 216.0
262.178589 164.0
267.168304 248.0
267.20932 332.0
267.407257 208.0
268.492157 152.0
269.752441 236.0
269.915924 148.0
273.933044 156.0
277.19278 2116.0
278.196594 508.0
279.199036 196.0
280.844299 140.0
283.472321 140.0
286.223114 148.0
294.644867 164.0
295.130188 148.0
295.205994 5472.0
296.210693 1232.0
297.210205 164.0
304.451508 184.0
311.255981 148.0
311.290009 172.0
312.266083 172.0
313.215668 2116.0
314.218262 516.0
315.220306 320.0
326.924377 156.0
331.227997 236.0
332.23938 188.0
1711.478394 300.0
1753.578369 192.0
1830.412231 164.0
1838.749512 148.0
1928.666504 176.0
1988.338989 168.0
