>compound 51333-22-3
>formula C25H34O6 
>ionization [M+H]+
>parentmass 431.24281526009054
#inchi InChI=1S/C25H34O6/c1-4-5-21-30-20-11-17-16-7-6-14-10-15(27)8-9-23(14,2)22(16)18(28)12-24(17,3)25(20,31-21)19(29)13-26/h8-10,16-18,20-22,26,28H,4-7,11-13H2,1-3H3/t16-,17-,18-,20+,21-,22+,23-,24-,25+/m0/s1
#inchikey VOVIALXJUBGFJZ
#Ion_Source LC-ESI
#Instrument qTof
#Compound_Source Commercial
#PI Dorrestein
#Data_Collector Garg_Neha
#Scan -1
#Precursor_MZ 431.245
#ExactMass 430.236
#Charge 1
#CAS_Number N/A
#Pubmed_ID N/A
#Smiles N/A
#INCHI_AUX N/A
#Library_Class 1
#SpectrumID CCMSLIB00000077100
#IonMode Positive
#UpdateWorkflowName UPDATE-SINGLE-ANNOTATED-GOLD
#LibraryQualityString Gold
#TaskID 48f7f52fc6d249b5abbcc6e7b3df5969
##Scan# 1479
#SpectrumFile NCP003106_C2_D11_BB3_01_15706.mzXML
#LibraryName NIH_Clinical_Collection_2.mgf
#MQScore -1
#Organism NIHcollection2_04212014_2_mgf
#TIC_Query 0
#RT_Query -1
#MZErrorPPM -1
#SharedPeaks 0
#MassDiff 0
#LibMZ -1
#SpecMZ 431.245
#SpecCharge 0
#internalFilename spec-00000.mgf

>collision 10
45.83712 160.0
46.322151 164.0
47.111168 168.0
51.873295 192.0
52.118713 144.0
52.903305 140.0
54.857998 176.0
55.098545 188.0
55.471478 164.0
55.954292 152.0
57.617565 236.0
57.776306 192.0
60.217594 168.0
60.32576 208.0
60.667881 144.0
60.790413 220.0
61.487614 148.0
61.520393 188.0
61.684418 184.0
64.391212 180.0
65.859245 144.0
66.224792 164.0
66.305801 156.0
67.283409 184.0
67.605408 188.0
67.733116 212.0
69.708031 144.0
70.424408 152.0
70.73877 152.0
72.877296 184.0
74.555359 152.0
74.92186 236.0
75.071815 160.0
76.95105 260.0
76.98597 180.0
77.894981 156.0
79.494606 252.0
80.129379 148.0
81.589783 164.0
82.110176 296.0
82.296036 144.0
83.290276 148.0
83.663055 168.0
85.315033 232.0
85.477196 144.0
91.057304 428.0
91.221275 144.0
91.46476 152.0
91.695229 192.0
92.353928 188.0
92.397926 176.0
92.786705 160.0
93.067825 168.0
94.419601 164.0
94.969643 140.0
95.062767 196.0
95.086258 428.0
96.088188 148.0
96.371292 164.0
97.064201 140.0
98.783592 156.0
98.876587 180.0
99.046867 144.0
101.021561 216.0
101.291801 144.0
103.65712 236.0
105.000877 148.0
105.070114 440.0
105.744553 148.0
106.074326 152.0
107.086243 300.0
108.629311 160.0
109.052315 184.0
109.067947 216.0
109.100708 168.0
109.140213 160.0
110.395523 152.0
111.046844 144.0
111.742157 148.0
112.940376 152.0
115.054657 152.0
115.916733 196.0
117.068138 720.0
117.788506 168.0
119.062065 168.0
119.084335 616.0
119.120705 180.0
120.091507 180.0
121.064926 2376.0
122.069717 324.0
123.079185 164.0
124.082825 144.0
124.913391 168.0
126.670174 148.0
126.8741 236.0
127.060234 164.0
127.916443 176.0
128.008759 156.0
128.062958 308.0
128.669403 144.0
129.069809 128.0
131.046295 148.0
131.08403 488.0
132.057816 316.0
133.006165 164.0
133.063553 620.0
133.101883 156.0
133.426544 164.0
133.842438 148.0
133.962753 148.0
134.878845 148.0
134.93895 148.0
135.047638 196.0
135.079926 920.0
136.085342 176.0
137.061462 316.0
137.100601 176.0
138.057617 124.0
138.314514 144.0
138.534637 148.0
138.862793 160.0
139.075104 440.0
140.085068 224.0
140.972198 276.0
141.072693 136.0
141.089706 376.0
141.968826 152.0
142.075562 152.0
142.198959 220.0
143.089432 144.0
143.583618 176.0
143.752991 144.0
144.058609 212.0
144.096832 168.0
144.80249 204.0
145.066269 660.0
145.101059 460.0
146.07222 508.0
146.112183 144.0
147.008347 176.0
147.0811 8852.0
148.083359 1408.0
148.131302 180.0
148.292664 152.0
149.059509 176.0
149.095795 316.0
150.09993 152.0
151.075455 392.0
152.027557 204.0
152.058197 192.0
152.09874 148.0
153.067062 152.0
153.789719 228.0
154.072754 124.0
154.538498 200.0
155.084641 680.0
156.073837 276.0
156.090057 156.0
156.950302 140.0
156.985214 148.0
157.06868 172.0
157.10318 432.0
157.13736 180.0
158.073715 1176.0
158.100906 184.0
158.146927 160.0
158.690536 140.0
159.081039 1672.0
159.115799 144.0
160.081848 640.0
161.059311 344.0
161.096634 1900.0
161.245575 148.0
161.587952 172.0
162.064758 200.0
162.098648 388.0
162.539627 156.0
162.826492 164.0
163.074066 560.0
163.479843 148.0
164.080292 344.0
165.075378 304.0
165.791855 176.0
166.096375 140.0
167.084976 300.0
168.061142 164.0
168.090576 332.0
168.159637 228.0
169.066025 220.0
169.101242 468.0
170.072372 152.0
170.992447 160.0
171.079803 5592.0
172.083328 512.0
172.279678 192.0
172.809448 128.0
173.052063 160.0
173.09613 8008.0
174.09906 1260.0
175.092102 144.0
175.113174 184.0
177.091904 304.0
177.115555 212.0
177.144699 168.0
178.083267 228.0
179.08374 600.0
179.108826 140.0
180.022781 196.0
180.088547 160.0
180.110641 164.0
180.396561 140.0
180.559677 188.0
181.014603 156.0
181.066193 592.0
181.087677 404.0
181.12442 152.0
182.071487 268.0
183.081772 208.0
183.119125 364.0
184.08461 316.0
184.818085 156.0
185.096268 1332.0
185.132095 188.0
186.103043 520.0
186.211472 172.0
187.074585 640.0
187.113724 964.0
188.073807 160.0
188.115204 180.0
189.115189 140.0
190.076172 200.0
192.097412 212.0
193.102966 200.0
194.065628 184.0
195.082932 296.0
195.115417 176.0
196.088165 464.0
197.095367 2116.0
197.488159 164.0
197.997543 184.0
198.100891 752.0
198.143188 152.0
199.071609 148.0
199.111313 1476.0
200.083832 204.0
200.112518 312.0
200.822128 180.0
201.090302 404.0
201.129227 152.0
202.073547 148.0
202.101837 300.0
203.085785 280.0
203.106857 384.0
204.092133 496.0
205.1026 232.0
206.115616 284.0
207.117126 672.0
208.088272 512.0
208.123016 300.0
208.687851 228.0
209.024384 180.0
209.093903 1188.0
209.134949 216.0
209.404388 200.0
210.103806 340.0
210.430969 148.0
210.994354 140.0
211.077789 144.0
211.112366 1820.0
211.167847 196.0
212.085678 196.0
212.117615 608.0
212.427841 196.0
213.092987 164.0
213.128967 1016.0
214.130402 152.0
214.256393 144.0
215.072891 152.0
215.109299 172.0
215.146774 184.0
217.095978 228.0
218.083923 152.0
218.108978 144.0
219.087585 144.0
219.115555 464.0
219.16394 192.0
220.084213 244.0
220.115952 176.0
221.094925 1096.0
221.130356 252.0
222.103607 1180.0
222.141541 184.0
223.113052 2308.0
224.118332 584.0
225.052597 204.0
225.090363 764.0
225.12709 5436.0
225.169662 340.0
226.082993 148.0
226.13472 3136.0
227.103195 340.0
227.143066 3524.0
228.146973 500.0
229.155777 388.0
230.109039 404.0
230.168259 176.0
231.097672 172.0
232.085114 164.0
232.122391 316.0
233.099442 416.0
233.164276 232.0
234.108643 284.0
235.112656 1604.0
235.559143 140.0
236.113953 564.0
237.125519 2132.0
237.852676 156.0
238.131912 280.0
239.104523 580.0
239.142334 1728.0
239.189789 192.0
240.107803 152.0
240.148712 472.0
241.086594 196.0
241.12059 144.0
241.158829 496.0
242.11058 176.0
242.164932 124.0
243.115005 192.0
243.142502 312.0
243.180954 196.0
244.127136 104.0
245.099792 164.0
245.132523 248.0
245.192444 148.0
246.104813 208.0
247.111206 644.0
247.146347 516.0
247.958328 184.0
248.119659 992.0
249.089371 100.0
249.126678 1008.0
249.165802 292.0
250.10022 184.0
250.130035 260.0
251.109161 168.0
251.145035 600.0
252.149948 320.0
253.083572 164.0
253.092758 160.0
253.125122 220.0
253.155029 760.0
253.679276 156.0
254.123032 164.0
254.161453 316.0
254.917084 164.0
255.13266 760.0
256.141968 240.0
256.926178 152.0
257.090118 120.0
257.140381 168.0
258.115814 172.0
258.139893 248.0
259.111664 220.0
259.148865 228.0
260.116211 364.0
260.155212 156.0
261.129578 940.0
261.16333 132.0
261.69516 152.0
262.092346 216.0
262.131927 940.0
263.104431 200.0
263.14328 2628.0
263.187225 148.0
263.953796 140.0
264.114075 224.0
264.147522 1120.0
264.363007 160.0
264.766052 192.0
265.122101 460.0
265.159302 3252.0
266.128265 340.0
266.163422 1056.0
266.507996 148.0
267.136841 736.0
267.171265 272.0
268.109009 180.0
268.142181 200.0
268.176575 156.0
269.13504 176.0
271.133392 112.0
272.118988 452.0
272.168579 172.0
273.120026 136.0
274.130493 292.0
275.145477 808.0
276.113098 144.0
276.157318 252.0
277.159241 2084.0
277.25528 200.0
278.131134 320.0
278.162018 780.0
279.136841 1064.0
279.170746 388.0
280.144592 344.0
281.154694 1064.0
281.190399 400.0
282.153259 200.0
282.790558 188.0
283.170105 696.0
284.169312 260.0
285.130493 148.0
285.679626 140.0
286.130585 260.0
287.019562 128.0
287.1427 1672.0
288.150787 372.0
289.127411 140.0
289.159607 372.0
290.130615 276.0
290.165497 224.0
291.135834 152.0
291.179108 152.0
292.152313 200.0
293.111359 152.0
293.152435 1680.0
294.152679 236.0
295.16922 2656.0
296.124481 152.0
296.17334 976.0
296.902435 148.0
297.14801 276.0
297.17865 444.0
298.159271 128.0
298.197662 120.0
299.167694 116.0
301.1633 192.0
303.020935 160.0
303.133728 200.0
304.137268 144.0
305.15387 3444.0
305.245239 124.0
306.160797 768.0
307.16861 1804.0
307.867767 148.0
308.11084 148.0
308.144562 116.0
308.177643 376.0
309.182495 120.0
310.186035 156.0
311.164124 564.0
312.1745 352.0
313.180695 596.0
314.186188 352.0
314.219666 172.0
315.188232 216.0
316.325897 164.0
319.204163 184.0
321.143036 424.0
322.865601 156.0
323.005096 180.0
323.080231 176.0
323.164215 10096.0
324.169434 2656.0
325.179901 2120.0
326.182434 356.0
327.193329 612.0
329.190491 156.0
333.676239 180.0
335.21225 156.0
338.858795 188.0
339.158142 280.0
340.159485 172.0
341.174652 4960.0
342.17865 856.0
343.19046 904.0
343.583099 140.0
344.085022 144.0
344.200592 244.0
345.19046 160.0
347.211731 184.0
349.21701 268.0
350.228882 116.0
355.14859 164.0
356.162018 156.0
357.175537 208.0
358.16684 140.0
360.205048 128.0
367.195312 152.0
367.226715 156.0
371.21463 160.0
371.874481 188.0
377.205963 664.0
378.21936 144.0
379.20517 152.0
380.707916 184.0
383.224396 224.0
385.179108 152.0
385.247131 144.0
389.633209 196.0
395.221771 1656.0
396.227936 608.0
397.212708 140.0
401.679871 164.0
411.225616 148.0
413.047882 152.0
413.2323 26412.0
413.335449 112.0
413.776306 140.0
414.234985 6384.0
415.238739 1000.0
416.235016 192.0
416.339844 108.0
416.413055 96.0
416.894043 112.0
417.276489 120.0
430.256958 164.0
431.246613 1444.0
431.289673 144.0
432.242279 980.0
433.246857 272.0
966.494812 160.0
1222.370605 172.0
1374.077515 156.0
1437.579468 156.0
1448.549927 172.0
1506.313843 164.0
1565.057373 160.0
1594.548462 180.0
1627.131592 180.0
1640.316772 228.0
1641.76001 156.0
1714.260254 148.0
1718.250977 204.0
1733.663696 168.0
1736.158936 196.0
1748.462646 256.0
1754.57666 176.0
1769.355591 140.0
1788.478271 216.0
1790.666016 124.0
1791.063232 208.0
1809.134155 180.0
1821.2771 204.0
1828.682861 140.0
1844.744385 156.0
1883.024292 192.0
1902.342041 208.0
1920.275391 160.0
1969.674683 184.0
1979.42981 164.0
1991.979492 160.0
1997.277222 248.0
1998.949829 180.0
