>compound MLS001076683-01!QUINAPRIL HYDROCHLORIDE
>formula C25H30N2O5
>ionization [M+H]+
>parentmass 439.2227485120905
#inchi InChI=1S/C25H30N2O5/c1-3-32-25(31)21(14-13-18-9-5-4-6-10-18)26-17(2)23(28)27-16-20-12-8-7-11-19(20)15-22(27)24(29)30/h4-12,17,21-22,26H,3,13-16H2,1-2H3,(H,29,30)/t17-,21-,22-/m0/s1
#inchikey JSDRRTOADPPCHY
#origInchi InChI=1S/C25H30N2O5.ClH/c1-3-32-25(31)21(14-13-18-9-5-4-6-10-18)26-17(2)23(28)27-16-20-12-8-7-11-19(20)15-22(27)24(29)30;/h4-12,17,21-22,26H,3,13-16H2,1-2H3,(H,29,30);1H/t17-,21-,22-;/m0./s1
#Ion_Source LC-ESI
#Instrument qTof
#Compound_Source NIH Pharmacologically Active Library
#PI Dorrestein
#Data_Collector VP/LMS
#Scan -1
#Precursor_MZ 439.229
#ExactMass 438.215
#Charge 1
#CAS_Number N/A
#Pubmed_ID N/A
#Smiles CCOC(=O)[C@H](CCc1ccccc1)N[C@@H](C)C(=O)N2Cc3ccccc3C[C@H]2C(=O)O.Cl
#INCHI_AUX N/A
#Library_Class 1
#SpectrumID CCMSLIB00000086150
#IonMode Positive
#UpdateWorkflowName UPDATE-SINGLE-ANNOTATED-GOLD
#LibraryQualityString Gold
#TaskID d252d724072548979f1f6f1ced849daf
##Scan# 1779
#SpectrumFile p5-G03_GG3_01_18472.mzXML
#LibraryName Pharm_Active_Library.mgf
#MQScore -1
#Organism Pharm_Active_Library
#TIC_Query 0
#RT_Query -1
#MZErrorPPM -1
#SharedPeaks 0
#MassDiff 0
#LibMZ -1
#SpecMZ 439.229
#SpecCharge 0
#internalFilename spec-00000.mgf

>collision 10
44.961342 200.0
45.194092 160.0
45.216606 208.0
45.365284 144.0
45.573307 216.0
45.593464 160.0
45.60556 128.0
45.726608 268.0
45.75108 200.0
45.807396 132.0
45.975933 176.0
46.148838 84.0
46.342388 156.0
46.48476 176.0
46.525482 216.0
46.594742 388.0
46.625996 116.0
46.755196 208.0
46.804199 164.0
46.847782 120.0
46.894112 192.0
46.920013 228.0
47.038696 68.0
47.050983 188.0
47.124733 164.0
47.162998 144.0
47.258728 268.0
47.288834 176.0
47.320316 200.0
47.414833 200.0
47.494358 204.0
47.609646 184.0
47.624714 144.0
47.752575 236.0
47.872307 200.0
47.906742 208.0
47.923275 148.0
47.948078 168.0
47.99081 136.0
48.343048 204.0
48.582748 148.0
48.611885 216.0
48.766041 156.0
48.790146 164.0
48.823044 64.0
48.842514 160.0
49.017937 180.0
49.045811 148.0
49.055565 172.0
49.176655 252.0
49.348743 140.0
49.555889 176.0
49.58532 132.0
49.673653 172.0
49.725567 192.0
49.787342 144.0
49.801384 128.0
49.896942 152.0
49.977112 164.0
50.017925 176.0
50.140461 172.0
50.247627 128.0
50.263149 148.0
50.328079 144.0
50.370445 164.0
50.446754 192.0
50.464878 224.0
50.534435 140.0
50.5868 196.0
50.680271 212.0
50.803619 164.0
50.878834 340.0
51.108597 176.0
51.131851 228.0
51.200188 184.0
51.317032 44.0
51.407932 132.0
51.463993 168.0
51.476845 44.0
51.506836 148.0
51.642624 120.0
51.672665 192.0
51.701244 148.0
51.726295 164.0
51.75568 168.0
51.778591 172.0
51.805805 156.0
51.870293 216.0
51.883194 272.0
52.01804 112.0
52.092712 116.0
52.155937 80.0
52.266678 56.0
52.281067 176.0
52.475525 140.0
52.562069 144.0
52.586601 168.0
52.658791 160.0
52.686237 124.0
52.785965 152.0
52.803322 188.0
52.843822 132.0
52.90461 168.0
52.936462 208.0
53.091522 92.0
53.184376 104.0
53.551323 172.0
53.565346 224.0
53.619255 132.0
53.727158 108.0
53.782608 156.0
53.836628 120.0
53.915516 64.0
54.014942 32.0
54.063358 216.0
54.082249 164.0
54.233112 188.0
54.282959 120.0
54.317951 196.0
54.717129 156.0
54.757641 148.0
54.798885 184.0
54.869629 136.0
54.895145 368.0
54.912392 192.0
55.014206 200.0
55.06884 148.0
55.166367 128.0
55.348343 256.0
55.361671 120.0
55.870785 128.0
55.922867 124.0
56.103107 68.0
56.344872 124.0
56.383724 128.0
56.50185 84.0
56.579674 140.0
56.735477 104.0
56.871983 140.0
56.912518 136.0
56.974094 56.0
57.043224 144.0
57.06662 256.0
57.139469 176.0
57.165047 108.0
57.190632 216.0
57.231281 116.0
57.409088 176.0
57.492062 124.0
57.531307 128.0
57.644585 204.0
57.779152 156.0
57.900246 164.0
57.937775 160.0
57.989635 124.0
58.030563 136.0
58.057858 220.0
58.123089 152.0
58.2491 176.0
58.265808 160.0
58.369164 180.0
58.387413 232.0
58.461956 248.0
58.52462 120.0
58.605095 124.0
58.678253 136.0
58.695023 204.0
58.754509 92.0
58.77129 236.0
58.843025 156.0
58.913277 196.0
59.037083 104.0
59.115101 232.0
59.139629 152.0
59.286617 96.0
59.312672 204.0
59.46759 132.0
59.501358 204.0
59.648838 196.0
59.711876 128.0
59.77803 184.0
59.818047 328.0
59.841137 164.0
59.936283 140.0
59.945919 180.0
59.967457 148.0
60.063053 176.0
60.154095 160.0
60.171074 148.0
60.206589 128.0
60.266834 176.0
60.317833 228.0
60.365761 136.0
60.621185 160.0
60.638229 176.0
60.703342 252.0
60.757629 144.0
60.815044 136.0
60.85075 52.0
60.975018 132.0
61.02787 148.0
61.125866 104.0
61.175671 68.0
61.213036 188.0
61.308064 148.0
61.376133 192.0
61.400043 152.0
61.434357 172.0
61.562344 188.0
61.626389 192.0
61.656078 180.0
61.688904 148.0
61.743629 72.0
61.770634 180.0
61.807766 80.0
61.82185 144.0
61.887592 64.0
61.956505 176.0
62.094444 188.0
62.168179 168.0
62.314209 208.0
62.35104 192.0
62.405369 120.0
62.446255 164.0
62.515629 208.0
62.792751 216.0
62.803791 180.0
62.852695 220.0
63.249378 188.0
63.284206 104.0
63.339634 36.0
63.410934 168.0
63.551964 180.0
63.590153 216.0
63.68383 124.0
63.709248 108.0
63.760094 176.0
63.871387 108.0
63.923889 176.0
64.135712 100.0
64.301086 256.0
64.355858 220.0
64.706009 116.0
64.733223 300.0
64.829346 196.0
65.132576 140.0
65.393051 204.0
65.476768 176.0
65.517036 56.0
65.625023 188.0
65.720184 156.0
65.944649 148.0
66.188934 224.0
66.516426 128.0
66.683723 220.0
66.794289 168.0
66.880531 172.0
66.900063 76.0
67.144478 108.0
67.180359 156.0
67.255424 216.0
67.371361 176.0
67.523376 152.0
67.680473 128.0
68.108505 144.0
68.146294 124.0
68.166008 280.0
68.338661 180.0
68.465408 196.0
68.483528 184.0
68.5 160.0
68.511528 108.0
68.531296 104.0
68.544479 128.0
68.694511 204.0
68.810036 128.0
68.942177 188.0
68.960358 80.0
68.983498 188.0
69.244934 172.0
69.369202 120.0
69.679535 272.0
69.699478 264.0
69.822495 48.0
69.965591 196.0
69.980576 152.0
70.058853 116.0
70.110504 40.0
70.272247 168.0
70.352356 152.0
70.409126 76.0
70.494331 156.0
70.529427 160.0
70.587944 144.0
70.639786 204.0
70.671577 204.0
70.763634 188.0
71.020027 184.0
71.041832 144.0
71.086479 144.0
71.436714 180.0
71.476982 44.0
71.959045 196.0
72.008011 96.0
72.095863 112.0
72.138123 152.0
72.168549 104.0
72.215904 140.0
72.525749 100.0
72.551178 168.0
72.585091 48.0
72.680077 164.0
72.822678 224.0
73.103226 200.0
73.188301 180.0
73.234283 120.0
73.258133 144.0
73.404709 180.0
73.441231 232.0
73.457451 208.0
73.612892 140.0
73.688049 32.0
73.985634 168.0
74.03186 204.0
74.099228 232.0
74.390205 240.0
74.412521 120.0
74.467476 180.0
74.647926 152.0
74.715004 108.0
74.851799 268.0
74.987068 156.0
75.014648 128.0
75.230286 212.0
75.249275 148.0
75.278625 240.0
75.313171 156.0
75.397827 80.0
75.439308 136.0
75.501556 128.0
75.71962 140.0
75.792381 60.0
75.828773 180.0
76.083755 92.0
76.10321 156.0
76.196648 180.0
76.387871 204.0
76.494019 272.0
76.638573 156.0
76.697823 196.0
76.798958 84.0
76.833839 224.0
76.96125 44.0
77.090515 100.0
77.176163 144.0
77.188408 96.0
77.209389 172.0
77.275864 172.0
77.33886 112.0
77.449173 128.0
77.482452 156.0
77.513992 188.0
77.56469 164.0
77.720901 180.0
77.780571 148.0
77.954445 84.0
78.02475 112.0
78.109161 124.0
78.146103 220.0
78.237625 212.0
78.373238 104.0
78.399673 136.0
78.482521 52.0
78.581291 32.0
78.630699 188.0
78.666618 196.0
78.738396 164.0
78.969925 180.0
79.003532 244.0
79.07431 160.0
79.19648 184.0
79.240768 208.0
79.311653 160.0
79.352425 192.0
79.435776 152.0
79.556442 136.0
79.613266 160.0
79.793831 92.0
79.885208 252.0
79.938583 148.0
80.088387 168.0
80.139793 128.0
80.173645 96.0
80.187904 192.0
80.344826 124.0
80.387642 136.0
80.435837 148.0
80.702026 104.0
80.725266 160.0
80.862007 224.0
80.940002 152.0
80.96328 168.0
81.038513 120.0
81.163361 208.0
81.483467 104.0
81.560738 52.0
81.623665 136.0
81.789177 132.0
81.810776 164.0
81.958458 128.0
81.981888 160.0
82.29805 236.0
82.312004 176.0
82.355347 120.0
82.559578 156.0
82.624687 120.0
82.845558 108.0
83.006866 112.0
83.130798 188.0
83.170143 212.0
83.319046 176.0
83.344482 156.0
83.659126 188.0
83.73378 148.0
83.762924 132.0
83.777496 176.0
83.810295 56.0
84.02179 136.0
84.140411 40.0
84.268257 196.0
84.396202 188.0
84.412659 132.0
84.546204 32.0
84.571823 100.0
84.617592 128.0
84.712822 152.0
84.73632 188.0
84.8246 128.0
84.896103 148.0
84.989655 80.0
85.061234 80.0
85.270622 116.0
85.318413 124.0
85.345993 140.0
85.587036 140.0
85.712288 144.0
85.762047 208.0
85.931702 116.0
85.946465 164.0
85.961929 136.0
85.97599 144.0
86.012901 120.0
86.123688 108.0
86.16433 180.0
86.206833 228.0
86.265976 120.0
86.613861 140.0
86.684258 184.0
86.802895 196.0
86.904915 108.0
87.12957 172.0
87.304291 180.0
87.473602 100.0
87.495941 144.0
87.643082 192.0
87.713898 132.0
87.767967 152.0
87.84816 196.0
87.9608 176.0
88.014267 96.0
88.108932 152.0
88.283348 108.0
88.333847 104.0
88.360039 168.0
88.464844 148.0
88.515396 56.0
88.579071 156.0
88.674629 216.0
88.832138 180.0
89.002922 128.0
89.200188 108.0
89.237785 144.0
89.256592 40.0
89.299843 148.0
89.350632 216.0
89.376976 184.0
89.399551 236.0
89.457901 80.0
89.59726 60.0
89.829132 200.0
89.927254 188.0
90.029205 188.0
90.070755 92.0
90.153969 172.0
90.475433 196.0
90.645897 164.0
90.757736 196.0
90.79187 220.0
90.882919 120.0
90.993004 208.0
91.034721 136.0
91.054749 6560.0
91.110756 64.0
91.179161 72.0
91.211472 240.0
91.266602 92.0
91.384529 216.0
91.413071 36.0
91.434006 44.0
91.588226 188.0
91.712074 100.0
91.826469 136.0
91.963844 88.0
91.981026 168.0
92.024933 40.0
92.0588 1040.0
92.097504 68.0
92.137619 124.0
92.221695 144.0
92.27713 164.0
92.347885 40.0
92.378494 160.0
92.408348 136.0
92.481819 112.0
92.621597 52.0
92.67907 208.0
92.698235 208.0
92.723145 120.0
92.736565 164.0
92.880363 160.0
92.978218 200.0
93.030045 276.0
93.078041 212.0
93.247093 188.0
93.274002 128.0
93.356674 176.0
93.372063 240.0
93.420151 44.0
93.460548 224.0
93.495186 172.0
93.66655 148.0
93.836235 156.0
93.940277 84.0
93.959564 176.0
93.98465 140.0
94.017456 200.0
94.044472 156.0
94.131348 32.0
94.340012 180.0
94.432831 120.0
94.489525 208.0
94.545044 272.0
94.692177 52.0
94.740601 128.0
94.758041 116.0
94.823921 100.0
95.062462 152.0
95.122627 136.0
95.178932 164.0
95.19252 124.0
95.213882 200.0
95.528763 140.0
95.544327 164.0
95.596863 144.0
95.779877 128.0
95.846115 288.0
95.961113 136.0
96.208885 140.0
96.468704 192.0
96.593857 188.0
96.705383 124.0
96.75824 212.0
96.846359 172.0
96.887497 80.0
97.059967 136.0
97.077621 216.0
97.201202 128.0
97.216904 204.0
97.267929 188.0
97.436813 212.0
97.497726 172.0
97.609779 152.0
97.75338 40.0
97.775024 140.0
97.932533 96.0
97.993599 204.0
98.017242 108.0
98.076408 188.0
98.133537 140.0
98.23806 156.0
98.251869 180.0
98.358437 176.0
98.433456 212.0
98.449257 132.0
98.467026 88.0
98.59742 140.0
98.656723 200.0
98.737785 204.0
98.941597 140.0
99.23085 132.0
99.280426 176.0
99.449066 68.0
99.472885 224.0
99.594009 184.0
99.629761 200.0
99.653854 188.0
99.798698 156.0
99.834488 124.0
99.892166 152.0
99.939919 52.0
100.268486 228.0
100.467888 204.0
100.543709 204.0
100.567657 156.0
100.59166 160.0
100.885262 168.0
100.913254 220.0
101.073265 156.0
101.093277 204.0
101.11129 192.0
101.588173 88.0
101.696526 224.0
101.899345 128.0
101.933502 168.0
101.955605 192.0
102.055428 6092.0
102.160545 52.0
102.440514 40.0
102.521111 80.0
102.553352 36.0
102.668274 68.0
102.724747 52.0
102.824303 148.0
102.863983 112.0
102.894264 72.0
102.985138 60.0
103.060104 336.0
103.09626 72.0
103.167 92.0
103.22361 68.0
103.322723 72.0
103.465736 252.0
103.555511 52.0
103.727737 128.0
103.741928 184.0
103.793625 232.0
103.88485 132.0
103.912285 48.0
103.954895 40.0
103.987366 68.0
104.011719 160.0
104.025932 144.0
104.117302 140.0
104.200584 112.0
104.245285 68.0
104.279831 220.0
104.33268 104.0
104.40995 200.0
104.532013 188.0
104.808937 140.0
105.071091 512.0
105.110725 132.0
105.15358 120.0
105.204605 76.0
105.227066 72.0
105.278114 176.0
105.515137 200.0
105.549896 200.0
105.639885 100.0
105.74424 184.0
105.938766 176.0
105.99408 156.0
106.07196 176.0
106.17038 152.0
106.543953 156.0
106.589149 188.0
106.61792 128.0
106.638474 96.0
106.679581 164.0
106.69397 112.0
106.848221 228.0
107.117897 172.0
107.594269 32.0
107.718178 132.0
107.778091 152.0
108.183456 116.0
108.34314 148.0
108.461487 128.0
108.477615 236.0
109.299065 184.0
109.427025 44.0
109.587402 56.0
109.647835 136.0
109.72287 160.0
109.820244 184.0
109.90641 148.0
109.93354 200.0
109.964844 236.0
109.991982 168.0
110.039993 172.0
110.100548 208.0
110.159035 144.0
110.211266 40.0
110.434944 204.0
110.558388 184.0
110.596992 152.0
110.77195 80.0
110.895576 160.0
111.138832 32.0
111.180801 172.0
111.323555 176.0
111.367661 40.0
111.569389 212.0
111.682945 160.0
111.712387 76.0
111.809181 144.0
111.895485 68.0
112.409782 180.0
112.527985 208.0
112.745552 116.0
112.783592 104.0
112.880844 40.0
112.986603 124.0
113.041611 168.0
113.069122 168.0
113.088173 160.0
113.107224 152.0
113.259682 124.0
113.295692 52.0
113.316879 216.0
113.488556 168.0
113.598839 132.0
113.745255 236.0
113.906639 124.0
114.040504 168.0
114.329742 104.0
114.576744 124.0
114.647057 168.0
114.762039 132.0
114.790855 216.0
114.864532 160.0
114.892265 88.0
115.055031 3852.0
115.152679 212.0
115.195404 68.0
115.306511 168.0
115.372772 36.0
115.394394 184.0
115.550278 76.0
115.752357 176.0
115.796448 176.0
115.832863 176.0
115.954109 164.0
116.057617 384.0
116.117935 168.0
116.177994 140.0
116.212326 148.0
116.235924 148.0
116.551575 108.0
116.607445 168.0
116.671936 120.0
116.706848 184.0
116.762245 140.0
116.796997 200.0
116.839676 116.0
116.897774 352.0
116.919212 184.0
116.924339 128.0
116.933212 240.0
116.962341 184.0
116.990326 60.0
117.010513 276.0
117.030693 144.0
117.070831 50932.0
117.106903 204.0
117.124603 168.0
117.1548 64.0
117.184151 140.0
117.205696 84.0
117.236755 116.0
117.285995 124.0
117.316414 76.0
117.342476 96.0
117.406807 204.0
117.424438 396.0
117.447151 28.0
117.472092 96.0
117.49353 136.0
117.547256 144.0
117.580925 36.0
117.602509 108.0
117.619774 72.0
117.637039 180.0
117.680222 144.0
117.745003 100.0
117.768761 236.0
117.844368 56.0
117.876778 72.0
117.987015 80.0
118.013298 204.0
118.073753 6184.0
118.105949 236.0
118.134071 80.0
118.162193 52.0
118.205467 88.0
118.229271 112.0
118.27092 196.0
118.279228 48.0
118.287193 200.0
118.385139 128.0
118.413292 64.0
118.543274 68.0
118.590958 56.0
118.688507 68.0
118.756775 96.0
118.794876 92.0
118.857704 76.0
118.879402 120.0
118.996613 104.0
119.013985 172.0
119.048088 116.0
119.084732 484.0
119.229034 48.0
119.374687 64.0
119.487793 72.0
119.622719 188.0
119.664085 48.0
119.833969 96.0
119.899338 188.0
120.065033 64.0
120.091202 120.0
120.281029 196.0
120.359627 152.0
120.652397 196.0
120.956474 140.0
121.061562 200.0
121.260925 60.0
121.464836 136.0
121.585518 204.0
121.899551 112.0
122.158989 216.0
122.180984 212.0
122.205185 56.0
122.275604 136.0
122.420906 196.0
122.475967 184.0
122.700737 232.0
123.055946 228.0
123.086861 152.0
123.466949 152.0
123.661186 212.0
123.776764 128.0
124.033752 60.0
124.539658 176.0
124.79744 164.0
125.541176 108.0
125.585777 184.0
125.804459 116.0
125.842407 100.0
125.896004 56.0
125.945137 108.0
125.978645 116.0
126.038963 56.0
126.215553 136.0
126.284874 112.0
126.376595 72.0
126.809731 200.0
126.93882 188.0
127.057693 120.0
127.09584 100.0
127.116035 116.0
127.297859 240.0
127.365234 40.0
127.481041 132.0
127.580963 92.0
127.992691 196.0
128.039978 148.0
128.062164 784.0
128.434418 168.0
128.484039 92.0
128.58783 156.0
128.797821 168.0
128.824921 140.0
128.944687 60.0
129.064499 108.0
129.161743 68.0
129.243179 184.0
129.295227 48.0
129.487671 104.0
129.532974 224.0
129.591873 148.0
129.641724 156.0
129.705185 132.0
129.88205 228.0
129.931961 100.0
129.96405 208.0
130.006836 52.0
130.064789 628.0
130.086945 23500.0
130.154694 148.0
130.197403 68.0
130.217972 116.0
130.237961 180.0
130.315643 156.0
130.433823 104.0
130.45726 44.0
130.547501 92.0
130.65213 104.0
130.737061 136.0
130.861511 112.0
130.909332 40.0
130.959045 192.0
130.986771 184.0
131.088455 1600.0
131.123474 76.0
131.287628 48.0
131.37886 168.0
131.456436 120.0
131.78981 112.0
131.816055 176.0
131.977234 52.0
132.020691 100.0
132.045837 160.0
132.081085 5332.0
132.128189 64.0
132.235733 72.0
132.405167 40.0
132.443283 192.0
132.634277 152.0
132.790192 136.0
132.83606 120.0
133.021393 184.0
133.083542 320.0
133.107925 140.0
133.14592 236.0
133.234955 100.0
133.318222 160.0
133.70459 172.0
133.734497 76.0
133.773636 164.0
133.808167 164.0
133.851913 200.0
133.999329 220.0
134.040604 184.0
134.096451 12416.0
134.179092 52.0
134.252884 112.0
134.278244 96.0
134.328995 40.0
134.387405 164.0
134.438034 76.0
134.45282 60.0
134.506668 104.0
134.525146 32.0
134.711609 96.0
134.767639 60.0
134.867004 36.0
134.883194 56.0
134.984909 120.0
135.042725 76.0
135.074509 220.0
135.100494 1600.0
135.209305 144.0
135.271805 196.0
135.352844 40.0
135.443161 92.0
135.491806 76.0
135.540466 104.0
135.561325 68.0
135.607666 204.0
135.844177 196.0
135.982468 108.0
136.059998 56.0
136.33873 52.0
137.027496 124.0
137.158005 128.0
137.274567 152.0
137.547546 168.0
137.809097 192.0
138.103653 124.0
138.534363 108.0
138.611679 104.0
138.698395 200.0
138.733551 120.0
139.395432 160.0
139.41188 76.0
139.70578 136.0
139.764603 68.0
140.108353 124.0
140.186096 140.0
140.636566 120.0
140.81601 128.0
141.023468 168.0
141.064651 204.0
141.573425 212.0
141.942474 164.0
142.020737 244.0
142.407623 156.0
142.65712 156.0
142.745087 108.0
142.87352 60.0
142.985352 164.0
143.056763 176.0
143.0858 868.0
143.171051 168.0
143.216309 56.0
143.545197 72.0
143.996231 108.0
144.046387 228.0
144.084152 392.0
144.187363 224.0
144.369049 156.0
144.979507 92.0
145.041824 196.0
145.063614 448.0
145.080887 272.0
145.0914 200.0
145.09668 208.0
145.252838 80.0
145.483215 124.0
145.833908 160.0
145.869965 140.0
145.925262 160.0
146.066605 160.0
146.091202 140.0
146.201889 136.0
146.271683 48.0
146.375214 44.0
147.021255 156.0
147.062286 108.0
147.284424 184.0
147.327911 236.0
148.082611 176.0
148.581955 104.0
148.623199 188.0
148.649902 224.0
149.094299 120.0
149.162354 96.0
149.186661 136.0
149.276627 132.0
149.38121 116.0
150.041168 204.0
150.37291 164.0
151.247925 84.0
151.453613 204.0
152.292465 176.0
152.579971 208.0
152.668488 120.0
152.70784 144.0
153.074524 224.0
153.708038 136.0
153.865997 236.0
154.009232 108.0
154.157471 124.0
154.258804 136.0
154.409622 136.0
154.525894 200.0
154.622391 128.0
155.06076 208.0
155.556839 176.0
155.991547 96.0
156.091003 184.0
157.117172 184.0
157.167068 104.0
157.219467 192.0
157.68399 64.0
157.701492 84.0
157.801483 48.0
158.196396 136.0
158.319458 188.0
158.64267 136.0
158.670242 168.0
158.808167 172.0
159.036499 192.0
159.091293 216.0
159.310196 60.0
159.350388 208.0
159.423264 84.0
159.521286 80.0
159.59671 152.0
159.771378 152.0
159.911163 96.0
159.938721 156.0
159.979279 128.0
160.043671 132.0
160.077255 944.0
160.112 34664.0
160.175186 144.0
160.205597 112.0
160.211929 72.0
160.235092 56.0
160.256256 96.0
160.285034 148.0
160.3116 88.0
160.373672 76.0
160.404846 80.0
160.432571 76.0
160.46283 52.0
160.502121 68.0
160.571259 160.0
160.593964 72.0
160.669632 68.0
160.730194 96.0
160.784027 72.0
160.818512 92.0
160.896774 56.0
160.996353 76.0
161.033127 84.0
161.115158 3556.0
161.209976 60.0
161.230194 80.0
161.333817 76.0
161.369217 68.0
161.480057 212.0
161.605133 176.0
161.629745 32.0
161.668015 32.0
161.766403 44.0
161.824631 40.0
161.84996 44.0
161.945099 56.0
162.027252 40.0
162.085526 108.0
162.126999 1844.0
162.184357 116.0
162.253983 144.0
162.3535 124.0
162.552094 64.0
162.600311 92.0
162.701843 40.0
162.800873 52.0
162.910095 144.0
162.999023 84.0
163.10321 64.0
163.128891 356.0
163.225861 132.0
163.497437 108.0
163.589066 120.0
163.696014 92.0
163.99408 112.0
164.49913 140.0
164.527206 108.0
164.797928 40.0
165.724152 108.0
166.0728 52.0
166.570755 68.0
166.742905 144.0
167.373169 184.0
167.525116 92.0
168.143951 128.0
169.043289 28.0
169.185638 160.0
169.258133 148.0
169.416122 88.0
169.499023 156.0
169.98912 132.0
170.056595 176.0
170.09848 188.0
170.212357 256.0
171.033905 148.0
171.492325 164.0
171.534027 104.0
172.037491 144.0
172.468506 76.0
173.180191 172.0
174.153275 148.0
174.20845 176.0
174.576416 188.0
174.913177 156.0
175.113297 60.0
175.184418 220.0
175.769714 40.0
176.073074 324.0
176.105392 232.0
176.131409 72.0
176.210663 128.0
176.57016 216.0
176.705063 108.0
176.943253 100.0
177.067719 168.0
177.133926 32.0
177.637589 216.0
177.709213 164.0
178.085144 1440.0
178.121048 188.0
178.250885 64.0
179.09082 596.0
179.352692 236.0
180.439178 124.0
180.960892 156.0
181.333252 152.0
181.810623 172.0
182.436462 156.0
182.826477 176.0
184.223145 128.0
184.996567 84.0
185.134659 116.0
185.215912 64.0
186.094559 176.0
186.434113 60.0
186.934479 240.0
188.040924 184.0
188.076416 136.0
188.108154 544.0
188.226562 120.0
188.333069 160.0
188.395905 232.0
189.104111 128.0
189.503922 96.0
189.640945 128.0
190.313049 192.0
190.488815 92.0
190.554749 168.0
190.650909 120.0
190.689392 104.0
191.663574 196.0
192.684448 136.0
193.099075 96.0
193.414505 120.0
193.611084 248.0
193.755112 124.0
194.737091 200.0
195.832932 108.0
196.811768 120.0
197.79866 176.0
198.471024 224.0
198.510284 160.0
198.846939 160.0
199.102417 180.0
199.782623 152.0
200.923599 156.0
201.143707 128.0
201.471283 116.0
201.728439 196.0
201.926376 152.0
202.10524 156.0
202.316864 152.0
202.532074 44.0
203.064926 160.0
203.263504 184.0
203.368515 164.0
203.530334 128.0
204.050278 136.0
204.095779 156.0
204.414352 132.0
204.582291 100.0
204.8927 48.0
206.05957 152.0
206.084076 244.0
206.117844 2656.0
206.154663 384.0
206.539276 228.0
206.682877 60.0
206.868912 72.0
206.891815 60.0
206.914719 116.0
207.117416 376.0
207.327194 176.0
207.897873 172.0
208.044266 40.0
208.63031 136.0
208.69931 196.0
209.145218 192.0
209.836594 144.0
210.194244 32.0
210.939377 140.0
210.991425 136.0
213.031616 80.0
213.101334 140.0
213.235016 124.0
213.281509 128.0
213.741013 84.0
214.79567 144.0
215.411591 64.0
215.467087 144.0
215.82074 132.0
216.309311 128.0
217.355606 224.0
217.552246 104.0
217.64032 136.0
217.690247 140.0
218.360291 108.0
219.060837 84.0
220.134415 136.0
222.826874 132.0
223.287613 164.0
223.344131 104.0
224.079422 176.0
224.520584 168.0
225.556625 196.0
225.679199 84.0
226.373398 220.0
227.129715 172.0
227.230652 128.0
227.452728 180.0
227.780029 184.0
227.999359 116.0
228.281952 204.0
228.868729 208.0
230.101883 120.0
230.364624 132.0
231.283875 156.0
231.495804 160.0
231.919952 100.0
232.626724 136.0
232.769409 148.0
233.152176 176.0
233.246399 164.0
233.301117 168.0
233.325439 184.0
233.47139 120.0
233.590012 156.0
233.625092 120.0
233.675186 144.0
233.707504 168.0
233.751266 136.0
233.843826 124.0
233.872467 296.0
233.904709 152.0
233.979538 112.0
234.009171 180.0
234.031952 260.0
234.089111 184.0
234.097855 84.0
234.14946 59168.0
234.227127 92.0
234.260635 92.0
234.290009 72.0
234.297577 28.0
234.322083 76.0
234.348068 64.0
234.393311 160.0
234.44252 52.0
234.463852 108.0
234.518723 108.0
234.559799 88.0
234.624237 104.0
234.647934 124.0
234.680283 60.0
234.727173 148.0
234.792191 40.0
234.813278 72.0
234.854111 112.0
234.918167 52.0
234.952698 100.0
235.003586 280.0
235.098831 440.0
235.150848 8032.0
235.233368 96.0
235.256897 104.0
235.327118 48.0
235.357422 52.0
235.394302 52.0
235.421783 108.0
235.45842 76.0
235.485916 76.0
235.533936 72.0
235.565536 60.0
235.637497 64.0
235.672653 56.0
235.727264 48.0
235.757812 52.0
235.830109 116.0
235.913696 40.0
235.938156 48.0
235.971786 44.0
235.996246 80.0
236.063522 64.0
236.112442 40.0
236.155258 1256.0
236.245804 100.0
236.332703 40.0
236.431244 116.0
236.485703 84.0
236.546829 128.0
236.557755 52.0
236.569885 176.0
236.614273 116.0
236.635712 124.0
236.692963 120.0
236.771774 176.0
236.847015 112.0
236.908279 116.0
236.978745 128.0
237.064529 112.0
237.147278 76.0
237.177933 72.0
237.200623 84.0
237.35881 104.0
237.50296 76.0
237.598053 84.0
237.641006 128.0
237.708511 76.0
237.748398 92.0
237.80365 304.0
237.834335 88.0
238.015472 96.0
238.04924 44.0
238.095306 52.0
238.129089 124.0
238.424026 72.0
238.771439 60.0
239.04216 84.0
239.149872 88.0
239.430038 72.0
239.540924 76.0
242.296539 80.0
242.343002 136.0
243.658508 36.0
244.39537 40.0
244.491837 48.0
244.899689 52.0
246.815842 132.0
246.853363 112.0
246.940933 128.0
247.144272 104.0
247.616959 60.0
248.137054 168.0
248.482117 116.0
248.645294 100.0
249.364517 72.0
251.825195 96.0
251.875732 72.0
252.131653 96.0
252.394028 56.0
253.375198 44.0
259.058655 152.0
261.972321 60.0
262.787994 68.0
267.054382 112.0
270.385529 104.0
273.006775 180.0
273.352173 36.0
274.742584 104.0
277.945312 104.0
280.154419 208.0
280.372864 52.0
283.557861 168.0
293.05719 200.0
294.14975 396.0
295.144501 204.0
297.973785 84.0
298.809235 28.0
300.14563 112.0
301.353699 56.0
304.710968 52.0
306.178864 228.0
307.632843 88.0
309.037781 76.0
309.59436 68.0
310.751099 144.0
311.906464 128.0
319.186127 176.0
327.103516 144.0
334.640961 96.0
338.174622 128.0
339.229553 100.0
339.812683 200.0
347.939667 60.0
350.867584 160.0
351.072662 80.0
351.262878 128.0
351.878632 40.0
352.872437 112.0
355.30307 96.0
358.902466 92.0
359.332428 120.0
360.132721 80.0
360.65036 96.0
363.90448 40.0
364.033569 216.0
364.329834 52.0
364.379211 48.0
365.185944 3076.0
365.390503 116.0
365.466614 44.0
365.691132 80.0
366.144196 156.0
366.186432 720.0
367.196747 128.0
367.337219 100.0
368.463379 52.0
368.788208 40.0
368.876099 128.0
369.855347 64.0
373.623688 92.0
381.921326 116.0
383.864716 176.0
384.699677 88.0
387.75061 44.0
401.082703 44.0
401.780548 104.0
414.153931 108.0
415.718872 60.0
418.295685 200.0
421.865051 44.0
431.108948 44.0
434.495972 40.0
439.213348 108.0
440.206635 112.0
440.657745 112.0
441.142548 88.0
445.395752 64.0
446.080688 124.0
448.218689 88.0
448.724487 152.0
453.607269 60.0
457.298401 84.0
481.068054 88.0
497.879486 84.0
506.908661 60.0
509.573914 64.0
515.829102 68.0
538.33667 48.0
545.267212 116.0
555.868225 80.0
578.946045 68.0
581.93335 160.0
587.906982 52.0
588.838745 88.0
670.358459 48.0
672.58136 32.0
705.297424 64.0
732.657715 124.0
759.880127 112.0
767.238708 164.0
770.307007 172.0
790.830872 200.0
797.201904 116.0
819.058105 60.0
820.676575 92.0
829.515076 92.0
833.325745 136.0
835.102051 52.0
841.694824 116.0
854.451965 136.0
854.789429 72.0
862.727417 164.0
863.703979 196.0
867.650879 160.0
870.895935 148.0
909.318481 160.0
915.065186 136.0
925.704346 168.0
925.880005 160.0
931.690857 52.0
934.968201 120.0
941.454712 180.0
941.778442 184.0
942.315979 228.0
946.958923 212.0
948.521362 72.0
950.655701 144.0
954.02771 160.0
955.503662 164.0
956.285217 160.0
959.67334 176.0
965.001648 156.0
967.346375 164.0
970.189758 76.0
972.2677 144.0
973.894348 192.0
980.914551 196.0
981.44928 92.0
983.09613 136.0
986.718872 172.0
986.950256 160.0
990.649048 44.0
991.319458 120.0
1000.080505 148.0
1003.110229 64.0
1003.614624 188.0
1004.428162 196.0
1005.923645 200.0
1007.628784 156.0
1010.030945 140.0
1012.201721 136.0
1016.410645 120.0
1017.705505 76.0
1022.664062 168.0
1023.529846 136.0
1024.185791 176.0
1024.886597 220.0
1025.887207 160.0
1027.200806 172.0
1027.628296 256.0
1032.706787 68.0
1035.004517 236.0
1038.695679 276.0
1039.042114 148.0
1040.11377 228.0
1040.697998 144.0
1044.65686 192.0
1045.802246 88.0
1046.078979 192.0
1046.928955 216.0
1047.115723 108.0
1049.319458 40.0
1049.957886 132.0
1051.377197 208.0
1053.223633 216.0
1057.898804 196.0
1059.070923 204.0
1059.1875 208.0
1060.269531 44.0
1060.567627 204.0
1065.291504 136.0
1070.800903 148.0
1072.084229 160.0
1075.221069 184.0
1077.179932 160.0
1078.192627 168.0
1080.364258 156.0
1083.597534 180.0
1085.013184 180.0
1085.301636 64.0
1086.219849 212.0
1086.862793 168.0
1087.912842 216.0
1089.732056 208.0
1092.651123 220.0
1095.785034 180.0
1097.637207 164.0
1098.659424 116.0
1099.933105 176.0
1100.421631 148.0
1102.740234 156.0
1103.454102 196.0
1103.50708 188.0
1106.868286 160.0
1109.160522 156.0
1111.435303 244.0
1112.065796 184.0
1112.869019 152.0
1114.509521 120.0
1116.197876 180.0
1116.976074 256.0
1117.435059 196.0
1117.940796 132.0
1118.293457 120.0
1122.563843 164.0
1126.528442 52.0
1127.838135 60.0
1131.450439 192.0
1132.287476 144.0
1132.9104 28.0
1134.257324 168.0
1136.31604 184.0
1138.188721 156.0
1138.255859 156.0
1138.819946 80.0
1142.052856 152.0
1144.381348 192.0
1144.529419 176.0
1145.202881 152.0
1147.264771 184.0
1149.011475 208.0
1149.301636 204.0
1150.671753 140.0
1152.826416 80.0
1154.340698 196.0
1155.598755 164.0
1155.673218 148.0
1155.930298 56.0
1156.17395 168.0
1156.722168 136.0
1156.86438 164.0
1158.950317 144.0
1160.454956 156.0
1160.678711 188.0
1162.618896 180.0
1163.474121 192.0
1163.596313 48.0
1163.840698 68.0
1164.112305 156.0
1164.377197 184.0
1167.435303 160.0
1168.108643 96.0
1169.401489 276.0
1169.986938 128.0
1170.306885 36.0
1170.511108 212.0
1171.110474 176.0
1175.139282 160.0
1176.381348 132.0
1178.300415 228.0
1179.667114 152.0
1180.125244 128.0
1185.142212 152.0
1185.519165 152.0
1187.123291 132.0
1187.85022 200.0
1191.206909 156.0
1191.825317 192.0
1192.203247 140.0
1192.691162 204.0
1193.715576 184.0
1194.871094 68.0
1194.994995 108.0
1195.779419 244.0
1202.161133 184.0
1203.051514 120.0
1205.338501 148.0
1206.253296 160.0
1206.553955 136.0
1209.161743 152.0
1210.103149 176.0
1211.869385 140.0
1213.220825 196.0
1213.442627 192.0
1213.934937 156.0
1214.441162 200.0
1214.649292 52.0
1217.675537 88.0
1218.439575 224.0
1219.753052 220.0
1220.747192 64.0
1220.907227 188.0
1223.210205 184.0
1223.704102 176.0
1223.962036 144.0
1225.20874 136.0
1226.330688 180.0
1226.679199 80.0
1228.541138 120.0
1229.4552 176.0
1233.939575 148.0
1237.094727 156.0
1239.707275 60.0
1239.922485 204.0
1240.499268 140.0
1242.631226 216.0
1242.708374 152.0
1243.494263 72.0
1244.828125 152.0
1246.197876 240.0
1247.167603 80.0
1248.651123 144.0
1249.488159 208.0
1249.973755 96.0
1250.030029 152.0
1250.628174 168.0
1254.072388 212.0
1254.171143 224.0
1254.629272 164.0
1256.853882 116.0
1256.935669 64.0
1258.297852 148.0
1262.629395 116.0
1264.468872 192.0
1264.921875 172.0
1265.410278 172.0
1266.472534 148.0
1269.52002 148.0
1272.983032 116.0
1273.7146 188.0
1275.421387 180.0
1276.152832 216.0
1276.393921 168.0
1279.560181 60.0
1284.427368 156.0
1287.796387 180.0
1289.46106 176.0
1292.049561 88.0
1292.47168 92.0
1292.722168 144.0
1293.129761 204.0
1293.480835 176.0
1293.752808 236.0
1294.325562 172.0
1295.113403 116.0
1295.686401 112.0
1298.187988 164.0
1298.302734 124.0
1298.876465 160.0
1299.349976 44.0
1300.167969 264.0
1300.605713 128.0
1302.472656 184.0
1302.953979 212.0
1303.169434 188.0
1304.312134 132.0
1308.441284 204.0
1308.844482 76.0
1309.478271 236.0
1309.939209 136.0
1312.403931 84.0
1312.468872 140.0
1314.575195 192.0
1315.268066 68.0
1315.333008 140.0
1315.708374 120.0
1317.651123 172.0
1317.752197 188.0
1317.860596 148.0
1318.098999 216.0
1319.334961 176.0
1320.274902 172.0
1321.208008 244.0
1321.627686 148.0
1322.430908 220.0
1323.076172 148.0
1325.28418 188.0
1326.487183 164.0
1327.023682 136.0
1327.127075 196.0
1327.357178 148.0
1327.951904 240.0
1328.067871 184.0
1328.227417 144.0
1328.365356 140.0
1329.598755 180.0
1331.973022 180.0
1332.270752 136.0
1332.997437 40.0
1333.98584 216.0
1334.421997 64.0
1335.920166 160.0
1336.116089 164.0
1336.298462 44.0
1336.909668 172.0
1337.135254 160.0
1338.809692 172.0
1339.77124 172.0
1340.798584 216.0
1341.090088 184.0
1341.61499 144.0
1342.234619 204.0
1343.744507 224.0
1344.007202 220.0
1346.27002 268.0
1346.474487 168.0
1346.657104 240.0
1347.025391 124.0
1347.256104 160.0
1349.5802 128.0
1350.706421 164.0
1352.806641 176.0
1353.19458 116.0
1353.692505 76.0
1353.765747 132.0
1353.817017 44.0
1358.984741 236.0
1359.424561 192.0
1359.491089 64.0
1360.136963 224.0
1360.804932 136.0
1362.957031 136.0
1364.684326 124.0
1365.11084 168.0
1365.272583 108.0
1365.986084 144.0
1366.287598 212.0
1366.397949 140.0
1366.486328 408.0
1367.001343 68.0
1367.567993 228.0
1367.707886 188.0
1368.797485 88.0
1369.18103 152.0
1369.762207 152.0
1369.97583 184.0
1372.872559 136.0
1373.307617 156.0
1373.632202 196.0
1373.897827 132.0
1375.211304 156.0
1376.458862 128.0
1376.96106 136.0
1379.894653 204.0
1380.515747 36.0
1381.01123 156.0
1381.292358 148.0
1381.640015 144.0
1382.120972 128.0
1382.809204 196.0
1383.845581 232.0
1383.919556 124.0
1386.14917 124.0
1386.986572 92.0
1387.972534 160.0
1388.12085 120.0
1388.855103 192.0
1390.011353 168.0
1390.524536 152.0
1390.940186 176.0
1391.265625 176.0
1391.615723 128.0
1391.875366 160.0
1392.477173 208.0
1394.438477 152.0
1394.772949 84.0
1394.995972 192.0
1395.048096 88.0
1395.352905 100.0
1396.103882 192.0
1396.810425 172.0
1396.899658 148.0
1397.048462 96.0
1399.780029 192.0
1400.316162 168.0
1402.57373 152.0
1403.036011 172.0
1403.5802 192.0
1404.288696 160.0
1404.363281 148.0
1405.154053 164.0
1405.930054 156.0
1408.304199 104.0
1409.205566 192.0
1409.850708 164.0
1409.977783 176.0
1410.942017 180.0
1412.038086 172.0
1412.101074 124.0
1414.547729 68.0
1414.989502 200.0
1415.618408 136.0
1417.318848 256.0
1418.532959 168.0
1418.915283 196.0
1419.545044 248.0
1419.755005 208.0
1420.437622 224.0
1421.144287 124.0
1421.585449 140.0
1422.30603 180.0
1422.61377 160.0
1422.793945 116.0
1423.064209 160.0
1423.724976 136.0
1425.107178 28.0
1425.542969 180.0
1425.71582 148.0
1426.324585 40.0
1427.061279 116.0
1427.493164 164.0
1427.993774 144.0
1428.715942 156.0
1429.889771 164.0
1431.320068 200.0
1432.573608 180.0
1432.984619 200.0
1434.951782 152.0
1435.298584 84.0
1435.472046 132.0
1435.894287 216.0
1436.769287 120.0
1436.988037 136.0
1437.199341 220.0
1437.27478 140.0
1440.067993 152.0
1440.740234 140.0
1440.982056 180.0
1442.221313 136.0
1442.516113 168.0
1442.947021 164.0
1443.0 68.0
1443.090698 164.0
1443.499023 180.0
1443.846924 136.0
1444.013306 200.0
1444.595703 200.0
1444.648682 180.0
1445.32959 180.0
1445.96521 152.0
1446.502563 120.0
1447.959351 260.0
1449.312378 216.0
1450.661377 156.0
1451.305786 168.0
1451.844116 168.0
1451.927612 168.0
1453.391602 168.0
1453.702759 164.0
1453.793823 208.0
1455.456177 200.0
1455.592896 76.0
1457.514648 160.0
1457.879395 208.0
1459.848389 212.0
1459.90918 144.0
1460.517578 204.0
1462.297974 212.0
1462.678589 124.0
1462.884155 204.0
1463.455078 176.0
1463.812988 120.0
1464.947876 136.0
1465.024048 212.0
1465.19165 132.0
1466.669922 84.0
1467.203613 140.0
1468.049927 220.0
1471.987427 148.0
1472.384644 140.0
1473.217163 148.0
1473.560913 180.0
1475.693359 176.0
1475.922729 132.0
1476.136841 132.0
1476.565063 192.0
1477.391113 52.0
1477.880737 164.0
1478.308716 100.0
1478.93689 180.0
1479.074585 168.0
1479.799683 184.0
1481.417847 60.0
1481.739624 180.0
1482.812378 208.0
1483.862549 128.0
1484.115601 152.0
1484.24585 64.0
1484.989746 116.0
1485.526733 60.0
1485.687744 32.0
1487.084351 152.0
1487.222534 172.0
1487.560181 236.0
1487.890381 160.0
1488.796387 272.0
1489.141968 148.0
1489.272583 192.0
1490.632324 188.0
1490.816772 168.0
1492.60022 176.0
1493.830688 140.0
1494.730957 180.0
1496.116333 152.0
1496.809204 44.0
1496.994019 176.0
1497.278931 180.0
1497.664062 184.0
1500.045044 168.0
1501.355835 240.0
1503.484985 60.0
1504.588867 36.0
1504.681396 176.0
