>compound Trilostane
>formula C20H27NO3 
>ionization [M+H]+
>parentmass 330.206
#inchi InChI=1S/C20H27NO3/c1-18-7-6-14-12(13(18)3-4-15(18)22)5-8-20-17(24-20)16(23)11(10-21)9-19(14,20)2/h12-15,17,22-23H,3-9H2,1-2H3/t12-,13-,14-,15-,17+,18-,19+,20+/m0/s1
#inchikey KVJXBPDAXMEYOA
#Ion_Source LC-ESI
#Instrument qTof
#Compound_Source Isolated
#PI Sirenas
#Data_Collector Ed Esquenazi 
#Scan -1
#Precursor_MZ 330.206
#ExactMass 0.0
#Charge 1
#CAS_Number N/A
#Pubmed_ID N/A
#Smiles N/A
#INCHI_AUX N/A
#Library_Class 3
#SpectrumID CCMSLIB00000006244
#IonMode Positive
#UpdateWorkflowName UPDATE-SINGLE-ANNOTATED-BRONZE
#LibraryQualityString Bronze
#TaskID d19310cd93df49b68e9fcbec27720eb5
##Scan# 3
#SpectrumFile Trilostane.mgf
#LibraryName fda_library.mgf
#MQScore -1
#Organism fda_library
#TIC_Query 0
#RT_Query -1
#MZErrorPPM -1
#SharedPeaks 0
#MassDiff 0
#LibMZ -1
#SpecMZ 330.206
#SpecCharge 0
#internalFilename spec-00000.mgf

>collision 10
105.06987 425.510315
105.348732 6.818182
105.447952 2.375
105.462334 10.41667
105.491714 2.482143
105.619484 4.061275
106.303459 2.354167
107.084724 116.885803
107.10508 2.386905
107.35334 4.670455
107.476097 3.125
108.080467 120.622398
108.129829 22.96587
109.060753 46.990002
109.100632 8.777778
109.479691 12.18382
110.022797 11.77174
110.198051 26.03101
111.043205 17.36915
111.080589 39.97707
112.038643 272.820587
112.329956 7.783046
112.466438 2.347222
112.699814 34.933769
115.049255 36.5984
116.06292 20.781389
117.055588 78.598618
117.067566 203.239304
117.110329 1.666667
117.117859 3.760417
119.085411 205.436401
121.061691 44.722229
121.099182 41.098042
123.042427 50.612499
123.068192 31.46032
123.081223 62.761318
123.115311 22.157351
129.071274 46.376099
130.359543 6.344697
130.396881 6.177083
130.542328 5.030303
131.085953 179.796097
131.135147 12.44907
131.298843 11.87879
131.330521 20.66712
131.490036 4.017857
132.094635 56.428028
133.096634 57.701771
133.416016 15.15648
133.563629 50.453869
134.916855 7.125
135.081131 3.490385
135.258545 14.6832
135.949112 28.93519
136.071976 54.637119
136.412918 32.09515
137.183365 16.34626
137.921463 14.8442
139.074081 26.742041
142.080826 19.76333
142.99028 77.235512
143.080521 46.61335
144.093719 62.30069
144.207703 22.523439
144.992264 10.66667
145.064514 51.90139
145.098999 275.622406
145.226212 41.386929
145.537354 10.35648
145.688477 6.00641
147.114731 388.908386
147.166779 3.449074
152.947296 21.191669
154.062561 26.9312
154.081558 4.558333
154.121841 69.309151
154.95079 29.01437
155.075134 31.710291
155.084427 44.210209
155.107513 4.335526
156.07637 46.84362
156.23085 2.347222
156.392639 4.225
156.557526 5.388889
158.106598 77.197281
159.114853 41.558262
160.124207 29.29784
160.36792 11.00347
163.074356 82.203003
165.08989 23.722969
167.08252 18.625
167.985336 5.678764
168.071579 25.004869
168.089798 16.16667
169.09465 21.680559
169.453934 11.81037
169.770401 10.11667
170.091019 33.291672
171.07486 12.16263
171.902191 16.04167
173.079361 23.370609
173.098999 47.438599
173.134171 69.424812
174.91008 17.190479
175.111923 59.981812
175.149994 18.299379
178.09314 38.00695
182.095795 31.592649
182.107529 31.70455
183.112564 31.64279
183.426666 6.708333
184.112045 16.296881
185.093079 61.773399
185.12999 13.66667
186.137329 23.11343
192.086044 10.06618
195.117233 60.27573
196.115829 71.633987
198.098465 38.306999
201.129547 40.361698
202.176086 43.520061
204.10022 17.342051
205.096161 31.99181
206.403107 6.741667
209.13298 63.34922
210.942368 48.669121
211.105499 44.041672
211.148087 15.00298
216.101822 7.895833
223.147949 8.375
226.117645 23.993219
228.17247 33.373348
235.239349 9.667592
239.140656 8.888888
258.200623 12.37306
267.377838 5.592949
282.120148 32.15625
282.153595 3.010417
284.173248 29.333799
303.194641 5.906746
873.965027 7.013889
