>compound ROFECOXIB
>formula C17H14O4S
>ionization [M+H]+
>parentmass 315.069489
#inchi InChI=1S/C17H14O4S/c1-22(19,20)14-9-7-12(8-10-14)15-11-21-17(18)16(15)13-5-3-2-4-6-13/h2-10H,11H2,1H3
#inchikey RZJQGNCSTQAWON
#Ion_Source LC-ESI
#Instrument qTof
#Compound_Source Commercial
#PI Dorrestein
#Data_Collector Garg_Neha
#Scan -1
#Precursor_MZ 315.069
#ExactMass 314.061
#Charge 1
#CAS_Number N/A
#Pubmed_ID N/A
#Smiles CS(=O)(=O)c1ccc(cc1)C2=C(C(=O)OC2)c3ccccc3
#INCHI_AUX N/A
#Library_Class 1
#SpectrumID CCMSLIB00000078997
#IonMode Positive
#UpdateWorkflowName UPDATE-SINGLE-ANNOTATED-GOLD
#LibraryQualityString Gold
#TaskID 278b19f5865741e282cec7349aa7e7a1
##Scan# 1310
#SpectrumFile NCP003352_C2_D11_BC5_01_15719.mzXML
#LibraryName NIHcollectionI_05062014.mgf
#MQScore -1
#Organism NIHcollectionI_05062014
#TIC_Query 0
#RT_Query -1
#MZErrorPPM -1
#SharedPeaks 0
#MassDiff 0
#LibMZ -1
#SpecMZ 315.069
#SpecCharge 0
#internalFilename spec-00000.mgf

>collision 10
48.814171 168.0
49.516136 200.0
52.917088 156.0
52.972122 140.0
55.877659 196.0
56.845898 164.0
62.439354 144.0
65.348969 140.0
66.217445 212.0
69.416618 184.0
76.510696 176.0
76.799965 148.0
86.217079 188.0
89.430679 184.0
91.50544 196.0
94.312019 140.0
99.299263 184.0
101.072258 184.0
101.946548 168.0
103.052879 176.0
105.036209 172.0
106.185707 164.0
106.592178 164.0
108.754456 172.0
115.62397 172.0
117.53437 156.0
121.797195 168.0
130.041733 192.0
131.049011 328.0
134.87709 164.0
135.708176 140.0
148.764694 196.0
152.059036 244.0
153.066895 136.0
157.030533 164.0
159.044678 144.0
163.78067 296.0
164.341507 180.0
164.594193 156.0
165.070114 168.0
166.040039 172.0
166.078201 372.0
166.104172 160.0
175.372009 148.0
177.067078 96.0
178.078934 1856.0
179.082199 440.0
180.098083 180.0
180.715942 144.0
181.06044 196.0
181.993622 180.0
183.271225 208.0
184.434357 160.0
185.108002 184.0
188.044052 188.0
188.65863 144.0
189.070435 1096.0
190.078445 1412.0
190.11853 156.0
191.085709 4188.0
191.176544 192.0
191.611588 164.0
192.092789 5432.0
192.241486 112.0
193.032333 228.0
193.067368 204.0
193.095993 656.0
193.223907 176.0
193.503433 152.0
194.075836 140.0
195.079193 160.0
195.104202 164.0
203.851547 188.0
205.098099 176.0
205.908401 188.0
206.072968 3420.0
207.080231 1840.0
208.090439 392.0
209.020111 132.0
209.094116 156.0
210.061707 152.0
217.062012 168.0
217.834244 152.0
218.071533 2272.0
219.076996 504.0
222.065598 924.0
223.079514 224.0
229.215088 148.0
231.450317 152.0
236.083557 2616.0
237.026749 124.0
237.084717 856.0
238.087585 224.0
244.469849 152.0
254.71994 208.0
257.062469 176.0
257.184479 140.0
258.453186 144.0
262.813385 196.0
267.786224 168.0
267.952332 160.0
268.024017 268.0
269.062866 11184.0
269.136963 192.0
269.48468 132.0
270.066956 1572.0
270.499573 140.0
270.522491 152.0
270.905609 204.0
271.062286 828.0
272.048645 368.0
272.082977 220.0
287.07309 120.0
287.154572 148.0
288.076508 152.0
296.41864 144.0
296.908844 152.0
297.058228 11628.0
298.059937 1412.0
298.10611 184.0
298.155029 156.0
298.185974 192.0
299.057251 948.0
299.897522 116.0
299.937897 144.0
300.242462 152.0
313.665405 152.0
314.836792 140.0
314.893066 136.0
315.026062 184.0
315.069489 25888.0
315.185272 188.0
315.223297 180.0
315.779694 120.0
315.960785 188.0
316.022247 144.0
316.071472 2572.0
316.239075 144.0
317.066681 1076.0
317.157715 168.0
317.402313 144.0
317.936188 96.0
318.067505 128.0
318.142578 112.0
318.215149 136.0
318.285583 108.0
318.355743 116.0
333.07373 172.0
333.101318 156.0
356.085571 144.0
399.018402 160.0
1834.161133 152.0
1920.590332 140.0
