>compound MLS001158944-01!(2S)-3-(1H-indol-3-yl)-2-[[(2S)-4-methyl-2-[(3-oxo-2,4-dihydroquinoxaline-1-carbonyl)amino]pentanoyl]amino]propanoic acid
>formula C26H29N5O5
>ionization [M+H]+
>parentmass 492.225
#inchi InChI=1S/C26H29N5O5/c1-15(2)11-20(30-26(36)31-14-23(32)28-19-9-5-6-10-22(19)31)24(33)29-21(25(34)35)12-16-13-27-18-8-4-3-7-17(16)18/h3-10,13,15,20-21,27H,11-12,14H2,1-2H3,(H,28,32)(H,29,33)(H,30,36)(H,34,35)/t20-,21-/m0/s1
#inchikey CXOIAIBSUNQVID
#Ion_Source LC-ESI
#Instrument qTof
#Compound_Source NIH Natural Product Library
#PI Dorrestein
#Data_Collector VVP/LMS
#Scan -1
#Precursor_MZ 492.225
#ExactMass 491.217
#Charge 1
#CAS_Number N/A
#Pubmed_ID N/A
#Smiles CC(C)C[C@H](NC(=O)N1CC(=O)Nc2ccccc12)C(=O)N[C@@H](Cc3c[nH]c4ccccc34)C(=O)O
#INCHI_AUX N/A
#Library_Class 1
#SpectrumID CCMSLIB00000079649
#IonMode Positive
#UpdateWorkflowName UPDATE-SINGLE-ANNOTATED-GOLD
#LibraryQualityString Gold
#TaskID b1d8e8f6646f4e71acdff9ca3d919d08
##Scan# 1951
#SpectrumFile p1-C09_GC9_01_17905.mzXML
#LibraryName NIH_Natural_Products_Library.mgf
#MQScore -1
#Organism NIH_Natural_Products_Library
#TIC_Query 0
#RT_Query -1
#MZErrorPPM -1
#SharedPeaks 0
#MassDiff 0
#LibMZ -1
#SpecMZ 492.225
#SpecCharge 0
#internalFilename spec-00000.mgf

>collision 10
95.067635 332.0
95.092865 268.0
95.471703 172.0
95.862976 84.0
95.927292 168.0
96.759499 188.0
96.841736 136.0
97.063187 156.0
97.725105 200.0
97.748718 120.0
97.894379 76.0
97.981041 152.0
98.046066 132.0
98.099007 332.0
98.142654 148.0
98.747581 72.0
98.792412 272.0
98.948753 180.0
99.041824 136.0
99.130974 140.0
99.156738 124.0
99.275681 184.0
99.297501 228.0
99.321297 160.0
99.361961 20.0
99.46019 216.0
99.487984 152.0
99.669693 180.0
100.331467 168.0
100.612755 160.0
100.799744 148.0
101.012421 204.0
101.084442 60.0
101.144485 96.0
101.446953 160.0
101.834206 196.0
102.570618 248.0
103.123657 100.0
103.190361 148.0
103.370377 136.0
103.546501 68.0
103.785614 228.0
103.96006 196.0
104.06501 208.0
104.392357 84.0
104.583984 252.0
104.66745 108.0
105.022041 68.0
105.222023 148.0
105.326164 212.0
105.581642 168.0
105.767822 156.0
106.058678 156.0
106.440254 144.0
106.621025 152.0
106.910988 224.0
107.059212 188.0
107.355957 208.0
107.430206 156.0
107.549881 108.0
107.870049 116.0
108.48484 144.0
108.71299 128.0
108.972542 244.0
109.06543 168.0
109.074043 156.0
109.282326 168.0
109.36628 152.0
109.379601 204.0
109.411362 188.0
109.575882 152.0
109.967903 188.0
110.086906 124.0
110.15374 116.0
110.341812 172.0
110.687042 168.0
110.764526 92.0
110.919586 180.0
111.751198 140.0
111.919571 204.0
112.018555 156.0
112.07605 400.0
112.166054 164.0
112.235626 168.0
112.252495 140.0
112.364281 80.0
112.393822 160.0
112.423363 212.0
112.668289 144.0
113.078499 132.0
113.101776 156.0
113.400421 132.0
113.504295 144.0
113.603973 128.0
113.661255 140.0
113.943634 132.0
114.090271 136.0
114.29232 108.0
114.375313 92.0
114.488152 124.0
114.711868 68.0
114.758766 116.0
114.865395 156.0
114.880325 128.0
114.974205 128.0
115.021164 176.0
115.055321 352.0
115.098015 44.0
115.166351 172.0
115.570381 176.0
115.589645 140.0
115.805862 160.0
115.942978 136.0
116.16877 64.0
116.346214 40.0
116.466469 160.0
116.502983 208.0
117.051201 236.0
117.064934 248.0
117.09449 128.0
117.394043 164.0
117.452271 164.0
118.064056 292.0
118.106735 132.0
118.173798 188.0
118.437897 224.0
118.572227 28.0
118.938766 192.0
119.061005 3552.0
119.425468 188.0
119.523361 72.0
119.538597 244.0
119.586472 236.0
119.667015 108.0
119.765007 220.0
119.828178 164.0
119.867401 168.0
119.884834 148.0
119.930603 168.0
120.043053 280.0
120.062531 320.0
120.122482 100.0
120.377831 92.0
120.696854 180.0
120.976891 48.0
121.020676 168.0
121.07679 4336.0
121.165222 84.0
121.301094 204.0
121.426071 164.0
121.452385 52.0
121.632309 232.0
121.834335 220.0
121.858498 156.0
121.939804 144.0
121.988159 56.0
122.023331 84.0
122.079147 356.0
122.254288 116.0
122.340126 168.0
122.410576 152.0
122.445816 168.0
122.469612 148.0
122.516296 148.0
122.763153 124.0
122.846962 132.0
122.920464 192.0
123.056618 104.0
123.094154 200.0
123.235512 124.0
123.649017 180.0
123.739777 216.0
123.910309 204.0
124.238411 136.0
124.45813 172.0
124.549179 120.0
125.067245 72.0
125.341164 180.0
126.287704 236.0
126.319016 236.0
126.580872 40.0
126.809372 152.0
127.219849 120.0
127.291695 276.0
127.410728 172.0
127.862679 176.0
127.878433 212.0
127.896439 232.0
128.502625 140.0
128.531586 124.0
128.766724 40.0
128.78479 232.0
128.877411 184.0
129.361389 220.0
129.896164 140.0
130.064941 3472.0
130.170776 200.0
130.195755 76.0
130.329773 88.0
130.388855 48.0
130.500244 232.0
130.545715 144.0
130.582108 168.0
130.607117 32.0
130.755005 96.0
130.841507 44.0
130.861984 60.0
130.896149 76.0
131.066849 584.0
131.208282 36.0
131.29335 192.0
131.319168 80.0
131.335983 196.0
131.363358 60.0
131.406693 184.0
131.806259 180.0
131.909103 188.0
131.92511 52.0
132.043594 200.0
132.080994 560.0
132.129318 148.0
132.222458 96.0
132.279678 152.0
132.678268 48.0
132.834198 136.0
133.081619 168.0
133.300262 156.0
133.433395 160.0
133.48645 88.0
133.730301 160.0
133.774048 36.0
133.909897 180.0
134.177185 188.0
134.377823 140.0
135.029236 164.0
135.045425 228.0
135.258286 56.0
135.281433 208.0
135.508392 236.0
135.587173 96.0
135.747116 204.0
135.849167 232.0
135.941971 196.0
135.995361 96.0
136.139297 192.0
136.171799 156.0
136.878754 196.0
137.307541 184.0
137.680939 180.0
137.753342 76.0
138.115646 184.0
138.420776 188.0
138.705704 192.0
138.813538 116.0
139.027008 236.0
139.097427 104.0
139.178162 196.0
139.355698 184.0
139.41214 156.0
139.795441 116.0
139.875458 200.0
140.021439 56.0
140.929611 132.0
141.043045 168.0
141.097412 164.0
141.213287 144.0
142.06723 504.0
142.607376 116.0
142.638275 36.0
143.068558 184.0
143.335587 48.0
143.445206 164.0
143.609741 212.0
143.776337 120.0
144.046539 168.0
144.083099 712.0
144.225739 108.0
144.948471 160.0
145.025162 176.0
145.089233 216.0
145.951797 124.0
146.029251 176.0
146.060638 2080.0
146.098648 144.0
146.240479 188.0
146.36084 124.0
146.440308 64.0
146.514984 56.0
146.65715 76.0
146.729462 160.0
146.770462 120.0
146.789749 192.0
146.811447 148.0
146.94426 192.0
146.96582 88.0
146.982712 160.0
147.017365 200.0
147.055878 40016.0
147.129562 180.0
147.247528 120.0
147.286896 68.0
147.31105 36.0
147.343536 36.0
147.387161 80.0
147.450058 60.0
147.562378 124.0
147.596237 36.0
147.643692 60.0
147.660492 96.0
147.746185 160.0
147.775223 76.0
147.794571 52.0
147.951294 200.0
147.976089 204.0
148.005142 72.0
148.05835 3240.0
148.091873 64.0
148.116547 80.0
148.214005 160.0
148.378265 60.0
148.509201 132.0
148.693588 92.0
148.762909 136.0
148.839249 144.0
148.870819 140.0
148.895096 228.0
148.940125 116.0
148.975998 116.0
149.029037 148.0
149.070831 1380.0
149.136307 100.0
149.182373 120.0
149.213409 112.0
149.317963 96.0
149.36174 96.0
149.461487 104.0
149.707336 188.0
149.868103 148.0
149.897339 112.0
150.038712 112.0
150.055771 140.0
150.083115 224.0
150.341537 52.0
150.4095 156.0
150.783173 300.0
150.922516 236.0
150.944519 172.0
151.025223 212.0
151.196487 108.0
151.306625 40.0
151.399673 108.0
151.485397 168.0
151.637314 164.0
151.740265 200.0
151.858398 68.0
152.149963 220.0
152.296341 144.0
152.447159 132.0
153.022293 116.0
153.276413 132.0
153.340485 84.0
153.873291 124.0
154.05983 112.0
155.467316 100.0
156.075897 176.0
156.222641 104.0
156.292297 108.0
156.568604 124.0
156.638336 100.0
156.882553 52.0
157.069565 292.0
157.088089 168.0
157.146896 188.0
157.813751 36.0
158.054886 460.0
158.082214 712.0
158.274139 48.0
158.404358 100.0
158.58728 60.0
158.965958 120.0
159.006638 152.0
159.063843 272.0
159.094131 2052.0
159.121582 116.0
159.161743 124.0
159.365204 120.0
159.538605 188.0
159.598938 192.0
159.986389 52.0
160.080231 160.0
160.094849 552.0
160.114807 204.0
160.170212 196.0
160.311295 52.0
160.876266 216.0
161.07518 176.0
161.219757 224.0
161.715439 180.0
161.988907 112.0
162.07251 76.0
162.480698 68.0
163.016434 164.0
163.227417 188.0
163.850983 140.0
163.917221 220.0
164.220596 188.0
164.851166 88.0
164.930389 184.0
165.078674 52.0
165.183533 60.0
165.22702 136.0
166.058456 188.0
166.375122 188.0
166.426468 180.0
166.727005 152.0
166.762985 120.0
166.80925 152.0
167.063828 192.0
167.081848 208.0
167.424179 160.0
167.76944 128.0
168.076187 64.0
168.531677 196.0
169.077789 600.0
169.239456 92.0
169.361176 172.0
169.514023 68.0
169.695465 152.0
169.716202 60.0
170.063095 1460.0
170.151901 60.0
170.235153 92.0
170.315674 208.0
170.557312 72.0
170.609299 100.0
170.791321 72.0
170.848557 144.0
170.955231 156.0
171.070145 108.0
171.092926 164.0
171.718781 200.0
172.029037 56.0
172.09169 116.0
172.22226 96.0
173.004105 220.0
173.06955 156.0
173.958298 80.0
174.336319 284.0
174.640228 256.0
174.683548 152.0
174.70723 68.0
174.749313 128.0
174.849304 76.0
174.917236 188.0
174.98558 176.0
175.050674 24752.0
175.138916 44.0
175.159241 100.0
175.199509 124.0
175.239014 84.0
175.281174 72.0
175.321228 60.0
175.434036 76.0
175.482224 52.0
175.536865 124.0
175.581696 64.0
175.647629 164.0
175.687195 60.0
175.816483 232.0
175.887741 176.0
176.052078 1764.0
176.086029 460.0
176.147003 120.0
176.223129 64.0
176.260117 44.0
176.386963 72.0
176.590561 68.0
176.669907 44.0
176.71225 200.0
176.743988 56.0
176.775742 68.0
176.983978 120.0
177.053711 452.0
177.080414 144.0
177.138458 84.0
177.162292 128.0
177.217941 44.0
177.315979 220.0
177.400803 64.0
177.440567 40.0
177.511688 68.0
177.740265 32.0
177.859695 52.0
178.082718 128.0
178.460068 152.0
178.497284 144.0
179.434494 68.0
180.050873 152.0
180.261917 56.0
181.064453 124.0
181.091232 168.0
181.399368 168.0
182.083298 200.0
182.422104 212.0
183.08667 196.0
183.741653 44.0
184.016937 160.0
184.092529 44.0
184.114136 176.0
184.165451 132.0
185.070587 1768.0
185.109283 164.0
185.667511 40.0
186.028381 148.0
186.074219 408.0
187.017792 128.0
187.053284 184.0
187.080261 160.0
187.382675 100.0
187.589798 52.0
187.862488 112.0
188.070084 3852.0
188.460373 60.0
188.523224 68.0
188.542343 188.0
188.98259 64.0
189.074615 352.0
189.111206 64.0
189.136871 580.0
189.168686 72.0
190.093964 204.0
190.151505 244.0
190.380539 204.0
190.625015 132.0
190.693726 68.0
190.715714 60.0
190.84491 44.0
190.998917 108.0
191.444763 32.0
192.077164 360.0
193.064011 120.0
193.255508 28.0
194.028214 120.0
195.091461 188.0
195.60051 160.0
195.823257 160.0
196.040558 68.0
196.402985 180.0
196.564804 80.0
197.066483 156.0
197.257416 124.0
197.757385 216.0
198.068878 56.0
198.116501 168.0
198.674362 100.0
199.07547 132.0
199.300446 108.0
201.067307 312.0
201.108368 92.0
202.073334 256.0
202.357819 144.0
202.621201 180.0
203.315887 196.0
203.895218 124.0
204.077545 5032.0
204.182358 44.0
204.273376 120.0
204.771469 60.0
205.021576 188.0
205.077133 716.0
205.398514 100.0
205.452713 152.0
205.506927 116.0
205.535461 68.0
205.566849 68.0
206.815735 112.0
207.491776 72.0
207.629395 160.0
207.772812 44.0
208.522247 72.0
208.74649 48.0
208.93631 144.0
209.00824 156.0
209.15213 76.0
209.713776 176.0
210.033829 220.0
210.126144 132.0
210.738205 136.0
211.108185 204.0
212.083832 72.0
212.136002 148.0
212.254883 88.0
212.649399 96.0
213.102402 176.0
213.305313 112.0
213.410477 176.0
214.059341 124.0
214.545914 100.0
214.607132 128.0
215.050537 220.0
215.114517 156.0
215.97673 116.0
216.035233 120.0
216.05571 176.0
216.087891 172.0
216.120071 196.0
216.427399 40.0
216.447906 80.0
217.134171 1508.0
217.240356 220.0
217.98494 132.0
218.089951 496.0
218.115082 172.0
218.138992 316.0
218.231842 48.0
219.105942 228.0
219.787003 176.0
222.088562 184.0
222.109314 212.0
223.044632 240.0
223.356842 160.0
225.031952 144.0
225.138855 140.0
226.035904 192.0
226.11969 108.0
226.371155 76.0
227.050491 356.0
227.158676 188.0
227.894897 20.0
228.16539 176.0
228.297684 200.0
228.658691 68.0
228.8694 76.0
229.119385 148.0
229.169739 212.0
230.014984 172.0
230.658371 52.0
232.144989 1712.0
232.870209 180.0
233.152466 304.0
233.371613 64.0
235.144485 96.0
236.070129 188.0
237.133087 352.0
238.132614 124.0
238.237045 76.0
239.650589 236.0
241.000549 184.0
242.092453 164.0
242.392929 184.0
242.733887 176.0
243.051666 232.0
243.115448 264.0
244.041092 128.0
244.072174 180.0
244.909302 192.0
247.038116 156.0
247.983719 172.0
248.629089 36.0
249.892944 56.0
249.971619 172.0
252.043259 140.0
252.071701 156.0
252.783173 180.0
253.129959 268.0
254.167877 92.0
254.860062 212.0
255.085709 232.0
255.149277 148.0
255.960602 52.0
256.170807 164.0
257.785187 64.0
258.133606 112.0
258.3479 128.0
258.456665 164.0
259.02652 160.0
259.109802 164.0
259.375793 288.0
259.407837 156.0
259.456482 212.0
259.570953 164.0
259.812622 140.0
259.962708 152.0
259.983887 144.0
260.039703 252.0
260.084656 112.0
260.140198 20976.0
260.223541 164.0
260.248657 80.0
260.282166 92.0
260.322906 56.0
260.344696 156.0
260.460327 104.0
260.50528 104.0
260.579193 60.0
260.608093 84.0
260.647125 80.0
260.710907 48.0
260.829254 136.0
260.876709 76.0
260.997009 52.0
261.045227 48.0
261.142639 2860.0
261.30899 104.0
261.418396 52.0
261.490936 44.0
261.57608 128.0
261.91095 52.0
262.138672 476.0
262.210602 88.0
262.591034 48.0
262.62973 116.0
262.720032 100.0
263.020142 32.0
263.078247 80.0
263.16217 128.0
263.562683 36.0
263.649933 68.0
263.813293 44.0
263.885895 96.0
264.134888 92.0
265.868256 80.0
267.903625 104.0
268.039978 132.0
269.031952 100.0
269.659088 64.0
270.035065 100.0
270.164124 168.0
270.558594 40.0
271.387482 76.0
272.385132 104.0
272.815613 116.0
273.049042 52.0
273.246399 80.0
275.035767 152.0
275.858246 72.0
276.344391 80.0
277.778839 136.0
278.081421 124.0
279.090637 160.0
280.152405 216.0
282.124512 108.0
282.816925 48.0
284.140533 64.0
285.036987 152.0
285.100861 164.0
285.490814 68.0
285.672424 132.0
287.053284 160.0
287.090393 120.0
288.134338 396.0
288.366486 96.0
289.147736 148.0
291.093597 208.0
295.120483 176.0
296.994293 140.0
297.519318 80.0
297.776825 136.0
298.156403 3240.0
298.598236 44.0
298.835571 92.0
299.107452 120.0
299.156464 484.0
299.245148 108.0
299.534424 100.0
300.165588 456.0
300.254761 76.0
300.48587 76.0
301.964294 100.0
302.140686 88.0
303.151703 176.0
303.585022 184.0
304.119293 124.0
306.609467 108.0
309.470306 120.0
309.554352 112.0
312.091156 148.0
312.277618 148.0
313.118591 164.0
314.112701 148.0
317.057861 124.0
320.080872 104.0
326.153717 152.0
329.904388 40.0
331.138245 140.0
334.063751 160.0
336.13681 232.0
338.893738 108.0
339.120941 160.0
341.80542 132.0
344.08316 176.0
344.157654 384.0
345.147247 132.0
346.042603 184.0
346.253693 100.0
348.03363 136.0
348.148743 108.0
349.066589 128.0
350.279846 76.0
354.981476 124.0
356.119324 168.0
357.114258 100.0
358.089355 116.0
360.258179 68.0
371.254303 152.0
374.166809 164.0
374.205292 112.0
375.04892 104.0
375.129883 124.0
375.554016 44.0
375.812469 52.0
376.046967 508.0
376.105774 144.0
376.982452 32.0
377.047791 304.0
377.125427 216.0
377.195007 88.0
378.038147 144.0
378.06369 204.0
379.151428 164.0
379.440247 60.0
383.264679 88.0
391.53006 68.0
392.463959 132.0
393.079285 120.0
393.15033 68.0
394.548553 144.0
395.73938 60.0
402.682434 48.0
414.092621 128.0
431.144592 144.0
432.112732 48.0
441.191437 64.0
445.066284 156.0
445.104614 112.0
449.13205 160.0
456.080292 80.0
461.18219 128.0
464.989685 80.0
486.175659 96.0
486.616791 32.0
486.647522 108.0
487.640289 32.0
490.183899 80.0
491.100861 44.0
493.083191 156.0
495.264404 96.0
503.188721 180.0
505.065552 108.0
505.104095 196.0
505.553192 44.0
507.098267 168.0
507.134125 132.0
528.431885 72.0
528.93988 84.0
539.686523 72.0
564.521729 64.0
579.156372 88.0
594.123779 136.0
600.076477 72.0
698.1604 116.0
703.07019 96.0
713.403809 40.0
727.42627 156.0
727.866516 120.0
741.325073 48.0
762.257751 84.0
763.478149 76.0
774.084351 172.0
784.250854 72.0
787.179749 236.0
834.490845 160.0
854.810547 20.0
881.671936 20.0
896.099792 180.0
912.654846 224.0
933.947937 36.0
963.606018 80.0
967.155579 244.0
968.338135 244.0
970.15979 256.0
1010.005737 20.0
1017.095947 76.0
1032.731934 176.0
1038.637329 124.0
1042.817139 156.0
1044.373047 212.0
1046.37439 48.0
1047.140625 120.0
1055.613892 200.0
1059.432495 184.0
1060.002686 180.0
1069.497314 172.0
1073.77124 20.0
1074.717163 168.0
1075.350098 188.0
1076.871338 140.0
1079.165039 180.0
1084.414917 128.0
1085.562256 208.0
1087.845337 144.0
1090.282104 100.0
1095.387695 72.0
1102.804077 132.0
1105.436157 112.0
1112.89978 176.0
1117.073242 156.0
1121.761108 216.0
1122.394531 20.0
1126.151611 100.0
1147.275024 184.0
1148.562866 140.0
1149.156616 60.0
1151.161255 180.0
1152.093262 188.0
1153.972046 216.0
1161.05481 180.0
1165.732056 112.0
1172.387329 216.0
1173.266602 112.0
1173.430176 136.0
1191.972046 136.0
1193.504761 100.0
1198.398438 180.0
1210.894531 192.0
1217.309326 168.0
1226.931763 212.0
1228.940308 64.0
1234.080811 200.0
1234.47937 120.0
1243.89563 52.0
1246.444946 192.0
1247.520264 136.0
1247.864746 136.0
1255.63855 196.0
1261.117188 220.0
1267.897339 180.0
1274.787964 228.0
1275.214355 120.0
1279.574707 172.0
1280.265381 100.0
1281.397949 48.0
1281.57605 132.0
1281.832642 248.0
1301.065063 156.0
1310.673706 20.0
1314.437622 56.0
1317.00769 108.0
1322.625732 116.0
1324.131714 148.0
1326.261719 156.0
1328.277466 168.0
1331.536377 208.0
1332.822144 88.0
1336.595825 188.0
1337.367188 212.0
1340.076172 160.0
1345.823486 100.0
1348.248535 52.0
1348.350952 120.0
1349.542358 84.0
1349.67395 100.0
1350.924561 164.0
1354.064575 140.0
1356.189331 364.0
1357.802246 144.0
1359.320801 64.0
1360.31897 176.0
1360.862183 156.0
1363.63147 132.0
1369.016602 172.0
1371.08667 164.0
1373.114136 184.0
1377.284058 164.0
1378.118896 164.0
1382.932983 188.0
1385.391235 200.0
1389.290527 132.0
1389.884033 136.0
1391.071533 224.0
1392.712524 128.0
1395.038208 152.0
1395.699951 220.0
1396.845215 72.0
1397.425415 132.0
1403.04834 208.0
1403.905762 252.0
1407.867188 176.0
1407.980347 192.0
1408.0625 164.0
1409.399658 128.0
1413.639282 180.0
1416.499268 188.0
1417.600586 148.0
1418.335083 184.0
1419.594604 124.0
1419.744629 180.0
1421.927734 112.0
1422.948486 96.0
1423.256348 144.0
1424.953735 184.0
1425.968262 240.0
1426.562012 88.0
1427.832642 108.0
1431.859009 112.0
1435.302734 168.0
1436.056885 204.0
1437.852417 172.0
1441.386597 156.0
1443.601318 224.0
1446.150879 252.0
1447.22583 224.0
1447.672485 192.0
1447.914917 148.0
1448.588989 48.0
1449.058594 160.0
1450.498535 168.0
1452.340942 192.0
1455.072754 172.0
1457.252441 116.0
1458.962402 180.0
1462.849731 172.0
1463.18457 204.0
1469.510254 164.0
1469.9375 212.0
1472.563599 176.0
1473.610107 128.0
1474.000488 180.0
1478.610962 228.0
1483.796631 116.0
1484.670776 96.0
1489.15271 168.0
1491.119507 228.0
1491.82666 200.0
1492.495483 192.0
1493.264526 192.0
1495.072388 212.0
1496.973755 76.0
1498.075195 128.0
1499.531494 40.0
1502.106689 80.0
1502.307251 152.0
1502.878174 148.0
1503.078735 156.0
