>compound N,N'-DIACETYL-1,6-DIAMINOHEXANE
>formula C10H20N2O2
>ionization [M+H]+
>parentmass 201.160797
#inchi InChI=1S/C10H20N2O2/c1-9(13)11-7-5-3-4-6-8-12-10(2)14/h3-8H2,1-2H3,(H,11,13)(H,12,14)
#inchikey BNQSTAOJRULKNX
#Ion_Source LC-ESI
#Instrument qTof
#Compound_Source Commercial
#PI Dorrestein
#Data_Collector Garg_Neha
#Scan -1
#Precursor_MZ 201.16
#ExactMass 200.152
#Charge 1
#CAS_Number N/A
#Pubmed_ID N/A
#Smiles CC(=O)NCCCCCCNC(=O)C
#INCHI_AUX N/A
#Library_Class 1
#SpectrumID CCMSLIB00000079155
#IonMode Positive
#UpdateWorkflowName UPDATE-SINGLE-ANNOTATED-GOLD
#LibraryQualityString Gold
#TaskID 278b19f5865741e282cec7349aa7e7a1
##Scan# 1004
#SpectrumFile NCP003592_A2_B11_BD8_01_15734.mzXML
#LibraryName NIHcollectionI_05062014.mgf
#MQScore -1
#Organism NIHcollectionI_05062014
#TIC_Query 0
#RT_Query -1
#MZErrorPPM -1
#SharedPeaks 0
#MassDiff 0
#LibMZ -1
#SpecMZ 201.16
#SpecCharge 0
#internalFilename spec-00000.mgf

>collision 10
45.206516 144.0
46.223858 244.0
46.833431 180.0
46.943821 212.0
48.1101 168.0
48.239952 148.0
48.851505 164.0
49.204086 164.0
49.397926 176.0
49.817486 164.0
51.008759 256.0
51.227901 164.0
52.027313 152.0
52.492046 148.0
53.151661 160.0
53.655018 256.0
54.669975 188.0
55.853607 160.0
55.936935 164.0
56.341064 152.0
56.595318 164.0
58.034275 168.0
58.348557 144.0
58.426117 220.0
58.677406 196.0
62.31332 152.0
62.553936 196.0
64.284714 188.0
64.41404 216.0
64.860474 144.0
65.298805 332.0
66.013237 172.0
66.860733 144.0
68.885033 232.0
69.090019 192.0
69.222427 140.0
69.537415 140.0
71.040833 152.0
72.027267 140.0
72.307938 180.0
72.953659 216.0
73.731438 180.0
74.713951 192.0
74.992912 204.0
75.353569 196.0
75.950806 152.0
76.30159 220.0
78.048271 164.0
79.041344 156.0
82.121353 176.0
82.348763 148.0
82.543945 140.0
82.980309 140.0
84.086288 248.0
85.228989 208.0
85.903061 148.0
89.946732 180.0
90.262238 176.0
90.788673 144.0
92.117195 196.0
92.140121 144.0
92.210823 256.0
94.214981 160.0
94.715996 172.0
95.214462 200.0
95.296043 148.0
95.607162 160.0
97.050728 188.0
97.565117 172.0
97.807076 160.0
98.252426 144.0
99.348412 172.0
99.413887 156.0
99.592567 372.0
100.081459 176.0
100.112946 11584.0
101.116241 1280.0
101.151855 144.0
102.727287 188.0
102.947289 168.0
104.067047 180.0
105.574936 156.0
105.941307 168.0
106.371948 208.0
107.772369 176.0
108.476021 156.0
109.321342 188.0
110.422859 152.0
110.565125 232.0
110.604889 180.0
112.929924 164.0
113.372406 184.0
113.45295 140.0
113.887955 172.0
114.33017 168.0
115.983269 192.0
116.008995 196.0
117.033783 168.0
117.139603 916.0
117.236267 172.0
118.801674 344.0
119.001343 188.0
120.207199 196.0
121.957047 160.0
122.057724 292.0
123.014351 172.0
124.111687 156.0
124.799995 160.0
126.605232 144.0
127.13205 164.0
127.891685 160.0
129.587616 144.0
129.734924 164.0
130.145569 192.0
130.638748 144.0
130.711548 164.0
131.675858 220.0
131.85405 164.0
132.336716 236.0
134.603867 148.0
135.11467 168.0
135.274338 184.0
138.541565 168.0
139.574249 168.0
139.840073 140.0
140.108521 156.0
141.140305 1400.0
141.201401 204.0
141.518494 152.0
141.914169 168.0
141.970749 148.0
142.085358 176.0
142.123566 28188.0
142.233002 112.0
142.365005 164.0
142.904587 288.0
142.975967 156.0
143.125839 2336.0
143.168045 176.0
143.993973 144.0
144.023849 144.0
144.13176 324.0
145.116257 180.0
146.649933 180.0
147.932556 172.0
148.165039 204.0
148.400131 176.0
151.532028 156.0
151.583481 208.0
151.7379 212.0
154.637238 140.0
154.889786 160.0
155.083054 168.0
155.867264 244.0
156.011414 224.0
157.979004 152.0
158.636887 112.0
158.700272 156.0
158.770493 180.0
158.810623 152.0
158.957611 316.0
159.084427 136.0
159.150146 63776.0
159.370575 144.0
159.420929 120.0
159.719009 140.0
159.965637 152.0
160.152771 5632.0
160.377045 152.0
160.79837 108.0
160.841156 232.0
160.936111 104.0
161.154343 296.0
161.424759 148.0
162.057556 152.0
164.197922 184.0
166.367737 152.0
169.0224 148.0
169.47551 164.0
169.667297 180.0
169.942215 212.0
175.031387 140.0
176.017563 160.0
183.149185 5392.0
184.151367 928.0
185.361801 264.0
189.240524 184.0
193.895905 192.0
195.0672 152.0
196.066406 184.0
197.912842 252.0
200.021194 152.0
200.16124 172.0
200.350677 164.0
200.76355 140.0
200.877823 176.0
200.908859 144.0
200.985031 164.0
201.021713 200.0
201.042007 168.0
201.123993 412.0
201.160797 52244.0
201.296112 172.0
201.343536 116.0
201.548996 120.0
201.911636 216.0
202.015549 164.0
202.162796 5008.0
202.746735 160.0
203.165283 228.0
203.257477 108.0
203.433136 176.0
203.45433 100.0
203.631653 96.0
203.676956 108.0
203.776764 140.0
211.996475 124.0
218.065399 160.0
239.148651 168.0
1283.801147 184.0
1415.648682 180.0
1434.816162 148.0
1446.283203 164.0
1518.65625 168.0
1561.386475 144.0
1563.967041 160.0
1592.002075 172.0
1595.577637 188.0
1596.666992 188.0
1600.852905 148.0
1605.211792 204.0
1606.049194 200.0
1608.442871 188.0
1612.220703 152.0
1635.575806 256.0
1645.65271 168.0
1652.862549 176.0
1655.874023 212.0
1659.366455 148.0
1684.513184 164.0
1690.546997 148.0
1695.944092 176.0
1725.438843 160.0
1729.650757 176.0
1741.174194 192.0
1745.304199 220.0
1756.463745 148.0
1805.802368 140.0
1817.144897 148.0
1820.421265 144.0
1823.420166 180.0
1834.042114 152.0
1840.909912 140.0
1847.576782 148.0
1849.099854 156.0
1852.276367 148.0
1852.396362 144.0
1856.776123 160.0
1859.126831 156.0
1866.866943 212.0
1873.675293 192.0
1885.064453 212.0
1887.787476 192.0
1888.894531 204.0
1900.581543 180.0
1906.833862 140.0
1915.203857 144.0
1922.117188 216.0
1943.049561 168.0
1944.660522 180.0
1948.032349 164.0
1955.207031 184.0
1957.258057 180.0
1961.927612 176.0
1969.551758 184.0
1978.828247 184.0
1987.47876 164.0
2003.366333 176.0
