>compound MLS000069369-01!RILUZOLE1744-22-5
>formula C8H5F3N2OS
>ionization [M+H]+
>parentmass 235.015686
#inchi InChI=1S/C8H5F3N2OS/c9-8(10,11)14-4-1-2-5-6(3-4)15-7(12)13-5/h1-3H,(H2,12,13)
#inchikey FTALBRSUTCGOEG
#Ion_Source LC-ESI
#Instrument qTof
#Compound_Source NIH Pharmacologically Active Library
#PI Dorrestein
#Data_Collector VP/LMS
#Scan -1
#Precursor_MZ 235.015
#ExactMass 234.007
#Charge 1
#CAS_Number N/A
#Pubmed_ID N/A
#Smiles Nc1nc2ccc(OC(F)(F)F)cc2s1
#INCHI_AUX N/A
#Library_Class 1
#SpectrumID CCMSLIB00000085921
#IonMode Positive
#UpdateWorkflowName UPDATE-SINGLE-ANNOTATED-GOLD
#LibraryQualityString Gold
#TaskID d252d724072548979f1f6f1ced849daf
##Scan# 1751
#SpectrumFile p4-H02_GH2_01_18410.mzXML
#LibraryName Pharm_Active_Library.mgf
#MQScore -1
#Organism Pharm_Active_Library
#TIC_Query 0
#RT_Query -1
#MZErrorPPM -1
#SharedPeaks 0
#MassDiff 0
#LibMZ -1
#SpecMZ 235.015
#SpecCharge 0
#internalFilename spec-00000.mgf

>collision 10
44.902996 168.0
44.922749 104.0
44.945431 156.0
44.970787 116.0
44.990459 212.0
45.005497 144.0
45.025528 148.0
45.045563 192.0
45.07362 232.0
45.121742 52.0
45.140301 144.0
45.15517 200.0
45.173897 136.0
45.188614 120.0
45.223408 152.0
45.278305 96.0
45.301258 148.0
45.317909 168.0
45.341476 128.0
45.361378 148.0
45.370167 72.0
45.390877 108.0
45.40831 120.0
45.428562 124.0
45.486134 168.0
45.525074 96.0
45.566715 192.0
45.583996 144.0
45.604378 152.0
45.633392 132.0
45.67561 152.0
45.685024 128.0
45.707897 212.0
45.721355 124.0
45.765778 128.0
45.80349 148.0
45.845257 144.0
45.892437 140.0
45.926151 144.0
45.993622 168.0
46.004421 160.0
46.035477 164.0
46.04493 156.0
46.162506 148.0
46.176029 192.0
46.197674 172.0
46.222919 176.0
46.273037 212.0
46.320862 176.0
46.362865 116.0
46.384552 56.0
46.411316 184.0
46.428791 128.0
46.488991 124.0
46.518852 128.0
46.529713 116.0
46.551437 156.0
46.560711 140.0
46.589931 292.0
46.654705 48.0
46.685978 140.0
46.724064 104.0
46.742874 336.0
46.774418 100.0
46.827522 164.0
46.914734 188.0
46.932178 292.0
46.955639 144.0
46.9967 204.0
47.026588 276.0
47.078472 124.0
47.10191 176.0
47.144047 288.0
47.178219 128.0
47.191891 160.0
47.229855 184.0
47.246597 196.0
47.267124 132.0
47.31366 108.0
47.333424 120.0
47.347168 272.0
47.367069 136.0
47.415028 228.0
47.448528 228.0
47.479465 200.0
47.506897 208.0
47.524734 216.0
47.560013 68.0
47.590618 84.0
47.609844 164.0
47.620831 160.0
47.642811 64.0
47.653801 108.0
47.673038 200.0
47.686783 120.0
47.706028 208.0
47.723782 164.0
47.774788 136.0
47.794815 180.0
47.80616 100.0
47.821575 180.0
47.850483 184.0
47.879368 164.0
47.905575 144.0
47.997849 164.0
48.040123 148.0
48.073792 88.0
48.111057 116.0
48.12944 244.0
48.162151 192.0
48.177349 56.0
48.243183 132.0
48.299 116.0
48.338039 240.0
48.386185 216.0
48.397942 220.0
48.438808 64.0
48.494324 128.0
48.508099 168.0
48.519188 192.0
48.534439 144.0
48.556629 116.0
48.581562 160.0
48.586967 156.0
48.611366 264.0
48.628777 200.0
48.640625 172.0
48.671814 32.0
48.687088 108.0
48.738251 140.0
48.74728 172.0
48.775379 228.0
48.792698 116.0
48.819115 148.0
48.830242 144.0
48.855934 172.0
48.946957 120.0
48.973606 88.0
48.997288 112.0
49.029335 100.0
49.043274 132.0
49.054424 48.0
49.065578 112.0
49.096455 112.0
49.128727 172.0
49.149265 136.0
49.185551 76.0
49.201767 176.0
49.207733 108.0
49.209763 164.0
49.252579 136.0
49.269341 208.0
49.288902 160.0
49.298687 144.0
49.328037 84.0
49.350407 112.0
49.366657 212.0
49.424149 128.0
49.438236 236.0
49.449902 164.0
49.48053 156.0
49.49313 120.0
49.57238 160.0
49.58559 212.0
49.615028 148.0
49.624756 132.0
49.659382 184.0
49.672001 160.0
49.690762 168.0
49.709553 184.0
49.730057 176.0
49.743748 196.0
49.770771 168.0
49.783409 168.0
49.800625 340.0
49.813492 212.0
49.833179 176.0
49.856152 164.0
49.860149 128.0
49.92535 236.0
49.965988 220.0
49.996124 248.0
50.026657 60.0
50.036514 160.0
50.047775 156.0
50.057632 216.0
50.085804 364.0
50.097073 92.0
50.169365 364.0
50.183044 172.0
50.224293 192.0
50.238049 184.0
50.310024 64.0
50.339676 156.0
50.389194 140.0
50.414547 148.0
50.452713 172.0
50.522621 196.0
50.579102 152.0
50.592773 220.0
50.641979 160.0
50.676121 80.0
50.685326 104.0
50.71542 176.0
50.738697 224.0
50.759968 136.0
50.77359 132.0
50.79826 108.0
50.849342 140.0
50.874893 84.0
50.888176 124.0
50.955849 172.0
50.980003 116.0
50.997059 84.0
51.007008 280.0
51.038288 188.0
51.109409 148.0
51.147835 44.0
51.180187 188.0
51.206215 172.0
51.225216 212.0
51.273178 152.0
51.316605 164.0
51.331627 128.0
51.34589 112.0
51.37442 124.0
51.419979 112.0
51.450058 164.0
51.46719 132.0
51.480042 92.0
51.494324 220.0
51.544327 116.0
51.558617 164.0
51.57291 80.0
51.5966 224.0
51.636169 164.0
51.650814 56.0
51.704033 160.0
51.723103 176.0
51.74601 112.0
51.761761 144.0
51.778946 136.0
51.821922 204.0
51.833385 64.0
51.856316 172.0
51.873516 164.0
51.893589 156.0
51.915096 100.0
51.925137 92.0
51.953823 460.0
51.969379 200.0
52.015533 300.0
52.051426 32.0
52.06435 108.0
52.100262 92.0
52.120071 208.0
52.152561 228.0
52.180744 228.0
52.211445 172.0
52.232517 292.0
52.275681 28.0
52.308937 152.0
52.337582 160.0
52.34766 140.0
52.382229 156.0
52.429779 136.0
52.445633 188.0
52.458607 176.0
52.475834 160.0
52.484856 136.0
52.495136 220.0
52.517971 188.0
52.54081 148.0
52.575439 124.0
52.585541 100.0
52.599976 116.0
52.612968 112.0
52.642479 324.0
52.696739 148.0
52.708298 152.0
52.738022 136.0
52.754547 164.0
52.771065 132.0
52.789249 84.0
52.838345 136.0
52.878948 144.0
52.90897 92.0
52.933964 176.0
52.945549 124.0
53.003494 136.0
53.018776 132.0
53.036617 192.0
53.058575 112.0
53.073784 212.0
53.119484 104.0
53.142696 192.0
53.177525 44.0
53.219624 156.0
53.293705 360.0
53.324902 188.0
53.37397 164.0
53.38979 164.0
53.40419 160.0
53.42601 168.0
53.436195 168.0
53.458023 224.0
53.47403 136.0
53.497562 136.0
53.520172 184.0
53.56868 100.0
53.628155 196.0
53.64024 188.0
53.67297 72.0
53.682854 228.0
53.704243 116.0
53.731232 152.0
53.758228 140.0
53.804092 228.0
53.817329 172.0
53.835484 200.0
53.855175 428.0
53.885265 232.0
53.902798 88.0
53.920338 116.0
53.931492 112.0
53.944492 152.0
53.959438 176.0
53.9949 120.0
54.022598 188.0
54.059273 68.0
54.085617 168.0
54.104649 216.0
54.16848 204.0
54.199852 128.0
54.240726 144.0
54.244827 128.0
54.294605 132.0
54.314209 104.0
54.345016 184.0
54.421341 144.0
54.452183 100.0
54.465092 172.0
54.471104 136.0
54.524395 320.0
54.553177 164.0
54.572685 144.0
54.603367 148.0
54.624157 152.0
54.643284 164.0
54.688904 160.0
54.718346 116.0
54.76432 200.0
54.777256 148.0
54.817036 136.0
54.855358 176.0
54.934448 152.0
54.957043 148.0
54.96294 212.0
55.007301 136.0
55.029446 100.0
55.053074 172.0
55.07148 164.0
55.109207 224.0
55.119549 176.0
55.132851 92.0
55.155022 152.0
55.185875 92.0
55.202332 112.0
55.239307 120.0
55.268898 108.0
55.334026 112.0
55.347351 96.0
55.364304 208.0
55.376968 168.0
55.404453 184.0
55.437714 164.0
55.46291 168.0
55.485146 168.0
55.555286 136.0
55.590462 144.0
55.600849 112.0
55.616009 168.0
55.661716 300.0
55.682507 244.0
55.705223 164.0
55.719646 144.0
55.871574 148.0
55.887154 260.0
55.932076 104.0
55.94157 152.0
55.971016 144.0
55.987717 168.0
56.005268 156.0
56.044003 88.0
56.055923 140.0
56.075298 108.0
56.090206 132.0
56.100639 128.0
56.120613 196.0
56.133442 88.0
56.16029 172.0
56.187496 200.0
56.201801 208.0
56.228924 168.0
56.28231 240.0
56.294613 168.0
56.318508 72.0
56.364822 216.0
56.388733 148.0
56.433582 292.0
56.453022 96.0
56.473957 156.0
56.50238 216.0
56.522427 192.0
56.544281 84.0
56.565235 208.0
56.582428 116.0
56.604977 180.0
56.643764 152.0
56.65509 48.0
56.682922 236.0
56.710583 124.0
56.743515 144.0
56.773506 140.0
56.787003 220.0
56.806503 124.0
56.826008 68.0
56.850018 136.0
56.907059 148.0
56.919071 116.0
56.941597 188.0
56.964062 180.0
57.085873 88.0
57.097904 156.0
57.130211 184.0
57.171066 216.0
57.23262 192.0
57.295097 128.0
57.317699 184.0
57.337292 212.0
57.370453 132.0
57.390053 172.0
57.439823 52.0
57.450382 176.0
57.462452 64.0
57.473011 192.0
57.488102 188.0
57.502064 172.0
57.528858 108.0
57.543953 196.0
57.6035 280.0
57.61845 260.0
57.640625 104.0
57.651203 112.0
57.672363 148.0
57.694195 152.0
57.710159 72.0
57.737377 76.0
57.757042 236.0
57.7994 124.0
57.816048 156.0
57.83865 292.0
57.862972 80.0
57.895782 72.0
57.917492 108.0
57.942619 176.0
57.953854 144.0
57.969006 348.0
57.979614 32.0
58.011444 152.0
58.039585 164.0
58.059124 216.0
58.079685 212.0
58.10244 152.0
58.121422 180.0
58.138855 80.0
58.185913 132.0
58.216282 120.0
58.240582 128.0
58.28339 136.0
58.313515 92.0
58.327194 80.0
58.360641 164.0
58.415394 160.0
58.426044 88.0
58.447578 52.0
58.464966 152.0
58.494526 196.0
58.515274 140.0
58.528019 200.0
58.544678 132.0
58.572227 156.0
58.589157 172.0
58.602657 60.0
58.617893 156.0
58.649902 132.0
58.66972 156.0
58.720528 208.0
58.736149 128.0
58.756649 276.0
58.771908 116.0
58.790218 244.0
58.808533 216.0
58.828377 124.0
58.840591 176.0
58.860443 140.0
58.880295 192.0
58.938347 128.0
58.952431 312.0
58.978863 180.0
59.001011 144.0
59.063713 168.0
59.074421 164.0
59.114292 132.0
59.135628 160.0
59.147873 68.0
59.232094 148.0
59.258137 124.0
59.359306 132.0
59.388447 112.0
59.407291 56.0
59.468231 128.0
59.516621 156.0
59.551144 104.0
59.579708 148.0
59.594162 192.0
59.619835 192.0
59.651657 320.0
59.730988 172.0
59.757759 160.0
59.810875 168.0
59.832558 188.0
59.870285 208.0
59.896778 148.0
59.914185 132.0
59.969658 204.0
60.026653 128.0
60.07143 180.0
60.111546 148.0
60.155262 136.0
60.16433 204.0
60.214527 460.0
60.267509 136.0
60.290497 160.0
60.334435 212.0
60.383453 132.0
60.416622 288.0
60.456165 168.0
60.472397 148.0
60.497002 188.0
60.539318 148.0
60.598629 148.0
60.615643 192.0
60.640469 92.0
60.683876 204.0
60.69783 132.0
60.7453 132.0
60.776943 184.0
60.789356 112.0
60.848339 192.0
60.858368 132.0
60.906746 236.0
60.980381 200.0
61.00771 152.0
61.012009 232.0
61.050346 164.0
61.07848 312.0
61.106369 188.0
61.126572 156.0
61.148361 196.0
61.176987 188.0
61.199734 332.0
61.227245 132.0
61.255802 200.0
61.30566 164.0
61.325699 112.0
61.343185 160.0
61.364895 136.0
61.446659 180.0
61.474087 380.0
61.5117 128.0
61.55526 160.0
61.609928 156.0
61.627293 140.0
61.659931 148.0
61.671154 164.0
61.704292 148.0
61.723686 128.0
61.745846 488.0
61.790707 204.0
61.880501 172.0
61.90712 168.0
61.932999 184.0
61.94471 152.0
61.957245 180.0
61.976048 172.0
62.001118 120.0
62.027561 136.0
62.046577 164.0
62.088917 136.0
62.123264 196.0
62.177795 172.0
62.182041 112.0
62.186932 212.0
62.214108 148.0
62.237999 136.0
62.269367 160.0
62.343246 176.0
62.381741 204.0
62.41188 188.0
62.42997 220.0
62.472183 188.0
62.483192 152.0
62.503651 192.0
62.530403 172.0
62.54142 232.0
62.568184 152.0
62.590855 200.0
62.602825 196.0
62.642769 212.0
62.65638 192.0
62.685349 208.0
62.712341 156.0
62.744637 128.0
62.766224 236.0
62.774387 120.0
62.780045 220.0
62.794651 216.0
62.856628 184.0
62.879097 168.0
62.894505 40.0
62.917248 180.0
62.958309 224.0
62.98925 164.0
63.054031 132.0
63.095131 148.0
63.112526 136.0
63.125175 92.0
63.139408 172.0
63.156807 152.0
63.174206 88.0
63.188694 332.0
63.323002 228.0
63.348946 180.0
63.369576 160.0
63.39336 244.0
63.430405 184.0
63.456116 40.0
63.468369 368.0
63.487831 212.0
63.510036 116.0
63.530659 180.0
63.544937 108.0
63.570366 164.0
63.602943 192.0
63.641758 128.0
63.664265 208.0
63.683048 152.0
63.703991 152.0
63.768848 48.0
63.783154 108.0
63.794281 160.0
63.810181 184.0
63.829258 128.0
63.881748 168.0
63.921524 216.0
63.938328 148.0
63.949581 216.0
63.968079 128.0
63.980064 164.0
63.991562 172.0
64.033867 204.0
64.054802 132.0
64.081314 140.0
64.093498 108.0
64.128563 140.0
64.1661 168.0
64.203499 164.0
64.275284 200.0
64.294434 160.0
64.332741 164.0
64.380646 116.0
64.398216 152.0
64.415787 136.0
64.441238 176.0
64.466911 140.0
64.481689 132.0
64.495682 128.0
64.508469 44.0
64.519661 64.0
64.580429 188.0
64.598022 100.0
64.631622 76.0
64.645653 156.0
64.696762 172.0
64.718056 128.0
64.732468 140.0
64.757294 184.0
64.806732 220.0
64.833397 92.0
64.847824 120.0
64.871864 168.0
64.889259 400.0
64.898483 244.0
64.926384 140.0
64.948837 176.0
64.998573 148.0
65.025963 180.0
65.067596 76.0
65.09433 192.0
65.107735 104.0
65.11898 140.0
65.132782 152.0
65.226639 64.0
65.263611 144.0
65.292557 156.0
65.32473 92.0
65.345642 176.0
65.374611 172.0
65.413239 216.0
65.426117 104.0
65.455902 144.0
65.476807 216.0
65.492676 240.0
65.55806 136.0
65.574318 140.0
65.586464 52.0
65.606552 164.0
65.618736 176.0
65.644714 168.0
65.661377 120.0
65.703323 124.0
65.730751 164.0
65.746887 176.0
65.77433 120.0
65.785072 192.0
65.845375 196.0
65.901909 136.0
65.918068 188.0
65.932617 184.0
66.010452 136.0
66.052773 192.0
66.074913 168.0
66.119621 140.0
66.146118 144.0
66.191452 96.0
66.204803 148.0
66.236801 180.0
66.253006 244.0
66.276466 208.0
66.308098 172.0
66.371323 168.0
66.382675 128.0
66.431335 120.0
66.454048 172.0
66.488945 212.0
66.542175 216.0
66.569298 188.0
66.590637 116.0
66.70253 128.0
66.731789 88.0
66.757805 244.0
66.782204 188.0
66.803352 152.0
66.816368 148.0
66.891228 192.0
66.917274 96.0
66.986969 172.0
67.012619 220.0
67.026405 80.0
67.037811 112.0
67.054115 104.0
67.075302 72.0
67.106277 176.0
67.134834 148.0
67.150307 112.0
67.199249 136.0
67.235146 108.0
67.275955 116.0
67.300087 164.0
67.331474 108.0
67.361931 192.0
67.390282 116.0
67.419693 188.0
67.445847 160.0
67.503067 72.0
67.516151 256.0
67.564392 188.0
67.589767 80.0
67.602859 156.0
67.63559 248.0
67.664246 80.0
67.670998 64.0
67.68084 232.0
67.737381 124.0
67.755791 188.0
67.812492 100.0
67.828529 184.0
67.857819 236.0
67.875374 204.0
67.898605 100.0
68.002274 68.0
68.013519 164.0
68.039543 196.0
68.069557 128.0
68.083961 236.0
68.116173 272.0
68.153412 184.0
68.163429 192.0
68.174797 164.0
68.19986 120.0
68.217941 164.0
68.231094 100.0
68.266838 100.0
68.287003 144.0
68.362686 108.0
68.380791 140.0
68.400146 140.0
68.423584 52.0
68.468048 124.0
68.500992 216.0
68.51252 88.0
68.548775 188.0
68.579918 196.0
68.595612 172.0
68.632843 124.0
68.648186 228.0
68.662521 100.0
68.690041 240.0
68.712013 152.0
68.76004 232.0
68.792877 180.0
68.840759 128.0
68.855629 168.0
68.878754 132.0
68.893616 200.0
69.009308 184.0
69.025848 196.0
69.041885 176.0
69.064362 152.0
69.076965 44.0
69.088699 124.0
69.124275 240.0
69.207863 96.0
69.274117 124.0
69.290619 112.0
69.381836 128.0
69.408363 64.0
69.421631 140.0
69.448166 104.0
69.459778 172.0
69.499596 120.0
69.514534 152.0
69.529465 116.0
69.565987 156.0
69.582588 132.0
69.607491 88.0
69.642372 144.0
69.672272 112.0
69.713814 256.0
69.745392 236.0
69.757027 72.0
69.774673 140.0
69.798332 152.0
69.815224 232.0
69.830193 128.0
69.845161 184.0
69.895073 160.0
69.937363 116.0
69.958321 92.0
69.97821 224.0
70.029922 76.0
70.066566 152.0
70.103226 144.0
70.134895 192.0
70.194916 128.0
70.211594 156.0
70.229935 168.0
70.257797 200.0
70.292442 172.0
70.346748 132.0
70.410194 36.0
70.425232 180.0
70.443604 164.0
70.455299 116.0
70.545738 172.0
70.573967 116.0
70.605736 172.0
70.622467 212.0
70.686043 220.0
70.702774 176.0
70.723351 160.0
70.752121 100.0
70.786476 108.0
70.798203 108.0
70.819977 164.0
70.838402 80.0
70.850723 136.0
70.881149 244.0
70.987427 140.0
71.038857 132.0
71.069771 148.0
71.153694 132.0
71.203491 116.0
71.219185 144.0
71.246063 152.0
71.267906 144.0
71.287567 320.0
71.318962 240.0
71.331329 168.0
71.362801 272.0
71.375481 84.0
71.404068 152.0
71.518333 180.0
71.53228 204.0
71.564804 132.0
71.641411 140.0
71.664215 248.0
71.686905 160.0
71.711319 124.0
71.729042 156.0
71.750961 128.0
71.782761 144.0
71.79731 140.0
71.838654 64.0
71.862274 136.0
71.877464 180.0
71.915092 108.0
71.946663 120.0
71.961861 176.0
71.980431 156.0
72.032791 296.0
72.047997 212.0
72.092651 300.0
72.139252 200.0
72.159546 260.0
72.191673 72.0
72.222893 104.0
72.237335 72.0
72.253029 188.0
72.303009 168.0
72.386284 116.0
72.428627 92.0
72.462242 160.0
72.492355 108.0
72.522255 232.0
72.537582 200.0
72.584549 160.0
72.613426 148.0
72.630341 336.0
72.642212 164.0
72.703339 172.0
72.725357 140.0
72.775497 172.0
72.793274 204.0
72.805161 196.0
72.840828 88.0
72.859161 116.0
72.876503 164.0
72.898598 48.0
72.916847 220.0
72.983589 96.0
73.000496 176.0
73.046516 128.0
73.107773 152.0
73.143517 156.0
73.16394 132.0
73.192711 116.0
73.214218 152.0
73.235466 148.0
73.2724 188.0
73.312134 192.0
73.327469 240.0
73.356552 128.0
73.383728 108.0
73.406586 188.0
73.455353 132.0
73.470177 244.0
73.477089 168.0
73.481216 200.0
73.514771 68.0
73.54921 124.0
73.58181 204.0
73.638 68.0
73.705811 328.0
73.745644 80.0
73.758301 176.0
73.775383 100.0
73.790085 160.0
73.815735 128.0
73.839676 96.0
73.879021 88.0
73.928642 144.0
73.981705 120.0
74.002975 248.0
74.029648 160.0
74.076263 128.0
74.096451 184.0
74.118195 104.0
74.159859 92.0
74.175285 144.0
74.190712 188.0
74.212997 84.0
74.237007 204.0
74.267876 104.0
74.29348 164.0
74.322777 160.0
74.347679 180.0
74.360535 208.0
74.377151 88.0
74.400017 188.0
74.425766 184.0
74.439507 156.0
74.460114 200.0
74.499619 36.0
74.54631 372.0
74.562286 120.0
74.573509 196.0
74.616615 164.0
74.712311 184.0
74.773186 132.0
74.850494 220.0
74.884941 152.0
74.91185 148.0
74.918167 208.0
74.952126 32.0
74.971085 124.0
74.986938 140.0
75.000961 108.0
75.123199 216.0
75.152145 136.0
75.191841 68.0
75.257629 184.0
75.271255 80.0
75.329979 120.0
75.352432 216.0
75.380081 192.0
75.397362 160.0
75.421562 176.0
75.448112 168.0
75.488991 144.0
75.520119 216.0
75.537422 228.0
75.681488 132.0
75.701004 132.0
75.774597 240.0
75.817917 148.0
75.84565 112.0
75.904602 136.0
75.917976 160.0
75.987854 196.0
76.006943 140.0
76.019501 136.0
76.039917 116.0
76.084541 204.0
76.115692 148.0
76.144089 120.0
76.164009 128.0
76.186455 144.0
76.206215 220.0
76.230278 196.0
76.257027 208.0
76.277252 176.0
76.284279 156.0
76.312653 108.0
76.333519 84.0
76.384933 172.0
76.404831 48.0
76.432671 116.0
76.465736 212.0
76.490105 140.0
76.510994 100.0
76.549301 144.0
76.570206 184.0
76.594589 176.0
76.645348 204.0
76.674736 156.0
76.699142 112.0
76.714828 144.0
76.753555 284.0
76.788193 160.0
76.814232 48.0
76.854713 176.0
76.976547 172.0
77.00798 168.0
77.048798 188.0
77.068443 236.0
77.156517 188.0
77.200089 144.0
77.236961 148.0
77.253387 132.0
77.277359 176.0
77.322906 136.0
77.345451 208.0
77.404984 84.0
77.444443 180.0
77.467026 216.0
77.513588 168.0
77.545135 116.0
77.568619 152.0
77.629288 164.0
77.683128 212.0
77.724342 148.0
77.746826 108.0
77.766533 88.0
77.788956 176.0
77.852165 176.0
77.883774 132.0
77.925308 224.0
77.939995 124.0
77.958153 120.0
77.976898 148.0
77.999748 52.0
78.015572 184.0
78.033157 60.0
78.059532 176.0
78.087669 124.0
78.100891 172.0
78.119331 192.0
78.168594 60.0
78.189713 64.0
78.203796 140.0
78.245895 140.0
78.307678 120.0
78.330421 136.0
78.466278 128.0
78.487434 104.0
78.533287 136.0
78.550926 104.0
78.572098 268.0
78.603859 72.0
78.7239 92.0
78.75869 212.0
78.788445 192.0
78.793533 104.0
78.800232 132.0
78.82106 112.0
78.845291 140.0
78.864792 252.0
78.882919 228.0
78.925499 140.0
78.950104 124.0
78.975128 220.0
79.003174 76.0
79.027939 48.0
79.042801 224.0
79.106331 160.0
79.127716 244.0
79.14122 128.0
79.169647 228.0
79.20401 168.0
79.255508 112.0
79.275848 108.0
79.297119 112.0
79.339661 72.0
79.398262 164.0
79.478004 160.0
79.502853 160.0
79.524147 132.0
79.539085 96.0
79.547554 160.0
79.566093 184.0
79.593384 136.0
79.665947 244.0
79.706009 172.0
79.731949 188.0
79.778168 136.0
79.804314 164.0
79.824394 116.0
79.851349 156.0
79.879768 172.0
79.904442 216.0
79.923447 224.0
79.96138 216.0
80.030807 176.0
80.048615 80.0
80.068207 172.0
80.126991 88.0
80.15728 224.0
80.210281 76.0
80.246407 272.0
80.283852 96.0
80.332008 80.0
80.391396 304.0
80.455589 368.0
80.487762 136.0
80.506935 196.0
80.566101 192.0
80.599823 96.0
80.642715 76.0
80.655228 112.0
80.668365 172.0
80.714882 196.0
80.741051 144.0
80.76149 196.0
80.783981 72.0
80.800079 160.0
80.814392 168.0
80.834076 292.0
80.875244 208.0
80.893143 176.0
80.914627 108.0
80.964767 192.0
81.029251 228.0
81.080711 212.0
81.117523 188.0
81.152924 108.0
81.195961 192.0
81.23542 168.0
81.251572 112.0
81.267715 100.0
81.282074 436.0
81.311073 232.0
81.355659 168.0
81.417412 92.0
81.441856 320.0
81.4561 144.0
81.479584 128.0
81.533493 264.0
81.565842 92.0
81.57843 104.0
81.652672 220.0
81.699059 148.0
81.727707 160.0
81.745697 152.0
81.796097 104.0
81.814095 160.0
81.835701 148.0
81.859108 152.0
81.87532 332.0
81.925758 180.0
81.957397 128.0
82.018028 156.0
82.066338 148.0
82.105545 188.0
82.134865 164.0
82.147491 184.0
82.163734 168.0
82.178604 348.0
82.207039 60.0
82.339432 132.0
82.374954 92.0
82.40316 128.0
82.423737 180.0
82.454689 156.0
82.548462 144.0
82.562935 104.0
82.5774 204.0
82.624062 152.0
82.648422 140.0
82.677849 108.0
82.698631 148.0
82.714058 176.0
82.721535 92.0
82.727379 236.0
82.766518 104.0
82.783363 264.0
82.79821 132.0
82.847115 160.0
82.863426 120.0
82.882149 136.0
82.89785 192.0
82.923225 136.0
82.946785 180.0
82.973984 168.0
82.988487 132.0
83.020714 192.0
83.027473 112.0
83.059158 120.0
83.093681 172.0
83.115715 56.0
83.145149 132.0
83.160828 132.0
83.193504 176.0
83.215286 200.0
83.25161 252.0
83.298309 280.0
83.31282 148.0
83.396957 124.0
83.424187 192.0
83.458763 176.0
83.475128 236.0
83.502411 176.0
83.521027 324.0
83.565018 192.0
83.598831 160.0
83.633415 136.0
83.660721 148.0
83.675285 200.0
83.706238 136.0
83.735382 112.0
83.755623 176.0
83.773628 152.0
83.797318 124.0
83.846306 204.0
83.907021 384.0
84.037498 352.0
84.085442 152.0
84.109169 112.0
84.136551 188.0
84.152985 124.0
84.175262 240.0
84.222382 140.0
84.305847 88.0
84.329735 196.0
84.372826 160.0
84.394173 112.0
84.412453 76.0
84.461838 116.0
84.523094 108.0
84.562477 132.0
84.575287 112.0
84.597252 120.0
84.630211 108.0
84.651413 172.0
84.668663 148.0
84.686981 88.0
84.710793 148.0
84.776756 108.0
84.813736 156.0
84.894081 160.0
84.954613 236.0
84.974388 200.0
84.995865 124.0
85.035149 184.0
85.057381 144.0
85.093369 132.0
85.10878 352.0
85.145508 136.0
85.159798 144.0
85.189598 120.0
85.20797 180.0
85.235527 160.0
85.257584 156.0
85.286987 104.0
85.334785 132.0
85.355011 172.0
85.371994 136.0
85.388115 32.0
85.437782 84.0
85.512001 144.0
85.565262 136.0
85.610802 120.0
85.646385 188.0
85.700188 168.0
85.719498 144.0
85.737923 108.0
85.796906 124.0
85.840157 124.0
85.879944 144.0
85.931549 96.0
85.946304 128.0
85.986908 136.0
86.034561 352.0
86.053185 164.0
86.086601 148.0
86.107262 156.0
86.132774 164.0
86.166397 168.0
86.172981 168.0
86.27137 112.0
86.368835 136.0
86.395279 192.0
86.411926 216.0
86.435982 140.0
86.473 116.0
86.517426 108.0
86.54705 220.0
86.591637 156.0
86.625267 120.0
86.670143 176.0
86.689682 160.0
86.719337 156.0
86.738655 160.0
86.782372 264.0
86.815742 96.0
86.838005 128.0
86.852325 116.0
86.875099 156.0
86.947464 180.0
87.006866 44.0
87.049065 160.0
87.051941 116.0
87.079292 132.0
87.092773 192.0
87.12822 212.0
87.141846 172.0
87.198196 128.0
87.228905 104.0
87.252792 240.0
87.309753 72.0
87.335793 136.0
87.358116 136.0
87.406487 116.0
87.430679 136.0
87.508865 40.0
87.523758 168.0
87.54052 320.0
87.564018 168.0
87.589676 204.0
87.635521 180.0
87.665337 144.0
87.685837 136.0
87.721252 152.0
87.766838 160.0
87.806175 132.0
87.842461 116.0
87.855522 248.0
87.887848 196.0
87.98056 144.0
87.999947 200.0
88.017906 160.0
88.068329 128.0
88.101509 184.0
88.116318 180.0
88.1492 208.0
88.188751 152.0
88.212212 188.0
88.247734 176.0
88.277657 144.0
88.290741 108.0
88.36557 144.0
88.396263 208.0
88.452187 112.0
88.481216 192.0
88.487717 100.0
88.515953 152.0
88.536461 192.0
88.551811 180.0
88.558128 88.0
88.563362 256.0
88.580864 164.0
88.612717 172.0
88.651413 180.0
88.730789 124.0
88.768517 68.0
88.803925 132.0
88.882721 180.0
88.94915 132.0
88.969063 160.0
89.019753 200.0
89.037766 104.0
89.071243 316.0
89.10556 176.0
89.118347 140.0
89.181328 132.0
89.208801 104.0
89.241905 180.0
89.260292 116.0
89.290382 204.0
89.303551 128.0
89.329185 212.0
89.360275 172.0
89.417313 180.0
89.437141 80.0
89.478561 96.0
89.506798 72.0
89.524483 176.0
89.572723 220.0
89.604393 148.0
89.611717 120.0
89.63678 104.0
89.6707 144.0
89.691437 180.0
89.716278 180.0
89.793251 156.0
89.830978 164.0
89.854591 140.0
89.947205 168.0
89.980072 164.0
90.004021 456.0
90.021172 120.0
90.028351 148.0
90.061272 112.0
90.082054 268.0
90.125504 116.0
90.14222 156.0
90.146233 132.0
90.153603 152.0
90.189766 136.0
90.242699 64.0
90.25721 160.0
90.306992 136.0
90.378654 200.0
90.433769 184.0
90.450806 176.0
90.484833 160.0
90.518295 136.0
90.548012 272.0
90.596619 152.0
90.611778 128.0
90.659149 212.0
90.674309 132.0
90.695526 208.0
90.71032 156.0
90.725487 36.0
90.746346 136.0
90.77858 184.0
90.822517 168.0
90.844963 192.0
90.890503 144.0
90.92569 184.0
90.953133 92.0
90.966415 168.0
90.994995 232.0
91.015068 212.0
91.053764 108.0
91.09935 124.0
91.118347 132.0
91.16391 176.0
91.207664 164.0
91.271065 120.0
91.308441 136.0
91.325562 252.0
91.373116 180.0
91.387627 120.0
91.416885 160.0
91.437813 80.0
91.473984 132.0
91.514221 208.0
91.560318 176.0
91.586327 136.0
91.68541 160.0
91.71209 328.0
91.746407 148.0
91.763565 236.0
91.788353 112.0
91.832214 120.0
91.85701 236.0
91.917961 152.0
91.924797 144.0
91.986717 128.0
91.992943 156.0
92.015411 192.0
92.031471 292.0
92.047874 152.0
92.063148 188.0
92.080338 168.0
92.110901 80.0
92.130005 132.0
92.233192 192.0
92.29055 84.0
92.309669 48.0
92.328796 116.0
92.357483 40.0
92.376617 172.0
92.405312 160.0
92.424492 160.0
92.466545 184.0
92.483772 132.0
92.554611 144.0
92.581421 148.0
92.602249 164.0
92.64463 44.0
92.661133 184.0
92.684654 148.0
92.713608 216.0
92.767281 96.0
92.808235 132.0
92.847809 204.0
92.865074 116.0
92.884956 348.0
92.903435 56.0
92.948715 200.0
92.977478 188.0
92.991707 160.0
93.014862 192.0
93.065529 192.0
93.083862 64.0
93.123268 200.0
93.172775 164.0
93.201035 168.0
93.219223 164.0
93.227638 76.0
93.23082 152.0
93.277908 176.0
93.295403 180.0
93.343285 112.0
93.371201 116.0
93.420219 152.0
93.478836 212.0
93.499352 168.0
93.577644 180.0
93.639656 172.0
93.669617 180.0
93.722496 200.0
93.747543 368.0
93.762962 132.0
93.799583 148.0
93.82663 148.0
93.843925 124.0
93.859352 172.0
93.924927 156.0
93.948074 92.0
93.982803 156.0
94.027718 180.0
94.046486 192.0
94.065796 340.0
94.090889 136.0
94.12178 188.0
94.146317 160.0
94.173927 176.0
94.189377 92.0
94.210846 108.0
94.237679 228.0
94.266663 76.0
94.314316 128.0
94.337509 104.0
94.386513 140.0
94.407784 132.0
94.437813 164.0
94.489029 76.0
94.534523 196.0
94.587723 188.0
94.632256 180.0
94.657425 40.0
94.712357 220.0
94.740715 68.0
94.76947 152.0
94.787216 64.0
94.802719 260.0
94.84536 184.0
94.868622 120.0
94.884125 196.0
94.912903 176.0
94.953934 156.0
94.995514 3308.0
95.015488 104.0
95.035713 800.0
95.064636 148.0
95.13588 204.0
95.153809 184.0
95.186401 204.0
95.203629 140.0
95.272491 148.0
95.285881 240.0
95.307259 96.0
95.348068 140.0
95.384995 188.0
95.410271 144.0
95.435539 300.0
95.460823 128.0
95.517227 80.0
95.540573 160.0
95.554192 140.0
95.629166 144.0
95.657333 172.0
95.675102 188.0
95.714462 188.0
95.746094 144.0
95.75531 220.0
95.783012 148.0
95.829391 116.0
95.853279 172.0
95.875488 108.0
95.902771 112.0
95.91642 156.0
95.930061 192.0
95.955406 196.0
95.971909 148.0
96.003242 14216.0
96.080231 168.0
96.115349 244.0
96.146576 144.0
96.191132 212.0
96.218132 164.0
96.253944 68.0
96.277382 92.0
96.292999 144.0
96.311508 220.0
96.349655 108.0
96.3731 44.0
96.406319 132.0
96.423515 60.0
96.453224 112.0
96.481522 304.0
96.498192 120.0
96.621407 104.0
96.646843 172.0
96.659927 96.0
96.735291 252.0
96.785484 164.0
96.807358 88.0
96.836739 192.0
96.852409 64.0
96.9151 188.0
96.964088 196.0
97.005554 1348.0
97.033859 196.0
97.100929 96.0
97.149658 328.0
97.195503 92.0
97.242599 152.0
97.267242 120.0
97.28199 60.0
97.313271 100.0
97.332069 216.0
97.364326 72.0
97.395752 216.0
97.429787 356.0
97.45179 268.0
97.487808 164.0
97.525551 144.0
97.5392 192.0
97.598183 152.0
97.659142 80.0
97.738495 180.0
97.76342 156.0
97.789009 56.0
97.809608 224.0
97.855934 160.0
97.881538 188.0
97.922501 100.0
97.953606 212.0
98.000839 820.0
98.040901 688.0
98.070541 124.0
98.077293 144.0
98.082855 176.0
98.123894 168.0
98.165298 204.0
98.186363 188.0
98.217697 156.0
98.29155 220.0
98.313957 140.0
98.371361 244.0
98.386292 48.0
98.429886 52.0
98.465279 132.0
98.488983 112.0
98.51664 116.0
98.53112 156.0
98.571892 164.0
98.621368 132.0
98.736046 196.0
98.754852 196.0
98.77758 276.0
98.811211 152.0
98.827042 120.0
98.850784 108.0
98.874535 168.0
98.9161 128.0
98.93515 180.0
98.952209 152.0
98.973518 168.0
98.990654 416.0
99.030441 268.0
99.06089 140.0
99.100288 124.0
99.1371 152.0
99.20929 208.0
99.269402 140.0
99.296539 152.0
99.32724 128.0
99.354065 128.0
99.377922 172.0
99.414368 184.0
99.516815 176.0
99.540749 192.0
99.554588 192.0
99.585396 180.0
99.606186 128.0
99.643486 124.0
99.679474 140.0
99.745285 156.0
99.836426 204.0
99.856636 120.0
99.872543 172.0
99.888458 180.0
99.908356 168.0
99.926262 140.0
99.987946 160.0
100.051643 156.0
100.073547 124.0
100.100571 80.0
100.192108 136.0
100.24884 260.0
100.269951 176.0
100.338539 312.0
100.36512 244.0
100.378418 264.0
100.410606 144.0
100.47216 196.0
100.518501 144.0
100.547989 144.0
100.61586 136.0
100.653961 48.0
100.671036 172.0
100.684326 168.0
100.705299 188.0
100.731689 228.0
100.747673 156.0
100.770889 180.0
100.805618 160.0
100.847588 136.0
100.873573 336.0
101.02108 1716.0
101.115601 168.0
101.155632 140.0
101.175812 152.0
101.209572 144.0
101.227715 32.0
101.27578 56.0
101.323563 164.0
101.398003 92.0
101.416039 144.0
101.448112 136.0
101.49102 192.0
101.541306 244.0
101.570755 152.0
101.62059 108.0
101.644669 164.0
101.680794 168.0
101.694847 60.0
101.761093 76.0
101.79554 172.0
101.811295 104.0
101.861115 164.0
101.885246 132.0
101.910934 336.0
101.934311 136.0
101.961975 192.0
101.9963 200.0
102.026299 152.0
102.058464 124.0
102.087524 124.0
102.124832 156.0
102.231461 192.0
102.254547 196.0
102.290993 452.0
102.318481 208.0
102.336136 76.0
102.377235 220.0
102.40461 80.0
102.437035 164.0
102.461014 148.0
102.52549 116.0
102.583946 132.0
102.604408 132.0
102.624268 180.0
102.641273 120.0
102.660568 52.0
102.704933 176.0
102.741249 104.0
102.763443 240.0
102.779587 112.0
102.801781 104.0
102.825996 108.0
102.855087 156.0
102.912804 164.0
102.956612 52.0
102.970108 160.0
102.993584 320.0
103.018921 176.0
103.051392 260.0
103.169395 172.0
103.211853 112.0
103.248253 136.0
103.286682 196.0
103.35952 152.0
103.404045 132.0
103.466797 124.0
103.509315 140.0
103.590332 184.0
103.608566 204.0
103.67543 132.0
103.726105 52.0
103.751854 176.0
103.758606 124.0
103.765251 180.0
103.815315 164.0
103.854691 184.0
103.88176 116.0
103.979645 84.0
104.004005 128.0
104.026489 156.0
104.05069 56.0
104.083183 64.0
104.108162 148.0
104.1502 76.0
104.170517 100.0
104.213501 300.0
104.237564 136.0
104.266014 112.0
104.294472 280.0
104.31794 220.0
104.363594 160.0
104.410362 160.0
104.451912 168.0
104.509079 152.0
104.513092 160.0
104.534523 136.0
104.550743 72.0
104.575165 136.0
104.589417 44.0
104.65049 232.0
104.668816 164.0
104.690666 192.0
104.711578 140.0
104.774727 52.0
104.817413 164.0
104.873825 156.0
104.901215 192.0
104.987755 140.0
105.014908 136.0
105.044357 3288.0
105.145851 164.0
105.186951 148.0
105.260536 136.0
105.296936 108.0
105.349945 128.0
105.472656 312.0
105.501274 80.0
105.544052 156.0
105.548752 144.0
105.556961 188.0
105.583488 136.0
105.603516 200.0
105.617836 176.0
105.63829 272.0
105.658752 144.0
105.744698 160.0
105.765877 160.0
105.793823 104.0
105.83477 136.0
105.892113 96.0
105.915062 136.0
105.92981 212.0
105.983788 160.0
106.032898 188.0
106.050987 812.0
106.104179 156.0
106.143555 104.0
106.157387 128.0
106.182007 156.0
106.200104 60.0
106.219574 116.0
106.237495 124.0
106.259048 164.0
106.338516 204.0
106.365768 212.0
106.384239 132.0
106.434204 108.0
106.476646 180.0
106.534767 220.0
106.577301 184.0
106.638954 116.0
106.66198 240.0
106.682121 168.0
106.701546 212.0
106.727356 136.0
106.754089 168.0
106.772598 108.0
106.803452 120.0
106.8172 156.0
106.833405 172.0
106.867226 96.0
106.908379 160.0
106.993729 840.0
107.035873 616.0
107.062782 120.0
107.091621 136.0
107.120461 144.0
107.13694 248.0
107.171967 224.0
107.202873 80.0
107.22142 40.0
107.239975 160.0
107.299751 52.0
107.347176 84.0
107.363678 44.0
107.38224 84.0
107.398743 144.0
107.419365 96.0
107.435867 136.0
107.48333 224.0
107.516541 168.0
107.557625 220.0
107.58033 144.0
107.622353 212.0
107.698036 220.0
107.754372 148.0
107.774475 44.0
107.830276 100.0
107.856094 168.0
107.903488 96.0
107.929504 124.0
107.969566 148.0
107.999886 296.0
108.018074 204.0
108.041573 460.0
108.080505 128.0
108.196411 140.0
108.215157 152.0
108.261192 140.0
108.285454 120.0
108.34967 208.0
108.407692 36.0
108.442924 136.0
108.488525 120.0
108.507889 272.0
108.534142 168.0
108.556374 216.0
108.583641 136.0
108.641739 196.0
108.671036 36.0
108.687675 236.0
108.731339 272.0
108.76339 120.0
108.79174 176.0
108.832893 184.0
108.898109 140.0
108.938858 88.0
108.974182 68.0
108.993942 360.0
109.036522 296.0
109.063538 116.0
109.078094 172.0
109.098877 140.0
109.123009 304.0
109.148781 152.0
109.168381 132.0
109.225731 160.0
109.25486 168.0
109.322311 200.0
109.360985 56.0
109.432213 116.0
109.448425 168.0
109.47966 152.0
109.567551 204.0
109.587982 84.0
109.606735 28.0
109.633659 100.0
109.654663 196.0
109.677589 60.0
109.721375 112.0
109.75473 168.0
109.813751 160.0
109.975876 260.0
110.00647 5600.0
110.040108 2520.0
110.067917 196.0
110.117767 192.0
110.203308 172.0
110.24321 100.0
110.262016 168.0
110.275635 132.0
110.334808 148.0
110.359238 196.0
110.412544 180.0
110.448105 184.0
110.468575 56.0
110.504593 232.0
110.540161 176.0
110.60923 120.0
110.687294 168.0
110.713921 80.0
110.751617 100.0
110.774658 112.0
110.793518 132.0
110.82428 204.0
110.847153 200.0
110.86895 64.0
110.910576 144.0
110.932465 172.0
110.990883 320.0
111.014023 26500.0
111.042931 240.0
111.081306 168.0
111.11219 204.0
111.16465 188.0
111.191933 108.0
111.236008 64.0
111.268936 164.0
111.28299 132.0
111.313858 104.0
111.33889 104.0
111.368423 132.0
111.401909 72.0
111.491661 252.0
111.517113 92.0
111.60157 72.0
111.624702 128.0
111.664658 124.0
111.681488 180.0
111.704628 124.0
111.751007 84.0
111.76918 152.0
111.836655 188.0
111.86245 148.0
111.885193 180.0
111.931931 180.0
111.957207 172.0
112.017372 1056.0
112.052673 276.0
112.073067 168.0
112.121529 100.0
112.18055 132.0
112.221901 300.0
112.245911 220.0
112.26255 148.0
112.34082 168.0
112.397789 132.0
112.42659 168.0
112.456345 220.0
112.462135 220.0
112.488548 132.0
112.512314 108.0
112.538513 108.0
112.58567 200.0
112.650826 156.0
112.702049 132.0
112.742241 180.0
112.763145 164.0
112.794846 180.0
112.858276 284.0
112.875191 176.0
112.906914 116.0
112.950417 148.0
113.009056 768.0
113.031723 184.0
113.071938 136.0
113.096504 224.0
113.125381 128.0
113.167198 144.0
113.228607 168.0
113.249786 44.0
113.321342 164.0
113.403954 140.0
113.442619 156.0
113.487938 128.0
113.542274 236.0
113.608032 56.0
113.624626 200.0
113.662788 268.0
113.705643 164.0
113.765076 180.0
113.7948 100.0
113.809662 132.0
113.886116 200.0
113.908562 120.0
113.94101 100.0
113.992348 152.0
114.013596 176.0
114.032722 312.0
114.053543 196.0
114.08374 56.0
114.102875 136.0
114.132645 200.0
114.183678 204.0
114.22197 172.0
114.275154 44.0
114.297104 152.0
114.317711 44.0
114.356628 168.0
114.374878 144.0
114.429604 152.0
114.496384 164.0
114.53701 272.0
114.554054 196.0
114.594528 192.0
114.624359 84.0
114.655579 228.0
114.679771 184.0
114.783791 172.0
114.79969 180.0
114.827766 136.0
114.842888 152.0
114.850746 196.0
114.886551 132.0
114.90155 252.0
114.93441 40.0
114.999413 480.0
115.029922 420.0
115.05735 80.0
115.176941 108.0
115.201218 176.0
115.311554 116.0
115.345703 164.0
115.357506 64.0
115.389153 212.0
115.431953 176.0
115.492569 188.0
115.50827 44.0
115.54464 180.0
115.670898 108.0
115.692307 96.0
115.73513 156.0
115.792953 148.0
115.842216 180.0
115.86364 132.0
115.888191 192.0
115.90435 96.0
115.965858 200.0
116.001373 356.0
116.03376 404.0
116.062386 132.0
116.123016 140.0
116.18737 132.0
116.219559 152.0
116.233505 136.0
116.248497 132.0
116.273209 112.0
116.329948 172.0
116.346191 124.0
116.363365 40.0
116.378395 176.0
116.432083 232.0
116.446037 144.0
116.466446 36.0
116.481483 136.0
116.51371 140.0
116.543785 168.0
116.585716 156.0
116.609749 192.0
116.629753 184.0
116.644798 36.0
116.7295 232.0
116.782417 136.0
116.803925 104.0
116.838348 140.0
116.857712 132.0
116.90564 204.0
116.967468 160.0
117.008095 376.0
117.041626 108.0
117.06041 332.0
117.144302 136.0
117.200066 124.0
117.27549 200.0
117.29705 184.0
117.340164 168.0
117.361725 92.0
117.398582 172.0
117.43721 116.0
117.482651 120.0
117.503815 164.0
117.529976 96.0
117.588295 160.0
117.631409 144.0
117.648682 112.0
117.687546 76.0
117.870667 180.0
117.905731 104.0
117.946793 156.0
117.983604 152.0
118.008408 144.0
118.052635 984.0
118.134926 240.0
118.169548 124.0
118.217148 200.0
118.243118 148.0
118.262596 236.0
118.291649 220.0
118.321045 204.0
118.359627 132.0
118.376701 364.0
118.444489 148.0
118.533318 72.0
118.557983 168.0
118.611343 44.0
118.632034 176.0
118.7024 196.0
118.750114 220.0
118.771805 100.0
118.792252 160.0
118.808685 140.0
118.917183 76.0
118.954079 196.0
119.027901 48.0
119.057884 172.0
119.072205 180.0
119.245148 76.0
119.315407 200.0
119.333656 168.0
119.409256 140.0
119.42997 152.0
119.464188 284.0
119.55616 40.0
119.588806 128.0
119.633217 220.0
119.661697 152.0
119.712906 76.0
119.736282 88.0
119.836868 132.0
119.876289 232.0
119.908981 132.0
119.92424 172.0
119.939491 148.0
119.988403 284.0
120.051598 168.0
120.104126 112.0
120.194664 156.0
120.214302 112.0
120.229584 256.0
120.244858 60.0
120.274048 172.0
120.326485 336.0
120.383148 128.0
120.439186 184.0
120.469765 164.0
120.487244 48.0
120.566666 116.0
120.624924 172.0
120.66153 372.0
120.697075 144.0
120.843628 136.0
120.959618 124.0
120.997711 1328.0
121.025902 388.0
121.119301 200.0
121.139183 176.0
121.189575 232.0
121.20491 100.0
121.223228 168.0
121.258606 192.0
121.286003 132.0
121.356155 120.0
121.421944 200.0
121.529434 76.0
121.590881 44.0
121.644806 408.0
121.687469 96.0
121.740166 160.0
121.758469 204.0
121.789719 272.0
121.831596 192.0
121.858788 208.0
121.903259 168.0
121.922516 176.0
121.945786 360.0
122.006416 23588.0
122.048973 144.0
122.076401 64.0
122.095596 176.0
122.119034 332.0
122.157784 112.0
122.193962 108.0
122.210587 100.0
122.265602 104.0
122.285408 112.0
122.305222 72.0
122.365807 176.0
122.395485 148.0
122.430717 108.0
122.489731 228.0
122.545662 200.0
122.569504 164.0
122.602783 144.0
122.664276 48.0
122.696823 272.0
122.719391 204.0
122.737648 200.0
122.803246 152.0
122.820839 100.0
122.926743 164.0
122.952255 164.0
123.013313 9996.0
123.046989 100.0
123.079056 148.0
123.094513 152.0
123.13868 144.0
123.177139 204.0
123.213783 196.0
123.280075 80.0
123.31102 152.0
123.346382 60.0
123.36628 160.0
123.396965 132.0
123.404091 116.0
123.408714 144.0
123.443665 188.0
123.481064 176.0
123.505592 140.0
123.541512 184.0
123.583023 68.0
123.635765 80.0
123.664902 100.0
123.689255 200.0
123.705826 140.0
123.743805 156.0
123.789795 136.0
123.835541 180.0
123.868622 160.0
123.88575 260.0
123.889427 132.0
123.898499 100.0
123.91835 116.0
123.958733 292.0
123.973213 160.0
123.998367 15120.0
124.038422 220.0
124.056847 192.0
124.069244 196.0
124.110191 48.0
124.156761 168.0
124.192253 140.0
124.207779 92.0
124.232178 100.0
124.249924 44.0
124.27433 132.0
124.300858 264.0
124.369652 84.0
124.38974 140.0
124.407501 60.0
124.429703 120.0
124.476326 60.0
124.517342 188.0
124.538177 132.0
124.598495 28.0
124.62738 124.0
124.658485 128.0
124.67627 60.0
124.72879 152.0
124.765175 144.0
124.780739 156.0
124.815346 128.0
124.843002 252.0
124.88726 40.0
124.899399 56.0
124.929749 112.0
124.947548 128.0
125.002983 756.0
125.045456 148.0
125.076622 120.0
125.130493 140.0
125.200523 204.0
125.236946 80.0
125.259216 112.0
125.288177 56.0
125.379539 132.0
125.427551 148.0
125.501274 44.0
125.540054 148.0
125.569656 180.0
125.599091 136.0
125.656044 288.0
125.676125 88.0
125.735748 204.0
125.763161 164.0
125.825668 152.0
125.863625 116.0
125.899353 172.0
125.935295 44.0
125.957428 180.0
125.995064 512.0
126.046799 152.0
126.091156 152.0
126.130936 136.0
126.180908 132.0
126.234406 108.0
126.252243 200.0
126.298065 144.0
126.34623 144.0
126.405243 136.0
126.412621 184.0
126.453819 200.0
126.482483 144.0
126.524513 232.0
126.555489 168.0
126.580261 192.0
126.59935 184.0
126.666542 168.0
126.684464 124.0
126.740471 112.0
126.7584 204.0
126.823395 80.0
126.839088 288.0
126.875069 160.0
126.901855 80.0
126.935493 108.0
126.967598 316.0
127.00174 19368.0
127.047638 140.0
127.070076 140.0
127.142914 96.0
127.170135 136.0
127.213707 48.0
127.269836 152.0
127.334961 56.0
127.373573 148.0
127.406845 120.0
127.42482 176.0
127.488983 124.0
127.544846 196.0
127.586639 172.0
127.635765 132.0
127.663086 236.0
127.687828 136.0
127.723816 136.0
127.750809 200.0
127.795807 120.0
127.826599 328.0
127.845314 176.0
127.881325 48.0
127.915085 208.0
127.933098 64.0
127.971375 168.0
128.002655 644.0
128.029465 968.0
128.09259 112.0
128.123825 152.0
128.206024 164.0
128.236023 168.0
128.258942 148.0
128.307709 128.0
128.331879 192.0
128.363449 72.0
128.379242 108.0
128.481491 204.0
128.567017 320.0
128.613876 76.0
128.645477 100.0
128.771942 136.0
128.793106 240.0
128.83519 148.0
128.855515 240.0
128.955246 184.0
128.996414 1160.0
129.030579 244.0
129.154541 264.0
129.226562 108.0
129.246231 104.0
129.282883 184.0
129.2995 208.0
129.35759 220.0
129.385681 144.0
129.407394 304.0
129.507034 96.0
129.645233 184.0
129.674698 164.0
129.731369 124.0
129.778976 64.0
129.806198 112.0
129.822067 144.0
129.876495 212.0
129.95137 132.0
129.967255 196.0
129.987671 48.0
130.01532 152.0
130.038818 216.0
130.069977 208.0
130.103424 88.0
130.139755 116.0
130.155655 116.0
130.201065 156.0
130.219238 188.0
130.235138 104.0
130.263672 188.0
130.287766 144.0
130.346466 180.0
130.369186 108.0
130.451462 160.0
130.47374 236.0
130.523773 144.0
130.5616 124.0
130.641953 144.0
130.669342 172.0
130.701385 140.0
130.73761 80.0
130.789948 172.0
130.828659 168.0
130.869629 188.0
130.903793 56.0
130.928848 136.0
130.947067 200.0
131.011856 176.0
131.06781 192.0
131.111099 152.0
131.143005 132.0
131.179489 48.0
131.222794 184.0
131.295776 140.0
131.318253 172.0
131.369614 160.0
131.401703 172.0
131.460022 148.0
131.480576 168.0
131.517014 120.0
131.541412 152.0
131.621918 236.0
131.644699 116.0
131.658539 184.0
131.682556 128.0
131.722595 148.0
131.788452 160.0
131.813995 252.0
131.832275 124.0
131.866547 72.0
131.935135 148.0
131.986694 160.0
132.008301 148.0
132.063187 228.0
132.08606 168.0
132.116653 256.0
132.145538 88.0
132.173004 168.0
132.200455 120.0
132.218765 136.0
132.246689 180.0
132.301178 220.0
132.39505 136.0
132.550461 176.0
132.582916 160.0
132.610413 120.0
132.633347 172.0
132.649384 148.0
132.670013 88.0
132.706696 188.0
132.725052 92.0
132.754272 156.0
132.816788 92.0
132.869553 164.0
132.897079 120.0
132.921692 148.0
132.959457 44.0
132.987091 220.0
133.013397 196.0
133.039642 7748.0
133.074005 188.0
133.099075 160.0
133.117447 116.0
133.138382 220.0
133.248367 144.0
133.27594 112.0
133.296631 236.0
133.3311 140.0
133.385223 204.0
133.427979 192.0
133.459824 132.0
133.589203 236.0
133.61853 52.0
133.669846 172.0
133.72438 192.0
133.757065 140.0
133.781937 196.0
133.839859 128.0
133.847198 116.0
133.856369 172.0
133.883255 216.0
133.945435 128.0
133.986908 136.0
134.04097 672.0
134.083679 172.0
134.103989 84.0
134.136703 84.0
134.179993 292.0
134.267273 164.0
134.358093 160.0
134.48732 48.0
134.560059 204.0
134.660492 172.0
134.745087 164.0
134.771378 284.0
134.880005 164.0
134.920944 168.0
134.935486 200.0
134.95166 40.0
135.002533 148.0
135.027985 92.0
135.046478 256.0
135.067307 148.0
135.154083 188.0
135.201492 132.0
135.217697 44.0
135.240768 136.0
135.314926 152.0
135.341995 100.0
135.368179 172.0
135.395966 208.0
135.495575 40.0
135.512833 152.0
135.535675 156.0
135.560455 152.0
135.590576 140.0
135.61145 96.0
135.639252 172.0
135.701859 156.0
135.743881 192.0
135.813171 136.0
135.843323 244.0
135.927185 84.0
135.934616 92.0
135.965469 144.0
136.019272 156.0
136.039612 316.0
136.066116 312.0
136.082367 48.0
136.104233 208.0
136.142746 172.0
136.182236 128.0
136.226364 140.0
136.30304 80.0
136.321396 204.0
136.344864 192.0
136.409409 172.0
136.454117 116.0
136.487076 212.0
136.516907 180.0
136.586685 104.0
136.687408 216.0
136.728607 264.0
136.749557 136.0
136.775162 160.0
136.796112 208.0
136.858978 172.0
136.893097 212.0
136.959122 92.0
136.982407 100.0
137.014832 3588.0
137.036682 188.0
137.075607 124.0
137.139725 152.0
137.185196 164.0
137.216537 52.0
137.335083 232.0
137.355392 136.0
137.394806 152.0
137.45018 148.0
137.497711 176.0
137.538727 220.0
137.570084 136.0
137.609772 104.0
137.657715 120.0
137.682159 100.0
137.698502 164.0
137.728867 168.0
137.763916 344.0
137.787918 188.0
137.798248 224.0
137.803543 120.0
137.835709 204.0
137.859711 132.0
137.89476 288.0
137.928833 128.0
137.950867 172.0
137.976059 156.0
138.025131 99724.0
138.076004 232.0
138.096802 68.0
138.136353 200.0
138.173553 72.0
138.210938 140.0
138.237808 160.0
138.261139 92.0
138.297012 140.0
138.319778 120.0
138.360947 88.0
138.384918 160.0
138.409409 1372.0
138.440018 260.0
138.505157 188.0
138.543396 168.0
138.581512 52.0
138.628098 140.0
138.670166 136.0
138.728561 168.0
138.831253 212.0
138.860825 112.0
138.903656 92.0
138.919098 276.0
138.984619 232.0
139.026703 9436.0
139.06871 152.0
139.106369 172.0
139.134125 164.0
139.187943 84.0
139.206741 40.0
139.240829 132.0
139.29129 68.0
139.324707 124.0
139.347672 160.0
139.36412 36.0
139.389969 184.0
139.446365 80.0
139.491028 164.0
139.533035 184.0
139.575668 144.0
139.599182 44.0
139.615646 136.0
139.643875 48.0
139.723831 428.0
139.743317 128.0
139.77562 168.0
139.794449 84.0
139.817841 124.0
139.8414 420.0
139.865326 120.0
139.894684 164.0
139.940582 140.0
139.966293 144.0
139.987411 240.0
140.020386 4952.0
140.058838 120.0
140.087082 188.0
140.107605 240.0
140.145203 196.0
140.15332 140.0
140.162766 272.0
140.182388 120.0
140.200623 144.0
140.234039 104.0
140.287079 128.0
140.319717 120.0
140.353516 112.0
140.397537 104.0
140.420242 236.0
140.443512 220.0
140.477737 224.0
140.501328 104.0
140.527283 136.0
140.555588 68.0
140.585236 128.0
140.615585 124.0
140.671112 76.0
140.707596 84.0
140.738419 88.0
140.775131 72.0
140.820496 76.0
140.843628 32.0
140.863815 132.0
140.896606 224.0
140.949936 84.0
141.012054 416.0
141.058655 248.0
141.089386 160.0
141.146133 80.0
141.167191 176.0
141.191071 152.0
141.221817 164.0
141.268539 160.0
141.356674 144.0
141.422943 148.0
141.557892 96.0
141.593414 148.0
141.640778 216.0
141.695267 88.0
141.787689 236.0
141.844574 140.0
141.875397 172.0
141.91095 68.0
141.96312 140.0
142.010391 1728.0
142.072235 60.0
142.132614 204.0
142.233597 52.0
142.276123 180.0
142.304825 148.0
142.395065 172.0
142.414062 44.0
142.479095 148.0
142.497208 184.0
142.530472 260.0
142.570877 76.0
142.604141 116.0
142.636627 48.0
142.718262 220.0
142.759384 164.0
142.78009 156.0
142.801498 92.0
142.832352 168.0
142.839737 164.0
142.850998 172.0
142.900131 164.0
142.958511 152.0
142.994278 296.0
143.07515 144.0
143.120392 112.0
143.303787 176.0
143.320465 224.0
143.341919 144.0
143.363358 88.0
143.418182 112.0
143.545746 140.0
143.696945 148.0
143.821289 136.0
143.871429 64.0
143.916794 176.0
144.005157 168.0
144.025269 444.0
144.052917 92.0
144.08876 216.0
144.124603 124.0
144.162827 172.0
144.189117 76.0
144.279404 172.0
144.318207 120.0
144.356476 148.0
144.538269 144.0
144.600494 72.0
144.669907 116.0
144.693848 204.0
144.713013 212.0
144.729767 84.0
144.934708 136.0
144.991425 1100.0
145.022049 160.0
145.051544 144.0
145.103546 228.0
145.124252 88.0
145.175491 72.0
145.221054 104.0
145.247437 200.0
145.300217 136.0
145.34227 136.0
145.391403 196.0
145.422607 184.0
145.456207 192.0
145.473007 128.0
145.535431 152.0
145.593063 100.0
145.691544 192.0
145.773239 152.0
145.871796 32.0
145.94986 164.0
145.987198 104.0
146.02327 304.0
146.1082 108.0
146.133926 156.0
146.175903 72.0
146.215897 136.0
146.259399 88.0
146.287964 156.0
146.338516 180.0
146.393906 140.0
146.442078 68.0
146.458939 136.0
146.495544 220.0
146.567047 224.0
146.630005 128.0
146.649292 172.0
146.68544 84.0
146.707138 168.0
146.750534 184.0
146.790405 156.0
146.820465 220.0
146.871124 144.0
146.890411 116.0
146.990677 144.0
147.027954 40.0
147.066559 188.0
147.112427 124.0
147.153473 192.0
147.194519 36.0
147.212402 172.0
147.273346 100.0
147.346695 84.0
147.424011 192.0
147.450607 176.0
147.501358 160.0
147.536072 200.0
147.598923 204.0
147.618759 244.0
147.685135 64.0
147.702057 120.0
147.740768 160.0
147.764969 140.0
147.793991 208.0
147.842392 224.0
147.885956 172.0
147.910843 160.0
147.934921 160.0
147.978714 128.0
148.009033 200.0
148.037079 308.0
148.089355 56.0
148.169296 192.0
148.237137 140.0
148.295303 148.0
148.340988 288.0
148.359741 184.0
148.454575 132.0
148.468933 240.0
148.586304 180.0
148.645538 184.0
148.695419 136.0
148.719772 132.0
148.751328 108.0
148.769257 144.0
148.802307 128.0
148.83873 140.0
148.858154 140.0
148.904297 76.0
148.938263 156.0
148.962601 92.0
148.991241 1452.0
149.019699 33124.0
149.05191 184.0
149.077225 156.0
149.123428 84.0
149.147675 72.0
149.20076 156.0
149.217545 196.0
149.242859 96.0
149.266403 128.0
149.29248 100.0
149.322342 56.0
149.352478 276.0
149.39119 144.0
149.414383 148.0
149.446411 56.0
149.473312 72.0
149.492966 64.0
149.549896 160.0
149.55777 84.0
149.564194 140.0
149.619217 52.0
149.656143 168.0
149.70488 180.0
149.726349 120.0
149.753143 100.0
149.779938 48.0
149.838409 232.0
149.874954 188.0
149.936554 144.0
149.970749 164.0
150.024673 46464.0
150.064713 372.0
150.07045 272.0
150.082367 44.0
150.088181 340.0
150.15155 52.0
150.171524 80.0
150.235229 224.0
150.240677 148.0
150.276138 112.0
150.299896 88.0
150.357803 268.0
150.394409 84.0
150.429459 68.0
150.455444 72.0
150.494659 136.0
150.516479 208.0
150.555084 184.0
150.574677 192.0
150.583435 136.0
150.620209 144.0
150.645935 52.0
150.696167 100.0
150.726456 96.0
150.762802 140.0
150.802643 120.0
150.824326 260.0
150.865875 76.0
150.973114 188.0
151.024948 4008.0
151.058578 80.0
151.077759 44.0
151.13736 112.0
151.156937 44.0
151.191193 132.0
151.249756 108.0
151.291565 200.0
151.324631 196.0
151.346817 84.0
151.398605 156.0
151.53215 124.0
151.548721 168.0
151.611206 96.0
151.670731 204.0
151.761963 108.0
151.792923 116.0
151.810959 180.0
151.885468 124.0
151.929031 172.0
151.950836 48.0
151.992447 220.0
152.019592 1668.0
152.058807 84.0
152.0858 68.0
152.144714 28.0
152.161911 84.0
152.181549 112.0
152.199554 128.0
152.228531 120.0
152.277313 48.0
152.366577 156.0
152.41243 188.0
152.494125 188.0
152.530411 152.0
152.554993 132.0
152.572205 208.0
152.588638 140.0
152.630997 236.0
152.660721 52.0
152.695145 132.0
152.747726 220.0
152.786163 276.0
152.875763 136.0
152.90181 184.0
152.926422 120.0
152.986984 252.0
153.014496 460.0
153.157883 136.0
153.202225 96.0
153.256424 116.0
153.31311 228.0
153.37294 144.0
153.424026 44.0
153.478271 44.0
153.50293 124.0
153.534988 64.0
153.63118 144.0
153.658325 108.0
153.679413 220.0
153.74469 28.0
153.860703 68.0
153.924896 84.0
153.968765 84.0
154.013809 116.0
154.100281 132.0
154.174408 352.0
154.226318 208.0
154.342514 112.0
154.500809 140.0
154.530487 136.0
154.587402 88.0
154.63443 120.0
154.684708 140.0
154.703217 212.0
154.743347 160.0
154.763153 116.0
154.834976 212.0
154.998474 168.0
155.067871 164.0
155.229019 148.0
155.283569 232.0
155.379013 160.0
155.417542 112.0
155.526733 192.0
155.601212 100.0
155.760147 136.0
155.847107 44.0
155.9142 152.0
155.98877 224.0
156.024857 256.0
156.222519 220.0
156.26178 180.0
156.293762 216.0
156.339478 168.0
156.47438 184.0
156.510269 228.0
156.558548 220.0
156.595901 128.0
156.653198 72.0
156.673126 88.0
156.692398 152.0
156.712997 136.0
156.735413 184.0
156.790237 112.0
156.82016 92.0
156.857132 120.0
156.914886 248.0
156.998672 240.0
157.015747 260.0
157.042725 224.0
157.096939 116.0
157.136856 232.0
157.196747 172.0
157.29039 92.0
157.329041 108.0
157.366486 132.0
157.438904 204.0
157.481354 216.0
157.531311 124.0
157.651245 132.0
157.768738 256.0
157.846237 164.0
157.903763 120.0
157.943787 124.0
158.013824 164.0
158.048859 96.0
158.096405 208.0
158.138947 148.0
158.166489 188.0
158.197968 76.0
158.344254 192.0
158.384338 56.0
158.47644 136.0
158.50415 160.0
158.567245 164.0
158.584793 64.0
158.610947 140.0
158.665009 160.0
158.691162 148.0
158.736252 116.0
158.767822 204.0
158.825958 180.0
158.860626 84.0
158.930878 40.0
159.020233 132.0
159.154266 120.0
159.242172 140.0
159.289886 100.0
159.315018 68.0
159.347672 156.0
159.383255 76.0
159.420547 180.0
159.440643 176.0
159.493439 192.0
159.51857 44.0
159.684525 252.0
159.856674 108.0
159.916 180.0
159.99762 320.0
160.021729 64.0
160.046921 160.0
160.114868 216.0
160.147644 144.0
160.296295 148.0
160.364334 244.0
160.387558 260.0
160.475266 132.0
160.492905 52.0
160.576126 168.0
160.595917 208.0
160.728668 120.0
160.765793 160.0
160.799881 228.0
160.848648 144.0
160.883987 208.0
160.914276 152.0
160.9673 132.0
160.990036 116.0
161.027924 160.0
161.068329 96.0
161.141602 108.0
161.242676 152.0
161.262894 296.0
161.293228 132.0
161.348846 156.0
161.386765 52.0
161.406998 48.0
161.533463 100.0
161.578995 168.0
161.599228 152.0
161.662491 200.0
161.751083 168.0
161.865005 168.0
161.928329 160.0
161.951126 140.0
161.973923 204.0
162.027054 176.0
162.062592 204.0
162.118332 140.0
162.201981 84.0
162.22226 128.0
162.27803 176.0
162.348328 144.0
162.486008 56.0
162.506317 216.0
162.551987 188.0
162.587509 188.0
162.666199 188.0
162.818542 180.0
162.866806 176.0
162.889465 296.0
162.9758 124.0
163.034485 76.0
163.164124 168.0
163.188141 144.0
163.260757 176.0
163.3396 160.0
163.370132 64.0
163.390488 152.0
163.452026 148.0
163.482849 212.0
163.542297 212.0
163.63736 144.0
163.676575 148.0
163.698471 148.0
163.732483 232.0
163.794876 216.0
163.833466 140.0
163.858414 96.0
163.86499 140.0
163.903229 176.0
163.943176 264.0
163.969894 224.0
163.990692 120.0
164.032303 49376.0
164.138763 144.0
164.179016 120.0
164.203003 180.0
164.254013 124.0
164.315277 268.0
164.353592 36.0
164.375549 120.0
164.40564 56.0
164.451752 236.0
164.485626 224.0
164.521103 76.0
164.581543 172.0
164.624176 160.0
164.694016 268.0
164.721237 76.0
164.774216 76.0
164.808105 120.0
164.834671 164.0
164.940994 88.0
164.966568 132.0
165.01088 3668.0
165.033569 3184.0
165.067001 140.0
165.140442 132.0
165.161713 76.0
165.233063 116.0
165.27092 228.0
165.293945 108.0
165.378403 240.0
165.39888 128.0
165.470062 164.0
165.498718 104.0
165.556717 80.0
165.583237 260.0
165.604706 136.0
165.651611 204.0
165.664688 60.0
165.669525 192.0
165.693848 152.0
165.724136 96.0
165.742996 236.0
165.76825 128.0
165.797607 148.0
165.829376 208.0
165.852264 200.0
165.909531 156.0
165.933487 188.0
165.968567 172.0
166.019928 93800.0
166.07692 280.0
166.091858 228.0
166.113342 172.0
166.150742 112.0
166.170883 88.0
166.194733 88.0
166.238266 200.0
166.264206 500.0
166.28978 100.0
166.300583 128.0
166.305817 104.0
166.329315 164.0
166.359268 192.0
166.416672 80.0
166.442032 484.0
166.470474 180.0
166.505157 112.0
166.526657 72.0
166.546326 172.0
166.584457 60.0
166.601593 104.0
166.630127 108.0
166.667099 80.0
166.697647 212.0
166.721161 120.0
166.781464 36.0
166.812836 124.0
166.856018 48.0
166.954895 216.0
167.022095 9088.0
167.076828 192.0
167.111679 208.0
167.132477 140.0
167.172485 68.0
167.192993 40.0
167.240662 92.0
167.267868 88.0
167.300308 116.0
167.358795 80.0
167.383575 184.0
167.432419 208.0
167.455597 60.0
167.482498 108.0
167.514847 68.0
167.540604 36.0
167.565506 288.0
167.587982 160.0
167.643677 200.0
167.66597 92.0
167.702957 140.0
167.739044 112.0
167.782303 128.0
167.893738 88.0
167.929855 156.0
167.966919 184.0
168.014557 4816.0
168.078445 96.0
168.110443 96.0
168.12851 92.0
168.146088 84.0
168.176346 120.0
168.232681 68.0
168.267914 396.0
168.288559 72.0
168.325287 144.0
168.363113 184.0
168.383362 192.0
168.408981 108.0
168.437454 160.0
168.510574 196.0
168.526886 120.0
168.588211 168.0
168.614059 176.0
168.710251 148.0
168.769165 224.0
168.813126 148.0
168.880371 64.0
168.947617 160.0
168.97847 204.0
169.022797 2920.0
169.085587 200.0
169.195557 176.0
169.22197 164.0
169.247864 224.0
169.264297 92.0
169.385117 160.0
169.42981 224.0
169.512421 180.0
169.566498 148.0
169.591675 168.0
169.633896 76.0
169.71225 108.0
169.737595 40.0
169.766129 124.0
169.797241 96.0
169.849121 32.0
169.911392 256.0
169.992416 88.0
170.024124 564.0
170.152756 52.0
170.209885 160.0
170.321548 120.0
170.480042 112.0
170.732224 104.0
170.750427 184.0
170.823257 228.0
170.893494 208.0
170.924728 184.0
170.973587 160.0
171.017838 456.0
171.044449 132.0
171.08609 108.0
171.132965 108.0
171.177231 156.0
171.209 60.0
171.24234 44.0
171.295715 244.0
171.34787 172.0
171.544601 56.0
171.565887 148.0
171.638763 208.0
171.706268 152.0
171.755829 256.0
171.789734 112.0
171.850555 168.0
171.920197 176.0
171.975479 144.0
172.066376 172.0
172.094879 144.0
172.155151 140.0
172.215225 152.0
172.233505 56.0
172.262238 96.0
172.317108 80.0
172.36937 156.0
172.476517 216.0
172.557556 200.0
172.66478 220.0
172.694641 200.0
172.824356 208.0
172.889771 92.0
172.984665 544.0
173.06778 88.0
173.235397 176.0
173.282562 108.0
173.374268 100.0
173.410965 152.0
173.442413 88.0
173.476501 40.0
173.670547 152.0
173.716797 152.0
173.751862 56.0
173.783356 88.0
173.81221 196.0
173.951309 140.0
173.987732 308.0
173.992233 68.0
174.016434 816.0
174.135117 196.0
174.203415 112.0
174.240204 172.0
174.340378 64.0
174.411621 104.0
174.460953 124.0
174.487244 108.0
174.525101 120.0
174.568756 120.0
174.662735 164.0
174.731842 184.0
174.773941 88.0
174.839737 156.0
174.866058 156.0
174.92659 116.0
174.968719 156.0
174.997681 152.0
175.024948 304.0
175.279526 96.0
175.31427 212.0
175.429749 68.0
175.456116 128.0
175.566864 216.0
175.592133 76.0
175.693481 148.0
175.735687 152.0
175.809586 72.0
175.997009 60.0
176.031815 14408.0
176.078873 36.0
176.118484 76.0
176.136978 52.0
176.210953 72.0
176.287582 116.0
176.344025 100.0
176.521393 108.0
176.643524 160.0
176.692139 152.0
176.815231 108.0
176.853561 164.0
176.87561 156.0
176.903854 48.0
176.954163 156.0
177.036407 1744.0
177.131592 36.0
177.184586 44.0
177.261429 112.0
177.306473 168.0
177.376831 124.0
177.420456 224.0
177.439011 168.0
177.547729 64.0
177.645874 28.0
177.672409 160.0
177.693634 172.0
177.762619 56.0
177.815704 104.0
177.94577 64.0
177.991638 160.0
178.034988 320.0
178.142929 188.0
178.277817 144.0
178.32341 52.0
178.437866 168.0
178.51973 128.0
178.597717 112.0
178.631439 224.0
178.676666 136.0
178.759155 252.0
178.810577 136.0
178.831284 136.0
178.854965 64.0
178.956131 104.0
178.980103 144.0
179.020187 148.0
179.065323 72.0
179.153214 40.0
179.193893 180.0
179.286453 68.0
179.329086 104.0
179.365448 208.0
179.430389 120.0
179.49971 68.0
179.518387 244.0
179.670425 156.0
179.699768 96.0
179.758469 260.0
179.862564 216.0
180.009064 128.0
180.038788 240.0
180.1483 184.0
180.225769 132.0
180.279221 56.0
180.370087 68.0
180.39415 164.0
180.459061 52.0
180.557266 152.0
180.605408 180.0
180.666931 68.0
180.717194 208.0
180.80072 92.0
180.841431 268.0
180.883698 40.0
180.922913 148.0
180.99205 2628.0
181.105728 48.0
181.132736 204.0
181.29808 292.0
181.451645 156.0
181.478134 136.0
181.629135 172.0
181.811081 92.0
181.853821 148.0
181.915771 108.0
181.947983 72.0
181.998367 356.0
182.039276 76.0
182.068817 156.0
182.189697 72.0
182.251495 156.0
182.383179 156.0
182.450378 100.0
182.595596 116.0
182.681671 52.0
182.7005 144.0
182.988571 116.0
183.045013 172.0
183.063873 72.0
183.232315 164.0
183.276672 176.0
183.30632 212.0
183.575897 52.0
183.651413 212.0
183.718857 132.0
183.745392 100.0
183.749512 120.0
183.797089 120.0
184.032028 152.0
184.083237 264.0
184.137253 152.0
184.172363 104.0
184.261505 192.0
184.415543 204.0
184.493942 60.0
184.661591 176.0
184.718399 244.0
184.90239 136.0
184.924042 180.0
184.97818 136.0
185.072937 56.0
185.146057 264.0
185.194809 168.0
185.221893 216.0
185.276062 116.0
185.305878 228.0
185.360062 92.0
185.427811 196.0
185.585052 208.0
185.614868 48.0
185.736923 180.0
185.783035 112.0
185.905136 92.0
186.125015 156.0
186.146744 152.0
186.274399 48.0
186.345032 132.0
186.418396 172.0
186.461884 176.0
186.499939 112.0
186.570618 224.0
186.595078 148.0
186.695694 200.0
186.8181 144.0
186.848022 132.0
186.932373 140.0
186.981354 136.0
187.00975 252.0
187.101135 168.0
187.125641 104.0
187.534256 104.0
187.738739 156.0
187.771469 128.0
187.834198 100.0
187.856033 116.0
187.992447 664.0
188.032501 328.0
188.085251 112.0
188.137115 128.0
188.169876 84.0
188.205383 312.0
188.300964 176.0
188.421158 244.0
188.500397 32.0
188.524979 40.0
188.612442 128.0
188.771027 76.0
188.809311 116.0
188.896835 196.0
189.00354 108.0
189.028122 288.0
189.052795 124.0
189.145859 140.0
189.242813 172.0
189.425171 140.0
189.800644 100.0
189.904861 140.0
189.946014 132.0
189.996902 168.0
190.031052 220.0
190.113373 44.0
190.409882 116.0
190.555466 168.0
190.574707 156.0
190.709366 80.0
190.764343 152.0
190.890823 176.0
190.978409 156.0
191.039352 96.0
191.099869 92.0
191.245728 152.0
191.317307 56.0
191.427444 132.0
191.463242 100.0
191.501801 96.0
191.639542 124.0
191.691895 148.0
191.762344 180.0
191.783554 204.0
191.849854 156.0
191.915176 172.0
191.938812 84.0
191.978561 180.0
192.077896 72.0
192.16893 152.0
192.273911 92.0
192.353836 140.0
192.375916 204.0
192.400772 100.0
192.439423 232.0
192.559692 232.0
192.621704 176.0
192.715622 152.0
192.751556 88.0
192.787476 92.0
192.820633 184.0
192.841324 120.0
192.875916 52.0
192.902237 176.0
192.927612 304.0
192.99263 47136.0
193.051666 272.0
193.085068 132.0
193.180634 168.0
193.212479 260.0
193.233917 112.0
193.276947 80.0
193.314178 148.0
193.33342 108.0
193.37973 56.0
193.448273 72.0
193.458862 44.0
193.469635 116.0
193.498367 172.0
193.554306 60.0
193.622986 28.0
193.656219 28.0
193.721924 144.0
193.794739 60.0
193.850815 152.0
193.911118 40.0
193.944412 176.0
193.995255 2948.0
194.094086 68.0
194.11351 88.0
194.13678 92.0
194.260498 208.0
194.304886 128.0
194.396454 152.0
194.45752 128.0
194.565781 168.0
194.610199 180.0
194.639862 152.0
194.685181 48.0
194.715729 100.0
194.804611 72.0
194.835983 68.0
194.886963 56.0
194.940765 84.0
194.989273 1424.0
195.03804 144.0
195.089569 164.0
195.136383 96.0
195.172119 136.0
195.277161 160.0
195.335571 88.0
195.36618 56.0
195.393433 336.0
195.455612 56.0
195.47551 220.0
195.521088 120.0
195.552612 96.0
195.588791 128.0
195.636124 184.0
195.708511 40.0
195.744324 200.0
195.907791 64.0
195.925751 100.0
195.990891 64.0
196.062286 44.0
196.131973 208.0
196.508453 140.0
196.65358 120.0
196.687073 196.0
196.928802 84.0
196.963516 224.0
197.076248 136.0
197.11438 88.0
197.148972 180.0
197.201019 172.0
197.25972 128.0
197.343597 132.0
197.370483 148.0
197.424683 28.0
197.514191 168.0
197.533768 44.0
197.567337 84.0
197.637283 144.0
197.68486 84.0
197.819199 156.0
197.858398 48.0
197.886398 80.0
197.975998 228.0
198.004013 72.0
198.225327 236.0
199.427277 148.0
199.682388 212.0
199.856796 100.0
199.895523 184.0
200.101669 136.0
200.197418 148.0
200.29599 140.0
200.555237 192.0
200.574966 100.0
200.631348 156.0
200.710297 124.0
200.820282 108.0
201.027512 220.0
201.057281 148.0
201.136307 228.0
201.167358 48.0
201.27182 76.0
201.321838 224.0
201.404556 232.0
201.492126 136.0
201.520386 52.0
201.542999 176.0
201.639069 60.0
201.66452 152.0
201.71257 80.0
201.814346 156.0
201.837494 208.0
201.899185 132.0
201.958572 144.0
202.03479 8208.0
202.203094 152.0
202.238693 60.0
202.298141 84.0
202.388748 52.0
202.487854 64.0
202.632324 48.0
202.870392 188.0
202.99231 64.0
203.040604 1696.0
203.139801 40.0
203.196548 52.0
203.293015 140.0
203.417908 112.0
203.450394 180.0
203.525787 148.0
203.653595 128.0
203.750168 48.0
203.784271 76.0
203.84935 164.0
203.940567 216.0
204.041016 204.0
204.094086 92.0
204.122528 68.0
204.145279 136.0
204.19931 152.0
204.327316 144.0
204.435455 136.0
204.648941 60.0
204.856857 124.0
204.949509 132.0
205.190292 92.0
205.418442 92.0
205.506882 232.0
205.529709 212.0
205.676819 132.0
205.82373 60.0
205.899979 148.0
205.920822 48.0
205.955093 180.0
205.986511 144.0
206.177963 220.0
206.261612 180.0
206.418091 168.0
206.612595 76.0
206.787155 124.0
206.871078 112.0
206.918823 112.0
206.993378 108.0
207.031479 132.0
207.076324 176.0
207.159393 88.0
207.186813 132.0
207.225296 76.0
207.272888 216.0
207.348511 120.0
207.405838 116.0
207.448837 136.0
207.47464 108.0
207.52742 204.0
207.580734 108.0
207.602493 156.0
207.63974 184.0
207.666763 132.0
207.842621 216.0
207.867538 204.0
207.905792 296.0
207.962128 136.0
207.970261 316.0
208.003769 47004.0
208.092163 184.0
208.117981 96.0
208.154312 68.0
208.186249 56.0
208.240814 116.0
208.266663 96.0
208.294006 60.0
208.338577 132.0
208.359497 88.0
208.384445 132.0
208.413101 100.0
208.472946 88.0
208.505142 108.0
208.562622 120.0
208.59137 104.0
208.62587 152.0
208.703491 56.0
208.73526 168.0
208.766754 100.0
208.832901 64.0
208.873184 64.0
209.006805 3008.0
209.057724 140.0
209.125305 108.0
209.149811 88.0
209.162659 60.0
209.225494 96.0
209.340836 240.0
209.422958 192.0
209.460403 228.0
209.541077 52.0
209.604462 132.0
209.685852 184.0
209.739914 60.0
209.765869 56.0
209.791809 52.0
209.835052 32.0
209.869659 28.0
209.901367 188.0
209.953278 68.0
209.997955 1396.0
210.063278 120.0
210.110825 104.0
210.158096 64.0
210.204269 224.0
210.23024 108.0
210.296616 48.0
210.332565 124.0
210.349899 104.0
210.371674 92.0
210.430573 100.0
210.466949 100.0
210.509399 108.0
210.62001 172.0
210.665359 132.0
210.700897 108.0
210.790039 160.0
210.816483 268.0
210.85405 76.0
210.911865 60.0
210.98674 168.0
211.01593 180.0
211.050629 220.0
211.143173 144.0
211.250198 60.0
211.473907 140.0
211.519318 48.0
211.594589 108.0
211.710403 40.0
212.015839 144.0
212.078369 76.0
212.098663 64.0
212.411835 44.0
212.440842 116.0
212.562698 168.0
212.635254 220.0
212.693832 96.0
212.992401 144.0
213.050491 168.0
213.506851 224.0
213.600708 240.0
213.797775 56.0
213.989197 148.0
214.051056 212.0
214.161728 144.0
214.190842 256.0
214.359833 240.0
214.426865 56.0
214.461838 172.0
214.482239 64.0
214.508484 204.0
214.531311 196.0
214.610519 156.0
214.949158 172.0
215.008194 448.0
215.167801 184.0
215.337173 44.0
215.367905 152.0
215.529984 152.0
215.591354 40.0
215.842758 116.0
215.893265 176.0
215.988983 156.0
216.085526 124.0
216.451401 116.0
216.483612 76.0
216.539261 80.0
216.644714 236.0
216.788284 220.0
216.932297 184.0
217.019867 104.0
217.045364 144.0
217.051529 100.0
217.260361 32.0
217.39534 148.0
217.480453 144.0
217.518616 164.0
217.545029 88.0
217.650726 128.0
217.809326 68.0
217.845383 204.0
217.98732 432.0
218.176666 160.0
218.247223 140.0
218.408981 196.0
218.429565 172.0
218.556076 128.0
218.623764 100.0
218.788589 68.0
218.865143 132.0
218.888702 184.0
218.995758 736.0
219.03891 160.0
219.130234 80.0
219.313065 196.0
219.534073 172.0
219.72876 84.0
219.77597 84.0
219.955994 108.0
220.00618 92.0
220.112473 112.0
220.218796 100.0
220.263092 116.0
220.322174 128.0
220.34877 48.0
220.543808 132.0
220.665024 60.0
220.688675 64.0
220.762604 120.0
220.806961 148.0
220.999252 148.0
221.093933 148.0
221.161255 188.0
221.230103 128.0
221.511429 144.0
221.782181 164.0
222.11319 140.0
222.199219 140.0
222.231857 40.0
222.291199 112.0
222.430695 36.0
222.68309 148.0
223.081268 168.0
223.105042 52.0
223.155594 164.0
223.337006 68.0
223.426239 28.0
223.604782 68.0
223.813171 44.0
223.854858 160.0
223.917404 152.0
224.105072 84.0
224.12944 208.0
224.185532 156.0
224.295807 168.0
224.36438 156.0
224.417969 144.0
224.719299 64.0
224.755096 392.0
225.259674 312.0
225.295517 164.0
225.35527 124.0
225.385147 116.0
225.438934 112.0
225.480774 32.0
225.513657 136.0
225.597351 72.0
225.707977 128.0
225.815643 132.0
225.838928 188.0
225.844986 148.0
225.926315 140.0
225.96521 136.0
226.066406 108.0
226.126816 108.0
226.192657 200.0
226.264511 136.0
226.303436 172.0
226.375305 48.0
226.399261 88.0
226.50708 184.0
226.558014 128.0
226.620926 100.0
226.647888 180.0
226.854691 52.0
227.184586 172.0
227.277588 156.0
227.413834 188.0
227.460663 172.0
227.697876 132.0
227.923172 68.0
228.022354 116.0
228.247818 156.0
228.494461 200.0
228.551636 164.0
228.690063 176.0
228.756287 52.0
228.88266 148.0
229.012238 124.0
229.063446 148.0
229.189987 168.0
229.274368 48.0
229.355743 112.0
229.521561 128.0
229.643539 152.0
229.998245 112.0
230.119003 144.0
230.402908 96.0
230.484482 60.0
230.532837 96.0
230.690002 92.0
230.723267 128.0
230.940994 96.0
231.155792 160.0
231.219345 180.0
231.377594 136.0
231.479706 160.0
231.5009 52.0
231.934158 140.0
232.040268 108.0
232.49527 224.0
232.637924 84.0
232.891098 184.0
233.063141 60.0
233.102646 60.0
233.193817 120.0
233.221176 116.0
233.260681 108.0
233.382294 128.0
233.622574 196.0
233.732101 180.0
233.805145 120.0
233.853836 192.0
233.88562 116.0
233.920807 148.0
234.005157 2052.0
234.070602 40.0
234.121765 156.0
234.152222 112.0
234.188766 116.0
234.234451 196.0
234.261597 88.0
234.298004 116.0
234.3685 168.0
234.402023 48.0
234.427856 84.0
234.466019 148.0
234.520889 168.0
234.568222 256.0
234.577286 136.0
234.588791 188.0
234.627274 120.0
234.69342 168.0
234.710999 144.0
234.718384 200.0
234.770889 192.0
234.813583 160.0
234.840637 256.0
234.882095 156.0
234.938416 504.0
234.94223 360.0
235.015686 214504.0
235.11084 232.0
235.132202 172.0
235.18808 112.0
235.212708 120.0
235.236984 320.0
235.261688 184.0
235.291458 260.0
235.340942 252.0
235.374008 176.0
235.43483 68.0
235.480347 132.0
235.518173 1708.0
235.562607 156.0
235.590378 92.0
235.643921 32.0
235.674973 60.0
235.713516 108.0
235.73526 100.0
235.76799 116.0
235.820892 92.0
235.844772 116.0
235.888901 140.0
235.927322 104.0
235.95369 136.0
236.017517 16412.0
236.087891 120.0
236.11911 80.0
236.141251 52.0
236.15358 72.0
236.17421 180.0
236.219055 56.0
236.261978 168.0
236.294983 72.0
236.330338 136.0
236.380371 80.0
236.417557 60.0
236.513199 92.0
236.543671 68.0
236.578171 76.0
236.590347 44.0
236.658264 140.0
236.7108 116.0
236.769623 60.0
236.810806 108.0
236.833038 176.0
236.850327 52.0
236.914139 88.0
236.957108 136.0
237.011017 8124.0
237.068939 80.0
237.105408 96.0
237.173935 96.0
237.207397 96.0
237.232315 52.0
237.283936 100.0
237.335388 100.0
237.357468 112.0
237.402695 56.0
237.431885 92.0
237.490707 140.0
237.522888 192.0
237.558914 340.0
237.610703 84.0
237.616196 172.0
237.66658 200.0
237.699265 148.0
237.731537 120.0
237.759964 224.0
237.810974 168.0
237.83844 212.0
237.901093 84.0
237.941132 152.0
238.013107 744.0
238.058426 148.0
238.137756 56.0
238.183609 76.0
238.254257 40.0
238.280655 108.0
238.315704 80.0
238.364868 100.0
238.53392 84.0
238.567734 52.0
238.635376 44.0
238.687637 100.0
238.786057 68.0
238.884491 112.0
238.930634 68.0
238.966431 88.0
238.995239 76.0
239.069092 36.0
239.161423 72.0
239.24762 60.0
239.272247 68.0
239.46933 84.0
239.586395 84.0
239.62645 104.0
239.733032 68.0
239.891495 52.0
240.338699 104.0
240.394241 36.0
240.468307 40.0
241.150909 64.0
241.35495 36.0
241.515152 96.0
241.735428 92.0
241.778763 56.0
241.93042 80.0
242.009659 64.0
242.73291 52.0
242.847656 72.0
243.008972 116.0
243.123795 100.0
243.605072 56.0
244.021515 44.0
244.105484 44.0
244.133469 76.0
244.379211 140.0
244.550369 40.0
244.634415 32.0
244.86795 52.0
244.933365 76.0
245.29483 136.0
245.423401 84.0
245.475677 28.0
245.53804 128.0
245.606659 60.0
246.052917 64.0
246.265274 80.0
246.358978 72.0
246.471466 88.0
246.580841 68.0
246.724625 84.0
246.802795 64.0
247.034241 72.0
247.071777 96.0
247.272049 112.0
247.736465 64.0
247.914078 100.0
248.033188 100.0
248.070801 72.0
248.146042 160.0
248.425171 128.0
248.732697 48.0
249.241486 64.0
249.263489 88.0
249.448914 68.0
249.543228 52.0
249.675308 68.0
249.870331 68.0
249.942703 32.0
250.087479 40.0
250.40863 64.0
250.496826 128.0
250.815094 104.0
251.186371 92.0
252.203964 40.0
252.267197 104.0
252.355713 132.0
252.494858 68.0
252.956818 76.0
253.926422 92.0
254.014969 96.0
254.605606 48.0
255.848907 72.0
256.31073 60.0
256.61673 48.0
256.753845 80.0
257.376129 48.0
257.625854 64.0
258.706207 56.0
259.345917 124.0
259.596954 28.0
262.068878 132.0
263.243042 68.0
265.920471 124.0
266.563507 40.0
267.74118 52.0
268.999786 84.0
270.510071 56.0
270.824402 104.0
271.079956 88.0
271.932678 76.0
275.327118 72.0
275.928528 80.0
276.785522 32.0
278.041931 64.0
278.101685 96.0
278.699463 96.0
279.693848 56.0
282.302948 76.0
282.590607 76.0
282.630768 84.0
286.222473 100.0
287.034576 124.0
287.584473 84.0
289.555664 44.0
289.985962 60.0
290.538696 112.0
291.88031 64.0
295.253052 80.0
296.208008 68.0
296.51297 84.0
297.858002 144.0
298.813721 76.0
299.957062 48.0
301.617462 36.0
303.57019 36.0
307.044464 112.0
307.149109 36.0
308.357239 32.0
309.186127 68.0
309.427643 92.0
309.574707 148.0
311.732208 40.0
315.139679 64.0
315.687561 132.0
318.867706 32.0
319.27655 140.0
320.127106 76.0
321.371155 56.0
321.442535 64.0
321.47464 68.0
321.695953 112.0
322.128052 48.0
322.410309 68.0
322.574738 52.0
323.23999 60.0
323.361664 76.0
323.404633 72.0
323.956085 44.0
327.739349 76.0
328.171875 84.0
328.528931 68.0
329.413391 48.0
336.082916 64.0
336.243469 68.0
337.551361 60.0
339.297913 52.0
340.251801 112.0
343.23584 44.0
344.265411 96.0
346.118103 60.0
346.188446 44.0
346.303253 72.0
346.666351 96.0
347.534058 44.0
347.749298 88.0
349.332245 64.0
351.302948 96.0
351.366364 88.0
352.501465 40.0
354.601013 68.0
355.42981 96.0
355.74884 64.0
356.169403 36.0
356.304657 48.0
359.746857 76.0
360.645874 56.0
360.842468 80.0
360.891632 80.0
361.069366 136.0
363.258698 64.0
363.569824 152.0
364.371033 76.0
366.322693 60.0
368.925354 88.0
369.506683 64.0
370.670715 52.0
372.739044 92.0
372.823578 144.0
375.530182 72.0
376.263397 56.0
378.684143 68.0
379.5755 80.0
381.155396 88.0
387.35498 104.0
387.766418 76.0
388.62915 52.0
389.025574 84.0
395.902191 48.0
396.017029 120.0
396.829437 56.0
400.636932 96.0
403.406525 52.0
403.782379 72.0
404.278473 28.0
404.646759 48.0
408.037018 100.0
408.696655 60.0
412.330109 64.0
415.038391 60.0
415.354736 36.0
419.987823 76.0
423.662842 100.0
425.180023 36.0
425.857452 48.0
427.526703 88.0
427.563721 76.0
428.473755 60.0
428.770447 36.0
431.329529 68.0
432.164948 72.0
432.210449 72.0
432.342896 44.0
435.319458 92.0
436.14624 52.0
436.736694 128.0
437.340027 48.0
440.789124 36.0
441.215454 104.0
446.124725 56.0
450.963959 64.0
452.800232 68.0
463.146271 60.0
467.241669 124.0
471.562561 44.0
475.239227 96.0
476.728668 96.0
477.746124 40.0
481.656433 48.0
481.71759 56.0
482.276917 72.0
482.443024 88.0
484.289673 72.0
495.168976 40.0
497.661224 60.0
498.887482 112.0
499.536743 84.0
501.139496 112.0
510.639038 64.0
512.291016 68.0
512.403625 68.0
512.547852 84.0
518.635498 64.0
521.495117 48.0
522.431824 148.0
523.984314 44.0
532.098022 40.0
535.035828 64.0
536.726807 104.0
538.074097 80.0
539.242798 92.0
544.617615 48.0
544.803406 52.0
545.182495 48.0
546.65863 104.0
547.398804 48.0
549.608337 76.0
558.528625 76.0
562.411377 72.0
565.474182 96.0
567.174438 92.0
570.683044 32.0
571.011169 116.0
575.767639 64.0
578.253784 80.0
586.284058 76.0
591.645752 128.0
593.389893 84.0
595.233704 48.0
604.319702 76.0
608.284546 92.0
608.534912 60.0
616.594116 64.0
630.090576 44.0
633.272095 44.0
638.09967 92.0
644.147339 96.0
659.83075 64.0
663.265869 240.0
664.476135 80.0
670.209106 76.0
670.276123 60.0
671.920959 64.0
672.973877 40.0
677.908691 52.0
688.600098 88.0
690.246277 68.0
691.915405 64.0
694.383545 192.0
706.562622 212.0
706.816589 132.0
707.700562 72.0
715.148804 44.0
720.043396 184.0
721.427307 148.0
725.356628 100.0
736.673706 80.0
738.949768 56.0
739.269043 112.0
744.554871 92.0
748.203552 76.0
750.431946 140.0
750.759094 164.0
754.811157 184.0
754.97522 68.0
755.172119 160.0
755.615173 68.0
758.660278 84.0
759.252441 160.0
767.52887 172.0
769.167419 208.0
773.290955 176.0
779.563477 156.0
782.394714 80.0
783.046204 216.0
783.285706 112.0
783.670166 148.0
784.288757 180.0
785.370483 88.0
786.196228 108.0
791.495789 152.0
793.423218 68.0
793.608215 128.0
795.678589 132.0
796.942322 224.0
800.750854 56.0
801.466309 188.0
803.236572 116.0
803.608948 56.0
803.699219 144.0
809.028992 60.0
809.83313 136.0
813.121643 96.0
816.928711 32.0
817.509094 112.0
819.502136 136.0
819.644592 144.0
824.055298 152.0
826.685669 148.0
829.566711 152.0
831.849854 116.0
833.848816 52.0
836.920776 220.0
838.038208 108.0
839.323608 164.0
840.67926 92.0
841.522034 132.0
841.949341 108.0
843.607666 68.0
844.463501 212.0
844.845276 172.0
845.533875 140.0
849.288391 60.0
850.100647 168.0
850.216736 244.0
851.128113 156.0
853.301208 128.0
854.505188 68.0
858.203735 144.0
859.545349 156.0
859.901367 208.0
861.215088 48.0
867.35907 160.0
869.259338 216.0
870.104614 204.0
872.154846 132.0
874.130981 56.0
874.342834 172.0
875.543823 104.0
875.585083 252.0
876.268372 132.0
882.294312 48.0
882.83374 264.0
883.536255 140.0
884.589661 220.0
885.525269 224.0
885.655579 28.0
885.833252 144.0
887.231873 36.0
887.415527 188.0
887.860413 44.0
891.172852 184.0
891.214417 188.0
896.933716 132.0
897.911621 80.0
899.880859 236.0
901.87616 164.0
902.019653 112.0
904.023315 124.0
904.11908 212.0
905.172729 196.0
906.370728 148.0
909.165283 156.0
910.468018 132.0
911.591492 84.0
911.717651 184.0
913.520996 176.0
913.942688 112.0
914.544495 28.0
914.845459 128.0
916.122192 168.0
917.496277 220.0
918.503357 108.0
918.708496 160.0
919.100647 176.0
920.012024 168.0
920.561462 180.0
923.625793 72.0
924.248901 96.0
924.684631 108.0
924.823853 32.0
925.199158 212.0
926.422485 56.0
926.507324 164.0
927.689087 168.0
928.768494 96.0
930.637695 188.0
934.314819 108.0
934.935486 244.0
935.818176 164.0
937.298279 252.0
939.914246 176.0
941.019104 200.0
941.977905 192.0
942.142883 56.0
942.521667 284.0
943.615784 128.0
943.695251 132.0
943.909302 164.0
944.147766 88.0
945.554932 204.0
946.326233 192.0
947.71051 132.0
949.101929 136.0
951.636108 68.0
951.875183 124.0
952.121216 220.0
954.382629 164.0
954.751648 64.0
955.55127 172.0
955.69281 148.0
956.431335 88.0
958.358948 156.0
959.486877 128.0
959.795166 124.0
959.955505 140.0
961.528687 160.0
963.677673 108.0
963.924866 152.0
964.246216 144.0
964.685059 164.0
964.796326 112.0
965.377563 132.0
966.781921 132.0
966.905701 104.0
967.97052 156.0
968.565063 108.0
969.227966 208.0
969.742371 64.0
970.690918 132.0
973.245056 288.0
973.502075 76.0
974.222595 132.0
975.142273 116.0
975.465454 124.0
976.696716 108.0
978.482788 164.0
978.582397 140.0
979.180176 96.0
979.784424 160.0
980.750366 208.0
982.901978 164.0
983.944336 156.0
984.04425 144.0
984.575073 156.0
985.049744 112.0
986.324524 124.0
986.574585 188.0
989.214539 132.0
989.277161 104.0
990.009766 80.0
991.79541 128.0
991.977173 140.0
992.880127 148.0
993.6203 148.0
994.385864 132.0
995.446838 184.0
996.238281 132.0
997.22467 132.0
998.381653 156.0
999.004395 212.0
999.732178 180.0
1000.111877 140.0
1001.112976 176.0
1001.623169 140.0
1003.104004 148.0
1003.576843 200.0
1005.545105 92.0
1009.904785 52.0
1010.290649 60.0
1010.860107 184.0
1011.283264 228.0
1011.410706 180.0
1011.556335 88.0
1011.904541 160.0
1012.905151 148.0
1014.254822 172.0
1015.992432 172.0
1016.20813 124.0
1016.277954 124.0
1016.791931 144.0
1017.166443 148.0
1017.629883 116.0
1017.864868 244.0
1017.998169 196.0
1019.167053 44.0
1020.018677 48.0
1020.730713 96.0
1021.544861 52.0
1023.231384 148.0
1023.46698 148.0
1024.059204 148.0
1024.218506 116.0
1025.658569 132.0
1026.474609 224.0
1027.367554 76.0
1028.554565 132.0
1028.9823 100.0
1030.125488 108.0
1030.534302 164.0
1030.7771 40.0
1032.330566 184.0
1034.006714 108.0
1034.19873 52.0
1034.426758 216.0
1034.672485 148.0
1035.857178 180.0
1036.19043 128.0
1036.658081 64.0
1037.06189 84.0
1037.382446 136.0
1037.491455 188.0
1037.734985 144.0
1037.863281 52.0
1038.555908 176.0
1038.60083 140.0
1038.774048 148.0
1039.197388 64.0
1039.633789 156.0
1039.941895 128.0
1040.667236 124.0
1041.559937 84.0
1042.330933 152.0
1043.044312 104.0
1044.909302 204.0
1045.044434 208.0
1045.366211 88.0
1045.733032 40.0
1045.778076 220.0
1046.988525 152.0
1047.297729 172.0
1048.019165 148.0
1048.489624 244.0
1048.695923 128.0
1049.160034 40.0
1049.29541 196.0
1049.411499 164.0
1049.907959 44.0
1050.504761 168.0
1050.701416 204.0
1051.16687 152.0
1051.753296 236.0
1052.21167 120.0
1052.973633 44.0
1053.425781 180.0
1054.110718 100.0
1054.666504 124.0
1054.750488 212.0
1055.196533 232.0
1055.558716 188.0
1055.726807 76.0
1056.360718 92.0
1056.509521 164.0
1056.794189 104.0
1057.091797 236.0
1057.447754 184.0
1058.755615 152.0
1059.046997 56.0
1059.99292 132.0
1060.628052 148.0
1060.77356 200.0
1061.107788 60.0
1061.567505 160.0
1062.123413 152.0
1062.288208 40.0
1062.891602 84.0
1063.592529 224.0
1065.020996 88.0
1065.696655 116.0
1066.743042 156.0
1066.866577 88.0
1067.705322 160.0
1067.789917 128.0
1068.798218 188.0
1069.885254 100.0
1070.457886 188.0
1071.005249 96.0
1071.350586 44.0
1072.178101 124.0
1072.549561 248.0
1073.097168 68.0
1073.749268 264.0
1074.554199 184.0
1074.799683 40.0
1075.928833 192.0
1076.268311 44.0
1077.496216 148.0
1077.907837 124.0
1078.358887 152.0
1078.639893 156.0
1079.064819 124.0
1080.425171 184.0
1080.549561 120.0
1080.706543 168.0
1081.262817 124.0
1081.505005 40.0
1081.878052 140.0
1082.041748 92.0
1083.312256 176.0
1084.413208 108.0
1084.891724 140.0
1084.98999 144.0
1085.481812 152.0
1086.085205 136.0
1086.505005 120.0
1087.522217 152.0
1087.942261 168.0
1088.316528 128.0
1088.769653 160.0
1089.019165 176.0
1089.071777 180.0
1090.438477 96.0
1091.038818 180.0
1091.503418 136.0
1091.733643 132.0
1092.601929 124.0
1093.233521 168.0
1093.404663 140.0
1093.661377 108.0
1093.740356 128.0
1093.786377 180.0
1094.892578 176.0
1095.09021 124.0
1095.584229 204.0
1095.92688 96.0
1096.312744 216.0
1096.434204 124.0
1097.343994 112.0
1099.420166 172.0
1100.372437 184.0
1100.880859 172.0
1101.329956 112.0
1101.40918 172.0
1101.567749 128.0
1102.228394 144.0
1102.323853 176.0
1102.380493 80.0
1102.823242 184.0
1103.074463 176.0
1103.127319 116.0
1103.193481 252.0
1103.391724 28.0
1103.80835 72.0
1104.046387 204.0
1104.899658 44.0
1105.187256 172.0
1105.700439 140.0
1105.984985 196.0
1106.256348 108.0
1106.335815 96.0
1106.825806 220.0
1107.911987 100.0
1108.018066 68.0
1108.607422 196.0
1108.650513 132.0
1108.720459 144.0
1108.998779 224.0
1109.310303 64.0
1109.518066 148.0
1109.661743 192.0
1110.013184 204.0
1110.132568 128.0
1110.576904 172.0
1111.021118 144.0
1111.339844 120.0
1112.67395 88.0
1112.877319 260.0
1113.158569 64.0
1114.067505 180.0
1114.201416 112.0
1114.354248 144.0
1115.125122 56.0
1115.231445 148.0
1116.694214 132.0
1116.860596 88.0
1117.219727 120.0
1117.306274 160.0
1117.672241 96.0
1118.098145 196.0
1118.690552 164.0
1118.943481 104.0
1119.203247 28.0
1119.582764 224.0
1120.515381 180.0
1120.71521 40.0
1120.928467 160.0
1121.121704 136.0
1121.748291 156.0
1122.768433 108.0
1123.255371 144.0
1123.322021 172.0
1123.475464 224.0
1123.542236 124.0
1123.822388 84.0
1124.209473 172.0
1124.546021 132.0
1124.963745 176.0
1125.624634 216.0
1126.279175 196.0
1127.027466 188.0
1127.288086 104.0
1128.966064 156.0
1129.293823 196.0
1129.52124 188.0
1129.588135 40.0
1130.053345 164.0
1131.174072 140.0
1132.29895 128.0
1132.385986 92.0
1132.754395 108.0
1132.821411 200.0
1134.309082 132.0
1134.845459 160.0
1135.281372 156.0
1135.328247 132.0
1135.938599 124.0
1136.582764 80.0
1137.414917 172.0
1137.683472 212.0
1137.78418 136.0
1138.35498 172.0
1139.382568 160.0
1140.679688 108.0
1140.85437 376.0
1141.163696 220.0
1141.842896 180.0
1142.5896 164.0
1143.013428 100.0
1143.733643 212.0
1144.204834 124.0
1144.925293 120.0
1145.033081 196.0
1145.336182 72.0
1145.396851 136.0
1145.922363 164.0
1145.969482 84.0
1146.182129 172.0
1146.447876 52.0
1146.980347 112.0
1147.546631 188.0
1148.659424 148.0
1149.064209 88.0
1149.259888 72.0
1149.327393 156.0
1149.469116 32.0
1149.874023 144.0
1149.954956 280.0
1150.089966 44.0
1150.30603 36.0
1150.405518 168.0
1150.468018 100.0
1150.751587 120.0
1150.987915 144.0
1151.22644 172.0
1151.575439 132.0
1152.000977 164.0
1152.149658 136.0
1152.676636 108.0
1152.859131 88.0
1153.109253 144.0
1153.176758 132.0
1154.474854 212.0
1155.322754 152.0
1155.591064 112.0
1156.010498 88.0
1156.2948 108.0
1156.700928 400.0
1156.998779 180.0
1157.229004 228.0
1158.082275 152.0
1158.156738 184.0
1158.407349 112.0
1158.983276 48.0
1159.403442 116.0
1160.718628 108.0
1160.915283 180.0
1161.091553 176.0
1161.206909 140.0
1161.593506 156.0
1161.912354 148.0
1162.122681 84.0
1162.394165 48.0
1162.550171 36.0
1162.618042 176.0
1162.740356 176.0
1163.229004 128.0
1163.54126 48.0
1163.663452 148.0
1163.751709 296.0
1164.036865 136.0
1164.301636 152.0
1164.804443 92.0
1164.919922 116.0
1164.987793 120.0
1165.510986 128.0
1166.333374 124.0
1166.455688 172.0
1166.968994 180.0
1167.666016 144.0
1168.30542 128.0
1168.359863 60.0
1168.700073 172.0
1169.264893 128.0
1170.973755 172.0
1171.212158 44.0
1171.518677 116.0
1171.723145 188.0
1172.172852 196.0
1172.234131 232.0
1172.520386 44.0
1172.609009 136.0
1172.792969 176.0
1172.936157 184.0
1172.997559 188.0
1173.454224 160.0
1173.542969 176.0
1173.624756 156.0
1174.081665 120.0
1174.177124 184.0
1174.258911 212.0
1175.207153 224.0
1175.746338 120.0
1175.835449 224.0
1176.039795 132.0
1176.087524 168.0
1176.142212 72.0
1176.210449 92.0
1176.53125 140.0
1177.063843 104.0
1177.11853 76.0
1177.18103 124.0
1177.296021 116.0
1177.562378 144.0
1178.601929 144.0
1178.676025 108.0
1179.924438 240.0
1180.084106 116.0
1180.412231 132.0
1180.815796 116.0
1181.246704 108.0
1181.410889 188.0
1181.581909 104.0
1181.664062 168.0
1183.381958 136.0
1184.14209 180.0
1184.190063 44.0
1184.313354 152.0
1184.717529 176.0
1184.868286 204.0
1185.258789 256.0
1185.320435 68.0
1185.519165 124.0
1185.60144 168.0
1185.950928 84.0
1186.229248 228.0
1186.375977 164.0
1186.759888 124.0
1186.807983 88.0
1187.075317 144.0
1187.2948 220.0
1187.356567 196.0
1187.636353 96.0
1188.330688 188.0
1188.920776 164.0
1189.92981 164.0
1190.1427 156.0
1190.72644 152.0
1191.15918 108.0
1191.214111 72.0
1191.482056 224.0
1191.578247 184.0
1192.732788 96.0
1192.78772 96.0
1192.856567 220.0
1193.454712 192.0
1193.598999 200.0
1194.444946 312.0
1194.754517 160.0
1194.937988 156.0
1195.160522 208.0
1195.236206 44.0
1195.470215 160.0
1195.600952 184.0
1195.759277 52.0
1195.965698 144.0
1196.571533 140.0
1196.846924 124.0
1197.026001 136.0
1197.411621 144.0
1197.625122 104.0
1198.08667 136.0
1198.493164 140.0
1198.954956 168.0
1199.196167 164.0
1199.547729 156.0
1199.678711 152.0
1199.795898 164.0
1199.85791 32.0
1200.037231 168.0
1200.119873 156.0
1200.38147 136.0
1200.940552 140.0
1201.209595 168.0
1201.347534 136.0
1201.802979 160.0
1202.631104 148.0
1202.782959 120.0
1202.900269 136.0
1203.204102 132.0
1203.466431 148.0
1203.618286 104.0
1204.205322 132.0
1205.0896 180.0
1205.538818 184.0
1205.642456 188.0
1205.898193 196.0
1206.188477 132.0
1207.688965 200.0
1208.297729 92.0
1208.560669 148.0
1208.671387 212.0
1208.768188 92.0
1209.176514 188.0
1209.764893 204.0
1210.221924 56.0
1210.332642 132.0
1210.678955 112.0
1210.865967 132.0
1211.2677 140.0
1211.385376 112.0
1211.537842 40.0
1211.835693 148.0
1212.098999 200.0
1212.445557 116.0
1212.556396 188.0
1212.646606 212.0
1212.909912 136.0
1213.069336 164.0
1213.20105 140.0
1213.29126 132.0
1213.553589 128.0
1213.610107 176.0
1214.213501 108.0
1214.331421 148.0
1214.511719 108.0
1215.007935 172.0
1216.024292 172.0
1216.211792 160.0
1217.871338 116.0
1218.385376 116.0
1218.562988 160.0
1218.934204 132.0
1219.179077 140.0
1219.295654 136.0
1219.344238 228.0
1219.476318 136.0
1219.802979 116.0
1220.366211 192.0
1220.878418 216.0
1220.897949 144.0
1221.096313 76.0
1221.41626 96.0
1221.499756 76.0
1221.652832 136.0
1222.112061 96.0
1222.661743 144.0
1222.759277 200.0
1223.009766 172.0
1223.517944 212.0
1223.754639 112.0
1223.859131 44.0
1223.977539 128.0
1224.478882 140.0
1224.75061 96.0
1225.029175 208.0
1225.210327 144.0
1225.489014 148.0
1225.642334 156.0
1226.304443 164.0
1226.694702 60.0
1227.287354 168.0
1227.615112 156.0
1227.761597 172.0
1228.263794 256.0
1228.452148 96.0
1228.807861 220.0
1229.170776 140.0
1229.240479 196.0
1229.470825 196.0
1229.673218 180.0
1229.815186 204.0
1230.503906 120.0
1230.615601 112.0
1231.586426 120.0
1232.089355 152.0
1232.387817 204.0
1232.669312 108.0
1233.193481 216.0
1233.403198 136.0
1233.584839 144.0
1233.955444 136.0
1234.249146 164.0
1234.339966 48.0
1234.808594 152.0
1235.053345 200.0
1235.172241 132.0
1235.298218 72.0
1235.572876 224.0
1235.80896 116.0
1235.871948 184.0
1236.235718 236.0
1237.110718 112.0
1237.304565 192.0
1237.677856 140.0
1238.427124 52.0
1238.63562 160.0
1238.784424 144.0
1238.904175 124.0
1239.46875 172.0
1239.765381 152.0
1239.814453 48.0
1240.052734 120.0
1240.185913 144.0
1240.33313 164.0
1240.452271 192.0
1240.564453 128.0
1241.504028 152.0
1241.770508 224.0
1241.973877 84.0
1242.528076 80.0
1242.682495 112.0
1243.43335 76.0
1243.812378 116.0
1243.980835 136.0
1244.163452 124.0
1244.303833 168.0
1244.912231 136.0
1245.09729 204.0
1245.160522 232.0
1245.216675 100.0
1245.307983 88.0
1245.364258 100.0
1245.416748 108.0
1245.645142 192.0
1245.848877 192.0
1246.298584 96.0
1246.382935 192.0
1246.481323 148.0
1246.924072 120.0
1247.015381 64.0
1247.338745 140.0
1247.697266 120.0
1247.929321 204.0
1247.978516 272.0
1248.098022 64.0
1248.407471 112.0
1248.541016 176.0
1248.804199 192.0
1248.963013 160.0
1249.216309 160.0
1249.378174 168.0
1249.561035 144.0
1249.822754 192.0
1250.264771 180.0
1250.405518 140.0
1250.511108 168.0
1250.827759 192.0
1251.222046 132.0
1251.271362 156.0
1251.433228 140.0
1251.841675 100.0
1251.982544 148.0
1252.243164 188.0
1252.454468 32.0
1252.743286 192.0
1252.94751 304.0
1253.271606 120.0
1253.461914 212.0
1253.539429 44.0
1253.609863 112.0
1253.717773 64.0
1254.145508 136.0
1254.272461 124.0
1254.399292 188.0
1254.822266 152.0
1254.949219 88.0
1255.393433 116.0
1255.619141 192.0
1256.119995 124.0
1256.268066 172.0
1256.62793 124.0
1256.719604 128.0
1257.305298 136.0
1257.361816 148.0
1257.728882 60.0
1258.773804 128.0
1258.83728 84.0
1259.246948 160.0
1259.296387 188.0
1259.585938 200.0
1259.633911 252.0
1260.469116 212.0
1261.267822 168.0
1261.691895 180.0
1261.872559 188.0
1262.18689 216.0
1262.271729 124.0
1262.399048 84.0
1262.625366 52.0
1262.828247 160.0
1263.092163 104.0
1263.155762 140.0
1263.431763 168.0
1263.587402 88.0
1263.686401 124.0
1263.757202 160.0
1264.670044 196.0
1265.074585 204.0
1265.295898 172.0
1265.370972 116.0
1265.967896 256.0
1266.383545 200.0
1266.512085 172.0
1267.219482 60.0
1267.368286 196.0
1268.4729 104.0
1268.651123 164.0
1268.875854 172.0
1269.161621 84.0
1269.299561 116.0
1269.358032 172.0
1270.346069 112.0
1270.56604 136.0
1270.764648 152.0
1270.913696 188.0
1271.353638 52.0
1271.481445 108.0
1271.779541 172.0
1271.907227 72.0
1271.985352 140.0
1272.042114 148.0
1272.32605 184.0
1272.64563 144.0
1272.702393 144.0
1272.922485 132.0
1273.00061 128.0
1273.533325 144.0
1273.583008 116.0
1273.803223 120.0
1273.853027 148.0
1273.945312 132.0
1273.995117 168.0
1274.158447 168.0
1274.364502 132.0
1274.705566 168.0
1275.117798 164.0
1275.224365 104.0
1275.352295 140.0
1275.778809 196.0
1275.942383 152.0
1276.347656 100.0
1276.73877 168.0
1277.755981 76.0
1277.969482 80.0
1278.133057 260.0
1279.001343 208.0
1279.674561 168.0
1280.040771 144.0
1280.183228 192.0
1280.389771 88.0
1280.46814 136.0
1280.795776 160.0
1280.910522 216.0
1281.130615 52.0
1281.294434 156.0
1281.35144 116.0
1281.579468 132.0
1281.679199 100.0
1281.757568 116.0
1282.071899 156.0
1282.370483 144.0
1282.498779 124.0
1282.803589 168.0
1282.905151 108.0
1282.954956 196.0
1283.176025 132.0
1283.240234 168.0
1283.631836 176.0
1284.088867 52.0
1284.502563 140.0
1284.766479 152.0
1285.120239 216.0
1285.380127 176.0
1285.615601 96.0
1285.921875 136.0
1285.994995 100.0
1286.186523 120.0
1286.472168 160.0
1286.736328 140.0
1286.900513 108.0
1287.143311 168.0
1287.202881 128.0
1287.377197 180.0
1287.621704 220.0
1287.72168 80.0
1287.97168 192.0
1288.078857 168.0
1288.200317 184.0
1288.318604 220.0
1288.486084 152.0
1288.750488 128.0
1289.036255 116.0
1289.279297 96.0
1289.372192 144.0
1289.965454 48.0
1290.015503 92.0
1290.301392 108.0
1290.952148 128.0
1291.231079 192.0
1291.517212 120.0
1291.696045 172.0
1291.912598 204.0
1292.175293 132.0
1292.296997 156.0
1292.397095 164.0
1292.597534 128.0
1292.762085 116.0
1292.919556 128.0
1293.213013 128.0
1293.291748 96.0
1293.370483 344.0
1293.578003 216.0
1293.713989 220.0
1293.86438 184.0
1294.229492 44.0
1294.773804 136.0
1294.99585 208.0
1295.088989 188.0
1295.189209 164.0
1295.826782 148.0
1296.099121 176.0
1296.206543 180.0
1296.47168 84.0
1296.643799 184.0
1296.715454 156.0
1296.784302 180.0
1296.994995 164.0
1297.052246 124.0
1297.174194 92.0
1297.274536 56.0
1297.367676 232.0
1297.417969 192.0
1297.561279 168.0
1297.690308 180.0
1297.797852 216.0
1297.952026 152.0
1298.005859 128.0
1298.120605 52.0
1298.615479 140.0
1299.031494 156.0
1299.951538 140.0
1300.179565 160.0
1300.265625 160.0
1300.480957 156.0
1300.588623 116.0
1301.141479 204.0
1301.198853 164.0
1301.442993 148.0
1301.735474 184.0
1301.77478 172.0
1301.916992 104.0
1302.060547 192.0
1302.139526 92.0
1302.225708 44.0
1302.649536 140.0
1302.786011 160.0
1303.102173 164.0
1303.411133 140.0
1303.619507 156.0
1303.942993 240.0
1304.26062 168.0
1304.446167 132.0
1304.589844 196.0
1304.654541 124.0
1304.712158 160.0
1305.121948 196.0
1305.215454 124.0
1305.366455 112.0
1305.467041 204.0
1305.539307 248.0
1305.82666 108.0
1305.956177 204.0
1306.035278 92.0
1306.135986 168.0
1306.337402 108.0
1306.531616 164.0
1307.028076 44.0
1307.409546 160.0
1307.575073 152.0
1307.733398 148.0
1307.91333 168.0
1308.058838 92.0
1308.561279 212.0
1308.755615 136.0
1308.921265 132.0
1309.043701 124.0
1309.137329 104.0
1309.281372 128.0
1309.756714 188.0
1309.814331 108.0
1310.023315 152.0
1310.12793 196.0
1310.196167 156.0
1310.41394 260.0
1310.650146 136.0
1310.714966 168.0
1311.11853 80.0
1311.176147 112.0
1311.305908 172.0
1311.37793 164.0
1311.767212 156.0
1311.85376 156.0
1312.084473 148.0
1312.387207 136.0
1312.496948 208.0
1312.661255 92.0
1312.762207 96.0
1313.07959 104.0
1313.137207 144.0
1313.202148 88.0
1313.329712 188.0
1313.887451 40.0
1314.00293 136.0
1314.067871 148.0
1314.39978 92.0
1314.890503 172.0
1315.128662 76.0
1315.294434 180.0
1315.713379 168.0
1316.045532 108.0
1316.312744 108.0
1316.592529 140.0
1317.128784 244.0
1317.31665 200.0
1317.410522 112.0
1317.706787 144.0
1318.444458 148.0
1318.855835 180.0
1319.072632 192.0
1319.26062 136.0
1319.361816 148.0
1319.477539 172.0
1319.78125 172.0
1319.990845 156.0
1320.05603 88.0
1320.445679 172.0
1320.84436 72.0
1320.945557 176.0
1321.314575 136.0
1321.734253 176.0
1321.929565 112.0
1322.139526 128.0
1322.371094 224.0
1322.421753 116.0
1322.5448 140.0
1322.718506 228.0
1322.935669 164.0
1323.14563 92.0
1323.253784 116.0
1323.522217 172.0
1323.638062 120.0
1323.724976 108.0
1323.92041 96.0
1324.13855 188.0
1324.434692 128.0
1324.559082 156.0
1324.702759 200.0
1325.08667 128.0
1325.369263 156.0
1325.615601 164.0
1325.804077 100.0
1325.963501 284.0
1326.282471 124.0
1326.637695 136.0
1326.811646 168.0
1326.869629 44.0
1327.145142 164.0
1327.377197 136.0
1327.50769 104.0
1327.739746 152.0
1328.160522 136.0
1328.508667 132.0
1328.820679 108.0
1329.430176 124.0
1329.814819 156.0
1330.054321 140.0
1330.301025 144.0
1330.642456 172.0
1330.780396 168.0
1331.419434 184.0
1331.608276 132.0
1332.218384 172.0
1332.341919 40.0
1332.596191 180.0
1332.816772 144.0
1332.915894 180.0
1333.097534 208.0
1333.548218 104.0
1333.657227 124.0
1333.729858 140.0
1333.831665 156.0
1334.224243 272.0
1334.565918 80.0
1334.631348 184.0
1334.733154 144.0
1335.082275 124.0
1335.515259 208.0
1335.758667 132.0
1335.838135 144.0
1335.940552 128.0
1336.02063 160.0
1336.202515 240.0
1336.762695 128.0
1336.820923 112.0
1336.892822 100.0
1337.018433 160.0
1337.082153 184.0
1337.366821 84.0
1337.722656 96.0
1337.774414 172.0
1338.065674 180.0
1338.276855 80.0
1338.589722 140.0
1338.66272 148.0
1338.873901 168.0
1338.990479 84.0
1339.456665 116.0
1339.733521 168.0
1339.850098 296.0
1340.083252 124.0
1340.177979 220.0
1340.324585 156.0
1340.44751 48.0
1340.775513 140.0
1340.83374 108.0
1341.067017 108.0
1341.227417 76.0
1341.577271 96.0
1341.650146 80.0
1342.299072 156.0
1342.627319 128.0
1342.940918 152.0
1343.283691 140.0
1343.451538 140.0
1343.684937 300.0
1343.940308 172.0
1344.027954 112.0
1344.144653 236.0
1344.319824 148.0
1344.480347 208.0
1344.568481 152.0
1344.713867 208.0
1344.932861 120.0
1345.436646 144.0
1345.582642 148.0
1345.852783 168.0
1346.130249 268.0
1346.24292 228.0
1346.488159 36.0
1346.662354 164.0
1346.765625 156.0
1346.904419 100.0
1347.174683 164.0
1347.423096 140.0
1347.876099 176.0
1347.986572 192.0
1348.438843 128.0
1348.738525 168.0
1349.045532 280.0
1349.096802 124.0
1349.235718 168.0
1349.352661 192.0
1349.725586 176.0
1349.798706 232.0
1349.96936 128.0
1350.159424 144.0
1350.572876 172.0
1350.778687 120.0
1350.895752 192.0
1351.085938 180.0
1351.327393 152.0
1351.400635 156.0
1351.5177 52.0
1352.110474 116.0
1352.491089 156.0
1352.644775 140.0
1352.703369 404.0
1352.800903 208.0
1353.349243 144.0
1354.241089 160.0
1354.365601 148.0
1354.629272 168.0
1354.731812 96.0
1354.95166 180.0
1355.134766 140.0
1355.34729 160.0
1355.523193 112.0
1355.574463 136.0
1355.698975 120.0
1355.772339 188.0
1355.92627 168.0
1355.977539 136.0
1356.214966 132.0
1356.549316 40.0
1356.612915 204.0
1357.392456 132.0
1357.685791 144.0
1357.861816 104.0
1357.993774 132.0
1358.509888 168.0
1358.661377 152.0
1358.976807 80.0
1359.094238 152.0
1359.14563 92.0
1359.431641 144.0
1359.512573 224.0
1359.700195 128.0
1360.121704 100.0
1360.217163 160.0
1360.279175 208.0
1360.364014 200.0
1360.899902 208.0
1361.039429 128.0
1361.171631 180.0
1361.384521 172.0
1361.671021 120.0
1361.766479 116.0
1361.890869 120.0
1362.045654 120.0
1362.265991 184.0
1362.449707 96.0
1362.85376 128.0
1362.990601 188.0
1363.338745 148.0
1363.44165 120.0
1363.515137 164.0
1363.669434 160.0
1363.763794 244.0
1364.07373 116.0
1364.191406 100.0
1364.367798 96.0
1364.426636 196.0
1364.919312 140.0
1365.066284 144.0
1365.125122 168.0
1365.264893 164.0
1365.662109 28.0
1365.713501 196.0
1365.802612 180.0
1365.890137 128.0
1366.073975 100.0
1366.169678 144.0
1366.74353 144.0
1367.161133 128.0
1367.209106 132.0
1367.280762 128.0
1367.376465 160.0
1367.45105 200.0
1367.589844 136.0
1367.722412 124.0
1367.921143 104.0
1368.002075 132.0
1368.119873 144.0
1368.52478 64.0
1368.576416 152.0
1368.694214 180.0
1368.753052 40.0
1368.925415 168.0
1370.159912 104.0
1370.380981 96.0
1370.473633 120.0
1370.594604 156.0
1371.692749 104.0
1371.847534 120.0
1371.91394 164.0
1372.326782 116.0
1372.466919 84.0
1372.55542 72.0
1372.607056 92.0
1372.953613 120.0
1373.045288 184.0
1373.174927 112.0
1373.337158 96.0
1373.44043 176.0
1373.772339 184.0
1374.023193 40.0
1374.502808 164.0
1374.56189 148.0
1374.739014 60.0
1374.821289 300.0
1375.100586 128.0
1375.344116 200.0
1375.513916 144.0
1375.694824 156.0
1376.185791 112.0
1376.518066 96.0
1376.599243 116.0
1376.961182 128.0
1377.439087 80.0
1377.685059 172.0
1377.788452 240.0
1377.899292 148.0
1378.119385 76.0
1378.217041 164.0
1378.438721 108.0
1378.616089 288.0
1378.734375 32.0
1378.822998 92.0
1379.140869 144.0
1379.369995 156.0
1379.739624 168.0
1379.872681 136.0
1379.961426 164.0
1380.087158 140.0
1380.183228 128.0
1380.345947 128.0
1380.760132 192.0
1380.841431 172.0
1381.085083 140.0
1381.374023 180.0
1381.499756 92.0
1381.551514 172.0
1381.625488 44.0
1381.769897 172.0
1381.995483 140.0
1382.076904 144.0
1382.350708 100.0
1382.839111 116.0
1382.932861 168.0
1382.994507 120.0
1383.216675 140.0
1383.697876 148.0
1384.415161 164.0
1384.534546 72.0
1384.808594 108.0
1385.430908 124.0
1385.682739 188.0
1386.112549 168.0
1386.220459 176.0
1386.320068 128.0
1386.497925 152.0
1387.19458 100.0
1387.320679 176.0
1387.409668 176.0
1387.468994 160.0
1387.572754 256.0
1387.624634 56.0
1387.810059 144.0
1388.291992 112.0
1388.544189 196.0
1388.793457 72.0
1389.137573 168.0
1389.34375 132.0
1389.419434 156.0
1389.827515 212.0
1390.076416 104.0
1390.547363 188.0
1390.822021 112.0
1390.955688 104.0
1391.490234 160.0
1391.653564 124.0
1391.846558 252.0
1392.366455 100.0
1392.418457 128.0
1392.789795 144.0
1392.856689 180.0
1392.930908 196.0
1393.13147 88.0
1393.389038 136.0
1393.540161 196.0
1393.919067 136.0
1394.037964 44.0
1394.104858 96.0
1394.281494 204.0
1394.36499 36.0
1394.729248 152.0
1394.900146 96.0
1395.059814 120.0
1395.11499 164.0
1395.375977 152.0
1395.584106 108.0
1395.665894 120.0
1395.763428 176.0
1395.822144 100.0
1396.067505 108.0
1396.141602 104.0
1396.162476 160.0
1396.626465 176.0
1396.722046 124.0
1396.878296 164.0
1397.026978 152.0
1397.10144 36.0
1397.27478 40.0
1397.388306 128.0
1397.436279 192.0
1397.82312 124.0
1398.239868 144.0
1398.838867 164.0
1399.103394 128.0
1399.349121 188.0
1399.608887 172.0
1399.788452 192.0
1399.877808 52.0
1400.041626 180.0
1400.287354 72.0
1400.339478 112.0
1400.45874 136.0
1400.533203 148.0
1400.607666 148.0
1400.764038 248.0
1401.166382 172.0
1401.225952 60.0
1401.799805 180.0
1401.948853 148.0
1402.053101 144.0
1402.217651 112.0
1402.299072 128.0
1402.567383 148.0
1402.664307 172.0
1402.947632 220.0
1403.066895 168.0
1403.400391 160.0
1403.581421 76.0
1403.842407 40.0
1404.112427 196.0
1404.216919 360.0
1404.588257 148.0
1404.647949 112.0
1404.700073 80.0
1405.592529 208.0
1405.731812 148.0
1406.110352 212.0
1406.356689 152.0
1406.632812 72.0
1406.69751 128.0
1406.894165 68.0
1407.30481 276.0
1407.715454 68.0
1408.200928 100.0
1408.395142 240.0
1408.671509 188.0
1408.731323 248.0
1408.910522 120.0
1409.060059 36.0
1409.157104 160.0
1409.793457 152.0
1410.026123 212.0
1410.096558 204.0
1410.786377 120.0
1411.145264 204.0
1411.227539 184.0
1411.713623 108.0
1411.848022 140.0
1412.012695 164.0
1412.087402 200.0
1412.498901 176.0
1412.596191 136.0
1412.685913 156.0
1412.768188 116.0
1413.104858 104.0
1413.815796 264.0
1413.920532 116.0
1414.044678 144.0
1414.088745 156.0
1414.549316 160.0
1414.609253 84.0
1414.669067 144.0
1414.893677 132.0
1415.133301 96.0
1415.379517 148.0
1416.06189 224.0
1416.204224 196.0
1416.369019 140.0
1416.638672 140.0
1416.945801 140.0
1417.065674 92.0
1417.232178 204.0
1417.320435 120.0
1417.4104 172.0
1417.770142 48.0
1417.934937 112.0
1418.20459 184.0
1418.339722 256.0
1418.796997 136.0
1418.894531 216.0
1418.961914 116.0
1419.160278 108.0
1419.276855 196.0
1419.966797 164.0
1420.529419 192.0
1420.769409 108.0
1421.272095 108.0
1421.572266 128.0
1421.955078 52.0
1422.030151 140.0
1422.337891 120.0
1422.397949 76.0
1422.608154 176.0
1423.081055 76.0
1423.227661 256.0
1423.441528 188.0
1423.511719 176.0
1423.659302 176.0
1423.779419 136.0
1424.027344 148.0
1424.135742 152.0
1424.260132 68.0
1424.402832 192.0
1424.509521 124.0
1424.657104 164.0
1424.846069 116.0
1425.259399 152.0
1425.574951 112.0
1425.751465 164.0
1425.889771 260.0
1426.025879 132.0
1426.587891 168.0
1426.687378 224.0
1426.814209 180.0
1427.193115 136.0
1427.364136 40.0
1427.602783 160.0
1427.725098 172.0
1428.010864 176.0
1428.101196 144.0
1428.183838 92.0
1428.341919 172.0
1428.417114 176.0
1428.582642 212.0
1428.635254 164.0
1429.056519 208.0
1429.2146 172.0
1429.319946 132.0
1429.568237 168.0
1429.778931 248.0
1429.959595 140.0
1430.049927 224.0
1430.147827 188.0
1430.268188 40.0
1430.422363 332.0
1430.546753 148.0
1430.697998 128.0
1431.204712 224.0
1431.314697 184.0
1431.390015 176.0
1431.570801 172.0
1432.0979 140.0
1432.323975 116.0
1432.421875 144.0
1432.486816 232.0
1432.888916 124.0
1433.084839 168.0
1433.145142 96.0
1433.197876 60.0
1433.408813 68.0
1433.625854 220.0
1433.710327 192.0
1433.996704 136.0
1434.200195 172.0
1434.604126 140.0
1434.871094 120.0
1435.85144 208.0
1435.949463 180.0
1436.002319 108.0
1436.094482 204.0
1436.213501 132.0
1436.334839 168.0
1436.417114 116.0
1436.537842 92.0
1436.628418 168.0
1436.832031 152.0
1437.201782 124.0
1437.317871 168.0
1437.397949 68.0
1437.480957 184.0
1437.562378 168.0
1437.775269 184.0
1437.963989 244.0
1438.148315 160.0
1438.484863 152.0
1438.53772 100.0
1438.745361 128.0
1438.960449 120.0
1439.07373 156.0
1439.141724 164.0
1439.239868 108.0
1439.406006 196.0
1439.458862 136.0
1439.727783 200.0
1440.229126 92.0
1440.448242 84.0
1440.878906 116.0
1440.931763 132.0
1441.936768 140.0
1442.118164 136.0
1442.269287 64.0
1442.685059 368.0
1443.131226 140.0
1443.221924 48.0
1443.395874 196.0
1443.690796 116.0
1444.099121 92.0
1444.189941 116.0
1444.63623 152.0
1444.833008 200.0
1445.09021 144.0
1445.166138 384.0
1445.294434 184.0
1445.370117 92.0
1445.650146 132.0
1445.801514 80.0
1446.157227 100.0
1447.005127 116.0
1447.245605 220.0
1447.41394 132.0
1447.497314 116.0
1447.694214 160.0
1447.815308 176.0
1448.262207 196.0
1448.453003 84.0
1448.568726 236.0
1448.913696 140.0
1449.156128 192.0
1449.269775 172.0
1449.421387 144.0
1449.792725 132.0
1450.30188 196.0
1450.387085 200.0
1450.444458 216.0
1450.524414 140.0
1450.717407 128.0
1450.778076 208.0
1451.210205 124.0
1451.521118 132.0
1451.95752 132.0
1452.332642 208.0
1452.484375 172.0
1452.704346 140.0
1453.136719 120.0
1453.21814 212.0
1453.525269 196.0
1453.645142 120.0
1453.796875 180.0
1454.047363 356.0
1454.100464 60.0
1454.490601 132.0
1454.700195 176.0
1454.821655 140.0
1455.003784 156.0
1455.231567 136.0
1455.383423 124.0
1455.451782 124.0
1455.709961 28.0
1456.150513 104.0
1456.302368 184.0
1457.06958 160.0
1457.290039 116.0
1457.426758 108.0
1457.639038 124.0
1457.980835 140.0
1458.065063 36.0
1458.460327 180.0
1458.551514 140.0
1458.711182 180.0
1458.863159 136.0
1459.022827 272.0
1459.106445 80.0
1459.281372 180.0
1459.418213 132.0
1459.605347 200.0
1459.737671 220.0
1459.859253 128.0
1459.920166 104.0
1460.003784 156.0
1460.095093 140.0
1460.201538 152.0
1460.350952 164.0
1460.414551 68.0
1460.604614 224.0
1460.855713 180.0
1460.960693 168.0
1461.083862 100.0
1461.242188 120.0
1461.411133 112.0
1461.502441 84.0
1461.624146 152.0
1461.74585 72.0
1462.377563 180.0
1462.487915 216.0
1462.644043 148.0
1462.841919 332.0
1463.278442 192.0
1463.694702 172.0
1463.907837 120.0
1463.994019 140.0
1464.113525 92.0
1464.501953 172.0
1464.639038 152.0
1464.772461 140.0
1464.951416 132.0
1465.050415 100.0
1465.19519 216.0
1465.278931 92.0
1465.591309 64.0
1465.675171 56.0
1465.850464 176.0
1465.911377 140.0
1465.97998 156.0
1466.172119 132.0
1466.28479 156.0
1466.704102 164.0
1466.772705 84.0
1466.864136 152.0
1466.986084 132.0
1467.184326 92.0
1467.282959 184.0
1467.836182 128.0
1467.911255 156.0
1468.122192 132.0
1468.451416 168.0
1468.587402 180.0
1468.654785 112.0
1468.892578 228.0
1469.160645 108.0
1469.487671 168.0
1469.538452 180.0
1469.670166 168.0
1469.815796 88.0
1469.914917 224.0
1470.059448 128.0
1470.189697 60.0
1470.42627 116.0
1470.899536 176.0
1470.952881 36.0
1471.098022 80.0
1471.231445 212.0
1471.334595 32.0
1471.441528 232.0
1471.640015 160.0
1471.739258 72.0
1472.075317 232.0
1472.145752 184.0
1472.212769 220.0
1472.342651 152.0
1472.556396 172.0
1472.85437 172.0
1473.075928 68.0
1473.136963 108.0
1473.274536 164.0
1473.341919 224.0
1473.411987 152.0
1473.57251 32.0
1473.625977 72.0
1473.771118 56.0
1474.067017 176.0
1474.328979 160.0
1474.428345 136.0
1474.619385 56.0
1474.894531 148.0
1474.94812 172.0
1475.200317 124.0
1475.253784 60.0
1475.414429 108.0
1475.498535 88.0
1475.5979 200.0
1475.714966 240.0
1475.934326 124.0
1476.140747 224.0
1476.278442 128.0
1476.377808 80.0
1476.492554 44.0
1476.553711 168.0
1477.154663 260.0
1477.318726 188.0
1477.594116 64.0
1477.655273 152.0
1478.037842 148.0
1478.091431 108.0
1478.267456 152.0
1478.328613 128.0
1478.445557 300.0
1478.642456 124.0
1478.731934 236.0
1478.835205 212.0
1479.247192 108.0
1479.46521 196.0
1479.568726 116.0
1479.828979 136.0
1479.882568 144.0
1479.936157 116.0
1480.073975 140.0
1480.173584 408.0
1481.039062 148.0
1481.10791 212.0
1481.261108 192.0
1481.621216 164.0
1481.708618 260.0
1481.981323 80.0
1482.149902 128.0
1482.272461 112.0
1482.47168 200.0
1482.563721 100.0
1482.61731 80.0
1482.824219 216.0
1482.919556 124.0
1483.02356 116.0
1483.2229 228.0
1483.29187 124.0
1483.399902 132.0
1483.581055 232.0
1484.104492 100.0
1484.173584 128.0
1484.748657 156.0
1484.856079 184.0
1484.963379 120.0
1485.247192 60.0
1485.486938 160.0
1485.569458 148.0
1485.623169 92.0
1485.906982 100.0
1486.022095 200.0
1486.275269 200.0
1486.375 144.0
1486.743408 124.0
1486.8125 148.0
1486.895386 148.0
1486.965942 120.0
1487.065796 144.0
1487.219238 220.0
1487.327515 164.0
1487.441895 100.0
1487.756592 68.0
1487.879395 60.0
1487.971558 196.0
1488.443726 184.0
1488.724121 200.0
1488.946777 172.0
1489.161865 108.0
1489.400024 148.0
1489.66333 124.0
1489.722656 112.0
1490.261963 160.0
1490.482178 144.0
1490.612549 200.0
1490.713745 208.0
1490.890503 172.0
1491.086548 224.0
1491.259399 176.0
1491.381592 140.0
1491.459351 116.0
1491.589966 64.0
1491.766724 76.0
1492.347534 188.0
1492.404907 96.0
1492.62793 148.0
1492.85376 192.0
1492.912476 116.0
1492.966309 128.0
1493.112427 140.0
1493.484863 156.0
1493.712402 188.0
1493.835449 56.0
1494.227783 64.0
1494.435547 180.0
1494.597168 204.0
1494.797241 132.0
1494.943359 136.0
1495.536011 204.0
1495.874756 120.0
1496.074951 136.0
1496.583008 48.0
1496.636963 128.0
1497.087158 136.0
1497.445557 148.0
1497.507202 132.0
1497.561035 292.0
1497.776733 144.0
1498.239014 216.0
1498.516357 100.0
1498.762939 168.0
1498.967407 196.0
1499.163574 232.0
1499.217529 180.0
1499.579834 208.0
1499.818726 132.0
1499.888184 188.0
1499.9729 184.0
1500.119385 192.0
1500.228516 160.0
1500.396973 188.0
1500.546021 272.0
1500.912109 136.0
1500.994751 144.0
1501.183472 148.0
1501.46875 172.0
1501.684692 220.0
1501.74646 176.0
1501.900635 168.0
1502.388672 144.0
1502.479248 172.0
1502.656738 136.0
1502.710693 152.0
1503.181396 164.0
1503.243164 256.0
1503.358887 104.0
1503.595093 168.0
1503.752563 52.0
1503.806519 212.0
1503.868286 148.0
1504.115356 144.0
1504.169312 164.0
1504.393188 156.0
1504.454956 44.0
1504.516724 136.0
1504.774292 212.0
1504.908691 140.0
1505.011475 104.0
1505.099243 212.0
1505.21167 48.0
1505.358398 208.0
