>compound MLS001141307-01!(2S)-1-[3-[(10aS)-1,3-dioxo-10,10a-dihydro-5H-imidazo[1,5-b]isoquinolin-2-yl]propanoyl]pyrrolidine-2-carboxylic acid
>formula C19H21N3O5
>ionization [M+H]+
>parentmass 372.156
#inchi InChI=1S/C19H21N3O5/c23-16(20-8-3-6-14(20)18(25)26)7-9-21-17(24)15-10-12-4-1-2-5-13(12)11-22(15)19(21)27/h1-2,4-5,14-15H,3,6-11H2,(H,25,26)/t14-,15-/m0/s1
#inchikey WYKMLHCHJWMDNM
#Ion_Source LC-ESI
#Instrument qTof
#Compound_Source NIH Natural Product Library
#PI Dorrestein
#Data_Collector VVP/LMS
#Scan -1
#Precursor_MZ 372.156
#ExactMass 371.148
#Charge 1
#CAS_Number N/A
#Pubmed_ID N/A
#Smiles OC(=O)[C@@H]1CCCN1C(=O)CCN2C(=O)[C@@H]3Cc4ccccc4CN3C2=O
#INCHI_AUX N/A
#Library_Class 1
#SpectrumID CCMSLIB00000079826
#IonMode Positive
#UpdateWorkflowName UPDATE-SINGLE-ANNOTATED-GOLD
#LibraryQualityString Gold
#TaskID b1d8e8f6646f4e71acdff9ca3d919d08
##Scan# 1715
#SpectrumFile p1-F11_GF11_01_17943.mzXML
#LibraryName NIH_Natural_Products_Library.mgf
#MQScore -1
#Organism NIH_Natural_Products_Library
#TIC_Query 0
#RT_Query -1
#MZErrorPPM -1
#SharedPeaks 0
#MassDiff 0
#LibMZ -1
#SpecMZ 372.156
#SpecCharge 0
#internalFilename spec-00000.mgf

>collision 10
95.067993 160.0
95.083519 196.0
95.203888 164.0
95.219421 128.0
95.269928 72.0
95.299065 92.0
95.532364 152.0
95.559601 80.0
95.734787 160.0
96.07003 128.0
96.109047 188.0
96.259354 116.0
96.562263 100.0
96.771645 208.0
96.985176 160.0
97.391335 64.0
97.428658 56.0
97.460091 128.0
97.530838 104.0
97.603577 148.0
97.940109 160.0
97.963745 172.0
97.981476 164.0
98.025551 172.0
98.052414 56.0
98.172668 68.0
98.302864 112.0
98.39563 136.0
98.470673 144.0
98.524002 60.0
98.65641 148.0
99.083878 176.0
100.302055 156.0
100.337936 76.0
100.361862 112.0
100.593285 192.0
101.144989 176.0
101.269127 52.0
101.289162 188.0
101.551735 148.0
101.714264 72.0
101.77449 140.0
102.706261 128.0
102.821266 52.0
102.85154 184.0
102.960564 104.0
103.09996 116.0
103.128258 60.0
103.168045 216.0
103.186394 200.0
103.377014 108.0
103.433678 52.0
103.642281 64.0
104.058067 156.0
104.228683 248.0
104.342499 228.0
104.659897 120.0
105.069565 172.0
105.236923 148.0
105.33699 124.0
105.477989 152.0
105.510696 144.0
105.779243 84.0
106.118134 212.0
106.856087 116.0
107.232918 216.0
108.139618 76.0
108.183083 352.0
109.231026 156.0
109.332977 48.0
109.539108 140.0
109.570351 144.0
109.703728 212.0
109.778786 116.0
110.342552 112.0
111.090195 196.0
111.104874 60.0
111.634178 136.0
111.815102 176.0
111.907722 160.0
112.015121 140.0
112.622612 196.0
112.871986 108.0
113.568733 128.0
113.742729 168.0
113.806419 60.0
114.05275 504.0
114.344231 164.0
114.42704 164.0
114.659431 104.0
114.947327 112.0
115.054901 272.0
115.165085 60.0
115.308235 184.0
115.404427 168.0
115.440781 232.0
116.06736 604.0
116.089638 140.0
116.639259 76.0
116.736008 192.0
116.86554 220.0
116.925323 120.0
116.998505 116.0
117.06694 420.0
117.345367 84.0
117.446724 36.0
117.48555 44.0
118.127144 204.0
118.408524 60.0
118.675064 72.0
119.048286 180.0
119.309021 88.0
119.337288 164.0
119.685417 100.0
119.91851 164.0
120.708794 48.0
121.107101 176.0
121.679443 220.0
122.094742 240.0
122.156326 172.0
122.755394 176.0
123.046646 88.0
123.634613 164.0
123.785149 156.0
123.873741 184.0
124.076523 556.0
124.106445 140.0
124.166313 128.0
124.181839 156.0
124.439255 196.0
124.476997 140.0
124.805862 80.0
125.206413 100.0
125.533775 196.0
125.888817 192.0
126.334366 184.0
126.414146 64.0
126.56636 136.0
126.947296 228.0
127.021309 176.0
127.140228 208.0
127.888641 168.0
128.136353 148.0
128.152115 172.0
128.255783 68.0
128.287338 152.0
128.447006 164.0
128.485794 200.0
129.066254 164.0
129.125046 40.0
129.475845 164.0
129.521133 168.0
129.580032 96.0
129.659348 180.0
129.68428 160.0
130.004486 212.0
130.064789 12844.0
130.149338 84.0
130.173096 128.0
130.197021 72.0
130.269699 108.0
130.349213 56.0
130.369675 32.0
130.615219 148.0
130.924759 112.0
131.020416 168.0
131.036362 168.0
131.06778 1232.0
131.25061 212.0
131.319031 48.0
131.789291 108.0
131.86499 32.0
132.034164 160.0
132.080948 11240.0
132.120804 200.0
132.168854 60.0
132.255814 168.0
132.276413 44.0
132.299301 60.0
132.635635 68.0
132.736923 56.0
133.016815 68.0
133.082825 1244.0
133.25795 100.0
133.40274 72.0
133.720154 152.0
133.874405 132.0
134.183167 204.0
134.270798 128.0
134.376907 76.0
134.404587 140.0
134.501511 172.0
134.607712 164.0
134.697784 168.0
134.910385 144.0
136.238266 112.0
136.656754 100.0
137.117813 132.0
137.169098 180.0
137.446625 220.0
137.687073 76.0
137.780502 32.0
138.037613 108.0
138.079697 260.0
138.409668 148.0
138.489288 196.0
138.854919 188.0
139.190491 108.0
139.416 136.0
139.747559 164.0
140.070084 308.0
140.244049 120.0
140.54866 136.0
140.706802 48.0
141.546158 208.0
141.671692 96.0
141.704865 96.0
142.063034 200.0
142.088943 124.0
142.19809 116.0
142.2883 236.0
142.723083 180.0
143.063309 120.0
143.087112 140.0
143.120453 180.0
143.406326 116.0
143.723495 160.0
143.809402 120.0
143.974136 204.0
144.079437 2624.0
144.138062 116.0
144.358887 104.0
144.569397 56.0
144.60051 224.0
144.919006 196.0
145.06279 132.0
145.087265 196.0
145.17308 160.0
145.878967 164.0
146.062027 308.0
146.165176 120.0
146.331253 236.0
146.463699 104.0
146.793884 180.0
147.010742 200.0
147.05925 164.0
147.10994 116.0
147.293472 108.0
147.365936 84.0
147.402191 144.0
148.072296 88.0
148.641983 156.0
149.232224 212.0
150.099045 180.0
150.726364 164.0
151.472549 60.0
151.854919 128.0
152.166565 192.0
152.478531 140.0
152.623566 180.0
152.660461 216.0
153.507568 124.0
154.109848 160.0
154.285324 128.0
155.052658 116.0
155.136932 148.0
155.906372 108.0
156.045563 148.0
156.515823 124.0
156.809784 108.0
157.031677 80.0
157.079071 112.0
157.371048 136.0
157.803299 112.0
158.020889 120.0
158.059937 5080.0
158.085159 244.0
158.118469 104.0
158.243637 52.0
158.328781 56.0
158.411423 56.0
158.5159 236.0
158.719696 172.0
159.062134 544.0
159.090546 320.0
159.193954 40.0
159.256744 120.0
159.328857 68.0
159.4879 20.0
159.548233 232.0
159.931274 128.0
159.980942 240.0
160.046402 216.0
160.076111 684.0
160.207581 120.0
160.396576 72.0
160.464645 88.0
161.087982 228.0
161.254745 156.0
161.441833 172.0
161.515182 124.0
161.831512 192.0
162.036667 164.0
162.074661 160.0
162.731598 76.0
162.914444 152.0
164.227921 92.0
164.935196 144.0
164.96843 136.0
166.469849 184.0
167.085968 580.0
167.16391 180.0
167.233398 200.0
168.068359 136.0
168.236115 68.0
168.664917 100.0
169.4879 132.0
169.715988 248.0
170.077606 392.0
170.146118 128.0
170.640305 180.0
170.692307 132.0
171.08519 208.0
172.013214 132.0
172.475555 136.0
172.551361 148.0
173.360168 56.0
173.913544 164.0
175.012421 136.0
175.086136 2460.0
175.544693 64.0
175.840164 48.0
176.08696 436.0
176.513809 68.0
176.548187 44.0
176.579926 76.0
176.831268 120.0
177.066895 96.0
177.457855 168.0
178.034897 228.0
178.686111 120.0
179.050461 192.0
179.442505 140.0
179.671127 72.0
179.989471 180.0
180.708466 180.0
181.603195 188.0
181.672943 88.0
182.734131 148.0
182.895599 172.0
183.760635 60.0
184.227692 192.0
184.882019 208.0
184.946976 128.0
185.069183 384.0
185.144623 104.0
185.624268 120.0
186.093124 464.0
186.213165 172.0
186.291946 172.0
186.324539 136.0
186.520203 112.0
186.615341 104.0
186.843811 136.0
186.86557 112.0
186.93631 116.0
186.974411 136.0
187.010651 204.0
187.03157 144.0
187.085648 20708.0
187.161392 64.0
187.1922 128.0
187.238495 72.0
187.279343 60.0
187.311493 96.0
187.412842 112.0
187.462799 168.0
187.509384 112.0
187.552399 56.0
187.581802 60.0
187.619965 40.0
187.689438 208.0
187.767212 28.0
187.843582 88.0
187.862686 64.0
187.92543 68.0
187.98819 140.0
188.089355 2672.0
188.124649 72.0
188.263901 64.0
188.381348 88.0
188.665558 48.0
188.717499 84.0
188.755783 68.0
188.777664 68.0
188.832352 116.0
188.98555 36.0
189.036041 112.0
189.087738 348.0
189.223663 92.0
189.267471 40.0
189.292114 112.0
189.377014 116.0
189.409882 84.0
189.478363 36.0
189.577011 128.0
189.757919 108.0
191.588272 72.0
192.399796 224.0
193.070496 128.0
193.571381 164.0
194.398224 116.0
195.389389 124.0
196.060455 144.0
197.00354 80.0
197.123672 156.0
197.288574 68.0
197.383636 152.0
197.722122 120.0
197.898483 160.0
198.01889 172.0
198.214996 220.0
199.551041 72.0
199.905457 188.0
200.091232 212.0
200.381317 148.0
200.88031 52.0
201.060455 360.0
201.101273 1060.0
201.151199 172.0
201.800964 48.0
201.990448 88.0
202.061172 152.0
202.097946 132.0
202.647232 248.0
202.706741 88.0
202.791763 104.0
202.916489 92.0
203.015732 120.0
203.03891 228.0
203.080688 12548.0
203.183075 20.0
203.268188 56.0
203.319275 52.0
203.34668 92.0
203.370361 64.0
203.469711 100.0
203.577606 64.0
203.611694 40.0
203.682693 72.0
203.716782 60.0
203.901474 116.0
204.003799 60.0
204.023697 108.0
204.08316 1932.0
204.137436 36.0
204.268265 84.0
204.410522 48.0
204.483475 88.0
204.52597 84.0
204.831879 108.0
204.903091 48.0
204.959885 56.0
205.00853 92.0
205.054123 48.0
205.090485 416.0
205.279343 40.0
205.333527 52.0
205.353485 68.0
205.382004 124.0
205.43335 120.0
205.468811 80.0
205.595993 112.0
205.619919 104.0
205.665146 120.0
205.718719 104.0
205.741562 144.0
205.93573 36.0
206.110001 136.0
206.230026 56.0
206.352951 140.0
206.427292 76.0
206.473038 48.0
206.687592 76.0
206.905121 236.0
207.790695 172.0
207.914078 112.0
209.026199 160.0
209.553116 60.0
211.184128 216.0
212.255646 164.0
213.078293 168.0
213.155487 84.0
214.759598 112.0
214.934631 104.0
214.984238 220.0
215.080765 3604.0
215.169144 68.0
215.214844 112.0
215.55368 56.0
215.977585 68.0
216.080627 456.0
216.191162 32.0
216.258484 40.0
216.58934 80.0
216.788574 80.0
217.254761 148.0
218.07695 108.0
221.089371 180.0
222.086594 148.0
222.312073 176.0
224.811813 124.0
225.053604 32.0
225.710953 200.0
225.899368 80.0
228.506393 140.0
229.097977 1648.0
229.491272 48.0
230.097 476.0
233.091049 432.0
234.090607 180.0
236.744736 60.0
238.524246 180.0
240.180847 164.0
242.360352 56.0
246.327026 228.0
255.072998 168.0
256.488129 188.0
256.695374 92.0
256.896301 188.0
256.925018 56.0
257.007965 52.0
257.091522 8952.0
257.145172 168.0
257.231354 40.0
257.292023 40.0
257.394196 44.0
257.435486 116.0
257.522552 100.0
257.569824 40.0
257.815857 36.0
257.942291 156.0
258.094971 1796.0
258.215485 56.0
258.327423 92.0
258.464996 56.0
258.660217 52.0
258.772278 60.0
258.884338 40.0
258.973999 56.0
259.105164 584.0
259.140594 52.0
259.435425 64.0
259.487885 88.0
259.598969 68.0
259.736877 76.0
259.849152 104.0
259.902313 84.0
260.963623 60.0
261.031158 104.0
261.516937 56.0
263.797455 72.0
265.766541 60.0
268.078491 128.0
269.213715 40.0
269.586151 52.0
271.812897 92.0
282.046844 48.0
284.932129 56.0
292.524353 84.0
295.065887 204.0
295.856171 48.0
327.872498 124.0
332.432739 104.0
333.231567 120.0
338.08493 136.0
345.05542 52.0
370.148071 184.0
370.312744 136.0
370.895142 80.0
372.184174 96.0
373.190857 180.0
394.131378 80.0
395.194977 176.0
422.103882 44.0
424.347687 104.0
427.140259 96.0
432.450623 28.0
444.05011 60.0
448.359436 48.0
453.426697 60.0
515.347107 136.0
591.635071 48.0
658.667236 92.0
660.35907 36.0
689.420898 52.0
706.546692 40.0
749.165894 144.0
750.719299 80.0
789.768921 88.0
826.692566 108.0
854.947571 172.0
861.57135 56.0
898.79303 180.0
907.861633 232.0
908.30542 132.0
916.415283 68.0
919.134644 100.0
972.73407 156.0
977.233459 164.0
1016.855713 68.0
1019.021057 192.0
1034.121582 76.0
1063.435181 196.0
1064.383057 204.0
1072.964966 208.0
1077.814331 156.0
1110.109375 164.0
1110.334839 80.0
1118.919922 184.0
1119.059692 188.0
1137.189087 220.0
1150.550903 144.0
1160.123413 172.0
1173.564331 156.0
1177.433472 100.0
1178.512817 192.0
1179.066284 144.0
1185.519775 128.0
1186.493042 148.0
1201.126831 204.0
1213.401611 52.0
1216.100098 144.0
1216.460938 168.0
1224.533691 132.0
1229.274292 116.0
1233.276001 200.0
1233.492676 136.0
1234.261719 60.0
1245.82605 176.0
1246.950317 144.0
1248.124268 72.0
1248.728149 160.0
1250.32605 192.0
1255.539429 112.0
1255.828613 256.0
1266.692627 152.0
1267.471924 164.0
1269.265259 216.0
1272.63562 212.0
1277.134033 116.0
1277.368774 192.0
1278.272339 168.0
1288.768433 180.0
1332.249512 180.0
1333.59375 224.0
1337.856323 168.0
1340.012085 136.0
1343.577148 196.0
1344.423584 148.0
1348.791138 164.0
1351.379883 216.0
1353.587646 240.0
1358.295532 252.0
1362.090576 208.0
1363.560059 196.0
1364.368652 152.0
1374.886963 280.0
1376.78418 204.0
1376.835938 224.0
1377.456299 28.0
1383.172241 168.0
1386.875854 212.0
1390.25769 148.0
1410.262085 140.0
1410.478882 108.0
1418.158447 216.0
1425.077393 104.0
1427.009033 136.0
1435.977661 156.0
1436.920532 188.0
1443.733765 144.0
1445.723389 136.0
1446.13208 184.0
1446.449951 132.0
1448.252075 144.0
1448.986938 188.0
1452.238037 180.0
1454.970703 228.0
1455.190796 212.0
1460.807007 172.0
1463.379272 116.0
1465.169067 180.0
1468.370483 60.0
1468.698486 132.0
1471.453369 176.0
1475.3573 184.0
1476.335938 224.0
1477.808472 20.0
1481.893188 240.0
1483.050293 128.0
1483.310913 144.0
1489.011719 184.0
1489.918091 224.0
1494.315674 152.0
1494.38501 212.0
1496.925049 128.0
