>compound MLS001140573-01!(2S)-3-(1H-indol-3-yl)-2-[[2-(6-oxobenzo[c]chromen-3-yl)oxyacetyl]amino]propanoic acid
>formula C26H20N2O6
>ionization [M+H]+
>parentmass 457.14
#inchi InChI=1S/C26H20N2O6/c29-24(28-22(25(30)31)11-15-13-27-21-8-4-3-5-17(15)21)14-33-16-9-10-19-18-6-1-2-7-20(18)26(32)34-23(19)12-16/h1-10,12-13,22,27H,11,14H2,(H,28,29)(H,30,31)/t22-/m0/s1
#inchikey QUKUWAWACFICTC
#Ion_Source LC-ESI
#Instrument qTof
#Compound_Source NIH Natural Product Library
#PI Dorrestein
#Data_Collector VVP/LMS
#Scan -1
#Precursor_MZ 457.14
#ExactMass 456.132
#Charge 1
#CAS_Number N/A
#Pubmed_ID N/A
#Smiles OC(=O)[C@H](Cc1c[nH]c2ccccc12)NC(=O)COc3ccc4c(c3)oc(=O)c5ccccc54
#INCHI_AUX N/A
#Library_Class 1
#SpectrumID CCMSLIB00000079802
#IonMode Positive
#UpdateWorkflowName UPDATE-SINGLE-ANNOTATED-GOLD
#LibraryQualityString Gold
#TaskID b1d8e8f6646f4e71acdff9ca3d919d08
##Scan# 2165
#SpectrumFile p1-C11_GC11_01_17907.mzXML
#LibraryName NIH_Natural_Products_Library.mgf
#MQScore -1
#Organism NIH_Natural_Products_Library
#TIC_Query 0
#RT_Query -1
#MZErrorPPM -1
#SharedPeaks 0
#MassDiff 0
#LibMZ -1
#SpecMZ 457.14
#SpecCharge 0
#internalFilename spec-00000.mgf

>collision 10
94.976318 108.0
95.063622 248.0
95.147087 140.0
95.337433 76.0
96.00515 136.0
96.190498 120.0
96.385796 164.0
96.555862 116.0
96.912125 48.0
96.974831 132.0
97.03952 152.0
97.12384 180.0
97.17485 192.0
97.23568 132.0
97.508667 184.0
97.606956 60.0
97.693489 192.0
97.830719 168.0
97.904091 32.0
97.955299 244.0
97.986488 72.0
98.193787 136.0
98.233238 136.0
98.308212 116.0
98.367416 184.0
98.458244 168.0
98.477776 164.0
98.501694 196.0
98.685478 208.0
99.027817 204.0
99.261665 224.0
99.362816 152.0
99.528824 208.0
99.854431 168.0
99.988731 288.0
100.040482 176.0
100.121391 176.0
100.154411 92.0
100.227692 156.0
100.311394 152.0
100.413078 44.0
100.512825 180.0
100.702469 144.0
100.838326 212.0
100.960274 124.0
101.182373 160.0
101.202393 140.0
101.348122 180.0
101.535034 136.0
101.593201 176.0
101.715607 108.0
101.753746 152.0
101.926476 124.0
102.046791 172.0
102.147621 96.0
102.286461 200.0
102.379074 176.0
102.437485 152.0
102.60051 160.0
102.8125 168.0
102.907372 144.0
102.965927 220.0
103.054268 968.0
103.184158 88.0
103.30954 92.0
103.595741 220.0
103.732758 348.0
103.771278 124.0
103.806023 148.0
104.250397 172.0
104.396667 228.0
104.506508 72.0
104.608261 168.0
105.070854 224.0
105.215752 140.0
105.532417 136.0
105.583542 152.0
105.671494 128.0
105.921242 196.0
106.023689 216.0
106.064674 164.0
106.214355 172.0
106.438049 140.0
106.627045 176.0
106.729828 176.0
106.794594 180.0
106.839668 196.0
106.86763 48.0
107.017876 192.0
107.034348 124.0
107.232109 140.0
107.326935 216.0
107.357864 164.0
107.471313 160.0
107.640572 92.0
107.67981 184.0
107.741776 148.0
107.865761 192.0
107.886429 148.0
108.029121 184.0
108.397644 252.0
108.51786 104.0
108.7668 216.0
108.812469 168.0
109.026413 136.0
109.325867 192.0
109.640327 140.0
109.794594 108.0
109.838394 168.0
109.994888 128.0
110.136871 172.0
110.164024 152.0
110.258049 156.0
110.467133 220.0
110.57119 208.0
110.624077 124.0
110.764374 168.0
111.030548 328.0
111.255058 168.0
111.278152 168.0
111.336945 192.0
111.450378 188.0
111.536537 136.0
111.557556 204.0
111.76577 140.0
111.812065 128.0
111.96785 60.0
112.012077 120.0
112.178551 172.0
112.446419 52.0
112.659676 116.0
112.775894 156.0
112.818169 128.0
112.866798 36.0
112.964081 180.0
113.050827 152.0
113.11644 84.0
113.372711 180.0
113.582382 196.0
114.038872 148.0
114.08374 84.0
114.29216 160.0
114.366646 188.0
114.750076 140.0
114.809784 136.0
114.882927 204.0
114.901497 160.0
114.974045 120.0
115.055862 2580.0
115.29438 164.0
115.352089 28.0
115.420502 180.0
115.771431 188.0
115.932098 168.0
115.962097 144.0
116.060707 256.0
116.101456 72.0
116.142204 132.0
116.174377 144.0
116.230156 232.0
116.253761 176.0
116.354645 176.0
116.539345 152.0
116.743546 68.0
116.808067 176.0
117.00174 60.0
117.059372 1464.0
117.339973 268.0
117.389565 72.0
117.424072 100.0
117.538399 44.0
117.644157 172.0
117.670059 164.0
117.838516 56.0
118.065842 4680.0
118.134689 68.0
118.292656 144.0
118.312141 68.0
118.344612 48.0
118.379257 196.0
118.589401 52.0
118.782372 60.0
119.069885 376.0
119.312233 180.0
119.470978 92.0
119.577599 168.0
119.614601 96.0
119.666847 140.0
119.760483 76.0
120.052521 148.0
120.176849 68.0
120.213943 72.0
120.530563 168.0
120.768852 176.0
120.913246 124.0
121.691414 192.0
121.774857 96.0
121.836357 164.0
121.902275 140.0
121.950623 104.0
122.007774 192.0
122.595444 152.0
122.7696 148.0
122.968346 132.0
123.069695 140.0
123.297211 152.0
123.467232 212.0
123.633354 144.0
123.77681 164.0
123.901268 152.0
123.921211 104.0
124.016495 92.0
124.149513 132.0
124.346962 100.0
124.533455 212.0
124.571213 132.0
124.640091 64.0
124.671196 200.0
124.944679 128.0
124.965858 364.0
125.122719 216.0
125.586212 180.0
125.737923 116.0
125.914291 156.0
125.929924 116.0
125.952263 88.0
125.991333 212.0
126.039978 228.0
126.569496 88.0
126.652359 204.0
126.679237 60.0
126.869713 180.0
127.054321 476.0
127.230896 176.0
127.311722 208.0
127.376854 160.0
127.442001 180.0
127.549873 244.0
127.662285 100.0
127.691521 92.0
127.738754 212.0
127.916519 92.0
128.056198 256.0
128.103424 232.0
128.435913 252.0
128.755249 120.0
128.780106 140.0
129.032944 184.0
129.070862 976.0
129.184692 124.0
129.297836 124.0
129.551422 220.0
129.610321 152.0
129.635254 140.0
129.73497 180.0
129.778046 40.0
129.927734 32.0
129.966309 112.0
130.009125 208.0
130.066101 37004.0
130.119385 128.0
130.18428 140.0
130.213745 56.0
130.244598 68.0
130.288696 48.0
130.409653 240.0
130.461411 56.0
130.48642 76.0
130.645599 68.0
130.713867 52.0
130.796555 72.0
130.839035 36.0
130.866364 68.0
130.898239 32.0
130.949814 148.0
131.068207 3064.0
131.139725 56.0
131.201263 280.0
131.237747 96.0
131.269669 164.0
131.295975 56.0
131.364349 140.0
131.399673 96.0
131.447586 84.0
131.525177 144.0
131.634766 224.0
131.669525 72.0
131.870071 68.0
131.952362 92.0
131.967148 68.0
131.991226 108.0
132.048294 196.0
132.079956 2852.0
132.194809 112.0
132.225494 108.0
132.274902 112.0
132.302383 104.0
132.442062 168.0
132.460388 120.0
132.519943 160.0
132.53598 208.0
132.698715 100.0
132.778976 112.0
133.003815 224.0
133.050873 92.0
133.084473 388.0
133.151733 140.0
133.19899 100.0
133.290878 188.0
133.346039 84.0
133.440277 216.0
133.527664 128.0
133.912003 216.0
133.969589 40.0
134.031799 208.0
134.050232 128.0
134.253082 36.0
134.386871 120.0
134.467636 48.0
134.659256 144.0
134.973541 100.0
135.155579 160.0
135.524414 176.0
135.622299 152.0
135.712158 176.0
135.91626 68.0
136.2715 116.0
136.988022 176.0
137.218735 196.0
137.29335 136.0
137.535995 180.0
137.608353 112.0
137.811554 220.0
137.914368 200.0
138.0336 100.0
138.122467 140.0
138.194992 172.0
138.356476 164.0
138.604736 140.0
138.682068 200.0
138.721909 184.0
138.891373 240.0
139.026825 168.0
139.055954 1192.0
139.126602 152.0
139.14653 140.0
139.943542 172.0
140.049408 260.0
140.44548 164.0
140.839645 256.0
140.934143 176.0
141.065582 244.0
141.112396 144.0
141.191803 196.0
141.284042 84.0
141.407089 136.0
141.672287 136.0
141.712555 96.0
141.764694 136.0
141.835785 172.0
141.876083 68.0
141.911072 148.0
142.066391 4972.0
142.179688 60.0
142.217667 40.0
142.317368 188.0
142.438477 44.0
142.521622 180.0
142.673737 64.0
142.69429 132.0
142.968674 136.0
142.987701 152.0
143.031296 96.0
143.072525 5856.0
143.132919 164.0
143.16864 132.0
143.221024 144.0
143.25914 68.0
143.366364 60.0
143.404495 88.0
143.549911 112.0
143.681091 48.0
143.724045 124.0
143.783691 192.0
144.022446 164.0
144.048218 204.0
144.080917 12428.0
144.145676 124.0
144.239044 92.0
144.318771 220.0
144.354645 60.0
144.373764 80.0
144.409637 72.0
144.452698 28.0
144.546005 64.0
144.591461 164.0
144.617798 96.0
144.644119 144.0
144.732697 80.0
144.759033 176.0
144.969833 88.0
144.998596 52.0
145.084869 1488.0
145.149628 76.0
145.171204 136.0
145.365509 64.0
145.624771 116.0
145.651199 216.0
145.853027 144.0
145.904907 324.0
145.958817 60.0
145.987671 348.0
146.060852 7532.0
146.187332 100.0
146.211395 68.0
146.324524 164.0
146.408798 124.0
146.473831 100.0
146.548508 68.0
146.582245 52.0
146.734085 224.0
146.910126 140.0
146.938782 144.0
147.011459 68.0
147.064301 672.0
147.114197 36.0
147.149048 92.0
147.260132 260.0
147.291519 68.0
147.322235 168.0
147.784683 36.0
148.048523 140.0
148.465347 64.0
148.654556 124.0
148.904602 156.0
149.089233 180.0
149.13298 76.0
149.149994 152.0
149.750961 116.0
150.092133 216.0
150.199448 36.0
150.367798 88.0
150.462982 244.0
150.543564 148.0
150.570419 176.0
150.932083 140.0
151.132645 204.0
151.360275 32.0
151.673859 96.0
151.744949 176.0
151.897003 232.0
152.058746 196.0
152.668182 144.0
152.71492 208.0
152.788712 136.0
153.022507 96.0
153.070297 2140.0
153.128387 184.0
153.222 68.0
153.305771 52.0
153.426544 128.0
153.522705 48.0
154.065475 3324.0
154.434006 56.0
154.504181 88.0
154.528015 176.0
154.825043 168.0
155.018265 144.0
155.068893 1340.0
155.271118 48.0
155.320724 60.0
155.479507 60.0
155.561417 44.0
155.906647 212.0
155.943939 208.0
155.967072 64.0
156.006073 56.0
156.045227 176.0
156.07959 2136.0
156.130386 52.0
156.172668 40.0
156.209976 92.0
156.296249 284.0
156.351807 44.0
156.573364 108.0
156.625671 140.0
156.750473 128.0
156.862381 52.0
156.992035 220.0
157.027603 196.0
157.039032 180.0
157.051361 188.0
157.078247 2524.0
157.119232 36.0
157.138901 104.0
157.18161 132.0
157.238174 240.0
157.313889 112.0
157.541122 80.0
157.583603 116.0
157.941071 204.0
157.973587 76.0
158.008621 136.0
158.083664 14556.0
158.183792 52.0
158.238861 64.0
158.300339 72.0
158.319229 124.0
158.344025 76.0
158.456009 68.0
158.504349 56.0
158.591202 208.0
158.719925 88.0
158.750015 176.0
158.963226 72.0
159.03978 80.0
159.09079 4648.0
159.186646 60.0
159.276321 152.0
159.358276 72.0
159.380051 176.0
159.478058 52.0
159.505707 68.0
159.60878 104.0
159.701828 56.0
159.782318 184.0
159.925751 180.0
159.98616 176.0
160.074066 1224.0
160.093018 1104.0
160.169983 64.0
160.207779 72.0
160.303513 96.0
160.449692 72.0
160.724609 132.0
160.752365 32.0
160.787689 64.0
160.939148 168.0
161.055313 76.0
161.074417 148.0
161.118469 100.0
161.153839 248.0
161.449585 84.0
161.753189 200.0
161.90004 40.0
161.954346 128.0
162.163513 192.0
162.249695 176.0
162.267441 128.0
162.330826 80.0
162.371399 212.0
162.820602 160.0
162.87648 64.0
162.962845 132.0
163.059402 92.0
163.247528 48.0
163.461197 148.0
164.026581 152.0
164.215271 164.0
164.651688 192.0
164.71553 136.0
164.753845 68.0
164.779404 80.0
164.978729 224.0
164.996628 180.0
165.078445 196.0
165.434082 140.0
165.977219 196.0
166.066971 156.0
166.444214 60.0
166.510971 200.0
166.917007 192.0
166.986435 140.0
167.007004 224.0
167.049377 5992.0
167.238571 40.0
167.259171 236.0
167.279755 76.0
167.328674 72.0
167.398193 64.0
167.436813 192.0
167.542419 188.0
167.794983 148.0
167.911011 132.0
168.053543 732.0
168.171585 40.0
168.267105 88.0
168.370392 240.0
168.522781 192.0
168.905396 96.0
168.933838 120.0
168.978775 184.0
169.067825 1260.0
169.29361 168.0
169.335037 140.0
169.355759 96.0
169.469742 64.0
169.544891 64.0
169.575989 84.0
169.64325 168.0
169.78598 192.0
169.82074 188.0
169.850815 140.0
169.991943 132.0
170.027252 140.0
170.060791 12392.0
170.115494 40.0
170.167419 88.0
170.193558 60.0
170.240112 76.0
170.266083 56.0
170.294647 56.0
170.381805 232.0
170.473907 48.0
170.494705 92.0
170.554474 116.0
170.577866 116.0
170.713058 108.0
170.759872 48.0
170.811493 180.0
170.850906 152.0
170.884735 180.0
170.938416 120.0
170.969452 288.0
171.001007 140.0
171.062408 2008.0
171.092163 13172.0
171.138229 60.0
171.262192 84.0
171.301254 196.0
171.380844 88.0
171.39624 88.0
171.473221 100.0
171.538391 72.0
171.564453 124.0
171.59314 72.0
171.621811 72.0
171.700043 72.0
171.760147 88.0
171.801758 144.0
171.835678 68.0
171.853943 88.0
172.031403 208.0
172.071716 648.0
172.097092 2196.0
172.210464 132.0
172.250748 72.0
172.398987 76.0
172.449326 140.0
172.702942 76.0
172.760483 44.0
172.786652 76.0
172.988144 80.0
173.00647 60.0
173.040512 96.0
173.08139 500.0
173.101105 668.0
173.272141 152.0
173.32338 80.0
173.349579 156.0
173.480621 204.0
173.603851 104.0
173.630081 80.0
173.721985 92.0
173.76123 44.0
173.797958 188.0
174.091232 232.0
174.115585 52.0
174.536026 68.0
174.722763 120.0
174.828018 40.0
175.533981 76.0
175.562988 56.0
176.043274 124.0
176.458099 216.0
176.489822 148.0
177.070786 176.0
177.164703 72.0
177.689606 108.0
178.74707 108.0
178.957352 48.0
179.111801 204.0
179.831696 148.0
179.893097 224.0
180.871429 76.0
181.076523 844.0
181.137512 192.0
181.342819 52.0
181.361588 80.0
181.466125 184.0
182.082367 1468.0
182.145081 32.0
182.60199 88.0
182.841431 104.0
182.992172 188.0
183.045563 196.0
183.06839 1756.0
183.090988 3988.0
183.326172 80.0
183.367157 76.0
183.576859 144.0
183.83313 164.0
183.873611 168.0
184.077866 2760.0
184.354309 84.0
184.438095 80.0
184.557037 80.0
184.719299 64.0
184.954712 140.0
185.070953 2160.0
185.157761 104.0
185.187561 56.0
185.24173 32.0
185.394089 120.0
185.482895 64.0
185.501862 100.0
185.553375 92.0
185.732346 36.0
186.076035 724.0
186.142151 88.0
186.386612 128.0
186.427368 120.0
186.503464 32.0
186.533371 76.0
186.639389 44.0
187.064789 208.0
187.327942 64.0
187.465073 192.0
187.57045 52.0
187.619522 132.0
187.717667 100.0
187.739487 60.0
187.821304 100.0
187.905869 176.0
187.952042 244.0
188.019562 144.0
188.070892 7924.0
188.129654 40.0
188.195175 120.0
188.245682 136.0
188.300201 104.0
188.356293 96.0
188.381882 76.0
188.768982 44.0
189.074341 1104.0
189.488831 176.0
189.518967 228.0
189.743698 72.0
189.768372 36.0
189.996002 184.0
190.079956 140.0
190.303391 100.0
190.393997 36.0
190.569962 132.0
190.632996 132.0
190.718201 72.0
191.249039 140.0
191.76683 60.0
192.691238 48.0
193.900436 160.0
194.030716 152.0
194.133316 88.0
194.280304 200.0
194.574478 88.0
195.044464 3112.0
195.075439 104.0
195.246902 68.0
195.455521 48.0
195.639221 156.0
195.736664 48.0
195.853622 112.0
196.046005 744.0
196.115524 72.0
196.525467 116.0
196.840866 140.0
197.023712 172.0
197.05957 2952.0
197.105576 156.0
197.167709 152.0
197.237579 56.0
197.282303 92.0
197.338211 56.0
197.427689 40.0
198.063995 1048.0
198.102219 152.0
198.624832 100.0
198.969818 180.0
199.055954 176.0
199.086761 1888.0
199.210266 88.0
199.233353 92.0
199.305786 52.0
199.387268 92.0
199.688095 144.0
199.932846 244.0
200.09491 3144.0
200.15242 172.0
200.183395 84.0
200.234085 40.0
200.281952 40.0
200.471024 184.0
201.094818 500.0
201.370651 60.0
201.661652 56.0
204.563339 136.0
205.056091 136.0
205.983383 92.0
206.540771 108.0
208.007843 40.0
209.063736 444.0
209.517548 88.0
210.060196 148.0
210.960434 96.0
211.041382 184.0
211.078979 88.0
211.238037 180.0
211.808273 148.0
212.048813 452.0
212.396683 328.0
212.692642 152.0
213.054733 1740.0
213.299713 136.0
213.872726 40.0
214.054642 528.0
214.475647 40.0
214.678879 148.0
215.041473 40.0
215.120285 48.0
215.166992 100.0
215.368484 120.0
216.453461 68.0
217.093491 160.0
217.447235 84.0
218.578613 136.0
219.3237 124.0
219.863419 84.0
220.56929 136.0
221.03656 136.0
221.066147 192.0
221.732468 152.0
223.050186 2616.0
223.814835 112.0
223.939911 128.0
224.056564 428.0
224.240814 72.0
224.541931 84.0
224.643341 32.0
224.932785 132.0
225.054306 7080.0
225.443604 136.0
225.496552 80.0
225.764084 152.0
225.980301 176.0
226.057114 1216.0
226.538559 184.0
227.053192 348.0
227.081085 100.0
227.380264 128.0
227.516159 108.0
227.627258 120.0
227.798447 72.0
228.05986 148.0
228.08992 252.0
228.411652 92.0
229.016647 76.0
229.079895 348.0
229.824539 204.0
229.906021 124.0
230.189774 120.0
231.717209 120.0
232.085739 348.0
232.702881 108.0
234.043701 128.0
236.042282 104.0
236.988083 172.0
237.051926 452.0
238.060852 408.0
238.851501 100.0
239.073013 116.0
240.068024 152.0
240.283936 84.0
241.358749 36.0
248.077408 108.0
249.050201 436.0
250.051559 148.0
251.054901 132.0
252.063568 1308.0
252.349487 44.0
253.049484 396.0
254.056488 152.0
254.812057 172.0
254.879837 40.0
254.920074 196.0
256.281952 68.0
256.890869 60.0
256.999329 192.0
257.535645 136.0
258.782776 80.0
262.049622 156.0
263.048828 60.0
263.526764 80.0
265.045502 164.0
266.079895 304.0
267.066711 584.0
267.092743 212.0
269.985626 132.0
270.074493 532.0
270.103363 84.0
270.823456 96.0
271.085541 244.0
275.345734 124.0
276.254669 88.0
278.043884 104.0
280.063721 484.0
280.121643 200.0
280.995331 48.0
281.072083 64.0
283.982483 96.0
284.334778 60.0
286.247528 76.0
287.518402 100.0
289.140564 36.0
291.110168 80.0
291.769318 88.0
293.826294 184.0
294.072479 328.0
294.21875 72.0
294.321167 128.0
295.048889 48.0
297.642487 68.0
297.848541 112.0
298.013458 176.0
298.800751 188.0
300.065857 176.0
301.801331 144.0
303.064667 124.0
304.114777 200.0
305.126251 120.0
306.448761 156.0
306.494049 136.0
307.037842 56.0
307.578644 36.0
307.920807 116.0
308.098938 212.0
310.51413 76.0
311.093079 44.0
312.914093 148.0
313.481171 88.0
318.081238 176.0
320.10083 176.0
321.409943 184.0
322.074402 272.0
323.082001 84.0
327.446747 160.0
327.864624 68.0
328.019623 108.0
331.126892 160.0
331.253662 108.0
335.753296 80.0
336.09259 140.0
336.172821 60.0
337.019958 128.0
337.111298 172.0
337.64502 96.0
338.108582 204.0
340.091125 104.0
341.088104 248.0
342.570709 180.0
345.37973 120.0
345.638702 28.0
345.709015 108.0
347.090668 128.0
349.110718 116.0
350.141541 124.0
351.095581 132.0
352.073334 84.0
352.402039 160.0
352.656158 144.0
353.093567 236.0
353.890594 72.0
354.113037 1252.0
354.193939 188.0
355.114014 284.0
355.2435 52.0
356.094421 200.0
356.771881 36.0
357.249481 172.0
362.099731 192.0
363.422668 196.0
365.135864 120.0
366.112579 404.0
366.144348 216.0
366.22052 180.0
366.430054 40.0
367.104675 160.0
369.618134 128.0
370.127228 184.0
373.369781 72.0
375.784943 32.0
376.098267 144.0
377.097382 160.0
377.360718 136.0
380.110718 148.0
382.100037 124.0
383.108826 148.0
384.124207 136.0
385.519531 100.0
392.774963 220.0
393.120575 408.0
394.014465 36.0
394.117706 664.0
394.150665 144.0
394.915741 76.0
395.105957 92.0
395.119019 144.0
396.126923 188.0
396.820435 116.0
396.848206 72.0
396.939392 76.0
403.057373 88.0
404.086792 188.0
405.598633 132.0
409.681244 92.0
409.818207 148.0
409.870605 236.0
409.959259 48.0
410.360229 100.0
410.874512 108.0
410.991516 128.0
411.043976 124.0
411.133118 5868.0
411.487946 68.0
411.588898 44.0
411.673676 84.0
411.722137 56.0
411.843292 232.0
412.13681 1480.0
412.190735 144.0
412.336212 72.0
412.449371 68.0
412.586823 64.0
413.147461 316.0
413.387665 44.0
414.185211 116.0
414.306732 48.0
414.476898 68.0
414.521454 132.0
415.449921 80.0
415.531067 84.0
416.115479 72.0
418.367706 84.0
419.292297 52.0
421.118073 124.0
422.861725 96.0
423.709351 72.0
427.564941 164.0
434.739075 120.0
439.134399 148.0
445.26355 168.0
450.913147 80.0
455.1875 188.0
459.251678 88.0
465.177917 52.0
471.479126 156.0
481.174164 120.0
505.19458 84.0
518.264282 48.0
528.01947 72.0
528.637085 52.0
533.976929 108.0
543.530151 60.0
547.234558 92.0
550.409729 20.0
559.401917 44.0
596.886475 112.0
613.355774 104.0
620.741882 44.0
633.861694 36.0
646.106506 44.0
661.474792 40.0
671.860291 140.0
673.842712 124.0
689.05481 92.0
699.959106 136.0
722.302612 152.0
726.266235 56.0
741.643799 144.0
744.041382 56.0
750.406677 216.0
755.545776 172.0
778.491699 228.0
785.906006 92.0
801.369507 140.0
818.508972 44.0
827.524536 244.0
827.828003 156.0
845.889038 60.0
862.694641 136.0
869.084106 176.0
885.566467 124.0
889.461975 252.0
899.15155 212.0
901.331177 136.0
912.719727 224.0
913.850464 144.0
918.470947 128.0
933.229065 68.0
938.995728 104.0
939.398254 80.0
943.801514 176.0
944.939148 136.0
946.481506 104.0
957.775208 152.0
959.118408 176.0
966.894287 20.0
979.18042 56.0
992.534607 188.0
997.362244 92.0
1001.540161 212.0
1003.064941 204.0
1005.127197 144.0
1006.086548 52.0
1012.067383 160.0
1017.710327 176.0
1022.789673 144.0
1027.556274 176.0
1041.871094 56.0
1042.051025 104.0
1045.639038 148.0
1045.838623 140.0
1058.394775 124.0
1061.077026 156.0
1063.606934 148.0
1064.697754 176.0
1066.289429 88.0
1066.848389 176.0
1067.797729 108.0
1068.350586 104.0
1068.897095 204.0
1075.198486 180.0
1076.654297 148.0
1078.790894 120.0
1080.085571 172.0
1081.675537 72.0
1082.480835 56.0
1095.00415 84.0
1096.506348 108.0
1097.119263 44.0
1097.317017 84.0
1101.705688 220.0
1107.513428 176.0
1107.844604 144.0
1118.4823 28.0
1119.907227 208.0
1128.027588 168.0
1129.371582 84.0
1130.341553 192.0
1130.977295 124.0
1133.508789 148.0
1133.555664 52.0
1137.539551 172.0
1139.204834 204.0
1142.996704 76.0
1149.769043 184.0
1152.051147 32.0
1155.491333 148.0
1158.172852 128.0
1158.247314 180.0
1161.134644 224.0
1162.369263 108.0
1163.203979 136.0
1163.855713 144.0
1164.188477 176.0
1169.348389 192.0
1169.947388 88.0
1172.256226 172.0
1172.760498 124.0
1172.835571 144.0
1178.219482 144.0
1179.716064 108.0
1179.79126 64.0
1179.900635 132.0
1181.494019 156.0
1186.383667 172.0
1195.876465 136.0
1196.991699 124.0
1197.439331 136.0
1197.57019 164.0
1198.87915 148.0
1199.830322 120.0
1200.457764 136.0
1204.19812 164.0
1206.706543 52.0
1211.218384 52.0
1217.009033 248.0
1217.911743 160.0
1218.620361 156.0
1219.56543 160.0
1220.503906 148.0
1222.242798 200.0
1223.238037 88.0
1223.787964 196.0
1224.860474 40.0
1227.655151 152.0
1229.461914 160.0
1234.100098 156.0
1235.673706 56.0
1237.409424 244.0
1242.46936 240.0
1242.518433 100.0
1243.304321 136.0
1246.548584 164.0
1248.628418 136.0
1248.896729 140.0
1251.331421 192.0
1251.536255 208.0
1255.932983 104.0
1259.942505 256.0
1260.719727 172.0
1260.988281 176.0
1261.744629 144.0
1263.901733 104.0
1265.168579 156.0
1267.215332 88.0
1267.434937 120.0
1269.994141 72.0
1271.904907 64.0
1273.755981 120.0
1274.317139 164.0
1274.74353 160.0
1276.435303 168.0
1276.53479 112.0
1276.712646 136.0
1276.797974 132.0
1277.637207 72.0
1277.822266 180.0
1278.078369 172.0
1278.220703 116.0
1279.9646 216.0
1280.20105 184.0
1280.591309 132.0
1284.468628 212.0
1292.856445 132.0
1293.357422 156.0
1294.603149 208.0
1297.920776 208.0
1298.984375 188.0
1299.577637 172.0
1300.539185 36.0
1300.639771 144.0
1302.003784 112.0
1302.219238 96.0
1304.446655 148.0
1305.417236 84.0
1307.201172 148.0
1310.715088 64.0
1310.880859 140.0
1314.457397 160.0
1315.547241 56.0
1317.395874 144.0
1317.92334 204.0
1320.467773 188.0
1321.306885 144.0
1321.45874 128.0
1327.325562 124.0
1327.85498 196.0
1329.015625 112.0
1330.496216 192.0
1331.033447 160.0
1331.403809 188.0
1331.977539 68.0
1334.74646 208.0
1335.742798 132.0
1337.532715 152.0
1338.500977 200.0
1340.25647 160.0
1340.835083 188.0
1341.342285 60.0
1342.683838 64.0
1343.06311 164.0
1344.974731 232.0
1348.078613 64.0
1348.824097 148.0
1350.271729 136.0
1350.322998 180.0
1350.893433 212.0
1351.500732 164.0
1352.480713 268.0
1352.869263 244.0
1353.25 144.0
1353.367065 56.0
1355.234741 140.0
1355.586548 120.0
1356.32666 136.0
1358.482544 180.0
1363.28418 204.0
1364.078003 152.0
1365.121948 204.0
1366.284058 176.0
1366.615112 280.0
1372.271606 176.0
1373.237549 128.0
1373.76123 156.0
1374.535889 216.0
1376.477173 260.0
1377.614624 204.0
1378.264771 80.0
1378.48645 212.0
1378.693359 108.0
1378.900269 176.0
1381.436401 36.0
1384.507935 168.0
1385.285645 136.0
1385.611572 216.0
1385.922729 164.0
1387.82019 108.0
1388.791626 184.0
1388.865845 132.0
1389.155151 172.0
1391.92334 108.0
1392.866577 48.0
1393.579712 136.0
1393.928955 132.0
1394.642334 44.0
1395.155273 120.0
1397.207764 148.0
1397.296997 176.0
1397.587158 148.0
1399.522339 48.0
1400.885254 148.0
1402.144409 140.0
1404.276733 112.0
1405.649292 40.0
1407.448242 216.0
1408.785034 188.0
1409.509766 188.0
1409.644287 168.0
1412.425415 124.0
1412.851807 168.0
1413.233276 180.0
1417.815918 224.0
1418.153198 100.0
1418.468018 120.0
1419.420166 116.0
1421.775635 192.0
1421.858154 148.0
1422.360962 192.0
1422.601196 196.0
1426.289429 208.0
1427.27417 164.0
1427.590088 152.0
1429.621094 140.0
1430.599609 188.0
1432.180786 144.0
1433.130005 156.0
1433.808228 188.0
1434.094604 52.0
1434.200073 132.0
1436.696045 116.0
1436.89978 80.0
1437.171387 212.0
1437.352417 92.0
1439.820801 148.0
1441.815308 108.0
1441.996704 160.0
1443.19104 248.0
1444.280029 136.0
1444.461548 168.0
1444.975952 168.0
1445.127197 136.0
1445.210449 68.0
1448.783936 136.0
1450.261475 248.0
1450.678345 180.0
1451.269653 136.0
1451.527466 40.0
1451.641235 144.0
1452.460327 184.0
1453.507202 156.0
1455.495972 152.0
1456.733887 188.0
1456.999756 160.0
1457.797485 224.0
1458.671509 168.0
1459.74353 140.0
1460.283447 184.0
1460.595337 124.0
1462.916138 228.0
1463.913574 204.0
1464.675171 52.0
1466.381836 192.0
1466.496094 240.0
1466.816284 164.0
1469.081055 56.0
1469.325073 188.0
1469.515869 40.0
1469.805786 184.0
1470.202637 164.0
1471.446777 220.0
1471.973511 176.0
1473.195557 184.0
1473.371216 128.0
1474.104736 208.0
1475.824585 200.0
1476.214478 192.0
1476.421021 156.0
1476.505127 180.0
1476.765137 132.0
1476.841675 108.0
1477.040527 52.0
1477.400024 232.0
1478.256958 136.0
1479.994507 56.0
1481.441895 180.0
1481.702393 164.0
1482.09314 216.0
1482.905396 184.0
1484.27124 188.0
1485.512329 268.0
1487.284912 168.0
1489.258179 160.0
1490.026245 96.0
1490.418091 144.0
1491.470947 152.0
1491.901489 196.0
1493.435913 160.0
1493.654663 164.0
1494.200806 52.0
1495.108765 192.0
1497.610962 136.0
1499.97644 156.0
1500.554565 124.0
1501.518433 68.0
1502.251099 128.0
1502.582886 60.0
1503.416138 140.0
