>compound Emericellamide A
>formula C31H55N5O7 
>ionization [M+H]+
>parentmass 610.416504
#inchi InChI=1S/C31H55N5O7/c1-10-11-12-13-14-19(6)26-20(7)27(38)32-16-24(37)36-25(18(4)5)30(41)35-23(15-17(2)3)29(40)33-21(8)28(39)34-22(9)31(42)43-26/h17-23,25-26H,10-16H2,1-9H3,(H,32,38)(H,33,40)(H,34,39)(H,35,41)(H,36,37)/t19-,20+,21-,22-,23-,25-,26+/m0/s1
#inchikey QURRTAYEASAREY
#Ion_Source LC-ESI
#Instrument qTof
#Compound_Source Isolated
#PI Fenical-Jensen-Moore
#Data_Collector Max
#Scan -1
#Precursor_MZ 610.416
#ExactMass 609.408
#Charge 1
#CAS_Number N/A
#Pubmed_ID N/A
#Smiles N/A
#INCHI_AUX N/A
#Library_Class 1
#SpectrumID CCMSLIB00000001606
#IonMode Positive
#UpdateWorkflowName UPDATE-SINGLE-ANNOTATED-GOLD
#LibraryQualityString Gold
#TaskID d14a5843653040ba9fa2c4376f2be358
##Scan# 1
#SpectrumFile C5.mgf
#LibraryName gnps_library.mgf
#MQScore -1
#Organism gnps_library
#TIC_Query 0
#RT_Query -1
#MZErrorPPM -1
#SharedPeaks 0
#MassDiff 0
#LibMZ -1
#SpecMZ 610.416
#SpecCharge 0
#internalFilename spec-00000.mgf

>collision 10
112.111282 267.581604
115.085953 331.653015
116.070061 807.451172
117.100952 402.945801
126.090401 4181.025879
127.092888 290.693909
129.064743 271.028687
129.101212 628.985779
131.116272 195.874207
140.105362 250.625702
140.14183 498.928589
141.140228 181.399902
143.080368 402.082611
143.114075 251.500504
144.100174 1267.588013
155.080078 266.029907
157.095932 429.845398
157.13237 5554.370117
158.126251 686.427917
161.090881 14626.120117
161.209213 310.568512
162.09346 1205.732056
163.146698 253.637497
169.13147 242.999405
169.16806 209.964493
171.110977 1076.953979
181.15744 2254.167969
182.17305 231.872498
183.111298 185.996902
183.14827 600.100708
185.128754 27621.199219
186.131775 2868.016113
187.133636 284.742615
189.12207 2166.439941
190.12439 242.569305
197.12738 703.021973
197.161301 435.974915
198.183563 2146.436035
199.185303 333.968506
203.13768 2947.324951
204.14122 335.997314
210.183823 4813.166992
211.142868 1564.249023
211.179245 1533.706055
212.146973 224.444702
212.17897 169.459793
213.158386 13096.620117
213.294388 239.564407
214.161697 1661.255981
215.138306 818.124084
216.192673 289.594391
225.158554 1074.036987
226.159958 162.717194
228.133438 343.543396
228.191986 212.979095
229.15329 2333.718018
230.159531 293.466187
231.168869 400.628906
238.178894 18232.890625
238.321747 352.92569
239.178986 4581.361816
240.18103 564.580383
242.148743 671.813171
252.191559 260.14621
255.205856 2633.947998
256.188568 20056.310547
257.191315 3395.908936
258.194366 299.485992
260.15863 1430.324951
261.161499 309.312195
267.169495 561.062073
268.166229 285.389496
270.179352 1057.365967
271.179382 407.421814
273.215607 183.5383
274.174927 21576.310547
275.178284 3612.563965
276.179962 460.362793
281.220886 636.460022
284.195831 9005.421875
285.198425 1518.100952
286.197205 201.110199
287.231873 1532.472046
288.2341 292.078003
296.164825 3584.707031
297.167969 721.473328
299.170502 658.903381
302.205841 1257.359985
303.209229 221.535004
309.252228 20311.740234
310.252899 4228.399902
311.246521 472.683197
313.205078 349.079712
323.267334 433.227997
327.230713 3540.064941
328.225677 2378.469971
329.227234 441.275391
337.247375 154432.59375
338.250977 36743.898438
339.253601 4736.237793
340.255524 341.842712
341.21759 1213.900024
342.219788 318.904694
344.253357 4051.74707
345.256531 922.434326
346.258575 169.177399
351.26297 4125.12207
352.266541 993.809387
353.245667 754.200623
354.271912 747.254578
355.257935 44109.871094
356.261169 10323.549805
356.435364 160.561996
357.263855 1332.998047
358.267975 492.775604
367.199768 2695.091064
368.20343 696.399719
369.272919 1674.620972
370.272919 691.913025
373.243042 6488.366211
374.245911 1536.578003
375.248413 210.317596
380.258179 277.857086
384.259125 737.282104
385.25473 331.040405
398.279694 7328.115234
399.281799 1936.496948
400.282562 310.581909
404.325653 182.805298
408.284424 5965.666016
409.287048 1649.362061
410.295319 507.735504
412.254639 1157.729004
413.256378 346.83609
422.332153 8192.19043
423.336182 2847.824951
424.323303 807.169373
425.320374 211.245804
426.295258 10260.509766
426.483978 156.366501
427.298523 3164.687012
428.300903 545.786682
432.322418 189.986801
438.331787 345.33139
440.313721 4462.950195
441.316925 1335.36499
442.317841 256.761993
450.331787 99718.296875
451.335205 34182.269531
452.330536 7330.403809
453.325684 1278.44104
454.320496 188.1371
456.244659 208.874207
466.326843 5571.121094
467.332245 1860.71106
468.342163 41284.988281
469.343567 18623.849609
470.345154 3784.458008
471.346039 560.244019
479.322357 921.012329
480.324005 338.523987
483.353119 957.824829
484.354767 314.648987
493.352814 649.702576
494.358185 551.429626
495.357544 166.341797
497.332092 13423.040039
497.53418 196.962006
498.334808 4810.21582
499.338867 990.825623
503.3591 390.401093
504.359375 178.068604
507.316559 179.591202
511.359039 8166.646973
512.362183 3074.541992
513.364014 556.697388
521.368835 39186.261719
522.371948 15751.099609
523.375305 3139.413086
524.379822 451.509888
537.399292 1909.95105
538.401917 769.264404
539.379517 59821.890625
540.382446 23704.679688
541.385254 4589.23877
542.388367 563.117493
564.411438 423.417114
565.39502 11245.589844
565.609619 162.439407
566.398987 4644.331055
567.402527 971.796997
582.421326 28064.599609
583.424622 12145.910156
583.645203 166.288605
584.426819 2558.581055
585.42926 328.241486
592.405457 6952.876953
593.409119 3109.065918
594.411499 702.062073
610.416504 70364.421875
611.4198 31912.150391
612.421936 7091.744141
613.424561 999.781799
