>compound Racecadotril
>formula C21H23NO4S 
>ionization [M+H]+
>parentmass 386.143
#inchi InChI=1S/C21H23NO4S/c1-16(23)27-15-19(12-17-8-4-2-5-9-17)21(25)22-13-20(24)26-14-18-10-6-3-7-11-18/h2-11,19H,12-15H2,1H3,(H,22,25)
#inchikey ODUOJXZPIYUATO
#Ion_Source LC-ESI
#Instrument qTof
#Compound_Source Isolated
#PI Sirenas
#Data_Collector Ed Esquenazi 
#Scan -1
#Precursor_MZ 386.143
#ExactMass 0.0
#Charge 1
#CAS_Number N/A
#Pubmed_ID N/A
#Smiles N/A
#INCHI_AUX N/A
#Library_Class 3
#SpectrumID CCMSLIB00000005133
#IonMode Positive
#UpdateWorkflowName UPDATE-SINGLE-ANNOTATED-BRONZE
#LibraryQualityString Bronze
#TaskID d19310cd93df49b68e9fcbec27720eb5
##Scan# 6
#SpectrumFile Racecadotril.mgf
#LibraryName fda_library.mgf
#MQScore -1
#Organism fda_library
#TIC_Query 0
#RT_Query -1
#MZErrorPPM -1
#SharedPeaks 0
#MassDiff 0
#LibMZ -1
#SpecMZ 386.143
#SpecCharge 0
#internalFilename spec-00000.mgf

>collision 10
100.154778 1.0
105.067276 69.854248
105.609634 1.032143
107.049469 11.47217
109.916389 1.85
114.433289 3.1
114.624908 11.09605
115.053841 791.553894
115.113312 2.808333
115.197281 1.289286
115.393646 11.50471
115.446503 5.648077
116.442154 7.688
116.487137 5.600926
116.502159 5.04939
116.541588 3.15
116.817787 4.837121
116.931114 2.625
117.069733 2708.47998
117.113937 15.80879
117.131981 5.244697
117.183502 10.61667
117.20163 9.201923
117.26506 27.000031
117.272469 5.911207
117.28727 10.10323
117.325958 12.40036
117.338585 1.003571
117.356094 4.401
117.367958 2.894231
117.38179 5.969
117.413147 2.535
117.42067 6.800641
117.465897 2.656818
117.484673 4.696429
117.506393 2.625
117.573715 10.44545
117.920959 15.0349
118.830414 2.817308
118.864632 7.2
127.05542 42.57925
127.143394 2.85625
127.371086 3.407258
128.060715 170.4272
128.110291 2.0
128.126038 3.0
128.542252 8.061835
128.610916 12.89653
128.650314 2.801
128.741074 3.472727
129.06987 947.440979
129.128998 1.408333
129.195419 7.526755
129.223099 1.0
129.254745 2.645
129.294296 7.051271
129.389252 4.600714
129.956299 14.02253
130.24939 8.200472
131.047531 40.627361
133.517395 3.414286
136.244583 11.16746
136.362366 3.223148
136.781113 3.427174
136.975189 311.814789
137.013138 3.204545
137.042755 322.730804
137.074417 10.75556
137.086014 2.609783
137.165222 2.384091
137.302399 7.681666
139.056839 8.640455
139.266586 4.617308
143.049591 68.602463
143.385147 7.482843
144.198608 4.403333
144.252686 4.036765
144.319794 6.222273
144.349045 4.0375
144.378647 10.21885
144.428467 2.45
144.449371 4.405488
144.496902 14.78421
144.526443 18.37352
144.562073 6.849359
145.064896 4640.819824
145.115738 31.779831
145.133347 17.839319
145.144836 7.889286
145.152664 2.604167
145.194244 18.954821
145.219513 17.631519
145.247803 5.35625
145.276611 16.24754
145.30304 27.487181
145.328522 5.013333
145.349731 2.6
145.361237 14.07692
145.379288 6.668902
145.43187 12.25
145.454224 7.72803
145.489868 22.76
145.501907 3.111364
145.52446 13.40238
145.651871 9.664063
145.739151 11.63457
145.853714 8.842105
146.336853 6.025
146.37912 2.645
147.082413 20.686489
147.215118 6.0
147.631866 3.434615
151.059998 13.11429
151.707581 1.0
153.267181 1.889286
153.833252 5.811792
155.082962 2.719118
156.085159 4.000758
156.246597 11.79468
156.315613 4.809783
156.33432 6.892568
156.430954 1.289286
156.690109 4.113636
156.71283 17.0
157.065079 1959.130005
157.118439 6.917619
157.143097 6.041327
157.186722 2.809783
157.273956 5.603333
157.28688 18.43119
157.299728 8.639517
157.331955 3.601316
157.369965 4.600758
157.429871 6.266667
157.522736 4.433108
157.638474 3.5
158.510422 15.15978
159.250015 10.43316
159.341446 6.245
159.961456 3.184091
161.039307 39.656181
163.021286 26.30761
163.055573 172.5056
163.970932 5.0
165.077545 6.681756
166.071884 44.031891
166.090607 37.132549
167.081772 45.000111
173.038101 4.209
177.036377 40.161419
178.078674 174.330902
178.373352 2.401316
179.051743 288.86441
179.085159 366.618988
179.373703 4.435
179.569519 4.528571
179.65921 1.489286
180.507706 5.421552
180.685364 7.036818
181.101425 87.775398
181.198669 5.690909
183.209976 3.0
183.450195 7.486224
190.019562 2.81
190.110138 4.281667
190.37648 2.184091
190.59581 7.510345
191.052017 19.077271
191.084473 260.164001
191.118225 10.61607
191.187012 1.801923
191.39183 5.330882
191.408356 2.827174
192.093216 73.852386
192.137772 1.066667
193.068741 48.167999
193.09906 336.564789
193.318665 2.225
193.343262 4.0125
193.354126 6.05
193.817596 6.710294
194.676331 4.836764
195.078781 46.431999
195.11882 25.522499
202.073196 72.716423
203.080887 53.393051
205.102066 18.417721
205.9702 4.304167
206.130905 3.0
206.237579 5.355556
206.679626 2.401667
207.081635 47.891232
207.116302 776.90863
207.148666 12.4564
207.179733 4.438571
207.193573 4.649
207.239212 2.311364
207.30014 1.25
207.373825 10.55625
207.385437 1.402778
207.420502 8.058603
207.451599 2.578572
207.69841 10.43316
207.896423 4.407143
208.167709 3.208333
215.080582 30.879181
216.090637 18.3025
217.101257 253.413895
217.16655 2.95625
217.382645 1.8
220.090469 46.401619
223.111282 75.31926
229.113739 10.6579
230.96553 8.601999
233.848984 10.1837
234.154007 8.890741
234.397583 9.425
235.076828 8.843919
235.112106 1370.70105
235.174988 5.816092
235.294586 8.876562
235.315933 5.800532
235.369308 4.72803
235.387558 18.157801
235.606873 1.575
235.652252 5.006081
235.689636 7.155769
235.782776 6.228448
235.914108 2.233333
236.062729 3.04
236.341675 3.421552
236.357727 4.634615
236.892868 5.852083
642.032349 5.291129
816.00885 10.74405
982.044678 3.214286
1000.967957 9.306373
1011.903992 5.120714
1205.502075 4.563334
1331.244263 3.807143
1664.200684 2.8125
