>compound MLS001141241-01!3-(4-chlorophenyl)-2-[[2-(4-ethyl-7-methyl-2-oxochromen-5-yl)oxyacetyl]amino]propanoic acid
>formula C23H22ClNO6
>ionization [M+H]+
>parentmass 444.119049
#inchi InChI=1S/C23H22ClNO6/c1-3-15-11-21(27)31-19-9-13(2)8-18(22(15)19)30-12-20(26)25-17(23(28)29)10-14-4-6-16(24)7-5-14/h4-9,11,17H,3,10,12H2,1-2H3,(H,25,26)(H,28,29)
#inchikey OJUPJYPBBXUCNE
#Ion_Source LC-ESI
#Instrument qTof
#Compound_Source NIH Natural Product Library
#PI Dorrestein
#Data_Collector VVP/LMS
#Scan -1
#Precursor_MZ 444.121
#ExactMass 443.114
#Charge 1
#CAS_Number N/A
#Pubmed_ID N/A
#Smiles CCc1cc(=O)oc2cc(C)cc(OCC(=O)NC(Cc3ccc(Cl)cc3)C(=O)O)c12
#INCHI_AUX N/A
#Library_Class 1
#SpectrumID CCMSLIB00000079546
#IonMode Positive
#UpdateWorkflowName UPDATE-SINGLE-ANNOTATED-GOLD
#LibraryQualityString Gold
#TaskID b1d8e8f6646f4e71acdff9ca3d919d08
##Scan# 2279
#SpectrumFile p1-A08_GA8_01_17873.mzXML
#LibraryName NIH_Natural_Products_Library.mgf
#MQScore -1
#Organism NIH_Natural_Products_Library
#TIC_Query 0
#RT_Query -1
#MZErrorPPM -1
#SharedPeaks 0
#MassDiff 0
#LibMZ -1
#SpecMZ 444.121
#SpecCharge 0
#internalFilename spec-00000.mgf

>collision 10
95.043526 200.0
95.216278 36.0
95.461113 32.0
95.552521 132.0
96.14872 160.0
96.226791 156.0
96.336143 164.0
96.49247 148.0
96.715454 176.0
96.789841 104.0
97.195549 108.0
97.350601 200.0
97.543129 172.0
97.582443 84.0
97.87558 156.0
97.948433 172.0
98.016861 180.0
98.24015 156.0
98.293411 76.0
98.546127 180.0
98.597496 120.0
98.61528 72.0
98.629112 148.0
99.028061 160.0
99.08223 196.0
99.187248 160.0
99.496674 164.0
99.512558 220.0
99.59198 220.0
99.812553 208.0
100.547554 152.0
100.873085 152.0
101.075058 172.0
101.601944 140.0
101.666145 104.0
101.796494 132.0
101.923149 164.0
101.967354 52.0
102.044701 300.0
102.060318 192.0
102.077911 124.0
102.341476 76.0
102.415985 188.0
102.563057 148.0
102.684013 112.0
102.839355 124.0
103.053368 1604.0
103.083694 268.0
103.251465 80.0
103.314163 120.0
103.33844 132.0
103.555016 140.0
103.751549 64.0
103.887405 200.0
104.058022 304.0
104.094406 148.0
104.122833 80.0
104.145172 176.0
104.230492 208.0
104.334137 64.0
104.384956 32.0
104.447998 200.0
104.55175 180.0
104.897263 256.0
105.068947 1696.0
105.389755 132.0
105.471497 260.0
105.684158 144.0
105.749634 204.0
105.872459 148.0
106.040436 144.0
106.077324 172.0
106.097824 176.0
106.362419 152.0
106.802094 120.0
106.8638 160.0
107.032562 152.0
107.051971 168.0
107.121109 216.0
107.694481 104.0
107.884567 168.0
107.96933 132.0
107.999687 100.0
108.060776 208.0
108.089302 200.0
108.265236 160.0
108.370865 128.0
108.536667 160.0
108.638283 64.0
108.656952 152.0
108.833351 264.0
108.993271 148.0
109.029053 164.0
109.068077 224.0
109.186577 32.0
109.203217 108.0
109.336868 224.0
109.534668 184.0
109.582039 136.0
109.658653 88.0
109.792549 160.0
109.920364 156.0
110.120171 140.0
110.176567 160.0
110.425285 188.0
110.548706 144.0
110.607147 224.0
110.680565 156.0
111.028389 264.0
111.059616 148.0
111.11438 148.0
111.721458 44.0
112.029343 240.0
112.216324 116.0
112.359726 156.0
112.397697 120.0
112.49688 172.0
112.574997 148.0
112.974426 40.0
113.021049 392.0
113.103493 96.0
113.154289 128.0
113.209335 168.0
113.711731 180.0
113.749931 192.0
113.853958 196.0
113.960152 188.0
113.983528 220.0
114.009026 156.0
114.28756 168.0
114.45356 100.0
114.476982 172.0
114.494019 148.0
114.515312 144.0
114.545128 112.0
114.638863 200.0
115.014763 192.0
115.052788 776.0
115.082108 44.0
115.133736 204.0
115.518425 100.0
115.59758 160.0
116.01519 268.0
116.06028 184.0
116.519463 120.0
116.733414 236.0
116.792442 120.0
116.884941 28.0
116.966713 136.0
117.03775 144.0
117.068787 716.0
117.091583 56.0
117.123886 100.0
117.395416 88.0
117.470894 232.0
117.50972 164.0
117.593307 168.0
117.626244 220.0
117.673737 176.0
117.948059 36.0
117.975952 212.0
118.03669 236.0
118.066139 1280.0
118.265984 152.0
118.469513 192.0
118.544731 216.0
118.623352 164.0
118.742592 256.0
118.805489 156.0
119.042046 220.0
119.07354 1056.0
119.122002 88.0
119.378838 140.0
119.435379 128.0
119.735703 160.0
119.801041 124.0
120.042946 232.0
120.06086 232.0
120.09037 144.0
120.156349 120.0
120.361496 72.0
120.465294 128.0
120.555885 164.0
120.986732 124.0
121.066383 792.0
121.104553 164.0
121.135628 72.0
121.545563 116.0
121.914436 140.0
121.940811 104.0
121.962784 240.0
122.015533 120.0
122.068161 168.0
122.147469 196.0
122.237663 100.0
122.336693 56.0
122.742043 120.0
122.987801 204.0
123.043282 264.0
123.159103 108.0
123.534836 176.0
123.643242 148.0
123.731773 184.0
124.050751 156.0
124.601051 60.0
124.661041 156.0
124.871948 200.0
125.015053 1776.0
125.050186 68.0
125.090248 48.0
125.172615 80.0
125.246101 132.0
125.700859 140.0
125.778961 196.0
125.828064 172.0
126.019051 292.0
126.277168 148.0
126.308479 48.0
126.342026 100.0
127.01123 504.0
127.056602 36.0
127.096985 80.0
127.123909 148.0
127.281029 100.0
127.647255 124.0
127.669739 160.0
127.702553 236.0
127.766449 160.0
127.968979 180.0
128.061295 1344.0
128.196457 116.0
128.215729 160.0
128.633957 112.0
128.681366 196.0
128.740662 228.0
128.796524 180.0
128.84848 44.0
128.975006 120.0
129.069412 944.0
129.169449 204.0
129.287094 212.0
129.34819 156.0
129.484024 64.0
129.656189 128.0
129.767258 188.0
129.828461 136.0
129.898773 144.0
129.979324 204.0
130.065735 3464.0
130.175629 48.0
130.23468 184.0
130.322693 188.0
130.402786 240.0
130.495987 100.0
130.882736 128.0
130.919174 128.0
131.016479 140.0
131.0466 164.0
131.073029 4688.0
131.141556 128.0
131.172043 104.0
131.199402 36.0
131.229034 104.0
131.263229 68.0
131.327087 148.0
131.354065 140.0
131.447983 52.0
131.856705 52.0
131.900131 96.0
131.991196 72.0
132.056793 428.0
132.078125 336.0
132.192856 96.0
132.263794 36.0
132.375961 136.0
132.442368 72.0
132.483597 60.0
132.511093 196.0
132.531708 52.0
132.733398 208.0
132.793945 192.0
132.900818 88.0
133.022446 92.0
133.06427 392.0
133.100372 1256.0
133.213013 44.0
133.307205 152.0
133.668198 140.0
133.684296 148.0
133.707306 144.0
133.838501 232.0
134.034271 280.0
134.064224 144.0
134.107101 220.0
134.380096 276.0
134.659378 164.0
134.869614 96.0
134.929718 108.0
135.045807 148.0
135.082397 344.0
135.110077 176.0
135.140152 180.0
135.239655 112.0
135.54068 184.0
135.62178 136.0
135.689011 156.0
135.712189 176.0
135.800293 172.0
136.006775 148.0
136.143738 156.0
136.310974 116.0
136.65274 108.0
137.015015 856.0
137.059555 612.0
137.091492 252.0
137.701614 60.0
138.016037 236.0
138.182816 128.0
138.494415 164.0
138.646698 172.0
138.946793 156.0
139.009415 320.0
139.03067 1864.0
139.115753 44.0
139.167389 80.0
139.430466 136.0
139.482162 176.0
139.559738 76.0
139.651443 148.0
140.034393 652.0
140.072723 32.0
140.112762 164.0
140.143387 152.0
140.369644 56.0
140.577209 152.0
140.64093 148.0
140.794373 164.0
141.012878 356.0
141.030487 640.0
141.068176 556.0
141.103882 40.0
141.179535 160.0
141.196091 60.0
141.584167 128.0
141.669434 80.0
141.794998 180.0
141.908768 152.0
142.005997 188.0
142.028351 260.0
142.071518 600.0
142.174423 220.0
142.304962 140.0
142.880051 48.0
142.951416 88.0
143.006912 340.0
143.054077 200.0
143.08551 844.0
143.118027 40.0
143.299026 68.0
143.334763 132.0
143.46106 216.0
143.549271 180.0
143.728149 220.0
143.828369 180.0
143.847473 144.0
143.899979 192.0
144.056473 1008.0
144.089157 300.0
144.258301 104.0
144.337189 236.0
144.370667 40.0
144.432831 76.0
144.808578 104.0
145.036179 164.0
145.063431 1052.0
145.104507 188.0
145.259155 172.0
145.744049 144.0
145.943527 120.0
146.032501 248.0
146.073303 996.0
146.15036 172.0
146.29715 64.0
146.333267 164.0
146.395859 144.0
146.675308 188.0
146.766907 156.0
146.832016 160.0
147.043961 748.0
147.080887 832.0
147.20845 80.0
147.321945 60.0
147.350937 140.0
147.626465 152.0
147.845032 144.0
147.948227 84.0
148.051605 1332.0
148.082886 136.0
148.277618 64.0
148.311539 48.0
148.335785 172.0
148.454575 192.0
148.743256 180.0
148.762665 84.0
148.798767 132.0
149.012787 188.0
149.056534 468.0
149.095123 1056.0
149.367676 120.0
149.421188 132.0
149.651566 128.0
149.852081 196.0
150.068542 136.0
150.103104 188.0
150.283585 172.0
150.347015 132.0
150.45697 172.0
150.58493 140.0
150.94545 176.0
150.967468 136.0
151.027695 800.0
151.072861 168.0
151.31488 144.0
151.356491 84.0
151.503433 184.0
151.635742 132.0
151.689651 48.0
151.755844 172.0
151.896698 236.0
151.927505 116.0
152.003113 184.0
152.03009 308.0
152.057571 144.0
152.774948 68.0
152.873352 96.0
152.925034 140.0
152.947174 188.0
153.033981 460.0
153.171234 124.0
153.208176 188.0
153.22789 44.0
153.262375 104.0
153.50885 224.0
153.661758 184.0
153.95546 128.0
154.040939 6580.0
154.093765 88.0
154.148117 80.0
154.296402 128.0
154.528854 80.0
154.615463 112.0
154.732422 220.0
154.773865 148.0
155.043137 820.0
155.085983 148.0
155.135559 228.0
155.254547 80.0
155.311584 156.0
155.4133 52.0
155.450516 204.0
155.596939 60.0
155.641617 48.0
155.93721 148.0
156.009293 188.0
156.039581 1884.0
156.080505 208.0
156.108734 88.0
156.175873 68.0
156.322647 56.0
156.347519 108.0
156.643784 100.0
156.698578 164.0
156.733459 76.0
156.97522 40.0
157.039841 308.0
157.063522 248.0
157.308487 156.0
157.721634 92.0
157.981659 176.0
158.043427 116.0
158.071609 1540.0
158.11676 208.0
158.362091 184.0
158.413803 136.0
158.549973 168.0
158.604492 160.0
158.650223 224.0
158.948654 156.0
159.039001 120.0
159.079697 1500.0
159.202164 84.0
159.22226 148.0
159.400604 100.0
159.453369 64.0
159.677094 92.0
159.805374 88.0
159.923645 140.0
160.050354 252.0
160.085098 328.0
160.147705 40.0
160.296326 64.0
160.830933 96.0
160.936951 60.0
161.008591 160.0
161.058746 2632.0
161.096893 2612.0
161.174347 56.0
161.310806 32.0
161.510544 96.0
161.549957 228.0
161.648285 108.0
161.674179 228.0
161.786346 140.0
161.958511 148.0
162.029434 164.0
162.065018 384.0
162.095886 632.0
162.544083 52.0
162.622742 148.0
162.978241 172.0
163.038834 244.0
163.07193 540.0
163.100204 192.0
163.24765 132.0
163.374817 132.0
163.439545 152.0
163.685287 180.0
163.733673 56.0
163.843185 180.0
163.965485 72.0
164.025482 1268.0
164.077621 132.0
164.304581 204.0
164.370911 180.0
164.424484 100.0
164.781937 68.0
164.973602 164.0
165.009903 296.0
165.053528 284.0
165.124435 208.0
165.185822 72.0
165.213959 40.0
165.382828 60.0
165.613235 156.0
165.907898 256.0
165.943787 64.0
165.987366 180.0
166.041183 11156.0
166.079681 48.0
166.138672 112.0
166.177155 76.0
166.215637 188.0
166.338806 128.0
166.397842 76.0
166.423523 72.0
166.513397 52.0
166.556442 188.0
166.718887 48.0
166.798553 144.0
167.003372 260.0
167.04361 1388.0
167.168869 120.0
167.500961 100.0
167.663269 100.0
167.895264 96.0
167.939102 88.0
167.998428 176.0
168.038528 3152.0
168.086136 52.0
168.145493 92.0
168.243561 56.0
168.310684 148.0
168.375229 104.0
168.488876 40.0
168.52504 100.0
168.587051 156.0
169.039124 220.0
169.073502 144.0
169.16217 176.0
169.212952 72.0
169.275085 44.0
169.614441 184.0
169.798508 212.0
170.250031 40.0
170.424042 76.0
170.517593 164.0
170.907608 248.0
171.048126 200.0
171.079514 412.0
171.425735 200.0
171.446579 168.0
171.565033 152.0
171.777679 152.0
171.910721 96.0
172.052307 192.0
172.091736 204.0
172.203094 204.0
172.297119 148.0
172.430359 136.0
173.057632 220.0
173.096527 920.0
173.367172 60.0
173.536621 232.0
173.650284 176.0
173.731583 76.0
174.007126 152.0
174.066818 8088.0
174.369583 144.0
174.41951 100.0
174.443176 120.0
174.582504 68.0
174.64299 44.0
174.719269 124.0
174.819244 92.0
175.073853 1708.0
175.226013 40.0
175.374878 140.0
175.467133 104.0
175.530411 40.0
175.844299 32.0
175.944595 92.0
176.003586 256.0
176.04628 1292.0
176.080719 1292.0
176.324921 180.0
176.443863 116.0
176.523178 124.0
176.607788 184.0
176.644821 88.0
176.734756 72.0
176.770111 100.0
176.840607 140.0
176.891769 144.0
177.002075 168.0
177.054489 11568.0
177.090729 772.0
177.143341 140.0
177.184814 40.0
177.296082 44.0
177.329529 156.0
177.457764 68.0
177.728271 68.0
178.017578 176.0
178.057129 1932.0
178.098679 184.0
178.184891 64.0
178.224747 52.0
179.001373 148.0
179.062195 156.0
179.091904 100.0
179.297028 68.0
179.526276 60.0
180.011902 200.0
180.067978 128.0
180.369873 40.0
180.447388 48.0
180.575729 48.0
180.720169 108.0
181.006165 496.0
181.108292 128.0
181.132401 120.0
181.167221 172.0
181.290451 88.0
181.330643 36.0
181.456619 168.0
181.89653 120.0
182.012405 752.0
182.358475 44.0
182.818314 212.0
182.909805 160.0
182.993347 124.0
183.017548 224.0
183.130585 164.0
183.451202 108.0
183.691177 116.0
184.006638 564.0
184.052185 868.0
184.233719 124.0
184.414734 64.0
184.612076 32.0
184.869034 188.0
185.023773 208.0
185.060623 384.0
186.048706 364.0
186.297775 64.0
186.56134 72.0
186.607559 140.0
186.634735 276.0
186.699997 100.0
187.015564 116.0
187.047668 240.0
187.074844 6524.0
187.138046 188.0
187.350449 72.0
187.571167 80.0
187.722153 108.0
188.043777 184.0
188.077835 688.0
188.34874 80.0
188.616501 104.0
188.75592 92.0
188.865295 128.0
188.906326 100.0
189.018478 184.0
189.051544 2248.0
189.090805 10312.0
189.140656 124.0
189.160782 44.0
189.182678 100.0
189.335312 64.0
189.395157 100.0
189.415421 112.0
189.483902 108.0
189.529297 56.0
189.548279 80.0
189.571564 48.0
189.738754 84.0
189.801804 56.0
189.842926 48.0
189.873093 140.0
189.988281 72.0
190.010223 40.0
190.058411 496.0
190.09465 1412.0
190.128204 96.0
190.18309 68.0
190.227005 68.0
190.296585 92.0
190.383484 72.0
190.795593 48.0
191.001816 224.0
191.062332 332.0
191.104752 192.0
191.15596 136.0
191.384308 64.0
191.414597 88.0
191.466919 132.0
191.588104 76.0
191.742386 232.0
191.84436 68.0
191.885712 192.0
191.971176 152.0
192.018051 116.0
192.07045 176.0
192.128372 80.0
192.744003 200.0
193.04805 84.0
193.122711 176.0
193.355087 64.0
193.548843 128.0
193.576523 188.0
193.753769 68.0
193.920013 148.0
193.978226 68.0
194.039444 136.0
194.280457 84.0
194.643997 216.0
195.043304 756.0
195.667084 64.0
196.040283 216.0
197.044708 256.0
197.318527 148.0
199.024643 52.0
199.047104 104.0
199.076843 472.0
199.488159 136.0
199.980423 168.0
200.047897 132.0
200.075882 136.0
200.191483 216.0
200.563324 60.0
200.676071 192.0
200.763474 100.0
201.054825 1772.0
201.248779 108.0
201.282654 120.0
201.370193 64.0
201.517059 60.0
201.649872 108.0
201.80249 120.0
201.84491 144.0
201.949524 164.0
202.061905 10084.0
202.130569 168.0
202.161697 100.0
202.232437 60.0
202.286209 68.0
202.343231 84.0
202.360794 92.0
202.407944 32.0
202.439087 148.0
202.475891 72.0
202.504211 64.0
202.611176 84.0
202.643005 116.0
202.932068 176.0
202.963257 176.0
203.031311 76.0
203.068649 4524.0
203.387756 132.0
203.411453 56.0
203.863007 80.0
204.022156 144.0
204.076675 5480.0
204.115967 64.0
204.163773 192.0
204.5784 80.0
204.662231 128.0
204.821701 152.0
204.872513 208.0
204.915619 148.0
204.947449 164.0
205.08577 10900.0
205.135117 76.0
205.160767 40.0
205.186417 52.0
205.263397 64.0
205.297607 148.0
205.334686 76.0
205.445908 104.0
205.51152 48.0
205.711273 116.0
205.778519 136.0
205.886902 124.0
205.956818 112.0
206.088608 1768.0
206.151077 76.0
206.24823 56.0
206.299683 68.0
206.331131 48.0
206.388306 84.0
206.4655 56.0
206.757278 76.0
207.092209 444.0
207.14949 48.0
207.301331 156.0
207.427429 100.0
207.602295 64.0
207.679718 104.0
207.705536 100.0
207.745697 64.0
207.768631 48.0
208.083282 116.0
208.352295 208.0
208.710587 72.0
208.877365 64.0
208.955032 92.0
209.124802 108.0
209.383881 124.0
210.104431 168.0
212.045364 748.0
212.134308 32.0
212.293762 188.0
213.051224 136.0
213.280777 136.0
214.043488 276.0
214.328339 112.0
215.056488 168.0
215.109863 32.0
216.097534 172.0
216.153122 180.0
216.281876 108.0
216.36969 168.0
216.407745 72.0
216.609802 140.0
216.67131 144.0
216.694748 132.0
216.729904 172.0
216.779709 88.0
216.876419 172.0
217.005386 156.0
217.08522 22264.0
217.155197 216.0
217.298645 48.0
217.322113 56.0
217.365387 128.0
217.571564 76.0
217.642273 88.0
217.912201 64.0
218.000336 56.0
218.050293 136.0
218.088242 3712.0
218.153168 84.0
218.256058 104.0
218.347198 80.0
218.523682 48.0
218.71199 48.0
219.093201 380.0
219.180206 48.0
219.277435 108.0
219.40712 56.0
219.578125 96.0
219.59877 48.0
219.699051 108.0
219.884918 44.0
219.985275 84.0
220.096756 120.0
220.540527 100.0
220.661728 124.0
221.235596 80.0
221.496155 88.0
221.774658 96.0
223.092468 124.0
223.485001 40.0
227.051346 176.0
228.078049 188.0
229.073959 88.0
230.052185 112.0
231.084351 172.0
234.000732 200.0
234.040314 56.0
234.165146 84.0
235.097946 192.0
235.128464 68.0
235.561981 76.0
236.880264 84.0
236.9599 44.0
238.841507 132.0
240.030167 108.0
240.502121 124.0
241.852707 72.0
241.874374 64.0
242.100357 132.0
242.180878 148.0
243.955597 40.0
244.089279 52.0
244.988647 160.0
245.019806 80.0
245.07988 8528.0
245.131958 196.0
245.247253 76.0
245.306473 68.0
245.393753 52.0
245.431168 72.0
245.93338 60.0
246.082779 1176.0
247.089706 144.0
247.195847 52.0
247.884674 64.0
248.169891 116.0
249.076752 84.0
250.410217 44.0
250.529892 68.0
251.418961 52.0
253.10051 160.0
253.841904 144.0
255.08316 160.0
256.101257 212.0
258.089203 132.0
259.116516 168.0
260.094482 160.0
260.897461 140.0
261.914215 140.0
262.113953 180.0
263.088623 248.0
263.294495 52.0
263.494751 64.0
264.100861 164.0
264.200714 72.0
265.099457 156.0
265.712219 60.0
267.089447 176.0
271.062256 92.0
271.754028 128.0
274.058624 160.0
280.897369 148.0
283.086731 148.0
284.152069 180.0
291.074097 196.0
292.852509 60.0
296.319427 120.0
297.959167 176.0
299.992828 160.0
303.016418 148.0
311.03299 60.0
311.285736 76.0
311.415649 72.0
312.079773 152.0
312.927612 44.0
313.114227 108.0
316.245544 56.0
318.798767 40.0
318.980011 120.0
319.102753 212.0
322.554932 72.0
323.220062 108.0
325.11911 180.0
327.498901 84.0
327.610565 76.0
328.122253 172.0
330.089844 148.0
331.251495 92.0
332.095978 128.0
332.183014 76.0
332.418823 104.0
335.069183 48.0
337.08667 108.0
338.289856 116.0
341.082733 388.0
342.07782 64.0
345.664825 72.0
350.09671 144.0
352.117828 196.0
354.313324 84.0
355.098572 112.0
355.700684 160.0
360.279327 192.0
361.107056 160.0
365.355011 108.0
368.030212 188.0
370.118408 300.0
372.124908 144.0
372.814087 172.0
374.083191 160.0
377.168793 168.0
380.131256 68.0
381.097992 164.0
394.294952 152.0
397.261536 116.0
397.339081 120.0
398.111908 996.0
398.200928 104.0
398.566345 52.0
398.88028 32.0
399.122864 200.0
400.110565 644.0
401.113403 180.0
403.452179 36.0
410.969818 108.0
412.96521 112.0
413.871613 100.0
414.65741 128.0
417.124939 316.0
418.129486 76.0
420.227814 188.0
421.129883 64.0
427.442627 64.0
428.113556 144.0
431.442963 116.0
434.967865 140.0
439.15744 120.0
442.295013 84.0
444.119049 1732.0
444.172028 160.0
445.053253 128.0
445.119476 848.0
445.418579 176.0
445.712616 48.0
445.754639 72.0
446.119415 576.0
446.306702 148.0
447.115448 96.0
447.247467 164.0
447.533722 128.0
453.146301 68.0
455.139587 156.0
459.740692 100.0
463.490509 68.0
464.120514 136.0
468.964935 84.0
471.234528 76.0
472.003815 112.0
472.263275 64.0
478.729156 88.0
481.118286 84.0
485.269714 132.0
489.443359 156.0
499.386292 148.0
499.546417 64.0
511.267975 84.0
538.050781 236.0
552.718079 80.0
554.314697 20.0
558.57251 64.0
574.473328 108.0
590.133179 140.0
597.056946 56.0
609.904541 36.0
617.04187 108.0
618.377319 116.0
669.998291 72.0
672.787964 104.0
680.864624 100.0
681.44635 160.0
723.506348 76.0
726.158447 92.0
727.633972 96.0
765.162354 32.0
816.053955 124.0
828.88385 104.0
842.974792 124.0
848.971436 136.0
855.187195 192.0
873.599915 168.0
880.37738 124.0
913.249512 96.0
928.394958 48.0
929.802307 184.0
931.277466 140.0
936.264038 136.0
939.20752 196.0
943.15155 104.0
971.36322 128.0
980.545776 160.0
982.740601 100.0
989.252014 204.0
993.744995 104.0
998.996521 120.0
999.60675 136.0
1002.018066 44.0
1027.323608 164.0
1064.120117 84.0
1070.556641 32.0
1074.473633 164.0
1081.608887 160.0
1094.672485 44.0
1099.246826 92.0
1100.896973 172.0
1104.882202 196.0
1106.94043 236.0
1108.013306 188.0
1113.060181 208.0
1113.126587 164.0
1113.206299 40.0
1113.657837 116.0
1114.547974 160.0
1121.181641 128.0
1128.329712 136.0
1130.476562 148.0
1132.377686 168.0
1136.902588 140.0
1142.835327 288.0
1144.012939 220.0
1147.293335 200.0
1150.524414 156.0
1151.105103 164.0
1151.307617 128.0
1152.634521 180.0
1154.469971 144.0
1163.928711 80.0
1166.333496 144.0
1167.196777 260.0
1169.694214 144.0
1171.129883 184.0
1189.130371 192.0
1192.213623 200.0
1194.757446 32.0
1195.108276 268.0
1196.608521 124.0
1201.432251 148.0
1206.300171 72.0
1207.842041 156.0
1208.886597 112.0
1212.106323 116.0
1215.371826 108.0
1218.218018 156.0
1218.669556 152.0
1219.190674 156.0
1225.842651 176.0
1230.606201 120.0
1235.141235 196.0
1239.32019 188.0
1239.488281 292.0
1239.55835 220.0
1239.971802 156.0
1241.450928 144.0
1244.825928 128.0
1246.15332 156.0
1246.891113 172.0
1249.921631 188.0
1252.300903 140.0
1259.423828 216.0
1262.448364 104.0
1265.986328 144.0
1269.125122 144.0
1270.706665 164.0
1276.921509 128.0
1282.27478 200.0
1282.388794 136.0
1283.343994 140.0
1283.914429 260.0
1284.178223 200.0
1284.37085 160.0
1285.619263 96.0
1288.353516 196.0
1288.489258 120.0
1290.061401 104.0
1291.219604 200.0
1292.457031 120.0
1293.18689 120.0
1295.384888 160.0
1298.710449 176.0
1301.2146 184.0
1303.110474 56.0
1305.82019 140.0
1307.251709 232.0
1307.417114 128.0
1311.334595 116.0
1312.34375 220.0
1313.216187 92.0
1315.120728 200.0
1315.78479 256.0
1316.16748 132.0
1318.182495 228.0
1318.999146 232.0
1320.032837 204.0
1323.549194 172.0
1323.889526 120.0
1324.591919 124.0
1329.02832 196.0
1330.603149 240.0
1337.151733 164.0
1337.501099 48.0
1339.277588 144.0
1339.408691 120.0
1339.903931 216.0
1343.811401 160.0
1349.441895 92.0
1350.553345 164.0
1351.01416 188.0
1351.592041 136.0
1352.104248 92.0
1353.927002 172.0
1354.842407 52.0
1355.545776 84.0
1358.36084 208.0
1360.253784 164.0
1361.03186 168.0
1363.426392 96.0
1364.558228 136.0
1366.573242 176.0
1368.4646 240.0
1369.605957 152.0
1372.442871 164.0
1372.752563 60.0
1374.035889 152.0
1374.508057 136.0
1376.36792 192.0
1377.697266 188.0
1380.978882 76.0
1385.590088 188.0
1387.435181 144.0
1390.706177 148.0
1392.792358 124.0
1393.260254 36.0
1395.222046 156.0
1396.776001 156.0
1398.323486 172.0
1400.571777 136.0
1400.699219 160.0
1402.687744 140.0
1403.925293 176.0
1405.05896 128.0
1405.409546 196.0
1407.902466 152.0
1409.366455 192.0
1409.807251 176.0
1409.974487 256.0
1413.39624 168.0
1415.469482 132.0
1415.679077 144.0
1416.330566 172.0
1419.402954 192.0
1419.897827 136.0
1422.358521 184.0
1424.28064 172.0
1427.211182 208.0
1431.221191 108.0
1435.071045 168.0
1436.087891 168.0
1436.473633 160.0
1444.449585 164.0
1445.221191 140.0
1448.976074 168.0
1451.742432 200.0
1456.523315 196.0
1459.266479 236.0
1462.445923 132.0
1464.212036 188.0
1467.495972 160.0
1470.394409 196.0
1474.785522 136.0
1475.26709 128.0
1477.935913 84.0
1478.754639 220.0
1480.262573 152.0
1480.50769 116.0
1483.311523 152.0
1484.285156 132.0
1485.312622 128.0
1485.93396 116.0
1491.470215 168.0
1491.531616 180.0
1491.969727 164.0
1493.622925 196.0
1497.909912 184.0
1498.880615 272.0
1499.123779 220.0
1499.188843 148.0
1499.789917 108.0
1501.416504 124.0
1501.925537 164.0
1503.020874 212.0
