>compound MLS000697638-01!
>formula C21H24O8
>ionization [M+H]+
>parentmass 405.155
#inchi InChI=1S/C21H24O8/c1-23-11-26-15-6-4-14(5-7-15)18-10-17(22)21-19(28-13-25-3)8-16(27-12-24-2)9-20(21)29-18/h4-9,18H,10-13H2,1-3H3
#inchikey KSNAHHMAWZGNOS
#Ion_Source LC-ESI
#Instrument qTof
#Compound_Source NIH Natural Product Library
#PI Dorrestein
#Data_Collector VVP/LMS
#Scan -1
#Precursor_MZ 405.155
#ExactMass 404.147
#Charge 1
#CAS_Number N/A
#Pubmed_ID N/A
#Smiles COCOc1ccc(cc1)C2CC(=O)c3c(OCOC)cc(OCOC)cc3O2
#INCHI_AUX N/A
#Library_Class 1
#SpectrumID CCMSLIB00000079504
#IonMode Positive
#UpdateWorkflowName UPDATE-SINGLE-ANNOTATED-GOLD
#LibraryQualityString Gold
#TaskID b1d8e8f6646f4e71acdff9ca3d919d08
##Scan# 2309
#SpectrumFile p1-C07_GC7_01_17903.mzXML
#LibraryName NIH_Natural_Products_Library.mgf
#MQScore -1
#Organism NIH_Natural_Products_Library
#TIC_Query 0
#RT_Query -1
#MZErrorPPM -1
#SharedPeaks 0
#MassDiff 0
#LibMZ -1
#SpecMZ 405.155
#SpecCharge 0
#internalFilename spec-00000.mgf

>collision 10
95.052307 192.0
95.096939 180.0
95.341644 104.0
95.538025 120.0
95.830048 124.0
96.249397 48.0
97.008484 116.0
97.033974 208.0
97.07122 160.0
97.829605 140.0
98.036255 252.0
98.478325 140.0
98.626511 132.0
99.20649 196.0
99.424667 128.0
99.452454 160.0
100.375534 44.0
100.461288 80.0
101.03775 204.0
101.180717 160.0
101.328918 132.0
101.894676 60.0
102.047417 224.0
102.26944 228.0
102.307159 188.0
102.393524 172.0
102.881477 204.0
102.978394 108.0
103.052063 992.0
103.204727 208.0
103.313934 124.0
105.069489 572.0
105.156258 212.0
105.218147 128.0
105.516426 164.0
105.794647 188.0
106.075287 156.0
106.366562 228.0
106.789825 148.0
107.014122 136.0
107.049706 336.0
107.97364 184.0
108.407898 172.0
108.918747 124.0
109.029076 1104.0
109.286705 148.0
109.563606 168.0
110.030754 172.0
110.055801 132.0
110.076683 208.0
110.3274 144.0
110.498894 104.0
111.042114 348.0
111.308998 180.0
111.433952 192.0
111.539024 136.0
111.900848 164.0
112.065132 176.0
112.155746 236.0
112.280136 188.0
112.503792 180.0
113.038513 156.0
113.066025 196.0
113.513 208.0
114.047989 204.0
114.505424 184.0
115.054619 296.0
115.532112 148.0
115.853218 192.0
115.973213 224.0
116.05587 172.0
116.234848 128.0
116.40657 144.0
116.42804 52.0
116.666542 196.0
117.073341 460.0
117.525856 104.0
117.666145 216.0
118.040565 692.0
118.076691 176.0
118.477127 152.0
119.049728 228.0
119.47139 208.0
119.504021 144.0
119.952637 128.0
120.511314 224.0
120.889587 100.0
120.944305 188.0
121.026886 332.0
121.064064 460.0
121.483345 44.0
121.556946 224.0
121.933456 184.0
122.352409 136.0
122.366791 156.0
122.719299 180.0
122.739143 124.0
122.858238 164.0
123.006088 288.0
123.29763 196.0
123.950439 144.0
124.010269 172.0
124.183205 168.0
125.017662 236.0
125.058594 156.0
125.226181 240.0
125.858894 92.0
127.042465 164.0
127.114616 156.0
127.273987 120.0
128.072327 152.0
128.26384 76.0
128.342743 172.0
128.694733 28.0
128.760208 176.0
128.873154 216.0
128.95903 224.0
129.02684 124.0
129.259796 228.0
129.74675 84.0
129.973557 84.0
130.032562 216.0
130.109741 136.0
130.193741 108.0
130.584641 108.0
131.047775 532.0
131.263275 56.0
131.854523 108.0
131.982529 152.0
132.053741 228.0
132.350906 164.0
132.387543 184.0
132.421906 116.0
132.47229 92.0
132.701462 240.0
132.740433 68.0
132.855118 144.0
132.972137 220.0
132.988205 208.0
133.004272 128.0
133.028351 108.0
133.065414 6904.0
133.307419 160.0
133.367172 92.0
133.401657 64.0
133.477524 64.0
133.691452 28.0
134.009216 148.0
134.070801 680.0
134.193588 124.0
134.437164 220.0
134.571976 76.0
134.597366 232.0
134.957809 168.0
135.007523 432.0
135.081314 200.0
135.126648 168.0
135.566589 80.0
135.984024 124.0
136.083588 180.0
136.190659 240.0
136.418381 120.0
136.609055 200.0
136.748672 172.0
137.020721 464.0
137.05838 144.0
137.167923 92.0
137.702225 204.0
138.125275 128.0
138.307785 208.0
138.408447 108.0
138.858383 92.0
139.040161 172.0
139.346375 188.0
139.652222 92.0
139.713379 48.0
140.342194 68.0
140.811783 152.0
140.844849 144.0
140.87793 80.0
141.017334 124.0
141.05365 132.0
141.395737 176.0
141.632492 68.0
141.812561 60.0
141.926361 188.0
142.158813 108.0
142.234756 48.0
142.652832 156.0
142.873978 168.0
142.997711 128.0
143.050064 376.0
143.078644 156.0
144.070175 160.0
144.706863 152.0
145.030258 180.0
145.06398 688.0
145.298828 204.0
145.464401 48.0
145.495605 188.0
145.601257 172.0
146.031448 128.0
146.068741 64.0
146.399658 60.0
146.483963 180.0
146.891342 108.0
147.042343 708.0
147.080811 144.0
147.212326 144.0
147.676331 188.0
147.69751 212.0
147.843262 124.0
147.911026 112.0
148.124115 180.0
148.516785 132.0
148.579849 136.0
148.633224 160.0
149.024734 1032.0
149.289093 120.0
149.388809 84.0
149.809937 92.0
150.034744 332.0
150.275574 68.0
151.038193 852.0
151.076401 248.0
152.008484 276.0
152.056732 188.0
152.617081 76.0
152.732651 208.0
153.018311 152.0
153.056259 1184.0
153.114136 64.0
153.224991 160.0
153.266861 132.0
154.014359 104.0
154.330673 188.0
154.830521 136.0
155.015305 100.0
155.035675 368.0
155.085709 128.0
155.368393 112.0
155.437851 156.0
155.522232 96.0
156.810577 112.0
156.837997 76.0
157.039856 164.0
157.067123 180.0
158.00415 56.0
158.244415 244.0
158.412201 212.0
158.705414 156.0
158.906067 88.0
159.043839 4188.0
159.092331 200.0
159.310242 172.0
159.669678 108.0
159.785385 248.0
160.021957 168.0
160.047226 528.0
160.178085 168.0
160.752914 132.0
160.810959 136.0
160.866486 180.0
160.886688 120.0
160.957382 60.0
160.992722 184.0
161.016953 216.0
161.059692 14860.0
161.108917 64.0
161.151398 36.0
161.285797 40.0
161.508301 184.0
161.708176 52.0
161.862595 100.0
161.99176 148.0
162.014557 88.0
162.034836 60.0
162.062805 2316.0
162.247711 144.0
162.272522 56.0
162.387573 136.0
162.483566 104.0
162.623123 88.0
163.039627 140.0
163.068787 684.0
163.152359 172.0
163.334549 100.0
163.370163 160.0
164.003815 204.0
164.302551 148.0
164.861725 72.0
165.018494 9152.0
165.04628 200.0
165.327148 44.0
165.793228 60.0
165.929077 64.0
165.988037 196.0
166.019989 860.0
166.098328 68.0
166.290756 36.0
166.316422 112.0
166.447342 48.0
166.637421 68.0
166.796738 32.0
166.850723 120.0
166.897003 136.0
167.03447 5336.0
167.082184 152.0
167.192825 116.0
167.323608 148.0
167.373016 60.0
167.452835 76.0
167.591949 68.0
167.71048 36.0
167.986389 48.0
168.03537 832.0
168.546616 64.0
168.593124 212.0
168.893036 204.0
169.03273 180.0
169.056015 300.0
169.110367 40.0
169.206146 84.0
169.37706 112.0
171.043137 192.0
172.306198 32.0
172.499573 112.0
173.057602 224.0
173.919266 144.0
174.192352 116.0
175.03656 152.0
176.119354 220.0
176.469284 168.0
176.770813 68.0
176.887253 56.0
176.977264 116.0
177.018372 1168.0
177.059357 196.0
177.112335 116.0
178.205276 72.0
178.370041 208.0
178.828613 216.0
178.920685 176.0
178.968613 76.0
179.034683 1052.0
179.075134 128.0
179.139053 80.0
179.189667 144.0
180.042984 112.0
180.866684 52.0
181.051895 1296.0
181.091599 104.0
181.391693 92.0
181.461395 116.0
181.525742 76.0
182.05162 272.0
182.134949 44.0
182.374084 112.0
183.028381 1236.0
183.074295 192.0
183.151672 100.0
184.036819 176.0
184.509003 220.0
185.033844 160.0
185.057007 144.0
186.243271 76.0
187.081757 200.0
189.008545 184.0
189.08696 64.0
190.076218 188.0
190.950882 172.0
191.037231 132.0
191.070114 9820.0
191.134109 36.0
191.169739 280.0
191.321259 100.0
191.439651 60.0
191.508499 44.0
191.648987 36.0
192.076126 952.0
192.10939 240.0
192.736099 80.0
192.879807 224.0
193.004211 100.0
193.048904 704.0
193.077072 448.0
193.201614 112.0
193.380432 32.0
193.494949 152.0
193.557602 124.0
193.588058 52.0
193.687759 92.0
194.050522 128.0
195.025146 64.0
195.083511 96.0
196.342026 248.0
196.930908 128.0
197.043945 4300.0
197.098511 136.0
197.143219 64.0
198.047852 704.0
199.034012 136.0
199.056473 116.0
199.146332 184.0
199.202515 100.0
199.565048 120.0
200.806885 112.0
201.060791 144.0
201.20192 100.0
202.862488 136.0
203.066635 144.0
203.129044 64.0
204.043442 148.0
205.036835 160.0
205.059647 136.0
206.058807 204.0
206.081223 156.0
207.033737 124.0
208.034378 220.0
208.571533 140.0
209.044907 1932.0
209.092117 168.0
209.118011 76.0
209.189972 116.0
209.621979 88.0
209.858337 88.0
210.057709 152.0
210.34877 52.0
210.368973 100.0
211.016083 164.0
211.060593 800.0
211.134644 136.0
213.054428 164.0
213.088974 208.0
215.220276 80.0
220.584824 64.0
221.056747 268.0
223.063492 408.0
224.065781 40.0
225.082825 164.0
227.030869 96.0
227.113739 136.0
229.077667 132.0
230.093948 72.0
231.070114 176.0
234.061386 136.0
237.086945 184.0
238.065536 160.0
238.655502 144.0
239.075745 188.0
239.655807 164.0
240.075012 104.0
241.072205 668.0
242.058884 164.0
242.079422 132.0
243.07869 228.0
243.438782 72.0
244.281036 48.0
245.009476 208.0
245.078094 184.0
248.08139 112.0
249.990997 124.0
250.059845 192.0
251.066757 168.0
252.046936 148.0
252.072205 88.0
253.0755 164.0
254.082733 104.0
255.060791 168.0
255.108475 168.0
256.063019 64.0
257.054443 56.0
258.054199 164.0
259.081512 188.0
259.325012 216.0
260.663239 60.0
261.048981 152.0
264.090149 108.0
265.080353 132.0
265.213654 136.0
267.058472 148.0
268.067261 148.0
268.846436 76.0
269.088165 240.0
270.048706 204.0
271.056976 104.0
271.109406 212.0
272.103271 36.0
279.063538 336.0
280.372742 88.0
281.083435 200.0
283.058533 312.0
283.08844 168.0
283.148956 164.0
284.094147 180.0
285.07074 432.0
286.070068 116.0
286.093658 184.0
287.080841 148.0
293.04657 240.0
293.704498 116.0
294.05249 148.0
296.059265 156.0
297.063507 188.0
298.440643 96.0
299.091003 268.0
300.086395 48.0
301.093353 200.0
301.235596 120.0
307.073761 140.0
308.079041 76.0
309.071564 436.0
310.077972 164.0
311.084991 144.0
311.870422 104.0
313.05954 116.0
313.10437 308.0
314.109802 160.0
315.115906 148.0
324.720032 84.0
327.084198 152.0
329.10675 328.0
331.113556 128.0
341.085297 116.0
341.114685 312.0
342.096863 100.0
342.597656 100.0
345.151642 184.0
347.514709 48.0
369.983002 132.0
373.063477 64.0
374.14444 172.0
375.142181 104.0
377.188049 44.0
394.102753 116.0
405.299438 52.0
405.696228 60.0
405.99292 52.0
413.615692 76.0
414.664703 64.0
424.444427 80.0
444.480072 84.0
475.68631 108.0
566.662292 56.0
641.03949 52.0
697.704407 64.0
709.243713 188.0
741.429504 168.0
909.472778 152.0
929.599976 212.0
940.780579 148.0
958.388367 152.0
976.967896 216.0
977.863892 160.0
1029.366089 44.0
1054.988892 196.0
1079.291382 20.0
1081.384766 60.0
1085.577515 160.0
1095.231812 188.0
1097.610962 188.0
1102.027466 140.0
1106.067139 208.0
1112.848877 172.0
1135.208618 212.0
1136.69104 112.0
1139.826782 196.0
1142.314331 184.0
1142.428711 172.0
1145.444458 132.0
1147.325562 132.0
1156.65332 124.0
1160.887695 172.0
1165.381104 52.0
1177.23999 128.0
1182.113892 144.0
1184.078613 136.0
1184.749878 176.0
1191.781982 164.0
1195.013428 56.0
1196.362305 160.0
1198.249268 160.0
1203.194092 236.0
1204.775513 160.0
1210.024536 180.0
1212.227173 116.0
1217.909058 92.0
1225.909668 188.0
1233.55896 168.0
1233.845581 188.0
1241.246216 60.0
1246.349121 120.0
1247.150269 148.0
1247.515747 172.0
1263.333008 172.0
1268.771729 168.0
1273.405151 116.0
1280.958862 64.0
1285.500366 212.0
1294.97998 92.0
1299.029663 144.0
1300.055664 236.0
1302.690674 44.0
1315.154785 112.0
1316.064331 160.0
1319.105713 156.0
1325.626709 112.0
1326.98938 244.0
1327.823242 200.0
1330.827393 180.0
1330.965332 172.0
1335.063721 176.0
1338.432739 212.0
1343.629395 140.0
1345.40271 168.0
1355.737671 248.0
1357.988403 160.0
1358.237793 172.0
1364.964844 128.0
1368.761719 140.0
1371.435913 132.0
1371.693848 192.0
1372.659668 172.0
1375.861694 180.0
1378.52063 176.0
1391.156006 208.0
1391.987549 108.0
1395.197144 176.0
1396.015015 76.0
1407.436401 240.0
1408.655396 72.0
1412.774292 136.0
1415.184082 184.0
1416.067749 132.0
1420.925049 200.0
1424.603516 172.0
1431.048584 144.0
1431.22937 128.0
1432.55481 200.0
1436.738647 112.0
1437.410156 268.0
1437.58374 60.0
1437.749756 152.0
1438.428955 152.0
1438.542236 200.0
1442.417236 120.0
1444.080688 136.0
1445.555908 116.0
1446.282471 100.0
1449.008545 108.0
1450.78186 140.0
1451.411133 252.0
1458.463745 148.0
1465.129517 40.0
1465.624756 176.0
1473.758301 160.0
1474.560669 116.0
1475.133911 168.0
1475.669067 132.0
1477.841187 152.0
1484.750488 240.0
1488.942383 88.0
1492.237061 160.0
1496.376221 156.0
1496.699585 236.0
1497.207886 72.0
1498.23999 96.0
