>compound MLS000859898-01!
>formula C22H27NO2
>ionization [M+H]+
>parentmass 338.209869
#inchi InChI=1S/C22H27NO2/c1-4-22(24)10-8-18-16-6-5-15-11-19-14(13-23-25-19)12-20(15,2)17(16)7-9-21(18,22)3/h1,11,13,16-18,24H,5-10,12H2,2-3H3/t16?,17?,18?,20?,21?,22-/m0/s1
#inchikey POZRVZJJTULAOH
#Ion_Source LC-ESI
#Instrument qTof
#Compound_Source NIH Pharmacologically Active Library
#PI Dorrestein
#Data_Collector VP/LMS
#Scan -1
#Precursor_MZ 338.217
#ExactMass 337.204
#Charge 1
#CAS_Number N/A
#Pubmed_ID N/A
#Smiles CC12CCC3C(CCC4=Cc5oncc5CC34C)C2CC[C@@]1(O)C#C
#INCHI_AUX N/A
#Library_Class 1
#SpectrumID CCMSLIB00000086159
#IonMode Positive
#UpdateWorkflowName UPDATE-SINGLE-ANNOTATED-GOLD
#LibraryQualityString Gold
#TaskID d252d724072548979f1f6f1ced849daf
##Scan# 2376
#SpectrumFile p5-G04_GG4_01_18473.mzXML
#LibraryName Pharm_Active_Library.mgf
#MQScore -1
#Organism Pharm_Active_Library
#TIC_Query 0
#RT_Query -1
#MZErrorPPM -1
#SharedPeaks 0
#MassDiff 0
#LibMZ -1
#SpecMZ 338.217
#SpecCharge 0
#internalFilename spec-00000.mgf

>collision 10
44.945435 196.0
45.048237 212.0
45.227421 128.0
45.400253 56.0
45.441833 140.0
45.500889 124.0
45.589539 176.0
45.600292 176.0
45.823669 156.0
46.167877 228.0
46.259884 160.0
46.281548 156.0
46.387218 196.0
46.479443 160.0
46.583984 112.0
46.615234 152.0
46.669605 152.0
46.834274 116.0
46.909218 152.0
46.961033 168.0
46.992409 112.0
47.071575 172.0
47.107086 120.0
47.134411 52.0
47.435505 176.0
47.469784 160.0
47.508186 40.0
47.60701 132.0
47.616623 124.0
47.690815 164.0
47.733437 156.0
47.763691 52.0
47.774696 160.0
47.817352 112.0
48.186913 108.0
48.537094 136.0
48.592575 172.0
48.680023 148.0
48.69252 124.0
48.734196 224.0
48.767548 192.0
48.832729 204.0
48.871845 160.0
48.903854 212.0
48.974342 196.0
49.061497 140.0
49.230087 192.0
49.302734 156.0
49.365643 284.0
49.445381 184.0
49.488777 200.0
49.525188 200.0
49.659744 140.0
49.675171 128.0
49.750954 212.0
49.809933 152.0
49.927994 156.0
49.961754 132.0
50.0462 128.0
50.117374 128.0
50.150444 172.0
50.249157 196.0
50.342319 260.0
50.418602 184.0
50.547291 224.0
50.647808 140.0
50.734249 144.0
50.755516 296.0
50.8009 148.0
50.843468 144.0
50.90593 204.0
51.018177 108.0
51.230217 244.0
51.471252 104.0
51.531242 132.0
51.661343 56.0
51.747211 164.0
51.772987 204.0
51.784443 44.0
51.98085 64.0
52.33445 196.0
52.893154 96.0
53.013363 124.0
53.090199 248.0
53.127911 212.0
53.188858 188.0
53.286156 76.0
53.348648 116.0
53.590237 176.0
53.607723 144.0
53.620842 208.0
53.844059 196.0
53.863045 160.0
53.89957 104.0
53.937569 128.0
54.034088 156.0
54.045792 180.0
54.16291 180.0
54.275757 188.0
54.290421 172.0
54.343227 132.0
54.617943 156.0
54.642952 144.0
54.756577 212.0
54.871235 144.0
55.212334 180.0
55.480339 196.0
55.650955 124.0
55.685108 164.0
55.897697 196.0
56.061504 172.0
56.131569 56.0
56.404781 124.0
56.490017 156.0
56.54089 80.0
57.013298 152.0
57.072723 164.0
57.202812 120.0
57.216358 128.0
57.290409 164.0
57.303711 104.0
57.322796 212.0
57.344612 168.0
57.442406 96.0
57.502762 224.0
57.679482 120.0
57.75811 200.0
58.009476 212.0
58.129295 40.0
58.162685 192.0
58.173309 192.0
58.23101 204.0
58.370823 176.0
58.422535 40.0
58.469704 88.0
58.72414 212.0
58.812553 152.0
59.040245 176.0
59.291355 160.0
59.358807 148.0
59.380276 184.0
59.455452 136.0
59.487682 160.0
59.558319 84.0
59.62746 36.0
59.69664 132.0
59.725861 88.0
59.778172 168.0
60.205189 92.0
60.234535 184.0
60.249981 136.0
60.314884 188.0
60.427776 152.0
60.553162 184.0
60.61668 156.0
60.75312 188.0
60.93787 176.0
60.972054 248.0
61.005474 176.0
61.02335 56.0
61.035789 148.0
61.070004 168.0
61.208511 140.0
61.278603 160.0
61.367443 132.0
61.381474 212.0
61.485996 172.0
61.53907 184.0
61.629658 104.0
61.693737 116.0
61.707809 228.0
61.782879 184.0
61.809475 224.0
61.853298 140.0
62.055389 160.0
62.207565 76.0
62.407089 152.0
62.438538 148.0
62.48101 276.0
62.537659 176.0
62.876518 128.0
63.010735 160.0
63.157753 124.0
63.426933 216.0
63.458641 128.0
63.609352 200.0
63.776138 136.0
63.998856 152.0
64.013184 88.0
64.491798 88.0
64.520576 124.0
64.584541 148.0
64.634132 120.0
64.936913 132.0
65.03157 188.0
65.233963 164.0
65.299889 76.0
65.343323 168.0
65.364235 124.0
65.4254 104.0
65.439384 148.0
65.623566 124.0
65.750999 160.0
65.872765 136.0
65.948044 168.0
66.185852 124.0
66.287407 156.0
66.433022 236.0
66.471138 172.0
66.500183 228.0
66.540932 144.0
66.822105 88.0
66.997932 168.0
67.082672 136.0
67.175621 324.0
67.317619 76.0
67.466309 212.0
67.647888 180.0
67.893661 160.0
67.944511 160.0
68.064323 244.0
68.141525 188.0
68.264801 92.0
68.327301 124.0
68.398064 236.0
68.59079 140.0
68.666634 228.0
68.694679 152.0
68.818451 228.0
68.907639 124.0
68.952255 136.0
69.043182 112.0
69.163925 172.0
69.251724 160.0
69.276566 112.0
69.305435 104.0
69.32959 164.0
69.387604 88.0
69.427399 184.0
69.546852 140.0
69.570091 100.0
69.616585 36.0
69.736206 184.0
70.065681 152.0
70.137337 180.0
70.175682 204.0
70.477783 172.0
70.812363 156.0
70.984978 196.0
71.006775 192.0
71.107437 116.0
71.371185 248.0
71.475471 108.0
71.502396 208.0
71.596672 136.0
71.642151 184.0
71.709557 236.0
71.765182 56.0
71.820831 140.0
71.839493 196.0
72.067307 144.0
72.232986 136.0
72.337906 188.0
72.380226 168.0
72.490334 204.0
72.593742 180.0
72.644623 200.0
72.743042 188.0
72.95369 116.0
72.985039 204.0
73.0047 68.0
73.169746 120.0
73.185074 212.0
73.261711 160.0
73.756584 152.0
73.86602 216.0
73.883125 116.0
74.177673 124.0
74.258263 144.0
74.460785 164.0
74.508881 52.0
74.53196 172.0
74.548393 108.0
74.618874 216.0
74.711739 128.0
74.876984 152.0
75.00621 148.0
75.082069 72.0
75.189034 132.0
75.228737 248.0
75.378998 172.0
75.436035 208.0
75.550171 188.0
75.572655 172.0
76.147774 140.0
76.182922 144.0
76.235054 164.0
76.311531 120.0
76.377617 160.0
76.612617 152.0
76.762512 160.0
76.827049 296.0
76.996361 240.0
77.026054 64.0
77.116913 152.0
77.307541 292.0
77.32679 40.0
77.339043 148.0
77.354797 164.0
77.666702 172.0
77.826401 188.0
78.204361 208.0
78.225487 152.0
78.294151 40.0
78.369904 84.0
78.419243 168.0
78.537376 184.0
78.680313 88.0
78.800407 128.0
79.225006 172.0
79.248039 100.0
79.27285 120.0
79.290573 36.0
79.51403 132.0
79.617004 192.0
79.800026 252.0
80.031334 192.0
80.043793 44.0
80.10791 124.0
80.180969 136.0
80.296852 164.0
80.309334 156.0
80.452087 152.0
80.593185 124.0
80.607475 132.0
80.81311 212.0
80.845314 204.0
80.877533 144.0
80.941978 164.0
81.067375 64.0
81.17852 188.0
81.192863 244.0
81.205421 184.0
81.305893 180.0
81.46637 128.0
81.569916 136.0
81.60228 60.0
81.677811 132.0
82.153374 172.0
82.236374 48.0
82.258034 188.0
82.276085 124.0
82.302277 148.0
82.344704 148.0
82.37722 172.0
82.40432 148.0
82.436844 184.0
82.536263 108.0
82.599564 28.0
82.871117 184.0
82.895172 220.0
82.93454 112.0
82.99437 156.0
83.075981 140.0
83.313797 140.0
83.355583 120.0
83.428284 148.0
83.459198 144.0
83.60836 140.0
83.708481 172.0
83.848755 140.0
83.961792 144.0
84.157043 168.0
84.230095 216.0
84.297691 84.0
84.438461 156.0
84.661736 144.0
84.722183 128.0
84.782646 168.0
85.188141 176.0
85.452873 148.0
85.522804 180.0
85.563301 220.0
85.683014 184.0
85.839684 108.0
85.852592 76.0
85.9356 168.0
86.308701 128.0
86.340141 108.0
86.39563 184.0
86.458542 36.0
86.495552 132.0
86.727043 144.0
86.927391 200.0
86.984924 96.0
86.999771 116.0
87.090759 180.0
87.269165 200.0
87.313797 224.0
87.486839 160.0
87.546425 152.0
87.777496 144.0
87.801735 104.0
87.87822 56.0
88.04435 104.0
88.124672 64.0
88.248032 136.0
88.414467 168.0
88.431358 172.0
88.483772 108.0
88.511856 76.0
88.599884 200.0
89.035057 124.0
89.077179 84.0
89.175964 172.0
89.44117 208.0
89.531548 216.0
89.757675 160.0
89.876511 152.0
89.912369 164.0
89.942963 228.0
89.965218 52.0
90.031303 180.0
90.176773 172.0
90.610909 172.0
90.640427 144.0
90.680222 144.0
90.704865 164.0
90.809151 216.0
90.826225 140.0
90.922989 52.0
90.985626 176.0
91.025497 176.0
91.054153 1836.0
91.10527 204.0
91.40377 216.0
92.054985 284.0
92.079727 200.0
92.235291 128.0
92.298386 164.0
92.327065 48.0
92.646721 124.0
92.663963 120.0
92.750198 132.0
92.798126 200.0
92.823051 204.0
93.068787 1128.0
93.112434 232.0
93.39344 144.0
93.474243 156.0
93.551231 76.0
93.582031 196.0
93.662918 196.0
93.76889 120.0
93.938568 76.0
94.040833 80.0
94.065575 756.0
94.361504 68.0
94.394371 80.0
94.440788 156.0
94.554939 132.0
94.709831 140.0
94.787331 200.0
94.928833 208.0
95.085808 328.0
95.216049 100.0
95.241302 280.0
95.272385 80.0
95.472588 124.0
95.885315 92.0
96.042412 276.0
96.083771 232.0
96.103722 184.0
96.131744 188.0
96.224731 204.0
96.238289 148.0
96.343857 136.0
96.443687 228.0
96.774132 80.0
96.801544 80.0
97.040596 124.0
97.124916 164.0
97.171997 92.0
97.276009 184.0
97.391861 64.0
97.486168 124.0
97.509392 152.0
97.539238 200.0
97.865807 76.0
97.964279 156.0
98.056892 140.0
98.212654 240.0
98.362617 212.0
98.668816 152.0
98.751869 132.0
99.034904 44.0
99.09433 144.0
99.126038 260.0
99.211266 236.0
99.235054 104.0
99.268761 168.0
99.37587 164.0
99.475105 136.0
99.890419 84.0
99.904343 144.0
100.079971 212.0
100.543945 148.0
100.557915 156.0
100.625786 196.0
100.647751 136.0
100.863518 116.0
100.879509 160.0
101.023491 80.0
101.201607 200.0
101.343819 236.0
101.364906 88.0
101.399925 152.0
101.46608 164.0
101.574371 152.0
101.696762 248.0
101.726875 216.0
101.961876 160.0
102.044296 80.0
102.092552 140.0
102.209229 116.0
102.301811 68.0
102.380333 176.0
102.505745 204.0
102.574425 80.0
102.59391 152.0
102.920761 128.0
102.969223 232.0
103.005585 148.0
103.053665 1144.0
103.391762 148.0
103.456535 188.0
103.510506 164.0
103.528999 132.0
103.697578 56.0
103.790833 216.0
103.805023 208.0
103.922676 164.0
103.979492 164.0
104.06147 368.0
104.284142 144.0
104.393929 220.0
104.442741 144.0
104.607559 124.0
104.774551 168.0
104.803078 144.0
104.974297 176.0
105.00489 180.0
105.031403 144.0
105.069939 3260.0
105.144279 76.0
105.242073 88.0
105.392754 48.0
105.480637 76.0
105.509254 188.0
105.572639 124.0
105.672867 56.0
105.861183 148.0
105.898048 224.0
106.016876 168.0
106.066956 1964.0
106.109116 80.0
106.324867 176.0
106.521606 40.0
106.593513 116.0
106.683945 56.0
106.809387 120.0
106.850525 132.0
107.048103 196.0
107.085419 1912.0
107.122269 68.0
107.206749 60.0
107.578011 84.0
107.650276 232.0
107.869278 128.0
107.945778 140.0
108.046608 144.0
108.081207 860.0
108.305885 44.0
108.500679 144.0
108.521408 136.0
108.730919 232.0
108.76413 172.0
108.903244 124.0
108.921944 52.0
109.063873 400.0
109.10009 496.0
109.156792 212.0
109.208786 112.0
109.323212 136.0
109.66893 32.0
109.683525 108.0
109.716881 40.0
109.739807 144.0
109.785683 256.0
109.850342 156.0
109.940063 128.0
110.059586 704.0
110.104988 48.0
110.184364 148.0
110.318115 160.0
110.535629 148.0
110.722153 40.0
110.753357 96.0
110.780586 316.0
110.96711 124.0
111.048889 168.0
111.080353 212.0
111.111824 160.0
111.183167 104.0
111.281822 172.0
111.34272 108.0
111.45826 192.0
111.54863 180.0
111.63063 224.0
111.92733 112.0
112.005257 188.0
112.119026 144.0
112.466728 84.0
112.747932 124.0
112.766953 140.0
113.001678 172.0
113.136421 216.0
113.30867 56.0
113.654266 160.0
113.734909 76.0
113.775246 132.0
113.932396 140.0
113.957893 156.0
114.0429 136.0
114.08754 184.0
114.200233 172.0
114.295967 44.0
114.37973 212.0
114.549316 152.0
114.734718 212.0
114.749641 132.0
114.80722 200.0
114.834259 188.0
114.871201 132.0
115.054688 2948.0
115.08889 132.0
115.368774 184.0
115.439331 164.0
115.503494 144.0
115.584785 88.0
115.646851 200.0
116.059265 1136.0
116.107491 132.0
116.142662 100.0
116.412224 152.0
116.543251 116.0
116.605576 184.0
116.631363 232.0
116.646416 92.0
116.672211 140.0
116.760368 124.0
116.904503 52.0
116.934639 176.0
117.001366 180.0
117.031509 216.0
117.07032 3592.0
117.10257 136.0
117.292183 112.0
117.371948 156.0
117.406456 48.0
117.434494 168.0
117.4841 120.0
117.53373 180.0
117.598465 36.0
117.667542 52.0
117.756081 92.0
117.855453 208.0
117.87706 120.0
118.070457 456.0
118.602074 128.0
118.695297 120.0
118.821098 176.0
118.860153 176.0
118.975182 208.0
119.009918 156.0
119.047729 136.0
119.086166 2980.0
119.40107 236.0
119.520714 136.0
119.679611 168.0
119.694855 52.0
119.740585 176.0
119.775436 192.0
119.805931 164.0
119.956299 136.0
119.995537 180.0
120.01516 228.0
120.044098 1748.0
120.080467 8192.0
120.135109 168.0
120.281319 120.0
120.348991 40.0
120.501884 168.0
120.589294 180.0
120.633011 160.0
120.893288 188.0
120.985214 368.0
121.0093 152.0
121.024628 52.0
121.065201 5384.0
121.086288 948.0
121.122955 40.0
121.204239 52.0
121.226151 36.0
121.243683 148.0
121.276558 144.0
121.394943 48.0
121.434418 84.0
121.451965 36.0
121.74826 132.0
121.915222 64.0
121.951813 148.0
122.027321 84.0
122.060661 1196.0
122.096321 996.0
122.120857 120.0
122.214279 60.0
122.23848 192.0
122.449821 152.0
122.509293 164.0
122.718666 48.0
123.032761 208.0
123.074883 236.0
123.111794 176.0
123.133522 184.0
123.177704 120.0
123.467247 160.0
123.49157 36.0
123.562355 120.0
123.680832 164.0
123.814697 128.0
124.077042 336.0
124.100555 148.0
124.116081 188.0
124.271339 80.0
124.386742 68.0
124.475548 60.0
124.508858 156.0
124.60215 160.0
124.802185 164.0
124.839989 80.0
124.875572 180.0
124.920059 72.0
125.078049 172.0
125.487953 52.0
125.530319 140.0
125.610611 104.0
125.952133 172.0
125.970009 168.0
126.089882 356.0
126.124191 140.0
126.227028 196.0
126.269516 144.0
126.370178 128.0
126.511177 164.0
126.572807 188.0
126.784439 100.0
127.051941 808.0
127.167953 96.0
127.255501 136.0
127.385757 88.0
127.426193 120.0
127.67115 160.0
127.756676 192.0
127.864685 76.0
127.981743 76.0
128.035782 144.0
128.061981 2984.0
128.164185 64.0
128.218262 148.0
128.238556 132.0
128.285889 68.0
128.360291 92.0
128.416672 84.0
128.518188 40.0
128.561066 164.0
128.628769 76.0
128.694244 272.0
128.843307 40.0
128.92691 144.0
129.037659 48.0
129.068924 3788.0
129.18692 72.0
129.223129 168.0
129.289505 84.0
129.456268 32.0
129.694153 132.0
130.011673 80.0
130.071945 472.0
130.27507 96.0
130.309143 80.0
130.468231 164.0
130.893692 164.0
130.966583 140.0
131.02124 56.0
131.048935 488.0
131.084137 3656.0
131.219528 68.0
131.276535 200.0
131.520645 96.0
131.682755 168.0
131.698746 168.0
131.812973 240.0
131.840393 132.0
132.056396 184.0
132.08252 1180.0
132.28183 228.0
132.436462 208.0
132.483353 88.0
132.735474 88.0
132.765961 240.0
132.889145 148.0
132.939621 68.0
133.061127 852.0
133.10025 672.0
133.132462 116.0
133.153137 220.0
133.286377 48.0
133.336929 80.0
133.408188 100.0
134.059952 880.0
134.098587 584.0
134.128693 60.0
134.278564 148.0
134.393906 64.0
134.446976 176.0
134.493149 176.0
134.636292 192.0
134.797989 60.0
134.929749 100.0
135.08049 764.0
135.101212 384.0
135.110031 184.0
135.115417 708.0
135.28833 136.0
135.325378 68.0
135.392532 132.0
135.408737 164.0
135.679855 100.0
135.705353 120.0
135.881622 188.0
135.932663 112.0
135.969162 192.0
136.075317 916.0
136.115295 160.0
136.201981 124.0
136.42041 48.0
136.501785 160.0
136.659958 112.0
136.792603 52.0
136.867111 200.0
137.032486 116.0
137.078888 192.0
137.144333 148.0
137.169983 144.0
137.333206 52.0
137.456848 52.0
137.923935 144.0
138.092224 152.0
138.218201 160.0
138.293503 116.0
138.508911 128.0
138.663559 48.0
138.837051 176.0
138.858154 128.0
139.008301 116.0
139.097488 128.0
139.149124 116.0
139.170258 164.0
139.809647 168.0
140.078049 196.0
140.141663 108.0
140.297211 180.0
140.365585 112.0
140.50946 116.0
140.589691 156.0
140.632172 136.0
140.740768 132.0
140.852478 172.0
140.967529 208.0
141.070602 3020.0
141.144821 148.0
141.201569 164.0
141.258347 160.0
141.29068 144.0
141.352982 148.0
141.414505 164.0
141.435806 180.0
141.506836 192.0
141.594452 108.0
141.632339 152.0
141.648926 148.0
141.949921 124.0
142.025665 124.0
142.054276 172.0
142.077164 2552.0
142.127823 192.0
142.472092 208.0
142.612289 116.0
143.083069 3532.0
143.147583 36.0
143.342911 192.0
143.444061 100.0
143.476379 140.0
143.509766 152.0
143.560379 212.0
143.600388 164.0
144.006134 84.0
144.054871 488.0
144.083221 548.0
144.165543 88.0
144.271362 124.0
144.319183 44.0
144.374176 76.0
144.591888 56.0
144.682846 176.0
144.790588 36.0
144.845688 148.0
145.015808 148.0
145.064743 1020.0
145.098831 2972.0
145.236389 52.0
145.259308 36.0
145.32515 180.0
145.348328 152.0
145.442749 60.0
145.461945 108.0
145.675674 68.0
145.697296 80.0
145.786194 240.0
146.043442 156.0
146.069824 1016.0
146.098282 1092.0
146.156509 76.0
146.213165 200.0
146.284073 32.0
146.561035 136.0
147.007126 220.0
147.080048 1668.0
147.195419 40.0
147.391083 104.0
147.449081 128.0
147.475662 60.0
147.553009 144.0
147.770691 180.0
147.809402 52.0
147.905701 232.0
147.971573 188.0
148.007889 196.0
148.075897 7908.0
148.13707 188.0
148.246017 220.0
148.298599 72.0
148.34465 52.0
148.385864 132.0
148.511963 208.0
148.545914 80.0
148.708496 228.0
148.744904 68.0
149.083328 1000.0
149.113129 300.0
149.169998 76.0
149.199173 56.0
149.240509 48.0
149.715012 156.0
149.922089 128.0
150.092987 1272.0
150.243942 56.0
150.422089 152.0
150.480667 52.0
150.500198 104.0
150.70993 144.0
150.861786 44.0
150.888687 60.0
151.006058 104.0
151.02562 168.0
151.089233 248.0
151.228714 212.0
151.46376 120.0
151.801987 40.0
151.929306 132.0
151.99086 192.0
152.065002 540.0
152.187225 136.0
152.700714 180.0
152.730331 184.0
152.774612 156.0
152.794296 176.0
153.070663 1340.0
153.119217 28.0
153.311386 116.0
153.437088 44.0
154.076355 1724.0
154.147949 152.0
154.281418 208.0
154.343231 104.0
154.365479 152.0
154.521301 120.0
154.697021 52.0
154.974396 136.0
155.086411 4116.0
155.353714 76.0
155.435593 48.0
155.475296 52.0
155.899963 208.0
156.088654 1016.0
156.225677 40.0
156.429733 120.0
156.48201 76.0
156.511902 176.0
156.541779 172.0
156.67627 92.0
156.6987 80.0
156.75351 204.0
156.903061 220.0
156.920517 40.0
157.002808 100.0
157.029617 144.0
157.064621 456.0
157.10144 3048.0
157.646881 104.0
158.046967 124.0
158.070526 504.0
158.098572 1224.0
158.174606 192.0
158.27475 88.0
158.570358 84.0
158.893829 148.0
159.078903 1188.0
159.118362 636.0
159.496521 264.0
159.961884 208.0
160.075134 352.0
160.112366 848.0
160.178436 108.0
160.344742 68.0
161.094849 644.0
161.124115 632.0
161.377182 52.0
161.470749 56.0
161.531448 168.0
161.711105 200.0
162.027634 132.0
162.091309 464.0
162.12706 232.0
162.22023 124.0
162.544876 180.0
162.780945 164.0
162.946045 96.0
163.027359 224.0
163.109726 156.0
163.129028 160.0
163.811005 80.0
163.83139 148.0
163.963882 164.0
164.073486 132.0
164.096436 124.0
164.122391 180.0
164.351501 192.0
164.742111 148.0
165.069122 2096.0
165.095474 176.0
165.319962 104.0
165.860367 56.0
166.013016 112.0
166.076492 1596.0
166.116791 104.0
166.340042 92.0
167.085236 1756.0
167.159912 112.0
167.180496 48.0
167.265427 180.0
167.311768 92.0
167.363724 248.0
167.57962 88.0
167.695587 80.0
167.945679 168.0
168.05661 184.0
168.090469 1328.0
168.247604 68.0
168.283737 52.0
168.523941 80.0
168.619553 124.0
168.689346 140.0
169.038513 120.0
169.059204 188.0
169.1008 3408.0
169.255951 112.0
169.297379 56.0
169.331039 68.0
169.380249 96.0
169.517563 56.0
169.693832 172.0
169.756058 212.0
169.942825 204.0
169.960983 64.0
170.069885 332.0
170.099152 444.0
170.381592 148.0
170.423157 68.0
170.550507 168.0
170.657089 108.0
170.722092 72.0
170.820923 172.0
170.943207 164.0
171.079483 648.0
171.114944 1716.0
171.206146 100.0
171.302505 52.0
171.414536 108.0
171.443207 40.0
171.743027 136.0
172.083939 156.0
172.112076 524.0
172.158005 124.0
172.649307 88.0
172.921402 224.0
173.002548 124.0
173.095139 856.0
173.131744 688.0
173.172745 104.0
173.191086 56.0
173.232986 48.0
173.403305 80.0
173.437378 132.0
173.618286 76.0
173.696976 68.0
174.095688 684.0
174.128464 784.0
174.321838 124.0
174.411194 32.0
175.029434 108.0
175.106857 504.0
175.770142 44.0
176.107086 588.0
176.142395 136.0
176.316772 172.0
176.34584 140.0
177.069794 172.0
177.092102 188.0
177.115112 196.0
177.142303 204.0
177.160843 140.0
177.569046 208.0
178.078186 724.0
178.123779 164.0
178.248657 148.0
178.381546 72.0
179.08519 2220.0
179.289154 168.0
179.398438 156.0
179.425095 188.0
179.457092 204.0
179.801193 128.0
179.819885 168.0
179.886612 212.0
180.08902 1092.0
180.145645 148.0
180.225784 136.0
180.479721 108.0
180.739166 100.0
180.966675 28.0
181.064529 372.0
181.099594 2656.0
181.269363 224.0
181.290802 116.0
181.440903 88.0
181.651337 212.0
181.757385 140.0
181.811066 168.0
182.067825 168.0
182.105438 968.0
182.141296 80.0
182.200394 176.0
182.332062 28.0
182.396576 160.0
182.423447 208.0
182.466461 96.0
182.843048 152.0
182.969559 84.0
183.078979 692.0
183.115326 1868.0
183.225418 56.0
183.271225 244.0
183.300858 68.0
183.565033 80.0
183.902252 140.0
184.081223 240.0
184.089462 300.0
184.115067 796.0
184.169571 44.0
184.212784 48.0
184.383011 144.0
184.420853 104.0
184.875214 136.0
185.094849 1016.0
185.131012 780.0
185.372803 128.0
185.856155 184.0
185.883286 204.0
186.04071 128.0
186.094833 316.0
186.127945 444.0
186.222641 56.0
186.64386 52.0
186.676498 80.0
186.720001 68.0
186.891388 80.0
187.105988 692.0
187.149124 508.0
187.201691 40.0
187.324265 112.0
187.523163 56.0
187.673096 140.0
187.913116 168.0
188.104813 480.0
188.148666 368.0
188.530228 140.0
188.557556 116.0
188.617691 128.0
188.915756 132.0
189.072662 492.0
189.110611 252.0
189.142883 268.0
189.413971 92.0
189.641388 136.0
190.003357 120.0
190.072922 156.0
190.110367 68.0
190.588165 68.0
191.083481 1664.0
191.195892 72.0
191.815613 184.0
191.983719 164.0
192.03067 112.0
192.091888 972.0
192.128143 216.0
192.160324 144.0
192.488785 100.0
193.099045 1420.0
193.51738 172.0
193.738953 184.0
193.927383 48.0
194.105042 824.0
194.354446 60.0
194.768097 68.0
195.083145 576.0
195.112045 1508.0
195.471481 40.0
195.499313 48.0
195.521576 52.0
195.808334 180.0
196.042343 160.0
196.118454 824.0
196.309967 252.0
196.349014 104.0
196.602875 132.0
196.837372 48.0
197.092941 524.0
197.132034 664.0
197.194962 92.0
197.232788 172.0
197.273224 76.0
197.698364 48.0
198.099213 340.0
198.133011 516.0
198.224823 100.0
198.735153 56.0
198.836182 180.0
199.108017 196.0
199.131302 500.0
199.853439 44.0
200.106949 436.0
200.137726 176.0
200.388397 88.0
201.101776 176.0
201.118652 184.0
201.143845 268.0
201.53392 92.0
201.901398 128.0
201.943817 56.0
202.075409 792.0
202.119797 188.0
202.291855 136.0
202.470245 96.0
202.872589 52.0
203.08606 1480.0
203.138275 156.0
203.538254 116.0
203.576248 84.0
203.601807 132.0
204.092041 1212.0
204.141754 120.0
204.554306 200.0
204.753616 72.0
204.784943 56.0
205.101913 1836.0
205.14682 116.0
205.537552 80.0
205.728775 136.0
205.87439 44.0
206.054352 132.0
206.107513 628.0
206.145782 156.0
206.465958 76.0
206.663345 44.0
206.789246 100.0
207.083817 196.0
207.114731 1084.0
207.233124 120.0
207.491058 140.0
207.789337 88.0
208.007431 84.0
208.081909 280.0
208.113388 556.0
208.148117 280.0
208.283096 180.0
208.352036 96.0
208.533066 164.0
208.650925 60.0
208.978806 136.0
209.061615 200.0
209.100662 564.0
209.129257 768.0
209.28154 44.0
209.537354 60.0
209.58345 72.0
209.837082 180.0
209.874573 128.0
210.102585 420.0
210.132751 540.0
210.235153 60.0
210.801147 160.0
210.841614 152.0
210.983246 52.0
211.043961 192.0
211.102234 312.0
211.146317 872.0
211.234833 52.0
211.593689 76.0
211.666061 72.0
212.108582 528.0
212.144363 600.0
213.126785 584.0
213.741516 180.0
214.127396 664.0
214.154724 180.0
214.635773 140.0
215.055862 96.0
215.094513 496.0
215.145538 172.0
215.450073 84.0
215.663391 92.0
216.091995 420.0
216.149582 416.0
216.505997 72.0
216.772583 64.0
217.100433 1108.0
217.191818 220.0
217.391327 68.0
217.705444 140.0
218.109085 512.0
218.552017 64.0
218.690338 88.0
218.964142 44.0
219.115448 1208.0
219.158569 72.0
219.246979 36.0
219.783661 92.0
219.807266 220.0
219.866287 48.0
220.082764 260.0
220.121918 728.0
220.548553 160.0
220.752548 40.0
220.802826 152.0
221.018768 52.0
221.092041 300.0
221.129349 540.0
221.477646 120.0
221.607986 80.0
222.129303 544.0
222.513062 124.0
222.666992 160.0
222.773926 60.0
223.068115 132.0
223.109787 480.0
223.146912 960.0
223.603516 152.0
223.761276 160.0
223.836838 116.0
224.123474 356.0
224.144089 628.0
224.2677 44.0
224.583755 68.0
224.905991 100.0
225.121918 136.0
225.161697 976.0
225.58107 40.0
225.655807 72.0
225.742523 56.0
226.121231 500.0
226.160324 380.0
226.224243 48.0
226.370941 228.0
227.039215 108.0
227.1082 200.0
227.139542 276.0
227.148117 148.0
227.157104 176.0
227.231201 68.0
227.516312 176.0
228.096283 176.0
228.135971 380.0
228.167877 136.0
228.613403 120.0
229.101578 428.0
229.143341 412.0
229.178818 140.0
229.465836 36.0
230.113693 184.0
230.155106 144.0
230.609924 172.0
230.773163 196.0
231.074097 256.0
231.117371 1264.0
231.335876 60.0
231.466064 68.0
232.081177 360.0
232.120453 1004.0
232.175171 140.0
232.429993 204.0
232.63031 60.0
232.772995 32.0
233.067642 180.0
233.130081 1288.0
233.23175 36.0
233.268234 56.0
233.572311 100.0
233.809631 104.0
234.096817 144.0
234.138092 700.0
234.415649 100.0
234.564987 120.0
234.650345 52.0
234.815018 204.0
234.940079 68.0
235.108063 256.0
235.145264 1276.0
235.669754 136.0
235.847015 68.0
236.110748 380.0
236.145935 748.0
236.489334 72.0
236.911896 36.0
237.13353 304.0
238.121002 88.0
238.144211 288.0
239.138351 212.0
239.185974 124.0
239.424438 56.0
240.096283 176.0
240.116577 124.0
240.139664 316.0
240.172913 128.0
240.608505 108.0
241.101105 288.0
241.149231 144.0
241.356201 84.0
241.928574 96.0
242.109528 268.0
242.156647 180.0
242.185776 352.0
242.321899 60.0
242.712433 128.0
243.120026 324.0
243.159149 160.0
243.185974 180.0
243.212997 148.0
243.767838 64.0
243.823776 68.0
244.111816 164.0
244.170944 188.0
244.402176 156.0
244.470627 48.0
244.514191 64.0
244.732101 80.0
245.131424 836.0
245.613556 76.0
246.094696 128.0
246.137787 272.0
246.23204 168.0
246.34137 44.0
247.106613 272.0
247.141647 476.0
247.2043 156.0
247.717773 56.0
247.843094 100.0
247.918304 76.0
248.111725 248.0
248.14386 348.0
248.197296 124.0
249.050903 148.0
249.11058 76.0
249.158951 620.0
249.270813 64.0
249.846207 112.0
250.101089 128.0
250.128632 352.0
250.149185 240.0
251.138321 380.0
251.165421 400.0
252.103806 92.0
252.144608 272.0
252.168381 356.0
252.824844 80.0
252.853317 136.0
252.929291 56.0
253.097076 120.0
253.160065 232.0
253.455002 32.0
254.114502 108.0
254.155945 260.0
254.314438 36.0
255.119598 636.0
255.171143 384.0
255.868881 96.0
256.124146 132.0
256.163361 144.0
256.203278 60.0
257.143951 144.0
258.18811 192.0
259.102875 124.0
259.142487 296.0
259.748474 136.0
260.122681 168.0
260.156555 388.0
261.125397 204.0
261.15918 144.0
261.284027 36.0
262.131439 164.0
262.159088 272.0
262.388672 180.0
263.146606 316.0
263.179138 244.0
263.489197 228.0
263.68631 208.0
264.140991 368.0
264.175049 332.0
264.213379 160.0
264.274872 32.0
264.426971 76.0
264.498169 88.0
265.156647 168.0
265.196014 144.0
265.233459 164.0
265.275604 44.0
266.154572 600.0
267.151123 176.0
267.187012 176.0
267.927399 140.0
267.992554 184.0
268.178894 196.0
268.292389 148.0
268.432587 88.0
269.160278 272.0
270.144745 432.0
270.181702 504.0
270.219269 80.0
270.507263 84.0
271.109924 148.0
271.136139 128.0
271.185303 144.0
272.1492 140.0
272.189178 128.0
272.50119 80.0
273.073181 144.0
273.136353 156.0
273.168579 140.0
274.148407 328.0
275.183807 336.0
275.644623 52.0
276.080963 40.0
276.137177 44.0
276.17334 440.0
276.342285 128.0
276.385284 52.0
277.153412 172.0
277.200378 216.0
277.587708 56.0
277.836487 108.0
278.164948 144.0
278.190094 156.0
278.224762 48.0
279.130829 148.0
279.140259 104.0
279.169006 192.0
279.288116 160.0
280.057007 248.0
280.126953 112.0
280.169128 236.0
281.067139 104.0
281.184906 164.0
282.181091 600.0
282.222839 112.0
283.164703 604.0
283.457977 52.0
283.592041 32.0
284.178894 296.0
284.964539 80.0
285.159454 116.0
285.98349 156.0
286.143402 236.0
286.957031 140.0
287.048065 80.0
287.153778 220.0
288.13501 144.0
288.175446 152.0
288.445801 248.0
289.501404 100.0
290.15744 196.0
291.17157 160.0
292.166473 168.0
292.206421 568.0
292.257751 28.0
292.485779 116.0
292.635559 48.0
292.809235 60.0
292.925018 148.0
293.191803 340.0
293.306671 44.0
294.121918 232.0
294.149109 124.0
294.185913 424.0
295.192139 1180.0
295.406738 128.0
296.077606 44.0
296.171051 300.0
296.195862 860.0
296.804077 52.0
297.196381 404.0
297.225983 68.0
298.032898 120.0
298.20816 140.0
298.861542 72.0
298.906281 76.0
299.037048 116.0
299.128784 172.0
299.212616 116.0
299.450195 116.0
301.827942 200.0
302.186462 240.0
302.623749 56.0
303.16983 248.0
304.17688 112.0
305.135681 188.0
305.180878 148.0
305.326935 136.0
305.612183 96.0
306.144775 132.0
308.024689 152.0
308.167908 164.0
308.996521 32.0
309.178497 296.0
310.096069 160.0
310.134644 220.0
310.216644 3716.0
310.383545 28.0
310.583435 84.0
311.216919 576.0
311.313446 40.0
311.434418 108.0
311.541748 72.0
311.703369 80.0
311.854492 92.0
312.111115 80.0
312.209595 52.0
312.301025 36.0
312.399506 56.0
312.937988 68.0
314.037445 96.0
314.291443 28.0
316.139557 56.0
318.337433 76.0
320.062042 120.0
320.200958 416.0
320.703308 32.0
321.177124 212.0
321.555725 52.0
321.58786 56.0
322.150787 148.0
322.164398 96.0
323.186768 104.0
323.231781 196.0
326.154663 180.0
326.187012 80.0
327.878693 76.0
327.979614 36.0
328.186768 188.0
328.76947 100.0
329.780701 84.0
332.137848 116.0
336.165375 84.0
336.461029 152.0
336.658203 84.0
337.538879 44.0
337.68515 116.0
337.887024 64.0
338.209869 4488.0
338.277588 176.0
338.321869 56.0
338.691711 80.0
338.728333 56.0
338.955475 60.0
339.047089 108.0
339.120392 60.0
339.160706 44.0
339.216461 1196.0
339.373352 96.0
339.846497 72.0
340.206177 148.0
340.330261 60.0
341.841736 72.0
342.12146 76.0
343.529205 88.0
344.267395 92.0
353.325806 64.0
368.166321 52.0
382.151764 60.0
384.751343 84.0
387.543823 44.0
406.856079 60.0
428.860718 56.0
466.392914 56.0
466.474579 72.0
468.234406 88.0
469.587708 80.0
475.020447 100.0
475.163605 68.0
480.043884 76.0
481.300598 96.0
495.263885 84.0
498.022766 92.0
499.391754 52.0
508.901398 92.0
516.716675 116.0
524.782959 104.0
542.108093 40.0
568.359985 48.0
580.543213 60.0
660.799194 56.0
710.918457 40.0
713.22876 60.0
722.165161 72.0
732.503235 180.0
745.787292 72.0
753.219543 156.0
789.987793 80.0
809.784729 88.0
813.390869 132.0
815.873352 60.0
825.818115 232.0
826.109802 120.0
836.243225 200.0
852.581665 204.0
858.018188 132.0
860.579468 104.0
860.818909 168.0
863.396057 44.0
875.721008 80.0
888.720581 136.0
889.569275 108.0
890.768799 64.0
895.205688 140.0
898.674866 212.0
929.701477 176.0
937.613525 156.0
937.704956 152.0
941.682922 60.0
944.127563 184.0
948.253906 128.0
950.351135 124.0
950.713196 212.0
955.450562 104.0
956.552124 124.0
961.575562 192.0
965.436768 132.0
967.330078 156.0
969.002136 192.0
973.95874 112.0
975.077148 144.0
978.423645 60.0
978.554382 140.0
985.052673 180.0
985.377502 184.0
987.090149 64.0
991.685303 136.0
994.024475 196.0
995.204529 148.0
996.247131 188.0
1010.292725 132.0
1012.311768 128.0
1013.16687 128.0
1016.933472 192.0
1023.723328 160.0
1029.890503 140.0
1033.489746 164.0
1036.012207 48.0
1039.365356 192.0
1042.653198 200.0
1043.611084 180.0
1046.577271 156.0
1049.405762 128.0
1049.637939 136.0
1050.57959 220.0
1050.779541 148.0
1060.025757 136.0
1067.250244 212.0
1069.950317 208.0
1072.940674 124.0
1073.540527 192.0
1073.599243 76.0
1079.483032 184.0
1080.640747 256.0
1081.772949 160.0
1084.30127 32.0
1084.983032 204.0
1088.597534 136.0
1089.314209 108.0
1092.232788 184.0
1099.605591 176.0
1101.289307 140.0
1108.652832 152.0
1117.677246 156.0
1119.661011 232.0
1120.120605 180.0
1121.106567 128.0
1121.399902 192.0
1123.366943 168.0
1125.068604 136.0
1127.814087 140.0
1128.121582 136.0
1134.581787 44.0
1136.29187 148.0
1147.833862 112.0
1148.18457 180.0
1150.58667 148.0
1151.721191 216.0
1152.011597 92.0
1152.538574 132.0
1152.863037 192.0
1153.187378 172.0
1157.09729 148.0
1158.424561 260.0
1159.901855 128.0
1161.495361 188.0
1163.144165 52.0
1168.533203 176.0
1170.663696 56.0
1178.555908 192.0
1179.587891 168.0
1179.950195 128.0
1180.880249 204.0
1181.762695 144.0
1182.837158 176.0
1183.316284 216.0
1184.206543 104.0
1185.34375 112.0
1185.864624 144.0
1187.73645 232.0
1192.041138 180.0
1192.178589 160.0
1196.484375 80.0
1199.053711 228.0
1200.025635 132.0
1203.144043 48.0
1203.323608 184.0
1203.744751 164.0
1204.469971 180.0
1209.83606 128.0
1211.698975 132.0
1215.984375 84.0
1217.095093 80.0
1219.324951 112.0
1219.658569 232.0
1223.310547 212.0
1223.637695 140.0
1226.584473 112.0
1227.679077 136.0
1228.07666 260.0
1228.73938 132.0
1231.028809 144.0
1231.5177 156.0
1234.788574 112.0
1236.25769 164.0
1237.146606 196.0
1238.981445 140.0
1240.207764 168.0
1240.936768 164.0
1241.609985 184.0
1243.125244 152.0
1243.925415 140.0
1246.334351 144.0
1248.091553 64.0
1248.288452 152.0
1249.934448 104.0
1251.363281 120.0
1251.539307 152.0
1253.088867 204.0
1253.631348 144.0
1253.715942 160.0
1254.597046 148.0
1255.619385 116.0
1258.067871 168.0
1258.329102 104.0
1258.477295 236.0
1259.155273 216.0
1261.211304 156.0
1262.087891 84.0
1262.335327 96.0
1262.780884 184.0
1263.438721 212.0
1263.813721 140.0
1264.946045 160.0
1266.333862 156.0
1267.049316 48.0
1267.672852 164.0
1270.168457 276.0
1272.07019 88.0
1272.396729 56.0
1274.697998 116.0
1274.761963 184.0
1276.105469 212.0
1276.667114 160.0
1277.50647 228.0
1279.655762 104.0
1279.8479 160.0
1282.718994 236.0
1283.089722 132.0
1284.237793 156.0
1290.60791 68.0
1292.381714 156.0
1292.474365 76.0
1293.104492 156.0
1295.28833 172.0
1295.410156 200.0
1298.578247 176.0
1299.166504 136.0
1299.848145 192.0
1301.269287 132.0
1301.829346 188.0
1302.066284 80.0
1304.026001 208.0
1305.364868 188.0
1305.587769 144.0
1309.272461 156.0
1310.244873 244.0
1310.40332 208.0
1310.525879 164.0
1310.965454 120.0
1311.44104 236.0
1313.048828 244.0
1315.588745 252.0
1316.346802 196.0
1316.411865 156.0
1317.560303 176.0
1322.528198 208.0
1323.252075 48.0
1324.417969 200.0
1326.780273 136.0
1326.947021 128.0
1327.556152 120.0
1328.1073 128.0
1328.397461 212.0
1329.3479 140.0
1329.420532 160.0
1331.932495 152.0
1333.719971 164.0
1334.905029 184.0
1336.07605 188.0
1336.403442 204.0
1336.78186 148.0
1337.269409 140.0
1338.36145 116.0
1338.980347 64.0
1340.444702 200.0
1343.382935 212.0
1345.857056 120.0
1347.544189 184.0
1349.334839 144.0
1349.466431 144.0
1349.656494 172.0
1350.248901 180.0
1350.519531 124.0
1353.183228 152.0
1355.285278 124.0
1355.812866 180.0
1357.249634 160.0
1357.308228 120.0
1358.415771 152.0
1359.362183 84.0
1359.442871 140.0
1360.24292 200.0
1360.786133 124.0
1361.226685 100.0
1362.019897 136.0
1362.438599 220.0
1362.857422 132.0
1362.938232 184.0
1364.025879 136.0
1364.106812 176.0
1364.841919 84.0
1364.9375 56.0
1366.217285 96.0
1366.430664 112.0
1367.394653 128.0
1369.242554 108.0
1375.155518 152.0
1375.325195 160.0
1377.252319 160.0
1377.37793 192.0
1377.717773 152.0
1377.90979 152.0
1378.0354 164.0
1378.109253 508.0
1378.220093 128.0
1379.262207 132.0
1379.424805 56.0
1380.21582 92.0
1380.593018 144.0
1381.547119 204.0
1383.078857 132.0
1383.817749 168.0
1384.426392 180.0
1384.559692 72.0
1386.240112 152.0
1387.97583 264.0
1392.829468 144.0
1393.891846 160.0
1395.772461 128.0
1398.852661 196.0
1399.016357 36.0
1399.485474 120.0
1400.811035 216.0
1401.08667 68.0
1403.934082 156.0
1404.396484 128.0
1405.097656 168.0
1406.396118 196.0
1406.769287 192.0
1407.008179 180.0
1407.299316 152.0
1408.591309 36.0
1409.226318 152.0
1411.154663 208.0
1411.221924 200.0
1411.401367 192.0
1412.306274 120.0
1413.39856 224.0
1413.49585 208.0
1414.798096 156.0
1415.045166 232.0
1421.387451 244.0
1423.075073 152.0
1424.269165 208.0
1425.674072 220.0
1426.470825 172.0
1426.794067 116.0
1426.884277 56.0
1428.305542 136.0
1429.313599 152.0
1429.599609 252.0
1431.105103 152.0
1433.153809 128.0
1433.470215 80.0
1433.605835 88.0
1434.020386 100.0
1435.490479 236.0
1436.470947 148.0
1436.878296 180.0
1437.119751 164.0
1437.83667 160.0
1438.380005 112.0
1438.734863 164.0
1439.218018 144.0
1439.935425 80.0
1440.479248 148.0
1441.582397 380.0
1442.602661 204.0
1443.026123 184.0
1443.192383 228.0
1445.060547 148.0
1445.287598 180.0
1445.665894 168.0
1446.407593 144.0
1446.581787 72.0
1447.157104 164.0
1447.929443 180.0
1448.664185 140.0
1449.0354 164.0
1450.338867 176.0
1452.0979 152.0
1453.258545 168.0
1453.531616 200.0
1454.237427 116.0
1454.396851 164.0
1454.829468 164.0
1455.133179 116.0
1455.748291 164.0
1456.112793 160.0
1457.320557 216.0
1458.331299 152.0
1460.087524 168.0
1460.696045 184.0
1461.157104 268.0
1462.095947 112.0
1463.07959 160.0
1464.951294 84.0
1465.210327 148.0
1465.636963 76.0
1468.274536 116.0
1468.602539 88.0
1469.296631 160.0
1470.609131 156.0
1471.548096 48.0
1471.601562 152.0
1471.830566 244.0
1472.907471 164.0
1473.610229 140.0
1474.083984 156.0
1474.236816 216.0
1474.328491 184.0
1477.639404 188.0
1478.197998 184.0
1478.458252 220.0
1479.552734 136.0
1480.854492 184.0
1481.206787 160.0
1481.413696 132.0
1482.325439 196.0
1482.532349 148.0
1483.827759 116.0
1485.591553 168.0
1487.064819 116.0
1488.055054 76.0
1488.853638 200.0
1489.395264 232.0
1490.290161 252.0
1490.374634 72.0
1492.473022 140.0
1492.895996 160.0
1494.195801 84.0
1495.334717 184.0
1497.028442 116.0
1497.151611 164.0
1497.983398 244.0
1498.045044 160.0
1498.414795 144.0
1499.886719 112.0
1500.066772 136.0
1500.141113 72.0
1501.143433 164.0
1501.914673 44.0
1502.053467 148.0
1503.318848 196.0
1504.252686 160.0
1504.53833 192.0
1504.615479 104.0
