>compound MLS002473407-01!5-hydroxy-2-(2-phenylethyl)chromen-4-one
>formula C17H14O3
>ionization [M+H]+
>parentmass 267.099762
#inchi InChI=1S/C17H14O3/c18-14-7-4-8-16-17(14)15(19)11-13(20-16)10-9-12-5-2-1-3-6-12/h1-8,11,18H,9-10H2
#inchikey OLLHYYCQHNBTQC
#Ion_Source LC-ESI
#Instrument qTof
#Compound_Source NIH Natural Product Library
#PI Dorrestein
#Data_Collector VVP/LMS
#Scan -1
#Precursor_MZ 267.102
#ExactMass 266.094
#Charge 1
#CAS_Number N/A
#Pubmed_ID N/A
#Smiles Oc1cccc2OC(=CC(=O)c12)CCc3ccccc3
#INCHI_AUX N/A
#Library_Class 1
#SpectrumID CCMSLIB00000079457
#IonMode Positive
#UpdateWorkflowName UPDATE-SINGLE-ANNOTATED-GOLD
#LibraryQualityString Gold
#TaskID b1d8e8f6646f4e71acdff9ca3d919d08
##Scan# 2565
#SpectrumFile p1-F06_GF6_01_17938.mzXML
#LibraryName NIH_Natural_Products_Library.mgf
#MQScore -1
#Organism NIH_Natural_Products_Library
#TIC_Query 0
#RT_Query -1
#MZErrorPPM -1
#SharedPeaks 0
#MassDiff 0
#LibMZ -1
#SpecMZ 267.102
#SpecCharge 0
#internalFilename spec-00000.mgf

>collision 10
95.187584 184.0
95.670715 156.0
95.685333 144.0
95.802177 128.0
95.983437 212.0
96.016586 48.0
96.118027 160.0
96.26638 212.0
96.346466 180.0
96.410942 188.0
96.446121 216.0
96.549744 180.0
96.72583 168.0
97.313957 188.0
97.38269 176.0
97.410187 140.0
97.671616 176.0
97.787704 188.0
98.256691 168.0
98.353378 156.0
98.768837 216.0
98.827675 116.0
98.843506 208.0
98.96553 148.0
98.983444 444.0
99.001869 36.0
99.138557 112.0
99.328888 96.0
99.954704 48.0
100.06617 180.0
100.371437 172.0
100.63839 204.0
100.652367 164.0
100.670334 176.0
100.710281 220.0
100.728256 232.0
100.764214 116.0
100.960106 148.0
100.974106 200.0
101.262299 188.0
101.615105 164.0
101.707413 200.0
101.908234 164.0
102.006706 120.0
102.042892 120.0
102.195755 220.0
102.308456 84.0
102.36483 148.0
102.443382 164.0
102.511887 148.0
102.717529 184.0
103.018303 88.0
103.048462 164.0
103.627258 268.0
103.669807 180.0
103.96994 144.0
104.156731 164.0
104.309128 236.0
104.5532 236.0
104.589836 180.0
104.905571 144.0
105.015678 168.0
105.174828 200.0
105.34227 140.0
105.417862 208.0
105.925255 124.0
105.96418 124.0
105.996964 240.0
106.191719 168.0
106.265564 204.0
106.608475 176.0
106.690689 156.0
107.012726 296.0
107.186714 52.0
107.650841 168.0
107.797508 212.0
107.840912 160.0
108.019653 368.0
108.122185 96.0
109.026489 164.0
109.049248 168.0
109.146957 128.0
109.228065 140.0
109.280075 120.0
109.419518 176.0
109.602798 148.0
110.032455 160.0
110.2267 100.0
110.316574 196.0
110.339569 200.0
110.467133 116.0
110.684799 180.0
111.19001 156.0
111.349564 108.0
111.706886 152.0
112.315643 152.0
112.687187 180.0
112.742126 152.0
113.222351 276.0
113.273186 188.0
113.317673 128.0
113.360054 32.0
114.126328 176.0
114.443359 96.0
114.773621 180.0
114.850388 128.0
115.05098 336.0
115.444122 168.0
116.069397 156.0
116.125153 208.0
116.247437 224.0
116.754417 68.0
116.799583 136.0
117.15477 84.0
117.245262 88.0
117.525597 140.0
117.849464 144.0
118.225716 100.0
118.388077 116.0
118.531044 152.0
118.791214 120.0
118.927917 132.0
119.201553 176.0
119.64743 156.0
119.84127 204.0
119.904465 128.0
120.288345 160.0
120.554802 160.0
120.849998 164.0
120.900322 160.0
120.922211 196.0
120.970314 192.0
121.051369 40.0
121.077652 160.0
121.189369 128.0
121.397606 136.0
121.487534 168.0
121.853699 192.0
122.639763 112.0
123.821793 168.0
124.045578 256.0
124.302849 128.0
124.382744 232.0
124.524849 144.0
124.982788 124.0
125.37471 184.0
125.470558 180.0
126.135796 140.0
126.601166 132.0
126.645164 204.0
126.74453 164.0
126.852104 172.0
127.04496 152.0
127.080856 152.0
127.543472 136.0
127.613159 68.0
127.817841 248.0
128.060974 248.0
128.347473 152.0
128.681107 144.0
129.060684 180.0
129.338943 212.0
129.436295 40.0
129.472321 228.0
129.554062 160.0
129.626572 144.0
129.828323 152.0
129.962158 464.0
130.052933 156.0
130.071091 164.0
130.311813 124.0
131.08316 252.0
131.21991 216.0
131.295166 64.0
131.343063 216.0
131.386398 120.0
131.422897 140.0
131.582672 140.0
131.616913 188.0
131.725433 156.0
132.08313 212.0
132.22728 204.0
132.257034 144.0
132.568512 200.0
133.928604 168.0
133.949326 140.0
134.034576 336.0
134.117538 180.0
134.235107 176.0
134.350433 80.0
134.638962 204.0
134.809906 192.0
135.045715 156.0
135.189163 120.0
135.578217 144.0
135.919098 208.0
136.015182 1384.0
136.039322 220.0
136.132645 40.0
136.520737 164.0
136.698898 176.0
136.72197 112.0
136.741745 48.0
136.77803 236.0
136.8302 136.0
136.916885 52.0
136.934982 172.0
136.949646 152.0
136.977692 376.0
137.022781 36544.0
137.091751 164.0
137.116714 84.0
137.142426 160.0
137.186142 56.0
137.201889 88.0
137.239822 108.0
137.2659 204.0
137.282227 60.0
137.326782 68.0
137.347534 52.0
137.376984 64.0
137.408188 28.0
137.445511 52.0
137.485184 32.0
137.550537 48.0
137.632416 56.0
137.701218 128.0
137.727997 220.0
137.763031 52.0
137.795746 44.0
137.832657 220.0
137.989731 160.0
138.025848 2404.0
138.059357 232.0
138.368744 32.0
138.389816 48.0
138.453033 28.0
138.809235 316.0
138.835022 172.0
138.872559 128.0
138.928848 136.0
139.026413 312.0
139.086761 164.0
139.130676 132.0
139.14711 76.0
139.222244 44.0
139.259811 220.0
139.295059 112.0
139.313843 216.0
139.443085 36.0
139.972382 124.0
140.670258 88.0
140.767044 148.0
140.925308 52.0
141.062378 180.0
141.445587 164.0
141.533173 180.0
141.966812 140.0
141.992905 164.0
142.23967 128.0
142.45575 204.0
142.565048 168.0
142.638733 204.0
142.897934 160.0
142.962189 104.0
143.119293 132.0
143.477798 176.0
144.027908 124.0
144.183197 48.0
144.604126 152.0
145.299026 200.0
146.041306 188.0
146.09903 160.0
146.306 100.0
146.35173 36.0
146.727585 136.0
146.927765 224.0
147.042419 1056.0
147.07254 40.0
147.108749 156.0
148.049728 388.0
149.138641 132.0
149.488846 116.0
150.219772 144.0
150.857117 88.0
150.969589 140.0
151.569321 164.0
152.460098 156.0
152.661682 136.0
152.870773 128.0
153.205627 156.0
153.935699 120.0
154.023712 144.0
154.148132 164.0
154.489334 184.0
154.9944 220.0
155.272049 52.0
155.656693 108.0
155.731201 160.0
156.113922 156.0
156.235794 28.0
156.903229 172.0
157.059448 304.0
157.422211 188.0
158.620636 152.0
159.65506 188.0
159.808502 192.0
160.861938 56.0
161.053848 108.0
162.527222 220.0
163.037201 484.0
163.113876 176.0
163.179977 64.0
164.0392 308.0
164.474091 212.0
164.798416 204.0
165.088943 224.0
166.042496 148.0
166.106613 156.0
167.255203 180.0
167.283524 184.0
168.11087 28.0
168.281219 156.0
171.312958 248.0
171.782196 168.0
171.983109 136.0
172.090134 116.0
172.827209 240.0
172.876923 140.0
172.922897 212.0
173.031357 184.0
173.437393 164.0
173.55275 156.0
173.775681 232.0
174.261673 192.0
174.888504 140.0
175.005737 124.0
175.037338 404.0
175.208527 120.0
175.303391 168.0
175.358734 124.0
175.569641 88.0
175.66626 184.0
175.712082 172.0
175.814987 120.0
175.920563 56.0
175.94696 116.0
175.968079 152.0
175.989212 172.0
176.046234 55940.0
176.115967 48.0
176.138779 84.0
176.215103 92.0
176.269196 64.0
176.295624 52.0
176.341675 196.0
176.361694 36.0
176.391937 36.0
176.454208 64.0
176.480545 64.0
176.521103 216.0
176.553452 128.0
176.578491 292.0
176.602295 52.0
176.642075 64.0
176.665588 56.0
176.705811 60.0
176.784851 84.0
176.829834 56.0
176.856308 104.0
176.874832 64.0
176.896011 48.0
176.970245 92.0
177.020447 208.0
177.04953 5620.0
177.139633 52.0
177.197906 32.0
177.240295 76.0
177.259018 64.0
177.285233 92.0
177.486816 48.0
177.516891 100.0
177.545151 64.0
177.725525 60.0
177.830917 112.0
177.86087 48.0
177.951126 76.0
178.048798 988.0
178.094818 152.0
178.134369 76.0
178.155624 116.0
178.186554 56.0
178.211426 200.0
178.285522 36.0
178.333664 40.0
178.421249 92.0
178.462204 136.0
178.514435 84.0
178.556992 80.0
178.588913 28.0
178.962173 56.0
179.118591 92.0
179.198517 92.0
179.31842 84.0
179.507706 68.0
179.601044 80.0
179.897247 28.0
181.443512 104.0
182.412628 48.0
182.53093 104.0
184.731705 108.0
186.024307 76.0
186.211655 164.0
187.092667 32.0
187.749329 44.0
188.041245 172.0
189.05249 1116.0
189.537109 72.0
189.945602 260.0
189.970291 136.0
190.053345 164.0
190.080032 96.0
196.01149 140.0
196.678024 64.0
198.521744 44.0
202.07933 120.0
202.736267 104.0
202.756104 112.0
203.002747 160.0
205.33757 148.0
206.854767 172.0
208.081741 76.0
208.492508 20.0
209.479401 56.0
210.737228 48.0
211.240265 60.0
212.079987 200.0
214.125397 128.0
221.098206 136.0
222.479462 172.0
222.610092 64.0
224.067551 60.0
224.136078 128.0
227.638885 180.0
230.536835 208.0
231.078079 144.0
231.598755 180.0
234.558289 104.0
235.067627 168.0
236.491776 236.0
237.131897 124.0
237.766739 96.0
238.138229 128.0
241.142227 164.0
241.584396 40.0
242.935043 148.0
247.065903 172.0
247.194183 120.0
249.100403 144.0
250.00473 180.0
250.131805 236.0
255.11409 64.0
255.362106 64.0
255.543427 208.0
259.997864 56.0
260.293182 128.0
260.884369 168.0
261.611389 92.0
264.222168 100.0
265.06723 132.0
265.835754 140.0
266.007782 124.0
266.167969 140.0
266.306519 84.0
266.348724 80.0
266.407196 152.0
266.494934 124.0
266.686646 164.0
266.738647 144.0
266.806915 40.0
266.868713 124.0
266.91748 152.0
266.962433 112.0
267.099762 8804.0
267.166168 172.0
267.257141 180.0
267.295898 96.0
267.330597 40.0
267.366394 92.0
267.441254 44.0
267.506348 40.0
267.532379 136.0
267.712097 188.0
267.936218 72.0
268.102905 1428.0
268.183868 60.0
268.516418 48.0
268.568604 36.0
268.976471 80.0
269.107452 348.0
269.205017 104.0
269.704895 68.0
269.861786 72.0
270.093994 116.0
270.463715 100.0
270.853394 40.0
270.925446 44.0
279.633087 104.0
279.892731 44.0
286.345947 36.0
295.535492 96.0
299.982971 64.0
314.297028 28.0
334.465302 48.0
338.792542 52.0
338.818176 104.0
340.593628 84.0
343.387238 72.0
355.962585 56.0
361.37149 44.0
374.269012 36.0
391.918579 144.0
392.111664 60.0
402.669159 52.0
405.798401 112.0
411.144287 48.0
417.561615 76.0
421.887878 68.0
441.136475 56.0
459.623169 108.0
473.643005 48.0
475.542114 80.0
481.546112 52.0
497.224426 104.0
499.677277 68.0
541.14978 152.0
553.095398 72.0
629.119263 84.0
632.853882 188.0
633.029114 32.0
640.451965 76.0
678.085571 184.0
707.430054 148.0
783.577332 180.0
789.544434 60.0
789.963867 148.0
797.539429 140.0
812.957825 148.0
820.51709 132.0
830.989075 156.0
860.980286 172.0
861.050354 160.0
879.321106 164.0
880.543213 116.0
884.291565 100.0
884.599365 204.0
894.756714 100.0
908.058167 144.0
914.312317 188.0
915.787415 196.0
927.303223 224.0
931.963745 172.0
949.047974 148.0
954.272949 180.0
960.141235 136.0
960.529846 92.0
961.819458 124.0
964.469299 200.0
974.837891 200.0
992.465637 84.0
1004.086609 100.0
1022.274719 152.0
1033.33252 156.0
1038.995972 176.0
1041.583008 64.0
1042.251099 188.0
1043.755249 116.0
1047.900269 176.0
1048.909302 212.0
1051.259644 176.0
1056.279785 200.0
1060.106079 188.0
1067.597534 180.0
1069.399658 180.0
1071.294434 164.0
1077.779541 108.0
1080.460083 148.0
1083.163696 168.0
1086.61853 252.0
1086.723511 216.0
1089.467773 92.0
1090.262817 112.0
1090.670288 212.0
1091.182129 148.0
1092.708862 200.0
1096.178833 180.0
1097.398193 176.0
1097.530029 160.0
1101.740845 144.0
1106.740845 180.0
1111.254517 152.0
1112.030884 156.0
1116.209473 164.0
1120.182739 164.0
1120.662476 132.0
1125.337891 236.0
1131.087158 152.0
1132.814819 136.0
1134.88562 144.0
1142.757324 128.0
1145.793823 212.0
1149.58313 168.0
1152.561035 148.0
1155.406494 120.0
1158.961914 128.0
1160.697144 180.0
1164.198608 184.0
1167.950195 132.0
1168.378784 36.0
1170.515869 116.0
1176.884521 124.0
1181.285767 176.0
1182.558472 188.0
1182.921143 128.0
1186.359985 268.0
1188.870361 164.0
1190.552246 76.0
1195.391846 208.0
1205.445801 156.0
1207.021851 156.0
1213.939575 160.0
1217.096802 156.0
1230.590454 168.0
1230.779053 56.0
1232.581177 188.0
1233.846191 172.0
1236.658203 192.0
1237.988403 140.0
1238.289551 188.0
1240.643921 160.0
1240.868286 228.0
1241.969238 180.0
1245.204834 204.0
1246.012695 152.0
1248.901855 112.0
1249.957031 220.0
1250.646729 240.0
1257.504639 188.0
1257.991699 152.0
1261.990356 184.0
1262.69043 232.0
1264.197266 188.0
1265.074951 196.0
1268.354614 216.0
1270.659424 164.0
1271.390259 44.0
1273.065552 200.0
1273.988892 104.0
1274.223389 68.0
1274.92688 144.0
1284.27478 144.0
1288.343628 156.0
1288.579346 224.0
1290.830811 160.0
1293.556763 196.0
1293.707031 236.0
1293.957642 220.0
1296.407227 180.0
1301.636719 184.0
1309.093628 128.0
1309.266479 168.0
1313.143799 208.0
1315.741455 80.0
1315.900269 104.0
1316.023071 176.0
1318.435669 184.0
1321.161621 124.0
1322.110229 184.0
1322.970825 196.0
1323.933838 204.0
1325.672363 104.0
1328.471069 204.0
1330.183594 100.0
1331.432495 188.0
1332.064331 80.0
1333.830078 96.0
1334.949707 164.0
1335.6698 160.0
1336.622803 140.0
1337.838257 140.0
1338.966797 96.0
1340.970337 184.0
1341.108887 184.0
1341.794067 108.0
1342.763916 144.0
1343.814331 160.0
1346.485962 196.0
1350.732544 176.0
1351.339722 252.0
1352.269043 152.0
1352.532593 168.0
1352.98645 192.0
1355.308105 104.0
1355.652466 168.0
1363.056641 168.0
1363.409424 92.0
1370.643066 120.0
1371.158813 80.0
1371.741089 112.0
1373.289551 276.0
1374.477295 192.0
1375.886963 172.0
1381.636597 108.0
1383.664429 116.0
1383.982788 132.0
1384.552979 112.0
1385.701172 212.0
1386.041992 60.0
1392.29541 48.0
1394.249268 176.0
1396.747437 136.0
1396.83667 180.0
1397.364868 136.0
1403.877197 188.0
1403.986816 244.0
1404.740112 100.0
1405.19519 180.0
1406.292114 112.0
1411.79834 116.0
1412.793091 200.0
1413.765747 200.0
1414.619019 132.0
1415.712158 144.0
1415.839478 168.0
1418.844116 124.0
1419.811401 144.0
1420.688965 108.0
1422.137207 144.0
1424.975708 224.0
1425.201172 104.0
1425.674561 100.0
1426.89978 76.0
1429.419434 192.0
1430.842041 156.0
1431.888672 200.0
1432.016724 152.0
1432.664429 160.0
1433.591187 128.0
1436.222412 72.0
1436.614624 192.0
1438.946655 180.0
1439.399658 192.0
1440.109497 184.0
1441.136963 196.0
1441.628052 164.0
1447.112061 116.0
1447.377075 132.0
1448.240356 124.0
1448.800903 184.0
1449.050903 236.0
1451.536987 220.0
1458.126343 120.0
1458.415161 224.0
1459.418701 160.0
1464.403076 60.0
1465.858154 144.0
1468.701904 280.0
1471.510132 184.0
1471.617065 136.0
1472.098022 180.0
1474.137695 176.0
1475.207642 148.0
1475.536377 120.0
1479.721313 120.0
1480.908203 240.0
1481.344849 172.0
1486.458618 188.0
1493.019043 228.0
1493.711304 172.0
1495.150024 164.0
1496.273804 164.0
1498.730835 144.0
1499.432007 164.0
1499.663208 136.0
1500.642212 184.0
1500.996948 128.0
1503.820435 208.0
1503.997925 132.0
1504.195679 156.0
