>compound NCGC00160259-01!8-(4-Methoxy-2,3,6-trimethyl-phenyl)-6-methyl-octa-3,5-dien-2-one
>formula C19H26O2
>ionization [M+H]+
>parentmass 287.201
#inchi InChI=1S/C19H26O2/c1-13(8-7-9-15(3)20)10-11-18-14(2)12-19(21-6)17(5)16(18)4/h7-9,12H,10-11H2,1-6H3/b9-7+,13-8+
#inchikey ADLAXAQVHBFING
#Ion_Source LC-ESI
#Instrument qTOF
#Compound_Source Prestwick Phytochem Lib
#PI Dorrestein
#Data_Collector VVP/LMS
#Scan -1
#Precursor_MZ 287.201
#ExactMass 286.193
#Charge 1
#CAS_Number N/A
#Pubmed_ID N/A
#Smiles COC1=C(C)C(C)=C(CC\C(C)=C\C=C\C(C)=O)C(C)=C1
#INCHI_AUX N/A
#Library_Class 1
#SpectrumID CCMSLIB00000078772
#IonMode Positive
#UpdateWorkflowName UPDATE-SINGLE-ANNOTATED-GOLD
#LibraryQualityString Gold
#TaskID 67c915c6594c435cadc1fe2b5358144d
##Scan# 2740
#SpectrumFile p1-G03_GG3_01_17947.mzXML
#LibraryName phytochem_lib.mgf
#MQScore -1
#Organism phytochem_lib
#TIC_Query 0
#RT_Query -1
#MZErrorPPM -1
#SharedPeaks 0
#MassDiff 0
#LibMZ -1
#SpecMZ 287.201
#SpecCharge 0
#internalFilename spec-00000.mgf

>collision 10
95.0159 164.0
95.049744 164.0
95.142044 180.0
95.276917 116.0
95.349884 84.0
95.449028 60.0
95.480141 56.0
95.547646 68.0
96.00206 152.0
96.083977 76.0
96.17765 132.0
96.607544 92.0
96.697556 212.0
96.74649 224.0
96.771942 148.0
96.824806 184.0
96.867897 232.0
97.156067 176.0
97.211006 184.0
97.377876 164.0
97.428955 176.0
97.49379 156.0
97.533104 176.0
97.845879 116.0
97.873444 124.0
97.899048 176.0
97.924644 160.0
98.226219 244.0
98.532204 212.0
98.571724 168.0
98.791183 108.0
99.092102 144.0
99.167404 188.0
99.262566 128.0
99.504631 128.0
99.530441 144.0
99.609886 156.0
99.798683 48.0
99.874252 152.0
99.947327 192.0
100.017517 156.0
100.075249 108.0
100.172836 204.0
100.218658 152.0
100.366158 180.0
100.521744 144.0
100.591599 108.0
100.651489 176.0
100.665466 96.0
100.783318 192.0
100.915237 92.0
101.889282 220.0
102.038002 128.0
102.140564 60.0
102.208961 136.0
102.374031 124.0
102.508995 164.0
102.575508 396.0
102.638 188.0
102.781219 28.0
103.053574 1268.0
103.409706 184.0
103.549408 164.0
104.056282 224.0
104.187294 188.0
104.357056 200.0
104.45874 168.0
104.519539 212.0
104.764091 112.0
104.778351 48.0
104.912857 184.0
104.929161 188.0
105.030579 208.0
105.06945 8020.0
105.116302 148.0
105.161713 96.0
105.225853 104.0
105.249496 280.0
105.280121 280.0
105.351616 68.0
105.779007 72.0
105.926437 80.0
105.944878 72.0
106.072052 776.0
106.143684 52.0
106.182648 36.0
106.233925 164.0
106.259163 160.0
106.377571 56.0
106.521111 80.0
106.585007 148.0
106.638435 164.0
106.658989 64.0
106.724777 176.0
106.797676 124.0
106.833778 96.0
106.911964 208.0
106.928429 120.0
106.963425 80.0
106.998421 132.0
107.047836 212.0
107.085625 456.0
107.134338 104.0
107.202332 40.0
107.311584 76.0
107.441513 144.0
107.887589 148.0
108.079933 156.0
108.502449 36.0
108.558434 192.0
109.094116 40.0
109.38118 144.0
109.429062 68.0
109.537354 236.0
109.996109 180.0
110.019073 64.0
110.119301 156.0
110.211212 84.0
110.483009 68.0
110.868279 148.0
110.981293 140.0
111.008736 200.0
111.08004 168.0
111.144028 164.0
111.493668 188.0
111.743896 160.0
112.268387 240.0
112.47937 192.0
112.582825 156.0
112.853302 164.0
113.100815 64.0
113.128334 104.0
113.611504 88.0
113.66243 184.0
113.802521 236.0
113.878967 164.0
114.333939 204.0
114.391411 180.0
114.625687 196.0
114.832474 184.0
114.860207 84.0
115.053787 1292.0
115.193199 60.0
115.712875 64.0
115.849937 60.0
115.914207 132.0
115.952782 132.0
116.023521 108.0
116.063141 508.0
116.407585 132.0
116.658966 240.0
116.919228 192.0
117.06752 1764.0
117.093613 172.0
117.158226 108.0
117.17762 76.0
117.533379 104.0
117.613228 176.0
117.630493 60.0
117.893997 180.0
118.077423 1972.0
118.261658 172.0
118.361244 120.0
118.81958 224.0
119.016075 184.0
119.057335 36.0
119.08432 1248.0
119.311562 160.0
119.498596 100.0
119.711914 140.0
119.807747 152.0
120.003891 160.0
120.047501 168.0
120.093468 720.0
120.178383 204.0
120.254761 132.0
120.276993 212.0
120.455643 184.0
120.479668 76.0
120.56707 88.0
120.612968 148.0
120.925743 128.0
121.061378 140.0
121.383606 84.0
121.469139 144.0
121.743492 272.0
121.97419 120.0
122.013756 208.0
122.068726 172.0
122.323944 200.0
122.583832 76.0
122.71608 80.0
122.760185 216.0
123.080025 148.0
123.141975 204.0
123.228127 136.0
123.356308 124.0
123.857857 152.0
124.144516 184.0
124.408554 144.0
125.220154 148.0
125.623596 176.0
125.71508 148.0
125.786499 164.0
126.199799 44.0
126.251228 208.0
126.595856 140.0
126.732498 172.0
126.824379 180.0
126.878181 152.0
127.760765 192.0
127.792267 236.0
128.061356 392.0
128.594498 124.0
128.854187 196.0
128.949097 200.0
129.067368 284.0
129.089249 160.0
129.3517 60.0
129.399246 164.0
129.884201 196.0
130.083893 108.0
130.108856 80.0
130.14064 180.0
130.381439 124.0
130.79538 132.0
130.834076 120.0
130.927429 160.0
130.943375 136.0
130.963867 96.0
130.995758 144.0
131.083786 2892.0
131.121078 92.0
131.137619 188.0
131.305756 40.0
131.337677 88.0
131.42894 108.0
131.463165 152.0
131.744003 52.0
131.771408 136.0
131.835388 64.0
131.855957 156.0
131.961121 220.0
131.995407 144.0
132.068588 196.0
132.091888 480.0
132.166962 64.0
132.374985 160.0
132.471466 144.0
132.487503 72.0
132.565399 88.0
132.721268 168.0
132.753372 168.0
133.040176 184.0
133.063019 588.0
133.100586 13924.0
133.194031 136.0
133.267548 52.0
133.29863 76.0
133.327301 116.0
133.400848 88.0
133.449127 132.0
133.543411 220.0
133.732071 96.0
133.755096 84.0
133.913971 64.0
133.934692 108.0
134.068329 236.0
134.104218 2672.0
134.167435 88.0
134.351929 232.0
134.411926 236.0
134.460388 152.0
134.492691 196.0
134.594269 96.0
134.688965 132.0
134.723618 104.0
134.746719 136.0
135.083878 232.0
135.112076 500.0
135.144394 80.0
135.231659 84.0
135.253159 128.0
135.306396 64.0
135.584366 104.0
135.695618 64.0
135.90947 140.0
136.086899 516.0
136.35022 52.0
136.380432 192.0
136.501328 176.0
136.59668 92.0
136.629242 180.0
136.855011 160.0
137.006393 180.0
137.050659 156.0
137.073959 240.0
137.097977 220.0
137.183502 144.0
137.288422 184.0
137.6548 168.0
137.855698 144.0
138.194748 168.0
138.300049 96.0
138.414764 124.0
138.77327 40.0
138.878784 172.0
138.960892 148.0
139.026825 200.0
139.115784 180.0
139.148651 188.0
139.322449 148.0
139.679764 180.0
139.724457 52.0
139.868011 120.0
140.586853 180.0
140.891434 152.0
140.945786 172.0
140.983597 116.0
141.132507 228.0
141.257858 160.0
141.451889 184.0
141.622375 188.0
141.956543 176.0
142.03006 216.0
142.117844 64.0
142.291107 212.0
142.538116 108.0
142.588028 84.0
142.680725 196.0
143.070892 188.0
143.270935 180.0
143.382919 144.0
143.578415 104.0
143.609421 144.0
143.692917 192.0
143.723923 132.0
143.976959 132.0
144.151352 172.0
144.237396 160.0
144.328247 184.0
144.431076 36.0
144.510025 160.0
145.09201 188.0
145.262268 128.0
145.468643 132.0
145.57428 256.0
146.070435 212.0
146.659317 164.0
146.854614 208.0
147.016266 160.0
147.079483 296.0
147.20697 112.0
147.376053 40.0
147.450974 108.0
147.495499 188.0
147.627441 152.0
147.854858 76.0
147.997681 160.0
148.087753 1848.0
148.230209 132.0
148.293213 124.0
148.312607 152.0
148.365936 200.0
148.919189 52.0
148.967773 144.0
149.033371 92.0
149.092239 196.0
149.274017 132.0
149.390762 88.0
149.917892 208.0
150.060486 84.0
150.09462 256.0
150.311722 176.0
150.494781 204.0
150.648651 84.0
150.714615 232.0
150.998184 84.0
151.114319 184.0
151.14006 76.0
151.211029 168.0
151.649445 48.0
151.772018 176.0
151.801437 148.0
152.02713 152.0
152.707642 196.0
152.998016 148.0
153.883087 164.0
153.915192 160.0
154.053497 208.0
154.120209 176.0
154.164688 160.0
154.416855 152.0
154.53064 176.0
155.035782 92.0
155.224182 176.0
155.499542 196.0
155.852173 160.0
156.217636 160.0
156.364441 172.0
157.176849 240.0
157.27417 176.0
157.324097 124.0
157.408981 100.0
157.47142 136.0
157.503891 212.0
157.72377 112.0
157.92131 192.0
158.118958 164.0
158.639954 136.0
158.785385 244.0
158.825516 140.0
159.011185 48.0
159.837967 132.0
159.932983 148.0
160.331543 156.0
160.538254 184.0
160.571655 132.0
160.825867 220.0
161.08342 116.0
161.108688 104.0
161.197571 200.0
161.33107 168.0
161.417038 164.0
161.517395 172.0
161.556137 104.0
161.6371 80.0
161.809219 76.0
161.828812 136.0
161.971298 184.0
162.00676 76.0
162.242432 124.0
162.372131 160.0
162.53157 160.0
162.567841 196.0
162.624039 232.0
162.658463 40.0
162.831116 84.0
162.859055 232.0
162.894623 152.0
162.929855 104.0
162.93576 228.0
162.962372 152.0
162.975769 140.0
162.983688 144.0
162.993225 148.0
163.02504 392.0
163.046143 208.0
163.063766 196.0
163.073761 112.0
163.111343 81336.0
163.191376 100.0
163.218384 96.0
163.256439 124.0
163.280197 92.0
163.302994 244.0
163.329285 76.0
163.357758 84.0
163.390198 200.0
163.412048 80.0
163.434479 44.0
163.456207 212.0
163.498383 84.0
163.529358 280.0
163.592728 172.0
163.638977 104.0
163.659348 176.0
163.72229 40.0
163.769867 44.0
163.82312 104.0
163.848602 44.0
163.871536 68.0
163.934921 164.0
163.973465 128.0
164.024643 48.0
164.054245 52.0
164.072052 112.0
164.114075 7244.0
164.211105 108.0
164.233521 40.0
164.288788 72.0
164.297089 128.0
164.327911 92.0
164.390579 100.0
164.422318 72.0
164.491241 40.0
164.529526 56.0
164.567825 108.0
164.603577 80.0
164.795135 108.0
164.931747 88.0
164.969894 116.0
165.118073 660.0
165.157394 148.0
165.207703 184.0
165.226974 152.0
165.252808 60.0
165.279785 140.0
165.320374 160.0
165.361496 184.0
165.384399 160.0
165.422791 124.0
165.454987 120.0
165.496948 104.0
165.530197 128.0
165.713669 76.0
165.828979 156.0
166.098206 128.0
166.118729 164.0
166.181274 72.0
166.272675 36.0
166.316315 52.0
166.439529 40.0
166.534561 176.0
166.796646 48.0
167.986313 80.0
168.528473 108.0
169.169861 68.0
169.88768 92.0
170.022614 60.0
170.28743 76.0
170.352356 96.0
170.757843 116.0
172.081619 120.0
172.099884 76.0
173.069946 76.0
173.101364 88.0
174.179276 120.0
174.252838 72.0
175.057724 128.0
175.084045 120.0
175.194672 68.0
178.540359 92.0
178.598877 88.0
179.069977 184.0
183.952805 60.0
185.215607 48.0
187.309875 32.0
192.83609 84.0
193.469528 80.0
195.459549 80.0
235.174011 92.0
242.478851 56.0
245.192047 192.0
246.490234 88.0
254.119705 152.0
271.456146 108.0
285.329559 172.0
287.171509 164.0
288.138672 204.0
316.113281 100.0
316.307922 48.0
327.473602 84.0
347.86087 76.0
356.169342 116.0
357.105255 56.0
382.504028 52.0
418.200958 88.0
427.997559 48.0
432.278137 72.0
433.603333 56.0
455.396698 92.0
476.985138 80.0
489.458405 36.0
564.274414 120.0
579.648682 192.0
579.960205 104.0
637.536011 80.0
647.85437 104.0
661.440735 52.0
678.144958 176.0
694.805725 112.0
695.29895 40.0
697.299927 68.0
698.314636 48.0
701.352661 76.0
733.933167 220.0
741.132812 160.0
743.974731 152.0
744.137634 248.0
744.637207 224.0
772.328064 112.0
780.285767 188.0
785.180969 144.0
794.84137 28.0
795.396973 100.0
796.829041 224.0
815.130432 164.0
854.909485 136.0
857.314575 116.0
871.551697 72.0
871.998352 188.0
876.164429 188.0
879.437134 168.0
881.776001 244.0
892.166931 80.0
910.68512 76.0
912.475891 172.0
913.119263 120.0
916.104797 140.0
927.21051 176.0
927.368103 216.0
931.196533 144.0
932.551453 176.0
933.737 92.0
934.533875 80.0
937.127625 168.0
938.303894 188.0
943.811157 164.0
951.512695 200.0
954.88623 248.0
956.430603 88.0
957.822144 216.0
961.138977 196.0
963.534546 144.0
969.425049 216.0
976.458862 108.0
978.730286 76.0
981.919434 140.0
985.092529 144.0
986.929077 160.0
987.229248 164.0
987.510681 56.0
990.571472 48.0
1005.296387 176.0
1007.41156 92.0
1019.93927 148.0
1025.425781 80.0
1025.515015 244.0
1027.785278 188.0
1028.283081 80.0
1044.056274 172.0
1046.610962 228.0
1048.70459 132.0
1049.181641 184.0
1050.774536 172.0
1059.146118 128.0
1065.282593 200.0
1070.394531 240.0
1071.944946 168.0
1075.747314 208.0
1079.549927 140.0
1080.583374 212.0
1081.316284 168.0
1084.237183 128.0
1086.059937 60.0
1089.499634 144.0
1089.591553 172.0
1096.678711 132.0
1097.713745 140.0
1098.056641 56.0
1099.296875 176.0
1110.424438 156.0
1112.322021 168.0
1114.613281 220.0
1117.365967 140.0
1120.348511 184.0
1123.735229 120.0
1124.162354 144.0
1124.569458 160.0
1125.110107 148.0
1125.771118 180.0
1127.541504 160.0
1127.755371 148.0
1132.67334 216.0
1134.542969 84.0
1134.61792 88.0
1138.407715 136.0
1143.315186 112.0
1145.624634 192.0
1146.109741 172.0
1147.107178 152.0
1147.268921 208.0
1149.717407 180.0
1150.142578 48.0
1151.952271 220.0
1152.100952 264.0
1153.351074 164.0
1153.682251 132.0
1159.096802 176.0
1162.704468 176.0
1166.89563 96.0
1167.119995 168.0
1172.047974 144.0
1172.668213 184.0
1173.561157 236.0
1179.32959 64.0
1180.061035 192.0
1182.332031 164.0
1186.606323 208.0
1187.237183 128.0
1187.388062 268.0
1188.924805 228.0
1189.528809 180.0
1195.866211 192.0
1196.458252 180.0
1197.518677 220.0
1201.716797 244.0
1203.690918 184.0
1205.956909 180.0
1207.747681 136.0
1207.844482 132.0
1210.149048 100.0
1210.502075 204.0
1211.527222 148.0
1216.610474 184.0
1218.047974 220.0
1223.444214 68.0
1231.532959 196.0
1232.87439 132.0
1234.07666 192.0
1235.216675 84.0
1238.135254 148.0
1238.912842 140.0
1242.775879 108.0
1245.141479 148.0
1245.45752 156.0
1247.959351 144.0
1248.979004 156.0
1249.809204 56.0
1250.196167 204.0
1250.467041 216.0
1251.195679 200.0
1253.851196 52.0
1256.779297 240.0
1259.933594 164.0
1265.209351 88.0
1265.308472 144.0
1266.661133 72.0
1267.922241 184.0
1268.772827 164.0
1269.020996 152.0
1272.504639 212.0
1273.513062 172.0
1273.811401 52.0
1274.003174 176.0
1274.237549 152.0
1275.630493 168.0
1275.85083 232.0
1278.973633 184.0
1279.279785 156.0
1279.493408 36.0
1280.034424 212.0
1281.074341 156.0
1281.92334 124.0
1282.021973 56.0
1283.447632 144.0
1285.06665 192.0
1286.344116 84.0
1291.331543 172.0
1292.748047 80.0
1293.592651 160.0
1294.945923 132.0
1296.156616 128.0
1297.611572 108.0
1298.285645 180.0
1298.895264 192.0
1300.301514 160.0
1300.897339 132.0
1306.099854 220.0
1307.884277 176.0
1309.281006 132.0
1310.102173 172.0
1311.002808 204.0
1313.473755 168.0
1314.153931 156.0
1314.240479 152.0
1323.405396 108.0
1324.086182 132.0
1326.54248 208.0
1328.870361 164.0
1331.103394 204.0
1331.2948 112.0
1334.891846 184.0
1336.7323 196.0
1337.714844 76.0
1338.16626 136.0
1338.289917 124.0
1338.39917 160.0
1342.924683 28.0
1343.442627 252.0
1345.318115 180.0
1347.399414 176.0
1347.450562 140.0
1349.160767 208.0
1349.241089 172.0
1353.082031 252.0
1353.594604 232.0
1355.293945 160.0
1356.129395 152.0
1356.664429 256.0
1357.478271 184.0
1357.764282 200.0
1357.888916 132.0
1360.618652 224.0
1363.226196 164.0
1365.0271 116.0
1365.188965 164.0
1366.740967 132.0
1369.140747 184.0
1371.63855 188.0
1371.858765 140.0
1372.552734 144.0
1373.791748 176.0
1374.167969 204.0
1375.267578 144.0
1375.880249 116.0
1377.312866 256.0
1378.007202 112.0
1379.026978 144.0
1379.803101 188.0
1380.845825 208.0
1381.230347 172.0
1381.592896 288.0
1382.420654 140.0
1382.873047 56.0
1384.68689 148.0
1384.90918 60.0
1385.701782 196.0
1387.747314 164.0
1388.429565 160.0
1391.04126 172.0
1391.152588 132.0
1391.293701 200.0
1394.740479 184.0
1396.517578 172.0
1396.837402 168.0
1397.759888 88.0
1398.58606 112.0
1398.638062 140.0
1398.980469 188.0
1401.080566 48.0
1401.281738 280.0
1401.520142 188.0
1402.518799 172.0
1404.546997 68.0
1405.315308 136.0
1405.927246 140.0
1406.061523 204.0
1406.442261 168.0
1408.435791 180.0
1410.184204 116.0
1413.227783 76.0
1415.458374 132.0
1416.132324 192.0
1416.356323 192.0
1416.933838 196.0
1417.053711 124.0
1417.353516 176.0
1417.420898 136.0
1419.744751 140.0
1420.352295 160.0
1424.270508 184.0
1424.630981 184.0
1424.848877 256.0
1425.577759 148.0
1428.705566 148.0
1429.924561 160.0
1431.407593 108.0
1431.601318 208.0
1431.889526 144.0
1432.597534 100.0
1433.946411 52.0
1434.54187 192.0
1435.122314 172.0
1435.318359 216.0
1437.188965 180.0
1437.317261 160.0
1440.775269 156.0
1441.304077 148.0
1441.440186 92.0
1444.237305 152.0
1445.864014 224.0
1446.674072 180.0
1448.150513 116.0
1449.984009 180.0
1452.501221 156.0
1452.918457 172.0
1453.191528 220.0
1454.087036 192.0
1454.246338 56.0
1454.496826 164.0
1454.648682 80.0
1455.195312 156.0
1455.969849 216.0
1456.592651 168.0
1457.519531 164.0
1457.869019 168.0
1459.328491 152.0
1460.263794 192.0
1460.393066 232.0
1463.063965 140.0
1465.005981 148.0
1467.597168 64.0
1469.542114 108.0
1470.198364 176.0
1470.557007 232.0
1470.763184 148.0
1471.091431 56.0
1471.274658 204.0
1471.647217 208.0
1471.732666 252.0
1471.889404 92.0
1472.809448 40.0
1473.428223 140.0
1473.649048 180.0
1474.681396 116.0
1474.926025 44.0
1475.430542 276.0
1475.644653 284.0
1477.074707 188.0
1477.91626 96.0
1477.992798 240.0
1478.681519 124.0
1479.247925 48.0
1480.917114 172.0
1481.039673 160.0
1481.384399 204.0
1481.713745 168.0
1482.012573 160.0
1482.273071 156.0
1482.518311 188.0
1484.273804 196.0
1484.887207 156.0
1485.11731 124.0
1486.782227 176.0
1489.146118 200.0
1492.328247 80.0
1493.912598 168.0
1495.561768 160.0
1495.897949 216.0
1495.959473 204.0
1496.074951 36.0
1497.11438 160.0
1497.807617 116.0
1498.07251 236.0
1498.31604 120.0
1500.134766 100.0
1500.665649 148.0
1501.052246 236.0
1501.129272 180.0
1501.252686 196.0
1501.322144 196.0
1501.406982 160.0
1502.440552 180.0
1503.451294 136.0
1503.58252 84.0
