>compound NCGC00160221-01!1,2,3,4-Tetrahydro-6-Methoxy-1-oxo-beta-carboline
>formula C12H12N2O2
>ionization [M+H]+
>parentmass 217.096558
#inchi InChI=1S/C12H12N2O2/c1-16-7-2-3-10-9(6-7)8-4-5-13-12(15)11(8)14-10/h2-3,6,14H,4-5H2,1H3,(H,13,15)
#inchikey PWARHDUWOJUADN
#Ion_Source LC-ESI
#Instrument qTOF
#Compound_Source Prestwick Phytochem Lib
#PI Dorrestein
#Data_Collector VVP/LMS
#Scan -1
#Precursor_MZ 217.098
#ExactMass 216.09
#Charge 1
#CAS_Number N/A
#Pubmed_ID N/A
#Smiles COC1=CC2=C(NC3=C2CCNC3=O)C=C1
#INCHI_AUX N/A
#Library_Class 1
#SpectrumID CCMSLIB00000078738
#IonMode Positive
#UpdateWorkflowName UPDATE-SINGLE-ANNOTATED-GOLD
#LibraryQualityString Gold
#TaskID 67c915c6594c435cadc1fe2b5358144d
##Scan# 1723
#SpectrumFile p1-A03_GA3_01_17876.mzXML
#LibraryName phytochem_lib.mgf
#MQScore -1
#Organism phytochem_lib
#TIC_Query 0
#RT_Query -1
#MZErrorPPM -1
#SharedPeaks 0
#MassDiff 0
#LibMZ -1
#SpecMZ 217.098
#SpecCharge 0
#internalFilename spec-00000.mgf

>collision 10
95.203026 172.0
95.383705 156.0
95.430359 120.0
95.906494 200.0
96.032066 164.0
96.145218 52.0
96.340462 276.0
96.426437 228.0
96.549599 132.0
96.935226 164.0
97.278442 92.0
97.382507 204.0
97.700928 208.0
98.246605 244.0
98.293953 92.0
99.302841 72.0
99.505234 144.0
99.916618 216.0
100.069855 208.0
100.29097 136.0
100.370705 60.0
100.614113 152.0
100.743912 160.0
101.009766 136.0
101.033775 188.0
101.316032 176.0
101.996277 116.0
102.045143 828.0
102.171227 176.0
102.199387 164.0
102.265793 180.0
102.991623 144.0
103.051781 312.0
103.499207 120.0
103.699753 124.0
103.894409 168.0
104.051567 544.0
104.245651 172.0
104.505913 84.0
104.672813 232.0
104.713539 104.0
104.931564 112.0
105.056198 368.0
105.425507 160.0
105.996414 144.0
106.213722 152.0
106.704498 184.0
107.045303 136.0
107.530487 144.0
108.043381 212.0
108.061531 160.0
108.237457 180.0
108.513016 164.0
109.088051 168.0
109.1026 88.0
109.435471 204.0
109.722969 104.0
109.752159 100.0
110.159111 204.0
110.182091 220.0
110.248947 144.0
111.16404 264.0
111.220703 72.0
111.310974 180.0
111.630371 188.0
111.653496 156.0
111.813385 160.0
112.373878 164.0
112.937889 152.0
113.386719 100.0
113.711197 72.0
113.785484 164.0
113.840691 60.0
113.968132 180.0
114.297699 224.0
114.798264 160.0
115.054672 632.0
115.370453 172.0
116.04995 680.0
116.109138 64.0
116.465401 64.0
116.688881 124.0
117.057991 1300.0
117.091255 156.0
117.110634 44.0
118.064629 1820.0
118.378304 80.0
118.777069 88.0
118.88121 152.0
119.015785 140.0
119.070099 484.0
119.100479 152.0
119.359077 176.0
119.428673 128.0
119.493927 156.0
119.659325 76.0
119.986115 160.0
120.042908 164.0
120.073578 316.0
120.298058 64.0
120.389755 176.0
120.741592 212.0
120.989693 156.0
121.063278 140.0
121.253868 180.0
121.637688 88.0
121.705742 136.0
122.055092 136.0
122.429169 204.0
122.482025 144.0
123.490677 172.0
123.709724 108.0
125.322029 96.0
125.415619 104.0
125.805962 160.0
126.431778 196.0
126.611916 188.0
126.864052 120.0
127.053192 372.0
127.258888 180.0
127.465965 164.0
127.892807 124.0
128.016617 76.0
128.047195 892.0
129.057281 2128.0
129.090729 64.0
129.237747 76.0
129.502609 120.0
129.525253 216.0
129.547897 148.0
129.717255 76.0
129.888092 196.0
129.978653 144.0
129.994537 96.0
130.044022 184.0
130.065521 4204.0
130.152588 120.0
130.253357 44.0
130.269257 56.0
130.748993 204.0
131.048492 248.0
131.071274 3204.0
131.309418 76.0
131.626602 40.0
132.044037 1520.0
132.077255 404.0
132.166031 60.0
132.401794 124.0
132.926743 116.0
133.055176 252.0
133.830032 132.0
133.906021 60.0
134.018906 124.0
134.064987 208.0
135.085464 156.0
135.492874 156.0
135.717682 152.0
135.824356 100.0
136.012299 156.0
136.304916 196.0
136.662979 168.0
137.235931 132.0
137.282562 300.0
137.786713 188.0
138.350296 140.0
139.147354 168.0
139.429214 220.0
139.495026 212.0
139.530289 236.0
139.774887 196.0
140.052872 296.0
140.293015 44.0
140.802658 232.0
141.054733 492.0
141.095642 128.0
141.313232 116.0
141.760727 52.0
142.063187 836.0
142.22081 80.0
142.258789 52.0
142.52121 40.0
143.045578 152.0
143.072739 1108.0
143.288483 52.0
143.416504 180.0
143.488663 200.0
143.989746 48.0
144.044662 636.0
144.062546 176.0
144.080582 608.0
144.350586 84.0
144.510422 208.0
144.618515 44.0
144.902008 72.0
145.023285 124.0
145.074036 3052.0
145.140747 48.0
145.188705 40.0
145.685532 32.0
145.877762 68.0
145.93306 100.0
146.061523 2536.0
146.078323 712.0
146.178391 224.0
146.244446 36.0
146.838455 108.0
147.06723 3460.0
147.159378 72.0
147.193176 160.0
147.263214 156.0
148.071533 948.0
148.558151 220.0
149.26976 36.0
149.320816 148.0
151.738174 140.0
152.863083 156.0
153.222549 156.0
154.057648 176.0
154.612656 100.0
155.058456 700.0
155.842545 156.0
156.044357 936.0
156.066711 1412.0
156.212952 36.0
156.783112 104.0
156.985016 72.0
157.052353 1004.0
157.076721 636.0
157.192062 72.0
158.058289 460.0
158.081619 1420.0
158.346985 96.0
158.539871 92.0
158.875854 52.0
159.066345 1956.0
159.092575 284.0
159.305099 188.0
159.506119 48.0
160.036926 160.0
160.075165 2868.0
160.125061 100.0
160.157806 44.0
160.195587 80.0
160.440018 32.0
160.684631 84.0
160.856232 40.0
161.04689 228.0
161.081329 1112.0
161.123901 84.0
161.591599 56.0
161.824844 104.0
162.054916 148.0
162.089951 3852.0
162.158798 112.0
162.280472 108.0
162.298218 140.0
162.318512 128.0
162.488434 48.0
162.932709 100.0
163.059753 64.0
163.09462 228.0
166.621704 56.0
166.912125 224.0
167.326355 116.0
167.717896 96.0
168.070908 112.0
168.104736 48.0
168.164078 36.0
168.61087 68.0
169.071976 144.0
169.371506 132.0
170.062119 196.0
170.635239 48.0
171.067078 340.0
171.901062 44.0
171.99501 28.0
172.038605 264.0
172.073761 3260.0
172.27179 48.0
172.826019 204.0
172.904526 56.0
172.983047 52.0
173.003983 140.0
173.070251 2032.0
173.106094 96.0
173.368042 132.0
173.598724 100.0
173.617081 160.0
174.078903 4316.0
174.201431 36.0
174.328476 60.0
174.509827 80.0
174.538757 44.0
174.801788 56.0
175.058594 356.0
175.078552 604.0
175.230957 84.0
176.087921 140.0
176.119919 92.0
176.230865 52.0
176.85759 148.0
177.315765 60.0
181.230225 176.0
181.777206 172.0
183.035156 200.0
184.062393 672.0
185.048035 432.0
185.067215 672.0
185.11972 96.0
185.96553 80.0
186.074112 144.0
186.106689 136.0
187.089081 156.0
187.521194 100.0
188.094177 1288.0
188.560989 172.0
188.661743 144.0
188.834381 36.0
189.067825 144.0
189.101364 3532.0
189.855881 60.0
189.943634 96.0
190.103973 628.0
190.207047 48.0
190.369019 56.0
190.968124 60.0
191.115814 196.0
191.218475 80.0
191.279022 132.0
192.160858 48.0
198.090576 100.0
199.083023 328.0
200.064987 572.0
201.06427 176.0
201.618744 20.0
201.997589 132.0
202.068207 420.0
202.071869 148.0
203.076736 152.0
203.357605 108.0
203.882996 88.0
217.012192 136.0
217.096558 720.0
217.519699 48.0
218.077057 216.0
218.098953 356.0
254.673615 20.0
255.528702 68.0
255.840576 56.0
257.498596 112.0
282.144958 92.0
283.570862 140.0
308.413635 60.0
353.092773 36.0
356.62439 44.0
358.619141 80.0
402.033142 52.0
473.279144 40.0
516.570679 76.0
589.458313 60.0
589.825623 80.0
590.057617 40.0
680.233887 172.0
756.113953 184.0
756.289062 36.0
761.404175 144.0
787.707581 116.0
811.518127 148.0
838.412476 160.0
840.724915 296.0
844.769226 64.0
863.363586 104.0
872.122314 120.0
876.53595 84.0
900.305298 152.0
913.166077 56.0
944.933655 156.0
972.621094 204.0
981.847595 76.0
987.924805 204.0
988.756958 164.0
992.985657 80.0
994.736206 196.0
1008.99176 132.0
1015.792847 148.0
1028.665405 236.0
1033.22168 216.0
1048.27771 140.0
1058.651855 144.0
1063.5271 168.0
1064.344971 132.0
1070.391968 176.0
1072.978516 176.0
1073.591431 76.0
1077.200562 164.0
1086.174561 188.0
1088.386108 152.0
1089.082275 192.0
1092.546265 184.0
1094.507568 152.0
1095.897217 76.0
1105.10083 164.0
1117.041748 44.0
1119.797241 156.0
1123.123047 108.0
1123.309814 156.0
1127.462524 116.0
1152.587524 236.0
1157.261108 184.0
1169.194092 160.0
1181.058228 192.0
1196.779907 100.0
1205.69873 168.0
1207.364868 264.0
1212.861938 80.0
1214.296997 52.0
1216.885254 180.0
1219.573486 140.0
1225.035645 140.0
1226.087646 208.0
1231.403687 200.0
1234.534424 108.0
1237.382202 180.0
1238.69165 108.0
1238.775513 140.0
1246.83728 164.0
1249.276978 168.0
1256.610596 172.0
1261.758911 204.0
1263.102539 144.0
1276.961426 128.0
1282.536133 148.0
1290.76001 176.0
1292.519653 60.0
1292.884521 80.0
1293.578735 156.0
1294.573975 216.0
1300.624756 152.0
1304.747925 148.0
1306.639282 216.0
1308.21521 196.0
1315.734009 168.0
1315.97937 76.0
1323.766602 200.0
1324.592163 156.0
1325.794922 124.0
1327.317139 220.0
1330.944946 188.0
1337.349365 44.0
1337.844238 180.0
1340.31311 184.0
1340.401245 192.0
1344.097412 232.0
1344.338135 196.0
1353.160278 192.0
1359.30957 132.0
1362.826538 276.0
1363.524658 124.0
1364.472778 192.0
1365.766968 152.0
1366.973511 208.0
1370.249878 116.0
1370.470947 228.0
1371.694214 148.0
1373.485962 204.0
1373.67041 108.0
1380.642456 140.0
1384.483154 224.0
1384.646118 180.0
1394.795654 116.0
1397.279297 160.0
1397.629028 88.0
1403.826172 64.0
1406.325317 168.0
1407.557129 120.0
1409.37207 184.0
1414.81665 120.0
1415.048706 112.0
1421.962402 236.0
1430.836792 160.0
1432.154541 152.0
1432.998291 236.0
1435.18396 128.0
1439.303467 156.0
1444.495361 40.0
1446.000977 120.0
1449.196533 68.0
1451.257935 124.0
1452.076904 180.0
1459.93689 244.0
1461.94519 76.0
1465.074341 268.0
1468.67981 180.0
1469.51123 180.0
1471.7323 208.0
1474.375122 88.0
1477.82373 148.0
1479.890137 88.0
1482.425415 124.0
1482.946533 164.0
1483.253052 64.0
1488.300903 144.0
1488.554321 44.0
1488.85376 148.0
1492.665161 116.0
1493.426514 184.0
1498.64563 136.0
1501.466797 172.0
1503.866089 212.0
