>compound MLS001332640-01!Thiamphenicol15318-45-3
>formula C12H15Cl2NO5S
>ionization [M+H]+
>parentmass 356.01207539209054
#inchi InChI=1S/C12H15Cl2NO5S/c1-21(19,20)8-4-2-7(3-5-8)10(17)9(6-16)15-12(18)11(13)14/h2-5,9-11,16-17H,6H2,1H3,(H,15,18)/t9-,10-/m1/s1
#inchikey OTVAEFIXJLOWRX
#Ion_Source LC-ESI
#Instrument qTof
#Compound_Source NIH Pharmacologically Active Library
#PI Dorrestein
#Data_Collector VP/LMS
#Scan -1
#Precursor_MZ 356.016
#ExactMass 355.005
#Charge 1
#CAS_Number N/A
#Pubmed_ID N/A
#Smiles CS(=O)(=O)c1ccc(cc1)[C@@H](O)[C@@H](CO)NC(=O)C(Cl)Cl
#INCHI_AUX N/A
#Library_Class 1
#SpectrumID CCMSLIB00000085456
#IonMode Positive
#UpdateWorkflowName UPDATE-SINGLE-ANNOTATED-GOLD
#LibraryQualityString Gold
#TaskID d252d724072548979f1f6f1ced849daf
##Scan# 1248
#SpectrumFile p4-B03_GB3_01_18339.mzXML
#LibraryName Pharm_Active_Library.mgf
#MQScore -1
#Organism Pharm_Active_Library
#TIC_Query 0
#RT_Query -1
#MZErrorPPM -1
#SharedPeaks 0
#MassDiff 0
#LibMZ -1
#SpecMZ 356.016
#SpecCharge 0
#internalFilename spec-00000.mgf

>collision 10
47.206348 156.0
48.222309 168.0
49.300777 128.0
49.792507 180.0
50.134365 212.0
52.262486 220.0
56.284542 228.0
56.950962 196.0
58.127014 176.0
59.956001 204.0
61.428978 128.0
63.158443 116.0
64.114227 180.0
68.583168 152.0
69.524223 116.0
74.188492 164.0
74.863731 168.0
76.517326 72.0
78.502563 104.0
80.413246 192.0
80.515015 176.0
82.835266 196.0
83.332344 152.0
83.42321 144.0
83.818146 172.0
85.295067 68.0
85.331833 212.0
85.908257 92.0
86.875755 88.0
88.547722 140.0
89.656143 168.0
90.689941 140.0
90.879578 128.0
91.476318 164.0
92.055916 60.0
94.661583 200.0
94.708061 168.0
95.41246 184.0
97.074043 80.0
101.161606 208.0
101.823273 204.0
103.057175 392.0
103.288567 176.0
104.046455 160.0
106.033203 188.0
106.312111 56.0
109.054794 168.0
109.210732 132.0
109.275215 144.0
109.348045 124.0
111.74823 120.0
111.954514 136.0
113.637062 196.0
113.90667 192.0
115.055977 424.0
116.510735 88.0
116.740715 100.0
117.061607 200.0
118.065323 984.0
119.041122 136.0
119.073402 1520.0
119.226791 72.0
119.261566 40.0
119.435509 172.0
119.864388 200.0
120.061256 408.0
120.079262 608.0
120.117287 64.0
120.259109 60.0
120.304947 76.0
120.982628 100.0
121.063644 128.0
121.545891 136.0
122.174255 152.0
124.226501 56.0
124.695 140.0
126.116966 168.0
127.967674 128.0
128.053513 192.0
128.08252 28.0
129.058563 184.0
129.147888 32.0
130.066132 156.0
130.172241 188.0
131.047791 176.0
131.069427 348.0
132.057022 348.0
132.082092 140.0
133.060608 180.0
134.063461 236.0
134.739517 116.0
137.017731 164.0
137.255463 224.0
137.477066 152.0
137.782944 132.0
138.023666 100.0
139.014511 160.0
141.061203 108.0
142.066147 168.0
143.206192 132.0
146.061325 892.0
147.789001 112.0
150.02182 348.0
150.946243 156.0
151.026947 452.0
152.022476 148.0
155.02774 200.0
155.352493 128.0
158.061142 176.0
158.110733 156.0
158.152664 128.0
159.070282 176.0
162.031296 136.0
163.032776 124.0
163.05896 156.0
165.019989 144.0
166.033218 152.0
166.749496 220.0
168.426804 80.0
169.238815 160.0
170.059113 176.0
170.154037 172.0
171.061798 340.0
176.029694 140.0
177.03566 232.0
178.021042 48.0
178.042282 64.0
183.042999 228.0
183.34201 268.0
188.95195 104.0
191.094788 176.0
193.39888 20.0
194.037354 232.0
195.038132 56.0
195.803253 164.0
195.8311 144.0
196.026108 144.0
196.488953 200.0
196.983063 164.0
197.04924 392.0
197.600876 88.0
197.877945 160.0
198.058853 3716.0
198.191635 44.0
198.250488 76.0
198.359787 104.0
198.421463 72.0
198.61496 56.0
199.021866 120.0
199.064087 696.0
199.145432 68.0
200.059814 352.0
200.276108 60.0
200.583237 144.0
206.038315 288.0
207.035721 164.0
208.050735 156.0
209.030533 124.0
210.059265 164.0
212.164566 40.0
213.032242 84.0
214.423065 44.0
215.315796 192.0
217.007721 512.0
217.505829 40.0
218.010986 100.0
220.755463 128.0
226.376785 128.0
228.02977 96.0
228.312363 48.0
228.610184 44.0
228.94133 140.0
229.005554 2156.0
230.012573 672.0
230.141449 80.0
230.410233 52.0
230.908981 152.0
231.003906 896.0
231.54454 116.0
231.648331 104.0
231.817184 100.0
232.002075 172.0
232.472183 32.0
234.086334 104.0
234.689651 112.0
236.042297 136.0
241.009323 772.0
242.293503 136.0
242.992416 144.0
243.012772 176.0
245.018066 136.0
249.2733 56.0
249.62851 48.0
256.024078 104.0
266.085602 128.0
275.957336 208.0
297.845581 140.0
299.09375 112.0
300.375549 200.0
307.983185 280.0
307.995422 284.0
308.987488 108.0
309.987549 556.0
310.984833 124.0
317.143127 168.0
318.541138 124.0
319.995636 208.0
326.001862 140.0
326.62323 248.0
327.001007 124.0
334.628143 28.0
438.316895 52.0
729.568237 56.0
803.675842 164.0
1094.750977 132.0
1119.964478 156.0
1168.420776 156.0
1214.280151 168.0
1247.482056 168.0
1253.421997 112.0
1281.993774 172.0
1328.064941 156.0
1335.255127 164.0
1335.567871 140.0
1380.356812 124.0
1384.908203 192.0
1388.999634 96.0
1413.877441 212.0
1423.42041 168.0
1435.957764 180.0
1437.428833 260.0
1453.93335 128.0
1460.216309 204.0
1470.257446 124.0
1491.564819 172.0
