>compound N-benzyl-3-[2-(pyridine-4-carbonyl)hydrazinyl]propanamide
>formula C16H18N4O2
>ionization [M+H]+
>parentmass 299.151215
#inchi InChI=1S/C16H18N4O2/c21-15(18-12-13-4-2-1-3-5-13)8-11-19-20-16(22)14-6-9-17-10-7-14/h1-7,9-10,19H,8,11-12H2,(H,18,21)(H,20,22)
#inchikey NOIIUHRQUVNIDD
#Ion_Source LC-ESI
#Instrument qTof
#Compound_Source Commercial
#PI Dorrestein
#Data_Collector Garg_Neha
#Scan -1
#Precursor_MZ 299.15
#ExactMass 298.143
#Charge 1
#CAS_Number N/A
#Pubmed_ID N/A
#Smiles O=C(CCNNC(=O)c1ccncc1)NCc2ccccc2
#INCHI_AUX N/A
#Library_Class 1
#SpectrumID CCMSLIB00000079099
#IonMode Positive
#UpdateWorkflowName UPDATE-SINGLE-ANNOTATED-GOLD
#LibraryQualityString Gold
#TaskID 278b19f5865741e282cec7349aa7e7a1
##Scan# 1032
#SpectrumFile NCP003432_G2_H11_BD3_01_15725.mzXML
#LibraryName NIHcollectionI_05062014.mgf
#MQScore -1
#Organism NIHcollectionI_05062014
#TIC_Query 0
#RT_Query -1
#MZErrorPPM -1
#SharedPeaks 0
#MassDiff 0
#LibMZ -1
#SpecMZ 299.15
#SpecCharge 0
#internalFilename spec-00000.mgf

>collision 10
48.605579 176.0
51.384712 184.0
53.464081 176.0
56.12315 204.0
60.508781 196.0
61.472473 140.0
65.094704 148.0
67.70079 144.0
68.691879 176.0
70.212868 180.0
72.128639 168.0
75.618279 232.0
82.612656 164.0
86.571869 152.0
88.125069 184.0
91.054489 1524.0
91.928162 172.0
92.057968 244.0
93.048767 140.0
99.658104 140.0
101.759018 164.0
103.632988 212.0
105.047104 340.0
105.073845 180.0
106.029533 1252.0
106.070389 152.0
107.034996 340.0
107.062759 168.0
108.08123 892.0
110.740967 180.0
111.84539 224.0
115.050591 164.0
115.683357 140.0
118.875427 188.0
119.721054 208.0
120.410202 144.0
120.906479 164.0
121.040131 4068.0
121.305107 144.0
122.043465 708.0
122.069847 272.0
123.056335 2188.0
124.036285 172.0
124.066238 180.0
124.231422 160.0
124.413399 184.0
125.078056 148.0
126.479828 176.0
126.670158 188.0
127.57 148.0
129.078323 184.0
132.056183 1208.0
132.996902 156.0
133.056595 288.0
135.091507 188.0
137.059921 584.0
137.732178 192.0
137.832626 200.0
138.066544 8204.0
139.067841 228.0
139.409668 160.0
140.075394 168.0
143.588211 168.0
144.110992 168.0
144.706528 188.0
148.276474 180.0
149.865707 152.0
149.982681 144.0
150.06665 9572.0
150.257172 164.0
151.069672 936.0
151.509964 256.0
156.658401 216.0
157.09964 144.0
162.091141 3672.0
163.095749 432.0
164.045029 160.0
164.080688 432.0
165.097366 172.0
174.066483 244.0
176.072983 164.0
176.120087 600.0
177.099167 308.0
177.123001 164.0
177.931824 148.0
178.130981 172.0
179.128922 180.0
187.841263 148.0
190.061584 424.0
191.930405 220.0
191.98555 176.0
192.037949 148.0
192.07724 12344.0
193.079254 1720.0
197.386765 156.0
198.079788 96.0
199.101059 340.0
201.047073 140.0
201.080933 184.0
205.995972 176.0
206.233139 156.0
208.094009 160.0
212.894257 152.0
220.573654 172.0
221.64621 264.0
222.105835 188.0
223.102768 212.0
225.21196 144.0
228.111725 1624.0
229.116684 172.0
230.133972 200.0
235.527466 192.0
239.247101 184.0
239.675201 196.0
239.823135 164.0
240.114212 2420.0
241.001968 144.0
241.116898 328.0
269.500854 204.0
271.192688 176.0
279.229004 144.0
281.139282 1152.0
282.131592 524.0
283.128723 144.0
283.180603 160.0
293.788025 204.0
296.215118 164.0
296.657166 164.0
297.027496 176.0
297.238434 132.0
297.583435 172.0
298.019623 140.0
298.148071 132.0
299.151215 43860.0
299.246124 100.0
299.282166 168.0
299.631622 144.0
300.153015 5624.0
300.233002 160.0
300.404144 168.0
300.624542 176.0
300.871399 112.0
301.152191 680.0
301.244995 136.0
302.130859 156.0
302.253418 172.0
316.534912 100.0
384.547546 148.0
1112.845093 248.0
1270.088745 160.0
1286.126709 212.0
1376.968872 140.0
1386.290161 196.0
1417.723511 192.0
1438.233154 148.0
1451.608887 140.0
1466.113159 156.0
1591.176025 148.0
1611.453247 180.0
1620.285889 144.0
1662.221191 156.0
1675.563721 160.0
1724.810181 192.0
1725.405396 208.0
1753.37854 188.0
1760.594849 212.0
1779.58606 256.0
1811.27832 180.0
1820.403931 168.0
1823.793701 188.0
1828.820557 140.0
1835.874756 176.0
1851.094116 192.0
1856.612915 152.0
1867.184692 148.0
1888.487671 180.0
1890.001587 164.0
1892.407715 172.0
1903.957886 208.0
1916.9198 160.0
1940.256714 144.0
1941.589478 156.0
1948.400146 240.0
1965.428589 148.0
1976.429321 168.0
2003.2323 140.0
