>compound MLS002153415-01!ICI 118,551 hydrochloride72795-19-8
>formula C17H27NO2
>ionization [M+H]+
>parentmass 278.209839
#inchi InChI=1S/C17H27NO2/c1-11(2)18-13(4)16(19)10-20-17-9-8-12(3)14-6-5-7-15(14)17/h8-9,11,13,16,18-19H,5-7,10H2,1-4H3/t13-,16-/m0/s1
#inchikey VFIDUCMKNJIJTO
#origInchi InChI=1S/C17H27NO2.ClH/c1-11(2)18-13(4)16(19)10-20-17-9-8-12(3)14-6-5-7-15(14)17;/h8-9,11,13,16,18-19H,5-7,10H2,1-4H3;1H/t13-,16-;/m0./s1
#Ion_Source LC-ESI
#Instrument qTof
#Compound_Source NIH Pharmacologically Active Library
#PI Dorrestein
#Data_Collector VP/LMS
#Scan -1
#Precursor_MZ 278.216
#ExactMass 277.204
#Charge 1
#CAS_Number N/A
#Pubmed_ID N/A
#Smiles CC(C)N[C@@H](C)[C@@H](O)COc1ccc(C)c2CCCc21.Cl
#INCHI_AUX N/A
#Library_Class 1
#SpectrumID CCMSLIB00000084921
#IonMode Positive
#UpdateWorkflowName UPDATE-SINGLE-ANNOTATED-GOLD
#LibraryQualityString Gold
#TaskID d252d724072548979f1f6f1ced849daf
##Scan# 1718
#SpectrumFile p3-C07_GC7_01_18252.mzXML
#LibraryName Pharm_Active_Library.mgf
#MQScore -1
#Organism Pharm_Active_Library
#TIC_Query 0
#RT_Query -1
#MZErrorPPM -1
#SharedPeaks 0
#MassDiff 0
#LibMZ -1
#SpecMZ 278.216
#SpecCharge 0
#internalFilename spec-00000.mgf

>collision 10
44.91885 192.0
44.933617 176.0
45.017956 152.0
45.027302 112.0
45.066044 40.0
45.080742 184.0
45.102127 172.0
45.120239 160.0
45.142239 112.0
45.166313 192.0
45.187717 208.0
45.213921 144.0
45.249283 136.0
45.264015 208.0
45.312233 364.0
45.322952 316.0
45.377975 152.0
45.394001 176.0
45.431614 180.0
45.446316 64.0
45.462418 148.0
45.493465 152.0
45.517456 208.0
45.550068 172.0
45.573875 168.0
45.59269 88.0
45.668076 212.0
45.69376 148.0
45.711899 168.0
45.740643 160.0
45.760838 152.0
45.808006 172.0
45.85918 220.0
45.874008 52.0
45.911762 232.0
45.924065 164.0
45.93874 44.0
45.959412 148.0
45.97517 164.0
45.985592 188.0
45.990017 136.0
45.993088 188.0
46.008915 120.0
46.027084 184.0
46.046726 192.0
46.069134 156.0
46.072155 92.0
46.078064 140.0
46.09536 52.0
46.135101 248.0
46.153484 128.0
46.175125 100.0
46.185249 152.0
46.210297 196.0
46.237362 60.0
46.260372 100.0
46.309433 172.0
46.348408 168.0
46.407177 180.0
46.428185 240.0
46.446362 160.0
46.464771 208.0
46.507084 48.0
46.536949 124.0
46.55204 212.0
46.56411 180.0
46.59943 160.0
46.617096 164.0
46.647869 156.0
46.679626 52.0
46.697338 180.0
46.710911 180.0
46.729958 136.0
46.75037 132.0
46.761257 224.0
46.772144 160.0
46.799374 112.0
46.831524 160.0
46.842133 344.0
46.874294 140.0
46.883831 176.0
46.901386 196.0
46.924728 120.0
46.961548 88.0
46.975189 336.0
47.013393 220.0
47.03796 148.0
47.058441 164.0
47.072094 208.0
47.090191 192.0
47.112381 200.0
47.141766 180.0
47.172272 212.0
47.192341 172.0
47.216503 196.0
47.239197 124.0
47.290386 184.0
47.303162 196.0
47.326252 128.0
47.389442 188.0
47.414963 392.0
47.425411 160.0
47.468845 164.0
47.481174 144.0
47.503235 148.0
47.529305 152.0
47.554005 164.0
47.57185 176.0
47.600685 192.0
47.643265 172.0
47.709232 148.0
47.728481 164.0
47.777996 140.0
47.79726 144.0
47.823406 128.0
47.883991 160.0
47.911179 184.0
47.945988 152.0
48.001133 412.0
48.02182 140.0
48.033497 180.0
48.068726 268.0
48.078388 148.0
48.121181 168.0
48.157085 100.0
48.187828 204.0
48.213734 72.0
48.234467 120.0
48.287006 216.0
48.334618 204.0
48.375565 208.0
48.40049 148.0
48.438412 324.0
48.471481 96.0
48.474144 164.0
48.494694 364.0
48.540443 128.0
48.562634 120.0
48.602276 216.0
48.616844 164.0
48.637566 200.0
48.652527 144.0
48.672272 132.0
48.68338 196.0
48.698074 228.0
48.741726 132.0
48.751781 220.0
48.779255 188.0
48.792206 164.0
48.80386 172.0
48.832092 136.0
48.846001 172.0
48.870544 200.0
48.888718 200.0
48.892433 140.0
48.898102 252.0
48.918365 108.0
48.93507 156.0
48.954567 192.0
48.964935 288.0
48.982422 180.0
48.999138 232.0
49.025616 160.0
49.036766 168.0
49.072453 180.0
49.099506 184.0
49.117638 184.0
49.135773 196.0
49.188805 220.0
49.221195 328.0
49.257229 180.0
49.359257 204.0
49.370445 112.0
49.391426 164.0
49.459991 232.0
49.524403 316.0
49.597267 164.0
49.612686 128.0
49.623901 212.0
49.644154 272.0
49.687923 192.0
49.72081 200.0
49.734093 216.0
49.755787 184.0
49.77404 176.0
49.783871 148.0
49.811962 184.0
49.829151 152.0
49.849895 144.0
49.876602 172.0
49.905251 264.0
49.916367 200.0
49.963791 168.0
49.984898 120.0
50.021492 48.0
50.039791 108.0
50.055283 168.0
50.069363 172.0
50.08345 176.0
50.096832 80.0
50.121487 48.0
50.13699 156.0
50.189533 132.0
50.203251 216.0
50.225815 116.0
50.29496 176.0
50.32869 220.0
50.331146 196.0
50.405121 172.0
50.463074 96.0
50.539455 240.0
50.55785 160.0
50.585258 152.0
50.705143 176.0
50.732075 212.0
50.741997 144.0
50.780487 228.0
50.830906 200.0
50.848389 184.0
50.871437 180.0
50.891895 192.0
50.963417 176.0
50.975681 216.0
51.009651 332.0
51.027378 168.0
51.053532 112.0
51.068619 180.0
51.088535 124.0
51.116989 136.0
51.17535 52.0
51.186745 124.0
51.196712 212.0
51.267944 156.0
51.307858 132.0
51.360619 172.0
51.40485 184.0
51.438652 152.0
51.469086 88.0
51.512909 152.0
51.561543 200.0
51.593391 152.0
51.639923 136.0
51.650593 180.0
51.67205 188.0
51.736454 388.0
51.765091 184.0
51.782276 180.0
51.810928 124.0
51.898357 104.0
51.934208 208.0
51.972946 168.0
52.041843 88.0
52.060513 176.0
52.077747 112.0
52.09436 152.0
52.142403 228.0
52.159649 212.0
52.193077 160.0
52.198174 136.0
52.212849 192.0
52.229126 228.0
52.266933 128.0
52.286224 204.0
52.30703 212.0
52.318661 60.0
52.35603 140.0
52.395664 124.0
52.476376 132.0
52.496845 184.0
52.56081 216.0
52.60614 156.0
52.620655 204.0
52.711658 100.0
52.733334 212.0
52.762798 168.0
52.802635 172.0
52.836006 188.0
52.870735 124.0
52.909817 40.0
52.924294 208.0
52.946018 32.0
52.966293 216.0
53.011208 132.0
53.030048 216.0
53.070438 144.0
53.130108 180.0
53.173641 144.0
53.191059 152.0
53.240723 124.0
53.256599 204.0
53.298084 220.0
53.343315 236.0
53.366848 128.0
53.395931 128.0
53.432301 184.0
53.44976 180.0
53.51025 152.0
53.525455 204.0
53.540016 176.0
53.550213 124.0
53.573776 228.0
53.636181 196.0
53.674088 212.0
53.68322 192.0
53.713467 200.0
53.735348 216.0
53.754318 116.0
53.77475 124.0
53.852135 196.0
53.929573 188.0
54.014385 336.0
54.048809 136.0
54.087551 112.0
54.125614 324.0
54.175415 332.0
54.197392 152.0
54.216312 136.0
54.239403 120.0
54.288277 152.0
54.298542 196.0
54.323479 36.0
54.335068 200.0
54.375175 208.0
54.385563 296.0
54.422577 176.0
54.443649 156.0
54.459995 184.0
54.479092 168.0
54.489376 28.0
54.512886 168.0
54.53199 224.0
54.555 184.0
54.566765 348.0
54.581974 120.0
54.60183 128.0
54.614288 136.0
54.627132 256.0
54.670238 208.0
54.697704 188.0
54.721458 220.0
54.745758 148.0
54.774776 164.0
54.79472 216.0
54.808662 196.0
54.845509 40.0
54.863087 108.0
54.874115 168.0
54.888264 136.0
54.929737 160.0
54.954639 132.0
54.979725 132.0
54.991531 168.0
55.028439 188.0
55.071651 184.0
55.117062 188.0
55.1693 184.0
55.190971 176.0
55.200909 216.0
55.237705 240.0
55.25605 116.0
55.276768 204.0
55.303406 120.0
55.318207 176.0
55.335976 148.0
55.41003 152.0
55.453003 184.0
55.537518 176.0
55.549385 124.0
55.593548 220.0
55.642883 184.0
55.701866 184.0
55.717625 160.0
55.729027 188.0
55.766182 392.0
55.82119 176.0
55.853909 148.0
55.889614 132.0
55.904495 180.0
55.919926 196.0
55.937241 184.0
55.950638 152.0
55.980053 212.0
56.037022 232.0
56.062138 192.0
56.067406 164.0
56.101109 204.0
56.154789 192.0
56.177166 180.0
56.201702 304.0
56.227898 148.0
56.244316 76.0
56.326962 220.0
56.372097 316.0
56.405643 48.0
56.46994 104.0
56.486393 124.0
56.523796 144.0
56.538761 152.0
56.56271 432.0
56.582172 164.0
56.59864 196.0
56.655079 200.0
56.685524 76.0
56.702007 172.0
56.7155 172.0
56.740982 112.0
56.754478 192.0
56.793468 136.0
56.842979 160.0
56.868492 180.0
56.931549 188.0
56.948071 132.0
56.963093 112.0
57.029209 184.0
57.051708 240.0
57.091007 192.0
57.145004 60.0
57.167576 168.0
57.201649 144.0
57.220261 196.0
57.253387 196.0
57.265434 120.0
57.312138 172.0
57.342278 36.0
57.445488 268.0
57.481022 172.0
57.529091 260.0
57.550457 108.0
57.568581 220.0
57.63958 208.0
57.67585 152.0
57.756603 148.0
57.842243 100.0
57.855869 140.0
57.871334 168.0
57.902283 172.0
57.942196 176.0
57.952801 184.0
57.981594 132.0
58.006741 236.0
58.032501 192.0
58.102901 140.0
58.124146 144.0
58.146908 180.0
58.16177 212.0
58.22282 168.0
58.275986 60.0
58.300301 148.0
58.323097 124.0
58.384193 176.0
58.420422 192.0
58.433891 192.0
58.448494 124.0
58.478649 136.0
58.514778 48.0
58.546757 224.0
58.557419 196.0
58.595501 80.0
58.632072 164.0
58.642742 124.0
58.720501 224.0
58.757111 324.0
58.775421 200.0
58.824261 184.0
58.847935 164.0
58.874645 132.0
58.894501 156.0
58.924263 208.0
58.9575 380.0
59.024406 180.0
59.045818 200.0
59.058052 96.0
59.06876 144.0
59.111603 108.0
59.177422 136.0
59.208046 156.0
59.263195 208.0
59.310703 172.0
59.376633 108.0
59.399689 128.0
59.468693 128.0
59.490181 152.0
59.548534 140.0
59.559284 220.0
59.587067 140.0
59.601501 192.0
59.61533 176.0
59.634575 164.0
59.765293 140.0
59.785297 128.0
59.857651 32.0
59.868431 196.0
59.914642 212.0
59.936211 148.0
59.961273 168.0
59.990154 44.0
60.004032 176.0
60.03487 176.0
60.045666 40.0
60.108917 164.0
60.123856 412.0
60.184555 32.0
60.207718 164.0
60.231327 196.0
60.280327 44.0
60.293732 160.0
60.311237 184.0
60.351433 112.0
60.362255 188.0
60.396282 200.0
60.421032 184.0
60.458168 168.0
60.495319 32.0
60.544865 168.0
60.575844 132.0
60.682781 152.0
60.775845 68.0
60.825508 160.0
60.849636 184.0
60.926449 128.0
60.943539 40.0
60.974617 164.0
61.02317 224.0
61.04491 188.0
61.06324 96.0
61.113022 124.0
61.149513 240.0
61.160351 184.0
61.195515 196.0
61.212643 196.0
61.234447 60.0
61.301521 148.0
61.335724 176.0
61.399616 228.0
61.402885 164.0
61.507217 196.0
61.569767 56.0
61.668198 252.0
61.696285 124.0
61.711967 220.0
61.780682 184.0
61.794865 172.0
61.813644 160.0
61.827728 112.0
61.843563 224.0
61.855846 204.0
61.895042 352.0
61.917114 128.0
61.984642 120.0
62.020374 44.0
62.034485 156.0
62.090931 160.0
62.108185 164.0
62.122303 140.0
62.141129 144.0
62.180359 140.0
62.269089 148.0
62.334221 148.0
62.354694 160.0
62.365696 136.0
62.393993 144.0
62.425999 192.0
62.440548 172.0
62.460041 192.0
62.542267 204.0
62.561741 384.0
62.575638 248.0
62.603268 184.0
62.620594 188.0
62.635185 160.0
62.661549 216.0
62.71986 80.0
62.740353 164.0
62.771889 188.0
62.820782 164.0
62.866539 140.0
62.950207 148.0
62.966 108.0
62.981796 120.0
63.019711 192.0
63.041542 172.0
63.073444 64.0
63.084507 260.0
63.103481 176.0
63.16674 160.0
63.184143 192.0
63.354885 160.0
63.367798 208.0
63.39949 172.0
63.440701 184.0
63.451801 168.0
63.475582 88.0
63.495743 236.0
63.513649 184.0
63.598377 224.0
63.613617 176.0
63.627907 120.0
63.721611 180.0
63.740982 168.0
63.756451 200.0
63.79631 216.0
63.809029 140.0
63.828106 176.0
63.843342 200.0
63.884212 276.0
63.898094 196.0
63.970745 172.0
63.980309 328.0
64.004738 80.0
64.044342 212.0
64.065262 164.0
64.078003 124.0
64.192772 168.0
64.208824 60.0
64.214943 164.0
64.219543 208.0
64.23851 200.0
64.267639 124.0
64.285851 180.0
64.301254 112.0
64.312424 176.0
64.362869 208.0
64.367378 124.0
64.374977 136.0
64.433792 188.0
64.461464 176.0
64.480133 68.0
64.499313 240.0
64.523293 156.0
64.539284 136.0
64.569664 200.0
64.601181 200.0
64.643257 164.0
64.689674 84.0
64.708885 160.0
64.721695 188.0
64.741814 128.0
64.776146 184.0
64.873901 100.0
64.933228 204.0
64.971436 176.0
65.029495 260.0
65.059998 152.0
65.080872 160.0
65.098267 144.0
65.151535 92.0
65.295723 172.0
65.390648 172.0
65.484512 176.0
65.513512 72.0
65.529625 136.0
65.580452 96.0
65.597305 144.0
65.723358 208.0
65.748924 184.0
65.761841 136.0
65.77314 144.0
65.790894 200.0
65.834488 196.0
65.878105 164.0
65.91526 144.0
66.00489 144.0
66.051071 108.0
66.065628 212.0
66.079887 172.0
66.117874 168.0
66.155861 264.0
66.205162 436.0
66.217049 192.0
66.264763 240.0
66.29393 288.0
66.339317 172.0
66.364449 208.0
66.383095 52.0
66.443108 68.0
66.467445 80.0
66.539223 216.0
66.585953 164.0
66.643059 188.0
66.696442 144.0
66.714394 280.0
66.754974 364.0
66.782623 168.0
66.797264 124.0
66.831429 172.0
66.847702 212.0
66.893372 188.0
66.912804 176.0
66.950256 200.0
67.023567 184.0
67.036598 168.0
67.052895 160.0
67.08387 316.0
67.178452 168.0
67.215981 176.0
67.235565 232.0
67.246986 140.0
67.268204 176.0
67.308334 164.0
67.366188 160.0
67.410767 196.0
67.416878 164.0
67.422035 200.0
67.564003 196.0
67.575455 184.0
67.617317 192.0
67.642555 232.0
67.652618 212.0
67.673088 240.0
67.703133 360.0
67.726067 108.0
67.780128 64.0
67.791595 172.0
67.814545 124.0
67.841255 136.0
67.865364 108.0
67.886681 168.0
67.937973 148.0
67.973625 100.0
68.011673 172.0
68.031776 168.0
68.056519 192.0
68.096748 152.0
68.118103 160.0
68.134537 232.0
68.200264 124.0
68.238037 172.0
68.264381 196.0
68.284119 180.0
68.320305 164.0
68.442101 124.0
68.454567 204.0
68.485985 180.0
68.504692 168.0
68.537643 288.0
68.554115 196.0
68.567307 204.0
68.609322 204.0
68.639839 156.0
68.665535 212.0
68.695915 192.0
68.761917 112.0
68.777069 180.0
68.801537 164.0
68.834557 128.0
68.870895 92.0
68.93367 140.0
68.976143 184.0
69.039474 124.0
69.082481 184.0
69.105644 252.0
69.138741 132.0
69.158035 212.0
69.212204 204.0
69.223167 152.0
69.264961 188.0
69.305992 176.0
69.398895 164.0
69.413734 204.0
69.441925 160.0
69.4552 176.0
69.501648 152.0
69.559738 180.0
69.589622 136.0
69.612869 84.0
69.637779 200.0
69.657715 44.0
69.719193 184.0
69.745605 184.0
69.769058 88.0
69.795654 156.0
69.815613 180.0
69.840561 148.0
69.863632 92.0
69.874611 196.0
69.905449 184.0
69.930412 208.0
69.94706 132.0
69.97702 160.0
70.01963 136.0
70.048637 48.0
70.065773 196.0
70.188637 128.0
70.208641 124.0
70.223656 136.0
70.243484 176.0
70.273705 212.0
70.33712 176.0
70.353813 204.0
70.370628 212.0
70.450714 176.0
70.477402 184.0
70.530884 148.0
70.550941 80.0
70.564316 80.0
70.607796 180.0
70.654633 164.0
70.682579 200.0
70.708183 112.0
70.766769 176.0
70.781265 152.0
70.800262 168.0
70.868942 200.0
70.894073 52.0
70.910835 136.0
70.930946 156.0
70.952744 152.0
70.97789 164.0
71.013115 60.0
71.071831 144.0
71.086929 200.0
71.102036 160.0
71.121033 212.0
71.137283 172.0
71.186813 240.0
71.207809 72.0
71.248123 196.0
71.278366 192.0
71.290131 144.0
71.308617 204.0
71.332146 164.0
71.405861 200.0
71.444817 144.0
71.490921 140.0
71.505394 132.0
71.584518 220.0
71.650391 228.0
71.690407 200.0
71.782539 372.0
71.811081 172.0
71.846794 192.0
71.893021 168.0
71.948723 160.0
71.99263 140.0
72.033241 176.0
72.061195 88.0
72.066826 52.0
72.074593 136.0
72.093987 168.0
72.125542 192.0
72.146591 164.0
72.176819 168.0
72.217407 196.0
72.252937 208.0
72.340935 96.0
72.356171 124.0
72.381569 56.0
72.398506 120.0
72.415443 76.0
72.427299 196.0
72.462875 144.0
72.47982 148.0
72.494202 172.0
72.498215 84.0
72.504349 160.0
72.564568 112.0
72.579468 420.0
72.658081 240.0
72.683296 124.0
72.708755 56.0
72.863274 136.0
72.881966 132.0
72.926147 136.0
72.939751 140.0
72.955048 228.0
73.142174 212.0
73.196655 52.0
73.222198 168.0
73.234116 172.0
73.250534 176.0
73.298859 152.0
73.319069 172.0
73.372147 160.0
73.40625 136.0
73.43354 184.0
73.45401 152.0
73.518845 160.0
73.629814 160.0
73.655434 68.0
73.677643 76.0
73.718651 228.0
73.740868 176.0
73.758713 200.0
73.788727 72.0
73.809563 176.0
73.84095 268.0
73.894768 164.0
73.935059 324.0
73.986816 164.0
74.068092 148.0
74.088234 204.0
74.120598 252.0
74.153351 288.0
74.243767 152.0
74.27166 156.0
74.366837 176.0
74.388344 184.0
74.403793 140.0
74.417526 36.0
74.438133 216.0
74.455956 180.0
74.481071 112.0
74.503868 148.0
74.542923 180.0
74.589325 184.0
74.615112 180.0
74.631226 184.0
74.658051 144.0
74.68998 120.0
74.755516 128.0
74.762184 152.0
74.800697 260.0
74.829468 136.0
74.833878 184.0
74.857727 224.0
74.880112 120.0
74.904747 200.0
74.943619 176.0
74.96608 196.0
75.01796 160.0
75.056137 168.0
75.124336 152.0
75.168015 216.0
75.193901 144.0
75.295769 192.0
75.31649 136.0
75.342903 152.0
75.357956 124.0
75.40461 132.0
75.43985 176.0
75.525642 176.0
75.613884 176.0
75.657158 144.0
75.678345 136.0
75.697144 216.0
75.732498 228.0
75.758881 184.0
75.779442 176.0
75.808937 204.0
75.877205 160.0
75.892792 40.0
75.911865 140.0
75.929207 52.0
76.031563 148.0
76.051186 144.0
76.116631 148.0
76.173943 252.0
76.208687 64.0
76.232208 120.0
76.250397 148.0
76.272514 220.0
76.292114 112.0
76.31781 164.0
76.340797 160.0
76.361671 184.0
76.392982 56.0
76.459984 236.0
76.481529 180.0
76.514801 172.0
76.612328 132.0
76.643692 144.0
76.665161 144.0
76.701202 356.0
76.723862 148.0
76.741722 136.0
76.756516 204.0
76.784897 120.0
76.805824 112.0
76.823273 128.0
76.876518 284.0
76.904762 196.0
77.064201 36.0
77.098274 144.0
77.108589 120.0
77.130608 124.0
77.144592 136.0
77.197052 212.0
77.321442 192.0
77.347511 196.0
77.501633 196.0
77.531425 76.0
77.550697 128.0
77.587517 148.0
77.613815 192.0
77.627838 132.0
77.641869 200.0
77.655899 164.0
77.734848 192.0
77.754692 52.0
77.826126 188.0
77.896378 176.0
78.001816 160.0
78.017632 116.0
78.038734 88.0
78.05983 184.0
78.083305 196.0
78.117043 152.0
78.140747 220.0
78.249863 220.0
78.268173 120.0
78.331535 200.0
78.359062 156.0
78.394302 92.0
78.496552 244.0
78.508896 272.0
78.568863 192.0
78.600624 64.0
78.637688 284.0
78.660629 92.0
78.701241 196.0
78.736557 132.0
78.764816 184.0
78.853165 180.0
78.89299 128.0
78.925392 132.0
78.944305 196.0
78.961006 236.0
78.982231 204.0
79.017616 220.0
79.051231 52.0
79.068932 160.0
79.125092 132.0
79.150368 160.0
79.212357 184.0
79.247971 192.0
79.265503 132.0
79.288544 128.0
79.311165 152.0
79.361221 224.0
79.408791 160.0
79.449905 144.0
79.478378 164.0
79.527809 164.0
79.565262 108.0
79.586563 224.0
79.625633 176.0
79.738998 188.0
79.792671 148.0
79.818268 192.0
79.83712 220.0
79.885147 176.0
79.936745 188.0
79.993698 152.0
80.067192 188.0
80.102325 200.0
80.214592 172.0
80.227066 128.0
80.248466 116.0
80.264511 140.0
80.293045 68.0
80.357262 152.0
80.378922 192.0
80.416153 156.0
80.432533 156.0
80.458992 156.0
80.512558 192.0
80.525063 160.0
80.555428 188.0
80.607239 252.0
80.659073 168.0
80.746681 116.0
80.816338 188.0
80.836304 208.0
80.870972 240.0
80.927422 152.0
80.948685 156.0
81.010979 116.0
81.090439 164.0
81.181038 232.0
81.233887 188.0
81.253624 168.0
81.276947 196.0
81.302124 260.0
81.343353 336.0
81.460075 188.0
81.494987 184.0
81.542732 312.0
81.632622 36.0
81.685448 172.0
81.712219 112.0
81.745956 96.0
81.762024 176.0
81.82695 156.0
81.876244 128.0
81.9188 160.0
81.965645 168.0
81.996277 88.0
82.019714 184.0
82.035934 180.0
82.049675 152.0
82.062981 128.0
82.074577 120.0
82.097237 32.0
82.110855 180.0
82.134674 196.0
82.174164 440.0
82.248795 388.0
82.295464 188.0
82.300697 160.0
82.307053 148.0
82.314262 200.0
82.366165 184.0
82.380577 180.0
82.409523 188.0
82.421112 164.0
82.463737 108.0
82.480003 408.0
82.504082 188.0
82.540665 116.0
82.561363 44.0
82.608391 164.0
82.621056 144.0
82.655434 208.0
82.67424 236.0
82.688011 108.0
82.700676 140.0
82.749557 84.0
82.773514 156.0
82.838295 232.0
82.878159 116.0
82.894463 180.0
82.912582 132.0
82.956085 196.0
82.968781 96.0
83.017731 148.0
83.082024 236.0
83.228432 184.0
83.262238 160.0
83.324493 228.0
83.353432 160.0
83.429901 124.0
83.45076 196.0
83.556038 192.0
83.579956 200.0
83.633644 172.0
83.711929 36.0
83.741066 160.0
83.753815 148.0
83.843094 84.0
83.859497 120.0
83.879547 128.0
83.896004 152.0
83.910538 176.0
83.996254 176.0
84.018906 124.0
84.065399 40.0
84.095795 212.0
84.127525 64.0
84.154953 188.0
84.211952 208.0
84.286446 152.0
84.308472 140.0
84.390724 208.0
84.407181 180.0
84.477654 196.0
84.493828 140.0
84.544106 212.0
84.608826 196.0
84.650558 188.0
84.668167 176.0
84.700012 172.0
84.733894 160.0
84.756805 164.0
84.780632 172.0
84.877701 180.0
84.905296 104.0
84.929138 52.0
84.986008 132.0
85.047295 192.0
85.121841 64.0
85.140205 120.0
85.15921 184.0
85.174393 152.0
85.194717 124.0
85.213684 116.0
85.22654 324.0
85.244392 176.0
85.302292 112.0
85.370613 160.0
85.396492 152.0
85.456375 160.0
85.472 184.0
85.500542 204.0
85.52034 148.0
85.5467 152.0
85.581535 128.0
85.612846 72.0
85.635727 212.0
85.656342 156.0
85.679756 168.0
85.721535 160.0
85.752861 184.0
85.784195 192.0
85.804474 160.0
85.824203 212.0
85.877113 196.0
85.891151 84.0
85.907753 204.0
85.963104 140.0
86.053551 136.0
86.066475 252.0
86.115738 136.0
86.156975 224.0
86.229042 176.0
86.329994 152.0
86.362167 212.0
86.436165 120.0
86.473183 136.0
86.486137 72.0
86.610626 172.0
86.641685 124.0
86.678741 148.0
86.80294 224.0
86.821487 188.0
86.884598 180.0
87.005188 140.0
87.096176 52.0
87.124046 96.0
87.137047 104.0
87.164917 232.0
87.208679 168.0
87.24073 240.0
87.269012 180.0
87.282028 144.0
87.303909 156.0
87.328522 108.0
87.343399 92.0
87.442017 100.0
87.458763 136.0
87.47924 164.0
87.529083 156.0
87.604012 120.0
87.622643 88.0
87.643135 220.0
87.662651 120.0
87.687859 200.0
87.710228 124.0
87.727005 212.0
87.743782 132.0
87.786667 172.0
87.863144 68.0
87.881805 208.0
87.959244 208.0
88.014328 152.0
88.029266 152.0
88.061012 160.0
88.087166 164.0
88.100243 160.0
88.132004 108.0
88.21846 256.0
88.246017 180.0
88.260979 204.0
88.282875 96.0
88.305862 132.0
88.329582 180.0
88.361977 208.0
88.403145 208.0
88.43309 164.0
88.449936 96.0
88.517334 140.0
88.581802 496.0
88.633476 220.0
88.66346 144.0
88.679932 152.0
88.700943 228.0
88.730934 164.0
88.749687 56.0
88.77594 208.0
88.828453 140.0
88.84346 132.0
88.952309 236.0
88.965446 92.0
89.014267 120.0
89.044312 160.0
89.078682 200.0
89.110062 40.0
89.231125 164.0
89.249146 160.0
89.32724 128.0
89.345757 164.0
89.365761 164.0
89.386459 216.0
89.407166 100.0
89.431633 148.0
89.446686 180.0
89.461746 164.0
89.499405 168.0
89.512581 152.0
89.610573 176.0
89.640678 148.0
89.675575 116.0
89.69722 120.0
89.717957 232.0
89.750145 208.0
89.765091 184.0
89.795265 84.0
89.895256 92.0
89.92923 56.0
89.944328 60.0
89.975098 160.0
90.002853 108.0
90.027405 180.0
90.045021 244.0
90.11338 304.0
90.142639 128.0
90.220131 156.0
90.27433 84.0
90.27742 120.0
90.341164 124.0
90.389626 176.0
90.413063 144.0
90.454704 148.0
90.46904 112.0
90.555061 164.0
90.583473 152.0
90.615677 172.0
90.653198 160.0
90.711685 164.0
90.750771 188.0
90.79406 192.0
90.856369 164.0
90.862785 156.0
90.886818 92.0
90.932716 172.0
90.96653 116.0
91.054298 8604.0
91.090126 308.0
91.123413 296.0
91.138245 116.0
91.160255 104.0
91.194466 44.0
91.211006 160.0
91.299034 180.0
91.378929 88.0
91.405563 120.0
91.422691 124.0
91.462662 140.0
91.481361 160.0
91.578812 120.0
91.595955 128.0
91.634056 164.0
91.660728 292.0
91.725533 204.0
91.754128 132.0
91.870461 208.0
91.9048 36.0
91.9506 52.0
91.963959 152.0
91.998322 220.0
92.022995 156.0
92.038414 72.0
92.056686 684.0
92.089279 196.0
92.114807 156.0
92.133911 176.0
92.147285 84.0
92.196968 152.0
92.246666 80.0
92.33844 172.0
92.369049 144.0
92.386261 184.0
92.408783 192.0
92.435768 188.0
92.443527 164.0
92.483856 148.0
92.499168 112.0
92.547035 80.0
92.579849 244.0
92.658119 156.0
92.680977 176.0
92.701614 160.0
92.715607 184.0
92.732857 336.0
92.752022 172.0
92.776321 148.0
92.819923 124.0
92.835403 212.0
92.925369 200.0
92.94191 156.0
92.957237 60.0
92.984108 160.0
93.028252 148.0
93.067299 640.0
93.099297 48.0
93.147308 100.0
93.226089 128.0
93.244759 140.0
93.272217 272.0
93.291435 164.0
93.360657 124.0
93.397667 200.0
93.473671 160.0
93.51165 192.0
93.535744 124.0
93.576172 160.0
93.69558 104.0
93.743416 208.0
93.776512 180.0
93.841179 308.0
93.888855 224.0
93.914062 204.0
93.967422 136.0
93.982857 252.0
94.046547 176.0
94.072311 160.0
94.096733 52.0
94.125702 200.0
94.164543 176.0
94.21978 448.0
94.243523 136.0
94.281097 204.0
94.311165 164.0
94.340363 152.0
94.382698 100.0
94.401222 144.0
94.439186 228.0
94.506485 168.0
94.574654 196.0
94.612938 124.0
94.642395 56.0
94.688454 124.0
94.74324 212.0
94.804695 60.0
94.82795 180.0
94.86866 244.0
94.882233 148.0
94.899384 184.0
95.006348 140.0
95.049034 76.0
95.072319 152.0
95.099998 200.0
95.118904 148.0
95.225693 56.0
95.254829 140.0
95.301323 172.0
95.342407 204.0
95.369476 128.0
95.38308 68.0
95.419273 364.0
95.445297 132.0
95.499748 176.0
95.517723 284.0
95.630112 100.0
95.746925 84.0
95.784103 232.0
95.797073 156.0
95.827065 116.0
95.848801 68.0
95.879402 64.0
95.992477 184.0
96.019775 192.0
96.083832 244.0
96.152443 160.0
96.16806 144.0
96.229111 204.0
96.269577 216.0
96.318405 44.0
96.35759 144.0
96.408279 200.0
96.421967 60.0
96.451393 212.0
96.507973 64.0
96.56469 124.0
96.58374 248.0
96.621414 144.0
96.645401 200.0
96.670982 192.0
96.701645 128.0
96.718704 184.0
96.76429 116.0
96.811279 164.0
96.879837 172.0
96.900368 224.0
96.954292 156.0
96.96801 192.0
96.985649 144.0
97.013145 156.0
97.055351 188.0
97.069954 272.0
97.111137 172.0
97.13237 204.0
97.197456 128.0
97.241203 124.0
97.264572 164.0
97.287743 180.0
97.313133 192.0
97.337555 184.0
97.368248 128.0
97.39959 180.0
97.452721 144.0
97.488091 228.0
97.503807 168.0
97.5215 144.0
97.627663 64.0
97.668968 172.0
97.704376 208.0
97.723099 124.0
97.739792 196.0
97.793015 184.0
97.83194 224.0
97.893333 196.0
97.909088 248.0
97.926811 120.0
97.950447 172.0
97.980003 156.0
98.013496 148.0
98.095711 500.0
98.121986 188.0
98.165283 108.0
98.196831 56.0
98.212616 128.0
98.240227 244.0
98.267853 212.0
98.297447 164.0
98.356659 144.0
98.407982 104.0
98.455376 356.0
98.519547 148.0
98.527031 204.0
98.564026 136.0
98.635178 184.0
98.668777 196.0
98.706345 180.0
98.789413 196.0
98.809647 172.0
98.834526 160.0
98.892311 156.0
98.920021 92.0
98.941803 204.0
98.971931 200.0
99.019028 200.0
99.062607 112.0
99.100243 220.0
99.133934 112.0
99.155128 196.0
99.171455 184.0
99.199341 172.0
99.215668 128.0
99.26873 124.0
99.316528 160.0
99.351692 184.0
99.375847 148.0
99.417519 160.0
99.435379 64.0
99.488976 168.0
99.552513 48.0
99.592232 144.0
99.651825 200.0
99.673203 132.0
99.720657 188.0
99.771584 236.0
99.801483 136.0
99.865379 284.0
99.883057 184.0
99.930183 100.0
99.94809 104.0
99.967857 184.0
100.00351 196.0
100.042397 188.0
100.107338 68.0
100.149162 44.0
100.218887 52.0
100.255989 168.0
100.310562 156.0
100.330498 176.0
100.382339 116.0
100.402283 144.0
100.446159 40.0
100.460129 180.0
100.51963 240.0
100.54792 124.0
100.587845 128.0
100.609802 112.0
100.637749 132.0
100.679688 100.0
100.735611 68.0
100.749596 148.0
100.841515 140.0
100.871498 196.0
101.037209 204.0
101.075493 76.0
101.101509 152.0
101.121521 152.0
101.15155 200.0
101.17131 156.0
101.205605 96.0
101.221626 108.0
101.261673 108.0
101.291 156.0
101.315063 172.0
101.329781 140.0
101.361839 84.0
101.446022 164.0
101.464066 168.0
101.518387 132.0
101.550293 200.0
101.57328 216.0
101.592415 60.0
101.634544 300.0
101.668663 184.0
101.704788 96.0
101.724861 180.0
101.746941 200.0
101.803169 60.0
101.863419 348.0
101.895561 160.0
102.014137 116.0
102.045418 972.0
102.094559 128.0
102.152893 68.0
102.203186 132.0
102.231361 124.0
102.274559 172.0
102.287712 188.0
102.305832 144.0
102.366089 196.0
102.418602 236.0
102.4468 212.0
102.462738 228.0
102.529411 88.0
102.600433 188.0
102.646339 136.0
102.666504 180.0
102.690704 372.0
102.759819 200.0
102.787842 160.0
102.827904 144.0
102.848083 68.0
102.884674 128.0
102.965187 176.0
103.018845 256.0
103.033699 188.0
103.054573 6924.0
103.090446 144.0
103.145012 180.0
103.203644 120.0
103.227905 192.0
103.252174 32.0
103.30072 60.0
103.322144 264.0
103.33638 32.0
103.412071 140.0
103.441727 212.0
103.480835 228.0
103.496933 156.0
103.531464 160.0
103.571968 196.0
103.650047 208.0
103.681381 168.0
103.718102 176.0
103.744217 184.0
103.821266 176.0
103.837486 232.0
103.859795 120.0
103.878174 136.0
103.916603 140.0
103.94812 192.0
104.060646 1256.0
104.156151 172.0
104.184593 68.0
104.200844 180.0
104.247581 176.0
104.261803 116.0
104.278061 108.0
104.312622 80.0
104.330559 168.0
104.365479 140.0
104.44886 144.0
104.4692 152.0
104.509377 220.0
104.552628 96.0
104.581123 140.0
104.615723 160.0
104.636086 76.0
104.672737 40.0
104.689026 140.0
104.772537 152.0
104.792557 160.0
104.807823 176.0
104.849968 128.0
104.886078 184.0
104.916954 176.0
104.959412 192.0
104.973694 156.0
104.990784 124.0
105.010719 132.0
105.018898 112.0
105.035248 492.0
105.07003 41288.0
105.092903 516.0
105.123238 148.0
105.13829 332.0
105.1661 52.0
105.202843 60.0
105.229378 88.0
105.26001 92.0
105.274307 52.0
105.299675 216.0
105.342484 64.0
105.369225 36.0
105.389969 64.0
105.423431 68.0
105.522667 292.0
105.59581 188.0
105.63607 68.0
105.662666 216.0
105.738014 180.0
105.757141 72.0
105.774475 160.0
105.795044 152.0
105.877594 72.0
105.896027 244.0
105.939049 192.0
106.00666 72.0
106.040154 328.0
106.07299 3588.0
106.105469 232.0
106.137848 76.0
106.182968 164.0
106.245903 120.0
106.277328 52.0
106.295715 132.0
106.338898 64.0
106.36763 164.0
106.405571 348.0
106.485794 68.0
106.517532 104.0
106.5504 168.0
106.57711 64.0
106.631294 272.0
106.669594 52.0
106.69632 228.0
106.710709 164.0
106.727158 44.0
106.782684 116.0
106.797081 208.0
106.823502 76.0
106.838791 196.0
106.89389 72.0
106.917297 84.0
106.944588 188.0
106.967873 180.0
107.006981 128.0
107.047882 1556.0
107.077835 340.0
107.163513 108.0
107.229462 176.0
107.256256 96.0
107.278931 28.0
107.305733 184.0
107.328407 188.0
107.34491 180.0
107.390282 184.0
107.415031 316.0
107.448036 132.0
107.462479 220.0
107.495491 144.0
107.555344 184.0
107.588379 144.0
107.658577 48.0
107.685425 176.0
107.70195 44.0
107.717445 160.0
107.723434 80.0
107.732079 192.0
107.761864 64.0
107.779655 208.0
107.821785 192.0
107.83625 148.0
107.879288 168.0
107.912743 112.0
107.957863 180.0
107.994232 128.0
108.027336 156.0
108.05545 160.0
108.090622 144.0
108.11132 136.0
108.142365 176.0
108.169571 164.0
108.194115 136.0
108.241028 188.0
108.266586 100.0
108.332863 28.0
108.40538 108.0
108.423409 172.0
108.467697 124.0
108.494019 220.0
108.549423 148.0
108.579529 104.0
108.602341 92.0
108.618935 168.0
108.695702 204.0
108.742081 148.0
108.776642 140.0
108.791168 156.0
108.809853 168.0
108.909531 36.0
108.942818 168.0
108.963547 116.0
109.067284 196.0
109.111107 136.0
109.190125 156.0
109.225479 144.0
109.296219 124.0
109.412773 176.0
109.492264 136.0
109.539803 148.0
109.556473 136.0
109.596054 248.0
109.632416 240.0
109.650803 192.0
109.689301 200.0
109.719482 220.0
109.757065 212.0
109.775963 388.0
109.877525 144.0
110.040321 172.0
110.10923 144.0
110.136383 80.0
110.205322 48.0
110.305634 104.0
110.343269 80.0
110.374626 172.0
110.431091 228.0
110.464561 156.0
110.517586 136.0
110.558716 160.0
110.583832 208.0
110.717827 136.0
110.745049 192.0
110.841423 192.0
110.897842 208.0
110.947357 168.0
110.969276 72.0
111.016243 192.0
111.051064 128.0
111.069939 160.0
111.086723 184.0
111.123985 100.0
111.1315 152.0
111.2565 184.0
111.323898 172.0
111.35508 132.0
111.386902 164.0
111.454132 92.0
111.487755 264.0
111.544502 132.0
111.599167 104.0
111.637016 132.0
111.704315 44.0
111.733772 104.0
111.771645 236.0
111.799004 132.0
111.862144 96.0
111.893723 252.0
111.924484 240.0
111.990852 96.0
112.027725 176.0
112.072342 152.0
112.111763 4140.0
112.216072 216.0
112.243484 168.0
112.260353 164.0
112.28566 128.0
112.306755 216.0
112.3405 168.0
112.401688 152.0
112.416977 164.0
112.479523 168.0
112.534119 160.0
112.608574 232.0
112.655045 216.0
112.673935 132.0
112.70153 140.0
112.73111 260.0
112.826225 120.0
112.850662 236.0
112.98484 116.0
113.067368 168.0
113.083405 180.0
113.118668 372.0
113.14325 224.0
113.171089 164.0
113.232697 132.0
113.267159 220.0
113.300285 92.0
113.323593 52.0
113.403938 184.0
113.45018 208.0
113.639511 64.0
113.665794 164.0
113.70105 204.0
113.727646 180.0
113.735451 228.0
113.79232 124.0
113.907997 128.0
113.928246 152.0
113.957993 108.0
113.972679 92.0
114.001068 164.0
114.089035 164.0
114.127716 576.0
114.18119 56.0
114.20459 200.0
114.221603 200.0
114.285835 228.0
114.321602 112.0
114.34288 172.0
114.391838 184.0
114.462097 124.0
114.485519 120.0
114.530251 132.0
114.552788 124.0
114.583466 208.0
114.617599 132.0
114.662346 152.0
114.685791 76.0
114.702843 152.0
114.7668 212.0
114.813721 104.0
114.83931 140.0
114.900146 192.0
114.952316 192.0
114.98439 148.0
115.053566 9428.0
115.127274 108.0
115.171104 116.0
115.237701 148.0
115.254204 116.0
115.291931 180.0
115.317574 32.0
115.351776 160.0
115.420189 52.0
115.461365 236.0
115.486488 56.0
115.559074 180.0
115.593452 168.0
115.664185 164.0
115.68763 80.0
115.720627 116.0
115.753036 156.0
115.893234 88.0
115.916801 168.0
115.940376 116.0
116.003319 208.0
116.061882 13208.0
116.106628 204.0
116.130051 136.0
116.150497 60.0
116.178383 196.0
116.219894 184.0
116.24704 112.0
116.27494 196.0
116.353149 176.0
116.442406 236.0
116.474625 156.0
116.498253 140.0
116.521881 112.0
116.622879 156.0
116.637863 128.0
116.644379 124.0
116.652237 128.0
116.67662 112.0
116.694061 228.0
116.827164 160.0
116.850349 144.0
116.870193 192.0
116.887039 140.0
116.904625 96.0
116.936905 212.0
116.993126 192.0
117.012245 168.0
117.031311 136.0
117.044777 148.0
117.068756 7288.0
117.109154 176.0
117.12854 52.0
117.173332 264.0
117.230873 208.0
117.24704 124.0
117.304489 144.0
117.364311 60.0
117.393631 104.0
117.423828 60.0
117.447556 220.0
117.489288 208.0
117.540321 152.0
117.569069 100.0
117.598587 168.0
117.62233 68.0
117.689255 44.0
117.711365 184.0
117.758362 188.0
117.827484 40.0
117.857735 176.0
117.874229 196.0
117.918243 148.0
118.018723 216.0
118.027252 104.0
118.036369 156.0
118.075485 1688.0
118.156105 188.0
118.170158 164.0
118.227516 184.0
118.278465 148.0
118.342239 188.0
118.381218 112.0
118.528519 128.0
118.832077 76.0
118.84726 72.0
118.897118 152.0
118.945007 208.0
118.978699 208.0
119.007881 152.0
119.050903 968.0
119.085129 14152.0
119.139748 84.0
119.199028 104.0
119.244667 176.0
119.3181 164.0
119.358139 204.0
119.388153 140.0
119.408226 192.0
119.432365 184.0
119.512146 132.0
119.526848 160.0
119.579605 152.0
119.620964 132.0
119.64016 44.0
119.657974 144.0
119.685493 100.0
119.709061 104.0
119.717773 104.0
119.736702 172.0
119.755203 148.0
119.811966 204.0
119.836632 148.0
119.904121 216.0
119.943932 152.0
119.957863 116.0
119.978233 156.0
119.993492 112.0
120.032745 180.0
120.057816 592.0
120.08844 1820.0
120.16143 132.0
120.18325 148.0
120.220345 96.0
120.248718 172.0
120.266182 52.0
120.292374 68.0
120.346954 76.0
120.362236 112.0
120.401543 132.0
120.475807 164.0
120.56221 100.0
120.626595 116.0
120.729355 144.0
120.7556 152.0
120.786224 148.0
120.822304 236.0
120.899994 124.0
120.919342 124.0
120.967514 212.0
121.029152 332.0
121.06472 14524.0
121.136467 80.0
121.184662 172.0
121.224106 52.0
121.248672 172.0
121.275154 68.0
121.318352 160.0
121.33725 148.0
121.423599 280.0
121.438957 112.0
121.471748 332.0
121.500374 200.0
121.539871 52.0
121.555229 176.0
121.583755 96.0
121.619621 248.0
121.671555 96.0
121.710114 100.0
121.725563 228.0
121.755783 144.0
121.787323 156.0
121.893394 128.0
121.939674 208.0
121.965866 164.0
122.020882 60.0
122.068924 1188.0
122.111038 140.0
122.14994 212.0
122.267242 196.0
122.327423 212.0
122.427956 216.0
122.449982 152.0
122.476913 140.0
122.496231 160.0
122.535889 136.0
122.571144 156.0
122.619621 168.0
122.652687 92.0
122.68502 192.0
122.70755 176.0
122.751724 256.0
122.780563 172.0
122.818062 144.0
122.897484 112.0
122.939407 144.0
122.987961 160.0
123.010033 108.0
123.047562 136.0
123.077881 140.0
123.146935 364.0
123.176239 224.0
123.39222 132.0
123.478462 84.0
123.561707 184.0
123.589073 180.0
123.647453 136.0
123.786072 152.0
123.801575 120.0
123.85405 220.0
123.88353 192.0
123.930054 44.0
123.949997 84.0
123.987671 180.0
124.025589 220.0
124.056381 176.0
124.142853 128.0
124.158379 52.0
124.18499 200.0
124.293694 172.0
124.332626 184.0
124.372238 216.0
124.40023 64.0
124.475716 96.0
124.51371 296.0
124.546783 172.0
124.588989 56.0
124.608986 140.0
124.63343 204.0
124.715652 132.0
124.824593 92.0
124.869072 192.0
124.913551 204.0
125.033707 164.0
125.058189 176.0
125.104935 144.0
125.202904 132.0
125.256363 104.0
125.398964 132.0
125.439087 192.0
125.461372 228.0
125.523361 60.0
125.577332 136.0
125.66433 144.0
125.68441 72.0
125.732544 168.0
125.769623 196.0
125.823112 196.0
125.988052 144.0
126.050499 188.0
126.151192 156.0
126.200035 236.0
126.245094 136.0
126.374397 184.0
126.43512 200.0
126.518776 196.0
126.587486 132.0
126.607635 136.0
126.652435 156.0
126.692757 228.0
126.791344 144.0
126.849884 196.0
126.912399 120.0
126.928093 144.0
126.984154 152.0
127.054535 1420.0
127.103058 156.0
127.135017 164.0
127.210785 156.0
127.274811 176.0
127.309341 192.0
127.329788 108.0
127.358986 88.0
127.393929 144.0
127.411919 272.0
127.457832 160.0
127.547729 68.0
127.635414 160.0
127.657898 208.0
127.691635 52.0
127.754616 168.0
127.779366 160.0
127.81311 428.0
127.846863 180.0
127.86937 172.0
127.945908 84.0
127.977135 216.0
128.029221 96.0
128.06189 8924.0
128.112564 28.0
128.128326 176.0
128.186905 140.0
128.259033 160.0
128.306366 80.0
128.358231 188.0
128.380783 40.0
128.401077 56.0
128.419113 148.0
128.437164 156.0
128.462845 156.0
128.483887 240.0
128.556107 172.0
128.606384 64.0
128.651535 176.0
128.708786 212.0
128.77066 212.0
128.807358 104.0
128.825424 132.0
128.843491 32.0
128.971222 160.0
128.988129 112.0
129.026199 148.0
129.069458 12812.0
129.113693 200.0
129.13562 140.0
129.181229 212.0
129.236893 92.0
129.284424 164.0
129.309311 180.0
129.354584 156.0
129.383224 144.0
129.428925 72.0
129.448685 128.0
129.485916 204.0
129.531204 208.0
129.603714 96.0
129.621841 144.0
129.658096 232.0
129.707245 128.0
129.757828 168.0
129.784805 200.0
129.880203 208.0
129.899414 92.0
129.920242 144.0
129.960739 216.0
130.040649 680.0
130.076767 9288.0
130.122299 12520.0
130.175323 72.0
130.193497 40.0
130.216965 24.0
130.236649 48.0
130.305313 216.0
130.339539 192.0
130.394821 84.0
130.466156 68.0
130.50708 208.0
130.552567 116.0
130.600327 60.0
130.638428 256.0
130.664474 260.0
130.68222 160.0
130.777802 152.0
130.814224 148.0
130.875 196.0
130.903961 184.0
130.925644 188.0
130.929199 176.0
130.957169 108.0
130.983215 188.0
131.048706 10880.0
131.085648 47104.0
131.126877 1132.0
131.146484 128.0
131.166443 112.0
131.182465 92.0
131.19223 60.0
131.195389 88.0
131.237411 96.0
131.289261 168.0
131.306381 192.0
131.324631 52.0
131.351196 80.0
131.403885 132.0
131.482956 164.0
131.510406 180.0
131.529984 84.0
131.584778 124.0
131.624664 180.0
131.672791 148.0
131.738434 228.0
131.786377 200.0
131.821716 208.0
131.906158 212.0
131.959473 212.0
131.989914 116.0
132.055908 2580.0
132.088394 3464.0
132.134979 364.0
132.155502 108.0
132.176773 100.0
132.19278 224.0
132.223862 104.0
132.254578 192.0
132.286621 392.0
132.371338 132.0
132.410263 248.0
132.430878 140.0
132.488144 52.0
132.513351 124.0
132.552307 152.0
132.567688 56.0
132.583176 76.0
132.61647 208.0
132.646271 176.0
132.672455 164.0
132.687775 116.0
132.771606 180.0
132.81366 96.0
132.86412 76.0
132.901413 336.0
132.935165 96.0
133.064056 10360.0
133.09996 5316.0
133.139511 136.0
133.16861 192.0
133.194702 52.0
133.233749 100.0
133.261124 140.0
133.279694 40.0
133.300385 160.0
133.318756 208.0
133.335785 112.0
133.357834 72.0
133.428558 172.0
133.454071 208.0
133.504974 76.0
133.534866 256.0
133.578568 52.0
133.606186 52.0
133.624588 164.0
133.675201 76.0
133.723541 132.0
133.762665 464.0
133.783386 108.0
133.820221 88.0
133.850159 108.0
133.926147 180.0
133.979126 128.0
134.068298 1020.0
134.103546 772.0
134.122452 164.0
134.14505 80.0
134.163498 148.0
134.186295 176.0
134.269562 192.0
134.343384 160.0
134.410294 56.0
134.470291 132.0
134.491058 196.0
134.532608 136.0
134.571854 136.0
134.606491 104.0
134.645752 184.0
134.675781 100.0
134.708984 96.0
134.754318 152.0
134.881424 180.0
134.899506 288.0
134.930893 212.0
134.970718 232.0
135.031723 124.0
135.056305 172.0
135.082123 176.0
135.108047 304.0
135.142761 212.0
135.162262 112.0
135.191345 200.0
135.230698 152.0
135.247742 120.0
135.272354 216.0
135.304764 60.0
135.327927 184.0
135.346008 148.0
135.457611 52.0
135.520157 152.0
135.600876 212.0
135.668488 76.0
135.790771 196.0
135.895767 160.0
135.983963 168.0
136.036713 148.0
136.129013 208.0
136.177216 204.0
136.257965 148.0
136.274231 200.0
136.354034 284.0
136.425293 140.0
136.562485 96.0
136.585754 116.0
136.60791 204.0
136.714752 260.0
136.864899 152.0
136.921494 96.0
136.988464 92.0
137.051361 140.0
137.135254 44.0
137.2285 184.0
137.293793 216.0
137.377762 140.0
137.419754 136.0
137.667191 208.0
137.735168 144.0
137.755936 172.0
137.79332 208.0
137.865753 164.0
137.915909 148.0
137.970932 92.0
138.003662 44.0
138.045761 160.0
138.082535 132.0
138.115921 32.0
138.445923 256.0
138.467117 164.0
138.64975 64.0
138.738815 120.0
138.759918 48.0
138.900955 172.0
138.999161 184.0
139.046097 164.0
139.091125 64.0
139.150726 236.0
139.175201 184.0
139.215134 168.0
139.250351 120.0
139.27742 160.0
139.358414 156.0
139.393661 32.0
139.459457 132.0
139.485321 84.0
139.576355 220.0
139.626389 124.0
139.791077 84.0
139.885223 140.0
139.925232 136.0
139.9841 136.0
140.071243 156.0
140.153702 216.0
140.229111 176.0
140.29512 116.0
140.318695 164.0
140.415375 144.0
140.43895 64.0
140.46254 140.0
140.501068 204.0
140.549835 68.0
140.58287 252.0
140.682007 48.0
140.769363 120.0
140.797699 164.0
140.83313 152.0
140.964035 176.0
141.024521 40.0
141.070099 2452.0
141.251511 132.0
141.333344 168.0
141.374542 52.0
141.563919 92.0
141.634979 72.0
141.71315 176.0
141.743958 100.0
141.794128 164.0
141.854767 212.0
141.902771 160.0
141.924774 200.0
141.983383 76.0
142.032303 128.0
142.076721 3472.0
142.123352 132.0
142.142334 140.0
142.272873 52.0
142.346466 132.0
142.439102 68.0
142.539764 152.0
142.572159 132.0
142.62207 64.0
142.645828 136.0
142.67157 224.0
142.721909 212.0
142.786118 116.0
142.808533 148.0
142.847961 156.0
142.864609 124.0
142.926468 276.0
142.955032 164.0
142.97644 176.0
143.014526 140.0
143.048599 64.0
143.084793 3908.0
143.130432 152.0
143.181686 272.0
143.197159 192.0
143.235977 112.0
143.42421 188.0
143.44519 60.0
143.543411 144.0
143.581573 76.0
143.617355 176.0
143.643585 156.0
143.665054 128.0
143.684891 168.0
143.719925 180.0
143.793915 160.0
143.84642 244.0
143.8703 60.0
143.958633 52.0
143.977737 128.0
144.015823 172.0
144.05687 880.0
144.090973 1356.0
144.13063 56.0
144.171249 56.0
144.196259 104.0
144.24057 244.0
144.257294 92.0
144.295547 64.0
144.312286 220.0
144.427078 72.0
144.474915 180.0
144.506012 200.0
144.553558 152.0
144.673538 80.0
144.735794 104.0
144.792282 88.0
144.814819 180.0
144.873688 188.0
144.893875 176.0
144.913559 296.0
144.955063 252.0
144.972107 260.0
145.013199 176.0
145.064911 9780.0
145.101089 49544.0
145.191696 136.0
145.233475 180.0
145.238678 48.0
145.248138 72.0
145.264053 200.0
145.30072 40.0
145.331726 168.0
145.376938 164.0
145.400421 48.0
145.447372 208.0
145.474762 144.0
145.55574 136.0
145.615906 136.0
145.654419 200.0
145.673553 160.0
145.709579 36.0
145.72641 84.0
145.757645 180.0
145.776825 228.0
145.822525 108.0
145.856171 60.0
145.886536 152.0
145.904251 172.0
145.930695 64.0
145.952347 76.0
145.980652 192.0
146.019485 452.0
146.072556 40232.0
146.103867 5036.0
146.162292 112.0
146.188797 136.0
146.225464 60.0
146.273041 160.0
146.28894 124.0
146.312317 140.0
146.344543 36.0
146.389038 200.0
146.425827 116.0
146.445251 136.0
146.461807 168.0
146.491226 156.0
146.554092 68.0
146.573807 176.0
146.647171 140.0
146.677002 192.0
146.694199 236.0
146.714691 88.0
146.746658 100.0
146.776642 180.0
146.828903 144.0
146.873154 104.0
146.918777 144.0
146.947327 124.0
146.986572 144.0
147.008972 180.0
147.018188 156.0
147.045135 140.0
147.079285 18388.0
147.113419 872.0
147.1642 80.0
147.21376 136.0
147.251251 44.0
147.284164 96.0
147.3358 104.0
147.357544 48.0
147.376083 124.0
147.43129 180.0
147.490448 68.0
147.514633 36.0
147.55983 204.0
147.671021 100.0
147.72435 100.0
147.7742 120.0
147.791946 120.0
147.815277 144.0
147.836304 56.0
147.923447 92.0
147.95491 48.0
148.000763 64.0
148.018265 72.0
148.044495 44.0
148.086487 7616.0
148.141388 64.0
148.168915 104.0
148.196243 292.0
148.232178 144.0
148.256866 176.0
148.291611 100.0
148.326721 116.0
148.364334 68.0
148.390396 128.0
148.439499 72.0
148.468597 164.0
148.499207 72.0
148.536514 40.0
148.635986 92.0
148.713638 160.0
148.780746 56.0
148.824219 152.0
148.922623 156.0
148.951889 68.0
149.018402 88.0
149.050323 220.0
149.095764 12016.0
149.172653 132.0
149.196945 116.0
149.221344 468.0
149.272415 76.0
149.289429 32.0
149.306458 44.0
149.334793 148.0
149.363617 128.0
149.43782 56.0
149.464584 168.0
149.496216 68.0
149.54245 120.0
149.664169 112.0
149.6987 136.0
149.727493 72.0
149.817612 152.0
149.895584 40.0
149.956497 76.0
150.000702 92.0
150.098175 824.0
150.160202 124.0
150.193008 92.0
150.227158 96.0
150.251556 180.0
150.341843 72.0
150.383331 64.0
150.41243 172.0
150.439468 92.0
150.597488 112.0
150.661697 72.0
150.710571 168.0
150.868317 212.0
150.885513 104.0
150.923218 144.0
150.986801 72.0
151.082199 144.0
151.104034 172.0
151.123505 176.0
151.260834 164.0
151.299652 168.0
151.3759 124.0
151.552277 232.0
151.571579 196.0
151.591476 220.0
151.633133 168.0
151.658875 136.0
151.723663 60.0
151.730316 56.0
151.760605 208.0
151.875839 212.0
152.063339 208.0
152.137039 284.0
152.307877 60.0
152.36998 152.0
152.411057 140.0
152.447922 148.0
152.499527 200.0
152.590485 140.0
152.64212 124.0
152.659332 64.0
152.734177 204.0
152.841354 164.0
152.883194 160.0
152.92749 156.0
153.003799 48.0
153.021042 64.0
153.069229 1984.0
153.099838 256.0
153.139236 232.0
153.182449 148.0
153.439865 128.0
153.538498 252.0
153.647034 84.0
153.664307 112.0
153.755615 156.0
153.846939 140.0
154.042023 172.0
154.078659 1484.0
154.113678 100.0
154.261963 104.0
154.477097 156.0
154.5439 168.0
154.583481 160.0
154.647827 224.0
154.672577 132.0
154.878098 204.0
154.978394 132.0
155.059174 1080.0
155.084991 4688.0
155.13414 184.0
155.279633 108.0
155.413589 80.0
155.448318 92.0
155.473145 196.0
155.510361 148.0
155.589798 152.0
155.632004 40.0
155.71286 208.0
155.763641 56.0
155.848099 284.0
155.910233 144.0
156.012939 172.0
156.041977 184.0
156.061859 200.0
156.089066 928.0
156.133972 104.0
156.18869 60.0
156.218155 128.0
156.235962 132.0
156.328018 36.0
156.529648 108.0
156.59938 144.0
156.6492 232.0
156.664749 164.0
156.78125 144.0
156.828613 140.0
156.883453 240.0
156.960739 132.0
157.025574 104.0
157.066605 1796.0
157.100037 3184.0
157.150314 188.0
157.217682 136.0
157.23587 124.0
157.272583 132.0
157.31752 100.0
157.352478 84.0
157.439865 80.0
157.52478 72.0
157.564758 112.0
157.604736 164.0
157.682205 112.0
157.719696 84.0
157.749695 116.0
157.784683 48.0
157.822189 116.0
157.977249 48.0
158.027283 156.0
158.072388 2004.0
158.107605 1188.0
158.16243 40.0
158.340195 52.0
158.427872 184.0
158.447906 128.0
158.518066 160.0
158.535599 192.0
158.716095 120.0
158.753708 148.0
158.811386 120.0
158.919266 216.0
158.951874 36.0
158.979477 68.0
159.001572 240.0
159.080322 4640.0
159.117157 1224.0
159.15332 144.0
159.202911 184.0
159.223007 52.0
159.290817 152.0
159.331009 32.0
159.353622 148.0
159.393173 92.0
159.50943 72.0
159.67981 152.0
159.755875 176.0
159.813736 212.0
159.838898 192.0
159.870575 144.0
159.891739 192.0
159.984879 76.0
160.002502 240.0
160.087112 1796.0
160.129089 148.0
160.24176 72.0
160.274521 152.0
160.302231 72.0
160.39296 204.0
160.474411 168.0
160.572693 236.0
160.639267 208.0
160.6754 144.0
160.737839 140.0
160.75209 172.0
160.806168 156.0
160.844482 84.0
160.86972 324.0
160.912643 172.0
160.935898 196.0
160.983795 468.0
161.001022 132.0
161.030823 216.0
161.096237 108576.0
161.152344 164.0
161.186142 124.0
161.223953 132.0
161.2397 84.0
161.270035 84.0
161.306564 116.0
161.346161 176.0
161.363464 92.0
161.382584 264.0
161.398972 52.0
161.42894 152.0
161.4496 72.0
161.509277 164.0
161.535446 144.0
161.58963 56.0
161.617813 128.0
161.648178 28.0
161.682495 184.0
161.705734 76.0
161.723129 124.0
161.7798 52.0
161.815826 68.0
161.832962 192.0
161.923569 232.0
161.976288 168.0
162.025192 204.0
162.069855 168.0
162.098755 12740.0
162.132904 184.0
162.157501 72.0
162.180023 140.0
162.247116 60.0
162.302719 180.0
162.372711 92.0
162.461487 60.0
162.486862 160.0
162.506027 124.0
162.551559 80.0
162.607239 164.0
162.6996 68.0
162.742325 252.0
162.78891 144.0
162.911682 120.0
163.006805 72.0
163.045502 104.0
163.068375 84.0
163.101959 1392.0
163.140472 280.0
163.16951 188.0
163.186951 80.0
163.230667 188.0
163.302063 48.0
163.34874 212.0
163.403992 212.0
163.452377 60.0
163.496094 88.0
163.634079 248.0
163.664139 76.0
163.750229 48.0
163.806259 68.0
163.844482 36.0
163.892883 96.0
164.04213 100.0
164.117599 148.0
164.244705 124.0
164.354401 56.0
164.436066 148.0
164.504974 28.0
164.534363 112.0
164.596893 68.0
164.852341 64.0
165.066879 208.0
165.141235 48.0
165.166809 112.0
165.194946 108.0
165.312637 40.0
165.402222 128.0
165.454117 88.0
165.55072 84.0
165.644104 176.0
165.976089 148.0
166.02739 104.0
166.074524 328.0
166.13768 124.0
166.160767 132.0
166.494461 132.0
166.561234 36.0
167.023926 116.0
167.083786 620.0
167.27095 52.0
167.358475 80.0
167.394531 160.0
167.712387 148.0
167.827423 160.0
168.0914 1944.0
168.267273 136.0
168.384827 128.0
168.446808 52.0
168.537231 36.0
168.568237 40.0
169.067429 148.0
169.099472 1128.0
169.34436 176.0
169.378036 80.0
169.447983 200.0
169.530899 172.0
169.611252 84.0
170.008072 144.0
170.07547 136.0
170.080429 132.0
170.099182 300.0
170.220932 48.0
170.467712 44.0
170.519684 128.0
170.613266 148.0
170.868134 32.0
170.940994 256.0
170.985229 156.0
171.024323 212.0
171.08017 4204.0
171.112762 840.0
171.180481 36.0
171.250793 148.0
171.498322 64.0
171.516571 84.0
171.542633 52.0
171.687469 116.0
171.78775 220.0
171.885391 132.0
171.996521 256.0
172.030441 164.0
172.086105 2860.0
172.21846 176.0
172.383041 28.0
172.50589 44.0
172.560791 92.0
172.641846 48.0
172.66539 104.0
172.696777 48.0
172.783096 40.0
172.82962 184.0
172.861099 192.0
172.90123 220.0
172.939407 164.0
172.947952 120.0
172.956512 164.0
172.976746 180.0
173.015442 108.0
173.042191 160.0
173.095688 10824.0
173.13176 19492.0
173.187256 184.0
173.222031 96.0
173.262192 44.0
173.304108 76.0
173.339874 240.0
173.376755 72.0
173.413467 88.0
173.450867 80.0
173.471848 56.0
173.53476 116.0
173.592453 96.0
173.650146 88.0
173.673752 88.0
173.753006 108.0
173.886276 48.0
173.949265 36.0
174.022781 220.0
174.056915 140.0
174.098679 1040.0
174.134491 2656.0
174.23877 84.0
174.343246 56.0
174.403687 52.0
174.440491 124.0
174.521988 72.0
174.582474 152.0
174.700836 60.0
174.741577 164.0
174.766602 44.0
174.800018 80.0
174.824493 188.0
174.845551 64.0
174.863983 72.0
174.940308 68.0
175.006866 156.0
175.061432 44.0
175.111282 5436.0
175.189651 176.0
175.298508 164.0
175.317841 108.0
175.380219 128.0
175.410675 100.0
175.427658 164.0
175.464569 124.0
175.493576 92.0
175.517303 124.0
175.585861 72.0
175.709839 60.0
175.728302 56.0
175.762604 88.0
175.786362 64.0
175.849701 76.0
176.079391 236.0
176.114746 720.0
176.258804 48.0
176.333023 200.0
176.443542 156.0
176.48793 72.0
176.602707 60.0
176.748215 108.0
176.967896 60.0
177.117813 204.0
177.214218 40.0
177.272522 180.0
177.34407 120.0
177.39444 64.0
177.436859 64.0
177.903778 72.0
178.079025 52.0
178.368652 44.0
178.496262 36.0
178.540176 148.0
178.57338 104.0
178.722351 100.0
178.969894 60.0
179.249588 116.0
179.292221 80.0
179.34819 60.0
179.788254 160.0
180.001816 168.0
180.162079 80.0
180.207489 132.0
180.29834 172.0
180.881424 128.0
181.092743 316.0
181.098221 128.0
181.194748 156.0
181.232254 412.0
181.425217 112.0
181.50029 164.0
181.682678 156.0
182.055771 184.0
182.100098 116.0
182.200806 68.0
182.450745 68.0
182.474945 156.0
182.526031 32.0
182.552917 88.0
182.62822 48.0
182.813858 156.0
182.854233 64.0
182.873062 124.0
182.892822 156.0
182.92421 60.0
182.988815 212.0
183.07988 180.0
183.116653 5408.0
183.18811 36.0
183.95665 192.0
184.088547 272.0
184.12117 984.0
184.172684 88.0
184.230728 172.0
184.540207 92.0
184.745743 48.0
184.891861 180.0
184.967651 112.0
185.095947 2632.0
185.125534 164.0
185.175232 132.0
185.238434 60.0
185.257401 184.0
186.063278 124.0
186.103104 8672.0
186.174164 56.0
186.296402 48.0
186.617096 180.0
186.685074 92.0
186.742188 104.0
186.995209 92.0
187.108109 1712.0
187.3004 92.0
187.496338 68.0
187.563217 52.0
187.586288 64.0
187.902634 140.0
187.921722 108.0
187.940826 80.0
187.998123 140.0
188.030884 168.0
188.110031 316.0
188.19194 68.0
188.260208 88.0
188.358521 88.0
188.645447 48.0
188.697388 92.0
189.033829 180.0
189.130127 276.0
189.184372 44.0
189.628113 96.0
189.762436 96.0
190.069626 140.0
190.130005 156.0
190.17392 52.0
190.20137 108.0
191.025513 200.0
191.598328 196.0
191.945618 48.0
192.036621 40.0
192.276657 168.0
192.414673 196.0
192.475418 188.0
192.665985 200.0
192.737823 136.0
193.191254 216.0
193.265945 84.0
194.008194 136.0
194.765762 120.0
194.917297 88.0
195.060303 164.0
196.179367 148.0
196.349442 52.0
196.673096 172.0
196.795929 36.0
197.019363 128.0
197.089203 112.0
197.212173 32.0
197.357544 188.0
198.92363 100.0
199.021896 104.0
199.111206 1308.0
199.350555 88.0
200.113297 480.0
200.276169 56.0
200.355042 64.0
200.518463 192.0
200.617126 284.0
200.687607 140.0
200.715805 36.0
200.793304 160.0
200.82579 208.0
200.859634 112.0
200.918884 112.0
200.949905 124.0
200.987656 180.0
201.030807 108.0
201.083511 496.0
201.127274 47296.0
201.232147 136.0
201.275772 188.0
201.298447 280.0
201.342682 84.0
201.376175 96.0
201.405563 64.0
201.432129 64.0
201.443741 52.0
201.465683 192.0
201.491989 52.0
201.532135 96.0
201.568268 64.0
201.627625 56.0
201.650223 48.0
201.670013 52.0
201.706757 136.0
201.751282 48.0
201.783081 80.0
201.831146 76.0
201.910339 60.0
201.990631 92.0
202.023468 108.0
202.129654 7032.0
202.181931 156.0
202.237579 60.0
202.295135 76.0
202.411224 28.0
202.431046 32.0
202.479187 80.0
202.520569 100.0
202.589661 56.0
202.734161 72.0
202.860107 64.0
202.900452 96.0
202.941086 84.0
203.139404 544.0
203.202026 80.0
203.28714 92.0
203.353561 100.0
203.418381 84.0
203.474487 28.0
203.502869 116.0
203.578201 76.0
203.601624 180.0
203.642029 104.0
203.721558 140.0
203.747131 48.0
203.769852 112.0
203.80394 72.0
204.017105 144.0
204.076813 80.0
204.130829 216.0
204.15358 100.0
204.204773 104.0
204.358383 60.0
204.389694 100.0
204.438065 100.0
204.480759 44.0
204.540527 60.0
204.924988 60.0
205.064621 72.0
205.355438 140.0
205.495209 72.0
205.669296 56.0
205.714966 88.0
205.823456 52.0
205.969101 176.0
206.040527 56.0
206.603714 32.0
206.921387 56.0
207.044525 88.0
207.078888 200.0
207.75824 84.0
208.970627 196.0
209.742416 160.0
210.0625 92.0
211.041534 76.0
211.895355 60.0
212.289566 124.0
212.393967 92.0
212.730576 80.0
213.343536 48.0
213.520905 144.0
214.56044 52.0
214.764557 56.0
215.42717 68.0
215.827576 72.0
215.927002 44.0
216.37764 224.0
216.632416 92.0
217.118973 124.0
217.151245 128.0
217.538559 156.0
217.876282 164.0
218.131943 156.0
218.164276 208.0
219.026474 80.0
219.129623 144.0
219.450851 132.0
219.568802 132.0
219.660233 68.0
219.713333 32.0
220.123596 128.0
220.75531 88.0
221.584763 52.0
221.664764 100.0
222.679367 52.0
223.618881 80.0
223.699249 128.0
225.165604 132.0
226.149887 160.0
227.000732 124.0
227.546814 64.0
230.08783 36.0
230.879486 36.0
230.994431 56.0
231.02771 108.0
232.011932 88.0
232.088043 120.0
232.372833 120.0
232.819046 132.0
234.01712 112.0
234.050613 140.0
234.13588 76.0
234.178528 100.0
234.446625 168.0
235.768051 64.0
235.80777 144.0
235.868912 96.0
235.969788 224.0
236.037048 108.0
236.162796 968.0
236.81131 96.0
236.897079 56.0
237.171387 284.0
237.353745 76.0
237.758667 132.0
237.853821 80.0
238.253036 44.0
239.468063 200.0
241.474228 68.0
242.592026 96.0
245.131317 36.0
245.174942 76.0
245.914093 148.0
246.382492 120.0
246.441849 68.0
246.933472 60.0
249.63913 44.0
251.933701 104.0
252.158051 108.0
252.502655 44.0
253.702728 148.0
255.379349 96.0
255.710236 152.0
256.688263 124.0
256.740631 132.0
257.300873 96.0
259.611053 132.0
260.201599 328.0
260.410187 48.0
261.130127 104.0
261.209015 296.0
263.305603 40.0
263.909882 156.0
263.9487 212.0
264.482513 88.0
266.041718 44.0
267.69342 76.0
267.973541 56.0
270.177277 68.0
270.638733 100.0
270.887634 72.0
271.969727 92.0
272.330902 40.0
272.491882 48.0
273.484985 148.0
273.66275 56.0
273.712158 96.0
273.791168 56.0
273.847168 100.0
274.311768 52.0
276.197235 108.0
276.230316 64.0
276.386566 124.0
276.78302 104.0
276.832703 104.0
276.991669 108.0
277.306458 164.0
277.61145 92.0
277.697693 60.0
277.767334 52.0
277.803833 52.0
278.036102 124.0
278.085876 144.0
278.148926 192.0
278.209839 13388.0
278.268463 40.0
278.314941 32.0
278.404602 40.0
278.464355 68.0
278.58728 72.0
278.719666 52.0
278.753387 100.0
278.826508 120.0
279.095764 40.0
279.215027 2304.0
279.311951 124.0
279.458313 92.0
279.904327 84.0
279.9776 84.0
280.004242 108.0
280.117493 108.0
280.202759 260.0
280.22226 484.0
280.357391 88.0
280.400146 48.0
280.500702 60.0
280.780762 92.0
281.191132 80.0
281.217834 280.0
281.287933 72.0
281.658569 68.0
281.772156 64.0
283.82724 60.0
284.44455 104.0
284.783661 48.0
285.297791 44.0
285.499542 36.0
286.239868 28.0
286.714874 100.0
287.220612 44.0
290.864899 72.0
291.350525 92.0
291.520386 52.0
293.256073 60.0
293.344696 76.0
293.818726 128.0
296.44812 112.0
296.568054 64.0
302.551575 80.0
302.984467 116.0
303.358765 96.0
303.490509 116.0
303.591064 96.0
305.856323 84.0
306.472748 80.0
306.65744 80.0
307.375824 44.0
308.070618 72.0
309.557098 120.0
310.541901 56.0
311.35965 164.0
311.791748 84.0
312.512634 64.0
313.139221 76.0
313.907501 72.0
314.380219 76.0
317.475647 72.0
318.444519 100.0
320.468628 100.0
320.700287 88.0
322.831665 104.0
323.737061 48.0
325.508545 100.0
326.601074 92.0
333.794495 40.0
335.651581 88.0
339.03299 148.0
339.245575 92.0
340.37558 56.0
344.932983 80.0
347.399231 76.0
348.304962 56.0
350.14978 88.0
353.490997 120.0
356.164093 84.0
360.051025 52.0
360.768921 60.0
360.889923 76.0
362.089478 116.0
365.17511 92.0
365.928558 104.0
367.906158 72.0
369.68454 96.0
372.233734 120.0
373.648193 84.0
376.697571 96.0
377.257904 60.0
380.947113 80.0
385.388489 76.0
387.940216 52.0
388.442169 104.0
390.291931 84.0
393.672913 44.0
396.319214 92.0
397.445282 68.0
397.869965 96.0
403.191559 60.0
407.446991 40.0
409.744202 36.0
412.763306 52.0
413.078766 72.0
413.701935 36.0
413.876038 72.0
414.45932 76.0
421.310822 100.0
421.846161 88.0
423.298615 92.0
423.88028 124.0
424.745361 76.0
425.660553 72.0
429.430237 96.0
434.783875 56.0
437.85202 84.0
444.595978 64.0
445.779694 32.0
446.048676 36.0
448.296173 64.0
449.61615 96.0
451.479218 88.0
451.9953 64.0
454.397705 60.0
454.715973 100.0
455.395294 36.0
455.764893 40.0
460.344025 60.0
468.3125 104.0
470.490112 48.0
471.3237 96.0
472.729065 40.0
473.092621 68.0
479.394928 72.0
482.424011 76.0
485.46701 40.0
487.060181 52.0
491.978973 64.0
493.826019 68.0
494.795105 72.0
497.481659 96.0
499.325623 32.0
503.747253 92.0
509.131042 104.0
510.672577 116.0
512.437195 68.0
515.031128 48.0
519.748474 72.0
520.788086 84.0
528.707458 140.0
530.310425 72.0
542.539856 36.0
544.888123 88.0
547.576782 48.0
553.465515 116.0
564.027344 104.0
568.76886 48.0
571.130371 48.0
577.966797 84.0
578.809204 120.0
587.455566 184.0
590.237488 88.0
597.050781 80.0
602.158325 56.0
611.473694 92.0
617.463135 40.0
621.793274 160.0
624.739807 88.0
630.818726 32.0
632.514465 48.0
647.296265 36.0
652.075073 88.0
653.203857 128.0
654.944702 156.0
656.840881 92.0
669.186584 80.0
672.047119 60.0
685.701111 104.0
689.552856 88.0
691.25769 80.0
694.978027 52.0
697.588196 60.0
699.160889 120.0
699.355652 64.0
700.377075 212.0
704.111328 52.0
705.76532 112.0
707.617188 264.0
714.692261 68.0
725.791748 212.0
728.797546 52.0
731.174377 52.0
739.437195 84.0
741.522339 172.0
747.463501 180.0
754.466614 164.0
756.611206 152.0
756.852112 152.0
760.65686 40.0
763.002625 76.0
764.350159 68.0
764.614319 228.0
765.115173 184.0
770.486816 116.0
773.572632 164.0
776.664612 116.0
778.62384 168.0
778.829346 148.0
782.410522 60.0
784.103882 212.0
784.845337 96.0
786.809265 212.0
787.37384 184.0
788.574402 164.0
788.764465 44.0
789.938721 256.0
790.229675 56.0
796.294983 192.0
801.498657 36.0
802.417358 220.0
804.962097 112.0
808.212341 172.0
808.55188 196.0
810.924927 120.0
811.361389 160.0
814.31781 180.0
815.834961 168.0
816.494507 92.0
821.752258 100.0
824.344543 148.0
827.484802 124.0
828.830811 132.0
831.210449 136.0
832.134521 80.0
832.341248 68.0
833.369385 196.0
833.760132 40.0
834.024536 188.0
838.827881 136.0
840.901672 188.0
845.125977 140.0
845.681519 44.0
846.41095 164.0
847.424622 200.0
847.59845 76.0
850.527161 156.0
855.473999 168.0
855.549683 196.0
856.830933 196.0
857.448547 144.0
858.369629 136.0
858.830383 136.0
859.046204 184.0
859.221191 160.0
862.602478 148.0
862.672607 84.0
864.011841 116.0
865.03009 140.0
868.692566 176.0
869.091553 48.0
869.138489 112.0
869.48468 144.0
874.615723 124.0
874.910095 112.0
875.09259 176.0
878.174561 52.0
879.862244 128.0
881.799744 140.0
882.071655 132.0
882.207581 52.0
884.07666 120.0
884.301575 136.0
884.473206 148.0
886.083984 184.0
886.688354 92.0
888.722351 108.0
889.410767 156.0
890.954712 168.0
891.121094 224.0
891.382507 88.0
891.459778 188.0
892.262207 172.0
896.434631 144.0
896.565735 96.0
899.464417 156.0
899.709167 200.0
900.336121 84.0
900.604919 168.0
901.291931 156.0
901.357666 220.0
901.46521 136.0
901.823792 168.0
902.427551 88.0
903.073425 140.0
904.108459 192.0
904.581299 160.0
904.6651 180.0
906.899414 112.0
907.235107 148.0
907.696777 64.0
907.906616 144.0
908.57843 88.0
909.082458 116.0
910.367126 104.0
912.422058 96.0
916.002747 68.0
916.448547 144.0
917.231995 100.0
917.412842 272.0
918.15448 160.0
918.733521 244.0
918.878296 100.0
919.192078 196.0
920.725403 148.0
922.362793 216.0
922.447449 128.0
923.457214 124.0
923.977417 116.0
924.721741 176.0
928.065674 92.0
928.174805 204.0
928.423401 176.0
929.758972 136.0
930.146545 100.0
930.468262 132.0
930.905457 148.0
931.385254 136.0
935.355896 92.0
937.237793 164.0
938.670227 28.0
940.372314 136.0
941.123169 128.0
942.124756 132.0
942.692993 160.0
944.294739 160.0
944.472107 48.0
944.557739 260.0
945.432678 80.0
945.93457 172.0
947.833191 124.0
949.414734 48.0
950.56189 64.0
950.770569 48.0
950.960815 200.0
951.292297 68.0
952.428284 264.0
952.729248 64.0
952.975037 224.0
953.018005 152.0
954.050537 168.0
954.19812 152.0
954.874512 208.0
955.268188 176.0
956.06189 216.0
956.683533 52.0
956.997559 228.0
957.477844 116.0
961.36792 40.0
962.108582 60.0
963.164551 88.0
963.640259 164.0
963.942993 196.0
964.017151 144.0
964.443604 228.0
964.493042 204.0
964.740295 180.0
965.803894 144.0
966.010071 184.0
966.626709 116.0
967.041382 168.0
967.722351 132.0
968.960999 76.0
971.136841 84.0
971.316711 184.0
971.428406 192.0
973.685913 192.0
974.660278 208.0
974.967529 172.0
976.105164 176.0
976.27301 112.0
980.880371 176.0
981.360413 168.0
982.208557 180.0
982.358276 160.0
983.294189 160.0
985.298645 160.0
985.479797 152.0
986.286011 152.0
986.592285 180.0
986.767334 148.0
987.574036 236.0
988.362305 108.0
990.46582 188.0
990.890564 204.0
991.111084 216.0
991.217651 144.0
991.637512 164.0
992.164062 236.0
995.734436 216.0
995.797241 188.0
995.922852 196.0
996.023376 60.0
996.249512 40.0
997.512634 180.0
997.845825 192.0
998.141357 172.0
998.71991 132.0
998.79541 152.0
998.996704 168.0
999.248352 128.0
999.644714 128.0
999.720276 144.0
999.802063 204.0
999.877563 232.0
1000.022339 136.0
1000.078979 116.0
1001.338196 164.0
1002.220154 156.0
1002.705383 136.0
1003.278992 128.0
1003.701416 40.0
1003.985168 108.0
1004.23114 40.0
1004.962952 140.0
1005.133301 244.0
1005.392029 80.0
1005.694946 68.0
1006.004272 196.0
1006.237854 128.0
1006.648254 140.0
1007.102966 156.0
1007.412537 200.0
1008.233948 192.0
1008.455139 152.0
1009.378113 140.0
1010.776062 180.0
1011.706482 196.0
1012.092651 120.0
1013.57489 140.0
1013.634521 164.0
1014.012146 140.0
1014.265686 204.0
1014.316406 140.0
1014.988403 164.0
1015.387939 228.0
1015.624207 172.0
1015.933411 204.0
1017.608887 160.0
1017.812073 152.0
1018.555115 136.0
1019.012512 188.0
1019.527222 148.0
1020.029358 124.0
1021.250183 108.0
1021.358337 76.0
1022.070862 188.0
1022.605408 160.0
1022.745422 152.0
1023.025513 176.0
1023.312012 84.0
1023.464844 156.0
1024.292725 56.0
1024.598511 208.0
1025.388672 60.0
1025.949585 164.0
1026.670044 48.0
1026.797607 184.0
1028.667114 92.0
1028.80127 112.0
1029.062988 140.0
1030.666138 160.0
1031.119873 108.0
1031.65686 132.0
1032.110718 224.0
1032.507202 160.0
1032.55835 180.0
1032.839844 68.0
1032.903809 128.0
1033.351562 104.0
1034.54834 60.0
1035.028564 152.0
1035.720215 184.0
1036.674805 108.0
1037.072144 188.0
1037.424805 176.0
1037.713257 108.0
1038.091553 136.0
1038.713623 140.0
1038.94458 164.0
1039.599121 152.0
1039.875 80.0
1042.469604 108.0
1042.69458 252.0
1043.131592 188.0
1043.459473 108.0
1043.504517 60.0
1043.68457 164.0
1043.883911 220.0
1043.973877 144.0
1044.125977 176.0
1045.305542 216.0
1045.427734 172.0
1046.219482 168.0
1046.477783 136.0
1047.198242 60.0
1047.565308 164.0
1047.81665 188.0
1048.106567 164.0
1048.409424 140.0
1048.892822 220.0
1049.073364 196.0
1049.782593 96.0
1051.246948 180.0
1052.208618 196.0
1052.531494 188.0
1053.448608 48.0
1053.603638 204.0
1054.139893 80.0
1054.243286 160.0
1054.34668 132.0
1054.831421 200.0
1055.59436 172.0
1055.710815 212.0
1056.459717 148.0
1056.952759 156.0
1057.224609 208.0
1058.209717 164.0
1058.312134 180.0
1059.341797 192.0
1059.413086 164.0
1060.47583 120.0
1061.68811 176.0
1061.973511 36.0
1062.700073 68.0
1062.927124 156.0
1064.011108 136.0
1064.147461 224.0
1065.577271 216.0
1065.628296 72.0
1066.469238 208.0
1066.765625 168.0
1067.032104 180.0
1067.214233 196.0
1067.279175 156.0
1067.571777 160.0
1067.630371 124.0
1068.755737 164.0
1070.155151 140.0
1071.711792 156.0
1071.842163 68.0
1074.404541 140.0
1074.619751 92.0
1074.691528 148.0
1075.207031 80.0
1075.331055 148.0
1075.422485 172.0
1075.513794 140.0
1076.440918 128.0
1076.584595 132.0
1076.630249 148.0
1076.845825 196.0
1077.786499 48.0
1078.42041 128.0
1078.672241 164.0
1079.074097 168.0
1079.466431 208.0
1081.383301 216.0
1081.577393 212.0
1082.037842 148.0
1082.77124 164.0
1083.157715 48.0
1084.487793 144.0
1084.546875 144.0
1085.281128 116.0
1085.431885 164.0
1086.10083 204.0
1086.245117 156.0
1086.560059 204.0
1087.071777 64.0
1087.360596 196.0
1087.688721 172.0
1088.305908 112.0
1088.581665 184.0
1088.634155 136.0
1089.159668 140.0
1090.598633 140.0
1090.664307 148.0
1090.920654 204.0
1091.459839 96.0
1092.393677 172.0
1092.676636 204.0
1093.775635 152.0
1094.216675 132.0
1094.628296 136.0
1095.408691 92.0
1095.599731 160.0
1095.718262 188.0
1095.830322 168.0
1096.107056 164.0
1096.311279 148.0
1096.5354 184.0
1097.275024 172.0
1097.540527 232.0
1097.715454 96.0
1098.150757 148.0
1098.295776 108.0
1098.520142 120.0
1098.698242 176.0
1098.836792 140.0
1099.094116 132.0
1099.925659 156.0
1100.161987 224.0
1100.407593 136.0
1101.608887 216.0
1101.662354 132.0
1102.997192 156.0
1103.089355 148.0
1103.909546 120.0
1104.101318 224.0
1104.306396 120.0
1104.551147 152.0
1105.087036 180.0
1105.325195 152.0
1105.411255 208.0
1105.651245 228.0
1106.086304 136.0
1106.476807 156.0
1107.132446 140.0
1107.211914 56.0
1107.271484 48.0
1107.390625 136.0
1107.476807 152.0
1107.536377 180.0
1108.212158 232.0
1108.437378 180.0
1108.772339 164.0
1109.033813 148.0
1109.418335 144.0
1109.683472 148.0
1109.902344 52.0
1109.988525 204.0
1111.023193 152.0
1111.806152 184.0
1112.011963 232.0
1112.124756 212.0
1112.191162 148.0
1112.556274 136.0
1112.908081 168.0
1113.020996 196.0
1113.093994 232.0
1113.226807 244.0
1113.771484 136.0
1113.924194 144.0
1115.140137 116.0
1115.184204 180.0
1115.379517 72.0
1117.07605 152.0
1117.760376 112.0
1118.09314 180.0
1118.369751 176.0
1118.419312 140.0
1118.778687 200.0
1119.03833 152.0
1119.131592 176.0
1119.584351 28.0
1119.630981 208.0
1120.823486 84.0
1120.92334 60.0
1121.603149 216.0
1122.23645 388.0
1122.569946 168.0
1122.776611 68.0
1122.963379 164.0
1123.050049 60.0
1123.577026 132.0
1123.754395 184.0
1125.706299 276.0
1126.066895 64.0
1126.294067 36.0
1126.514404 212.0
1126.594604 228.0
1127.483276 172.0
1128.317749 104.0
1128.385742 132.0
1128.619751 96.0
1128.786865 204.0
1129.843628 176.0
1129.993652 188.0
1130.332031 124.0
1131.48999 176.0
1131.597168 104.0
1131.992188 32.0
1132.099365 148.0
1132.246704 76.0
1133.117432 88.0
1133.794189 204.0
1133.854614 140.0
1134.216553 112.0
1134.424316 204.0
1134.598633 112.0
1134.73938 156.0
1134.833252 132.0
1135.497192 48.0
1135.711792 48.0
1136.885864 156.0
1137.563721 160.0
1137.80542 112.0
1138.161255 164.0
1138.214966 144.0
1138.416504 184.0
1139.081421 60.0
1139.672607 320.0
1139.753174 136.0
1140.432007 144.0
1140.741211 172.0
1141.265625 280.0
1142.005371 156.0
1142.617432 116.0
1142.752075 132.0
1143.021118 48.0
1143.317261 132.0
1143.562988 220.0
1143.963379 160.0
1144.347168 144.0
1144.959961 128.0
1145.310181 196.0
1145.364014 212.0
1146.455566 52.0
1146.576782 232.0
1146.987915 152.0
1147.50708 52.0
1147.783569 132.0
1147.938599 152.0
1148.343262 216.0
1148.92334 60.0
1149.592773 148.0
1150.185303 120.0
1150.691528 164.0
1150.94812 156.0
1151.211548 132.0
1151.303345 212.0
1151.349121 204.0
1151.495117 204.0
1151.704468 180.0
1151.853149 148.0
1152.589478 216.0
1153.073975 248.0
1153.596558 144.0
1153.738525 48.0
1153.799316 132.0
1154.651367 164.0
1154.786621 164.0
1154.921875 176.0
1155.077515 120.0
1155.206055 156.0
1155.578125 172.0
1155.882568 228.0
1157.209229 156.0
1157.730591 96.0
1158.990601 196.0
1160.017334 200.0
1160.061401 348.0
1160.60376 148.0
1160.780151 176.0
1160.902222 172.0
1160.976807 176.0
1161.064941 116.0
1162.340332 64.0
1162.652466 168.0
1162.723022 172.0
1163.385498 124.0
1163.887939 140.0
1164.173096 248.0
1164.349731 228.0
1164.64856 180.0
1165.280273 116.0
1165.830688 220.0
1166.646362 152.0
1167.224243 60.0
1167.427979 108.0
1168.285278 72.0
1168.639038 88.0
1168.834961 156.0
1168.890869 92.0
1169.176636 156.0
1169.374023 136.0
1169.462524 212.0
1169.823242 176.0
1170.163574 156.0
1170.231689 88.0
1170.710327 184.0
1171.409912 228.0
1171.512085 164.0
1172.67041 172.0
1173.106689 208.0
1173.352173 188.0
1173.870361 160.0
1173.986328 96.0
1174.245483 44.0
1174.402344 188.0
1174.872925 132.0
1174.995728 224.0
1175.705444 184.0
1175.794189 192.0
1175.862427 152.0
1176.415283 164.0
1176.654175 116.0
1177.036621 164.0
1177.11853 148.0
1177.890259 100.0
1178.054199 140.0
1178.491455 156.0
1178.997192 220.0
1179.044922 176.0
1179.431152 136.0
1180.227539 216.0
1180.357544 204.0
1180.562622 144.0
1180.713135 192.0
1181.287598 200.0
1182.450806 176.0
1183.012085 180.0
1183.206177 172.0
1184.230957 156.0
1184.505005 136.0
1184.785889 188.0
1184.839111 236.0
1185.457275 56.0
1185.59436 188.0
1186.540283 168.0
1187.109375 160.0
1187.308228 92.0
1187.603149 52.0
1187.822632 52.0
1188.481323 184.0
1188.824341 212.0
1189.20874 164.0
1189.675537 208.0
1189.854004 120.0
1190.259033 184.0
1191.398315 144.0
1192.546753 204.0
1193.364868 184.0
1193.715454 156.0
1193.766846 136.0
1193.976807 88.0
1194.177856 224.0
1194.802246 152.0
1195.387085 224.0
1195.827515 84.0
1196.03479 176.0
1196.577881 216.0
1197.59021 196.0
1197.6521 152.0
1198.492676 152.0
1198.561523 152.0
1199.016357 36.0
1199.071533 132.0
1199.354126 152.0
1199.678101 104.0
1200.098633 208.0
1200.450317 208.0
1200.726074 128.0
1201.526245 68.0
1201.760864 136.0
1201.86438 144.0
1202.568237 144.0
1202.733887 168.0
1202.816772 40.0
1204.322021 196.0
1205.240845 148.0
1205.890503 68.0
1206.277466 72.0
1206.669312 192.0
1207.397583 104.0
1207.674316 192.0
1207.964844 64.0
1208.096191 156.0
1208.255371 392.0
1208.891968 120.0
1209.485962 168.0
1210.657227 224.0
1210.823364 56.0
1211.211304 152.0
1211.564575 156.0
1211.931763 108.0
1212.215942 176.0
1212.548584 224.0
1212.610962 108.0
1213.463501 252.0
1213.685425 124.0
1213.796387 112.0
1213.905884 164.0
1214.150024 84.0
1214.33728 188.0
1214.413574 232.0
1214.739624 96.0
1215.155884 208.0
1215.454224 132.0
1215.773438 120.0
1216.557739 144.0
1216.689697 100.0
1217.064575 164.0
1217.140991 192.0
1217.439575 124.0
1217.515991 168.0
1217.772949 132.0
1217.988281 76.0
1218.134155 140.0
1218.245239 128.0
1218.321655 236.0
1218.421387 208.0
1219.065063 120.0
1219.365845 120.0
1219.878296 80.0
1219.975586 184.0
1220.608276 156.0
1220.866821 140.0
1221.199463 52.0
1221.248169 132.0
1221.442871 144.0
1221.714233 144.0
1222.152466 128.0
1222.416992 100.0
1222.674438 200.0
1223.516724 140.0
1223.718628 128.0
1223.857788 128.0
1224.171143 84.0
1224.456665 152.0
1224.540283 208.0
1225.494629 100.0
1226.114868 252.0
1226.296021 116.0
1227.069824 220.0
1227.676514 120.0
1228.220459 144.0
1229.120483 152.0
1229.190186 176.0
1229.455444 156.0
1229.601929 164.0
1229.734619 92.0
1230.006836 112.0
1230.223145 152.0
1230.481445 180.0
1231.30542 144.0
1231.39624 184.0
1231.452759 176.0
1232.758545 172.0
1232.968262 104.0
1233.170898 92.0
1233.527344 176.0
1234.380371 140.0
1234.827881 184.0
1235.013428 200.0
1235.192017 176.0
1235.324585 96.0
1236.115112 204.0
1236.870972 112.0
1237.43811 212.0
1237.627075 152.0
1238.013184 152.0
1238.068237 224.0
1238.950806 132.0
1239.595459 88.0
1239.910767 192.0
1240.152466 160.0
1240.548096 96.0
1240.871094 140.0
1240.927246 156.0
1241.172607 256.0
1241.933594 172.0
1242.007202 196.0
1242.063354 60.0
1242.379028 140.0
1242.589478 96.0
1242.863037 176.0
1243.22998 200.0
1243.58667 184.0
1243.793823 168.0
1244.140503 244.0
1244.266846 140.0
1245.018188 208.0
1245.165649 88.0
1245.277954 176.0
1245.88916 268.0
1246.486328 172.0
1246.612793 228.0
1246.844727 120.0
1247.287598 168.0
1247.463257 140.0
1247.821777 156.0
1247.990601 44.0
1248.060913 196.0
1248.373901 188.0
1248.52771 188.0
1248.721924 148.0
1248.834473 192.0
1248.966309 204.0
1249.87561 112.0
1250.128906 92.0
1250.487915 232.0
1250.692017 168.0
1251.164795 164.0
1251.381836 136.0
1251.69165 152.0
1251.910034 232.0
1252.078979 152.0
1253.093384 112.0
1253.297729 108.0
1253.424561 52.0
1254.425293 160.0
1254.79187 152.0
1254.961182 52.0
1255.715698 156.0
1255.929688 180.0
1256.068359 156.0
1256.293213 152.0
1256.414062 192.0
1256.759766 168.0
1257.296021 112.0
1257.394775 156.0
1257.550049 92.0
1258.234863 156.0
1258.531372 164.0
1258.602539 144.0
1258.722046 188.0
1258.891479 140.0
1259.103394 40.0
1259.5625 60.0
1260.34668 116.0
1260.80603 128.0
1260.961426 208.0
1261.583496 164.0
1261.887451 108.0
1262.085449 148.0
1262.870483 204.0
1263.110962 40.0
1263.16748 188.0
1263.217041 140.0
1263.747681 56.0
1264.483643 144.0
1264.596802 140.0
1264.766724 136.0
1264.863892 164.0
1264.972046 220.0
1265.191406 176.0
1265.52417 184.0
1265.878296 264.0
1266.551025 116.0
1266.710205 180.0
1267.606689 92.0
1267.932739 232.0
1268.223267 168.0
1268.875488 92.0
1269.237061 132.0
1269.378906 224.0
1269.449829 156.0
1269.99585 184.0
1270.244141 112.0
1270.577515 216.0
1271.038696 188.0
1271.48584 132.0
1273.05481 44.0
1273.480835 116.0
1273.622925 188.0
1274.177002 160.0
1274.495117 124.0
1274.521118 220.0
1274.759644 128.0
1275.058105 208.0
1275.257202 76.0
1275.814575 152.0
1276.039062 104.0
1276.145752 132.0
1276.266602 164.0
1276.440796 240.0
1276.693237 172.0
1277.05603 224.0
1277.319214 168.0
1277.475708 96.0
1277.810059 64.0
1277.916748 240.0
1278.429077 56.0
1278.848999 132.0
1279.012695 136.0
1279.147949 164.0
1279.368652 120.0
1279.496826 164.0
1279.653442 212.0
1280.052124 208.0
1280.20166 112.0
1280.337036 144.0
1280.942383 64.0
1281.43396 224.0
1281.754639 148.0
1281.884277 168.0
1282.445923 28.0
1282.873535 160.0
1283.001953 72.0
1283.158813 172.0
1283.372681 128.0
1284.095703 92.0
1284.585083 168.0
1284.670654 168.0
1285.526855 240.0
1285.733765 184.0
1287.268677 132.0
1287.447266 156.0
1287.747192 124.0
1288.225708 112.0
1288.502563 192.0
1288.833008 176.0
1289.340332 176.0
1289.609985 100.0
1289.704956 112.0
1290.069458 132.0
1290.160034 156.0
1290.212402 132.0
1290.27478 204.0
1291.842896 204.0
1291.900146 156.0
1292.071899 248.0
1292.242676 124.0
1292.579834 144.0
1293.116577 204.0
1293.653442 164.0
1293.918335 176.0
1294.018555 164.0
1294.068726 168.0
1294.197998 144.0
1294.333618 172.0
1294.470825 152.0
1294.734619 136.0
1295.235962 120.0
1295.293335 136.0
1295.379272 280.0
1295.658691 176.0
1295.780396 144.0
1296.518555 84.0
1296.611694 100.0
1296.776489 192.0
1297.27832 200.0
1297.500488 244.0
1298.109985 144.0
1298.454224 60.0
1298.597656 108.0
1298.848633 196.0
1298.913208 236.0
1299.013672 168.0
1299.121338 148.0
1299.257568 160.0
1299.365234 132.0
1299.422607 92.0
1299.601929 160.0
1300.290894 188.0
1300.348267 176.0
1300.987183 180.0
1301.102051 208.0
1301.557007 232.0
1301.618896 76.0
1301.741089 212.0
1301.942139 240.0
1302.200684 120.0
1302.480835 136.0
1302.990845 128.0
1303.120117 124.0
1303.544067 208.0
1303.845947 148.0
1303.924927 172.0
1304.104614 92.0
1304.341797 160.0
1304.521606 132.0
1304.629395 192.0
1304.981689 128.0
1305.082275 200.0
1305.154297 128.0
1305.369995 148.0
1305.484985 172.0
1305.614502 232.0
1305.765503 160.0
1306.628662 140.0
1306.693481 64.0
1307.549805 132.0
1307.938354 116.0
1308.010376 176.0
1308.096802 72.0
1308.550293 168.0
1308.780762 76.0
1308.989502 184.0
1309.156494 172.0
1309.659302 140.0
1309.75293 148.0
1309.940186 192.0
1310.271606 108.0
1310.54541 220.0
1310.675171 124.0
1311.251587 164.0
1311.612061 140.0
1311.691284 100.0
1311.943604 128.0
1312.203125 148.0
1312.268066 228.0
1312.715088 124.0
1312.902588 188.0
1313.313721 116.0
1313.486816 128.0
1313.74646 184.0
1313.825806 180.0
1313.92688 176.0
1314.352539 180.0
1315.297974 184.0
1315.449585 152.0
1315.644531 164.0
1315.803345 172.0
1315.889893 212.0
1316.568726 180.0
1316.6698 240.0
1316.814209 160.0
1316.92981 148.0
1317.110352 116.0
1317.189819 128.0
1317.449951 224.0
1317.558228 180.0
1317.709961 184.0
1318.006226 220.0
1318.374756 160.0
1318.649414 172.0
1318.778687 180.0
1318.989136 176.0
1319.148193 124.0
1319.603638 208.0
1319.876709 176.0
1320.080811 128.0
1320.174805 168.0
1320.56543 176.0
1320.977661 156.0
1321.136841 172.0
1321.296021 36.0
1321.418945 92.0
1321.715576 132.0
1321.896484 168.0
1322.034058 160.0
1322.099121 108.0
1322.258423 124.0
1322.685425 44.0
1322.833984 184.0
1322.939819 140.0
1323.141479 156.0
1323.300781 72.0
1323.655518 104.0
1323.756958 180.0
1323.959717 268.0
1324.053833 188.0
1324.119019 120.0
1324.191406 188.0
1324.275879 176.0
1324.386963 124.0
1324.444946 32.0
1324.53186 208.0
1324.9375 184.0
1325.017212 256.0
1325.589722 188.0
1325.756348 220.0
1325.910522 144.0
1326.002686 196.0
1326.118652 188.0
1326.169434 168.0
1326.336182 108.0
1326.401367 136.0
1326.916138 136.0
1327.017578 104.0
1327.372925 212.0
1327.670166 208.0
1328.025635 240.0
1328.098145 128.0
1328.177979 348.0
1328.243164 180.0
1328.315796 188.0
1328.410034 160.0
1328.518799 112.0
1328.780029 120.0
1328.963745 192.0
1329.13562 80.0
1329.317017 168.0
1329.46936 100.0
1329.541992 124.0
1329.599976 160.0
1329.687134 152.0
1329.817749 180.0
1330.40564 140.0
1330.734863 196.0
1330.855835 168.0
1331.044678 100.0
1331.240723 244.0
1332.10498 156.0
1332.446411 188.0
1333.80542 40.0
1333.942871 260.0
1334.103394 152.0
1334.154297 168.0
1334.227051 100.0
1334.430542 48.0
1334.503296 176.0
1334.827637 164.0
1335.099609 164.0
1335.150513 216.0
1335.274048 72.0
1335.441406 164.0
1335.51416 132.0
1335.57959 36.0
1335.753784 148.0
1335.877808 92.0
1335.972412 160.0
1336.168823 108.0
1336.244995 280.0
1336.358032 220.0
1336.459839 192.0
1336.692749 148.0
1336.903687 120.0
1337.289429 124.0
1337.456909 316.0
1338.097534 200.0
1338.199463 76.0
1338.349243 164.0
1338.5271 80.0
1338.862061 92.0
1338.98584 164.0
1339.044067 212.0
1339.102417 164.0
1339.314087 172.0
1339.495728 160.0
1339.677856 192.0
1339.969238 156.0
1340.136841 172.0
1340.199707 152.0
1340.333496 176.0
1340.537598 204.0
1341.25061 196.0
1342.147095 144.0
1342.206909 116.0
1342.272461 140.0
1342.440186 112.0
1342.60791 140.0
1342.717407 116.0
1342.928833 172.0
1343.023682 200.0
1343.25708 164.0
1343.330078 144.0
1343.429077 140.0
1343.993042 168.0
1344.048218 164.0
1344.322266 100.0
1344.711792 140.0
1344.830322 280.0
1344.903076 240.0
1345.059448 112.0
1345.11792 160.0
1345.285767 100.0
1345.701904 160.0
1345.753052 208.0
1345.8479 40.0
1345.964722 220.0
1346.232422 92.0
1346.324707 276.0
1347.016479 76.0
1347.191772 216.0
1347.454834 168.0
1347.505981 124.0
1347.571655 176.0
1347.885864 176.0
1347.95166 196.0
1348.302368 216.0
1348.748291 164.0
1348.859619 208.0
1348.93103 204.0
1349.20874 156.0
1349.347656 96.0
1349.976562 176.0
1350.181274 176.0
1350.320312 144.0
1350.963989 152.0
1351.351685 128.0
1351.739136 180.0
1352.10083 156.0
1352.515259 112.0
1352.737427 304.0
1352.859375 180.0
1353.247314 168.0
1353.467041 224.0
1353.522095 160.0
1353.78186 164.0
1353.994263 180.0
1354.126099 76.0
1354.375122 120.0
1354.493408 156.0
1354.726685 184.0
1354.997803 224.0
1355.254272 152.0
1355.702515 220.0
1355.789185 176.0
1355.847778 228.0
1356.023682 152.0
1356.859375 212.0
1357.032593 108.0
1357.203979 148.0
1357.563232 168.0
1358.318726 208.0
1358.502075 160.0
1358.77356 180.0
1358.928467 208.0
1359.10376 128.0
1359.323853 136.0
1359.712769 128.0
1359.852173 160.0
1359.954956 80.0
1360.116455 136.0
1360.299927 156.0
1360.483521 168.0
1360.623047 144.0
1360.72583 88.0
1361.03418 136.0
1361.269165 224.0
1361.320557 104.0
1361.416016 176.0
1361.621582 160.0
1361.74646 188.0
1362.187256 144.0
1362.270508 196.0
1362.473755 80.0
1363.02478 184.0
1363.276855 200.0
1363.936035 136.0
1364.09436 164.0
1364.391846 280.0
1364.456055 92.0
1364.568237 60.0
1364.838501 196.0
1364.950684 92.0
1365.612549 120.0
1365.899414 168.0
1366.28186 144.0
1366.899902 124.0
1367.025024 184.0
1367.120728 172.0
1367.44458 196.0
1367.731567 224.0
1367.970337 120.0
1368.497192 180.0
1368.578247 116.0
1368.784424 172.0
1368.894897 204.0
1368.97583 96.0
1369.137817 180.0
1369.196777 116.0
1369.381958 196.0
1369.594482 148.0
1369.697632 164.0
1369.999878 180.0
1370.169067 192.0
1370.279663 204.0
1370.89856 136.0
1371.045898 152.0
1371.163818 80.0
1371.480835 116.0
1371.569214 188.0
1371.760864 184.0
1372.102295 156.0
1372.313843 204.0
1372.468628 132.0
1372.712036 144.0
1373.412598 200.0
1373.751953 180.0
1373.962402 204.0
1374.083984 128.0
1374.150391 176.0
1374.364258 40.0
1374.534058 160.0
1374.688965 136.0
1374.758301 248.0
1375.131836 188.0
1375.220337 120.0
1375.397461 244.0
1375.692749 220.0
1376.047607 208.0
1376.72644 112.0
1376.874146 92.0
1377.804932 108.0
1377.900879 152.0
1378.625122 152.0
1378.750732 224.0
1379.571167 172.0
1379.64502 144.0
1380.036865 152.0
1380.184814 144.0
1380.258789 88.0
1380.495361 144.0
1380.615845 124.0
1380.709839 88.0
1380.903076 228.0
1381.035278 112.0
1381.165161 192.0
1381.397705 60.0
1381.671387 104.0
1382.15979 200.0
1382.848022 216.0
1382.89978 148.0
1383.047852 148.0
1383.839966 220.0
1383.936157 168.0
1384.039917 184.0
1384.121338 168.0
1384.299072 116.0
1384.76416 184.0
1384.921143 200.0
1384.987793 200.0
1385.054443 188.0
1385.22644 216.0
1386.017578 48.0
1386.625854 144.0
1387.640625 152.0
1388.00708 120.0
1388.241455 96.0
1388.300781 156.0
1388.44165 184.0
1388.745728 180.0
1388.886719 148.0
1388.968262 80.0
1389.168579 168.0
1389.346558 44.0
1389.613647 64.0
1390.185059 124.0
1390.488281 208.0
1390.593262 212.0
1390.645142 180.0
1391.068237 192.0
1391.29834 192.0
1391.484009 156.0
1391.57312 156.0
1391.654785 180.0
1391.847778 132.0
1392.776123 164.0
1393.244141 164.0
1393.474487 216.0
1394.061523 184.0
1394.128296 96.0
1394.210083 192.0
1394.455322 188.0
1394.633789 188.0
1395.258179 216.0
1395.622192 128.0
1395.71167 156.0
1395.77124 192.0
1396.061157 72.0
1396.120728 200.0
1396.5 148.0
1396.663574 144.0
1396.871948 156.0
1397.065308 176.0
1397.214111 64.0
1397.281128 164.0
1397.439575 252.0
1397.697754 128.0
1397.757202 56.0
1397.898682 140.0
1397.973022 60.0
1398.375 144.0
1398.739624 128.0
1398.806641 140.0
1399.156494 140.0
1399.223511 136.0
1399.30542 216.0
1399.379883 148.0
1399.454346 48.0
1399.521362 168.0
1399.580933 176.0
1400.094727 164.0
1400.429932 96.0
1400.668213 176.0
1400.750244 136.0
1400.832153 152.0
1401.194214 180.0
1401.502686 48.0
1401.562256 116.0
1401.770874 116.0
1402.06897 180.0
1402.151001 68.0
1402.23291 196.0
1402.285156 176.0
1402.650391 152.0
1402.762207 172.0
1402.829224 112.0
1403.343628 160.0
1403.418213 196.0
1403.694092 168.0
1404.238525 164.0
1404.418213 136.0
1404.581665 160.0
1404.820312 152.0
1404.917358 168.0
1405.044189 156.0
1405.100952 112.0
1405.311157 116.0
1405.573853 140.0
1405.633545 136.0
1405.952148 144.0
1406.10376 204.0
1406.230591 188.0
1406.32019 120.0
1407.350342 100.0
1407.409912 164.0
1407.897095 212.0
1408.282837 172.0
1408.545288 196.0
1409.021851 212.0
1409.261353 216.0
1409.631958 180.0
1409.748169 68.0
1409.860352 64.0
1410.159302 152.0
1410.302124 148.0
1410.772217 160.0
1410.852905 192.0
1410.936646 196.0
1410.99646 180.0
1411.579712 176.0
1411.721802 152.0
1412.028442 76.0
1412.118164 92.0
1412.327515 204.0
1412.596802 96.0
1412.694092 84.0
1412.940918 36.0
1413.048462 192.0
1413.21167 156.0
1413.449707 220.0
1413.51709 212.0
1413.674194 116.0
1413.833984 116.0
1414.452637 164.0
1414.594849 148.0
1414.774536 244.0
1415.314209 180.0
1415.380981 124.0
1415.48584 120.0
1416.587769 208.0
1416.766602 140.0
1417.208618 128.0
1417.350952 200.0
1417.440918 204.0
1417.905518 44.0
1418.100342 256.0
1418.325195 164.0
1418.385254 92.0
1418.437744 36.0
1418.512451 192.0
1419.209839 152.0
1419.674805 188.0
1420.417358 148.0
1420.977051 220.0
1421.254272 228.0
1421.670288 108.0
1422.203125 140.0
1422.706055 208.0
1423.389282 156.0
1423.592041 48.0
1423.7948 212.0
1423.960083 216.0
1424.380737 144.0
1424.846436 208.0
1425.203125 168.0
1425.477661 232.0
1425.703125 76.0
1425.778198 176.0
1426.04126 224.0
1426.296875 176.0
1426.371948 192.0
1426.965942 104.0
1427.032837 180.0
1427.176392 172.0
1427.379395 164.0
1427.702759 180.0
1428.018677 188.0
1428.260742 132.0
1428.53772 204.0
1428.643066 188.0
1428.763428 140.0
1428.951416 44.0
1429.03418 76.0
1429.982422 156.0
1430.456543 208.0
1431.006226 212.0
1431.141113 168.0
1431.352539 120.0
1431.668823 152.0
1431.796875 220.0
1432.037109 84.0
1432.120728 48.0
1432.354248 128.0
1432.700684 56.0
1432.858887 188.0
1433.250732 232.0
1433.333618 144.0
1433.484375 76.0
1433.665161 200.0
1433.748047 244.0
1434.328491 76.0
1434.442017 188.0
1434.667114 180.0
1434.863647 160.0
1435.255737 216.0
1435.677979 220.0
1435.961792 200.0
1436.32666 120.0
1436.409668 196.0
1436.62085 184.0
1436.900024 140.0
1437.096191 132.0
1437.292358 188.0
1437.650024 140.0
1437.797974 160.0
1438.099854 140.0
1438.826782 132.0
1438.884888 148.0
1439.254883 196.0
1439.360596 132.0
1439.436157 128.0
1439.738159 120.0
1439.787598 88.0
1439.994995 164.0
1440.24707 168.0
1440.304688 112.0
1440.674805 68.0
1440.939209 368.0
1441.08252 168.0
1441.183472 240.0
1441.27478 148.0
1441.415161 180.0
1441.483276 120.0
1441.716431 140.0
1442.223877 220.0
1442.276001 148.0
1442.333984 176.0
1442.556519 156.0
1442.768188 152.0
1442.889038 184.0
1443.070557 92.0
1443.216553 140.0
1443.509155 208.0
1444.14624 176.0
1444.280518 168.0
1444.794556 96.0
1444.885742 220.0
1445.309448 160.0
1445.498535 172.0
1445.56665 164.0
1445.643677 168.0
1445.947632 144.0
1446.02832 200.0
1446.255371 192.0
1446.338623 160.0
1446.607056 172.0
1446.758789 200.0
1447.080566 124.0
1447.285034 152.0
1447.436401 172.0
1447.527344 192.0
1447.78479 212.0
1447.852905 188.0
1448.186157 40.0
1448.307373 136.0
1448.405884 204.0
1448.57251 196.0
1448.708862 168.0
1448.989136 232.0
1449.042114 164.0
1449.206787 144.0
1449.428589 284.0
1449.549805 172.0
1449.725952 164.0
1450.087891 272.0
1450.375977 164.0
1450.451782 104.0
1450.535156 180.0
1450.626099 140.0
1451.058228 40.0
1451.338745 188.0
1451.649658 248.0
1452.043945 148.0
1452.165283 136.0
1452.241211 132.0
1452.432983 180.0
1452.58252 172.0
1452.709229 160.0
1452.832886 176.0
1452.901123 156.0
1453.834473 144.0
1453.980103 188.0
1454.730103 172.0
1454.813599 176.0
1454.988159 152.0
1455.54248 224.0
1455.633545 152.0
1455.7854 212.0
1455.869019 208.0
1456.145874 192.0
1456.271484 144.0
1456.476562 220.0
1456.605713 148.0
1456.917114 148.0
1457.150269 124.0
1457.304688 92.0
1457.411011 112.0
1458.596558 140.0
1458.703003 168.0
1458.779053 192.0
1458.862671 148.0
1459.234375 152.0
1459.577271 112.0
1459.668579 124.0
1459.747437 156.0
1459.875366 100.0
1459.941162 132.0
1460.041138 156.0
1460.307373 176.0
1460.550781 136.0
1460.953979 140.0
1461.060425 156.0
1461.357178 100.0
1461.53186 204.0
1462.034424 184.0
1462.285522 184.0
1462.369263 152.0
1462.673706 164.0
1463.008667 220.0
1463.138062 164.0
1463.473145 132.0
1463.626221 184.0
1463.69397 140.0
1464.303223 172.0
1464.650757 200.0
1465.262939 180.0
1465.323853 172.0
1465.613403 144.0
1465.902954 204.0
1466.284058 292.0
1466.480713 208.0
1466.658569 176.0
1466.713379 180.0
1467.290283 148.0
1468.037476 172.0
1468.167114 40.0
1468.449707 208.0
1468.922241 188.0
1469.013794 124.0
1469.212158 144.0
1469.384644 220.0
1469.547852 200.0
1469.669922 180.0
1469.746216 364.0
1469.814819 220.0
1469.982788 264.0
1470.0896 176.0
1470.2948 160.0
1470.516113 228.0
1470.600952 160.0
1470.745972 180.0
1471.127563 120.0
1471.371948 212.0
1471.48645 160.0
1471.600952 140.0
1471.745972 224.0
1471.837646 196.0
1472.341675 184.0
1472.440918 152.0
1472.578369 140.0
1472.74646 136.0
1473.029053 112.0
1473.158936 216.0
1473.220093 188.0
1473.296387 144.0
1473.61731 192.0
1473.757935 128.0
1474.060547 64.0
1474.343262 64.0
1474.396729 164.0
1474.454712 164.0
1474.736694 176.0
1474.847656 108.0
1474.908813 52.0
1474.99292 104.0
1475.306274 44.0
1475.497437 168.0
1475.711548 132.0
1476.032715 204.0
1476.231445 136.0
1476.529785 72.0
1476.797485 180.0
1476.983276 184.0
1477.156982 156.0
1477.248779 180.0
1477.325195 180.0
1477.432373 92.0
1477.684814 192.0
1477.921997 144.0
1478.319946 136.0
1478.442383 104.0
1478.587769 52.0
1478.893921 336.0
1479.098389 168.0
1479.177124 116.0
1479.284302 124.0
1479.448975 176.0
1479.758911 140.0
1480.126465 160.0
1480.271973 188.0
1480.37915 64.0
1480.624268 180.0
1480.78418 180.0
1480.892334 108.0
1481.413208 68.0
1481.520386 236.0
1481.574097 176.0
1481.712524 212.0
1481.972412 208.0
1482.087402 120.0
1482.171631 188.0
1482.60083 196.0
1482.884399 160.0
1483.022339 156.0
1483.114258 160.0
1483.342651 152.0
1483.362183 120.0
1484.363892 168.0
1484.417603 120.0
1484.576294 216.0
1485.004639 188.0
1485.06189 92.0
1485.123169 180.0
1485.20752 92.0
1485.86731 172.0
1486.312256 192.0
1486.396729 200.0
1486.626953 124.0
1486.772705 196.0
1486.93396 104.0
1487.132202 208.0
1487.340698 188.0
1487.686157 152.0
1487.793579 144.0
1489.074707 172.0
1489.159546 208.0
1489.260254 112.0
1489.360107 204.0
1489.41394 48.0
1489.705811 144.0
1490.166748 136.0
1490.466431 152.0
1490.675171 216.0
1490.965942 36.0
1491.601562 216.0
1491.696167 216.0
1491.803711 208.0
1491.998779 176.0
1492.111206 184.0
1492.3573 140.0
1492.472656 52.0
1492.672485 40.0
1492.864746 44.0
1493.236938 160.0
1493.79541 128.0
1493.887695 68.0
1493.950195 240.0
1494.041626 72.0
1494.101929 148.0
1494.303223 160.0
1494.403198 168.0
1495.072632 156.0
1495.303589 272.0
1495.480591 120.0
1495.803833 224.0
1495.951416 172.0
1496.381226 244.0
1496.619873 212.0
1496.719971 176.0
1496.804688 228.0
1497.251343 160.0
1497.390015 64.0
1497.551758 196.0
1497.667236 156.0
1497.744263 136.0
1497.859863 220.0
1497.916504 144.0
1498.137207 200.0
1498.591675 176.0
1499.049561 156.0
1499.593506 60.0
1499.932617 132.0
1500.037842 212.0
1500.368164 192.0
1500.426025 156.0
1500.765259 192.0
1500.842407 180.0
1501.07373 124.0
1501.312744 192.0
1501.621216 120.0
1501.721558 236.0
1501.906616 164.0
1502.431152 164.0
1502.67041 148.0
1503.140991 176.0
1503.233643 192.0
1503.309326 180.0
1503.395752 84.0
1503.766113 132.0
1503.959106 44.0
1504.093994 392.0
1504.244751 180.0
1505.171143 156.0
1505.310181 96.0
