>compound MLS001074201-01!
>formula C20H28N2O3
>ionization [M+H]+
>parentmass 345.216278
#inchi InChI=1S/C20H28N2O3/c1-22-14-8-13-21-18(22)15-25-19(23)20(24,16-9-4-2-5-10-16)17-11-6-3-7-12-17/h2,4-5,9-10,17,24H,3,6-8,11-15H2,1H3
#inchikey DUDKAZCAISNGQN
#origInchi InChI=1S/C20H28N2O3.ClH/c1-22-14-8-13-21-18(22)15-25-19(23)20(24,16-9-4-2-5-10-16)17-11-6-3-7-12-17;/h2,4-5,9-10,17,24H,3,6-8,11-15H2,1H3;1H
#Ion_Source LC-ESI
#Instrument qTof
#Compound_Source NIH Pharmacologically Active Library
#PI Dorrestein
#Data_Collector VP/LMS
#Scan -1
#Precursor_MZ 345.224
#ExactMass 344.21
#Charge 1
#CAS_Number N/A
#Pubmed_ID N/A
#Smiles CN1CCCN=C1COC(=O)C(O)(C2CCCCC2)c3ccccc3.Cl
#INCHI_AUX N/A
#Library_Class 1
#SpectrumID CCMSLIB00000085811
#IonMode Positive
#UpdateWorkflowName UPDATE-SINGLE-ANNOTATED-GOLD
#LibraryQualityString Gold
#TaskID d252d724072548979f1f6f1ced849daf
##Scan# 1737
#SpectrumFile p4-F09_GF9_01_18393.mzXML
#LibraryName Pharm_Active_Library.mgf
#MQScore -1
#Organism Pharm_Active_Library
#TIC_Query 0
#RT_Query -1
#MZErrorPPM -1
#SharedPeaks 0
#MassDiff 0
#LibMZ -1
#SpecMZ 345.224
#SpecCharge 0
#internalFilename spec-00000.mgf

>collision 10
44.920742 272.0
44.933117 144.0
44.938667 140.0
44.966919 212.0
44.98893 160.0
44.994106 208.0
45.017803 188.0
45.036335 204.0
45.039207 192.0
45.043762 312.0
45.093727 140.0
45.108799 180.0
45.141861 404.0
45.177593 264.0
45.19389 232.0
45.206654 200.0
45.220577 124.0
45.233639 216.0
45.239296 92.0
45.250851 180.0
45.264458 140.0
45.280506 244.0
45.294399 128.0
45.302704 164.0
45.319454 84.0
45.334763 108.0
45.366009 136.0
45.380733 200.0
45.391167 104.0
45.414268 160.0
45.428833 144.0
45.442051 120.0
45.445606 96.0
45.4515 264.0
45.461361 208.0
45.488037 180.0
45.506603 148.0
45.526707 208.0
45.544048 304.0
45.560173 172.0
45.57658 160.0
45.618523 204.0
45.642769 164.0
45.653606 160.0
45.672657 156.0
45.709892 196.0
45.721924 156.0
45.745071 328.0
45.770512 188.0
45.821617 172.0
45.842808 264.0
45.865597 156.0
45.884483 136.0
45.888596 120.0
45.896812 156.0
45.924484 220.0
45.940228 196.0
45.963024 180.0
45.975792 284.0
46.000664 116.0
46.030369 92.0
46.041172 248.0
46.070889 108.0
46.114666 232.0
46.135757 192.0
46.151985 216.0
46.162544 168.0
46.167137 136.0
46.171329 196.0
46.20499 212.0
46.218266 144.0
46.229607 156.0
46.247528 152.0
46.291321 152.0
46.308552 260.0
46.348022 108.0
46.374958 188.0
46.387611 168.0
46.407898 128.0
46.422966 144.0
46.455368 216.0
46.477478 108.0
46.487411 136.0
46.511261 228.0
46.528652 88.0
46.542233 64.0
46.558838 140.0
46.568344 140.0
46.587601 188.0
46.604805 184.0
46.635971 156.0
46.646908 92.0
46.682289 188.0
46.696133 156.0
46.71484 60.0
46.741158 188.0
46.756107 172.0
46.778347 156.0
46.797573 208.0
46.802711 164.0
46.806526 176.0
46.849617 144.0
46.863663 208.0
46.884655 168.0
46.902763 168.0
46.926952 108.0
46.938213 196.0
46.950485 48.0
46.963242 176.0
46.981861 212.0
46.996422 168.0
47.008633 148.0
47.032352 156.0
47.048733 104.0
47.076324 116.0
47.086967 224.0
47.097939 124.0
47.111393 312.0
47.12426 160.0
47.142982 152.0
47.17667 136.0
47.181255 196.0
47.214806 172.0
47.23288 208.0
47.246159 184.0
47.267666 204.0
47.284389 212.0
47.301239 144.0
47.318806 120.0
47.358288 196.0
47.370434 184.0
47.392567 144.0
47.422184 296.0
47.432159 232.0
47.440826 160.0
47.46331 140.0
47.490356 172.0
47.512962 120.0
47.542603 120.0
47.567585 176.0
47.591873 208.0
47.603817 144.0
47.634747 88.0
47.65136 116.0
47.663643 232.0
47.693447 128.0
47.710033 216.0
47.725582 64.0
47.747898 192.0
47.763123 176.0
47.781036 368.0
47.79604 108.0
47.810768 204.0
47.827831 112.0
47.845993 132.0
47.904156 168.0
47.922413 308.0
47.93206 204.0
47.954109 144.0
47.974392 328.0
47.997509 148.0
48.036057 168.0
48.057468 156.0
48.097984 196.0
48.113419 156.0
48.127937 152.0
48.160538 284.0
48.177658 220.0
48.189365 84.0
48.198383 192.0
48.215904 300.0
48.22263 132.0
48.228298 372.0
48.240952 120.0
48.246861 108.0
48.292896 136.0
48.303276 340.0
48.33382 148.0
48.363785 172.0
48.388824 244.0
48.40934 112.0
48.440475 184.0
48.47044 208.0
48.474293 156.0
48.52412 180.0
48.539696 120.0
48.557911 160.0
48.588032 252.0
48.602238 172.0
48.613258 256.0
48.6371 192.0
48.660381 140.0
48.67709 204.0
48.693218 148.0
48.707874 200.0
48.713005 148.0
48.722359 192.0
48.746132 420.0
48.763367 176.0
48.775307 120.0
48.790543 212.0
48.817535 144.0
48.832703 220.0
48.84721 152.0
48.866276 152.0
48.885036 176.0
48.911476 152.0
48.933533 112.0
48.953026 60.0
48.966537 160.0
48.987362 164.0
49.005352 320.0
49.041435 176.0
49.051155 140.0
49.067352 176.0
49.108688 320.0
49.135628 96.0
49.14679 56.0
49.169117 152.0
49.183075 412.0
49.199829 80.0
49.211262 84.0
49.243931 168.0
49.264069 196.0
49.27879 292.0
49.293667 180.0
49.319965 120.0
49.330906 92.0
49.34639 160.0
49.366821 156.0
49.399673 144.0
49.419289 192.0
49.429382 120.0
49.44305 44.0
49.455647 316.0
49.477325 132.0
49.493877 284.0
49.507477 216.0
49.527058 168.0
49.543488 176.0
49.562084 136.0
49.590935 116.0
49.64222 144.0
49.661076 236.0
49.67865 380.0
49.692017 108.0
49.703342 184.0
49.718075 388.0
49.728973 160.0
49.741604 164.0
49.757343 152.0
49.770275 188.0
49.780754 136.0
49.811817 148.0
49.824764 232.0
49.848351 200.0
49.875793 376.0
49.885342 200.0
49.897545 104.0
49.912971 136.0
49.946194 324.0
49.970604 144.0
49.975731 136.0
49.98003 160.0
49.994606 72.0
50.010086 120.0
50.024559 128.0
50.036049 208.0
50.084454 192.0
50.104637 160.0
50.12553 132.0
50.138912 120.0
50.157234 216.0
50.18082 184.0
50.199139 108.0
50.21767 196.0
50.229908 156.0
50.249958 132.0
50.26313 204.0
50.282761 148.0
50.2962 120.0
50.298161 304.0
50.314583 52.0
50.329617 148.0
50.342636 152.0
50.369659 112.0
50.385815 192.0
50.406391 308.0
50.427589 52.0
50.445969 104.0
50.46698 144.0
50.512016 136.0
50.525166 132.0
50.569031 168.0
50.612511 248.0
50.623161 200.0
50.639286 252.0
50.660027 172.0
50.674809 52.0
50.684311 160.0
50.711506 136.0
50.719559 148.0
50.740524 136.0
50.759033 284.0
50.779675 216.0
50.784046 144.0
50.78899 220.0
50.802841 132.0
50.823036 204.0
50.837605 216.0
50.852531 228.0
50.887997 196.0
50.911854 96.0
50.925129 248.0
50.937462 116.0
50.969837 208.0
50.983101 236.0
51.004494 104.0
51.018711 76.0
51.056541 196.0
51.070744 196.0
51.076057 188.0
51.09864 140.0
51.112282 132.0
51.128899 176.0
51.149204 104.0
51.159267 120.0
51.192192 212.0
51.213779 152.0
51.235035 88.0
51.259323 84.0
51.28339 120.0
51.310181 192.0
51.327881 228.0
51.353905 176.0
51.396149 124.0
51.412182 136.0
51.430401 176.0
51.445892 108.0
51.472065 240.0
51.476566 204.0
51.487675 260.0
51.510075 136.0
51.532143 116.0
51.576916 140.0
51.580898 180.0
51.592751 68.0
51.595707 112.0
51.601673 216.0
51.616695 168.0
51.634197 152.0
51.690544 200.0
51.714581 192.0
51.744129 344.0
51.778149 132.0
51.81509 160.0
51.830059 304.0
51.853783 100.0
51.873848 76.0
51.90387 132.0
51.918949 88.0
51.92894 120.0
51.952854 176.0
51.990105 152.0
52.006443 92.0
52.014885 228.0
52.026245 140.0
52.046017 128.0
52.057362 160.0
52.061375 144.0
52.068352 116.0
52.07605 208.0
52.098774 164.0
52.145142 112.0
52.160572 348.0
52.173893 172.0
52.18634 176.0
52.190998 116.0
52.194443 164.0
52.220062 192.0
52.226295 200.0
52.239513 104.0
52.255741 220.0
52.270878 176.0
52.284592 96.0
52.28801 144.0
52.298485 176.0
52.319199 180.0
52.33263 180.0
52.342236 124.0
52.353756 176.0
52.382565 176.0
52.400093 164.0
52.422909 64.0
52.445969 80.0
52.464264 388.0
52.477921 160.0
52.517872 120.0
52.533489 144.0
52.552368 144.0
52.580589 288.0
52.591652 120.0
52.618416 172.0
52.644749 160.0
52.679272 148.0
52.694271 160.0
52.767582 128.0
52.786198 176.0
52.81023 252.0
52.816311 168.0
52.835552 180.0
52.848263 164.0
52.870605 212.0
52.904743 124.0
52.931362 128.0
52.941181 160.0
52.967613 164.0
52.978859 220.0
52.981239 168.0
52.999805 400.0
53.016151 128.0
53.031372 156.0
53.071106 180.0
53.081539 184.0
53.095165 120.0
53.10957 292.0
53.149826 312.0
53.153576 244.0
53.180267 232.0
53.195503 212.0
53.211971 176.0
53.227501 256.0
53.244656 108.0
53.261948 172.0
53.280243 100.0
53.312935 288.0
53.32531 140.0
53.340553 156.0
53.364838 196.0
53.371746 176.0
53.405865 188.0
53.40786 168.0
53.433296 192.0
53.436932 148.0
53.443119 84.0
53.453548 348.0
53.471252 332.0
53.484451 124.0
53.49955 316.0
53.512951 164.0
53.552013 124.0
53.566803 312.0
53.594604 136.0
53.622936 176.0
53.657867 104.0
53.662365 112.0
53.676311 196.0
53.687527 212.0
53.711884 112.0
53.72501 132.0
53.735226 184.0
53.753147 156.0
53.774189 280.0
53.786304 112.0
53.805473 152.0
53.831562 172.0
53.846371 144.0
53.869541 176.0
53.909496 288.0
53.930313 172.0
53.948032 152.0
53.966393 404.0
53.994015 252.0
54.006271 260.0
54.027855 96.0
54.048046 176.0
54.061081 192.0
54.0854 248.0
54.10096 196.0
54.144531 76.0
54.161415 356.0
54.178223 144.0
54.193897 160.0
54.208458 176.0
54.233906 180.0
54.237072 176.0
54.243298 148.0
54.260811 68.0
54.279358 260.0
54.293541 152.0
54.304642 116.0
54.317123 64.0
54.374241 124.0
54.380341 96.0
54.385105 192.0
54.404072 156.0
54.420773 160.0
54.442799 64.0
54.48904 220.0
54.503948 136.0
54.528969 160.0
54.558769 268.0
54.585064 44.0
54.596306 168.0
54.614925 132.0
54.625324 120.0
54.642162 32.0
54.653435 248.0
54.658924 164.0
54.669876 188.0
54.700504 164.0
54.70771 148.0
54.729004 376.0
54.743729 48.0
54.75993 120.0
54.776093 280.0
54.800407 84.0
54.827377 144.0
54.84539 180.0
54.855709 108.0
54.87635 148.0
54.892551 220.0
54.897015 296.0
54.916168 224.0
54.93018 176.0
54.961411 156.0
54.97654 148.0
55.003372 180.0
55.034229 152.0
55.071854 144.0
55.102634 128.0
55.108574 132.0
55.143547 152.0
55.154488 80.0
55.17738 140.0
55.189098 148.0
55.193935 168.0
55.20673 256.0
55.221912 108.0
55.235264 160.0
55.245327 352.0
55.255936 332.0
55.266293 124.0
55.28553 184.0
55.313442 168.0
55.326061 136.0
55.336582 156.0
55.35215 112.0
55.370117 180.0
55.387695 120.0
55.408035 148.0
55.424629 116.0
55.460388 136.0
55.475124 104.0
55.486984 148.0
55.509228 164.0
55.523327 236.0
55.542366 168.0
55.559658 36.0
55.573139 160.0
55.584881 156.0
55.630497 128.0
55.654148 204.0
55.669498 180.0
55.68557 220.0
55.695999 152.0
55.72213 176.0
55.747276 292.0
55.773006 192.0
55.789852 112.0
55.810669 148.0
55.830151 444.0
55.850822 344.0
55.867188 144.0
55.878132 168.0
55.908142 180.0
55.930115 140.0
55.965866 252.0
55.984776 128.0
55.995201 56.0
56.016335 192.0
56.051815 60.0
56.070229 256.0
56.090984 496.0
56.11348 328.0
56.123806 216.0
56.177055 100.0
56.20414 132.0
56.209839 144.0
56.217064 272.0
56.236824 180.0
56.27013 232.0
56.290493 216.0
56.302109 236.0
56.317375 60.0
56.352951 172.0
56.372044 144.0
56.387234 196.0
56.437443 232.0
56.468338 236.0
56.488735 260.0
56.514351 148.0
56.517159 120.0
56.519508 196.0
56.555378 156.0
56.583366 120.0
56.618004 96.0
56.630749 180.0
56.641644 520.0
56.65202 220.0
56.675678 144.0
56.68692 120.0
56.719891 116.0
56.756657 92.0
56.760757 92.0
56.767345 148.0
56.803417 184.0
56.841377 112.0
56.860886 132.0
56.871895 336.0
56.893909 212.0
56.920864 156.0
56.934685 196.0
56.949471 44.0
56.959988 212.0
56.983368 128.0
56.994541 80.0
57.017086 52.0
57.031059 148.0
57.041115 300.0
57.056606 164.0
57.081394 176.0
57.096455 164.0
57.110378 160.0
57.134373 152.0
57.152428 116.0
57.175434 180.0
57.193062 120.0
57.209126 148.0
57.228668 160.0
57.271629 136.0
57.295921 320.0
57.330124 168.0
57.343685 132.0
57.366268 208.0
57.379047 96.0
57.381927 152.0
57.394943 140.0
57.425106 272.0
57.442932 132.0
57.468853 356.0
57.494507 164.0
57.509277 112.0
57.523956 140.0
57.545731 120.0
57.564255 320.0
57.585098 324.0
57.610638 132.0
57.612915 240.0
57.62986 292.0
57.650063 212.0
57.678829 132.0
57.692387 212.0
57.727161 80.0
57.747486 200.0
57.772537 204.0
57.79372 112.0
57.810871 164.0
57.8255 32.0
57.840637 132.0
57.871605 132.0
57.882198 168.0
57.898228 336.0
57.922409 164.0
57.94006 196.0
57.946411 180.0
57.950363 168.0
57.969376 88.0
57.981503 132.0
58.00716 56.0
58.019485 148.0
58.040623 192.0
58.051239 144.0
58.063889 188.0
58.112617 224.0
58.129948 172.0
58.153095 204.0
58.168102 184.0
58.203835 136.0
58.245514 372.0
58.280457 160.0
58.29565 112.0
58.322227 140.0
58.35733 160.0
58.377834 136.0
58.398491 156.0
58.411137 156.0
58.431366 332.0
58.45409 212.0
58.488354 200.0
58.516689 192.0
58.543625 32.0
58.574986 180.0
58.623085 176.0
58.638084 124.0
58.648754 64.0
58.67379 208.0
58.685837 184.0
58.708496 108.0
58.743298 180.0
58.77499 176.0
58.798943 128.0
58.817524 176.0
58.833717 184.0
58.865196 116.0
58.878239 276.0
58.902306 296.0
58.940643 188.0
58.953579 100.0
58.965187 176.0
58.984936 200.0
59.0154 152.0
59.027122 140.0
59.041637 100.0
59.07235 176.0
59.082237 116.0
59.091885 120.0
59.121483 184.0
59.14856 160.0
59.177612 200.0
59.204803 60.0
59.230541 168.0
59.251377 116.0
59.268093 160.0
59.291435 164.0
59.301426 216.0
59.315224 80.0
59.335152 148.0
59.352905 152.0
59.365372 260.0
59.367752 184.0
59.393177 188.0
59.405701 48.0
59.422577 144.0
59.440735 168.0
59.443092 140.0
59.450657 80.0
59.465267 360.0
59.485336 152.0
59.501278 144.0
59.52261 304.0
59.549992 104.0
59.566887 124.0
59.597614 184.0
59.613964 144.0
59.628349 288.0
59.639668 268.0
59.653385 168.0
59.67577 360.0
59.696056 100.0
59.707932 184.0
59.714321 140.0
59.719353 172.0
59.730198 220.0
59.75819 136.0
59.770512 132.0
59.784939 108.0
59.790401 88.0
59.804462 140.0
59.825245 48.0
59.836021 124.0
59.855461 192.0
59.890991 328.0
59.909981 184.0
59.925354 224.0
59.936138 156.0
59.956978 96.0
59.984604 108.0
60.008583 68.0
60.029221 136.0
60.05246 160.0
60.065647 156.0
60.079983 68.0
60.091183 152.0
60.107304 184.0
60.129288 156.0
60.173676 152.0
60.188248 228.0
60.21566 148.0
60.235691 412.0
60.255501 112.0
60.281277 340.0
60.308075 128.0
60.321987 40.0
60.337448 148.0
60.362186 68.0
60.379242 144.0
60.391571 200.0
60.417107 188.0
60.428791 664.0
60.461197 60.0
60.481468 136.0
60.506683 344.0
60.528427 112.0
60.545589 424.0
60.565289 176.0
60.576214 156.0
60.597252 144.0
60.610706 176.0
60.636208 152.0
60.656361 152.0
60.678612 248.0
60.693569 120.0
60.706547 184.0
60.738754 120.0
60.76033 192.0
60.771126 372.0
60.791298 164.0
60.819351 212.0
60.82819 104.0
60.832348 188.0
60.862705 112.0
60.873573 132.0
60.884563 156.0
60.901531 120.0
60.92017 168.0
60.938816 144.0
60.949692 32.0
60.963676 176.0
60.975224 140.0
61.00227 140.0
61.007629 116.0
61.014034 172.0
61.020515 184.0
61.042961 372.0
61.056664 148.0
61.074291 388.0
61.101074 200.0
61.127567 240.0
61.143753 132.0
61.172832 128.0
61.196468 264.0
61.202187 284.0
61.226559 152.0
61.246849 184.0
61.274315 444.0
61.28981 208.0
61.316963 196.0
61.327873 148.0
61.366478 124.0
61.407963 164.0
61.448391 156.0
61.480721 60.0
61.498295 124.0
61.521305 120.0
61.538589 172.0
61.556736 72.0
61.572163 148.0
61.58617 208.0
61.597279 80.0
61.611885 156.0
61.628647 132.0
61.650681 116.0
61.677414 176.0
61.694019 140.0
61.727509 140.0
61.740086 152.0
61.752575 192.0
61.770954 112.0
61.801071 132.0
61.820045 192.0
61.854282 200.0
61.868374 88.0
61.889313 192.0
61.904743 140.0
61.925312 144.0
61.936108 124.0
61.960953 136.0
61.995918 300.0
62.009716 132.0
62.021893 88.0
62.045872 108.0
62.058914 96.0
62.074341 188.0
62.097649 140.0
62.119118 120.0
62.143364 184.0
62.165928 244.0
62.193428 152.0
62.231674 156.0
62.247818 136.0
62.281292 204.0
62.30035 144.0
62.320076 88.0
62.33847 228.0
62.349663 116.0
62.362507 88.0
62.380474 140.0
62.392689 100.0
62.403008 84.0
62.414387 140.0
62.433258 116.0
62.445843 132.0
62.471008 136.0
62.487259 144.0
62.497757 168.0
62.518211 108.0
62.540249 164.0
62.562286 216.0
62.588421 240.0
62.617401 132.0
62.633152 104.0
62.647327 36.0
62.658356 140.0
62.674423 152.0
62.686718 144.0
62.69775 40.0
62.708782 124.0
62.731247 128.0
62.742378 212.0
62.755459 112.0
62.767654 152.0
62.783672 160.0
62.801842 116.0
62.828629 112.0
62.84959 168.0
62.889633 140.0
62.919868 148.0
62.961853 120.0
62.988926 216.0
62.998623 112.0
63.038815 140.0
63.065056 212.0
63.091267 200.0
63.117439 216.0
63.123688 184.0
63.144558 172.0
63.158794 176.0
63.173031 168.0
63.199928 140.0
63.228413 256.0
63.246544 220.0
63.260952 196.0
63.296486 48.0
63.317074 84.0
63.336632 212.0
63.347168 244.0
63.36935 300.0
63.385193 152.0
63.398678 112.0
63.426929 144.0
63.462864 92.0
63.490601 504.0
63.503033 212.0
63.524818 128.0
63.542171 124.0
63.55275 96.0
63.57856 120.0
63.612 224.0
63.637146 296.0
63.666756 132.0
63.691399 252.0
63.707283 192.0
63.726349 116.0
63.750294 172.0
63.795918 176.0
63.8013 176.0
63.828766 156.0
63.855114 112.0
63.887295 232.0
63.908302 92.0
63.921028 100.0
63.932514 148.0
63.953762 180.0
63.980274 184.0
63.994625 176.0
64.012672 188.0
64.025558 132.0
64.039787 284.0
64.058456 300.0
64.073921 288.0
64.085846 124.0
64.087959 144.0
64.106575 152.0
64.108681 180.0
64.132164 112.0
64.171204 104.0
64.183182 112.0
64.196907 180.0
64.250893 228.0
64.294846 160.0
64.312935 120.0
64.320198 168.0
64.34433 60.0
64.35865 128.0
64.371475 124.0
64.402618 208.0
64.417793 164.0
64.432175 372.0
64.452942 204.0
64.471115 292.0
64.51368 76.0
64.539604 112.0
64.554657 280.0
64.590439 204.0
64.632957 140.0
64.653618 192.0
64.675529 160.0
64.702881 92.0
64.715271 100.0
64.740143 196.0
64.756332 244.0
64.776779 504.0
64.824394 264.0
64.836342 288.0
64.846817 192.0
64.86528 312.0
64.888374 468.0
64.907555 144.0
64.930916 148.0
64.950798 332.0
64.954758 324.0
64.98455 144.0
65.023918 100.0
65.037506 352.0
65.060829 204.0
65.093704 196.0
65.111366 116.0
65.143494 164.0
65.159912 128.0
65.1856 172.0
65.204552 56.0
65.234001 224.0
65.256203 276.0
65.292976 156.0
65.336128 160.0
65.352501 120.0
65.368431 244.0
65.40239 100.0
65.422646 112.0
65.432976 200.0
65.452301 112.0
65.474121 116.0
65.498497 140.0
65.503571 96.0
65.508827 124.0
65.523788 156.0
65.542282 156.0
65.562332 172.0
65.579964 132.0
65.593674 244.0
65.634384 312.0
65.652122 164.0
65.67424 152.0
65.677216 108.0
65.68544 104.0
65.692291 176.0
65.696037 216.0
65.718262 196.0
65.732124 136.0
65.74826 352.0
65.755196 208.0
65.759102 184.0
65.765442 120.0
65.785286 144.0
65.806381 216.0
65.819954 164.0
65.836449 152.0
65.869026 116.0
65.889412 120.0
65.916214 364.0
65.952431 92.0
65.970215 112.0
65.983147 168.0
66.01297 200.0
66.025192 196.0
66.04528 100.0
66.080589 124.0
66.110062 200.0
66.123772 128.0
66.134148 180.0
66.14669 148.0
66.165939 276.0
66.188072 220.0
66.203392 144.0
66.222649 112.0
66.251099 132.0
66.256783 172.0
66.273842 100.0
66.293938 36.0
66.331581 176.0
66.357285 200.0
66.373367 116.0
66.396072 212.0
66.415535 212.0
66.428513 160.0
66.443619 124.0
66.487511 224.0
66.510979 308.0
66.529793 236.0
66.559982 108.0
66.571892 132.0
66.607521 308.0
66.618904 144.0
66.639015 140.0
66.651665 100.0
66.701332 112.0
66.728508 220.0
66.741104 164.0
66.76474 112.0
66.821526 44.0
66.837944 132.0
66.868156 228.0
66.898933 276.0
66.923515 260.0
66.944862 124.0
66.948486 208.0
66.974701 80.0
66.994995 124.0
67.020317 140.0
67.042557 140.0
67.05497 152.0
67.090401 124.0
67.103447 84.0
67.118118 108.0
67.132088 120.0
67.152534 180.0
67.170654 132.0
67.194733 136.0
67.211975 112.0
67.225784 92.0
67.264519 292.0
67.270309 184.0
67.275726 248.0
67.307411 208.0
67.324554 112.0
67.339806 212.0
67.37664 268.0
67.409447 60.0
67.425941 176.0
67.475708 188.0
67.511574 128.0
67.517365 128.0
67.532204 228.0
67.562386 140.0
67.580383 140.0
67.596748 68.0
67.619896 196.0
67.643738 180.0
67.667252 168.0
67.691696 92.0
67.716263 88.0
67.743416 180.0
67.758255 132.0
67.78167 108.0
67.798286 188.0
67.822762 192.0
67.835442 60.0
67.852272 64.0
67.870308 172.0
67.884026 196.0
67.910324 220.0
67.933083 232.0
67.958885 72.0
67.981857 144.0
67.994987 100.0
68.019485 164.0
68.049255 132.0
68.069397 372.0
68.080811 116.0
68.099731 136.0
68.125549 148.0
68.149597 184.0
68.174477 316.0
68.184456 144.0
68.198654 152.0
68.213448 144.0
68.233177 172.0
68.259262 136.0
68.278542 136.0
68.310471 184.0
68.321983 88.0
68.351601 148.0
68.390388 184.0
68.410034 80.0
68.432259 84.0
68.444443 160.0
68.474136 180.0
68.506699 160.0
68.528389 164.0
68.556168 164.0
68.562119 120.0
68.568237 264.0
68.596802 160.0
68.626686 156.0
68.653069 212.0
68.682755 136.0
68.703201 300.0
68.728951 280.0
68.750916 156.0
68.772781 136.0
68.792557 280.0
68.815071 228.0
68.853485 128.0
68.890755 200.0
68.946373 212.0
68.984955 76.0
69.005669 196.0
69.021103 88.0
69.041786 248.0
69.057449 128.0
69.079887 148.0
69.108063 248.0
69.132713 168.0
69.151115 168.0
69.1614 228.0
69.192131 140.0
69.220413 168.0
69.237915 132.0
69.25737 64.0
69.27787 112.0
69.304382 212.0
69.317635 120.0
69.329239 120.0
69.350784 292.0
69.367363 52.0
69.393883 108.0
69.423523 96.0
69.456909 64.0
69.47403 212.0
69.528252 140.0
69.554291 320.0
69.598282 196.0
69.618607 196.0
69.635361 180.0
69.642151 100.0
69.647591 160.0
69.678238 124.0
69.701111 92.0
69.718735 156.0
69.7342 216.0
69.767059 212.0
69.779083 120.0
69.815063 208.0
69.838951 120.0
69.861343 96.0
69.882957 224.0
69.899895 140.0
69.924011 168.0
69.947113 148.0
69.958763 164.0
69.983353 208.0
70.012047 64.0
70.043694 76.0
70.085022 164.0
70.103882 196.0
70.126656 152.0
70.142952 284.0
70.177521 268.0
70.204109 132.0
70.245483 160.0
70.262085 116.0
70.282104 60.0
70.299683 128.0
70.327164 28.0
70.338852 116.0
70.354469 148.0
70.376266 136.0
70.3974 124.0
70.412323 128.0
70.424011 188.0
70.445465 256.0
70.467445 164.0
70.496262 212.0
70.526085 92.0
70.543953 108.0
70.566254 136.0
70.581406 200.0
70.629585 180.0
70.646339 112.0
70.665276 348.0
70.683144 124.0
70.698158 284.0
70.714775 120.0
70.738335 148.0
70.839302 244.0
70.857407 176.0
70.931236 160.0
70.949463 200.0
70.981522 264.0
71.008156 40.0
71.021576 128.0
71.046738 128.0
71.109009 164.0
71.12429 168.0
71.145355 204.0
71.163391 136.0
71.181816 352.0
71.216568 164.0
71.260071 176.0
71.291885 152.0
71.310371 112.0
71.360016 220.0
71.365738 116.0
71.372292 184.0
71.385231 76.0
71.402412 108.0
71.446587 168.0
71.471825 192.0
71.48378 148.0
71.505478 216.0
71.52063 36.0
71.541054 176.0
71.557663 176.0
71.574501 60.0
71.603661 152.0
71.623131 312.0
71.63797 176.0
71.658386 176.0
71.705307 212.0
71.722359 332.0
71.776711 228.0
71.79084 332.0
71.816795 156.0
71.823769 120.0
71.832039 144.0
71.835548 104.0
71.874878 204.0
71.884972 180.0
71.912544 128.0
71.948814 108.0
71.974144 156.0
72.013969 424.0
72.029953 176.0
72.048462 128.0
72.067169 164.0
72.082253 136.0
72.100838 156.0
72.118752 208.0
72.132111 268.0
72.14344 140.0
72.174072 112.0
72.195198 380.0
72.247131 148.0
72.262039 92.0
72.268837 128.0
72.287811 200.0
72.307259 164.0
72.325798 148.0
72.369812 144.0
72.383942 220.0
72.416847 140.0
72.43248 156.0
72.454498 84.0
72.485001 124.0
72.506546 212.0
72.55619 144.0
72.597534 236.0
72.622971 164.0
72.640312 192.0
72.657806 392.0
72.70546 316.0
72.724266 356.0
72.744972 200.0
72.758659 164.0
72.77166 204.0
72.790344 180.0
72.807182 144.0
72.820915 124.0
72.833969 180.0
72.840363 124.0
72.847786 112.0
72.853386 104.0
72.87867 152.0
72.903915 164.0
72.93512 132.0
72.949844 128.0
72.99086 120.0
73.004463 108.0
73.028275 144.0
73.05661 208.0
73.090637 220.0
73.093407 308.0
73.124687 160.0
73.140938 184.0
73.157333 196.0
73.178696 88.0
73.193359 116.0
73.234833 180.0
73.250504 188.0
73.283638 76.0
73.314178 216.0
73.320114 204.0
73.331673 192.0
73.372787 116.0
73.417091 184.0
73.441505 428.0
73.514488 232.0
73.558212 120.0
73.575684 156.0
73.588425 92.0
73.621391 124.0
73.635056 112.0
73.651283 104.0
73.681175 76.0
73.702911 172.0
73.714752 276.0
73.729721 304.0
73.775589 148.0
73.823051 68.0
73.863205 192.0
73.876076 80.0
73.890617 236.0
73.909019 156.0
73.9487 272.0
73.972008 340.0
73.995872 172.0
74.012566 128.0
74.031837 100.0
74.051094 328.0
74.057961 188.0
74.079529 128.0
74.098747 132.0
74.127289 108.0
74.154701 84.0
74.180359 228.0
74.195877 272.0
74.251205 188.0
74.264923 124.0
74.283791 164.0
74.302666 212.0
74.322838 220.0
74.38147 244.0
74.401466 172.0
74.415947 156.0
74.448318 192.0
74.481964 108.0
74.501205 124.0
74.524155 276.0
74.553017 196.0
74.585846 148.0
74.614365 164.0
74.635254 188.0
74.659187 152.0
74.671295 88.0
74.6978 148.0
74.743309 284.0
74.759064 132.0
74.762253 252.0
74.778862 184.0
74.803246 304.0
74.821709 156.0
74.838959 184.0
74.852699 136.0
74.903145 372.0
74.918152 248.0
74.933655 200.0
74.95433 72.0
74.983627 96.0
75.014656 212.0
75.041809 240.0
75.089523 156.0
75.111229 204.0
75.126755 232.0
75.151718 156.0
75.176903 164.0
75.198524 280.0
75.228447 112.0
75.239487 296.0
75.262123 244.0
75.281548 188.0
75.285896 268.0
75.301094 52.0
75.31646 192.0
75.370796 116.0
75.404762 100.0
75.422043 232.0
75.441063 192.0
75.458618 412.0
75.469795 168.0
75.494392 128.0
75.499786 108.0
75.508163 124.0
75.510925 208.0
75.551743 136.0
75.586349 176.0
75.601921 88.0
75.620529 160.0
75.644463 152.0
75.668495 184.0
75.688477 372.0
75.705696 204.0
75.737106 104.0
75.764687 76.0
75.780281 168.0
75.804543 96.0
75.821342 144.0
75.856537 60.0
75.873878 36.0
75.893654 108.0
75.913757 148.0
75.934975 188.0
75.947556 328.0
75.960876 192.0
76.018875 168.0
76.050613 236.0
76.069916 124.0
76.099182 156.0
76.126266 184.0
76.170631 132.0
76.199493 196.0
76.27877 156.0
76.311554 228.0
76.338493 160.0
76.366745 112.0
76.38176 324.0
76.401848 136.0
76.424461 168.0
76.454048 72.0
76.479645 124.0
76.497559 164.0
76.52417 112.0
76.549324 192.0
76.555817 140.0
76.578735 240.0
76.598564 104.0
76.621208 96.0
76.636894 68.0
76.650833 100.0
76.675018 168.0
76.687981 140.0
76.700966 188.0
76.715317 320.0
76.741142 404.0
76.757164 36.0
76.774605 52.0
76.788467 152.0
76.806 260.0
76.823936 256.0
76.851357 144.0
76.866463 232.0
76.912445 160.0
76.943527 164.0
76.984024 192.0
77.010559 104.0
77.043983 184.0
77.051338 172.0
77.127296 60.0
77.157013 128.0
77.183846 184.0
77.212967 236.0
77.228409 92.0
77.263702 288.0
77.289719 124.0
77.294739 152.0
77.310944 264.0
77.337196 116.0
77.407227 80.0
77.422989 148.0
77.451012 104.0
77.463272 268.0
77.485985 136.0
77.488701 132.0
77.49543 204.0
77.508827 176.0
77.521011 164.0
77.531868 268.0
77.549133 52.0
77.564659 192.0
77.596466 176.0
77.618309 184.0
77.639153 212.0
77.671165 216.0
77.710312 176.0
77.721413 244.0
77.741417 252.0
77.789452 124.0
77.810516 132.0
77.823051 116.0
77.868073 196.0
77.890892 188.0
77.907112 184.0
77.919563 184.0
77.933762 48.0
77.94873 200.0
77.973259 180.0
78.014313 128.0
78.047295 132.0
78.068771 132.0
78.088013 176.0
78.117081 184.0
78.134377 148.0
78.163712 136.0
78.202538 280.0
78.227592 188.0
78.240273 224.0
78.261986 208.0
78.280098 192.0
78.301132 32.0
78.327553 128.0
78.350739 176.0
78.370972 180.0
78.390862 176.0
78.413956 232.0
78.42672 300.0
78.449844 152.0
78.473831 120.0
78.494362 324.0
78.506081 124.0
78.524033 184.0
78.549667 352.0
78.563782 116.0
78.607407 132.0
78.64743 192.0
78.690041 192.0
78.721756 164.0
78.733665 252.0
78.793587 96.0
78.81765 112.0
78.852539 68.0
78.863823 408.0
78.889702 132.0
78.909821 296.0
78.936295 168.0
78.975594 128.0
78.991234 140.0
79.012726 140.0
79.030891 408.0
79.076233 180.0
79.103828 280.0
79.167511 224.0
79.194 124.0
79.210289 180.0
79.216393 128.0
79.220985 96.0
79.253227 112.0
79.286186 144.0
79.304123 108.0
79.321556 208.0
79.354355 224.0
79.377403 140.0
79.411583 176.0
79.461967 356.0
79.490936 112.0
79.513969 172.0
79.534637 232.0
79.564774 208.0
79.606422 144.0
79.622185 220.0
79.656708 120.0
79.678215 332.0
79.699989 160.0
79.729607 184.0
79.742348 356.0
79.765549 124.0
79.7733 156.0
79.796455 168.0
79.826637 220.0
79.843346 152.0
79.867035 216.0
79.896057 124.0
79.915138 88.0
79.941391 176.0
79.974358 104.0
79.992157 128.0
80.011742 48.0
80.031609 156.0
80.065056 412.0
80.07663 136.0
80.101341 204.0
80.128319 272.0
80.170273 148.0
80.182747 160.0
80.194885 148.0
80.216888 156.0
80.240616 152.0
80.260353 160.0
80.2808 116.0
80.321327 224.0
80.353661 104.0
80.386421 176.0
80.415466 208.0
80.478874 148.0
80.516151 528.0
80.546013 156.0
80.55925 148.0
80.573273 108.0
80.605652 132.0
80.612015 196.0
80.61673 236.0
80.631737 332.0
80.651917 112.0
80.670044 196.0
80.70607 168.0
80.723686 120.0
80.74147 148.0
80.747955 140.0
80.776123 164.0
80.795235 168.0
80.808708 200.0
80.822075 96.0
80.849548 260.0
80.881729 168.0
80.919624 224.0
80.944527 168.0
80.980225 176.0
80.996925 192.0
81.03791 148.0
81.066208 144.0
81.088135 148.0
81.115791 176.0
81.135513 136.0
81.157028 144.0
81.182831 72.0
81.219414 124.0
81.248917 156.0
81.2827 164.0
81.332848 132.0
81.358124 152.0
81.383118 260.0
81.406441 268.0
81.428009 164.0
81.449562 108.0
81.503464 184.0
81.545624 156.0
81.572586 96.0
81.589439 180.0
81.607719 124.0
81.62159 140.0
81.642677 208.0
81.685585 188.0
81.712784 96.0
81.733627 180.0
81.792366 212.0
81.821014 208.0
81.84523 152.0
81.858131 220.0
81.873032 164.0
81.89566 196.0
81.918457 180.0
81.946098 124.0
81.9627 136.0
81.987297 116.0
82.010979 80.0
82.028114 220.0
82.048836 204.0
82.07576 184.0
82.088173 380.0
82.101654 232.0
82.13031 176.0
82.146217 220.0
82.168327 156.0
82.180832 208.0
82.19854 112.0
82.245468 108.0
82.266846 76.0
82.295479 148.0
82.304817 180.0
82.321297 116.0
82.368256 100.0
82.387222 88.0
82.419563 188.0
82.499413 160.0
82.518257 144.0
82.55442 196.0
82.574814 172.0
82.59964 140.0
82.633514 132.0
82.657074 292.0
82.674561 184.0
82.706398 128.0
82.724503 152.0
82.738983 152.0
82.760368 188.0
82.799644 148.0
82.832367 144.0
82.844025 192.0
82.862686 120.0
82.880196 228.0
82.887016 132.0
82.892204 324.0
82.914062 184.0
82.946922 192.0
82.962639 152.0
82.981766 124.0
82.998085 168.0
83.03994 196.0
83.058571 152.0
83.075142 132.0
83.089531 124.0
83.115067 276.0
83.167717 184.0
83.191154 184.0
83.204224 164.0
83.217056 200.0
83.240082 220.0
83.275673 184.0
83.317825 188.0
83.33812 132.0
83.359322 60.0
83.372047 52.0
83.40667 124.0
83.42112 148.0
83.441116 380.0
83.469704 128.0
83.510223 96.0
83.533867 340.0
83.547722 244.0
83.591637 132.0
83.619118 216.0
83.622078 184.0
83.63636 148.0
83.659775 256.0
83.680504 252.0
83.70153 100.0
83.735344 152.0
83.755661 152.0
83.797852 236.0
83.811111 200.0
83.839165 308.0
83.864624 144.0
83.896271 84.0
83.919975 92.0
83.942955 152.0
83.949211 120.0
83.956398 156.0
83.96273 116.0
83.991096 136.0
84.006317 128.0
84.019127 140.0
84.047478 164.0
84.054214 148.0
84.060738 140.0
84.09446 148.0
84.106995 164.0
84.126091 160.0
84.145813 144.0
84.175438 52.0
84.191109 84.0
84.222923 92.0
84.239357 100.0
84.296585 88.0
84.348175 176.0
84.388641 300.0
84.41214 176.0
84.438599 168.0
84.466034 112.0
84.500511 204.0
84.528244 200.0
84.542542 216.0
84.56382 180.0
84.598969 168.0
84.609489 176.0
84.641388 168.0
84.689354 216.0
84.724159 188.0
84.760803 116.0
84.777298 220.0
84.819328 116.0
84.843437 148.0
84.860725 160.0
84.89463 132.0
84.924324 180.0
84.945534 164.0
84.968002 116.0
84.984512 116.0
85.00103 148.0
85.022385 128.0
85.041405 92.0
85.062538 248.0
85.093597 148.0
85.12468 144.0
85.138176 192.0
85.161469 204.0
85.198624 156.0
85.2062 92.0
85.225838 160.0
85.245857 160.0
85.249855 152.0
85.256607 184.0
85.279984 244.0
85.300652 176.0
85.338745 332.0
85.379463 132.0
85.403374 192.0
85.421371 148.0
85.432137 208.0
85.481102 228.0
85.500793 76.0
85.520393 124.0
85.558968 276.0
85.589256 184.0
85.603989 168.0
85.616882 84.0
85.633362 160.0
85.656326 240.0
85.696091 68.0
85.723732 80.0
85.742157 100.0
85.77787 128.0
85.805267 152.0
85.816315 160.0
85.847542 236.0
85.869484 136.0
85.905212 244.0
85.930252 180.0
85.945129 132.0
85.985062 204.0
86.001251 144.0
86.040993 64.0
86.066772 256.0
86.11116 156.0
86.142334 128.0
86.165077 196.0
86.185623 144.0
86.204941 116.0
86.219681 136.0
86.234283 44.0
86.252769 188.0
86.277618 200.0
86.308365 176.0
86.320488 196.0
86.340385 172.0
86.361916 180.0
86.387276 128.0
86.423584 136.0
86.439957 132.0
86.453194 140.0
86.477036 176.0
86.491013 176.0
86.506516 272.0
86.521065 120.0
86.524315 208.0
86.553162 280.0
86.590775 180.0
86.615524 160.0
86.634483 164.0
86.649536 124.0
86.677269 100.0
86.693947 164.0
86.71804 140.0
86.747696 204.0
86.772591 168.0
86.826416 176.0
86.846466 96.0
86.877945 172.0
86.89978 168.0
86.934235 164.0
86.949883 160.0
86.971611 204.0
86.988861 192.0
87.015831 144.0
87.023552 76.0
87.030388 120.0
87.061272 252.0
87.084686 216.0
87.110939 208.0
87.147072 108.0
87.16153 128.0
87.194115 160.0
87.208992 144.0
87.224007 288.0
87.251129 140.0
87.274445 112.0
87.300743 168.0
87.30349 252.0
87.332291 132.0
87.356483 136.0
87.371696 100.0
87.398781 160.0
87.445168 132.0
87.465424 176.0
87.487541 256.0
87.502457 140.0
87.530106 152.0
87.548531 176.0
87.57254 292.0
87.598816 212.0
87.614502 144.0
87.628624 104.0
87.64167 160.0
87.657127 108.0
87.673782 224.0
87.701309 116.0
87.745331 188.0
87.765274 192.0
87.81691 128.0
87.869049 108.0
87.873161 184.0
87.893402 152.0
87.918495 188.0
87.992325 136.0
88.006485 172.0
88.05304 164.0
88.098785 164.0
88.135872 256.0
88.166046 164.0
88.179131 112.0
88.196945 112.0
88.212776 164.0
88.229607 232.0
88.242691 140.0
88.276176 140.0
88.29879 148.0
88.321556 116.0
88.379898 180.0
88.414162 240.0
88.42115 160.0
88.425789 164.0
88.465691 144.0
88.483871 172.0
88.502769 88.0
88.519623 148.0
88.533592 96.0
88.555977 156.0
88.587181 172.0
88.632591 264.0
88.665749 132.0
88.699493 220.0
88.71402 144.0
88.738029 180.0
88.75193 132.0
88.78949 244.0
88.819244 148.0
88.82399 244.0
88.843887 212.0
88.864182 140.0
88.878075 144.0
88.914436 168.0
88.940132 248.0
88.972885 160.0
88.996155 120.0
89.027328 176.0
89.06916 56.0
89.109184 176.0
89.126465 152.0
89.130768 192.0
89.137093 228.0
89.163834 352.0
89.186172 192.0
89.20533 132.0
89.226265 180.0
89.240181 164.0
89.268951 324.0
89.293953 212.0
89.326523 304.0
89.344131 148.0
89.361267 116.0
89.41169 184.0
89.431969 152.0
89.43663 264.0
89.451912 148.0
89.487434 196.0
89.508209 152.0
89.522438 224.0
89.546997 108.0
89.568024 100.0
89.609093 136.0
89.638847 232.0
89.644394 48.0
89.651123 156.0
89.670891 136.0
89.705994 192.0
89.730263 164.0
89.752205 108.0
89.757469 100.0
89.764412 80.0
89.800293 128.0
89.839104 212.0
89.855179 188.0
89.881927 160.0
89.905144 204.0
89.935066 276.0
89.960464 168.0
89.980644 292.0
90.004684 144.0
90.017578 172.0
90.05584 196.0
90.059395 160.0
90.082634 304.0
90.099632 136.0
90.115791 188.0
90.146652 356.0
90.154121 172.0
90.157394 176.0
90.170113 188.0
90.191788 152.0
90.218697 76.0
90.23571 104.0
90.248947 156.0
90.285927 124.0
90.304588 152.0
90.351082 172.0
90.373825 212.0
90.392708 160.0
90.430763 124.0
90.447594 312.0
90.46785 120.0
90.499313 164.0
90.522736 292.0
90.547951 164.0
90.587479 184.0
90.592972 120.0
90.619003 104.0
90.635094 172.0
90.698654 120.0
90.723114 148.0
90.752617 164.0
90.770798 176.0
90.789116 280.0
90.809509 132.0
90.822784 100.0
90.844444 144.0
90.863525 236.0
90.898674 144.0
90.913857 296.0
90.943588 132.0
90.969795 220.0
91.001175 72.0
91.027916 100.0
91.052948 2820.0
91.085785 80.0
91.107536 224.0
91.130302 252.0
91.181641 64.0
91.201797 164.0
91.233696 208.0
91.267441 152.0
91.309029 156.0
91.32119 152.0
91.357063 252.0
91.389069 108.0
91.402664 128.0
91.417465 156.0
91.432594 192.0
91.461243 120.0
91.51664 140.0
91.550629 172.0
91.5793 156.0
91.606392 160.0
91.636024 236.0
91.685997 144.0
91.721291 248.0
91.75161 132.0
91.770905 296.0
91.778168 160.0
91.782486 52.0
91.817078 164.0
91.838333 200.0
91.858627 328.0
91.878883 180.0
91.900917 108.0
91.945557 204.0
91.961708 208.0
91.989471 156.0
92.008362 128.0
92.033554 144.0
92.055794 368.0
92.074432 100.0
92.103439 112.0
92.126167 480.0
92.156815 144.0
92.176453 200.0
92.219063 188.0
92.232658 176.0
92.272018 60.0
92.295586 160.0
92.319221 140.0
92.348198 196.0
92.383293 328.0
92.395729 188.0
92.418694 216.0
92.434608 164.0
92.453613 116.0
92.466278 240.0
92.482361 196.0
92.497475 104.0
92.526482 132.0
92.591805 184.0
92.642281 172.0
92.660553 172.0
92.680153 236.0
92.70079 180.0
92.716072 156.0
92.735283 156.0
92.755867 136.0
92.77597 100.0
92.791939 340.0
92.827309 136.0
92.845329 172.0
92.868172 184.0
92.882935 52.0
92.912773 188.0
92.961594 72.0
93.00827 248.0
93.050789 156.0
93.068497 276.0
93.094337 136.0
93.121101 300.0
93.155411 272.0
93.172813 252.0
93.203552 68.0
93.237595 140.0
93.278511 112.0
93.302895 140.0
93.324799 160.0
93.361832 176.0
93.395607 116.0
93.419373 208.0
93.440018 216.0
93.484261 168.0
93.52166 128.0
93.540382 276.0
93.564667 236.0
93.580429 180.0
93.617607 168.0
93.643677 168.0
93.664848 156.0
93.697334 140.0
93.72094 200.0
93.742363 172.0
93.755852 56.0
93.778275 196.0
93.813187 124.0
93.846916 188.0
93.867668 104.0
93.885025 148.0
93.901466 168.0
93.914833 288.0
93.929382 136.0
93.965416 160.0
94.020073 36.0
94.035416 164.0
94.042786 156.0
94.060181 256.0
94.085808 180.0
94.103928 336.0
94.132896 272.0
94.15715 168.0
94.180328 100.0
94.223915 292.0
94.238937 224.0
94.266121 196.0
94.289055 160.0
94.340958 220.0
94.37989 204.0
94.399498 100.0
94.415482 120.0
94.438934 212.0
94.448044 96.0
94.467133 136.0
94.481895 168.0
94.498512 176.0
94.512558 80.0
94.569481 244.0
94.590271 100.0
94.603821 164.0
94.629326 208.0
94.658035 140.0
94.676003 100.0
94.710991 420.0
94.723404 48.0
94.751007 248.0
94.768448 108.0
94.782005 212.0
94.80526 180.0
94.82077 180.0
94.868317 324.0
94.902626 124.0
94.929337 92.0
94.942909 184.0
94.972 136.0
94.98558 120.0
95.016624 136.0
95.050903 152.0
95.071838 144.0
95.120209 132.0
95.172791 172.0
95.186714 108.0
95.243752 152.0
95.27095 172.0
95.29232 148.0
95.319153 200.0
95.342644 272.0
95.370056 164.0
95.400124 164.0
95.430573 140.0
95.464462 136.0
95.472763 136.0
95.494354 148.0
95.515739 228.0
95.541183 200.0
95.554749 148.0
95.561989 144.0
95.567596 104.0
95.584641 144.0
95.624191 140.0
95.652275 140.0
95.68045 196.0
95.702034 124.0
95.718071 132.0
95.735832 220.0
95.761154 96.0
95.775124 252.0
95.789574 108.0
95.802055 240.0
95.815697 148.0
95.874504 176.0
95.893143 208.0
95.928482 96.0
95.959923 92.0
95.988045 248.0
96.012413 328.0
96.051582 224.0
96.065239 108.0
96.098938 176.0
96.112366 148.0
96.14782 224.0
96.16671 260.0
96.198807 280.0
96.212738 160.0
96.257515 160.0
96.284561 220.0
96.316544 196.0
96.332024 216.0
96.353615 180.0
96.380981 184.0
96.446022 92.0
96.479256 320.0
96.514885 72.0
96.542603 184.0
96.5653 120.0
96.594078 224.0
96.624741 176.0
96.652283 104.0
96.681534 240.0
96.692886 152.0
96.69989 152.0
96.731842 124.0
96.760529 184.0
96.774529 96.0
96.783653 104.0
96.787094 156.0
96.824135 192.0
96.849113 172.0
96.864784 132.0
96.8964 212.0
96.923561 148.0
96.941193 192.0
96.966675 140.0
96.992844 160.0
97.001266 160.0
97.053391 136.0
97.075325 768.0
97.116982 180.0
97.137932 224.0
97.152962 144.0
97.187271 156.0
97.203972 120.0
97.227524 136.0
97.253036 132.0
97.272667 248.0
97.297348 340.0
97.314758 136.0
97.341385 152.0
97.396797 208.0
97.421913 196.0
97.452393 172.0
97.492653 76.0
97.510338 148.0
97.545723 176.0
97.567955 220.0
97.600769 284.0
97.646004 156.0
97.665672 112.0
97.7089 308.0
97.726662 148.0
97.750275 252.0
97.780632 108.0
97.803413 120.0
97.821129 168.0
97.858482 156.0
97.895332 236.0
97.940392 268.0
97.966858 152.0
97.981979 192.0
98.01461 300.0
98.041733 236.0
98.055527 100.0
98.073784 336.0
98.08799 196.0
98.11705 164.0
98.154099 220.0
98.177864 232.0
98.197594 216.0
98.219887 124.0
98.23996 200.0
98.262589 188.0
98.291634 172.0
98.311363 264.0
98.348396 116.0
98.363235 124.0
98.384254 68.0
98.417107 152.0
98.424484 176.0
98.485138 224.0
98.525665 104.0
98.56028 208.0
98.61219 104.0
98.631737 160.0
98.679329 140.0
98.708992 136.0
98.739471 136.0
98.769943 200.0
98.777298 164.0
98.832985 152.0
98.865906 212.0
98.885063 104.0
98.911606 192.0
98.946785 220.0
98.972092 120.0
99.002022 108.0
99.020462 188.0
99.053024 132.0
99.090149 2460.0
99.139366 368.0
99.164757 228.0
99.177551 144.0
99.19352 304.0
99.210388 132.0
99.223808 220.0
99.263405 136.0
99.299599 396.0
99.34388 176.0
99.36618 176.0
99.403877 92.0
99.413681 72.0
99.421181 144.0
99.437653 160.0
99.445183 128.0
99.457893 132.0
99.484802 340.0
99.512871 312.0
99.560303 236.0
99.566078 164.0
99.58696 132.0
99.630661 156.0
99.665451 188.0
99.708084 220.0
99.745461 224.0
99.791466 128.0
99.811615 300.0
99.845345 184.0
99.859261 208.0
99.885513 152.0
99.920929 72.0
99.966698 140.0
99.983727 172.0
100.037857 128.0
100.058258 288.0
100.078087 292.0
100.094673 296.0
100.138603 148.0
100.163811 184.0
100.177757 164.0
100.203072 68.0
100.234772 84.0
100.258858 188.0
100.266396 132.0
100.285355 168.0
100.307281 92.0
100.327217 156.0
100.351143 76.0
100.36657 136.0
100.401001 128.0
100.426926 172.0
100.448936 128.0
100.48278 88.0
100.5187 348.0
100.534233 212.0
100.550201 168.0
100.585541 228.0
100.603882 172.0
100.624863 172.0
100.640221 232.0
100.658539 156.0
100.688194 160.0
100.706367 152.0
100.745415 168.0
100.771133 172.0
100.802261 80.0
100.842499 184.0
100.876282 124.0
100.911652 288.0
100.940681 232.0
100.974678 208.0
101.014198 244.0
101.038132 104.0
101.045166 100.0
101.048897 152.0
101.067787 1264.0
101.097824 136.0
101.110046 160.0
101.130257 124.0
101.174019 164.0
101.20298 160.0
101.222351 208.0
101.260406 104.0
101.279602 140.0
101.299065 160.0
101.314491 196.0
101.348549 116.0
101.383957 216.0
101.418694 220.0
101.436737 108.0
101.452774 96.0
101.466805 140.0
101.499191 160.0
101.526016 136.0
101.588394 96.0
101.605194 176.0
101.61924 84.0
101.660141 244.0
101.703712 216.0
101.7192 100.0
101.737648 192.0
101.761742 184.0
101.794731 192.0
101.813957 216.0
101.828011 84.0
101.850105 60.0
101.884262 172.0
101.90033 180.0
101.915924 84.0
101.975609 200.0
101.995102 180.0
102.01326 212.0
102.039017 104.0
102.053085 116.0
102.072235 184.0
102.090042 204.0
102.112823 108.0
102.141579 180.0
102.169128 356.0
102.208656 152.0
102.240295 128.0
102.291351 176.0
102.319954 132.0
102.323982 144.0
102.333176 320.0
102.348167 196.0
102.375053 140.0
102.394897 260.0
102.447563 100.0
102.465584 276.0
102.493904 300.0
102.525467 172.0
102.538857 312.0
102.594681 128.0
102.622849 136.0
102.62825 80.0
102.648064 76.0
102.667679 220.0
102.709 424.0
102.733704 184.0
102.747665 164.0
102.791374 156.0
102.815628 164.0
102.84079 204.0
102.885201 184.0
102.89933 60.0
102.927597 168.0
102.94577 132.0
102.965965 84.0
102.98069 236.0
103.000305 120.0
103.034653 328.0
103.053062 636.0
103.081123 192.0
103.103355 152.0
103.118904 184.0
103.150597 332.0
103.198898 132.0
103.254982 352.0
103.28949 260.0
103.296295 132.0
103.31572 156.0
103.3367 244.0
103.359947 104.0
103.393509 180.0
103.422035 168.0
103.439568 180.0
103.475136 212.0
103.511673 176.0
103.524956 192.0
103.564369 168.0
103.594818 212.0
103.625114 176.0
103.65786 144.0
103.672043 228.0
103.693016 80.0
103.727829 84.0
103.75312 144.0
103.781212 192.0
103.78878 116.0
103.822128 128.0
103.839127 280.0
103.87532 204.0
103.905457 144.0
103.920448 176.0
103.952454 180.0
103.987183 208.0
104.016846 172.0
104.057449 280.0
104.096977 152.0
104.120872 156.0
104.149712 244.0
104.191307 128.0
104.2062 152.0
104.223289 148.0
104.262619 180.0
104.298943 156.0
104.314598 148.0
104.331116 132.0
104.336304 176.0
104.37603 152.0
104.396988 168.0
104.413063 92.0
104.472397 72.0
104.513489 220.0
104.54734 32.0
104.572189 116.0
104.601089 188.0
104.622658 128.0
104.638939 120.0
104.655228 56.0
104.669487 160.0
104.742805 120.0
104.807037 280.0
104.852669 148.0
104.885139 160.0
104.910706 192.0
104.933319 180.0
104.959648 176.0
105.013451 196.0
105.03289 564.0
105.068581 956.0
105.095306 124.0
105.127754 260.0
105.158768 240.0
105.195511 64.0
105.216606 180.0
105.232262 156.0
105.250641 164.0
105.277489 216.0
105.30732 232.0
105.322121 148.0
105.337509 232.0
105.345444 124.0
105.351425 160.0
105.364555 352.0
105.378464 200.0
105.400482 216.0
105.431786 160.0
105.467201 156.0
105.50518 324.0
105.550865 160.0
105.567711 172.0
105.591881 192.0
105.617706 152.0
105.626137 88.0
105.636093 216.0
105.66761 128.0
105.688072 200.0
105.704445 164.0
105.731415 156.0
105.746445 160.0
105.767891 284.0
105.793304 232.0
105.819069 120.0
105.833405 140.0
105.86412 120.0
105.878456 168.0
105.926918 180.0
105.953819 172.0
105.985825 120.0
106.001373 132.0
106.034164 116.0
106.073105 164.0
106.098 288.0
106.104233 196.0
106.138718 100.0
106.204811 176.0
106.232994 208.0
106.261787 216.0
106.302254 188.0
106.31488 96.0
106.351852 260.0
106.394012 160.0
106.406731 180.0
106.459152 148.0
106.478226 248.0
106.504837 152.0
106.534477 316.0
106.548325 156.0
106.575935 120.0
106.590317 96.0
106.640182 324.0
106.670471 136.0
106.716904 144.0
106.738068 128.0
106.751442 168.0
106.773285 56.0
106.799606 152.0
106.820114 396.0
106.847336 148.0
106.883163 204.0
106.906647 228.0
106.956345 180.0
106.963173 180.0
106.985306 208.0
107.009766 512.0
107.048195 20412.0
107.098076 92.0
107.120903 68.0
107.136711 148.0
107.176773 64.0
107.20356 92.0
107.219734 268.0
107.23362 144.0
107.25013 148.0
107.313133 132.0
107.331223 168.0
107.364769 144.0
107.380096 172.0
107.392586 164.0
107.433601 92.0
107.440208 52.0
107.446358 80.0
107.465271 176.0
107.498459 116.0
107.528709 128.0
107.541321 172.0
107.558311 184.0
107.578957 164.0
107.597542 164.0
107.619843 152.0
107.6409 128.0
107.672226 192.0
107.708138 156.0
107.737129 200.0
107.754158 144.0
107.783432 232.0
107.828896 180.0
107.917793 72.0
107.948807 72.0
107.984383 180.0
108.010857 436.0
108.030434 208.0
108.049355 868.0
108.067039 176.0
108.086861 136.0
108.14328 168.0
108.159843 48.0
108.186546 188.0
108.221176 128.0
108.243134 376.0
108.298576 56.0
108.323776 168.0
108.342079 184.0
108.38559 148.0
108.421051 76.0
108.447762 168.0
108.462273 76.0
108.482224 96.0
108.526749 200.0
108.559181 216.0
108.583664 120.0
108.604202 188.0
108.61982 160.0
108.626732 156.0
108.643715 216.0
108.675056 160.0
108.700783 196.0
108.728432 252.0
108.769478 204.0
108.797302 80.0
108.812874 156.0
108.853951 368.0
108.910477 120.0
108.943611 84.0
108.959946 108.0
108.964088 104.0
108.997734 120.0
109.014359 196.0
109.054329 476.0
109.074051 216.0
109.088463 172.0
109.122971 128.0
109.164413 188.0
109.179916 164.0
109.18309 196.0
109.214317 168.0
109.231178 328.0
109.249313 220.0
109.26255 100.0
109.309555 156.0
109.340874 96.0
109.395729 180.0
109.41716 136.0
109.447044 64.0
109.517311 108.0
109.554245 136.0
109.598961 116.0
109.6045 108.0
109.658775 172.0
109.701729 184.0
109.743073 168.0
109.765862 188.0
109.790306 172.0
109.806923 192.0
109.837814 220.0
109.850639 136.0
109.870148 88.0
109.888931 92.0
109.91687 144.0
109.93692 188.0
109.957245 152.0
109.978096 192.0
110.005325 176.0
110.0252 124.0
110.054199 176.0
110.084526 148.0
110.117134 152.0
110.143074 228.0
110.16156 184.0
110.167923 108.0
110.177628 144.0
110.201584 140.0
110.243782 128.0
110.251091 120.0
110.258102 76.0
110.275261 156.0
110.295296 144.0
110.324036 152.0
110.349014 340.0
110.379326 212.0
110.425682 136.0
110.444382 112.0
110.465103 208.0
110.486465 300.0
110.517853 84.0
110.553429 192.0
110.599472 96.0
110.620407 176.0
110.682335 228.0
110.695923 176.0
110.720772 180.0
110.753166 180.0
110.795441 76.0
110.838417 132.0
110.859329 116.0
110.923927 284.0
110.953003 100.0
110.996269 192.0
111.017311 196.0
111.032425 132.0
111.059837 260.0
111.09066 12288.0
111.135147 188.0
111.157219 192.0
111.179825 140.0
111.19854 268.0
111.249527 160.0
111.266037 108.0
111.26889 136.0
111.289207 188.0
111.320709 156.0
111.337509 184.0
111.354309 168.0
111.367935 80.0
111.403633 88.0
111.434135 148.0
111.450127 176.0
111.464317 88.0
111.486671 144.0
111.503487 116.0
111.528557 180.0
111.577438 176.0
111.608597 176.0
111.623314 164.0
111.642242 148.0
111.658012 236.0
111.672638 136.0
111.690903 148.0
111.708305 176.0
111.728485 200.0
111.74321 192.0
111.803429 148.0
111.829277 196.0
111.852448 132.0
111.868431 124.0
111.910065 160.0
111.939323 224.0
111.973366 184.0
111.99543 188.0
112.013496 384.0
112.04007 156.0
112.067459 220.0
112.096573 2364.0
112.116791 196.0
112.133362 132.0
112.1623 68.0
112.188683 132.0
112.213516 136.0
112.252319 172.0
112.255562 120.0
112.267792 112.0
112.295135 144.0
112.323822 176.0
112.343422 144.0
112.379379 120.0
112.386978 112.0
112.404839 224.0
112.419464 220.0
112.460884 72.0
112.484123 220.0
112.508675 308.0
112.534225 108.0
112.558357 116.0
112.582512 124.0
112.599068 204.0
112.617737 200.0
112.632561 196.0
112.641258 312.0
112.672035 140.0
112.703377 192.0
112.734215 144.0
112.758507 164.0
112.792404 136.0
112.813507 140.0
112.836578 164.0
112.853622 136.0
112.88916 212.0
112.908875 192.0
112.944267 216.0
112.96714 184.0
112.988014 144.0
113.017502 188.0
113.053612 188.0
113.072235 300.0
113.103661 164.0
113.132431 280.0
113.158813 240.0
113.166595 248.0
113.191216 120.0
113.198448 192.0
113.20752 200.0
113.255188 96.0
113.275932 204.0
113.299637 64.0
113.387123 128.0
113.428017 172.0
113.44313 196.0
113.493935 312.0
113.526039 232.0
113.540886 208.0
113.555733 68.0
113.583305 112.0
113.602402 96.0
113.622871 172.0
113.651199 72.0
113.686546 184.0
113.706047 104.0
113.737381 72.0
113.747215 148.0
113.840126 136.0
113.86145 188.0
113.887558 120.0
113.893478 196.0
113.933578 180.0
113.967575 116.0
113.986702 152.0
114.009354 152.0
114.030785 152.0
114.0494 160.0
114.07177 176.0
114.114937 180.0
114.143379 204.0
114.165428 108.0
114.188667 196.0
114.212067 136.0
114.233337 124.0
114.250359 36.0
114.312767 180.0
114.358879 116.0
114.389816 188.0
114.438797 104.0
114.473846 108.0
114.507378 168.0
114.542007 72.0
114.573959 36.0
114.62606 168.0
114.644203 120.0
114.69593 188.0
114.729256 100.0
114.776176 160.0
114.811714 208.0
114.837708 220.0
114.86525 324.0
114.895889 40.0
114.920135 284.0
114.940697 232.0
114.956665 132.0
114.976143 164.0
114.991913 188.0
115.01326 52.0
115.053368 1028.0
115.107201 144.0
115.133018 132.0
115.179817 196.0
115.20118 176.0
115.231087 180.0
115.274185 236.0
115.319862 132.0
115.348633 44.0
115.37368 316.0
115.41568 152.0
115.432327 236.0
115.456131 188.0
115.47506 192.0
115.50174 160.0
115.569473 180.0
115.605293 132.0
115.630638 76.0
115.633904 120.0
115.649666 200.0
115.682304 200.0
115.714462 128.0
115.744438 188.0
115.766975 152.0
115.781204 188.0
115.799088 224.0
115.836288 176.0
115.90081 148.0
115.953003 280.0
115.977959 40.0
116.00103 184.0
116.037132 116.0
116.061089 124.0
116.08773 140.0
116.148384 184.0
116.167503 144.0
116.174004 248.0
116.18927 388.0
116.2136 196.0
116.221451 172.0
116.227608 288.0
116.249008 276.0
116.26355 156.0
116.287598 168.0
116.308296 140.0
116.333069 188.0
116.351898 128.0
116.383438 176.0
116.406593 172.0
116.426384 156.0
116.493599 192.0
116.528419 104.0
116.555908 240.0
116.586708 332.0
116.602554 28.0
116.634796 160.0
116.664589 120.0
116.681015 120.0
116.72097 212.0
116.738686 88.0
116.759369 116.0
116.779221 248.0
116.794418 212.0
116.821281 172.0
116.858994 144.0
116.928978 148.0
116.965721 168.0
117.009117 108.0
117.043571 168.0
117.068466 2316.0
117.115784 176.0
117.136688 136.0
117.166344 120.0
117.183578 88.0
117.24176 132.0
117.263786 236.0
117.29451 76.0
117.300446 176.0
117.3545 204.0
117.381325 136.0
117.391296 168.0
117.398705 276.0
117.421646 160.0
117.472473 172.0
117.490562 204.0
117.516602 192.0
117.544777 164.0
117.573891 60.0
117.612907 92.0
117.641891 176.0
117.660233 180.0
117.68251 188.0
117.714798 220.0
117.75029 164.0
117.756683 108.0
117.790138 208.0
117.8153 208.0
117.895676 188.0
117.914024 92.0
117.948135 104.0
117.967987 168.0
117.991997 200.0
118.034035 144.0
118.068527 204.0
118.097717 196.0
118.116219 128.0
118.131363 164.0
118.150833 180.0
118.171989 128.0
118.189438 176.0
118.217911 108.0
118.266121 288.0
118.298302 196.0
118.346733 180.0
118.38562 212.0
118.420029 168.0
118.482079 132.0
118.502899 288.0
118.528801 156.0
118.55719 120.0
118.579514 120.0
118.600723 124.0
118.644623 148.0
118.669792 164.0
118.718346 32.0
118.739822 144.0
118.768456 356.0
118.789917 100.0
118.807274 268.0
118.826797 52.0
118.846329 152.0
118.878708 224.0
118.946732 76.0
118.990585 156.0
119.016502 180.0
119.052551 136.0
119.077362 104.0
119.088089 88.0
119.098969 304.0
119.147537 176.0
119.165512 176.0
119.185066 224.0
119.200279 180.0
119.233315 176.0
119.277977 192.0
119.304413 180.0
119.334671 116.0
119.367104 440.0
119.429726 248.0
119.450851 96.0
119.481743 160.0
119.510155 292.0
119.545303 164.0
119.554428 108.0
119.55751 148.0
119.578407 156.0
119.599457 200.0
119.66951 200.0
119.689232 252.0
119.710709 144.0
119.72522 132.0
119.758682 324.0
119.777817 68.0
119.802643 156.0
119.861801 136.0
119.879761 152.0
119.905144 180.0
119.927185 100.0
119.951164 148.0
119.996948 116.0
120.027473 60.0
120.060181 172.0
120.101624 192.0
120.140663 152.0
120.164886 76.0
120.19838 252.0
120.219406 228.0
120.254318 208.0
120.270676 168.0
120.321381 240.0
120.346046 172.0
120.439957 128.0
120.473625 224.0
120.503418 168.0
120.521927 216.0
120.551559 204.0
120.575424 140.0
120.599663 176.0
120.63755 152.0
120.674782 240.0
120.737686 148.0
120.769142 220.0
120.796318 172.0
120.847 64.0
120.86409 168.0
120.87941 184.0
120.904076 148.0
120.941193 160.0
120.976295 256.0
121.017311 84.0
121.064644 548.0
121.106491 144.0
121.11367 104.0
121.11866 144.0
121.190735 136.0
121.207878 128.0
121.223221 176.0
121.262741 120.0
121.309998 156.0
121.348755 104.0
121.368965 168.0
121.394211 156.0
121.41304 164.0
121.437744 160.0
121.470299 128.0
121.500252 152.0
121.523636 104.0
121.550941 232.0
121.584534 204.0
121.61599 48.0
121.651672 260.0
121.666901 144.0
121.6922 200.0
121.744446 176.0
121.763977 132.0
121.797523 116.0
121.805145 88.0
121.809814 136.0
121.832443 172.0
121.924065 240.0
121.943077 60.0
121.972687 136.0
121.997833 176.0
122.017067 176.0
122.037308 148.0
122.063942 200.0
122.090378 232.0
122.123375 192.0
122.144348 284.0
122.173233 120.0
122.216263 288.0
122.250977 76.0
122.270126 120.0
122.290596 80.0
122.312607 104.0
122.340355 264.0
122.356911 192.0
122.398468 108.0
122.440315 116.0
122.461792 276.0
122.483299 236.0
122.504189 84.0
122.526222 192.0
122.54966 156.0
122.577141 184.0
122.609108 156.0
122.629791 184.0
122.701195 160.0
122.718689 172.0
122.74884 112.0
122.803978 180.0
122.821838 172.0
122.839134 140.0
122.842468 196.0
122.871674 96.0
122.885605 248.0
122.936798 100.0
122.959496 132.0
123.056511 276.0
123.073532 216.0
123.090881 144.0
123.129097 192.0
123.14312 136.0
123.17144 156.0
123.214104 148.0
123.229179 144.0
123.252136 212.0
123.272026 100.0
123.291916 148.0
123.325935 204.0
123.35675 168.0
123.417267 268.0
123.43869 224.0
123.457726 180.0
123.479843 60.0
123.53846 212.0
123.569077 148.0
123.590454 148.0
123.65242 336.0
123.684044 152.0
123.712181 112.0
123.738747 208.0
123.775139 192.0
123.808868 60.0
123.827332 124.0
123.857323 132.0
123.889687 132.0
123.904861 176.0
123.94725 184.0
123.982185 148.0
123.996353 164.0
124.030083 356.0
124.045761 232.0
124.081032 228.0
124.105659 148.0
124.18483 200.0
124.221886 140.0
124.252945 116.0
124.272911 132.0
124.293091 168.0
124.301018 108.0
124.309563 224.0
124.325447 160.0
124.329788 108.0
124.361298 116.0
124.381111 160.0
124.406235 168.0
124.434937 120.0
124.462967 148.0
124.48967 272.0
124.570709 364.0
124.628174 68.0
124.674507 184.0
124.730408 164.0
124.774437 132.0
124.789268 136.0
124.812668 216.0
124.866203 216.0
124.894463 72.0
124.95253 132.0
124.972824 84.0
125.042336 68.0
125.073608 140.0
125.09523 68.0
125.12793 192.0
125.16127 352.0
125.216072 180.0
125.233292 124.0
125.266708 68.0
125.312798 132.0
125.337242 200.0
125.390762 456.0
125.424919 188.0
125.455109 284.0
125.48288 156.0
125.514671 408.0
125.538628 176.0
125.569855 120.0
125.587219 292.0
125.611069 176.0
125.639 96.0
125.667313 160.0
125.759506 116.0
125.776978 184.0
125.81739 172.0
125.83123 208.0
125.857277 188.0
125.872421 104.0
125.897934 160.0
125.915695 172.0
125.918846 164.0
125.92762 232.0
125.964935 136.0
125.98951 164.0
126.024506 208.0
126.055 168.0
126.078384 212.0
126.123596 288.0
126.143646 272.0
126.188423 184.0
126.21302 120.0
126.245125 56.0
126.282928 184.0
126.302483 180.0
126.320374 28.0
126.345627 148.0
126.372307 132.0
126.394211 84.0
126.414345 148.0
126.430016 236.0
126.447922 88.0
126.511925 168.0
126.541939 68.0
126.571541 144.0
126.596252 140.0
126.637276 168.0
126.696609 136.0
126.71344 168.0
126.727539 268.0
126.750252 140.0
126.777138 160.0
126.80687 136.0
126.839897 236.0
126.860191 168.0
126.887955 220.0
126.906845 228.0
126.921852 144.0
126.948692 92.0
126.964775 152.0
126.972923 184.0
127.005836 216.0
127.024658 444.0
127.053375 480.0
127.090508 268.0
127.118736 324.0
127.137238 152.0
127.187805 208.0
127.208839 236.0
127.23465 176.0
127.278816 196.0
127.306587 132.0
127.324036 132.0
127.33271 144.0
127.337502 360.0
127.348137 112.0
127.357742 180.0
127.393364 132.0
127.447708 204.0
127.508072 216.0
127.529404 228.0
127.552872 104.0
127.559921 64.0
127.578285 252.0
127.598297 112.0
127.61219 256.0
127.63018 96.0
127.65567 352.0
127.696327 144.0
127.714615 240.0
127.790016 128.0
127.814903 164.0
127.85231 176.0
127.868637 160.0
127.910927 240.0
127.953468 168.0
127.992752 216.0
128.039413 564.0
128.060364 3104.0
128.086731 228.0
128.111023 456.0
128.124542 288.0
128.165115 264.0
128.190689 156.0
128.216415 160.0
128.233932 240.0
128.254349 164.0
128.274292 156.0
128.306412 260.0
128.3564 184.0
128.385406 220.0
128.424698 228.0
128.44223 124.0
128.477448 276.0
128.511353 456.0
128.536194 132.0
128.601624 256.0
128.619324 404.0
128.669189 532.0
128.696091 656.0
128.717056 384.0
128.758286 828.0
128.793655 112.0
128.803772 284.0
128.821884 332.0
128.827942 472.0
128.871094 528.0
128.902802 208.0
128.931351 644.0
128.964615 748.0
128.991013 336.0
129.019974 936.0
129.068481 13280.0
129.102722 381176.0
129.156891 172.0
129.162125 108.0
129.184158 156.0
129.208893 200.0
129.217087 124.0
129.225296 192.0
129.254547 536.0
129.277435 496.0
129.311142 3204.0
129.350113 652.0
129.384109 724.0
129.411316 1052.0
129.448364 2788.0
129.478455 5828.0
129.532333 84.0
129.540512 188.0
129.566483 216.0
129.609192 136.0
129.627197 152.0
129.656052 420.0
129.68457 484.0
129.714218 324.0
129.731781 200.0
129.776917 184.0
129.801987 196.0
129.826477 1204.0
129.864456 392.0
129.881226 120.0
129.903259 144.0
129.919235 152.0
129.935898 120.0
129.952499 184.0
129.985519 208.0
130.010345 236.0
130.019119 188.0
130.024536 116.0
130.072098 936.0
130.104538 74056.0
130.188553 104.0
130.211685 136.0
130.23143 56.0
130.25415 52.0
130.27034 180.0
130.323669 128.0
130.374191 52.0
130.379761 136.0
130.416367 72.0
130.444412 68.0
130.480682 164.0
130.509537 128.0
130.535141 60.0
130.552292 76.0
130.576477 148.0
130.62265 164.0
130.645218 176.0
130.668533 72.0
130.704391 68.0
130.732559 176.0
130.765762 120.0
130.790161 160.0
130.815247 112.0
130.851868 384.0
130.878647 224.0
130.901306 180.0
130.927948 264.0
130.93837 116.0
130.964981 316.0
130.971695 324.0
130.992325 244.0
131.029831 296.0
131.038574 244.0
131.042297 408.0
131.066193 432.0
131.071335 464.0
131.106018 3128.0
131.152039 276.0
131.180328 176.0
131.242065 308.0
131.267593 252.0
131.300278 132.0
131.330536 148.0
131.359879 168.0
131.3871 40.0
131.422653 80.0
131.455612 92.0
131.480286 236.0
131.513367 132.0
131.559326 96.0
131.578537 132.0
131.597931 76.0
131.649765 72.0
131.681564 36.0
131.728928 60.0
131.747955 212.0
131.784531 76.0
131.806778 84.0
131.843353 44.0
131.860535 64.0
131.883392 28.0
131.948639 96.0
131.986282 116.0
132.002289 64.0
132.024948 116.0
132.064835 124.0
132.109039 176.0
132.148392 56.0
132.162476 132.0
132.187027 116.0
132.19632 88.0
132.203506 100.0
132.259628 108.0
132.295807 84.0
132.331406 72.0
132.424393 64.0
132.450867 84.0
132.489822 32.0
132.535645 36.0
132.634186 64.0
132.668579 68.0
132.700272 160.0
132.7211 84.0
132.729874 76.0
132.736115 140.0
132.757996 60.0
132.792404 96.0
132.884995 188.0
132.955612 60.0
133.009583 136.0
133.042526 72.0
133.078979 64.0
133.115997 68.0
133.143555 92.0
133.210175 64.0
133.283691 84.0
133.306671 84.0
133.345734 52.0
133.451492 60.0
133.509674 92.0
133.516861 84.0
133.651596 44.0
133.672318 64.0
133.711441 28.0
133.778183 36.0
133.85878 84.0
133.907135 72.0
133.934784 112.0
133.962418 68.0
133.992371 60.0
134.017624 108.0
134.098373 44.0
134.151398 176.0
134.234909 72.0
134.3405 68.0
134.386642 36.0
134.40741 76.0
134.443253 64.0
134.550507 72.0
134.63826 52.0
134.863907 96.0
135.038101 136.0
135.079727 136.0
135.121368 84.0
135.17923 160.0
135.267181 60.0
135.350525 68.0
135.375992 88.0
135.532013 156.0
135.565964 44.0
135.658676 96.0
135.702728 52.0
135.727158 52.0
135.757141 60.0
135.795486 40.0
135.901077 116.0
135.92308 28.0
135.950928 44.0
135.969498 112.0
136.083237 84.0
136.128601 112.0
136.16452 72.0
136.262085 112.0
136.299255 68.0
136.3806 40.0
136.417801 44.0
136.475922 68.0
136.551788 212.0
136.575928 56.0
136.634079 84.0
136.734146 36.0
136.750427 60.0
136.792328 132.0
136.843552 44.0
136.881088 100.0
136.953354 216.0
136.978622 120.0
137.011246 124.0
137.0392 72.0
137.130081 96.0
137.155121 124.0
137.176712 36.0
137.202347 60.0
137.247162 200.0
137.356262 104.0
137.405258 84.0
137.458221 92.0
137.481033 84.0
137.5056 72.0
137.566284 84.0
137.591965 44.0
137.662491 100.0
137.688919 116.0
137.711899 156.0
137.734421 156.0
137.848907 76.0
137.895645 48.0
137.937729 124.0
137.972794 84.0
137.989151 56.0
138.017212 68.0
138.053574 68.0
138.073334 84.0
138.131821 68.0
138.154984 84.0
138.183456 104.0
138.283981 124.0
138.316681 96.0
138.356628 120.0
138.38063 140.0
138.40799 88.0
138.480591 76.0
138.496979 48.0
138.52977 84.0
138.591812 84.0
138.635223 44.0
138.738358 92.0
138.850906 48.0
138.879044 136.0
138.903366 76.0
138.958817 60.0
139.01738 92.0
139.052673 72.0
139.084045 356.0
139.104324 76.0
139.164917 104.0
139.185669 68.0
139.235809 44.0
139.261642 36.0
139.296875 52.0
139.357346 152.0
139.381454 40.0
139.433167 164.0
139.449615 104.0
139.510727 28.0
139.611847 88.0
139.668289 116.0
139.687103 40.0
139.742157 120.0
139.771805 28.0
139.795334 108.0
139.943634 116.0
139.975616 48.0
140.021347 72.0
140.040192 40.0
140.087311 100.0
140.108505 44.0
140.172119 72.0
140.205124 60.0
140.294693 200.0
140.344208 104.0
140.372498 48.0
140.414261 96.0
140.459763 184.0
140.488068 104.0
140.520477 88.0
140.602295 128.0
140.627289 36.0
140.66507 64.0
140.68631 100.0
140.713165 96.0
140.738251 116.0
140.785477 80.0
140.813828 92.0
140.844528 104.0
140.8965 60.0
140.91777 104.0
140.943756 84.0
141.067596 312.0
141.095642 76.0
141.11499 84.0
141.154144 100.0
141.206161 76.0
141.280579 52.0
141.305527 76.0
141.326813 72.0
141.53511 116.0
141.561157 92.0
141.589584 160.0
141.646423 64.0
141.854965 196.0
142.076019 152.0
142.134827 44.0
142.177551 76.0
142.252655 64.0
142.317108 76.0
142.386475 52.0
142.438736 68.0
142.474365 64.0
142.507629 88.0
142.533768 44.0
142.5849 132.0
142.654984 64.0
142.873764 40.0
142.938019 48.0
142.997513 120.0
143.040359 116.0
143.084381 2720.0
143.149872 52.0
143.207031 56.0
143.235626 96.0
143.276123 88.0
143.304718 48.0
143.385727 60.0
143.426254 140.0
143.581238 64.0
143.717209 36.0
143.733917 144.0
143.953537 72.0
144.088257 428.0
144.118347 172.0
144.175705 60.0
144.441101 40.0
144.503311 68.0
144.570312 152.0
144.611572 216.0
144.716965 60.0
144.80014 76.0
144.833679 108.0
145.037354 168.0
145.059555 164.0
145.081207 144.0
145.103943 152.0
145.202805 108.0
145.281021 72.0
145.476349 60.0
145.745346 36.0
145.983322 44.0
146.026611 116.0
146.228729 212.0
146.272049 92.0
146.300934 60.0
146.630951 52.0
146.671921 44.0
147.031311 148.0
147.21962 80.0
147.289658 84.0
147.388718 88.0
148.039444 44.0
148.162964 40.0
148.218704 60.0
148.613937 56.0
148.810547 124.0
149.102051 96.0
149.243042 48.0
149.284378 64.0
149.350052 88.0
150.048965 124.0
150.144073 80.0
150.439316 52.0
150.48082 104.0
150.607819 36.0
150.66156 64.0
150.688431 132.0
150.791061 48.0
150.815506 52.0
150.861954 76.0
151.050262 72.0
151.312119 72.0
151.388016 68.0
151.731064 84.0
151.87085 152.0
152.496979 108.0
152.521545 108.0
152.728104 80.0
152.868347 60.0
152.937256 88.0
153.016037 160.0
153.06282 132.0
153.146545 148.0
153.210602 44.0
153.390503 184.0
153.444733 36.0
153.888855 160.0
153.990097 76.0
154.071609 100.0
154.365204 144.0
154.63295 48.0
154.655228 88.0
154.75177 56.0
154.868164 116.0
155.08139 532.0
155.118439 212.0
155.153137 68.0
155.170502 60.0
155.264725 56.0
155.418533 136.0
155.520279 92.0
155.793442 112.0
155.828217 84.0
156.063599 140.0
156.090332 124.0
156.133987 36.0
156.823654 180.0
157.040573 108.0
157.097519 616.0
157.327545 212.0
157.424927 108.0
157.647263 192.0
157.717239 44.0
157.874756 116.0
158.079895 120.0
158.101547 140.0
158.265137 32.0
158.355286 56.0
158.51062 116.0
158.693604 108.0
158.746262 104.0
159.027252 60.0
159.11261 92.0
159.192963 236.0
159.285889 220.0
159.42659 96.0
159.615128 92.0
159.748444 96.0
159.776108 148.0
160.126007 64.0
160.199051 132.0
160.74115 92.0
160.978439 56.0
161.102203 116.0
161.610397 52.0
161.860992 76.0
162.091507 112.0
162.908493 56.0
162.966934 84.0
163.025375 48.0
163.679153 128.0
163.842163 120.0
164.148026 92.0
164.523102 48.0
164.658432 108.0
164.747849 68.0
165.05455 176.0
165.668823 136.0
166.222656 124.0
166.268845 84.0
166.723419 72.0
167.140015 36.0
167.415466 180.0
167.657639 212.0
167.998001 144.0
168.127014 128.0
168.816788 48.0
168.8349 64.0
169.096451 136.0
169.404343 136.0
170.003296 88.0
170.094131 148.0
170.12529 100.0
170.333038 28.0
170.447357 168.0
170.556503 52.0
170.590302 72.0
170.639694 104.0
170.996094 60.0
171.048141 204.0
171.114807 6792.0
171.16835 168.0
171.199158 28.0
171.402359 44.0
171.438843 44.0
171.5457 52.0
171.986557 32.0
172.117462 1028.0
172.144104 120.0
172.32605 68.0
172.461945 64.0
172.642349 72.0
172.736511 316.0
172.812378 136.0
172.862091 124.0
172.95108 76.0
173.092453 136.0
173.110794 68.0
173.294144 112.0
173.535294 44.0
173.747726 120.0
173.892059 88.0
173.957687 116.0
174.204529 80.0
174.367447 120.0
174.664566 80.0
174.751389 108.0
174.977737 188.0
175.067261 72.0
175.085693 88.0
175.185791 48.0
175.59964 64.0
175.623383 136.0
175.839737 88.0
176.087921 152.0
176.502838 48.0
176.807053 120.0
177.283768 100.0
177.479919 56.0
177.95488 56.0
178.361343 92.0
179.062714 156.0
179.306259 104.0
179.420883 64.0
180.713577 68.0
180.852737 60.0
180.959808 144.0
181.072281 168.0
181.100983 168.0
181.222305 80.0
182.395096 112.0
183.393738 112.0
183.776688 120.0
183.925125 148.0
184.543777 132.0
184.827805 96.0
184.914398 124.0
185.122864 120.0
185.252869 64.0
185.816788 48.0
186.161514 120.0
186.42775 144.0
186.625229 68.0
187.126053 308.0
187.559998 144.0
187.60907 40.0
188.122238 204.0
188.813263 152.0
188.832397 64.0
188.999283 216.0
189.089584 180.0
189.12616 9768.0
189.166229 168.0
189.193604 56.0
189.292175 140.0
189.371597 88.0
189.426376 116.0
189.492126 48.0
190.024048 44.0
190.128632 1104.0
190.191452 48.0
190.356171 140.0
190.848053 188.0
190.867294 104.0
190.8992 100.0
190.93605 48.0
191.129837 156.0
191.3302 152.0
191.442429 44.0
191.566376 60.0
191.804932 92.0
192.006683 100.0
192.015305 116.0
192.415802 40.0
192.606354 28.0
192.705811 156.0
192.772125 88.0
193.441467 156.0
193.485764 64.0
193.585449 108.0
193.715637 60.0
193.807053 112.0
194.378281 192.0
195.233917 96.0
196.585068 120.0
196.886566 140.0
197.238617 68.0
197.31131 124.0
197.949265 52.0
198.087692 124.0
198.114517 140.0
199.108002 380.0
199.351913 52.0
199.529007 60.0
199.703354 108.0
201.071091 192.0
201.134766 152.0
201.335236 112.0
201.594269 128.0
201.855225 136.0
202.056046 180.0
202.194702 88.0
202.350403 104.0
202.695969 80.0
202.772491 104.0
203.544128 56.0
203.737274 100.0
203.907776 120.0
204.593307 88.0
204.849625 84.0
205.496796 80.0
206.136414 124.0
206.385101 84.0
206.588165 192.0
206.72551 220.0
207.186508 96.0
207.745544 72.0
207.811539 152.0
207.972244 96.0
208.095688 100.0
208.822739 132.0
209.003983 160.0
209.674973 60.0
210.061356 48.0
210.214264 76.0
210.465408 76.0
210.96524 52.0
211.352814 100.0
211.462784 76.0
211.830521 136.0
212.198578 36.0
212.680161 72.0
212.752731 196.0
212.93277 112.0
213.025711 36.0
213.854446 28.0
213.903931 160.0
214.953186 88.0
215.145828 112.0
215.183777 68.0
215.806122 56.0
215.835358 108.0
215.858765 148.0
215.943573 56.0
216.066437 80.0
216.991943 28.0
217.136032 344.0
217.367386 100.0
217.976181 176.0
218.778229 132.0
219.007919 192.0
220.524536 168.0
220.619125 124.0
220.971069 128.0
221.515808 100.0
221.865509 216.0
223.332489 76.0
223.621094 92.0
224.085663 32.0
224.195908 144.0
224.249557 44.0
225.025177 104.0
225.189423 160.0
225.249161 80.0
225.276047 64.0
225.754288 40.0
226.301895 112.0
226.391724 48.0
226.517517 180.0
226.952087 72.0
227.492142 100.0
228.429749 156.0
228.504959 60.0
229.119141 104.0
229.529068 88.0
230.77916 136.0
231.060455 72.0
232.454269 208.0
232.70015 68.0
232.821609 144.0
233.122375 108.0
233.149719 144.0
234.21463 48.0
234.595551 180.0
234.845596 48.0
235.007278 48.0
235.150711 128.0
235.480469 80.0
235.565994 212.0
235.654587 148.0
235.986816 132.0
236.033615 52.0
236.183472 36.0
236.348679 104.0
237.430069 76.0
237.798248 56.0
237.865768 108.0
238.056137 84.0
238.120636 116.0
238.375626 104.0
238.443237 72.0
239.144501 100.0
239.852951 60.0
240.031769 80.0
240.327896 116.0
240.892883 72.0
241.808167 104.0
243.345749 88.0
243.833466 164.0
244.110504 128.0
244.138138 100.0
244.163025 120.0
244.222122 64.0
244.508362 128.0
244.564392 144.0
244.791672 240.0
245.047089 136.0
245.120987 212.0
245.508438 48.0
247.236084 36.0
248.122543 136.0
248.389114 108.0
248.827118 68.0
249.463089 60.0
250.214996 112.0
250.407089 84.0
250.898666 148.0
251.289749 68.0
251.535919 88.0
253.538086 96.0
254.013687 84.0
254.327835 136.0
255.017105 152.0
256.127594 84.0
256.195862 136.0
257.636505 104.0
258.227875 168.0
258.919189 92.0
258.96402 96.0
259.143433 52.0
259.640289 80.0
259.726898 136.0
259.993195 60.0
261.117676 96.0
262.13501 144.0
262.43158 72.0
262.670227 36.0
263.739075 232.0
263.855438 164.0
265.724243 92.0
265.870239 56.0
267.440094 72.0
267.466125 120.0
268.691467 68.0
271.091522 76.0
271.209534 228.0
271.881897 100.0
272.027191 152.0
272.098541 92.0
273.166626 96.0
273.321259 76.0
273.956726 52.0
274.368683 68.0
275.140686 60.0
276.41983 140.0
277.28421 64.0
278.329224 188.0
278.63147 92.0
279.755554 128.0
279.912048 120.0
280.548431 60.0
280.728302 68.0
281.319061 84.0
281.369141 52.0
281.445953 128.0
281.756561 40.0
281.866821 92.0
282.870209 140.0
283.077789 204.0
283.168213 80.0
283.215271 344.0
285.312469 72.0
285.47052 108.0
286.62854 140.0
286.719513 64.0
286.857727 176.0
287.006073 76.0
287.478333 132.0
288.163788 56.0
288.319244 132.0
288.948212 40.0
290.272583 40.0
290.432007 36.0
290.55072 168.0
290.706818 180.0
290.930847 40.0
291.246643 52.0
292.12027 136.0
292.818054 132.0
293.724731 104.0
293.943085 80.0
294.714813 108.0
295.4328 132.0
295.686035 120.0
295.980438 72.0
296.042084 160.0
296.669098 96.0
296.909119 148.0
297.423798 48.0
297.537079 88.0
298.035126 168.0
298.169128 140.0
298.867249 64.0
298.939514 152.0
299.206543 248.0
299.748749 36.0
299.921082 68.0
300.207977 96.0
300.783447 160.0
300.880096 120.0
301.940948 40.0
302.432251 164.0
302.820068 52.0
303.533997 60.0
304.019653 52.0
304.161957 116.0
304.978241 104.0
305.322449 64.0
306.297028 48.0
307.137115 176.0
307.374359 188.0
307.489532 28.0
307.845642 96.0
308.513 84.0
309.4888 76.0
309.811371 32.0
310.340607 148.0
311.706085 160.0
312.194733 68.0
315.145233 156.0
316.103485 92.0
316.259216 128.0
316.453918 64.0
317.343262 48.0
317.378723 116.0
317.885986 80.0
318.251617 56.0
318.816437 68.0
320.602966 156.0
322.097961 108.0
322.844971 48.0
322.945129 164.0
322.995209 148.0
323.782654 148.0
324.223297 112.0
324.775482 188.0
326.258575 60.0
326.679321 56.0
326.715302 96.0
326.754883 76.0
327.204926 4184.0
327.381226 84.0
327.406433 56.0
327.582367 280.0
327.656586 88.0
327.842346 48.0
327.986511 40.0
328.091064 72.0
328.210785 944.0
328.889465 100.0
328.982147 48.0
329.217926 252.0
329.802155 100.0
329.89975 188.0
330.210724 44.0
330.264984 132.0
331.419861 76.0
334.186707 56.0
334.940308 92.0
336.066833 124.0
336.917542 148.0
337.655914 68.0
337.882721 100.0
338.266968 56.0
338.885925 68.0
339.413757 104.0
339.575104 68.0
339.791534 60.0
341.290131 132.0
341.36734 72.0
341.852936 72.0
341.882385 124.0
342.430939 148.0
342.593018 96.0
342.92099 84.0
342.987335 104.0
343.049988 120.0
343.578094 104.0
344.012848 60.0
344.068237 176.0
344.330414 192.0
344.369324 120.0
344.496613 124.0
344.644409 48.0
344.75528 68.0
344.914215 136.0
345.014008 68.0
345.120392 112.0
345.216278 25004.0
345.339417 212.0
345.391205 136.0
345.516998 76.0
345.557678 44.0
345.605804 96.0
345.645721 72.0
345.67981 60.0
345.773865 72.0
345.820892 52.0
345.900574 160.0
345.96109 76.0
345.990723 140.0
346.059143 100.0
346.109192 68.0
346.217865 4968.0
346.312897 72.0
346.479584 112.0
346.516632 100.0
346.720459 100.0
346.884521 60.0
347.124542 56.0
347.219482 528.0
347.354492 92.0
347.463562 120.0
347.560669 56.0
347.651306 80.0
347.855469 76.0
348.011383 60.0
348.037384 76.0
348.130219 96.0
348.218781 160.0
348.401703 88.0
348.443878 136.0
348.475677 96.0
348.665192 84.0
348.739532 44.0
348.906128 164.0
349.185699 68.0
349.472168 128.0
349.561462 52.0
349.840607 40.0
350.4216 60.0
350.496124 52.0
350.581848 112.0
350.697388 40.0
351.163452 84.0
351.379822 152.0
351.570129 112.0
351.756744 104.0
352.47757 80.0
352.843872 44.0
353.124359 108.0
353.502197 60.0
353.580811 36.0
353.606995 108.0
354.052521 80.0
354.520844 48.0
355.462097 40.0
356.378326 72.0
357.386017 40.0
357.626892 96.0
358.534576 72.0
360.844788 80.0
361.067902 60.0
361.64679 52.0
363.488678 72.0
364.270813 84.0
366.629852 80.0
368.232269 68.0
368.537872 92.0
368.793945 88.0
370.69989 64.0
371.846619 76.0
371.931061 84.0
372.764496 64.0
374.145325 76.0
374.534271 64.0
375.883667 132.0
376.304413 108.0
379.170868 56.0
379.624481 112.0
385.792114 68.0
389.118347 88.0
392.052826 72.0
392.261719 32.0
393.030823 104.0
393.417603 72.0
394.243134 56.0
395.861176 80.0
397.458679 80.0
398.431458 80.0
398.570526 80.0
399.743622 84.0
401.532379 44.0
403.329163 52.0
404.493195 64.0
404.565277 48.0
406.882538 68.0
410.879059 56.0
414.088684 40.0
415.422302 76.0
415.495331 68.0
415.759064 68.0
417.156342 32.0
419.700958 44.0
420.304688 48.0
421.080322 48.0
422.576508 52.0
423.591827 108.0
423.661469 80.0
424.468933 96.0
425.158112 96.0
425.231995 56.0
425.49881 56.0
425.749298 36.0
429.371033 96.0
431.113251 84.0
431.365356 72.0
434.836517 72.0
437.742523 60.0
439.01358 36.0
441.260101 28.0
442.251556 56.0
442.892181 108.0
442.984344 112.0
447.827637 44.0
448.801147 100.0
453.027649 60.0
455.30545 40.0
459.280823 112.0
460.03186 140.0
461.501556 68.0
463.770538 76.0
467.438293 136.0
468.079712 32.0
468.320892 84.0
471.483459 108.0
474.882202 52.0
475.849945 76.0
476.709991 108.0
478.010254 88.0
478.367157 120.0
478.554352 60.0
481.598358 56.0
484.371613 60.0
486.134186 76.0
492.51828 84.0
496.040649 100.0
496.284485 48.0
497.080261 60.0
497.970856 100.0
498.912903 60.0
500.167389 76.0
507.00116 72.0
508.135651 28.0
512.27179 84.0
517.510803 60.0
518.172058 40.0
520.548889 80.0
521.030396 44.0
526.154053 84.0
532.12439 72.0
532.624939 104.0
534.680237 68.0
536.112488 60.0
541.527344 96.0
545.2995 92.0
545.638794 96.0
546.215515 244.0
550.755676 100.0
553.112427 48.0
553.533813 184.0
556.323547 32.0
557.502563 84.0
559.398071 64.0
564.536316 68.0
564.673523 44.0
566.808594 92.0
569.928162 152.0
571.343018 48.0
573.185669 180.0
574.883362 80.0
577.037659 176.0
580.12085 72.0
581.022461 176.0
583.779602 204.0
586.755371 76.0
587.493286 220.0
589.153992 176.0
590.357605 48.0
590.923523 60.0
591.823792 32.0
593.524597 104.0
595.014221 84.0
598.515015 84.0
600.030334 160.0
600.464355 148.0
601.366943 92.0
602.035828 88.0
603.448059 216.0
604.308899 108.0
605.562134 76.0
606.890198 128.0
611.015991 196.0
612.177612 72.0
616.667236 260.0
617.903503 60.0
623.174011 248.0
624.625732 144.0
625.058594 152.0
625.257629 120.0
625.551331 120.0
627.030701 200.0
627.15033 204.0
627.235046 60.0
630.294495 220.0
630.93927 212.0
633.536682 144.0
633.591797 40.0
634.102905 84.0
634.554077 160.0
636.039001 196.0
636.18457 192.0
637.560913 64.0
639.124817 72.0
640.03595 192.0
640.267578 68.0
641.340759 60.0
643.58075 208.0
645.844849 88.0
646.345703 176.0
647.185974 140.0
647.353088 104.0
649.491882 124.0
651.410706 156.0
651.512329 60.0
653.642761 200.0
654.228088 80.0
654.273865 220.0
654.849304 112.0
655.725647 164.0
657.32196 88.0
657.64856 128.0
658.65448 240.0
662.16333 176.0
663.377747 116.0
663.813599 120.0
664.557373 64.0
665.635315 172.0
666.89917 228.0
668.66333 168.0
670.295898 248.0
670.842224 172.0
671.326904 72.0
672.327759 72.0
673.029785 232.0
674.522888 84.0
674.869324 136.0
675.526123 180.0
676.400696 64.0
676.897705 208.0
677.721313 184.0
678.156677 96.0
678.281067 68.0
679.759216 128.0
679.930481 236.0
681.706604 176.0
682.262756 44.0
683.948242 168.0
684.01593 120.0
685.192871 144.0
686.235291 192.0
686.67334 192.0
686.918518 40.0
687.904785 84.0
688.338135 156.0
688.661926 192.0
689.090332 152.0
689.889954 188.0
692.281189 280.0
693.889832 168.0
694.870605 244.0
695.332397 56.0
695.678833 120.0
696.181335 80.0
696.823792 192.0
698.827026 180.0
699.163818 188.0
699.948181 160.0
700.949036 176.0
701.644836 164.0
703.100708 228.0
706.262695 224.0
706.704712 52.0
707.440369 96.0
709.135437 68.0
709.989014 172.0
710.44519 128.0
711.140381 140.0
711.225281 232.0
711.570374 176.0
711.830566 48.0
711.973938 228.0
713.185303 176.0
713.302246 184.0
714.339233 160.0
714.408386 240.0
715.110779 36.0
715.936035 196.0
716.255615 128.0
716.372803 44.0
717.518616 152.0
717.678589 176.0
718.233215 152.0
718.36615 236.0
718.734741 176.0
719.012207 168.0
719.316467 236.0
719.401917 244.0
721.522827 236.0
722.004089 208.0
723.454163 140.0
723.555908 192.0
724.128906 112.0
724.562805 56.0
724.71283 72.0
725.01825 116.0
725.2005 116.0
725.83313 204.0
725.987305 184.0
726.160217 168.0
726.256775 164.0
726.50354 56.0
726.589355 176.0
726.696716 132.0
726.766418 76.0
726.841553 76.0
728.285767 160.0
728.763855 56.0
729.467957 260.0
729.903442 240.0
730.403625 156.0
731.108459 148.0
732.26062 112.0
732.314453 40.0
732.449158 140.0
733.704773 184.0
734.033691 164.0
734.082214 88.0
734.265564 152.0
735.026245 196.0
735.598328 176.0
735.803528 244.0
739.165527 136.0
740.540649 56.0
740.681519 56.0
742.242371 224.0
742.980042 68.0
744.967041 120.0
746.61731 168.0
747.293945 132.0
747.941589 148.0
748.088562 132.0
748.388 68.0
748.818237 160.0
748.932617 128.0
749.090576 68.0
750.196838 136.0
751.047546 244.0
752.450073 156.0
752.635681 120.0
752.673889 184.0
753.515076 128.0
754.198181 192.0
755.286316 44.0
755.532532 168.0
755.587219 132.0
755.691162 280.0
756.150818 196.0
757.437561 124.0
757.58551 140.0
758.336243 128.0
759.191528 136.0
759.729065 48.0
759.981445 204.0
760.143372 204.0
762.353699 168.0
762.42511 120.0
763.057251 112.0
763.273499 172.0
765.169983 156.0
765.384766 36.0
765.913452 112.0
767.021057 208.0
767.379395 76.0
767.506226 180.0
768.366638 152.0
768.846741 208.0
769.144775 200.0
769.492554 184.0
769.768677 128.0
770.873535 252.0
771.171936 36.0
771.315674 164.0
771.763489 48.0
772.327576 88.0
773.672302 200.0
773.733215 84.0
774.358948 180.0
775.472595 76.0
776.203979 240.0
776.248779 152.0
776.698059 144.0
776.764587 192.0
777.702393 132.0
777.746765 176.0
777.924438 132.0
779.679626 188.0
780.680359 104.0
780.919495 140.0
781.370117 192.0
782.026733 68.0
782.321777 156.0
782.494385 228.0
784.08197 172.0
784.137695 28.0
784.723022 100.0
785.314148 60.0
786.871094 196.0
787.228516 196.0
788.166992 200.0
788.245178 180.0
788.401672 164.0
788.882385 124.0
789.117188 180.0
789.598083 148.0
789.648438 216.0
791.577637 152.0
791.708069 164.0
791.892883 136.0
792.167358 72.0
792.234558 148.0
792.385864 176.0
792.441895 172.0
793.48999 152.0
793.579651 92.0
793.888062 164.0
794.061951 136.0
794.746338 144.0
794.82489 216.0
795.728638 152.0
796.048645 132.0
796.531677 36.0
797.183472 60.0
799.039062 168.0
799.129089 148.0
799.354126 208.0
799.500427 148.0
799.629883 136.0
799.905701 160.0
801.358765 164.0
801.832092 212.0
802.158997 140.0
802.604431 140.0
802.841248 144.0
802.949463 172.0
804.827637 112.0
807.031311 80.0
807.362793 200.0
807.613831 68.0
808.309692 212.0
808.394592 108.0
809.277649 144.0
809.849609 236.0
809.985596 204.0
810.212158 100.0
810.65979 132.0
810.773132 100.0
811.237976 88.0
811.453369 108.0
812.15094 112.0
813.001953 144.0
813.507141 132.0
813.671814 164.0
813.785339 232.0
814.13739 228.0
814.552063 216.0
814.949768 28.0
815.370239 48.0
816.029663 88.0
816.080872 172.0
817.326538 164.0
818.328308 156.0
818.749756 200.0
820.281982 180.0
820.824097 168.0
820.892517 96.0
821.542786 104.0
821.731018 140.0
822.347351 48.0
822.427246 120.0
822.821167 200.0
822.906799 160.0
823.483582 136.0
823.546448 164.0
823.917725 212.0
824.609192 40.0
824.654907 196.0
826.26178 96.0
826.925598 196.0
827.286255 180.0
828.002014 164.0
828.254028 156.0
829.417236 56.0
829.755493 188.0
830.799255 184.0
831.200928 164.0
831.323059 140.0
831.378784 152.0
831.64856 128.0
831.769104 124.0
832.06189 148.0
832.850525 196.0
833.170349 116.0
833.836914 76.0
834.41748 108.0
834.626648 228.0
835.211121 116.0
836.005798 168.0
836.183533 84.0
836.379211 160.0
836.574951 192.0
836.713135 28.0
837.185303 168.0
837.49054 136.0
838.06665 176.0
838.717896 180.0
839.046448 168.0
839.66925 212.0
840.240356 156.0
840.355713 36.0
840.442261 48.0
841.79303 212.0
841.977844 176.0
842.451477 188.0
842.595947 132.0
842.705688 216.0
843.792297 76.0
844.133484 208.0
844.457336 208.0
846.141296 180.0
847.093323 184.0
847.259094 252.0
847.496643 192.0
848.325439 120.0
848.679688 164.0
849.085022 180.0
849.554871 160.0
849.624512 152.0
849.74054 200.0
850.309204 188.0
850.895508 188.0
851.197449 172.0
851.58075 168.0
851.894409 256.0
851.93512 232.0
851.987366 180.0
852.388306 76.0
853.864929 216.0
855.115845 176.0
855.220642 172.0
855.27887 128.0
855.715454 164.0
855.878479 156.0
856.152222 168.0
856.371155 108.0
856.513306 168.0
856.73468 204.0
858.419189 188.0
858.804077 248.0
859.556702 60.0
860.595703 64.0
860.992798 172.0
861.945068 232.0
862.389221 208.0
863.044006 60.0
863.23114 152.0
863.395386 172.0
863.494263 128.0
863.769226 144.0
864.284058 208.0
864.401062 200.0
864.73468 156.0
865.021484 48.0
865.179565 200.0
865.226379 44.0
865.337646 140.0
865.39032 44.0
865.706543 208.0
865.841248 172.0
865.882263 124.0
866.055054 196.0
866.655518 216.0
866.696533 80.0
867.247437 176.0
867.335327 180.0
867.427856 148.0
867.862976 132.0
868.320374 152.0
869.141724 44.0
869.270813 188.0
869.347107 172.0
869.781433 232.0
870.497437 152.0
870.603455 180.0
870.738525 248.0
871.677307 160.0
871.790161 152.0
872.466125 72.0
872.748291 60.0
872.78949 112.0
873.454041 48.0
873.677612 188.0
873.895325 80.0
875.025391 196.0
875.372803 60.0
875.673157 136.0
875.855713 52.0
875.902893 208.0
876.30542 220.0
876.621643 140.0
876.780762 244.0
877.034241 180.0
877.27594 228.0
877.482239 188.0
878.148621 236.0
878.402283 148.0
878.933289 196.0
879.204712 148.0
879.269653 152.0
879.570679 156.0
879.741882 168.0
881.12384 136.0
881.448853 172.0
882.861694 224.0
883.16925 188.0
883.240234 176.0
883.553772 124.0
884.104065 128.0
884.370422 172.0
884.707825 148.0
884.814392 148.0
885.490417 176.0
885.904114 88.0
886.798889 232.0
886.91748 200.0
886.982666 172.0
887.646667 96.0
888.874634 148.0
889.583984 216.0
889.883728 208.0
890.245911 112.0
890.394409 92.0
890.851807 136.0
891.03595 156.0
891.095398 120.0
891.184509 60.0
891.42218 172.0
891.653992 52.0
892.075989 176.0
892.153259 144.0
892.266235 212.0
893.65802 136.0
893.699646 152.0
894.056702 172.0
894.520996 108.0
894.800781 180.0
894.896057 212.0
895.174377 168.0
895.50946 144.0
895.652405 188.0
896.08728 52.0
896.206421 172.0
896.283936 144.0
896.325623 204.0
896.790466 104.0
896.981201 68.0
897.428345 228.0
898.275269 160.0
898.588013 256.0
899.22998 248.0
899.414978 168.0
900.268799 196.0
900.36438 172.0
901.194702 164.0
901.75647 176.0
902.049316 96.0
902.378174 120.0
902.61731 112.0
902.718994 164.0
903.382935 176.0
903.819702 148.0
903.957336 36.0
904.29248 416.0
904.334351 148.0
904.879089 120.0
905.753479 104.0
906.220764 184.0
906.382568 168.0
906.448486 180.0
906.915955 152.0
907.341553 192.0
907.449463 140.0
907.971191 108.0
908.127136 160.0
908.457092 168.0
908.511047 172.0
908.643066 192.0
908.787048 148.0
910.335754 152.0
910.666077 124.0
911.368958 104.0
911.465088 204.0
912.486938 160.0
912.535034 128.0
912.595154 148.0
912.992065 128.0
913.184509 132.0
913.647705 56.0
913.834229 116.0
914.321655 172.0
915.869019 176.0
916.103943 224.0
917.164551 216.0
917.236877 232.0
917.755371 172.0
917.894043 136.0
917.960388 84.0
918.038818 84.0
918.593689 164.0
918.768677 124.0
918.955688 148.0
919.359985 60.0
919.879089 124.0
919.939453 144.0
920.331909 208.0
921.008301 172.0
921.189514 116.0
921.721191 52.0
921.890381 164.0
921.9646 192.0
922.150269 140.0
922.295349 176.0
922.428345 228.0
922.591553 216.0
922.851562 152.0
923.406616 172.0
923.505127 152.0
924.176208 144.0
924.902405 52.0
925.144592 124.0
925.25354 136.0
925.295898 132.0
926.519348 144.0
926.943481 156.0
926.997986 148.0
927.046509 180.0
927.204041 180.0
928.004272 64.0
928.131592 124.0
928.2771 200.0
928.331726 216.0
928.392334 352.0
928.459045 172.0
928.950378 100.0
929.047424 132.0
929.939453 136.0
930.006226 192.0
930.382568 76.0
930.652466 172.0
930.941223 104.0
931.026245 176.0
931.305603 152.0
931.366394 124.0
931.475708 64.0
931.957336 72.0
932.107605 156.0
932.265564 80.0
932.375 176.0
932.490479 88.0
932.861267 80.0
932.94635 192.0
933.067932 284.0
933.341553 60.0
933.641296 152.0
933.858337 160.0
934.095703 120.0
934.326904 216.0
934.825867 184.0
934.959717 240.0
935.216919 172.0
935.349304 76.0
935.483215 120.0
935.690186 44.0
935.793701 156.0
936.152954 136.0
936.286926 184.0
936.32959 220.0
936.774231 176.0
936.920471 132.0
937.060608 84.0
937.194641 152.0
937.255554 168.0
937.353088 48.0
937.414001 164.0
937.82843 236.0
937.895508 128.0
938.121033 88.0
938.1698 132.0
938.26123 192.0
939.135498 164.0
939.237 184.0
939.676208 144.0
939.895874 196.0
940.078979 180.0
940.152222 196.0
940.603882 128.0
941.40979 156.0
941.617432 184.0
941.672424 60.0
942.081726 152.0
942.32605 124.0
942.411621 172.0
942.484924 104.0
942.753845 236.0
942.91272 120.0
943.261108 140.0
943.427979 216.0
943.523987 172.0
943.670715 116.0
943.774658 160.0
944.080444 64.0
944.441284 176.0
944.961304 184.0
946.222107 100.0
946.540527 144.0
946.669128 156.0
946.969238 176.0
947.88208 176.0
948.311035 144.0
948.666565 48.0
948.838257 212.0
948.93634 120.0
949.341064 216.0
949.504822 272.0
949.911499 136.0
950.862549 160.0
951.537842 100.0
951.727112 168.0
951.900085 156.0
952.544983 44.0
952.588013 180.0
952.649414 100.0
952.729309 140.0
952.956604 232.0
952.999634 136.0
953.368347 216.0
953.50354 168.0
953.786255 212.0
953.862488 188.0
954.333435 88.0
954.425659 56.0
954.487183 208.0
954.862305 92.0
954.93988 176.0
955.046814 56.0
955.139099 192.0
955.655884 172.0
955.871216 148.0
956.012756 156.0
956.18512 88.0
957.453369 156.0
957.521118 236.0
957.927673 168.0
958.03241 148.0
958.52533 108.0
958.814941 144.0
958.950562 76.0
959.203308 204.0
959.690308 80.0
959.930847 124.0
960.436584 172.0
960.529114 136.0
960.664795 64.0
962.139771 172.0
962.195374 120.0
962.238586 204.0
962.763428 196.0
963.158752 132.0
963.980469 244.0
964.079346 156.0
964.314209 104.0
964.44397 160.0
964.666504 156.0
964.716003 152.0
964.913818 32.0
966.070312 280.0
966.435364 160.0
967.959412 172.0
968.905823 28.0
969.320923 156.0
969.451111 212.0
969.668274 92.0
970.095703 172.0
970.244507 100.0
970.442871 160.0
970.5979 104.0
971.156067 52.0
971.444214 212.0
971.621338 192.0
971.770264 104.0
972.117737 192.0
972.347351 140.0
972.421814 72.0
972.514954 116.0
972.763245 120.0
972.900391 180.0
973.227905 128.0
973.435486 164.0
973.533142 208.0
973.812622 168.0
974.203979 148.0
974.253662 172.0
974.303406 152.0
974.478943 312.0
975.297668 120.0
975.403442 224.0
975.726624 100.0
975.81366 120.0
975.950439 148.0
976.130798 68.0
976.267578 136.0
976.715393 216.0
976.808716 244.0
976.920715 128.0
977.480652 184.0
977.667358 132.0
977.73584 132.0
978.121765 220.0
978.829773 184.0
979.111755 228.0
979.155334 152.0
979.354675 148.0
980.139648 168.0
980.398132 192.0
980.507324 92.0
980.60083 144.0
980.958252 128.0
981.211731 204.0
981.280334 192.0
981.355103 164.0
981.543762 188.0
981.598328 140.0
981.660645 172.0
981.980713 88.0
982.939514 36.0
982.989441 200.0
983.594849 156.0
983.651001 200.0
983.888245 148.0
984.013123 132.0
984.362793 204.0
984.712524 164.0
984.824951 136.0
985.312195 164.0
985.487122 184.0
986.124573 240.0
986.224609 152.0
986.283447 176.0
986.512146 100.0
986.605896 120.0
986.893494 104.0
987.031067 172.0
987.131165 188.0
987.402161 164.0
987.537659 160.0
987.925476 140.0
988.044373 172.0
988.150696 144.0
988.319641 148.0
988.36969 156.0
988.688843 104.0
988.882874 208.0
989.396179 188.0
989.4776 160.0
989.771851 144.0
990.135071 200.0
990.398132 120.0
990.448303 192.0
990.792847 140.0
991.250244 156.0
991.693176 172.0
991.801758 160.0
992.359741 244.0
992.460022 76.0
992.560364 136.0
992.660706 124.0
992.723389 88.0
992.98053 212.0
993.024475 268.0
993.530945 188.0
993.81488 96.0
993.978027 160.0
994.343445 164.0
994.429932 172.0
994.480103 216.0
995.35498 180.0
995.534912 204.0
995.67804 212.0
995.886597 148.0
995.999695 116.0
996.049927 52.0
996.225647 132.0
996.408142 176.0
996.797607 112.0
996.868713 180.0
996.986084 124.0
997.193542 144.0
997.369507 108.0
997.84729 180.0
997.979309 108.0
998.175049 256.0
998.287476 144.0
998.381775 68.0
998.47644 164.0
998.532715 136.0
998.759155 200.0
999.337952 120.0
999.388306 140.0
999.608521 152.0
999.658875 96.0
999.853943 204.0
1000.168701 104.0
1000.338623 128.0
1000.571594 156.0
1000.817139 64.0
1000.968262 48.0
1001.163452 124.0
1001.383911 128.0
1002.114868 112.0
1002.347839 112.0
1002.391907 160.0
1002.492737 196.0
1002.543152 116.0
1002.606201 148.0
1003.003296 188.0
1003.443604 156.0
1003.537537 124.0
1003.677856 140.0
1003.879639 120.0
1003.949036 72.0
1004.100403 200.0
1004.318542 108.0
1004.630249 236.0
1004.857361 220.0
1004.939392 116.0
1005.290222 188.0
1005.620972 180.0
1005.778748 172.0
1005.936584 100.0
1006.144897 84.0
1006.195435 152.0
1006.271179 148.0
1006.353271 156.0
1006.618469 184.0
1006.776367 144.0
1007.250061 180.0
1007.294312 180.0
1007.578552 136.0
1007.723877 76.0
1007.768127 180.0
1007.900818 144.0
1008.128296 176.0
1008.204163 112.0
1009.234558 152.0
1009.392639 176.0
1009.798584 172.0
1010.27124 128.0
1010.467957 152.0
1010.550171 100.0
1010.645081 148.0
1011.214661 88.0
1011.366577 136.0
1011.608826 196.0
1011.898315 76.0
1012.164307 148.0
1012.208618 72.0
1012.25293 64.0
1012.366943 40.0
1012.435181 200.0
1012.556946 120.0
1012.746948 148.0
1012.806824 176.0
1012.96228 152.0
1013.101685 124.0
1013.177673 116.0
1013.355103 124.0
1013.450745 88.0
1013.589539 140.0
1013.910889 176.0
1014.514954 168.0
1014.673401 232.0
1014.825562 132.0
1015.053894 152.0
1015.140381 156.0
1015.523865 148.0
1015.760559 180.0
1015.802307 220.0
1015.865723 208.0
1016.10968 168.0
1016.316162 100.0
1016.531372 200.0
1016.576355 144.0
1016.811157 200.0
1016.963501 176.0
1017.239197 92.0
1017.6745 152.0
1017.814209 144.0
1018.0047 144.0
1018.131714 168.0
1018.277832 168.0
1018.474731 140.0
1018.557312 32.0
1018.741516 120.0
1018.95752 240.0
1019.033752 92.0
1019.230774 244.0
1019.309937 148.0
1019.749329 360.0
1019.908081 152.0
1020.158691 40.0
1020.203186 180.0
1020.254272 136.0
1020.444763 88.0
1020.546509 80.0
1020.597412 196.0
1020.889893 236.0
1021.150696 244.0
1021.322388 100.0
1021.615051 48.0
1021.83136 80.0
1021.907715 128.0
1021.977661 180.0
1022.153992 176.0
1022.295837 176.0
1022.811401 132.0
1022.945068 144.0
1022.989624 88.0
1023.393799 152.0
1023.683655 168.0
1023.766418 68.0
1023.944763 176.0
1024.054199 236.0
1024.116699 48.0
1024.403442 144.0
1024.79834 152.0
1024.938599 144.0
1025.021362 116.0
1025.320923 120.0
1025.480225 96.0
1025.60144 136.0
1025.830811 144.0
1025.894653 64.0
1026.098633 224.0
1026.149658 196.0
1026.353638 88.0
1026.513062 136.0
1026.851074 100.0
1026.997803 108.0
1027.68042 164.0
1028.005859 176.0
1028.139893 172.0
1028.248413 176.0
1028.369629 220.0
1028.593018 128.0
1028.668457 164.0
1028.759033 136.0
1028.810059 256.0
1029.154907 144.0
1029.391113 148.0
1029.504517 80.0
1029.697754 92.0
1029.828369 204.0
1029.963379 160.0
1030.068115 124.0
1030.394043 28.0
1030.668701 184.0
1030.822144 168.0
1031.026611 140.0
1031.186401 144.0
1031.256714 72.0
1031.378174 156.0
1031.452637 180.0
1032.036621 156.0
1032.289185 152.0
1032.41394 40.0
1032.625 152.0
1032.74646 184.0
1032.806641 180.0
1033.181519 104.0
1033.341431 156.0
1033.52063 48.0
1033.686035 180.0
1033.802124 168.0
1034.00061 168.0
1034.138062 144.0
1034.309814 196.0
1034.408447 172.0
1034.518921 168.0
1034.603271 152.0
1034.717529 220.0
1034.807129 108.0
1035.088867 80.0
1035.243408 64.0
1035.370728 80.0
1035.421875 160.0
1035.485962 200.0
1035.588501 212.0
1035.80249 228.0
1035.939453 204.0
1036.132935 200.0
1036.222656 112.0
1036.325195 176.0
1036.4021 104.0
1036.555786 224.0
1036.651978 128.0
1036.722412 132.0
1037.055786 28.0
1037.107056 108.0
1037.232666 160.0
1037.523682 148.0
1037.792969 112.0
1037.876343 140.0
1037.948608 208.0
1038.008057 216.0
1038.1521 92.0
1038.516357 196.0
1038.607422 236.0
1038.658813 136.0
1038.729492 132.0
1038.819214 52.0
1038.864014 192.0
1038.973145 172.0
1039.037231 192.0
1039.139893 136.0
1039.255371 156.0
1039.332397 136.0
1039.454346 160.0
1039.826538 80.0
1040.378662 136.0
1040.616211 40.0
1040.693237 172.0
1041.03186 120.0
1041.341797 96.0
1041.553833 100.0
1041.862183 132.0
1042.299072 108.0
1042.421143 168.0
1042.472534 136.0
1042.800293 80.0
1042.871094 176.0
1043.481812 108.0
1043.597534 148.0
1043.642456 208.0
1043.758301 184.0
1043.983276 100.0
1044.02832 132.0
1044.17627 144.0
1044.38855 164.0
1044.452881 132.0
1044.504272 160.0
1044.935303 136.0
1045.044678 152.0
1045.128418 156.0
1045.17981 76.0
1045.4823 172.0
1045.527344 40.0
1045.656128 224.0
1045.845581 220.0
1045.965088 140.0
1046.016479 120.0
1046.282471 192.0
1046.57019 144.0
1046.711914 96.0
1047.194946 88.0
1047.278564 132.0
1047.488159 136.0
1047.661011 44.0
1047.787598 220.0
1047.851929 32.0
1048.129028 168.0
1048.264404 72.0
1048.657471 88.0
1048.996094 176.0
1049.134521 72.0
1049.183716 200.0
1049.202759 128.0
1049.289185 180.0
1049.351929 88.0
1049.456909 164.0
1049.721313 116.0
1049.85022 56.0
1049.908325 204.0
1050.043701 116.0
1050.111328 124.0
1050.393921 168.0
1050.576172 152.0
1050.682373 152.0
1050.843628 216.0
1051.075928 128.0
1051.224365 128.0
1051.508301 168.0
1051.676147 124.0
1051.734253 212.0
1051.824585 204.0
1052.05188 216.0
1052.153809 140.0
1052.224854 144.0
1052.334595 136.0
1052.39917 84.0
1052.586426 48.0
1052.714233 324.0
1052.872681 132.0
1052.922241 56.0
1053.051392 144.0
1053.353394 172.0
1053.432495 140.0
1053.497192 156.0
1053.593018 196.0
1053.768433 152.0
1054.065674 128.0
1054.162598 112.0
1054.401489 216.0
1054.466431 152.0
1054.524536 76.0
1054.589233 164.0
1054.640869 48.0
1054.718506 120.0
1054.847778 84.0
1054.951172 116.0
1055.155884 164.0
1055.210693 124.0
1055.271362 160.0
1055.410278 96.0
1055.481445 116.0
1055.578369 160.0
1055.856445 44.0
1055.921143 88.0
1056.199219 184.0
1056.268555 160.0
1056.328613 164.0
1056.470947 100.0
1056.578369 112.0
1056.619751 152.0
1056.665039 100.0
1056.763184 204.0
1056.833252 48.0
1057.085693 108.0
1057.136353 196.0
1057.529297 104.0
1057.603394 100.0
1057.713501 72.0
1057.965942 220.0
1058.305664 224.0
1058.36084 164.0
1058.477417 80.0
1058.667603 144.0
1058.78186 184.0
1058.846558 148.0
1058.918579 96.0
1059.235229 112.0
1059.358276 140.0
1059.509644 156.0
1059.76001 124.0
1059.831299 120.0
1060.181152 216.0
1060.408081 164.0
1060.544189 148.0
1060.643433 148.0
1060.926636 124.0
1061.023804 192.0
1061.205444 72.0
1061.374023 300.0
1061.678833 148.0
1061.743652 144.0
1062.003052 232.0
1062.067993 176.0
1062.269043 148.0
1062.321655 256.0
1062.365723 80.0
1062.567505 100.0
1062.612915 200.0
1062.723145 76.0
1062.765991 76.0
1063.32019 156.0
1063.377075 180.0
1063.599365 152.0
1063.651245 88.0
1063.871948 152.0
1063.954468 184.0
1064.235596 72.0
1064.703125 112.0
1064.748535 104.0
1064.825195 164.0
1064.985718 132.0
1065.138306 164.0
1065.346191 124.0
1065.397461 128.0
1065.467163 128.0
1065.690552 100.0
1065.963379 76.0
1066.015381 140.0
1066.119385 140.0
1066.28833 248.0
1066.652344 196.0
1067.194946 200.0
1067.354492 84.0
1067.432617 108.0
1067.603271 148.0
1067.712158 160.0
1067.829224 116.0
1067.920288 124.0
1067.985352 160.0
1068.102417 236.0
1068.374878 184.0
1068.434204 172.0
1068.577393 80.0
1068.633789 160.0
1068.915771 100.0
1068.961304 124.0
1069.096802 232.0
1069.182495 108.0
1069.231201 196.0
1069.284302 188.0
1069.341309 200.0
1069.4104 124.0
1069.612183 168.0
1069.729858 204.0
1069.794434 68.0
1069.8479 212.0
1069.937622 68.0
1070.05481 108.0
1070.315308 168.0
1070.394165 36.0
1070.465088 136.0
1070.856201 152.0
1070.910767 164.0
1070.966553 224.0
1071.143188 160.0
1071.246704 116.0
1071.448608 116.0
1071.61145 132.0
1071.910767 192.0
1072.048096 48.0
1072.215942 48.0
1072.418457 200.0
1072.484741 144.0
1072.673828 44.0
1072.751587 136.0
1072.891724 188.0
1072.966797 160.0
1073.274048 160.0
1073.580078 104.0
1073.730103 316.0
1073.814941 120.0
1074.118164 192.0
1074.278076 268.0
1074.336792 180.0
1074.454224 164.0
1074.628418 124.0
1074.695557 128.0
1074.760864 144.0
1074.956543 164.0
1075.061035 208.0
1075.119751 164.0
1075.361206 116.0
1075.413452 152.0
1075.622314 136.0
1075.691406 180.0
1075.863892 80.0
1075.968384 84.0
1076.064453 116.0
1076.471069 132.0
1076.575562 204.0
1076.653931 152.0
1076.915894 200.0
1077.045898 96.0
1077.398682 80.0
1077.490112 112.0
1077.797241 284.0
1077.901733 124.0
1078.360718 52.0
1078.440186 152.0
1078.529175 44.0
1078.71875 208.0
1078.798462 100.0
1079.019409 300.0
1079.1698 192.0
1079.267944 152.0
1079.529541 180.0
1079.571777 172.0
1079.712646 96.0
1079.797607 260.0
1079.938232 224.0
1080.013428 76.0
1080.216309 92.0
1080.315186 132.0
1080.497559 80.0
1080.648071 112.0
1080.706909 132.0
1080.811646 160.0
1081.027588 172.0
1081.099609 100.0
1081.256592 88.0
1081.374512 148.0
1081.551147 64.0
1081.754395 156.0
1081.891602 136.0
1081.978149 180.0
1082.245117 312.0
1082.404907 132.0
1082.509766 208.0
1082.651123 84.0
1082.906616 164.0
1083.004883 168.0
1083.089966 160.0
1083.548584 48.0
1083.751709 88.0
1083.88269 76.0
1084.138306 104.0
1084.433228 140.0
1084.570923 272.0
1084.703369 156.0
1084.918335 120.0
1085.010132 128.0
1085.05603 76.0
1085.126465 144.0
1085.22876 212.0
1085.318237 116.0
1085.440674 160.0
1085.534668 136.0
1085.731934 180.0
1085.762451 108.0
1085.785767 152.0
1086.033081 176.0
1086.138062 128.0
1086.393921 168.0
1086.794067 196.0
1087.030396 156.0
1087.174683 112.0
1087.266235 192.0
1087.291016 180.0
1087.578003 140.0
1087.858398 168.0
1087.936157 188.0
1087.982056 156.0
1088.110962 156.0
1088.310425 168.0
1088.356323 48.0
1088.517456 148.0
1088.743774 148.0
1088.927734 140.0
1089.078735 124.0
1089.170654 232.0
1089.229858 100.0
1089.334961 176.0
1089.597778 96.0
1089.670044 176.0
1089.761963 68.0
1089.952515 128.0
1090.153076 204.0
1090.787231 156.0
1090.835083 248.0
1090.944946 152.0
1091.036987 300.0
1091.161987 124.0
1091.543335 248.0
1091.609131 64.0
1091.827271 220.0
1092.07605 160.0
1092.375732 164.0
1092.562866 92.0
1092.628662 184.0
1093.030029 132.0
1093.440796 132.0
1093.490723 192.0
1093.539795 260.0
1094.056763 120.0
1094.208252 180.0
1094.293823 132.0
1094.359619 200.0
1094.471558 152.0
1094.588013 160.0
1094.781128 180.0
1095.077393 136.0
1095.255249 216.0
1095.518799 116.0
1095.857056 200.0
1096.039307 116.0
1096.250122 156.0
1096.467651 160.0
1096.513794 32.0
1096.650024 224.0
1096.698364 124.0
1096.754517 88.0
1096.799438 116.0
1096.85498 168.0
1096.973755 152.0
1097.021362 156.0
1097.11084 380.0
1097.324585 164.0
1097.377319 92.0
1097.496094 88.0
1097.636475 136.0
1097.819214 144.0
1098.104736 120.0
1098.287476 144.0
1098.3396 88.0
1098.392944 116.0
1098.439209 108.0
1098.55127 240.0
1098.742676 164.0
1098.874634 196.0
1098.960938 232.0
1099.030884 140.0
1099.113647 172.0
1099.237549 152.0
1099.468506 48.0
1099.592529 156.0
1099.65332 144.0
1099.798462 176.0
1099.884521 108.0
1099.950317 92.0
1100.135132 128.0
1100.273804 164.0
1100.412476 152.0
1100.524658 104.0
1100.59729 156.0
1100.693848 160.0
1100.855347 152.0
1100.953979 120.0
1101.046387 152.0
1101.119019 140.0
1101.317139 72.0
1101.396484 188.0
1101.502197 80.0
1101.911743 188.0
1102.03064 192.0
1102.242188 168.0
1102.37915 184.0
1102.576782 120.0
1102.770874 52.0
1102.989014 60.0
1103.117554 172.0
1103.412109 112.0
1103.53772 220.0
1103.628174 104.0
1103.927856 180.0
1103.978516 124.0
1104.060059 128.0
1104.136719 152.0
1104.190552 172.0
1104.333374 184.0
1104.509888 148.0
1104.774414 112.0
1104.833984 84.0
1104.880371 176.0
1105.078857 148.0
1105.138306 128.0
1105.442749 156.0
1105.528809 52.0
1105.70752 132.0
1105.839844 160.0
1106.125854 208.0
1106.181274 116.0
1106.274414 152.0
1106.489624 176.0
1106.548218 124.0
1106.726929 196.0
1106.806396 40.0
1106.852783 184.0
1107.051025 172.0
1107.108276 196.0
1107.235474 116.0
1107.627686 88.0
1107.744751 176.0
1107.789185 176.0
1107.872803 128.0
1107.952271 72.0
1108.230591 92.0
1108.469116 104.0
1108.648071 76.0
1108.726685 156.0
1108.807129 96.0
1108.959473 132.0
1109.027954 192.0
1109.082642 48.0
1109.191528 72.0
1109.343994 180.0
1109.430176 80.0
1109.522949 116.0
1109.609131 128.0
1109.8479 192.0
1109.94397 128.0
1110.166138 108.0
1110.216553 164.0
1110.429199 156.0
1110.570801 176.0
1110.624512 192.0
1111.340332 380.0
1111.565918 52.0
1111.625 152.0
1111.756104 120.0
1111.896851 156.0
1111.921997 136.0
1111.957275 108.0
1111.96521 148.0
1112.022217 168.0
1112.049561 128.0
1112.067261 280.0
1112.156616 124.0
1112.223022 64.0
1112.276123 216.0
1112.331421 116.0
1112.541626 352.0
1112.654907 72.0
1112.801758 168.0
1112.890869 132.0
1112.98645 248.0
1113.072754 108.0
1113.205566 108.0
1113.33606 192.0
1113.404785 304.0
1113.480591 136.0
1113.550903 316.0
1113.61084 176.0
1113.770142 48.0
1113.98938 200.0
1114.135498 84.0
1114.334839 96.0
1114.381348 52.0
1114.454468 156.0
1114.624023 124.0
1114.687012 168.0
1114.766724 128.0
1114.833252 180.0
1115.045898 104.0
1115.154785 92.0
1115.254639 144.0
1115.276733 60.0
1115.302002 128.0
1115.398193 168.0
1115.545776 180.0
1115.624146 36.0
1115.690674 76.0
1115.842896 160.0
1115.930054 192.0
1116.036377 44.0
1116.328979 160.0
1116.495239 124.0
1116.697388 188.0
1116.987427 136.0
1117.083252 188.0
1117.25354 208.0
1117.446533 168.0
1117.506348 60.0
1117.599487 64.0
1117.679565 148.0
1117.771729 132.0
1118.012085 176.0
1118.111938 96.0
1118.261963 172.0
1118.318237 168.0
1118.371582 104.0
1118.624512 108.0
1118.799316 140.0
1118.890747 164.0
1118.970703 172.0
1119.290283 256.0
1119.391846 180.0
1119.456787 132.0
1119.589966 216.0
1119.807861 144.0
1119.922974 44.0
1120.042847 152.0
1120.149414 184.0
1120.24939 160.0
1120.310181 92.0
1120.389282 144.0
1120.595825 192.0
1120.882324 124.0
1121.082275 184.0
1121.228882 252.0
1121.302246 88.0
1121.382202 160.0
1121.428833 168.0
1121.588745 156.0
1121.655396 120.0
1121.704834 116.0
1121.793701 204.0
1121.915405 164.0
1121.995483 152.0
1122.068726 168.0
1122.331909 196.0
1122.462158 160.0
1122.568848 120.0
1122.69751 176.0
1122.760864 164.0
1123.322632 68.0
1123.442627 116.0
1123.55603 140.0
1123.682861 132.0
1123.907349 144.0
1124.056519 180.0
1124.290039 172.0
1124.360229 148.0
1124.647705 144.0
1124.737305 128.0
1124.930908 108.0
1124.984253 64.0
1125.097778 60.0
1125.197876 152.0
1125.271362 156.0
1125.431641 192.0
1125.478271 116.0
1125.598511 140.0
1125.651978 68.0
1125.780151 116.0
1125.890503 132.0
1125.983643 164.0
1126.06604 108.0
1126.139526 144.0
1126.306519 148.0
1126.429443 184.0
1126.633789 220.0
1126.816406 196.0
1126.974609 156.0
1127.021362 88.0
1127.315308 184.0
1127.555908 148.0
1127.609375 160.0
1127.678467 204.0
1127.807129 136.0
1127.903564 468.0
1128.003784 136.0
1128.063965 208.0
1128.139771 192.0
1128.300781 132.0
1128.44165 144.0
1128.658936 120.0
1128.712524 88.0
1128.791992 156.0
1128.917725 180.0
1128.931885 80.0
1129.066895 172.0
1129.200684 156.0
1129.472412 200.0
1129.642212 180.0
1129.809448 132.0
1130.036865 160.0
1130.110474 180.0
1130.177368 120.0
1130.304077 132.0
1130.572266 136.0
1130.853271 200.0
1130.962891 176.0
1131.027344 140.0
1131.187988 120.0
1131.432617 164.0
1131.489258 196.0
1131.562866 192.0
1131.924561 140.0
1131.971436 96.0
1132.058472 132.0
1132.145508 268.0
1132.245972 132.0
1132.31958 32.0
1132.433472 76.0
1132.487061 148.0
1132.547363 140.0
1132.599121 188.0
1132.70813 152.0
1132.859985 148.0
1132.982788 124.0
1133.075317 144.0
1133.163696 168.0
1133.46521 100.0
1133.572388 96.0
1133.900757 192.0
1133.974487 116.0
1134.148804 128.0
1134.316406 120.0
1134.399048 148.0
1134.544312 128.0
1134.600342 324.0
1134.718628 284.0
1134.892944 136.0
1135.147827 124.0
1135.279785 140.0
1135.429443 140.0
1135.509888 188.0
1135.633301 204.0
1135.702393 172.0
1135.818481 116.0
1135.972534 212.0
1136.113647 200.0
1136.200928 48.0
1136.335938 200.0
1136.441895 168.0
1136.466309 156.0
1136.485229 256.0
1136.77124 140.0
1136.824951 168.0
1137.106812 176.0
1137.184814 172.0
1137.240967 160.0
1137.287842 128.0
1137.298584 124.0
1137.324097 200.0
1137.543091 76.0
1137.663696 148.0
1137.757935 352.0
1137.892212 168.0
1138.001099 196.0
1138.086914 244.0
1138.201538 176.0
1138.290649 176.0
1138.453857 236.0
1138.550293 192.0
1138.610718 128.0
1138.657715 88.0
1138.785278 124.0
1138.864258 64.0
1138.939819 196.0
1139.174927 148.0
1139.31604 328.0
1139.625122 80.0
1139.914062 140.0
1140.411377 160.0
1140.459229 140.0
1140.720581 192.0
1140.781128 128.0
1140.908813 92.0
1140.979126 124.0
1141.317505 168.0
1141.608154 212.0
1141.715698 124.0
1141.813843 120.0
1141.863647 168.0
1141.930908 60.0
1141.994629 220.0
1142.052002 52.0
1142.105835 176.0
1142.213379 100.0
1142.307617 88.0
1142.432495 144.0
1142.502686 180.0
1142.549805 108.0
1142.744873 68.0
1142.859253 316.0
1143.041016 88.0
1143.214722 172.0
1143.397705 192.0
1143.478394 152.0
1143.633179 208.0
1143.725952 88.0
1143.781372 88.0
1143.969849 84.0
1144.037109 76.0
1144.097778 64.0
1144.319946 104.0
1144.418457 184.0
1144.818237 124.0
1144.885498 212.0
1144.939453 116.0
1145.255981 100.0
1145.415405 208.0
1145.552368 108.0
1145.758911 184.0
1145.905273 84.0
1146.003784 140.0
1146.091309 132.0
1146.313721 144.0
1146.367676 196.0
1146.489014 148.0
1146.561768 212.0
1146.621582 172.0
1146.872559 144.0
1147.007935 140.0
1147.122559 60.0
1147.216919 28.0
1147.26416 128.0
1147.338257 200.0
1147.5271 144.0
1147.614746 92.0
1147.830688 136.0
1147.897949 116.0
1148.012573 36.0
1148.091797 164.0
1148.22168 132.0
1148.380371 232.0
1148.457764 380.0
1148.626343 28.0
1148.680298 264.0
1148.77478 192.0
1148.943359 80.0
1149.103516 160.0
1149.274048 176.0
1149.372314 188.0
1149.597656 180.0
1149.672119 68.0
1149.780151 224.0
1149.856689 268.0
1149.921875 136.0
1150.016357 76.0
1150.117676 80.0
1150.26062 124.0
1150.365601 156.0
1150.812988 108.0
1150.981445 184.0
1151.094116 176.0
1151.248657 220.0
1151.332886 188.0
1151.386475 52.0
1151.610229 228.0
1151.66394 144.0
1151.731445 184.0
1151.974609 92.0
1152.082764 52.0
1152.140625 104.0
1152.251587 208.0
1152.441528 216.0
1152.5354 140.0
1152.591431 176.0
1152.692139 172.0
1152.765137 116.0
1152.913818 180.0
1153.178345 148.0
1153.400513 60.0
1153.532593 116.0
1153.603271 164.0
1153.657349 68.0
1153.968384 84.0
1154.056274 116.0
1154.141479 180.0
1154.238892 136.0
1154.34021 144.0
1154.475464 152.0
1154.705444 112.0
1154.840698 108.0
1154.901611 48.0
1155.030151 120.0
1155.104492 128.0
1155.172241 116.0
1155.219604 148.0
1155.442749 124.0
1155.496948 196.0
1155.726929 112.0
1155.838135 188.0
1155.977295 164.0
1156.048584 116.0
1156.110596 144.0
1156.248291 152.0
1156.418335 176.0
1156.46814 172.0
1156.518799 84.0
1156.566162 72.0
1156.627075 64.0
1156.690063 40.0
1156.742188 108.0
1156.796387 84.0
1156.877563 112.0
1156.958862 128.0
1157.033325 44.0
1157.090942 156.0
1157.285522 156.0
1157.356812 168.0
1157.514038 20.0
1157.581787 124.0
1157.676514 188.0
1157.730713 148.0
1157.927124 152.0
1158.004028 148.0
1158.085571 208.0
1158.221558 164.0
1158.570679 140.0
1158.895874 76.0
1159.077271 140.0
1159.153076 168.0
1159.417603 184.0
1159.566772 184.0
1159.663208 136.0
1159.732178 140.0
1159.776855 172.0
1159.902954 192.0
1160.081909 196.0
1160.152344 204.0
1160.200806 164.0
1160.285278 88.0
1160.396118 184.0
1160.730713 204.0
1160.915894 112.0
1161.004028 144.0
1161.051514 188.0
1161.098999 176.0
1161.20752 160.0
1161.277954 160.0
1161.485596 120.0
1161.539917 196.0
1161.621338 140.0
1161.699707 196.0
1161.72937 108.0
1161.746338 188.0
1161.797729 132.0
1161.904053 112.0
1162.049194 64.0
1162.103027 152.0
1162.15918 236.0
1162.259033 120.0
1162.38916 196.0
1162.564453 112.0
1162.67041 288.0
1162.930908 152.0
1163.06665 228.0
1163.134644 120.0
1163.220947 84.0
1163.283936 200.0
1163.378784 140.0
1163.650513 128.0
1163.69812 196.0
1163.759155 224.0
1163.922119 80.0
1164.078369 132.0
1164.306885 128.0
1164.335693 148.0
1164.518188 136.0
1164.594482 48.0
1164.682739 152.0
1164.750732 196.0
1164.94519 160.0
1165.119385 160.0
1165.194214 144.0
1165.269897 272.0
1165.346436 176.0
1165.430054 172.0
1165.535767 96.0
1165.62085 180.0
1165.688354 172.0
1165.790283 188.0
1165.837891 144.0
1165.942017 160.0
1166.075684 44.0
1166.469971 196.0
1166.592285 108.0
1166.647949 128.0
1166.843872 136.0
1167.015259 216.0
1167.098022 156.0
1167.167603 124.0
1167.353882 92.0
1167.472046 340.0
1167.529541 140.0
1167.680298 132.0
1167.757324 132.0
1167.925171 140.0
1168.074829 96.0
1168.129272 160.0
1168.265259 168.0
1168.428589 48.0
1168.598633 192.0
1168.721191 120.0
1168.829468 96.0
1168.839722 112.0
1168.888306 348.0
1169.012207 140.0
1169.054565 168.0
1169.115845 116.0
1169.19751 116.0
1169.360962 196.0
1169.442505 120.0
1169.558228 292.0
1169.660278 148.0
1169.791992 156.0
1169.905396 272.0
1169.977783 152.0
1170.179688 124.0
1170.241821 172.0
1170.3479 128.0
1170.450073 84.0
1170.552979 152.0
1170.731689 272.0
1170.838257 108.0
1170.926147 172.0
1171.013184 100.0
1171.062988 200.0
1171.144775 368.0
1171.233276 176.0
1171.296875 276.0
1171.41272 156.0
1171.463989 112.0
1171.568115 220.0
1171.669312 164.0
1171.720459 116.0
1171.768311 168.0
1171.948608 128.0
1172.04834 176.0
1172.13269 168.0
1172.180298 136.0
1172.228027 108.0
1172.367554 112.0
1172.480225 100.0
1172.594116 112.0
1172.643799 144.0
1172.711914 240.0
1172.807373 164.0
1173.05957 116.0
1173.1073 200.0
1173.284424 196.0
1173.359741 80.0
1173.632324 84.0
1174.022339 172.0
1174.291992 184.0
1174.512085 160.0
1174.610962 268.0
1174.745605 308.0
1174.853149 112.0
1174.921387 140.0
1174.969116 148.0
1175.34436 184.0
1175.508179 144.0
1175.651489 156.0
1175.745117 148.0
1176.067871 64.0
1176.123657 176.0
1176.211182 156.0
1176.304688 212.0
1176.365356 320.0
1176.484253 172.0
1176.545654 176.0
1176.59082 100.0
1176.856079 372.0
1176.992188 152.0
1177.054077 160.0
1177.166992 152.0
1177.22168 160.0
1177.317505 92.0
1177.434204 192.0
1177.472168 104.0
1177.483887 172.0
1177.552002 188.0
1177.617798 100.0
1177.665527 164.0
1177.815552 104.0
1177.904663 148.0
1178.089111 132.0
1178.266724 88.0
1178.416992 248.0
1178.519531 188.0
1178.615967 76.0
1178.698242 132.0
1178.740845 124.0
1178.813354 264.0
1178.88855 232.0
1178.956909 172.0
1179.27124 184.0
1179.397461 140.0
1179.496826 140.0
1179.57666 164.0
1179.660889 116.0
1179.893311 68.0
1180.043823 132.0
1180.088013 112.0
1180.242065 128.0
1180.324097 160.0
1180.406128 124.0
1180.474609 244.0
1180.578735 204.0
1180.631836 144.0
1180.70105 308.0
1180.905396 68.0
1180.960205 224.0
1181.014893 88.0
1181.247437 140.0
1181.434937 184.0
1181.575806 92.0
1181.687378 184.0
1181.869995 104.0
1181.972656 32.0
1182.079712 112.0
1182.171143 148.0
1182.24646 108.0
1182.297974 196.0
1182.369629 88.0
1182.451782 192.0
1182.526978 188.0
1182.66394 128.0
1182.807617 224.0
1182.931274 128.0
1183.163696 52.0
1183.23291 200.0
1183.341675 224.0
1183.396484 164.0
1183.490845 132.0
1183.68396 212.0
1183.787109 76.0
1183.999023 136.0
1184.094971 104.0
1184.170288 128.0
1184.334595 148.0
1184.444214 32.0
1184.505859 176.0
1184.745728 284.0
1184.800537 176.0
1184.966064 220.0
1185.019775 84.0
1185.095093 140.0
1185.158691 92.0
1185.259521 120.0
1185.355469 120.0
1185.403442 68.0
1185.555176 172.0
1185.622803 84.0
1185.759766 112.0
1185.821533 104.0
1185.91748 108.0
1186.054565 168.0
1186.109375 72.0
1186.170654 132.0
1186.211182 152.0
1186.287598 112.0
1186.374512 184.0
1186.46582 224.0
1186.539917 172.0
1186.652222 92.0
1186.808716 136.0
1186.982788 136.0
1187.048706 32.0
1187.160767 128.0
1187.590454 200.0
1187.912964 120.0
1188.075317 176.0
1188.153076 144.0
1188.269653 96.0
1188.40686 164.0
1188.581177 216.0
1188.647095 160.0
1188.705078 148.0
1188.820923 156.0
1188.919922 136.0
1189.168579 100.0
1189.230347 144.0
1189.312744 168.0
1189.418335 168.0
1189.532471 36.0
1189.62854 96.0
1189.910034 148.0
1190.010742 140.0
1190.390625 152.0
1190.520264 196.0
1190.593384 212.0
1190.780273 72.0
1190.805664 124.0
1190.857666 136.0
1190.926392 164.0
1191.104126 100.0
1191.201172 204.0
1191.252441 128.0
1191.407227 136.0
1191.475952 144.0
1191.528687 124.0
1191.585938 156.0
1191.659912 160.0
1191.751221 144.0
1192.011841 176.0
1192.070435 100.0
1192.126587 164.0
1192.300537 148.0
1192.376099 88.0
1192.589233 112.0
1192.644165 144.0
1192.726318 148.0
1192.829834 80.0
1192.879639 104.0
1193.015381 120.0
1193.084106 120.0
1193.197632 220.0
1193.407349 176.0
1193.50354 116.0
1193.606689 204.0
1193.689209 192.0
1193.751099 128.0
1193.806152 132.0
1194.180054 208.0
1194.340454 224.0
1194.457031 176.0
1195.009888 160.0
1195.053711 152.0
1195.161255 104.0
1195.333374 52.0
1195.422852 172.0
1195.567261 116.0
1195.616821 228.0
1195.691162 120.0
1195.831055 204.0
1195.904541 140.0
1195.966553 92.0
1196.050415 84.0
1196.237549 64.0
1196.369873 140.0
1196.395874 84.0
1196.424561 88.0
1196.5448 200.0
1196.778931 132.0
1196.831543 216.0
1196.922729 80.0
1196.97168 100.0
1197.188232 144.0
1197.322876 224.0
1197.371094 236.0
1197.618774 200.0
1197.708618 148.0
1197.784424 156.0
1197.830078 152.0
1197.842651 96.0
1197.874756 100.0
1198.104858 152.0
1198.305054 232.0
1198.488647 124.0
1198.585205 172.0
1198.680054 136.0
1198.827637 232.0
1198.939087 144.0
1199.08252 60.0
1199.196899 136.0
1199.323364 300.0
1199.452026 128.0
1199.518433 168.0
1199.614746 104.0
1199.658813 192.0
1199.797241 136.0
1200.085815 176.0
1200.244873 140.0
1200.339355 220.0
1200.479248 112.0
1200.56897 288.0
1200.654419 200.0
1200.713745 168.0
1200.830078 108.0
1200.918091 132.0
1201.028687 68.0
1201.106934 172.0
1201.155273 156.0
1201.265625 156.0
1201.327637 132.0
1201.700195 120.0
1201.914185 184.0
1201.976318 324.0
1202.079712 92.0
1202.190186 132.0
1202.245361 84.0
1202.397217 72.0
1202.484131 164.0
1202.663452 132.0
1202.75293 108.0
1202.873535 172.0
1202.942505 140.0
1203.123169 108.0
1203.246338 228.0
1203.327026 128.0
1203.427612 184.0
1203.481079 144.0
1203.598389 144.0
1203.705444 228.0
1203.782959 140.0
1203.796265 100.0
1203.898804 180.0
1204.019653 120.0
1204.201538 208.0
1204.302856 148.0
1204.351196 152.0
1204.475586 80.0
1204.556152 116.0
1204.620605 52.0
1204.682739 160.0
1204.731201 160.0
1204.865845 172.0
1204.959106 160.0
1205.105347 132.0
1205.2146 196.0
1205.223389 144.0
1205.339233 124.0
1205.415161 324.0
1205.525757 56.0
1205.760742 120.0
1205.961182 80.0
1206.042236 124.0
1206.127075 188.0
1206.207031 168.0
1206.272217 56.0
1206.322266 196.0
1206.380493 144.0
1206.475708 288.0
1206.555664 132.0
1206.66626 88.0
1206.901367 208.0
1206.963623 100.0
1207.018921 196.0
1207.157227 140.0
1207.343994 32.0
1207.475342 172.0
1207.640503 124.0
1207.717407 144.0
1207.772827 116.0
1207.994141 112.0
1208.054443 156.0
1208.162476 244.0
1208.296875 64.0
1208.56311 136.0
1208.699829 168.0
1208.748291 84.0
1208.803711 132.0
1208.942139 120.0
1209.108154 164.0
1209.228271 160.0
1209.28125 68.0
1209.38501 160.0
1209.530396 240.0
1209.619629 136.0
1209.848877 188.0
1209.904175 104.0
1209.981934 212.0
1210.101929 144.0
1210.24353 64.0
1210.319702 132.0
1210.672852 28.0
1210.721313 176.0
1210.832153 212.0
1210.942627 256.0
1211.046875 116.0
1211.171509 104.0
1211.219971 172.0
1211.351562 160.0
1211.49707 216.0
1211.571655 132.0
1211.628784 192.0
1211.739624 200.0
1211.795044 136.0
1211.885132 184.0
1212.016724 156.0
1212.08606 268.0
1212.175049 512.0
1212.554932 192.0
1212.617676 84.0
1212.688232 140.0
1212.732178 248.0
1212.886108 316.0
1213.118774 80.0
1213.167236 84.0
1213.225342 148.0
1213.340576 136.0
1213.41687 108.0
1213.53479 152.0
1213.77771 212.0
1213.928345 136.0
1214.12085 252.0
1214.145386 132.0
1214.169189 260.0
1214.216064 196.0
1214.262939 160.0
1214.320801 192.0
1214.484863 188.0
1214.554199 224.0
1214.684082 188.0
1214.764038 216.0
1214.901001 164.0
1215.019043 144.0
1215.206299 140.0
1215.268799 48.0
1215.344604 104.0
1215.426392 200.0
1215.525513 152.0
1215.588013 472.0
1215.767212 232.0
1215.872559 188.0
1215.920532 92.0
1216.00769 124.0
1216.212646 128.0
1216.26123 80.0
1216.330566 160.0
1216.442871 192.0
1216.545654 152.0
1216.696411 140.0
1216.97644 224.0
1217.042969 228.0
1217.254028 36.0
1217.316528 140.0
1217.413086 128.0
1217.435547 116.0
1217.456787 144.0
1217.552612 244.0
1217.663818 140.0
1217.899902 72.0
1218.00415 76.0
1218.170898 44.0
1218.25415 144.0
1218.326172 180.0
1218.420898 84.0
1218.552979 168.0
1218.623779 160.0
1218.734619 336.0
1218.847046 144.0
1219.060181 116.0
1219.108887 180.0
1219.172852 336.0
1219.501587 156.0
1219.581421 92.0
1219.64624 272.0
1219.727173 112.0
1219.852539 36.0
1220.130615 116.0
1220.193237 112.0
1220.287354 184.0
1220.395996 176.0
1220.485229 108.0
1220.55481 196.0
1220.609863 104.0
1220.735596 156.0
1220.809082 128.0
1220.881592 192.0
1220.979004 128.0
1221.104248 164.0
1221.33374 96.0
1221.424194 552.0
1221.577148 184.0
1221.629517 152.0
1221.742065 208.0
1221.844604 164.0
1221.927124 144.0
1222.027832 160.0
1222.098145 100.0
1222.238159 256.0
1222.424316 148.0
1222.599487 220.0
1222.704468 116.0
1222.771484 108.0
1222.815796 148.0
1222.901733 160.0
1223.094238 100.0
1223.203613 140.0
1223.288086 172.0
1223.342896 316.0
1223.421387 108.0
1223.574585 192.0
1223.783447 108.0
1223.832153 156.0
1223.880859 224.0
1223.996216 164.0
1224.019897 116.0
1224.159424 140.0
1224.277832 140.0
1224.382324 124.0
1224.444946 96.0
1224.563354 76.0
1224.618652 132.0
1224.694458 136.0
1224.779297 92.0
1224.843506 256.0
1225.211182 140.0
1225.265015 116.0
1225.373413 140.0
1225.472168 168.0
1225.657104 108.0
1225.901001 176.0
1226.070923 180.0
1226.277344 176.0
1226.440674 220.0
1226.553955 144.0
1226.67627 180.0
1226.793213 44.0
1226.942993 152.0
1227.093018 172.0
1227.322876 148.0
1227.420776 220.0
1227.572998 168.0
1227.739746 112.0
1227.873901 148.0
1228.023193 148.0
1228.120972 140.0
1228.183838 104.0
1228.392822 180.0
1228.446045 236.0
1228.526367 184.0
1228.620483 104.0
1228.693115 160.0
1228.76001 192.0
1228.983276 104.0
1229.094849 212.0
1229.143677 80.0
1229.241455 244.0
1229.326904 132.0
1229.394897 192.0
1229.464722 116.0
1229.527588 260.0
1229.632202 124.0
1229.69165 180.0
1229.750854 136.0
1229.878052 304.0
1230.00647 232.0
1230.057983 144.0
1230.192627 128.0
1230.267456 168.0
1230.341187 164.0
1230.419434 88.0
1230.518799 60.0
1230.571289 200.0
1230.644531 124.0
1230.749512 84.0
1230.869751 140.0
1230.922119 136.0
1231.210083 140.0
1231.370728 48.0
1231.558594 80.0
1231.722778 168.0
1232.016968 164.0
1232.076294 128.0
1232.174072 148.0
1232.250977 200.0
1232.355713 204.0
1232.502441 72.0
1232.830933 116.0
1232.928833 224.0
1233.062134 188.0
1233.152466 192.0
1233.215332 36.0
1233.327148 208.0
1233.390137 168.0
1233.501953 172.0
1233.564453 200.0
1233.634766 144.0
1233.71167 164.0
1233.767578 96.0
1234.015137 144.0
1234.1521 132.0
1234.277954 140.0
1234.340576 196.0
1234.459839 300.0
1234.541626 144.0
1234.762085 184.0
1234.836182 132.0
1234.947144 140.0
1235.309937 244.0
1235.367432 132.0
1235.460693 132.0
1235.563232 208.0
1235.662964 96.0
1235.823853 132.0
1235.955566 152.0
1236.051147 172.0
1236.327637 176.0
1236.379883 124.0
1236.705688 156.0
1236.762085 132.0
1236.894043 188.0
1236.968262 192.0
1237.050781 172.0
1237.13269 88.0
1237.202637 184.0
1237.272705 128.0
1237.459106 148.0
1237.650757 268.0
1237.790771 176.0
1238.014648 132.0
1238.161987 140.0
1238.245972 112.0
1238.351074 160.0
1238.438232 200.0
1238.603271 96.0
1238.711548 188.0
1238.764404 120.0
1238.861694 108.0
1239.002563 100.0
1239.088623 244.0
1239.174072 152.0
1239.303833 128.0
1239.422974 124.0
1239.487427 156.0
1239.614746 184.0
1239.689209 184.0
1239.801392 116.0
1239.87146 200.0
1239.92627 108.0
1240.000366 112.0
1240.116699 112.0
1240.221069 296.0
1240.238403 152.0
1240.261353 180.0
1240.404175 188.0
1240.677612 148.0
1240.747681 136.0
1240.82312 164.0
1240.947632 252.0
1241.084229 176.0
1241.385986 124.0
1241.455811 176.0
1241.511963 180.0
1241.5896 220.0
1241.700806 164.0
1241.722046 152.0
1241.834595 72.0
1241.911743 176.0
1241.995972 180.0
1242.134033 156.0
1242.262451 136.0
1242.332642 136.0
1242.430908 152.0
1242.498291 152.0
1242.599243 192.0
1242.695435 168.0
1242.929077 104.0
1243.041504 188.0
1243.158203 140.0
1243.220093 176.0
1243.33606 128.0
1243.40625 208.0
1243.460205 152.0
1243.532593 180.0
1243.623779 172.0
1243.745728 156.0
1243.864746 88.0
1243.943115 220.0
1244.026611 84.0
1244.124878 192.0
1244.309448 156.0
1244.402466 88.0
1244.599609 156.0
1244.718994 192.0
1244.87085 116.0
1245.005371 108.0
1245.034546 52.0
1245.098267 176.0
1245.199829 60.0
1245.276733 96.0
1245.439941 236.0
1245.594604 96.0
1245.815063 164.0
1246.067627 140.0
1246.253784 188.0
1246.345825 164.0
1246.411011 156.0
1246.434692 136.0
1246.458496 52.0
1246.491211 116.0
1246.714111 64.0
1246.798462 48.0
1246.875732 164.0
1247.072632 44.0
1247.213135 148.0
1247.283447 132.0
1247.36084 344.0
1247.564697 116.0
1247.705933 360.0
1247.888062 184.0
1248.042725 168.0
1248.132812 348.0
1248.180054 92.0
1248.264648 160.0
1248.283691 88.0
1248.306641 184.0
1248.359131 176.0
1248.57019 192.0
1248.712769 132.0
1248.826294 240.0
1248.999268 124.0
1249.095093 140.0
1249.164307 160.0
1249.287598 168.0
1249.336914 148.0
1249.42981 152.0
1249.575439 176.0
1249.84082 136.0
1249.90686 32.0
1250.167236 176.0
1250.258545 160.0
1250.317139 132.0
1250.415771 176.0
1250.519897 160.0
1250.726562 184.0
1250.814697 244.0
1250.870972 164.0
1251.011841 112.0
1251.15918 176.0
1251.27771 188.0
1251.391968 96.0
1251.490601 92.0
1251.605713 160.0
1251.744141 92.0
1251.972412 176.0
1252.022827 196.0
1252.071411 144.0
1252.212158 284.0
1252.272339 44.0
1252.367188 136.0
1252.57666 132.0
1252.702026 376.0
1252.751343 128.0
1252.948486 164.0
1253.047241 64.0
1253.131714 168.0
1253.209229 156.0
1253.284546 92.0
1253.491089 280.0
1253.547485 40.0
1253.619873 60.0
1254.005615 84.0
1254.087646 196.0
1254.167114 104.0
1254.183838 96.0
1254.212158 140.0
1254.315674 72.0
1254.365112 64.0
1254.506104 160.0
1254.590698 60.0
1254.710449 148.0
1254.964355 68.0
1255.062988 160.0
1255.14502 200.0
1255.203735 156.0
1255.283447 164.0
1255.351562 104.0
1255.429688 56.0
1255.540161 104.0
1255.635864 156.0
1255.711792 44.0
1255.783203 252.0
1255.924927 168.0
1256.092773 136.0
1256.458496 128.0
1256.493652 152.0
1256.585815 144.0
1256.805298 160.0
1257.066406 140.0
1257.190186 284.0
1257.249878 52.0
1257.468628 128.0
1257.539307 112.0
1257.612671 112.0
1257.675659 188.0
1258.245239 160.0
1258.372314 164.0
1258.489136 172.0
1258.512939 96.0
1258.539551 176.0
1258.911377 164.0
1259.041992 176.0
1259.127319 76.0
1259.424561 132.0
1259.565796 232.0
1259.622314 52.0
1259.841309 192.0
1259.954346 208.0
1260.032104 184.0
1260.123901 112.0
1260.20166 172.0
1260.34082 132.0
1260.528564 160.0
1260.583252 44.0
1260.766968 152.0
1260.837646 72.0
1260.957764 128.0
1261.007202 156.0
1261.086792 136.0
1261.346558 184.0
1261.395996 132.0
1261.50708 188.0
1261.579834 48.0
1261.841431 140.0
1261.907715 236.0
1262.152466 132.0
1262.350586 104.0
1262.477783 136.0
1262.626343 164.0
1262.774902 52.0
1262.878662 108.0
1262.95874 180.0
1263.09314 92.0
1263.250977 120.0
1263.348999 224.0
1263.4823 76.0
1263.620605 140.0
1263.687378 176.0
1263.786499 124.0
1263.87854 128.0
1263.973633 72.0
1264.126099 200.0
1264.230713 184.0
1264.50647 160.0
1264.614502 148.0
1264.791504 144.0
1264.869263 176.0
1264.975464 188.0
1265.032104 104.0
1265.126953 220.0
1265.310669 228.0
1265.482056 216.0
1265.676392 100.0
1265.797729 164.0
1265.903076 136.0
1266.030518 160.0
1266.123779 164.0
1266.193359 128.0
1266.321045 228.0
1266.490845 168.0
1266.540405 132.0
1266.597168 36.0
1266.675415 188.0
1266.76709 32.0
1266.857178 164.0
1266.930054 140.0
1267.003052 132.0
1267.071777 156.0
1267.121338 132.0
1267.185181 144.0
1267.383545 128.0
1267.565918 176.0
1267.762573 196.0
1268.003052 240.0
1268.10437 164.0
1268.181396 216.0
1268.326172 152.0
1268.439575 224.0
1268.503296 160.0
1268.599731 120.0
1268.735596 156.0
1268.748901 120.0
1268.843628 84.0
1268.907471 140.0
1269.091797 168.0
1269.21228 148.0
1269.327515 148.0
1269.429321 264.0
1269.517212 92.0
1269.591431 88.0
1269.70874 164.0
1269.822266 140.0
1270.049683 392.0
1270.101685 188.0
1270.18396 124.0
1270.3573 148.0
1270.450439 144.0
1270.499268 204.0
1270.545776 260.0
1270.64563 108.0
1270.772827 96.0
1270.900513 124.0
1270.978638 148.0
1271.13562 200.0
1271.161377 160.0
1271.269531 196.0
1271.324341 156.0
1271.402466 176.0
1271.539185 80.0
1271.612183 160.0
1271.810425 236.0
1271.894165 172.0
1271.98645 80.0
1272.054199 180.0
1272.284546 128.0
1272.362671 96.0
1272.462036 260.0
1272.600708 120.0
1272.616211 68.0
1272.717651 164.0
1272.792725 116.0
1272.85376 264.0
1272.942871 136.0
1272.955688 172.0
1273.016968 160.0
1273.141357 260.0
1273.202759 180.0
1273.463379 160.0
1273.569946 128.0
1273.736206 164.0
1273.861206 116.0
1273.990112 156.0
1274.048828 160.0
1274.098877 324.0
1274.162476 124.0
1274.251831 208.0
1274.365601 168.0
1274.509888 180.0
1274.61438 212.0
1274.735107 156.0
1274.877197 156.0
1274.991211 116.0
1275.083252 176.0
1275.162231 152.0
1275.32959 168.0
1275.388916 108.0
1275.595093 156.0
1275.701782 92.0
1275.794189 164.0
1275.843872 80.0
1276.069214 232.0
1276.149658 156.0
1276.227905 308.0
1276.274048 196.0
1276.385498 248.0
1276.51123 220.0
1276.597656 160.0
1276.718506 52.0
1276.782471 216.0
1276.917603 188.0
1276.99585 200.0
1277.125977 140.0
1277.244873 108.0
1277.477173 152.0
1277.806885 92.0
1277.955322 124.0
1278.104614 156.0
1278.255127 132.0
1278.312134 88.0
1278.454346 140.0
1278.632324 168.0
1278.691528 128.0
1278.817383 172.0
1278.988159 352.0
1279.063721 120.0
1279.130615 152.0
1279.194702 128.0
1279.254761 36.0
1279.333618 92.0
1279.482178 168.0
1279.628906 184.0
1279.75708 200.0
1279.810791 168.0
1280.070435 60.0
1280.120239 80.0
1280.19104 188.0
1280.328491 152.0
1280.447876 188.0
1280.57605 192.0
1280.807251 324.0
1280.946411 96.0
1281.153076 88.0
1281.324097 208.0
1281.484741 160.0
1281.662842 72.0
1281.719482 128.0
1281.837036 404.0
1281.915405 112.0
1282.009521 244.0
1282.141113 160.0
1282.260864 140.0
1282.31189 232.0
1282.405518 188.0
1282.566772 164.0
1282.647095 188.0
1282.896606 196.0
1283.048828 164.0
1283.184204 136.0
1283.275024 88.0
1283.412476 120.0
1283.490845 72.0
1283.576416 164.0
1283.660767 60.0
1283.799561 188.0
1283.836182 104.0
1283.925903 104.0
1283.97583 132.0
1284.104126 124.0
1284.248047 172.0
1284.372925 160.0
1284.560669 160.0
1284.61731 280.0
1284.692627 148.0
1284.860596 152.0
1284.98877 192.0
1285.13269 176.0
1285.199707 200.0
1285.252808 220.0
1285.402588 160.0
1285.562134 120.0
1285.616699 176.0
1285.784546 216.0
1285.873291 148.0
1286.002075 136.0
1286.12561 268.0
1286.209961 248.0
1286.394653 208.0
1286.529297 200.0
1286.742554 160.0
1286.801636 132.0
1286.915649 132.0
1286.927734 128.0
1286.954468 216.0
1287.129028 280.0
1287.426758 140.0
1287.475952 132.0
1287.55835 124.0
1287.738159 228.0
1287.801392 168.0
1287.944336 244.0
1288.022827 152.0
1288.10144 136.0
1288.210938 224.0
1288.274902 184.0
1288.422241 140.0
1288.501465 160.0
1288.59436 124.0
1288.756836 192.0
1288.8302 100.0
1289.008789 68.0
1289.069824 192.0
1289.137451 320.0
1289.290771 116.0
1289.431519 204.0
1289.496094 176.0
1289.587646 100.0
1289.686035 160.0
1289.766357 120.0
1289.88501 176.0
1289.984619 108.0
1290.130981 184.0
1290.223877 156.0
1290.286377 148.0
1290.390747 84.0
1290.532959 164.0
1290.595703 232.0
1290.717285 144.0
1290.793823 272.0
1290.946167 116.0
1290.996216 200.0
1291.182129 112.0
1291.37085 180.0
1291.413208 116.0
1291.546753 180.0
1291.702637 160.0
1291.868774 132.0
1291.94751 108.0
1292.019409 176.0
1292.211426 104.0
1292.355347 124.0
1292.519897 140.0
1292.680786 168.0
1292.877686 52.0
1293.089722 168.0
1293.171143 68.0
1293.278564 200.0
1293.328613 196.0
1293.471436 160.0
1293.650757 128.0
1293.897461 128.0
1294.000854 364.0
1294.025269 156.0
1294.057617 256.0
1294.202026 128.0
1294.366699 80.0
1294.489014 172.0
1294.796387 156.0
1294.939697 228.0
1295.111572 184.0
1295.437622 212.0
1295.512695 40.0
1295.603271 176.0
1295.706177 164.0
1295.763428 92.0
1295.972168 180.0
1296.084839 144.0
1296.150391 156.0
1296.241577 128.0
1296.322388 80.0
1296.422729 108.0
1296.533936 140.0
1296.585327 164.0
1296.745605 68.0
1296.817261 224.0
1296.89209 156.0
1296.964355 172.0
1297.031982 208.0
1297.472534 164.0
1297.661133 236.0
1297.741699 96.0
1297.999878 164.0
1298.050049 188.0
1298.114624 40.0
1298.275879 196.0
1298.336914 136.0
1298.398193 232.0
1298.544922 116.0
1298.874878 120.0
1298.925049 192.0
1299.107178 312.0
1299.22229 128.0
1299.312134 188.0
1299.52771 108.0
1299.642456 88.0
1299.692749 120.0
1299.870728 120.0
1300.008179 252.0
1300.246094 72.0
1300.273071 128.0
1300.299072 184.0
1300.334595 72.0
1300.356567 144.0
1300.4104 104.0
1300.518066 204.0
1300.602173 236.0
1300.783691 112.0
1300.90564 104.0
1301.113892 104.0
1301.19873 88.0
1301.498047 176.0
1301.521118 88.0
1301.540527 152.0
1301.638062 164.0
1301.72876 184.0
1301.810425 128.0
1301.921631 160.0
1302.018677 368.0
1302.119141 164.0
1302.25354 116.0
1302.402466 172.0
1302.654053 184.0
1302.833374 168.0
1302.926392 176.0
1303.053467 184.0
1303.124878 92.0
1303.24707 376.0
1303.321899 88.0
1303.455444 200.0
1303.689209 120.0
1303.812256 216.0
1303.908203 140.0
1303.9729 68.0
1304.106323 136.0
1304.166992 140.0
1304.231689 84.0
1304.317871 88.0
1304.409912 156.0
1304.488647 120.0
1304.53894 256.0
1304.598267 128.0
1304.64856 168.0
1304.695557 136.0
1304.792358 192.0
1304.87146 112.0
1304.953857 172.0
1305.067871 164.0
1305.179321 136.0
1305.197632 112.0
1305.32019 168.0
1305.417969 164.0
1305.489868 100.0
1305.612793 208.0
1305.705078 60.0
1305.813477 152.0
1305.942993 68.0
1306.198364 144.0
1306.266602 168.0
1306.414185 64.0
1306.530396 192.0
1306.734253 164.0
1306.784668 164.0
1306.835083 92.0
1306.990845 148.0
1307.322388 176.0
1307.446655 124.0
1307.538452 132.0
1307.60498 172.0
1307.765991 268.0
1307.797241 152.0
1307.823242 224.0
1307.980103 140.0
1308.080078 120.0
1308.234497 188.0
1308.340576 92.0
1308.483276 72.0
1308.565552 208.0
1308.764648 164.0
1308.940186 132.0
1309.08374 180.0
1309.311401 180.0
1309.371216 196.0
1309.589111 216.0
1309.762573 184.0
1309.887573 80.0
1310.002808 96.0
1310.10376 124.0
1310.218994 124.0
1310.319824 120.0
1310.417603 128.0
1310.505371 148.0
1310.744995 120.0
1310.831421 140.0
1311.000977 168.0
1311.04248 124.0
1311.162964 104.0
1311.24939 100.0
1311.335938 164.0
1311.393555 200.0
1311.444092 196.0
1311.571167 208.0
1311.822754 172.0
1311.938721 128.0
1312.049561 128.0
1312.128906 120.0
1312.252441 88.0
1312.323608 128.0
1312.48938 92.0
1312.575195 176.0
1312.959106 152.0
1313.044678 160.0
1313.124023 64.0
1313.174561 56.0
1313.2677 164.0
1313.340454 168.0
1313.404419 160.0
1313.51355 140.0
1313.677734 168.0
1313.77002 148.0
1313.850586 188.0
1313.960815 140.0
1314.025757 168.0
1314.15332 192.0
1314.299927 164.0
1314.491211 120.0
1314.519653 108.0
1314.547852 168.0
1314.663818 172.0
1314.7146 180.0
1315.014404 132.0
1315.098755 140.0
1315.18335 156.0
1315.36084 140.0
1315.44751 184.0
1315.566772 160.0
1315.729004 548.0
1315.794067 96.0
1315.851807 96.0
1315.935791 200.0
1316.034668 184.0
1316.176758 176.0
1316.3573 244.0
1316.443848 148.0
1316.542847 212.0
1316.631348 180.0
1316.70105 272.0
1317.021729 164.0
1317.067627 156.0
1317.181641 136.0
1317.237671 160.0
1317.325073 124.0
1317.440674 116.0
1317.527344 312.0
1317.650146 196.0
1317.773071 152.0
1317.852539 108.0
1317.924805 52.0
1317.99939 348.0
1318.112671 100.0
1318.227661 136.0
1318.318726 164.0
1318.387207 156.0
1318.571167 136.0
1318.655518 36.0
1318.712524 80.0
1318.806396 36.0
1318.857056 60.0
1318.991699 260.0
1319.103882 184.0
1319.162231 196.0
1319.297974 144.0
1319.39917 200.0
1319.455688 104.0
1319.56958 156.0
1319.731934 224.0
1319.834351 252.0
1319.970459 184.0
1320.069092 180.0
1320.187622 128.0
1320.306763 208.0
1320.635742 128.0
1320.721558 112.0
1320.926147 164.0
1320.997192 96.0
1321.22229 120.0
1321.366455 144.0
1321.463501 128.0
1321.653076 208.0
1321.75 204.0
1321.865723 136.0
1321.947998 176.0
1322.010498 92.0
1322.082886 180.0
1322.321655 152.0
1322.4375 48.0
1322.632935 172.0
1322.697754 296.0
1322.864014 200.0
1323.016602 168.0
1323.201172 160.0
1323.364136 104.0
1323.668213 92.0
1323.849609 184.0
1324.052002 140.0
1324.142456 192.0
1324.252441 156.0
1324.312744 132.0
1324.385254 188.0
1324.486694 320.0
1324.580811 304.0
1324.725708 116.0
1324.85083 140.0
1324.935791 160.0
1325.000854 156.0
1325.125732 184.0
1325.306885 260.0
1325.38501 200.0
1325.450195 132.0
1325.566162 152.0
1325.689331 148.0
1325.747314 200.0
1325.914062 132.0
1326.013428 328.0
1326.095215 136.0
1326.372192 212.0
1326.526489 160.0
1326.588135 112.0
1326.711426 120.0
1326.769409 204.0
1326.928833 128.0
1327.015869 104.0
1327.117432 136.0
1327.247925 184.0
1327.320435 176.0
1327.378418 168.0
1327.491699 356.0
1327.567017 196.0
1327.777344 64.0
1327.847534 136.0
1328.067505 136.0
1328.219727 144.0
1328.307373 164.0
1328.406128 164.0
1328.515747 104.0
1328.597046 108.0
1328.771118 40.0
1328.851318 140.0
1328.901733 216.0
1328.974243 76.0
1329.057617 184.0
1329.109131 212.0
1329.168945 140.0
1329.266357 204.0
1329.448364 148.0
1329.504028 116.0
1329.598389 68.0
1329.64917 124.0
1329.77063 176.0
1329.901001 168.0
1330.057251 180.0
1330.197144 148.0
1330.299438 184.0
1330.411377 188.0
1330.518311 104.0
1330.580444 324.0
1330.839722 164.0
1330.930176 168.0
1331.15918 136.0
1331.246338 112.0
1331.34082 148.0
1331.391602 92.0
1331.464233 44.0
1331.558105 172.0
1331.617676 288.0
1331.740234 188.0
1331.891846 100.0
1331.97998 188.0
1332.038086 208.0
1332.086182 136.0
1332.246948 176.0
1332.413452 204.0
1332.564209 200.0
1332.757324 112.0
1332.917358 208.0
1332.977661 176.0
1333.152466 180.0
1333.275391 136.0
1333.66272 244.0
1333.79248 160.0
1333.873779 192.0
1333.898315 120.0
1333.922852 192.0
1334.013184 172.0
1334.080078 44.0
1334.167358 240.0
1334.279663 160.0
1334.370972 92.0
1334.496948 156.0
1334.567261 96.0
1334.69812 56.0
1334.79248 160.0
1334.901733 104.0
1335.068726 340.0
1335.223389 176.0
1335.290405 196.0
1335.374512 224.0
1335.432495 188.0
1335.607178 140.0
1335.685547 192.0
1335.787842 168.0
1335.866333 208.0
1335.93457 320.0
1336.118896 192.0
1336.196533 124.0
1336.334717 216.0
1336.427856 160.0
1336.68396 140.0
1336.771362 184.0
1336.991577 124.0
1337.083374 128.0
1337.14978 160.0
1337.215332 196.0
1337.300171 84.0
1337.319214 56.0
1337.342163 100.0
1337.419067 36.0
1337.557373 104.0
1337.644775 164.0
1337.806763 188.0
1337.835205 224.0
1337.914062 164.0
1338.059692 88.0
1338.156982 168.0
1338.256348 212.0
1338.359741 148.0
1338.456909 144.0
1338.55481 120.0
1338.744141 112.0
1338.904419 108.0
1338.966675 152.0
1339.028198 180.0
1339.101074 108.0
1339.181152 192.0
1339.326904 184.0
1339.399658 60.0
1339.46521 112.0
1339.564453 116.0
1339.578003 228.0
1339.66394 192.0
1339.804077 164.0
1339.960693 164.0
1340.007935 108.0
1340.20105 136.0
1340.339355 156.0
1340.458252 124.0
1340.546997 144.0
1340.652832 160.0
1340.72583 100.0
1340.886963 184.0
1341.01416 120.0
1341.105713 164.0
1341.209595 72.0
1341.338867 164.0
1341.545044 220.0
1341.632568 220.0
1341.781982 196.0
1341.964966 148.0
1342.088379 216.0
1342.195557 176.0
1342.348511 136.0
1342.411011 180.0
1342.546631 132.0
1342.670898 180.0
1342.810913 184.0
1342.861938 112.0
1342.985718 164.0
1343.051636 60.0
1343.153809 156.0
1343.270508 96.0
1343.372559 140.0
1343.474731 112.0
1343.598755 88.0
1343.792725 148.0
1343.854126 116.0
1343.946045 208.0
1344.083618 136.0
1344.197144 132.0
1344.255493 76.0
1344.306519 76.0
1344.462036 180.0
1344.627686 144.0
1344.708008 108.0
1344.890381 84.0
1344.956177 52.0
1345.094849 76.0
1345.160522 160.0
1345.226196 152.0
1345.367065 196.0
1345.459839 148.0
1345.5448 180.0
1345.627808 164.0
1345.737305 28.0
1345.992798 144.0
1346.074219 136.0
1346.138916 220.0
1346.34729 164.0
1346.54187 108.0
1346.68103 156.0
1346.774658 152.0
1346.832764 140.0
1346.974365 200.0
1347.051392 120.0
1347.139526 92.0
1347.259766 216.0
1347.508301 176.0
1347.563232 112.0
1347.655762 344.0
1347.713257 152.0
1347.804443 128.0
1347.88501 132.0
1347.979248 168.0
1348.138306 92.0
1348.229614 84.0
1348.352539 56.0
1348.489136 168.0
1348.604126 200.0
1348.761841 148.0
1348.885376 140.0
1349.068848 144.0
1349.190308 188.0
1349.258911 104.0
1349.410156 180.0
1349.463257 152.0
1349.573853 140.0
1349.748779 196.0
1349.843872 84.0
1349.953613 56.0
1350.063232 176.0
1350.15625 452.0
1350.462036 140.0
1350.546021 332.0
1350.787354 160.0
1350.867798 100.0
1350.927246 132.0
1351.028809 112.0
1351.145874 80.0
1351.314087 216.0
1351.380005 128.0
1351.460449 132.0
1351.524292 128.0
1351.592163 108.0
1351.66394 84.0
1351.719849 124.0
1351.862915 116.0
1351.920044 200.0
1352.281372 184.0
1352.36792 124.0
1352.426514 76.0
1352.558228 128.0
1352.616821 156.0
1352.770508 140.0
1352.826416 176.0
1352.916992 144.0
1352.997559 168.0
1353.085327 172.0
1353.132446 148.0
1353.217163 140.0
1353.345093 120.0
1353.400146 152.0
1353.473389 104.0
1353.5354 172.0
1353.557373 128.0
1353.755737 116.0
1353.81665 116.0
1353.863281 136.0
1354.030029 76.0
1354.27771 152.0
1354.374268 152.0
1354.44751 212.0
1354.570068 256.0
1354.637939 152.0
1354.715454 140.0
1354.977051 168.0
1355.12146 148.0
1355.248779 180.0
1355.407227 124.0
1355.495239 120.0
1355.600342 124.0
1355.816162 180.0
1355.964233 136.0
1356.117554 184.0
1356.144165 168.0
1356.26355 144.0
1356.426025 68.0
1356.530884 260.0
1356.711914 164.0
1356.813721 244.0
1356.857178 172.0
1356.881714 204.0
1357.012573 152.0
1357.166504 172.0
1357.225098 68.0
1357.313354 136.0
1357.452515 96.0
1357.577148 196.0
1357.643188 156.0
1357.692017 164.0
1357.789307 172.0
1357.872437 192.0
1358.083252 132.0
1358.16394 228.0
1358.266602 132.0
1358.391357 140.0
1358.567383 60.0
1358.649902 96.0
1358.721191 112.0
1358.868164 172.0
1358.96521 104.0
1359.029541 108.0
1359.148682 216.0
1359.23877 240.0
1359.313354 60.0
1359.453003 92.0
1359.572632 216.0
1359.638672 116.0
1359.753052 184.0
1359.841797 188.0
1359.974243 144.0
1360.115723 208.0
1360.435181 200.0
1360.503662 168.0
1360.596802 292.0
1360.761963 156.0
1360.916016 140.0
1361.011475 136.0
1361.099609 128.0
1361.17041 328.0
1361.253784 260.0
1361.446045 228.0
1361.60376 128.0
1361.684937 80.0
1361.753174 156.0
1361.804565 140.0
1361.878052 136.0
1361.951538 236.0
1362.046997 172.0
1362.142456 156.0
1362.200562 136.0
1362.336792 152.0
1362.478027 160.0
1362.590576 68.0
1362.744873 128.0
1362.796387 80.0
1362.950684 148.0
1363.002075 48.0
1363.097656 112.0
1363.169922 100.0
1363.187378 128.0
1363.307129 180.0
1363.523926 220.0
1363.655518 128.0
1363.676758 160.0
1363.766479 128.0
1363.891357 140.0
1363.964844 120.0
1364.023682 88.0
1364.105225 140.0
1364.187378 192.0
1364.277222 176.0
1364.442749 128.0
1364.508911 132.0
1364.579102 200.0
1364.640869 152.0
1364.767578 132.0
1364.830933 204.0
1364.927979 76.0
1365.03125 132.0
1365.102783 172.0
1365.286377 152.0
1365.354614 108.0
1365.440063 200.0
1365.602539 160.0
1365.687988 168.0
1365.834229 132.0
1365.854492 160.0
1365.987183 132.0
1366.080566 212.0
1366.229126 220.0
1366.306152 204.0
1366.434937 64.0
1366.546265 144.0
1366.631104 144.0
1366.835693 268.0
1366.887939 260.0
1366.920532 112.0
1366.935669 144.0
1367.016846 144.0
1367.119385 184.0
1367.21814 188.0
1367.295776 136.0
1367.370483 120.0
1367.499756 120.0
1367.682495 172.0
1367.704224 68.0
1367.728516 196.0
1367.782715 56.0
1367.94812 212.0
1367.977051 100.0
1367.998657 152.0
1368.135986 148.0
1368.1875 140.0
1368.33374 316.0
1368.441895 164.0
1368.50415 64.0
1368.629272 172.0
1368.748535 228.0
1368.887085 36.0
1369.045166 84.0
1369.160034 120.0
1369.341187 132.0
1369.426514 204.0
1369.58667 180.0
1369.638306 128.0
1369.711914 152.0
1369.802979 112.0
1369.896118 140.0
1370.065552 128.0
1370.198853 192.0
1370.25708 92.0
1370.317749 156.0
1370.421387 256.0
1370.49292 196.0
1370.607056 120.0
1370.724609 164.0
1370.809814 212.0
1370.93811 144.0
1370.999756 244.0
1371.122437 212.0
1371.237183 132.0
1371.294556 144.0
1371.399414 144.0
1371.495239 76.0
1371.57605 152.0
1371.622559 244.0
1371.708984 136.0
1371.80481 184.0
1371.86377 92.0
1371.935913 188.0
1372.040649 208.0
1372.116699 152.0
1372.177124 128.0
1372.324707 232.0
1372.418823 124.0
1372.505249 180.0
1372.583252 152.0
1372.72644 156.0
1372.858276 148.0
1372.967773 132.0
1373.066895 192.0
1373.13147 96.0
1373.257446 160.0
1373.389526 168.0
1373.443359 60.0
1373.578735 180.0
1373.685303 152.0
1373.770264 80.0
1373.848145 220.0
1373.909058 132.0
1374.004395 200.0
1374.074341 152.0
1374.172974 112.0
1374.245972 132.0
1374.300659 168.0
1374.396973 128.0
1374.476929 120.0
1374.77356 156.0
1374.831055 184.0
1374.90564 148.0
1374.969116 152.0
1375.024658 464.0
1375.146118 180.0
1375.378418 296.0
1375.463745 244.0
1375.573608 112.0
1375.656738 276.0
1375.767334 120.0
1375.798706 104.0
1375.889648 196.0
1376.013428 160.0
1376.143433 204.0
1376.209351 32.0
1376.283203 180.0
1376.334839 88.0
1376.386597 92.0
1376.547119 124.0
1376.622925 172.0
1376.674561 196.0
1376.7323 104.0
1376.820923 380.0
1376.914062 160.0
1377.006958 292.0
1377.064575 144.0
1377.20813 164.0
1377.269653 256.0
1377.329712 136.0
1377.362671 104.0
1377.37854 152.0
1377.494507 144.0
1377.560913 136.0
1377.632324 108.0
1377.730835 164.0
1377.792114 180.0
1377.838257 220.0
1377.980591 144.0
1378.122437 104.0
1378.248047 140.0
1378.32666 144.0
1378.403198 88.0
1378.572876 160.0
1378.589355 152.0
1378.636719 316.0
1378.73584 64.0
1378.794922 144.0
1378.901245 124.0
1379.001831 172.0
1379.100464 172.0
1379.182007 288.0
1379.295898 232.0
1379.487427 196.0
1379.687134 164.0
1379.822388 184.0
1380.007202 160.0
1380.143921 192.0
1380.171143 228.0
1380.255615 168.0
1380.436157 156.0
1380.606201 80.0
1380.717041 176.0
1380.805908 184.0
1380.857666 76.0
1380.967773 148.0
1381.035156 208.0
1381.124023 136.0
1381.289307 172.0
1381.401733 268.0
1381.466553 184.0
1381.530884 108.0
1381.602539 160.0
1381.704834 184.0
1381.834106 104.0
1381.94519 160.0
1382.078369 40.0
1382.210693 152.0
1382.239502 124.0
1382.265991 88.0
1382.337158 164.0
1382.477783 240.0
1382.596313 96.0
1382.739136 144.0
1382.822876 228.0
1383.107056 60.0
1383.23291 132.0
1383.321411 164.0
1383.425415 36.0
1383.546631 160.0
1383.609009 104.0
1383.635864 160.0
1383.668701 172.0
1383.800537 204.0
1383.980713 88.0
1384.143555 156.0
1384.202759 144.0
1384.321289 208.0
1384.421021 52.0
1384.557861 124.0
1384.650269 252.0
1384.750854 140.0
1384.852783 180.0
1384.987915 140.0
1385.156494 200.0
1385.298218 184.0
1385.462036 136.0
1385.54895 172.0
1385.632324 148.0
1385.69165 112.0
1385.832397 180.0
1386.047363 64.0
1386.175659 228.0
1386.319336 300.0
1386.473755 128.0
1386.55127 320.0
1386.632812 136.0
1386.724976 148.0
1386.781006 224.0
1386.954224 204.0
1387.036133 236.0
1387.099731 136.0
1387.151611 184.0
1387.210938 60.0
1387.301025 160.0
1387.416382 368.0
1387.471069 100.0
1387.603882 112.0
1387.915283 112.0
1387.981445 196.0
1388.119507 352.0
1388.21936 104.0
1388.3396 152.0
1388.412109 132.0
1388.506226 228.0
1388.548828 272.0
1388.713257 256.0
1389.076904 172.0
1389.158325 176.0
1389.356812 248.0
1389.502563 172.0
1389.651001 80.0
1389.791992 104.0
1389.880981 192.0
1389.951172 56.0
1390.031616 204.0
1390.157593 208.0
1390.246704 112.0
1390.335693 172.0
1390.496948 132.0
1390.563599 152.0
1390.623169 168.0
1390.771606 156.0
1390.882935 220.0
1391.030884 124.0
1391.111572 124.0
1391.140625 100.0
1391.153809 196.0
1391.329712 196.0
1391.41748 164.0
1391.513916 88.0
1391.585205 108.0
1391.640137 148.0
1391.723633 200.0
1391.840698 92.0
1392.10083 124.0
1392.174805 108.0
1392.274536 160.0
1392.417603 152.0
1392.439087 104.0
1392.469727 108.0
1392.497192 180.0
1392.626221 292.0
1392.924805 332.0
1393.029053 44.0
1393.15564 152.0
1393.222168 136.0
1393.363281 168.0
1393.456909 112.0
1393.541626 116.0
1393.783569 184.0
1393.846313 196.0
1393.910156 180.0
1394.017212 120.0
1394.149292 108.0
1394.175415 156.0
1394.269897 88.0
1394.405029 204.0
1394.478027 132.0
1394.541992 188.0
1394.569458 116.0
1394.60022 108.0
1394.625732 164.0
1394.765259 164.0
1394.857056 100.0
1394.931396 312.0
1395.035522 220.0
1395.130737 184.0
1395.388062 140.0
1395.459229 140.0
1395.555908 116.0
1395.615356 120.0
1395.705444 112.0
1395.793823 136.0
1395.875732 196.0
1395.952881 236.0
1396.000732 156.0
1396.061646 184.0
1396.288818 140.0
1396.359131 80.0
1396.411133 152.0
1396.56189 336.0
1396.730957 368.0
1396.820312 196.0
1396.9021 176.0
1396.961548 344.0
1397.065796 56.0
1397.139771 160.0
1397.2146 196.0
1397.28125 152.0
1397.407959 204.0
1397.512207 168.0
1397.601074 216.0
1397.661011 132.0
1397.844116 132.0
1397.933105 188.0
1398.018188 120.0
1398.08667 96.0
1398.200562 176.0
1398.293579 92.0
1398.345581 224.0
1398.493042 144.0
1398.583862 188.0
1398.653687 268.0
1398.800781 136.0
1398.954712 208.0
1399.104858 164.0
1399.349121 156.0
1399.404541 180.0
1399.593872 252.0
1399.657349 360.0
1399.782471 60.0
1399.929077 156.0
1400.031982 228.0
1400.159912 148.0
1400.207031 176.0
1400.326172 308.0
1400.450439 88.0
1400.477051 120.0
1400.527222 164.0
1400.59436 316.0
1400.691772 148.0
1400.758179 96.0
1400.832275 124.0
1400.889771 188.0
1400.951904 64.0
1401.03833 196.0
1401.202393 264.0
1401.302002 336.0
1401.46106 172.0
1401.560669 312.0
1401.64978 144.0
1401.84082 204.0
1401.955322 192.0
1402.083252 104.0
1402.248047 172.0
1402.387207 160.0
1402.524292 168.0
1402.670654 124.0
1402.739624 72.0
1402.884521 260.0
1403.053467 156.0
1403.189453 152.0
1403.268921 188.0
1403.329346 152.0
1403.384888 152.0
1403.446899 248.0
1403.668457 132.0
1403.817505 212.0
1403.873779 148.0
1403.932007 232.0
1404.022949 120.0
1404.08252 128.0
1404.319458 124.0
1404.470459 152.0
1404.596069 108.0
1404.768799 176.0
1404.852783 160.0
1405.010986 184.0
1405.067261 152.0
1405.126343 152.0
1405.199829 156.0
1405.215698 120.0
1405.241699 144.0
1405.352539 136.0
1405.481934 136.0
1405.566528 188.0
1405.723877 96.0
1405.782471 200.0
1405.800903 172.0
1405.940308 76.0
1406.061401 212.0
1406.137573 128.0
1406.253784 192.0
1406.397949 112.0
1406.579956 124.0
1406.660034 56.0
1406.714478 88.0
1406.858398 108.0
1406.925537 224.0
1406.992798 128.0
1407.059937 112.0
1407.125732 192.0
1407.33313 164.0
1407.435791 132.0
1407.560181 116.0
1407.639282 288.0
1407.873901 128.0
1407.987793 108.0
1408.094727 168.0
1408.1875 80.0
1408.242432 140.0
1408.305664 248.0
1408.425293 112.0
1408.569092 236.0
1408.673096 112.0
1408.786987 276.0
1408.885864 204.0
1408.984131 152.0
1409.069092 200.0
1409.240845 148.0
1409.341919 172.0
1409.435181 132.0
1409.603149 156.0
1409.847412 212.0
1409.980713 116.0
1410.093628 312.0
1410.168823 148.0
1410.260498 160.0
1410.327148 104.0
1410.459106 116.0
1410.593628 52.0
1410.661987 196.0
1410.731689 148.0
1410.792236 192.0
1410.901367 188.0
1411.027222 168.0
1411.158691 160.0
1411.33374 116.0
1411.386108 108.0
1411.438477 64.0
1411.528198 196.0
1411.578613 140.0
1411.762695 112.0
1411.836304 120.0
1411.971313 176.0
1412.096558 120.0
1412.221436 204.0
1412.395752 128.0
1412.530396 104.0
1412.769165 152.0
1412.821899 164.0
1413.058594 220.0
1413.241211 168.0
1413.353394 172.0
1413.428223 124.0
1413.567017 324.0
1413.635376 200.0
1413.75 96.0
1413.855835 180.0
1413.935791 272.0
1414.019409 132.0
1414.071899 104.0
1414.152344 184.0
1414.266479 364.0
1414.356323 124.0
1414.437012 108.0
1414.513428 184.0
1414.61084 172.0
1414.730591 136.0
1414.838135 208.0
1414.92627 220.0
1414.980713 180.0
1415.018799 148.0
1415.039307 136.0
1415.114868 108.0
1415.292114 208.0
1415.396973 92.0
1415.642212 212.0
1415.692139 184.0
1415.857544 96.0
1415.988525 156.0
1416.119751 208.0
1416.218628 168.0
1416.288208 140.0
1416.415527 144.0
1416.629639 164.0
1416.871216 244.0
1417.172241 172.0
1417.32959 144.0
1417.481567 204.0
1417.597168 248.0
1417.617676 176.0
1417.654175 152.0
1417.67041 148.0
1417.752563 352.0
1417.960083 88.0
1418.034058 116.0
1418.199951 116.0
1418.389893 164.0
1418.506226 124.0
1418.581177 180.0
1418.681641 160.0
1418.836304 196.0
1418.890015 160.0
1419.036743 120.0
1419.105347 432.0
1419.266724 176.0
1419.326172 328.0
1419.439331 184.0
1419.507202 96.0
1419.7323 168.0
1419.788452 144.0
1419.888428 108.0
1419.998413 216.0
1420.099731 180.0
1420.255615 168.0
1420.313477 200.0
1420.427612 88.0
1420.598511 164.0
1420.679077 156.0
1420.70166 116.0
1420.786011 160.0
1420.88269 72.0
1420.933228 164.0
1421.099854 140.0
1421.130127 116.0
1421.153809 120.0
1421.33374 128.0
1421.438843 280.0
1421.570679 120.0
1421.689819 176.0
1421.769043 140.0
1421.833862 196.0
1421.86084 124.0
1421.927246 120.0
1422.086182 188.0
1422.294434 76.0
1422.369507 116.0
1422.46228 112.0
1422.512085 148.0
1422.663208 196.0
1422.774902 28.0
1422.831665 316.0
1422.985107 64.0
1423.075195 208.0
1423.142822 172.0
1423.245972 228.0
1423.335327 236.0
1423.503174 120.0
1423.601318 152.0
1423.7854 152.0
1423.994385 184.0
1424.066528 164.0
1424.276855 188.0
1424.34668 220.0
1424.499512 140.0
1424.562256 116.0
1424.632935 60.0
1424.765137 504.0
1424.832764 164.0
1424.93042 144.0
1425.010986 180.0
1425.142578 148.0
1425.291016 572.0
1425.358643 160.0
1425.446777 196.0
1425.57666 180.0
1425.647949 312.0
1425.764038 136.0
1425.780884 100.0
1425.93811 160.0
1426.01001 132.0
1426.095215 40.0
1426.208008 140.0
1426.312622 236.0
1426.363281 140.0
1426.418457 144.0
1426.486084 532.0
1426.59314 116.0
1426.670044 292.0
1426.756714 260.0
1426.813599 352.0
1426.947144 200.0
1427.080078 160.0
1427.380859 116.0
1427.52771 112.0
1427.628906 236.0
1427.685913 176.0
1427.878906 140.0
1427.937378 224.0
1428.065186 60.0
1428.125366 124.0
1428.215576 132.0
1428.313354 88.0
1428.455933 172.0
1428.584961 116.0
1428.75415 164.0
1428.839966 300.0
1428.930298 48.0
1428.993286 296.0
1429.073242 208.0
1429.204834 148.0
1429.315796 208.0
1429.381714 160.0
1429.442017 164.0
1429.593384 172.0
1429.727905 180.0
1429.778076 76.0
1429.938721 152.0
1430.09668 164.0
1430.267944 248.0
1430.408813 192.0
1430.488159 96.0
1430.563477 164.0
1430.62793 128.0
1430.765137 152.0
1430.969971 140.0
1431.12146 336.0
1431.228882 400.0
1431.324585 128.0
1431.411377 188.0
1431.63269 132.0
1431.743774 192.0
1431.858765 148.0
1431.956543 92.0
1432.072388 112.0
1432.226929 128.0
1432.317993 104.0
1432.443726 152.0
1432.581665 48.0
1432.672119 116.0
1432.869019 264.0
1432.966797 144.0
1433.026245 284.0
1433.161865 208.0
1433.241333 140.0
1433.327637 116.0
1433.397827 192.0
1433.538574 52.0
1433.591431 76.0
1433.790039 180.0
1433.901855 232.0
1434.020996 84.0
1434.107178 120.0
1434.179199 156.0
1434.254639 96.0
1434.314941 96.0
1434.400879 128.0
1434.432617 52.0
1434.44812 160.0
1434.526001 124.0
1434.702759 156.0
1434.767212 124.0
1434.89209 184.0
1434.924438 104.0
1434.990601 300.0
1435.212158 80.0
1435.275879 200.0
1435.551392 116.0
1435.634399 116.0
1435.77771 120.0
1435.887695 148.0
1435.973755 180.0
1436.078003 472.0
1436.156738 156.0
1436.279419 160.0
1436.446899 376.0
1436.720581 144.0
1436.780884 112.0
1436.944092 184.0
1436.997681 164.0
1437.010254 120.0
1437.111206 228.0
1437.203491 108.0
1437.310669 208.0
1437.369507 140.0
1437.447388 168.0
1437.553101 124.0
1437.80957 192.0
1437.970215 172.0
1438.111328 144.0
1438.188232 372.0
1438.305298 64.0
1438.423706 236.0
1438.577148 260.0
1438.637939 172.0
1438.705444 208.0
1438.803223 148.0
1438.947021 180.0
1438.999878 120.0
1439.082886 196.0
1439.182739 208.0
1439.249023 132.0
1439.32373 104.0
1439.5448 192.0
1439.621582 308.0
1439.739868 292.0
1439.981812 128.0
1440.102417 176.0
1440.20813 92.0
1440.276123 116.0
1440.386841 80.0
1440.475342 172.0
1440.502319 64.0
1440.530151 168.0
1440.593506 140.0
1440.687134 140.0
1440.789917 168.0
1440.993896 180.0
1441.043823 196.0
1441.142456 164.0
1441.322632 164.0
1441.386719 132.0
1441.496948 176.0
1441.587524 136.0
1441.67395 176.0
1441.741943 100.0
1441.893066 72.0
1442.010864 208.0
1442.107178 136.0
1442.354126 204.0
1442.412842 144.0
1442.475098 124.0
1442.625366 180.0
1442.726807 264.0
1442.819824 176.0
1442.958374 172.0
1443.087524 36.0
1443.140503 180.0
1443.215698 196.0
1443.352173 196.0
1443.437378 208.0
1443.518555 176.0
1443.590332 212.0
1443.777344 400.0
1443.861328 176.0
1444.0177 124.0
1444.078125 52.0
1444.138062 180.0
1444.167236 164.0
1444.308716 136.0
1444.373169 176.0
1444.547119 144.0
1444.60498 208.0
1444.721191 100.0
1444.979736 156.0
1445.187378 400.0
1445.259521 156.0
1445.345947 184.0
1445.409668 256.0
1445.465454 196.0
1445.602905 260.0
1445.735107 88.0
1445.803223 88.0
1445.968262 188.0
1446.09082 124.0
1446.161255 168.0
1446.241577 148.0
1446.440918 144.0
1446.581787 172.0
1446.74939 328.0
1446.802368 52.0
1446.874268 224.0
1446.976807 172.0
1447.150635 88.0
1447.203613 132.0
1447.362671 180.0
1447.529297 124.0
1447.586914 132.0
1447.629639 108.0
1447.707764 268.0
1447.789551 108.0
1447.897827 200.0
1447.942749 332.0
1448.150513 120.0
1448.237549 112.0
1448.293335 100.0
1448.526367 212.0
1448.63147 76.0
1448.847168 168.0
1449.056763 164.0
1449.146851 144.0
1449.263916 132.0
1449.34729 128.0
1449.407959 156.0
1449.544312 96.0
1449.636597 172.0
1449.790894 156.0
1449.885376 36.0
1449.961182 204.0
1450.077881 108.0
1450.181152 180.0
1450.241577 136.0
1450.320679 128.0
1450.38562 116.0
1450.484131 192.0
1450.5448 96.0
1450.61792 224.0
1450.763916 192.0
1450.91626 188.0
1450.997559 176.0
1451.126587 64.0
1451.285645 112.0
1451.371216 92.0
1451.443604 296.0
1451.553223 360.0
1451.633179 220.0
1451.826172 152.0
1451.909546 148.0
1451.962646 60.0
1452.046143 120.0
1452.227051 160.0
1452.56189 168.0
1452.725342 160.0
1452.804688 224.0
1452.963989 92.0
1453.095703 180.0
1453.187988 224.0
1453.312988 160.0
1453.442017 176.0
1453.540649 148.0
1453.833374 176.0
1453.972046 156.0
1454.064331 160.0
1454.117432 168.0
1454.195557 92.0
1454.276123 128.0
1454.352661 148.0
1454.411865 160.0
1454.482544 184.0
1454.633545 148.0
1454.701904 136.0
1454.770264 128.0
1454.928101 136.0
1455.073853 148.0
1455.289307 184.0
1455.449951 148.0
1455.588135 164.0
1455.615479 100.0
1455.717651 200.0
1455.913818 124.0
1455.99939 280.0
1456.263916 152.0
1456.397827 156.0
1456.465332 112.0
1456.531982 56.0
1456.60791 36.0
1456.685425 256.0
1456.869263 280.0
1456.980225 268.0
1457.056152 192.0
1457.122192 268.0
1457.134644 184.0
1457.253784 140.0
1457.436035 324.0
1457.553345 176.0
1457.585327 156.0
1457.605835 120.0
1457.808472 88.0
1457.875122 208.0
1457.984985 108.0
1458.161255 192.0
1458.287231 200.0
1458.358032 168.0
1458.491943 172.0
1458.6521 192.0
1458.728149 76.0
1458.842041 200.0
1459.024658 140.0
1459.340698 304.0
1459.420044 196.0
1459.556885 316.0
1459.649658 180.0
1459.723145 152.0
1459.77417 208.0
1459.985107 192.0
1460.134399 160.0
1460.235596 216.0
1460.267578 204.0
1460.378174 116.0
1460.507568 212.0
1460.606445 148.0
1460.729736 168.0
1460.796631 76.0
1460.857422 156.0
1460.910645 164.0
1461.001953 200.0
1461.062988 300.0
1461.121094 156.0
1461.153931 120.0
1461.18042 216.0
1461.351929 132.0
1461.412842 136.0
1461.5802 148.0
1461.732422 96.0
1461.797119 228.0
1461.895996 112.0
1462.029297 228.0
1462.105347 136.0
1462.287964 176.0
1462.353394 184.0
1462.455444 72.0
1462.569458 140.0
1462.591797 136.0
1462.613281 176.0
1462.784424 180.0
1462.906982 112.0
1462.968262 176.0
1463.077515 140.0
1463.155762 112.0
1463.209106 84.0
1463.338501 52.0
1463.47876 164.0
1463.494385 68.0
1463.540161 168.0
1463.73938 188.0
1463.917236 88.0
1463.98584 84.0
1464.039917 448.0
1464.135864 188.0
1464.168579 92.0
1464.311035 164.0
1464.330933 116.0
1464.417603 92.0
1464.523804 168.0
1464.674683 136.0
1464.785522 340.0
1464.846436 132.0
1464.964355 128.0
1465.061157 176.0
1465.234985 140.0
1465.378174 208.0
1465.418945 192.0
1465.521606 264.0
1465.608032 252.0
1465.634033 240.0
1465.753174 116.0
1465.945801 160.0
1466.019897 140.0
1466.102417 72.0
1466.150879 108.0
1466.256104 96.0
1466.332397 116.0
1466.454346 156.0
1466.639038 132.0
1466.751587 28.0
1466.921631 192.0
1467.019409 124.0
1467.094604 232.0
1467.269775 172.0
1467.373901 372.0
1467.483398 144.0
1467.552124 180.0
1467.622437 176.0
1467.7948 200.0
1467.851318 100.0
1467.947876 188.0
1467.960938 180.0
1467.990234 120.0
1468.203979 132.0
1468.288818 84.0
1468.404053 152.0
1468.537231 132.0
1468.649658 96.0
1468.894409 60.0
1468.947754 156.0
1469.149536 124.0
1469.237427 108.0
1469.401245 144.0
1469.601196 160.0
1469.753662 172.0
1469.863281 136.0
1469.947632 148.0
1469.965698 152.0
1469.995239 212.0
1470.056641 168.0
1470.122925 200.0
1470.206787 112.0
1470.283081 156.0
1470.347412 152.0
1470.428101 80.0
1470.504395 156.0
1470.612671 196.0
1470.644409 104.0
1470.751221 96.0
1470.8479 88.0
1470.908936 124.0
1471.023438 176.0
1471.176147 96.0
1471.275391 164.0
1471.38916 204.0
1471.546875 192.0
1471.677246 152.0
1471.756348 148.0
1471.813477 256.0
1471.883545 380.0
1471.985474 172.0
1472.060913 208.0
1472.204712 136.0
1472.298584 116.0
1472.416382 308.0
1472.573486 220.0
1472.718628 96.0
1472.820801 152.0
1473.056396 148.0
1473.148926 448.0
1473.327759 176.0
1473.532104 420.0
1473.658325 116.0
1473.749268 120.0
1473.801514 404.0
1473.923584 172.0
1474.279907 172.0
1474.399536 168.0
1474.468384 192.0
1474.534058 152.0
1474.647949 248.0
1474.766479 212.0
1474.841919 172.0
1474.954712 192.0
1475.041626 128.0
1475.146973 152.0
1475.160889 120.0
1475.197998 104.0
1475.228027 168.0
1475.440186 124.0
1475.530396 140.0
1475.599731 144.0
1475.671021 220.0
1475.767944 188.0
1475.897949 240.0
1476.226685 180.0
1476.349121 100.0
1476.537598 340.0
1476.611938 132.0
1476.664795 168.0
1476.783691 148.0
1476.816162 268.0
1476.925903 172.0
1477.031494 268.0
1477.10498 164.0
1477.289917 140.0
1477.366455 96.0
1477.443115 184.0
1477.547607 176.0
1477.640015 224.0
1477.83313 116.0
1477.901978 100.0
1478.192017 244.0
1478.290039 172.0
1478.491211 68.0
1478.643677 200.0
1478.796875 184.0
1478.97168 184.0
1479.088257 156.0
1479.191284 184.0
1479.250732 272.0
1479.319702 152.0
1479.388916 184.0
1479.463379 192.0
1479.516968 156.0
1479.570557 180.0
1479.697754 168.0
1479.716553 148.0
1479.819702 148.0
1480.110474 144.0
1480.206055 148.0
1480.267334 188.0
1480.366699 176.0
1480.466431 156.0
1480.52771 136.0
1480.642578 256.0
1480.75 140.0
1480.872314 104.0
1480.979614 48.0
1481.076782 220.0
1481.20166 304.0
1481.30896 48.0
1481.37793 268.0
1481.658203 168.0
1481.753296 200.0
1481.811401 180.0
1481.844604 104.0
1481.863647 172.0
1481.950195 228.0
1482.052124 128.0
1482.148071 204.0
1482.16626 108.0
1482.193359 192.0
1482.259033 232.0
1482.442871 128.0
1482.543701 164.0
1482.773193 160.0
1482.864502 260.0
1482.924438 92.0
1483.006226 124.0
1483.07959 168.0
1483.171021 72.0
1483.270752 216.0
1483.401001 96.0
1483.481445 156.0
1483.531372 244.0
1483.695312 136.0
1483.763916 216.0
1483.968384 80.0
1484.083374 136.0
1484.176758 180.0
1484.25769 164.0
1484.302734 124.0
1484.459351 188.0
1484.528076 84.0
1484.636719 244.0
1484.804199 176.0
1484.903931 188.0
1484.965332 204.0
1485.088013 132.0
1485.256714 200.0
1485.348755 140.0
1485.421021 232.0
1485.520264 232.0
1485.58313 156.0
1485.732422 152.0
1485.809082 188.0
1485.915039 172.0
1486.005981 176.0
1486.117188 104.0
1486.269409 104.0
1486.342896 148.0
1486.47583 184.0
1486.648682 380.0
1486.814331 208.0
1486.914551 132.0
1486.976562 176.0
1487.075317 200.0
1487.167358 164.0
1487.23645 192.0
1487.297852 192.0
1487.367676 128.0
1487.466797 92.0
1487.556152 292.0
1487.623901 260.0
1487.67688 196.0
1487.731079 168.0
1487.881348 72.0
1488.006348 200.0
1488.169312 148.0
1488.26709 244.0
1488.349609 244.0
1488.407715 100.0
1488.467651 112.0
1488.549316 160.0
1488.64917 68.0
1488.840454 228.0
1488.994751 136.0
1489.171387 76.0
1489.309692 196.0
1489.447876 144.0
1489.630371 144.0
1489.722778 176.0
1489.824341 132.0
1489.990356 180.0
1490.101685 132.0
1490.162354 140.0
1490.27771 168.0
1490.352905 168.0
1490.502686 108.0
1490.622803 140.0
1490.861694 140.0
1490.997803 112.0
1491.074463 132.0
1491.25 168.0
1491.315186 88.0
1491.445801 148.0
1491.499634 96.0
1491.553467 76.0
1491.776611 232.0
1491.893555 144.0
1492.03772 156.0
1492.099243 120.0
1492.168457 160.0
1492.245361 108.0
1492.416626 204.0
1492.525024 188.0
1492.652832 252.0
1492.933228 128.0
1493.025513 320.0
1493.197876 124.0
1493.355957 184.0
1493.421997 268.0
1493.575806 164.0
1493.65564 160.0
1493.723999 244.0
1493.795654 252.0
1493.874634 132.0
1494.078125 132.0
1494.191162 104.0
1494.331665 144.0
1494.421997 208.0
1494.550537 184.0
1494.603149 156.0
1494.698853 128.0
1494.75061 124.0
1494.90686 160.0
1495.141968 124.0
1495.194702 148.0
1495.283936 56.0
1495.407104 208.0
1495.474243 144.0
1495.641479 376.0
1495.723145 180.0
1495.901611 184.0
1496.015259 92.0
1496.113281 140.0
1496.220215 224.0
1496.397217 160.0
1496.523315 96.0
1496.588257 144.0
1496.646484 160.0
1496.747559 232.0
1496.844849 132.0
1497.06189 124.0
1497.083862 172.0
1497.184814 148.0
1497.262573 156.0
1497.366699 124.0
1497.598389 156.0
1497.717041 68.0
1497.824829 112.0
1497.921875 176.0
1497.988403 352.0
1498.140503 112.0
1498.174438 152.0
1498.30249 140.0
1498.386841 148.0
1498.462158 144.0
1498.564453 120.0
1498.681152 136.0
1498.807373 132.0
1499.072998 140.0
1499.224365 156.0
1499.247681 108.0
1499.352783 156.0
1499.458374 124.0
1499.526733 60.0
1499.604858 392.0
1499.782227 180.0
1499.862061 220.0
1499.964233 160.0
1500.072754 248.0
1500.376709 120.0
1500.484253 148.0
1500.71582 144.0
1500.779053 76.0
1500.842285 112.0
1501.004395 164.0
1501.069702 136.0
1501.123047 100.0
1501.216187 72.0
1501.316406 128.0
1501.378174 144.0
1501.446899 184.0
1501.468872 160.0
1501.498291 164.0
1501.550537 144.0
1501.608276 192.0
1501.752686 184.0
1501.808838 132.0
1501.943726 180.0
1502.118652 164.0
1502.172607 148.0
1502.264648 172.0
1502.404053 196.0
1502.552612 124.0
1502.650879 116.0
1502.965454 192.0
1503.022339 176.0
1503.106201 164.0
1503.160156 108.0
1503.282104 136.0
1503.443604 164.0
1503.620483 272.0
1503.67749 264.0
1503.740601 160.0
1503.819458 140.0
1503.880127 188.0
1503.978271 128.0
1504.088501 160.0
1504.24353 256.0
1504.296631 260.0
1504.47229 164.0
1504.546997 132.0
1504.634521 212.0
1504.722656 200.0
1504.826538 96.0
1504.910156 136.0
1504.999878 224.0
1505.108643 168.0
1505.242065 164.0
1505.302246 216.0
1505.392334 156.0
