>compound MLS001076545-01!TRICHLOROMETHIAZIDE
>formula C8H8Cl3N3O4S2
>ionization [M+H]+
>parentmass 379.9094572280905
#inchi InChI=1S/C8H8Cl3N3O4S2/c9-3-1-4-6(2-5(3)19(12,15)16)20(17,18)14-8(13-4)7(10)11/h1-2,7-8,13-14H,(H2,12,15,16)
#inchikey LMJSLTNSBFUCMU
#Ion_Source LC-ESI
#Instrument qTof
#Compound_Source NIH Pharmacologically Active Library
#PI Dorrestein
#Data_Collector VP/LMS
#Scan -1
#Precursor_MZ 379.916
#ExactMass 378.902
#Charge 1
#CAS_Number N/A
#Pubmed_ID N/A
#Smiles NS(=O)(=O)c1cc2c(NC(NS2(=O)=O)C(Cl)Cl)cc1Cl
#INCHI_AUX N/A
#Library_Class 1
#SpectrumID CCMSLIB00000085576
#IonMode Positive
#UpdateWorkflowName UPDATE-SINGLE-ANNOTATED-GOLD
#LibraryQualityString Gold
#TaskID d252d724072548979f1f6f1ced849daf
##Scan# 1597
#SpectrumFile p4-C09_GC9_01_18357.mzXML
#LibraryName Pharm_Active_Library.mgf
#MQScore -1
#Organism Pharm_Active_Library
#TIC_Query 0
#RT_Query -1
#MZErrorPPM -1
#SharedPeaks 0
#MassDiff 0
#LibMZ -1
#SpecMZ 379.916
#SpecCharge 0
#internalFilename spec-00000.mgf

>collision 10
46.015282 104.0
46.404934 40.0
46.60717 156.0
46.989761 200.0
47.763771 108.0
48.431839 148.0
51.767296 220.0
51.946453 44.0
53.389381 216.0
53.581516 132.0
53.594627 180.0
55.372169 188.0
55.594543 136.0
55.83075 196.0
56.608242 176.0
56.734097 152.0
56.78508 144.0
57.392616 116.0
60.152634 184.0
60.44783 212.0
61.087044 64.0
61.678032 160.0
62.028656 108.0
62.627319 200.0
64.462921 156.0
69.472 136.0
72.36985 252.0
73.322815 160.0
73.334747 68.0
73.821304 156.0
74.99733 156.0
75.292358 224.0
75.458237 128.0
79.984703 216.0
83.57885 164.0
84.207771 144.0
86.408134 112.0
86.925087 104.0
89.322136 188.0
90.036469 192.0
91.60125 168.0
92.999001 76.0
93.041229 192.0
93.166054 268.0
93.62191 116.0
94.990311 148.0
95.04464 128.0
95.97438 140.0
97.375526 92.0
97.926216 68.0
98.577248 192.0
98.982635 192.0
99.663109 84.0
99.808205 140.0
100.307915 236.0
101.359154 196.0
102.009407 144.0
102.936188 120.0
102.950325 188.0
103.021011 252.0
103.990929 164.0
104.951103 180.0
105.022484 44.0
105.057159 148.0
105.189804 140.0
106.950562 180.0
107.010262 164.0
107.990715 336.0
108.004936 140.0
110.978813 140.0
111.867485 160.0
111.972527 668.0
111.99324 144.0
112.833687 148.0
112.996536 272.0
113.842262 184.0
113.973083 892.0
113.995636 120.0
114.01123 208.0
114.497261 84.0
114.608032 152.0
115.984306 176.0
116.010033 132.0
116.037903 184.0
117.017601 140.0
117.044853 316.0
117.207138 96.0
117.237305 92.0
117.547836 200.0
118.336769 56.0
118.809227 208.0
119.106621 156.0
119.173965 212.0
120.874718 204.0
120.938187 212.0
121.038887 156.0
123.994347 324.0
124.061745 40.0
124.614349 84.0
125.001663 1212.0
125.074677 184.0
125.91301 80.0
126.005135 148.0
126.031403 76.0
126.169968 176.0
126.37796 84.0
127.00351 524.0
127.025406 148.0
127.299225 40.0
129.018982 116.0
130.003632 156.0
130.02179 204.0
130.953934 108.0
130.998856 188.0
131.747726 160.0
131.889404 208.0
131.963669 196.0
131.98999 232.0
132.301147 56.0
132.972748 176.0
133.043915 104.0
134.937653 136.0
136.13327 56.0
137.488129 108.0
137.815048 216.0
139.011566 144.0
139.232239 80.0
139.511841 140.0
139.989853 2148.0
140.062485 128.0
140.086044 68.0
140.423096 40.0
140.696823 68.0
140.892822 116.0
140.994431 136.0
141.31366 120.0
141.949356 228.0
141.98938 900.0
142.285355 128.0
142.959091 232.0
143.113068 144.0
143.155594 104.0
143.9664 148.0
143.999832 92.0
144.966339 140.0
145.626068 56.0
147.971252 452.0
147.999023 148.0
148.575836 180.0
153.004242 204.0
155.003555 152.0
155.983551 632.0
156.961197 336.0
156.983551 108.0
157.01709 384.0
157.183121 80.0
157.998642 168.0
158.959747 192.0
159.027512 128.0
159.963074 228.0
160.005341 100.0
160.950821 204.0
161.6586 56.0
161.704147 216.0
161.970001 176.0
162.540421 176.0
163.002563 112.0
163.854935 192.0
163.875305 32.0
163.967041 144.0
164.000183 132.0
165.019272 284.0
165.932739 208.0
166.004532 156.0
166.808136 180.0
167.020569 180.0
167.966873 128.0
168.007187 140.0
168.989883 116.0
169.632141 160.0
169.945435 204.0
170.423691 128.0
171.071259 168.0
171.235306 184.0
171.952271 128.0
171.970535 168.0
172.176788 192.0
172.979477 192.0
173.005646 156.0
173.962479 140.0
174.009674 160.0
174.303909 148.0
174.811417 208.0
174.979874 136.0
176.769424 120.0
177.542953 136.0
178.97789 212.0
179.089737 144.0
181.009735 404.0
181.956375 196.0
181.999329 112.0
182.964706 296.0
183.018372 148.0
183.630096 172.0
183.972061 1096.0
184.007874 64.0
184.958817 140.0
184.977692 376.0
185.065018 40.0
185.870026 184.0
185.929733 148.0
185.96283 428.0
185.989441 204.0
186.983597 128.0
187.954224 120.0
188.404816 132.0
188.844894 104.0
188.964035 128.0
188.995361 160.0
189.959717 168.0
190.582916 184.0
191.498962 156.0
191.763458 208.0
194.257538 120.0
194.335205 144.0
194.837723 128.0
196.728638 120.0
198.973831 160.0
199.965668 368.0
199.991806 272.0
200.154709 40.0
200.97905 196.0
201.452057 96.0
201.964264 156.0
201.971069 144.0
202.509949 96.0
202.682755 228.0
202.739441 156.0
202.972656 164.0
202.989273 188.0
203.950607 568.0
204.05365 100.0
204.224274 44.0
204.48317 36.0
204.548645 176.0
204.597031 36.0
204.955902 152.0
204.979233 456.0
205.947983 208.0
205.988647 140.0
206.008652 124.0
206.088638 68.0
206.297272 112.0
206.777802 152.0
206.953995 224.0
206.984207 276.0
208.291687 152.0
211.972214 372.0
213.972961 164.0
215.379837 36.0
215.973404 1064.0
216.951218 76.0
216.981216 240.0
217.493881 52.0
217.625702 80.0
217.772812 176.0
217.930878 160.0
217.978973 232.0
218.125412 80.0
218.184204 88.0
218.210663 56.0
218.6931 136.0
218.936905 612.0
219.706757 68.0
219.930939 480.0
220.937775 448.0
220.977814 316.0
221.080688 40.0
221.10733 44.0
221.213882 92.0
221.290848 40.0
221.320465 64.0
221.373764 48.0
221.441879 112.0
221.649246 40.0
221.927856 208.0
222.417343 104.0
222.935562 116.0
222.9776 184.0
224.011169 188.0
224.514877 60.0
231.966431 312.0
232.748306 112.0
232.985199 112.0
233.973572 352.0
234.42131 60.0
234.936584 152.0
235.941315 108.0
236.510284 176.0
238.783798 128.0
241.256729 52.0
243.158569 108.0
243.639862 92.0
245.922333 148.0
247.075378 160.0
247.842453 52.0
247.930817 348.0
247.964752 3096.0
248.500885 104.0
248.773911 44.0
248.930893 156.0
248.967651 516.0
249.609634 104.0
249.930466 140.0
249.96492 336.0
250.005005 192.0
250.964294 248.0
251.95459 200.0
252.936249 140.0
263.947449 1016.0
264.960327 160.0
265.949341 144.0
265.972076 180.0
267.939453 108.0
267.968781 40.0
270.735443 96.0
270.98764 76.0
272.037109 88.0
272.937286 116.0
274.112396 172.0
279.93927 116.0
281.890717 136.0
281.950867 156.0
283.372986 64.0
283.912659 188.0
286.932129 160.0
287.961304 152.0
288.775848 144.0
289.852386 52.0
291.124451 84.0
297.962708 132.0
298.9151 184.0
300.907318 96.0
302.895782 120.0
313.274323 120.0
314.916565 604.0
315.041687 160.0
315.919891 180.0
316.909546 432.0
317.927368 164.0
322.925781 80.0
331.222351 168.0
361.10611 144.0
362.901062 140.0
370.228699 60.0
384.916229 140.0
555.15509 120.0
756.983704 92.0
823.001465 132.0
836.284058 100.0
841.783936 32.0
917.495056 140.0
1028.11438 136.0
1032.420166 172.0
1083.513184 188.0
1237.465454 108.0
1237.724609 116.0
1269.420288 128.0
1297.864624 184.0
1309.14624 120.0
1312.46814 136.0
1334.043091 124.0
1350.778687 124.0
1354.189575 156.0
1371.632812 208.0
1387.889893 112.0
1427.909668 144.0
1435.259399 208.0
1447.121948 128.0
1476.058716 200.0
1480.267334 124.0
1495.08313 128.0
