>compound Zolmitriptan
>formula C16H21N3O2
>ionization [M+H]+
>parentmass 288.1706533640905
#inchi InChI=1S/C16H21N3O2/c1-19(2)6-5-12-9-17-15-4-3-11(8-14(12)15)7-13-10-21-16(20)18-13/h3-4,8-9,13,17H,5-7,10H2,1-2H3,(H,18,20)/t13-/m0/s1
#inchikey ULSDMUVEXKOYBU
#Ion_Source LC-ESI
#Instrument qTof
#Compound_Source Commercial
#PI Dorrestein
#Data_Collector Garg_Neha
#Scan -1
#Precursor_MZ 288.171
#ExactMass 287.163
#Charge 1
#CAS_Number N/A
#Pubmed_ID N/A
#Smiles CN(C)CCc1c[nH]c2ccc(C[C@H]3COC(=O)N3)cc12
#INCHI_AUX N/A
#Library_Class 1
#SpectrumID CCMSLIB00000079083
#IonMode Positive
#UpdateWorkflowName UPDATE-SINGLE-ANNOTATED-GOLD
#LibraryQualityString Gold
#TaskID 278b19f5865741e282cec7349aa7e7a1
##Scan# 1010
#SpectrumFile NCP003432_E2_F11_BD2_01_15724.mzXML
#LibraryName NIHcollectionI_05062014.mgf
#MQScore -1
#Organism NIHcollectionI_05062014
#TIC_Query 0
#RT_Query -1
#MZErrorPPM -1
#SharedPeaks 0
#MassDiff 0
#LibMZ -1
#SpecMZ 288.171
#SpecCharge 0
#internalFilename spec-00000.mgf

>collision 10
45.879509 188.0
46.19957 184.0
46.566914 148.0
47.279953 172.0
48.282887 204.0
48.794556 152.0
48.925331 212.0
49.301933 172.0
50.505455 204.0
51.467579 176.0
52.175362 160.0
52.240074 200.0
52.689865 144.0
54.182571 160.0
55.309124 188.0
55.396488 180.0
55.779339 208.0
56.932796 224.0
57.366123 160.0
58.497726 152.0
59.301174 140.0
60.487209 164.0
60.544495 152.0
62.489502 176.0
63.220081 144.0
63.721142 164.0
65.069115 144.0
67.026253 152.0
67.063736 172.0
67.138733 164.0
68.36248 144.0
69.713554 156.0
71.688255 148.0
72.49942 160.0
72.9645 172.0
73.236771 164.0
73.332184 148.0
74.753281 156.0
75.86248 148.0
76.928856 168.0
77.115753 204.0
77.549736 168.0
77.87265 200.0
78.197914 152.0
80.030128 140.0
80.862 156.0
81.878166 144.0
82.408501 164.0
83.90036 164.0
84.990417 160.0
85.984123 164.0
86.483147 160.0
86.516464 196.0
87.697319 204.0
88.343948 144.0
88.695992 156.0
88.915436 184.0
89.236649 176.0
90.406136 160.0
90.508354 148.0
92.142166 240.0
92.237717 240.0
92.316101 144.0
92.875336 208.0
93.761681 144.0
94.275017 188.0
94.946777 156.0
96.133469 192.0
99.443802 160.0
99.505341 172.0
101.284157 140.0
102.135223 140.0
102.830345 144.0
103.109055 192.0
103.647339 172.0
104.178658 168.0
105.072617 176.0
105.947609 152.0
106.417267 140.0
107.029686 164.0
108.043373 252.0
108.225502 176.0
108.389137 156.0
109.30069 144.0
110.47113 172.0
110.772568 164.0
112.60672 176.0
112.714462 192.0
114.496391 140.0
114.971893 192.0
115.240852 176.0
116.616623 152.0
117.01458 168.0
117.057907 556.0
117.732613 172.0
117.853577 188.0
118.007034 164.0
118.669556 164.0
119.729965 172.0
120.213921 164.0
120.572067 188.0
120.808212 172.0
121.193535 140.0
121.85614 164.0
122.465485 148.0
122.904427 156.0
124.477989 156.0
125.343285 148.0
127.071648 288.0
128.067993 236.0
128.684937 164.0
129.070282 308.0
129.381714 168.0
130.075394 196.0
131.491119 256.0
131.580139 144.0
131.806259 152.0
132.043671 136.0
132.206436 160.0
132.485779 144.0
133.380722 176.0
134.00206 140.0
134.04686 1448.0
134.340958 168.0
134.677963 152.0
134.774994 140.0
134.888229 208.0
134.952957 180.0
135.053864 552.0
135.29538 188.0
136.111496 208.0
137.600189 156.0
137.879593 180.0
138.047913 168.0
138.86055 200.0
138.954376 240.0
139.057632 148.0
139.965042 168.0
140.669968 216.0
140.887222 152.0
140.932114 180.0
140.953384 156.0
141.074265 168.0
141.468979 160.0
141.781631 156.0
142.061417 164.0
143.072952 244.0
143.314316 236.0
144.247452 216.0
145.252777 128.0
146.079483 236.0
146.399597 244.0
146.433319 224.0
146.732117 144.0
147.11087 176.0
147.267822 152.0
147.627914 300.0
148.696289 140.0
148.734116 144.0
149.608185 124.0
151.294693 196.0
152.059097 456.0
152.201843 216.0
153.070053 240.0
153.254578 200.0
153.953873 120.0
154.066971 1200.0
154.128036 180.0
154.743912 156.0
155.084961 1708.0
155.269226 140.0
155.703537 212.0
155.961929 180.0
156.08252 3956.0
156.780746 156.0
157.087875 1912.0
157.142319 152.0
158.092957 192.0
158.755676 168.0
158.938797 208.0
159.053177 124.0
159.099426 168.0
160.080002 144.0
161.26825 144.0
161.450272 264.0
161.847565 148.0
163.047424 192.0
163.556107 144.0
163.894806 180.0
164.282333 188.0
164.777603 144.0
165.071014 2796.0
165.112457 168.0
166.070221 348.0
166.419327 156.0
167.073441 5904.0
167.878296 228.0
167.935043 156.0
168.040802 152.0
168.077484 332.0
168.957962 156.0
169.694275 196.0
169.823135 172.0
169.913925 196.0
170.023331 12972.0
170.091553 196.0
170.168274 164.0
170.482559 160.0
170.621704 120.0
170.893402 268.0
171.025665 972.0
171.092163 140.0
172.019745 9756.0
172.281342 140.0
172.370422 164.0
173.019501 152.0
173.568054 152.0
173.979965 160.0
174.09024 140.0
174.416031 248.0
174.621109 180.0
175.738037 200.0
175.991409 164.0
176.207993 176.0
178.197693 152.0
178.843887 152.0
179.075531 164.0
180.082413 584.0
180.460495 156.0
181.088181 784.0
181.169708 216.0
181.566406 224.0
181.620041 172.0
181.64151 144.0
181.758286 144.0
181.976959 148.0
182.097488 27656.0
182.16803 140.0
182.192368 288.0
182.665283 152.0
182.716049 140.0
183.100204 3444.0
183.168304 144.0
183.410812 160.0
183.904404 156.0
184.074524 264.0
184.104599 364.0
184.187683 96.0
184.270279 112.0
184.582489 148.0
187.784286 172.0
189.44072 184.0
189.807968 180.0
191.159454 196.0
191.236511 148.0
191.489807 168.0
192.372147 160.0
192.932938 140.0
193.079483 180.0
193.511154 156.0
193.840759 168.0
193.868469 148.0
194.622086 152.0
195.078598 180.0
195.289917 172.0
195.757462 204.0
196.069473 152.0
196.92598 164.0
197.034927 168.0
197.082428 152.0
197.106857 504.0
197.935532 192.0
198.095078 336.0
199.123627 616.0
201.160309 244.0
203.856613 172.0
204.111908 188.0
204.155106 184.0
206.831284 160.0
207.090363 320.0
207.398407 148.0
207.447281 172.0
208.187393 152.0
208.313766 148.0
209.449982 164.0
210.392929 196.0
211.092148 168.0
212.819107 148.0
213.310074 232.0
213.708496 140.0
214.564758 180.0
215.057739 168.0
217.097549 152.0
219.213455 160.0
219.449249 148.0
220.213547 164.0
221.402115 152.0
223.188843 160.0
223.40892 148.0
225.103363 536.0
227.001999 200.0
227.091965 160.0
228.117416 180.0
228.600098 220.0
229.365082 144.0
231.177185 168.0
232.841522 148.0
234.140121 168.0
234.517914 268.0
234.793152 116.0
235.475784 164.0
236.133026 176.0
236.886002 156.0
237.134186 172.0
239.22287 152.0
240.218216 148.0
242.974564 164.0
243.018005 144.0
243.058334 196.0
243.113297 19100.0
243.262024 116.0
243.312851 140.0
243.586121 180.0
243.617706 144.0
243.674454 148.0
243.983887 172.0
244.117157 3108.0
244.279312 148.0
244.839554 264.0
245.11969 564.0
245.166672 152.0
245.44722 140.0
245.507309 280.0
245.805939 116.0
245.887955 120.0
246.808609 152.0
249.071289 140.0
250.583084 168.0
250.991013 152.0
255.192673 164.0
255.940384 148.0
256.705139 168.0
257.471039 160.0
257.769806 304.0
258.033417 188.0
258.654022 152.0
259.02829 172.0
259.054291 144.0
259.40036 164.0
259.454865 156.0
259.506165 140.0
261.343323 144.0
262.470673 144.0
264.059509 160.0
264.292419 148.0
265.886749 200.0
268.345886 160.0
276.111969 188.0
276.753937 148.0
280.124817 148.0
280.621368 144.0
284.910126 172.0
284.947052 236.0
285.301758 216.0
285.516937 140.0
285.701935 152.0
286.070374 1644.0
286.107056 272.0
286.152374 368.0
286.386627 100.0
286.498169 204.0
286.542389 136.0
286.587402 176.0
286.684723 108.0
286.80307 144.0
286.845215 100.0
286.893799 96.0
286.957031 116.0
287.068085 180.0
287.128662 192.0
287.167603 168.0
287.285492 216.0
287.349915 112.0
287.386627 216.0
287.549591 168.0
287.594299 116.0
287.6362 140.0
287.703735 148.0
287.731018 124.0
287.805023 140.0
287.829987 180.0
287.874268 152.0
287.950226 144.0
287.972473 252.0
288.005554 240.0
288.065033 888.0
288.126129 640.0
288.173248 165584.0
288.281799 128.0
288.385681 120.0
288.420197 116.0
288.483215 156.0
288.519318 108.0
288.540985 232.0
288.577728 240.0
288.611481 216.0
288.672211 184.0
288.728119 3548.0
288.768097 224.0
288.898651 128.0
288.920105 224.0
289.023224 128.0
289.082428 180.0
289.131409 176.0
289.174866 37820.0
289.29538 156.0
289.358032 220.0
289.385559 192.0
289.507904 220.0
289.561493 192.0
289.695312 128.0
289.751556 136.0
289.842407 244.0
290.084137 140.0
290.126678 132.0
290.178192 5588.0
290.588531 116.0
290.660156 216.0
290.725647 168.0
290.866516 176.0
290.928711 244.0
291.000092 172.0
291.092316 380.0
291.137634 136.0
291.179047 492.0
291.253021 184.0
291.301331 204.0
291.582916 100.0
292.067535 160.0
292.414032 176.0
292.4935 104.0
294.951263 108.0
301.407166 176.0
309.144318 164.0
461.632721 148.0
467.867004 148.0
840.027466 160.0
914.824219 140.0
1540.437744 148.0
1611.216309 176.0
1638.453003 188.0
1661.834473 160.0
1664.212646 148.0
1690.942383 164.0
1769.46936 140.0
1777.155029 224.0
1782.96582 140.0
1823.558838 224.0
1844.159058 164.0
1849.359375 168.0
1849.479126 216.0
1850.80603 152.0
1870.354004 156.0
1911.759033 164.0
1975.255981 140.0
