>compound MLS001401442-01!d-3-Methoxy-N-methylmorphinan hydrobromide
>formula C18H25NO
>ionization [M+H]+
>parentmass 272.202454
#inchi InChI=1S/C18H25NO/c1-19-10-9-18-8-4-3-5-15(18)17(19)11-13-6-7-14(20-2)12-16(13)18/h6-7,12,15,17H,3-5,8-11H2,1-2H3/t15-,17+,18+/m1/s1
#inchikey MKXZASYAUGDDCJ
#origInchi InChI=1S/C18H25NO.BrH.H2O/c1-19-10-9-18-8-4-3-5-15(18)17(19)11-13-6-7-14(20-2)12-16(13)18;;/h6-7,12,15,17H,3-5,8-11H2,1-2H3;1H;1H2/t15-,17+,18+;;/m1../s1
#Ion_Source LC-ESI
#Instrument qTof
#Compound_Source NIH Pharmacologically Active Library
#PI Dorrestein
#Data_Collector VP/LMS
#Scan -1
#Precursor_MZ 272.204
#ExactMass 271.194
#Charge 1
#CAS_Number N/A
#Pubmed_ID N/A
#Smiles COc1ccc2C[C@H]3[C@H]4CCCC[C@@]4(CCN3C)c2c1.O.Br
#INCHI_AUX N/A
#Library_Class 1
#SpectrumID CCMSLIB00000084759
#IonMode Positive
#UpdateWorkflowName UPDATE-SINGLE-ANNOTATED-GOLD
#LibraryQualityString Gold
#TaskID d252d724072548979f1f6f1ced849daf
##Scan# 1606
#SpectrumFile p3-A04_GA4_01_18226.mzXML
#LibraryName Pharm_Active_Library.mgf
#MQScore -1
#Organism Pharm_Active_Library
#TIC_Query 0
#RT_Query -1
#MZErrorPPM -1
#SharedPeaks 0
#MassDiff 0
#LibMZ -1
#SpecMZ 272.204
#SpecCharge 0
#internalFilename spec-00000.mgf

>collision 10
44.888996 200.0
44.929707 192.0
44.950218 168.0
44.964691 184.0
45.019135 120.0
45.040504 64.0
45.077915 140.0
45.148769 72.0
45.162144 236.0
45.184883 228.0
45.194252 96.0
45.218338 88.0
45.231724 188.0
45.254295 144.0
45.275909 44.0
45.287243 216.0
45.298679 92.0
45.310886 176.0
45.341557 148.0
45.376408 140.0
45.409241 124.0
45.430305 352.0
45.447495 168.0
45.456886 184.0
45.490726 188.0
45.502438 184.0
45.523403 168.0
45.554901 48.0
45.571022 124.0
45.588139 244.0
45.604622 156.0
45.65646 172.0
45.671852 172.0
45.72971 224.0
45.76067 108.0
45.792988 232.0
45.811848 140.0
45.823975 180.0
45.842838 100.0
45.857121 384.0
45.885971 132.0
45.897732 176.0
45.916985 180.0
45.93145 148.0
45.959976 152.0
45.985165 188.0
46.023594 120.0
46.060059 360.0
46.075272 200.0
46.093838 112.0
46.116699 196.0
46.176304 104.0
46.222298 184.0
46.242599 156.0
46.257122 208.0
46.276443 128.0
46.296989 160.0
46.310299 200.0
46.32513 164.0
46.342812 56.0
46.35907 144.0
46.39362 204.0
46.405209 208.0
46.432278 216.0
46.441772 48.0
46.490616 44.0
46.511494 136.0
46.515778 52.0
46.521206 112.0
46.532696 100.0
46.542202 136.0
46.551704 152.0
46.587769 224.0
46.597401 164.0
46.616516 260.0
46.65633 148.0
46.686245 164.0
46.724331 172.0
46.735214 124.0
46.762882 292.0
46.774681 92.0
46.796467 188.0
46.812805 216.0
46.831871 108.0
46.906982 328.0
46.917622 108.0
46.921852 140.0
46.948517 96.0
46.990005 164.0
46.999557 220.0
47.013203 152.0
47.02412 256.0
47.047325 128.0
47.106842 200.0
47.122444 120.0
47.151138 180.0
47.164661 188.0
47.197567 208.0
47.240551 212.0
47.256435 68.0
47.289276 60.0
47.305702 192.0
47.34404 120.0
47.354374 172.0
47.367996 196.0
47.378284 232.0
47.397274 260.0
47.430359 168.0
47.439957 128.0
47.450359 132.0
47.519199 160.0
47.534412 184.0
47.647182 180.0
47.672604 136.0
47.675636 68.0
47.684513 168.0
47.699406 144.0
47.710403 160.0
47.731026 152.0
47.741299 196.0
47.749649 200.0
47.781918 92.0
47.820782 232.0
47.843246 164.0
47.867256 232.0
47.885162 88.0
47.89743 172.0
47.911335 84.0
47.923733 56.0
47.947159 172.0
47.973499 148.0
47.983707 304.0
48.020439 160.0
48.030636 184.0
48.108543 156.0
48.155014 196.0
48.205227 160.0
48.220428 120.0
48.235634 72.0
48.249458 180.0
48.299244 292.0
48.318611 140.0
48.341251 88.0
48.371197 268.0
48.393417 164.0
48.409966 204.0
48.421043 176.0
48.434895 92.0
48.447365 208.0
48.47646 148.0
48.493092 144.0
48.529133 68.0
48.551529 384.0
48.569351 216.0
48.583725 232.0
48.602116 104.0
48.615135 212.0
48.637344 152.0
48.666183 300.0
48.690105 44.0
48.703396 316.0
48.758183 192.0
48.83326 144.0
48.84856 156.0
48.868038 64.0
48.897259 208.0
48.953079 176.0
48.963577 164.0
48.972977 168.0
48.998913 140.0
49.029568 120.0
49.063023 144.0
49.105442 76.0
49.123928 232.0
49.148102 176.0
49.164497 160.0
49.177788 252.0
49.2118 296.0
49.255848 136.0
49.265381 172.0
49.282146 184.0
49.318481 156.0
49.338051 188.0
49.348366 148.0
49.361389 168.0
49.384296 172.0
49.417179 180.0
49.445759 332.0
49.479355 156.0
49.493271 132.0
49.510159 160.0
49.548367 160.0
49.578808 184.0
49.591419 112.0
49.636284 224.0
49.649406 156.0
49.66021 132.0
49.671345 180.0
49.716595 132.0
49.735893 164.0
49.796268 48.0
49.852528 88.0
49.871704 236.0
49.886196 144.0
49.900257 164.0
49.920368 224.0
49.950886 140.0
50.015614 172.0
50.062077 164.0
50.11842 164.0
50.139561 140.0
50.152245 192.0
50.161621 180.0
50.167248 56.0
50.172115 248.0
50.235439 172.0
50.248138 128.0
50.272125 208.0
50.282005 184.0
50.291885 184.0
50.317295 144.0
50.338474 188.0
50.387913 216.0
50.42556 56.0
50.476959 148.0
50.489685 160.0
50.51326 252.0
50.529049 208.0
50.534492 172.0
50.540462 152.0
50.581654 80.0
50.593689 152.0
50.604652 360.0
50.634045 156.0
50.653915 140.0
50.672291 128.0
50.733353 364.0
50.745991 156.0
50.765133 132.0
50.798637 196.0
50.813622 176.0
50.832516 144.0
50.858063 152.0
50.875053 128.0
50.916275 156.0
50.936161 152.0
50.948944 200.0
50.977261 168.0
51.00082 176.0
51.011227 160.0
51.028534 116.0
51.073597 128.0
51.152233 156.0
51.190746 184.0
51.212109 184.0
51.236328 204.0
51.257698 164.0
51.268562 192.0
51.279076 188.0
51.328972 76.0
51.338955 172.0
51.360348 124.0
51.38623 140.0
51.413139 140.0
51.443111 144.0
51.481506 180.0
51.486053 160.0
51.489044 192.0
51.530231 172.0
51.545948 168.0
51.598152 176.0
51.618851 104.0
51.636013 40.0
51.653175 160.0
51.664619 116.0
51.693386 224.0
51.703682 120.0
51.744766 156.0
51.757652 124.0
51.779133 168.0
51.848095 128.0
51.866535 136.0
51.937996 172.0
51.950504 180.0
51.976589 168.0
51.994186 176.0
52.017151 184.0
52.036533 188.0
52.05212 56.0
52.065971 172.0
52.097111 196.0
52.12056 192.0
52.137188 224.0
52.160801 72.0
52.170864 244.0
52.185238 208.0
52.202496 120.0
52.279091 180.0
52.290154 172.0
52.309036 160.0
52.32336 144.0
52.337719 148.0
52.347458 152.0
52.368 192.0
52.396812 128.0
52.423965 208.0
52.446365 372.0
52.471531 128.0
52.506218 240.0
52.551083 92.0
52.565483 212.0
52.575577 160.0
52.580231 200.0
52.603035 136.0
52.640575 160.0
52.660793 220.0
52.686794 152.0
52.718719 176.0
52.739582 144.0
52.754719 224.0
52.772068 184.0
52.78508 128.0
52.805328 184.0
52.844387 404.0
52.866093 116.0
52.880562 96.0
52.890694 220.0
52.908066 152.0
52.922791 212.0
52.966381 164.0
52.99062 216.0
53.01347 52.0
53.047318 260.0
53.093975 120.0
53.110943 48.0
53.137054 320.0
53.157368 96.0
53.170429 80.0
53.205471 200.0
53.225857 176.0
53.253189 180.0
53.288486 160.0
53.323383 220.0
53.341824 532.0
53.381771 180.0
53.413074 160.0
53.429077 212.0
53.453812 192.0
53.479809 144.0
53.538975 160.0
53.560093 164.0
53.609631 180.0
53.624596 164.0
53.644146 288.0
53.666481 160.0
53.680332 216.0
53.698521 140.0
53.737949 120.0
53.767136 160.0
53.796284 140.0
53.841591 156.0
53.872265 176.0
53.893787 144.0
53.968109 192.0
53.980423 132.0
54.02116 216.0
54.033424 136.0
54.039356 192.0
54.065296 148.0
54.079052 144.0
54.101864 164.0
54.11504 184.0
54.13554 160.0
54.152962 192.0
54.185341 64.0
54.199993 144.0
54.219044 144.0
54.245426 188.0
54.287018 208.0
54.304276 180.0
54.329018 248.0
54.348091 216.0
54.380375 208.0
54.390652 356.0
54.421478 128.0
54.436314 156.0
54.461323 184.0
54.47435 76.0
54.492558 112.0
54.519901 136.0
54.536068 172.0
54.553707 120.0
54.584583 96.0
54.608196 140.0
54.619881 116.0
54.636063 176.0
54.677261 120.0
54.732857 208.0
54.753819 140.0
54.768837 244.0
54.790646 112.0
54.806149 168.0
54.821587 208.0
54.88055 100.0
54.914467 148.0
54.926659 196.0
54.940018 204.0
54.974957 96.0
55.031086 152.0
55.056152 192.0
55.104897 40.0
55.116718 60.0
55.172344 140.0
55.192104 120.0
55.236744 152.0
55.260338 120.0
55.294941 264.0
55.328224 212.0
55.342648 156.0
55.372997 152.0
55.387459 124.0
55.397827 256.0
55.464508 156.0
55.487442 256.0
55.514133 108.0
55.528683 228.0
55.568375 104.0
55.593544 128.0
55.608383 68.0
55.633617 144.0
55.645496 124.0
55.655891 160.0
55.682323 140.0
55.755417 160.0
55.805962 144.0
55.832726 220.0
55.884792 120.0
55.910088 76.0
55.953716 168.0
55.958054 216.0
55.99197 116.0
56.007435 188.0
56.091801 140.0
56.121616 136.0
56.15144 144.0
56.173817 200.0
56.190159 184.0
56.239471 204.0
56.249771 120.0
56.310707 152.0
56.370941 228.0
56.402283 116.0
56.4207 196.0
56.489014 168.0
56.503971 224.0
56.526417 120.0
56.536892 176.0
56.581799 92.0
56.619232 108.0
56.677654 172.0
56.687611 168.0
56.727112 148.0
56.756451 204.0
56.760979 116.0
56.76498 156.0
56.784092 152.0
56.805717 168.0
56.818592 80.0
56.830597 188.0
56.856106 152.0
56.868114 228.0
56.883125 180.0
56.905643 84.0
56.922161 156.0
56.943184 196.0
56.953697 116.0
56.971935 172.0
56.986748 148.0
57.000271 204.0
57.041317 220.0
57.052197 204.0
57.065628 368.0
57.085957 136.0
57.096481 100.0
57.11002 160.0
57.122807 64.0
57.155151 120.0
57.166775 160.0
57.180401 188.0
57.209232 176.0
57.263542 148.0
57.282291 188.0
57.32531 132.0
57.338875 156.0
57.36396 224.0
57.381081 160.0
57.431149 140.0
57.491196 208.0
57.506287 204.0
57.522732 240.0
57.550064 204.0
57.571205 152.0
57.584797 96.0
57.61578 204.0
57.649761 152.0
57.678478 160.0
57.68906 140.0
57.72081 168.0
57.73291 172.0
57.751686 144.0
57.755974 192.0
57.7798 360.0
57.795818 136.0
57.820656 48.0
57.840332 148.0
57.857414 140.0
57.884911 164.0
57.903923 204.0
57.948196 176.0
57.968479 196.0
57.982708 152.0
57.997864 280.0
58.008472 188.0
58.081261 192.0
58.117817 164.0
58.151054 188.0
58.167751 168.0
58.201153 116.0
58.220894 116.0
58.277493 296.0
58.315002 140.0
58.355537 160.0
58.380726 140.0
58.405064 160.0
58.426785 124.0
58.436108 172.0
58.453911 128.0
58.471745 132.0
58.485443 208.0
58.506756 180.0
58.526546 208.0
58.547867 144.0
58.561573 104.0
58.610172 160.0
58.621239 172.0
58.661076 160.0
58.689606 160.0
58.713036 148.0
58.769451 188.0
58.781948 196.0
58.794842 136.0
58.828423 148.0
58.849796 100.0
58.876945 472.0
58.887974 156.0
58.912415 44.0
58.9575 268.0
58.977318 160.0
59.002579 148.0
59.022457 184.0
59.086006 328.0
59.097404 204.0
59.1483 192.0
59.160091 196.0
59.19305 144.0
59.209518 192.0
59.236725 136.0
59.258835 240.0
59.282688 112.0
59.295082 136.0
59.314873 136.0
59.336334 116.0
59.35627 220.0
59.368538 188.0
59.393078 176.0
59.408417 48.0
59.424393 212.0
59.452911 124.0
59.4744 44.0
59.488216 168.0
59.509708 136.0
59.520458 124.0
59.534279 188.0
59.560387 124.0
59.587013 156.0
59.60033 284.0
59.643364 60.0
59.689484 400.0
59.701786 132.0
59.722225 236.0
59.737652 164.0
59.76178 148.0
59.780243 104.0
59.833866 172.0
59.886475 64.0
59.900814 116.0
59.912239 204.0
59.91441 236.0
59.940563 128.0
59.971218 208.0
59.986629 180.0
60.002048 124.0
60.037327 304.0
60.054478 140.0
60.086872 88.0
60.112873 184.0
60.151688 208.0
60.165581 128.0
60.233528 152.0
60.260048 180.0
60.28973 160.0
60.310787 136.0
60.323154 168.0
60.341705 128.0
60.366447 148.0
60.385006 64.0
60.398926 184.0
60.426769 56.0
60.446884 124.0
60.463383 176.0
60.485577 104.0
60.505875 180.0
60.535122 76.0
60.549679 180.0
60.58149 188.0
60.584404 176.0
60.606258 212.0
60.632313 168.0
60.666821 136.0
60.686974 128.0
60.704033 156.0
60.73151 228.0
60.747559 356.0
60.769714 168.0
60.793148 208.0
60.815735 132.0
60.857578 176.0
60.879623 160.0
60.893368 188.0
60.907345 92.0
60.918221 124.0
60.930649 192.0
60.970531 156.0
60.988144 128.0
60.999027 100.0
61.013016 60.0
61.04076 76.0
61.087296 220.0
61.098553 232.0
61.111 144.0
61.160801 140.0
61.199802 148.0
61.240208 124.0
61.268246 212.0
61.343456 248.0
61.371113 148.0
61.391384 216.0
61.425697 216.0
61.455402 192.0
61.495914 52.0
61.542747 164.0
61.56284 180.0
61.581787 172.0
61.59272 132.0
61.615513 176.0
61.621174 236.0
61.625881 216.0
61.69117 108.0
61.707935 232.0
61.734947 128.0
61.77718 248.0
61.797516 224.0
61.831116 144.0
61.853355 188.0
61.890476 164.0
61.895538 64.0
61.900333 204.0
61.919617 140.0
61.980713 184.0
62.008923 64.0
62.021461 140.0
62.034355 212.0
62.04702 164.0
62.065357 400.0
62.076332 344.0
62.093582 136.0
62.122784 240.0
62.180317 128.0
62.209538 184.0
62.256397 184.0
62.272507 136.0
62.285072 132.0
62.300781 116.0
62.374638 172.0
62.450111 264.0
62.472134 68.0
62.542946 120.0
62.560261 148.0
62.574432 128.0
62.590176 176.0
62.612484 144.0
62.650024 116.0
62.692215 360.0
62.708328 208.0
62.744583 156.0
62.776119 156.0
62.810818 136.0
62.831326 96.0
62.880241 196.0
62.894627 176.0
62.908276 184.0
62.924442 176.0
62.936172 164.0
62.962337 120.0
62.984451 208.0
63.008148 140.0
63.047649 152.0
63.058712 88.0
63.080448 176.0
63.090843 196.0
63.123531 156.0
63.134598 76.0
63.19574 172.0
63.216747 260.0
63.242184 184.0
63.289677 188.0
63.332436 208.0
63.383133 288.0
63.396915 172.0
63.408939 168.0
63.502857 152.0
63.564037 140.0
63.576595 68.0
63.590118 160.0
63.605167 132.0
63.632301 128.0
63.660564 224.0
63.70203 248.0
63.725861 172.0
63.833508 144.0
63.846668 244.0
63.887165 192.0
63.926327 112.0
63.987141 144.0
64.00943 172.0
64.020088 144.0
64.05677 248.0
64.067917 112.0
64.084778 396.0
64.102974 148.0
64.126877 116.0
64.157166 124.0
64.179893 164.0
64.212975 76.0
64.2509 184.0
64.28157 160.0
64.32534 208.0
64.356598 164.0
64.387192 176.0
64.402908 112.0
64.423126 236.0
64.442848 120.0
64.455627 184.0
64.498779 184.0
64.528961 132.0
64.557938 60.0
64.585594 180.0
64.60968 180.0
64.644318 188.0
64.6549 212.0
64.677269 348.0
64.729164 128.0
64.751579 136.0
64.777206 84.0
64.804443 156.0
64.820679 220.0
64.842903 232.0
64.865341 84.0
64.893532 148.0
64.927872 224.0
64.942764 156.0
64.961006 128.0
65.033768 152.0
65.067474 160.0
65.09156 148.0
65.126495 208.0
65.155006 164.0
65.189232 160.0
65.212051 144.0
65.242592 100.0
65.27314 208.0
65.300476 120.0
65.323425 180.0
65.369659 104.0
65.383804 152.0
65.445312 208.0
65.496849 164.0
65.548401 104.0
65.583855 116.0
65.604187 196.0
65.634521 168.0
65.671257 136.0
65.682426 184.0
65.706413 44.0
65.719322 92.0
65.747375 184.0
65.769348 208.0
65.804604 148.0
65.825851 164.0
65.838776 136.0
65.850082 128.0
65.87207 224.0
65.886154 204.0
65.930389 152.0
65.93486 160.0
65.958336 104.0
65.989052 128.0
66.001984 152.0
66.026245 128.0
66.040543 152.0
66.078354 168.0
66.09095 108.0
66.113602 128.0
66.181595 92.0
66.226936 192.0
66.241516 156.0
66.260956 152.0
66.278778 148.0
66.289467 172.0
66.307541 256.0
66.311745 116.0
66.402824 108.0
66.420807 204.0
66.45842 160.0
66.481476 152.0
66.499329 152.0
66.524574 152.0
66.559395 132.0
66.597862 272.0
66.624329 180.0
66.63736 212.0
66.672119 192.0
66.72963 196.0
66.746262 184.0
66.760895 164.0
66.782837 172.0
66.814575 172.0
66.850372 120.0
66.877373 244.0
66.917107 152.0
66.946419 68.0
66.969383 120.0
66.985504 172.0
67.040756 136.0
67.048157 124.0
67.051254 192.0
67.075127 184.0
67.101974 156.0
67.123009 208.0
67.171341 136.0
67.184387 128.0
67.205597 152.0
67.262718 156.0
67.275635 180.0
67.313736 544.0
67.34481 152.0
67.356812 212.0
67.39431 104.0
67.397812 128.0
67.43586 136.0
67.460373 80.0
67.481628 88.0
67.509422 188.0
67.540291 156.0
67.5634 160.0
67.578125 52.0
67.615761 192.0
67.650139 192.0
67.691071 152.0
67.729736 236.0
67.748398 180.0
67.768631 344.0
67.797226 204.0
67.815575 156.0
67.836929 160.0
67.881157 308.0
67.894272 112.0
67.906685 204.0
67.924606 412.0
67.935768 284.0
67.970192 204.0
67.997635 176.0
68.012405 168.0
68.038673 140.0
68.051048 156.0
68.089569 188.0
68.136055 188.0
68.173355 108.0
68.194725 112.0
68.225952 204.0
68.271263 100.0
68.293373 144.0
68.31311 140.0
68.345367 160.0
68.360825 128.0
68.3862 164.0
68.4282 232.0
68.464539 76.0
68.489243 116.0
68.515602 112.0
68.558441 120.0
68.581085 168.0
68.587685 124.0
68.605095 364.0
68.623672 204.0
68.650764 160.0
68.672493 248.0
68.71344 304.0
68.73819 152.0
68.755615 200.0
68.863464 168.0
68.908264 164.0
68.932686 216.0
68.952881 164.0
69.014793 220.0
69.033371 232.0
69.061996 128.0
69.084579 192.0
69.104378 136.0
69.138107 152.0
69.164589 180.0
69.184448 164.0
69.238953 144.0
69.266045 176.0
69.278847 124.0
69.305359 44.0
69.343468 112.0
69.381592 112.0
69.40564 160.0
69.439629 144.0
69.464516 44.0
69.494919 316.0
69.535858 228.0
69.547478 200.0
69.577362 128.0
69.603638 140.0
69.64994 232.0
69.697998 208.0
69.717712 160.0
69.789742 164.0
69.813705 200.0
69.848228 72.0
69.876328 184.0
69.896477 64.0
69.916451 160.0
69.93309 76.0
69.948074 136.0
69.961388 96.0
69.991318 164.0
70.004631 128.0
70.009888 124.0
70.01722 144.0
70.021797 200.0
70.071304 160.0
70.116425 160.0
70.134628 236.0
70.156303 160.0
70.175438 152.0
70.289734 208.0
70.339798 152.0
70.353157 160.0
70.429726 192.0
70.462105 184.0
70.50193 272.0
70.528549 76.0
70.550285 156.0
70.573692 144.0
70.605461 200.0
70.66568 96.0
70.68576 96.0
70.721565 132.0
70.743378 228.0
70.748611 152.0
70.772804 156.0
70.80294 136.0
70.828941 336.0
70.901787 116.0
70.942017 124.0
70.96891 188.0
70.996582 132.0
71.042633 156.0
71.05941 204.0
71.11058 208.0
71.136612 136.0
71.166832 116.0
71.224358 196.0
71.247444 252.0
71.270966 192.0
71.286087 124.0
71.297852 200.0
71.310883 144.0
71.327866 192.0
71.355995 228.0
71.420586 184.0
71.521545 156.0
71.560349 160.0
71.59597 156.0
71.641106 144.0
71.681541 140.0
71.735474 144.0
71.767509 100.0
71.80629 168.0
71.819786 96.0
71.878204 160.0
71.891663 252.0
71.93959 212.0
71.969986 236.0
72.016968 156.0
72.032471 136.0
72.051056 112.0
72.064407 164.0
72.098366 36.0
72.113579 264.0
72.143715 188.0
72.178986 156.0
72.191345 328.0
72.270233 132.0
72.322762 148.0
72.352089 144.0
72.391792 152.0
72.411354 172.0
72.45623 216.0
72.485893 56.0
72.521484 160.0
72.536736 144.0
72.553185 148.0
72.581192 200.0
72.594543 168.0
72.615524 164.0
72.629997 200.0
72.648529 160.0
72.685982 188.0
72.697861 128.0
72.719315 188.0
72.760666 200.0
72.775948 168.0
72.788383 184.0
72.8218 116.0
72.854073 136.0
72.896545 100.0
72.938469 180.0
72.952637 136.0
72.965286 196.0
72.983238 152.0
72.999657 128.0
73.006882 84.0
73.010506 88.0
73.0373 172.0
73.089996 152.0
73.153374 136.0
73.180611 52.0
73.218071 96.0
73.245323 152.0
73.302139 172.0
73.32029 176.0
73.340195 224.0
73.37484 152.0
73.412354 144.0
73.492523 228.0
73.514587 172.0
73.556503 196.0
73.581276 196.0
73.607635 264.0
73.639336 136.0
73.653 156.0
73.668373 124.0
73.695076 144.0
73.719627 184.0
73.765572 204.0
73.79789 164.0
73.808662 144.0
73.833549 144.0
73.869797 188.0
73.914574 160.0
73.988167 204.0
74.011635 136.0
74.052025 136.0
74.106346 132.0
74.126854 136.0
74.129967 132.0
74.141388 124.0
74.209183 52.0
74.230881 160.0
74.255478 160.0
74.277779 140.0
74.301796 176.0
74.32653 128.0
74.344688 180.0
74.389572 188.0
74.404037 208.0
74.442543 204.0
74.471741 124.0
74.51062 252.0
74.549049 136.0
74.576965 164.0
74.64016 128.0
74.672829 164.0
74.698631 136.0
74.720993 112.0
74.737259 176.0
74.754684 132.0
74.787506 160.0
74.851807 184.0
74.936203 200.0
74.956886 180.0
74.973297 336.0
74.991348 148.0
75.017204 128.0
75.049965 180.0
75.093834 172.0
75.10582 124.0
75.131027 72.0
75.211914 160.0
75.227615 136.0
75.281189 160.0
75.322639 124.0
75.339912 260.0
75.371788 196.0
75.41301 224.0
75.431679 120.0
75.473373 236.0
75.509308 128.0
75.522446 216.0
75.566391 296.0
75.59581 144.0
75.609657 96.0
75.64254 116.0
75.697945 176.0
75.722191 216.0
75.73951 132.0
75.771332 172.0
75.790443 348.0
75.822678 136.0
75.852859 232.0
75.867744 164.0
75.940712 196.0
75.971794 256.0
75.991699 152.0
76.029655 104.0
76.055084 124.0
76.070709 152.0
76.102913 240.0
76.136688 184.0
76.168022 196.0
76.181847 184.0
76.222755 272.0
76.27916 124.0
76.296547 196.0
76.310455 84.0
76.341347 180.0
76.373055 140.0
76.404373 180.0
76.479195 48.0
76.494865 372.0
76.540131 196.0
76.557823 172.0
76.635216 220.0
76.689949 172.0
76.702637 172.0
76.716095 180.0
76.756317 172.0
76.807533 120.0
76.843895 244.0
76.863937 240.0
76.948128 228.0
76.966049 164.0
76.9813 200.0
77.017982 196.0
77.031952 148.0
77.065147 192.0
77.11058 160.0
77.156029 120.0
77.184006 184.0
77.217972 160.0
77.249756 236.0
77.26796 208.0
77.294121 168.0
77.353706 108.0
77.367714 204.0
77.402733 84.0
77.430748 76.0
77.469284 176.0
77.488556 208.0
77.521851 148.0
77.561424 172.0
77.611244 204.0
77.634041 128.0
77.663857 148.0
77.686096 124.0
77.74456 84.0
77.769699 168.0
77.811584 196.0
77.843529 160.0
77.889977 180.0
77.921913 160.0
78.019104 144.0
78.048462 124.0
78.060768 120.0
78.097702 188.0
78.14344 184.0
78.16983 184.0
78.182152 104.0
78.194473 152.0
78.226189 188.0
78.238869 144.0
78.257072 156.0
78.312431 132.0
78.333572 276.0
78.349426 200.0
78.374092 160.0
78.426956 212.0
78.467789 124.0
78.502769 192.0
78.582237 156.0
78.598022 116.0
78.617439 288.0
78.642143 316.0
78.659073 224.0
78.680595 164.0
78.713264 140.0
78.747025 140.0
78.759796 196.0
78.779877 44.0
78.805496 104.0
78.85762 88.0
78.894295 172.0
78.923676 216.0
78.947784 156.0
78.997017 120.0
79.02562 112.0
79.055626 92.0
79.082245 56.0
79.099945 116.0
79.114105 168.0
79.130043 228.0
79.145981 196.0
79.168999 72.0
79.181396 76.0
79.213364 160.0
79.229744 272.0
79.240578 136.0
79.282379 224.0
79.306557 156.0
79.309456 100.0
79.316864 184.0
79.349495 148.0
79.367462 164.0
79.408249 112.0
79.454369 88.0
79.466789 148.0
79.480988 136.0
79.501663 196.0
79.516479 156.0
79.544159 200.0
79.564407 208.0
79.576836 88.0
79.660011 172.0
79.685837 172.0
79.70472 92.0
79.727821 144.0
79.790031 108.0
79.829147 180.0
79.841599 84.0
79.889626 108.0
79.902077 264.0
79.914169 172.0
79.952301 160.0
79.985268 168.0
80.025002 116.0
80.048027 196.0
80.0783 296.0
80.104919 136.0
80.133522 136.0
80.171051 196.0
80.211304 124.0
80.226196 156.0
80.256615 136.0
80.279533 148.0
80.306908 228.0
80.327614 304.0
80.35817 176.0
80.397606 160.0
80.442078 268.0
80.456329 72.0
80.517044 196.0
80.54303 132.0
80.567055 176.0
80.583138 192.0
80.618416 268.0
80.632034 176.0
80.637077 216.0
80.654617 128.0
80.671211 128.0
80.706459 136.0
80.74044 176.0
80.787491 184.0
80.82988 164.0
80.887001 188.0
80.922958 144.0
80.942657 144.0
80.974686 140.0
80.98819 216.0
81.01313 148.0
81.039375 200.0
81.057297 140.0
81.072845 224.0
81.079506 152.0
81.109268 44.0
81.130684 160.0
81.168434 168.0
81.18457 76.0
81.211472 380.0
81.226509 168.0
81.247353 104.0
81.261368 172.0
81.333488 104.0
81.380157 124.0
81.398621 212.0
81.42836 200.0
81.478943 212.0
81.49691 164.0
81.511024 144.0
81.545662 92.0
81.561607 48.0
81.638916 92.0
81.668053 140.0
81.736053 264.0
81.76107 204.0
81.790047 156.0
81.875443 204.0
81.928703 212.0
81.988731 164.0
82.008759 204.0
82.022064 148.0
82.033913 136.0
82.070053 112.0
82.09948 236.0
82.138451 204.0
82.155853 180.0
82.184715 192.0
82.2052 160.0
82.220581 192.0
82.256905 156.0
82.269539 64.0
82.296509 196.0
82.329124 144.0
82.345383 164.0
82.367058 144.0
82.395958 120.0
82.430428 212.0
82.446587 260.0
82.493546 156.0
82.515244 164.0
82.529701 52.0
82.560448 36.0
82.614059 156.0
82.62719 80.0
82.633766 172.0
82.671585 248.0
82.721474 104.0
82.741386 416.0
82.783035 188.0
82.795708 244.0
82.821884 124.0
82.846428 228.0
82.892914 128.0
82.920654 156.0
82.927727 152.0
82.960594 100.0
82.998642 180.0
83.016106 168.0
83.041039 396.0
83.108498 180.0
83.136536 136.0
83.214584 248.0
83.230927 84.0
83.249084 232.0
83.269066 164.0
83.305771 208.0
83.327141 156.0
83.358475 148.0
83.390793 168.0
83.403511 116.0
83.439117 164.0
83.471481 156.0
83.515884 232.0
83.554451 196.0
83.581741 168.0
83.612679 104.0
83.656357 156.0
83.723732 188.0
83.760155 184.0
83.77655 56.0
83.802055 124.0
83.829956 180.0
83.841393 136.0
83.860611 180.0
83.884064 52.0
83.918701 236.0
83.957382 208.0
84.022949 180.0
84.059151 128.0
84.081055 68.0
84.093826 84.0
84.108429 180.0
84.159546 156.0
84.17569 100.0
84.191322 140.0
84.245384 132.0
84.272903 196.0
84.311165 132.0
84.329437 164.0
84.400734 172.0
84.419022 128.0
84.446457 96.0
84.466576 356.0
84.495842 156.0
84.510483 68.0
84.528778 108.0
84.565384 128.0
84.609314 156.0
84.645935 112.0
84.669739 168.0
84.707588 240.0
84.739349 200.0
84.752174 92.0
84.803757 108.0
84.819977 148.0
84.852974 196.0
84.865814 104.0
84.906151 132.0
84.9506 208.0
84.966682 148.0
84.997025 208.0
85.025406 68.0
85.047424 164.0
85.176201 308.0
85.196358 156.0
85.220047 148.0
85.242096 180.0
85.267426 220.0
85.373505 160.0
85.402046 196.0
85.471611 196.0
85.514259 324.0
85.556618 192.0
85.586075 208.0
85.607407 144.0
85.63475 184.0
85.657898 136.0
85.670792 132.0
85.738968 124.0
85.766617 160.0
85.782921 180.0
85.80323 148.0
85.81823 172.0
85.85511 160.0
85.903069 204.0
85.946922 188.0
85.967911 120.0
85.996376 228.0
86.106331 180.0
86.130112 112.0
86.14489 208.0
86.170296 192.0
86.209557 148.0
86.214912 116.0
86.276649 148.0
86.281975 156.0
86.30938 48.0
86.33712 112.0
86.435402 252.0
86.464149 196.0
86.47451 232.0
86.494385 176.0
86.522148 156.0
86.546219 120.0
86.562881 60.0
86.601776 172.0
86.64994 192.0
86.666618 156.0
86.716652 116.0
86.748161 284.0
86.764847 188.0
86.8004 204.0
86.858841 128.0
86.899284 160.0
86.918785 168.0
86.981888 344.0
87.007881 176.0
87.020973 152.0
87.080299 156.0
87.100731 200.0
87.127647 128.0
87.172569 144.0
87.209038 124.0
87.294655 152.0
87.338654 120.0
87.361549 180.0
87.405624 264.0
87.422371 116.0
87.446564 156.0
87.460899 148.0
87.500549 164.0
87.528481 204.0
87.547104 192.0
87.59285 160.0
87.634453 232.0
87.679199 128.0
87.724106 168.0
87.747269 168.0
87.772575 232.0
87.787498 124.0
87.810722 176.0
87.858376 52.0
87.905785 200.0
87.919945 244.0
87.953392 148.0
87.956726 136.0
87.977036 164.0
87.997406 164.0
88.030121 216.0
88.068016 200.0
88.092102 176.0
88.124512 160.0
88.151512 140.0
88.187813 208.0
88.21431 120.0
88.235138 124.0
88.263672 172.0
88.28611 172.0
88.301071 180.0
88.325386 156.0
88.338478 148.0
88.368408 136.0
88.400238 216.0
88.426422 160.0
88.448883 88.0
88.50248 216.0
88.535423 216.0
88.55748 168.0
88.583702 144.0
88.605827 148.0
88.647408 88.0
88.662399 132.0
88.675514 176.0
88.694374 68.0
88.758003 148.0
88.822479 420.0
88.846153 116.0
88.865578 196.0
88.883682 204.0
88.938103 160.0
88.95752 140.0
88.988243 152.0
89.022591 92.0
89.079926 136.0
89.153862 200.0
89.21122 192.0
89.238678 44.0
89.251839 188.0
89.291924 176.0
89.317657 200.0
89.336472 152.0
89.357864 172.0
89.379745 96.0
89.473854 176.0
89.487793 148.0
89.507889 204.0
89.560471 148.0
89.605057 152.0
89.630974 160.0
89.694252 148.0
89.709335 148.0
89.736511 256.0
89.758751 192.0
89.820595 68.0
89.840836 164.0
89.875305 116.0
89.947014 80.0
89.969673 128.0
89.988548 328.0
90.020653 208.0
90.044655 208.0
90.083252 192.0
90.118874 208.0
90.139656 144.0
90.152885 188.0
90.166115 176.0
90.203918 296.0
90.234779 184.0
90.258743 176.0
90.288086 432.0
90.326828 84.0
90.380104 148.0
90.41954 124.0
90.433731 148.0
90.447929 180.0
90.46875 152.0
90.485794 288.0
90.515785 152.0
90.565323 148.0
90.591843 124.0
90.660965 292.0
90.715019 144.0
90.734772 200.0
90.752937 164.0
90.77948 180.0
90.796555 192.0
90.817635 208.0
90.907387 216.0
90.918892 180.0
90.940742 180.0
90.978706 88.0
90.997688 144.0
91.010979 156.0
91.026176 192.0
91.054253 2908.0
91.131836 140.0
91.153442 156.0
91.173134 188.0
91.204758 144.0
91.225029 216.0
91.244675 140.0
91.257988 52.0
91.304245 260.0
91.329453 172.0
91.349274 172.0
91.362587 144.0
91.392838 148.0
91.416222 212.0
91.434647 92.0
91.469589 176.0
91.507225 184.0
91.554832 140.0
91.594826 92.0
91.610069 148.0
91.648949 108.0
91.695816 116.0
91.723656 224.0
91.770157 108.0
91.794945 80.0
91.817825 104.0
91.839645 200.0
91.854065 132.0
91.886497 100.0
91.917862 192.0
91.964058 196.0
91.98764 64.0
92.006729 108.0
92.028343 252.0
92.059784 420.0
92.082581 188.0
92.130608 208.0
92.165253 156.0
92.201561 44.0
92.21685 196.0
92.354515 200.0
92.394691 204.0
92.424377 224.0
92.437172 180.0
92.465324 356.0
92.498024 104.0
92.513336 84.0
92.561203 140.0
92.653137 92.0
92.67038 136.0
92.74704 144.0
92.79496 180.0
92.8284 192.0
92.862076 156.0
92.892769 292.0
92.906197 152.0
93.030937 192.0
93.050133 116.0
93.069084 172.0
93.113503 140.0
93.151917 420.0
93.171356 200.0
93.190338 128.0
93.211472 140.0
93.236458 160.0
93.257599 164.0
93.294121 208.0
93.33065 204.0
93.357567 128.0
93.386421 188.0
93.399879 224.0
93.453705 180.0
93.494156 124.0
93.51725 180.0
93.532654 112.0
93.601959 276.0
93.644325 68.0
93.665512 112.0
93.694412 148.0
93.713676 124.0
93.746429 240.0
93.783051 252.0
93.835098 160.0
93.873322 180.0
93.935112 144.0
93.968178 108.0
94.012825 212.0
94.027992 88.0
94.057076 120.0
94.11293 116.0
94.14769 188.0
94.16507 132.0
94.186317 172.0
94.219154 252.0
94.250748 160.0
94.273262 44.0
94.286789 28.0
94.325439 184.0
94.342842 28.0
94.364105 128.0
94.379341 168.0
94.40831 172.0
94.431068 216.0
94.462738 128.0
94.485947 176.0
94.524422 136.0
94.538979 128.0
94.586578 176.0
94.621674 124.0
94.635864 236.0
94.652832 144.0
94.670105 168.0
94.689194 260.0
94.741493 100.0
94.772491 32.0
94.795746 332.0
94.811249 196.0
94.931442 36.0
94.971878 184.0
95.011581 176.0
95.038773 204.0
95.066193 216.0
95.08564 356.0
95.127403 144.0
95.150848 288.0
95.217369 156.0
95.271111 112.0
95.298309 156.0
95.31604 128.0
95.354271 140.0
95.447289 188.0
95.535492 84.0
95.554947 180.0
95.580238 64.0
95.599701 172.0
95.652252 216.0
95.70871 168.0
95.739868 96.0
95.780197 232.0
95.785233 164.0
95.792274 128.0
95.808037 120.0
95.821678 76.0
95.932762 144.0
95.954201 196.0
95.978363 184.0
96.034157 96.0
96.048805 320.0
96.080971 124.0
96.102432 120.0
96.123734 144.0
96.158562 152.0
96.17659 176.0
96.19416 160.0
96.221008 196.0
96.241859 140.0
96.272255 132.0
96.287514 128.0
96.301422 308.0
96.317177 200.0
96.37188 48.0
96.391418 176.0
96.410957 432.0
96.467636 116.0
96.495605 196.0
96.526962 160.0
96.552948 228.0
96.613571 148.0
96.635826 404.0
96.676918 156.0
96.694534 244.0
96.755814 240.0
96.769836 188.0
96.808083 224.0
96.846397 156.0
96.860825 176.0
96.915817 160.0
96.951683 184.0
96.973457 348.0
97.02523 428.0
97.047134 228.0
97.082436 148.0
97.109886 216.0
97.131462 168.0
97.213867 44.0
97.247826 184.0
97.270782 148.0
97.290413 64.0
97.3395 220.0
97.372887 168.0
97.427887 128.0
97.443604 180.0
97.482903 76.0
97.502548 160.0
97.545853 124.0
97.593918 204.0
97.618538 156.0
97.65197 148.0
97.670853 156.0
97.698837 228.0
97.738503 296.0
97.791664 96.0
97.81308 100.0
97.849953 144.0
97.890205 216.0
97.924438 152.0
98.018135 116.0
98.031929 144.0
98.045723 116.0
98.087112 172.0
98.11274 148.0
98.138374 208.0
98.199501 140.0
98.231491 160.0
98.258682 60.0
98.294197 60.0
98.325584 212.0
98.359673 148.0
98.375893 160.0
98.412628 164.0
98.495087 164.0
98.527176 48.0
98.552864 108.0
98.571815 176.0
98.579575 116.0
98.609123 188.0
98.624008 172.0
98.649704 164.0
98.707039 124.0
98.740654 192.0
98.760437 172.0
98.850449 132.0
98.88752 192.0
98.916451 132.0
98.958328 224.0
98.986046 304.0
99.005852 140.0
99.06131 164.0
99.083725 240.0
99.135605 112.0
99.149483 168.0
99.17173 176.0
99.221832 168.0
99.250175 268.0
99.26545 116.0
99.289925 268.0
99.313049 200.0
99.334869 148.0
99.358521 164.0
99.372559 212.0
99.386452 372.0
99.422165 156.0
99.439606 168.0
99.495605 272.0
99.529358 148.0
99.551201 132.0
99.577019 256.0
99.614761 108.0
99.653748 224.0
99.725388 136.0
99.745911 236.0
99.763802 192.0
99.791412 368.0
99.815491 232.0
99.841347 180.0
99.872452 212.0
99.90641 180.0
99.954735 132.0
99.982597 168.0
100.008469 112.0
100.023064 112.0
100.040314 184.0
100.058266 228.0
100.080826 208.0
100.110779 144.0
100.151825 124.0
100.175552 172.0
100.208046 196.0
100.237495 264.0
100.271889 108.0
100.371048 40.0
100.41304 136.0
100.428879 144.0
100.462791 104.0
100.504684 160.0
100.537994 216.0
100.565865 356.0
100.609024 116.0
100.615974 132.0
100.625397 184.0
100.652138 188.0
100.724495 196.0
100.75663 148.0
100.774231 116.0
100.802208 64.0
100.859406 188.0
100.908142 40.0
100.93325 156.0
100.974129 60.0
100.99131 196.0
101.006134 344.0
101.030136 116.0
101.048775 140.0
101.065674 184.0
101.08416 108.0
101.114204 180.0
101.152206 80.0
101.17205 136.0
101.189186 136.0
101.193123 64.0
101.204178 164.0
101.251175 140.0
101.271149 240.0
101.306396 236.0
101.347832 88.0
101.377525 164.0
101.398567 164.0
101.418449 96.0
101.462715 88.0
101.482094 132.0
101.493492 136.0
101.545883 292.0
101.595078 48.0
101.626297 128.0
101.649635 204.0
101.690475 220.0
101.757637 72.0
101.809837 172.0
101.873497 144.0
101.912285 232.0
101.949699 136.0
101.957451 84.0
101.976593 148.0
101.996689 156.0
102.046913 448.0
102.087379 184.0
102.115318 152.0
102.131409 156.0
102.157562 108.0
102.184418 160.0
102.223953 48.0
102.254143 116.0
102.300995 188.0
102.41861 128.0
102.435356 208.0
102.45752 184.0
102.519203 228.0
102.546181 208.0
102.580444 156.0
102.607605 152.0
102.626816 160.0
102.646385 244.0
102.707481 184.0
102.731682 156.0
102.762207 248.0
102.781029 184.0
102.817314 264.0
102.88102 180.0
102.899193 156.0
102.91655 140.0
102.935532 120.0
102.966576 196.0
103.006218 40.0
103.022385 232.0
103.056175 632.0
103.127457 344.0
103.161819 156.0
103.195404 196.0
103.214386 160.0
103.232582 168.0
103.266968 100.0
103.285172 180.0
103.323601 120.0
103.347885 96.0
103.425545 172.0
103.447052 68.0
103.483894 196.0
103.53614 240.0
103.560837 164.0
103.603096 144.0
103.619186 56.0
103.637421 300.0
103.660469 128.0
103.710381 236.0
103.741135 152.0
103.858391 240.0
103.918182 164.0
103.952888 152.0
103.980125 140.0
104.000427 196.0
104.034935 156.0
104.061829 304.0
104.078751 48.0
104.08725 208.0
104.109131 184.0
104.13443 68.0
104.154289 216.0
104.19278 208.0
104.223816 148.0
104.243881 224.0
104.278679 240.0
104.294945 80.0
104.313232 60.0
104.327461 140.0
104.366096 80.0
104.403145 224.0
104.445404 96.0
104.475281 204.0
104.498863 144.0
104.534927 112.0
104.570572 248.0
104.5858 156.0
104.614304 160.0
104.634041 132.0
104.661346 188.0
104.722221 168.0
104.762962 88.0
104.795555 112.0
104.846886 216.0
104.881149 180.0
104.917839 68.0
104.950462 156.0
104.971283 152.0
105.021835 176.0
105.036118 168.0
105.070366 1720.0
105.132004 96.0
105.164551 220.0
105.191917 256.0
105.229988 148.0
105.264694 136.0
105.299416 160.0
105.31575 176.0
105.36274 136.0
105.411865 260.0
105.468895 160.0
105.511765 152.0
105.550774 160.0
105.574478 284.0
105.595764 128.0
105.622353 176.0
105.665314 204.0
105.685768 176.0
105.708633 116.0
105.728043 152.0
105.789566 112.0
105.81881 56.0
105.843704 228.0
105.852432 152.0
105.85746 160.0
105.89048 320.0
105.906868 144.0
105.939636 124.0
106.041153 332.0
106.075737 164.0
106.113838 160.0
106.128876 96.0
106.144592 92.0
106.168076 160.0
106.187714 160.0
106.222527 200.0
106.240364 172.0
106.29023 160.0
106.353851 176.0
106.38076 272.0
106.404358 352.0
106.435028 200.0
106.44236 108.0
106.449295 212.0
106.484024 80.0
106.507851 188.0
106.525627 208.0
106.554039 152.0
106.58181 152.0
106.606804 168.0
106.653732 196.0
106.68251 204.0
106.716003 292.0
106.776962 184.0
106.821228 184.0
106.847282 196.0
106.86319 164.0
106.896416 180.0
106.917549 208.0
106.980797 92.0
107.005966 124.0
107.014038 172.0
107.019211 152.0
107.049576 2592.0
107.085594 496.0
107.128059 188.0
107.271255 168.0
107.300308 200.0
107.32486 228.0
107.341354 188.0
107.384666 124.0
107.411751 368.0
107.427979 60.0
107.442421 148.0
107.458923 232.0
107.492729 168.0
107.506386 164.0
107.539406 108.0
107.567772 156.0
107.591011 192.0
107.644691 296.0
107.671539 40.0
107.691582 180.0
107.714424 192.0
107.730896 152.0
107.752098 144.0
107.807892 104.0
107.857491 188.0
107.884361 248.0
107.915375 132.0
107.958801 172.0
108.018776 176.0
108.055008 328.0
108.093262 168.0
108.125565 220.0
108.167763 200.0
108.25 188.0
108.272659 224.0
108.294136 128.0
108.321686 168.0
108.407288 216.0
108.41127 140.0
108.468521 144.0
108.472801 108.0
108.497139 168.0
108.54567 236.0
108.580643 152.0
108.609123 204.0
108.644112 184.0
108.664505 160.0
108.744278 228.0
108.781868 192.0
108.818718 176.0
108.833191 152.0
108.86232 148.0
108.916321 64.0
108.980721 164.0
109.0214 284.0
109.049248 188.0
109.05706 152.0
109.103416 360.0
109.212982 188.0
109.21891 208.0
109.234222 128.0
109.270401 232.0
109.288261 184.0
109.344627 188.0
109.429977 168.0
109.469536 328.0
109.484116 68.0
109.521835 172.0
109.554932 136.0
109.601929 272.0
109.609756 152.0
109.642441 216.0
109.686211 152.0
109.716309 160.0
109.735092 116.0
109.765434 168.0
109.788376 88.0
109.802971 172.0
109.846771 56.0
109.873894 200.0
109.951096 92.0
110.029251 308.0
110.053383 148.0
110.08802 212.0
110.139008 68.0
110.184967 188.0
110.202194 244.0
110.224365 168.0
110.239876 220.0
110.287361 120.0
110.356644 140.0
110.395355 128.0
110.427208 188.0
110.490196 168.0
110.536026 328.0
110.575989 232.0
110.603195 200.0
110.617691 160.0
110.624695 148.0
110.661812 164.0
110.697411 208.0
110.714165 144.0
110.746552 188.0
110.76387 120.0
110.82309 336.0
110.859871 108.0
110.879669 144.0
110.93251 132.0
110.964256 248.0
110.992035 336.0
111.010231 156.0
111.030342 244.0
111.057877 260.0
111.104027 192.0
111.179565 224.0
111.199936 260.0
111.232033 180.0
111.262428 92.0
111.272446 188.0
111.349617 120.0
111.387138 176.0
111.421036 152.0
111.444145 296.0
111.500687 216.0
111.538712 76.0
111.553429 148.0
111.568146 204.0
111.609512 196.0
111.648148 160.0
111.681694 100.0
111.706238 60.0
111.736473 208.0
111.766144 140.0
111.799515 96.0
111.821571 60.0
111.847923 132.0
111.881599 128.0
111.915802 212.0
111.95108 168.0
112.029747 236.0
112.073257 88.0
112.104866 100.0
112.227119 144.0
112.258751 40.0
112.331329 216.0
112.408524 104.0
112.478172 52.0
112.501389 212.0
112.537277 200.0
112.596405 200.0
112.613304 228.0
112.642876 176.0
112.671646 184.0
112.742897 352.0
112.778107 224.0
112.809814 228.0
112.84787 192.0
112.864784 132.0
112.894386 148.0
112.912354 188.0
112.936684 164.0
112.979385 208.0
113.002258 120.0
113.048813 96.0
113.08902 48.0
113.129242 148.0
113.152527 196.0
113.20015 228.0
113.230873 320.0
113.247818 148.0
113.26265 56.0
113.326668 180.0
113.351624 152.0
113.374939 100.0
113.396133 136.0
113.422821 188.0
113.44912 132.0
113.494652 168.0
113.513618 160.0
113.629387 360.0
113.644234 104.0
113.67717 324.0
113.697289 192.0
113.735489 84.0
113.750351 236.0
113.79493 144.0
113.818283 196.0
113.890495 156.0
113.907486 140.0
113.941719 176.0
113.983971 84.0
114.017929 216.0
114.037094 84.0
114.09449 136.0
114.111496 96.0
114.188049 176.0
114.233902 180.0
114.290543 220.0
114.309731 204.0
114.366768 112.0
114.392311 84.0
114.466827 156.0
114.491547 184.0
114.507294 176.0
114.534981 136.0
114.555809 144.0
114.577583 160.0
114.62233 160.0
114.650513 124.0
114.684654 164.0
114.697678 316.0
114.731026 216.0
114.780067 60.0
114.79879 200.0
114.829002 152.0
114.867706 128.0
114.897552 192.0
114.920845 244.0
114.957115 136.0
114.97419 160.0
114.999802 312.0
115.054474 4624.0
115.104004 212.0
115.124321 160.0
115.176025 352.0
115.202652 172.0
115.221878 96.0
115.245415 188.0
115.300941 200.0
115.318039 40.0
115.373611 88.0
115.393028 148.0
115.41153 180.0
115.435616 36.0
115.46508 144.0
115.493362 172.0
115.534004 164.0
115.566093 56.0
115.600334 124.0
115.621735 176.0
115.686058 148.0
115.707352 64.0
115.734612 404.0
115.780159 140.0
115.91095 140.0
115.980515 68.0
115.994415 132.0
116.035141 168.0
116.061691 1736.0
116.135216 216.0
116.157379 40.0
116.221741 52.0
116.24749 136.0
116.340248 168.0
116.349655 180.0
116.378426 116.0
116.395607 180.0
116.418915 164.0
116.447144 120.0
116.534111 144.0
116.593239 160.0
116.625473 152.0
116.672493 156.0
116.709312 88.0
116.74157 96.0
116.786736 240.0
116.814697 152.0
116.844818 156.0
116.912766 228.0
116.975182 180.0
117.012688 88.0
117.035179 172.0
117.070816 2188.0
117.10363 132.0
117.135437 200.0
117.151146 136.0
117.186058 264.0
117.238853 176.0
117.262558 140.0
117.283821 192.0
117.309982 296.0
117.398376 212.0
117.435974 176.0
117.495438 132.0
117.567764 116.0
117.592545 364.0
117.637871 160.0
117.679276 112.0
117.700485 208.0
117.724236 200.0
117.789024 160.0
117.849342 200.0
117.871124 112.0
117.888412 192.0
117.955841 204.0
117.983513 284.0
118.018105 196.0
118.041962 228.0
118.072746 668.0
118.108932 152.0
118.125458 224.0
118.171875 212.0
118.193306 260.0
118.230499 108.0
118.271217 148.0
118.331833 120.0
118.353485 168.0
118.411949 184.0
118.433609 136.0
118.466103 156.0
118.51593 144.0
118.558426 216.0
118.629013 204.0
118.650307 168.0
118.667648 212.0
118.683182 124.0
118.738457 184.0
118.763535 112.0
118.783279 164.0
118.809135 168.0
118.830315 176.0
118.886734 192.0
118.914948 168.0
118.934128 172.0
118.982239 116.0
119.011169 196.0
119.050613 144.0
119.084862 2116.0
119.119049 188.0
119.155975 136.0
119.171188 96.0
119.192917 168.0
119.235596 256.0
119.286369 96.0
119.329849 48.0
119.347244 164.0
119.368988 204.0
119.397484 192.0
119.452248 184.0
119.538658 148.0
119.556068 128.0
119.612823 212.0
119.667084 48.0
119.732407 152.0
119.769432 112.0
119.806465 144.0
119.836967 252.0
119.856575 140.0
119.931328 188.0
119.985168 164.0
120.006966 124.0
120.052185 220.0
120.09565 144.0
120.133461 160.0
120.256821 224.0
120.288269 140.0
120.303673 276.0
120.329872 132.0
120.366119 180.0
120.431992 356.0
120.481071 104.0
120.506783 232.0
120.530815 52.0
120.574669 180.0
120.616898 216.0
120.646652 124.0
120.664139 184.0
120.683823 272.0
120.723175 32.0
120.760361 212.0
120.788795 156.0
120.823792 196.0
120.845612 144.0
120.853355 172.0
120.882866 140.0
120.902565 116.0
120.924446 152.0
120.975922 220.0
120.998871 164.0
121.023064 160.0
121.029823 204.0
121.065285 24104.0
121.110558 120.0
121.13903 184.0
121.160934 220.0
121.202003 156.0
121.2286 136.0
121.257347 216.0
121.27153 136.0
121.314728 180.0
121.334709 96.0
121.349419 136.0
121.366959 228.0
121.382309 104.0
121.408119 188.0
121.420395 216.0
121.437134 108.0
121.452484 144.0
121.51062 160.0
121.535851 156.0
121.552582 64.0
121.59729 108.0
121.65062 176.0
121.678513 120.0
121.6978 204.0
121.816864 44.0
121.833145 272.0
121.868019 212.0
121.925819 244.0
121.981674 212.0
122.03968 172.0
122.068871 2160.0
122.128998 176.0
122.201591 228.0
122.224892 304.0
122.280807 72.0
122.361122 156.0
122.411179 164.0
122.432716 164.0
122.467957 60.0
122.49176 168.0
122.500023 136.0
122.510376 108.0
122.517166 164.0
122.534042 224.0
122.562683 216.0
122.586922 220.0
122.612633 132.0
122.637863 176.0
122.657448 124.0
122.686104 100.0
122.714767 212.0
122.82225 184.0
122.882385 164.0
122.902245 160.0
122.920494 224.0
122.962669 188.0
122.969177 72.0
122.976524 212.0
122.992722 144.0
123.010674 60.0
123.050117 136.0
123.080482 268.0
123.103111 168.0
123.160538 116.0
123.229019 64.0
123.274147 188.0
123.319618 176.0
123.384789 216.0
123.401405 144.0
123.436783 64.0
123.46759 232.0
123.496254 220.0
123.553535 148.0
123.570023 152.0
123.585526 180.0
123.599602 112.0
123.641815 176.0
123.663612 100.0
123.735489 160.0
123.773125 140.0
123.809349 164.0
123.873268 128.0
123.934761 156.0
123.974709 92.0
123.990219 152.0
124.009583 244.0
124.042427 260.0
124.063362 44.0
124.12323 148.0
124.163139 156.0
124.211937 36.0
124.232117 208.0
124.277145 112.0
124.300751 128.0
124.322868 184.0
124.338409 164.0
124.388496 176.0
124.416817 136.0
124.447708 140.0
124.478264 100.0
124.527122 168.0
124.593758 216.0
124.620422 148.0
124.669304 208.0
124.700371 204.0
124.760437 148.0
124.83725 140.0
124.973938 164.0
125.06073 284.0
125.107475 136.0
125.138641 200.0
125.162552 168.0
125.239967 264.0
125.265579 96.0
125.360893 72.0
125.383835 216.0
125.421562 248.0
125.445175 252.0
125.474747 168.0
125.513138 152.0
125.528572 184.0
125.602501 108.0
125.628937 164.0
125.715858 180.0
125.803001 176.0
125.861053 184.0
125.887848 200.0
125.903481 204.0
125.925812 132.0
125.979424 160.0
126.026337 172.0
126.053154 180.0
126.092827 228.0
126.15596 168.0
126.18055 156.0
126.234215 160.0
126.283417 240.0
126.350021 216.0
126.368423 200.0
126.432068 144.0
126.455696 192.0
126.475838 96.0
126.561249 184.0
126.583298 132.0
126.619125 52.0
126.65863 176.0
126.802841 188.0
126.831978 156.0
126.865601 60.0
126.895477 148.0
126.938599 208.0
126.945427 192.0
127.054466 936.0
127.079048 208.0
127.11834 140.0
127.141487 176.0
127.155891 96.0
127.197601 164.0
127.224533 164.0
127.2425 156.0
127.314438 176.0
127.33007 232.0
127.411423 148.0
127.443367 180.0
127.476089 164.0
127.532921 168.0
127.583382 212.0
127.591644 156.0
127.663681 232.0
127.695007 180.0
127.727898 184.0
127.822388 140.0
127.852959 164.0
127.875381 156.0
127.898178 100.0
127.994598 168.0
128.014755 176.0
128.036667 128.0
128.062576 11344.0
128.100876 240.0
128.121841 132.0
128.191681 164.0
128.214493 132.0
128.245728 304.0
128.291977 136.0
128.32692 168.0
128.363312 148.0
128.39978 412.0
128.455475 212.0
128.480957 80.0
128.502853 140.0
128.525406 148.0
128.550232 88.0
128.574677 192.0
128.669861 176.0
128.706558 132.0
128.737076 236.0
128.800598 232.0
128.846008 244.0
128.87764 104.0
128.947693 132.0
128.97934 120.0
129.004211 188.0
129.069031 2960.0
129.12178 180.0
129.230362 100.0
129.246201 40.0
129.28241 216.0
129.397842 60.0
129.477097 184.0
129.495209 88.0
129.556381 208.0
129.603958 64.0
129.628876 524.0
129.647675 256.0
129.665131 188.0
129.685455 168.0
129.722382 124.0
129.769409 224.0
129.787552 140.0
129.823837 152.0
129.853317 192.0
129.885071 60.0
129.902084 168.0
129.939514 232.0
129.99147 156.0
130.042068 556.0
130.076233 848.0
130.130157 108.0
130.159668 192.0
130.189194 88.0
130.207703 228.0
130.244431 212.0
130.285583 236.0
130.314117 68.0
130.332306 200.0
130.36412 228.0
130.438248 200.0
130.495483 176.0
130.56189 136.0
130.588699 112.0
130.614197 152.0
130.661972 220.0
130.680176 168.0
130.7621 112.0
130.782578 260.0
130.833328 180.0
130.887299 176.0
130.945877 184.0
130.982956 220.0
131.049591 2324.0
131.084229 480.0
131.137894 128.0
131.174469 172.0
131.195648 384.0
131.21312 172.0
131.2724 48.0
131.308075 156.0
131.370316 180.0
131.404694 136.0
131.441589 184.0
131.475433 104.0
131.534073 156.0
131.580429 132.0
131.597351 68.0
131.61792 152.0
131.652222 144.0
131.688095 156.0
131.725174 312.0
131.740906 164.0
131.824829 172.0
131.865967 144.0
131.886536 180.0
131.900909 96.0
131.915955 224.0
131.937576 144.0
131.964615 152.0
131.987122 164.0
132.014557 300.0
132.029099 252.0
132.058044 9056.0
132.095856 120.0
132.111069 184.0
132.139648 168.0
132.186127 172.0
132.202148 72.0
132.218704 236.0
132.239807 96.0
132.346649 276.0
132.368561 212.0
132.39444 32.0
132.432617 48.0
132.438934 188.0
132.469955 160.0
132.510925 208.0
132.553345 184.0
132.591278 152.0
132.63295 156.0
132.864319 100.0
132.90332 68.0
132.923691 188.0
132.995514 208.0
133.030472 156.0
133.062622 1172.0
133.104263 424.0
133.135162 180.0
133.155838 168.0
133.185699 40.0
133.208664 140.0
133.224747 108.0
133.284485 144.0
133.360321 132.0
133.381012 76.0
133.399399 180.0
133.449051 244.0
133.480713 228.0
133.500381 52.0
133.504257 132.0
133.528656 172.0
133.548859 144.0
133.572617 232.0
133.599457 184.0
133.633972 160.0
133.655823 120.0
133.726013 148.0
133.782776 176.0
133.834213 88.0
133.854935 192.0
133.871063 168.0
133.964722 144.0
134.004776 248.0
134.032303 336.0
134.066727 284.0
134.073303 96.0
134.116119 196.0
134.153122 152.0
134.217911 176.0
134.285889 232.0
134.316696 156.0
134.341248 324.0
134.364319 112.0
134.405838 56.0
134.451996 56.0
134.525848 136.0
134.541107 92.0
134.608109 216.0
134.628922 100.0
134.656677 220.0
134.682877 148.0
134.717529 184.0
134.736008 144.0
134.765961 128.0
134.809937 80.0
134.835358 184.0
134.858475 136.0
134.886215 132.0
134.909332 172.0
134.939377 140.0
134.969437 128.0
134.994873 208.0
135.037628 172.0
135.081085 12888.0
135.121689 152.0
135.140594 144.0
135.167725 100.0
135.210098 116.0
135.279465 136.0
135.309555 160.0
135.395325 204.0
135.457764 104.0
135.499466 64.0
135.528839 136.0
135.603745 228.0
135.619766 180.0
135.699539 312.0
135.759064 168.0
135.786896 164.0
135.814728 168.0
135.833282 128.0
135.857101 224.0
135.907486 152.0
135.979462 204.0
136.017227 176.0
136.065353 220.0
136.086121 1220.0
136.115417 172.0
136.13501 40.0
136.155899 96.0
136.201294 236.0
136.216995 184.0
136.239517 164.0
136.255783 124.0
136.282959 252.0
136.321594 100.0
136.363174 148.0
136.403214 236.0
136.417023 168.0
136.476578 104.0
136.505844 180.0
136.53064 160.0
136.550995 332.0
136.569595 76.0
136.604004 76.0
136.62912 188.0
136.662659 300.0
136.713135 204.0
136.721451 164.0
136.730637 208.0
136.803177 104.0
136.853516 128.0
136.905304 148.0
136.925705 64.0
136.988586 184.0
137.017822 168.0
137.088776 172.0
137.1409 172.0
137.16066 128.0
137.180008 260.0
137.225067 136.0
137.242615 168.0
137.26593 140.0
137.349899 312.0
137.391479 148.0
137.447876 212.0
137.503036 164.0
137.552078 288.0
137.606598 176.0
137.62294 204.0
137.71167 204.0
137.735031 156.0
137.784088 192.0
137.825333 116.0
137.853073 224.0
137.8871 188.0
137.920303 196.0
137.946655 152.0
137.964035 116.0
138.005768 160.0
138.06691 92.0
138.126129 408.0
138.148438 188.0
138.155075 64.0
138.186218 128.0
138.28215 100.0
138.303223 160.0
138.319077 124.0
138.359406 216.0
138.375793 56.0
138.40448 172.0
138.48938 180.0
138.539505 132.0
138.572525 108.0
138.635391 196.0
138.670944 148.0
138.687347 304.0
138.731888 108.0
138.776428 116.0
138.802216 96.0
138.818634 100.0
138.927414 248.0
138.958496 204.0
138.976471 180.0
138.996918 148.0
139.021118 164.0
139.046188 176.0
139.076706 196.0
139.137268 140.0
139.205826 296.0
139.226959 96.0
139.297424 160.0
139.360855 132.0
139.452499 148.0
139.521835 184.0
139.545914 152.0
139.570038 196.0
139.607666 156.0
139.63353 144.0
139.654709 208.0
139.675873 152.0
139.715866 176.0
139.755859 112.0
139.784103 204.0
139.821564 200.0
139.847641 132.0
139.877838 188.0
139.883514 248.0
139.903839 32.0
139.90976 204.0
139.916824 216.0
139.953568 276.0
139.970047 108.0
140.007736 212.0
140.04071 180.0
140.05928 144.0
140.087814 124.0
140.118439 248.0
140.140991 244.0
140.165558 136.0
140.236267 88.0
140.292831 240.0
140.349411 248.0
140.383606 112.0
140.439056 316.0
140.48172 124.0
140.575867 132.0
140.670273 148.0
140.686798 144.0
140.80722 160.0
140.830841 196.0
140.868622 80.0
140.932419 140.0
140.951324 212.0
140.999527 184.0
141.018906 196.0
141.07045 6408.0
141.10141 288.0
141.14888 120.0
141.209 172.0
141.227234 240.0
141.262405 128.0
141.277588 220.0
141.31781 88.0
141.344177 232.0
141.367142 228.0
141.42099 152.0
141.450333 192.0
141.485138 256.0
141.518463 164.0
141.543503 148.0
141.580551 224.0
141.739273 192.0
141.780853 196.0
141.844864 176.0
141.872543 172.0
141.903931 208.0
141.946869 180.0
141.993423 76.0
142.019272 220.0
142.046219 332.0
142.075989 2256.0
142.180298 184.0
142.443893 104.0
142.470016 148.0
142.534164 176.0
142.554794 224.0
142.580765 92.0
142.601501 132.0
142.641113 244.0
142.743347 104.0
142.759995 108.0
142.805054 116.0
142.86998 384.0
142.90271 180.0
142.974976 148.0
143.027588 176.0
143.050293 500.0
143.084549 2972.0
143.153046 116.0
143.292526 140.0
143.31102 188.0
143.33844 128.0
143.412323 176.0
143.462555 220.0
143.508347 92.0
143.549713 204.0
143.640335 172.0
143.662079 108.0
143.750977 260.0
143.815414 112.0
143.834579 120.0
143.877563 208.0
143.906128 180.0
143.932388 52.0
143.958649 168.0
143.999252 160.0
144.057495 12436.0
144.123474 224.0
144.164093 144.0
144.196442 104.0
144.23819 108.0
144.267349 332.0
144.302734 84.0
144.343384 64.0
144.374466 196.0
144.419907 124.0
144.516449 300.0
144.553879 132.0
144.588669 112.0
144.619858 316.0
144.64003 164.0
144.668808 188.0
144.714249 224.0
144.735794 40.0
144.765381 148.0
144.830368 212.0
144.868515 156.0
144.910645 68.0
144.941788 68.0
144.963806 172.0
145.064865 8208.0
145.101562 540.0
145.120712 200.0
145.158295 200.0
145.211945 116.0
145.218323 148.0
145.287048 116.0
145.310379 160.0
145.325424 200.0
145.35556 172.0
145.391251 232.0
145.419022 104.0
145.445419 176.0
145.468628 96.0
145.576157 140.0
145.590866 152.0
145.613495 100.0
145.659409 100.0
145.740799 32.0
145.7966 184.0
145.832123 76.0
145.859558 212.0
145.880875 156.0
145.903976 148.0
145.928284 76.0
146.072052 2060.0
146.131439 212.0
146.171219 152.0
146.197845 348.0
146.287811 180.0
146.324158 176.0
146.355652 236.0
146.422195 188.0
146.46492 160.0
146.513672 168.0
146.543533 216.0
146.586517 296.0
146.611893 168.0
146.633881 160.0
146.65506 224.0
146.686539 208.0
146.710724 108.0
146.735092 144.0
146.763763 176.0
146.78064 128.0
146.813828 136.0
146.855698 196.0
146.875153 268.0
146.906143 168.0
146.937729 204.0
146.967606 148.0
147.003113 172.0
147.041489 360.0
147.048782 224.0
147.081726 119772.0
147.143311 128.0
147.172379 248.0
147.20285 296.0
147.218338 168.0
147.259964 160.0
147.282654 212.0
147.330276 120.0
147.342148 176.0
147.348373 108.0
147.375076 132.0
147.396484 176.0
147.422501 244.0
147.447296 196.0
147.478058 480.0
147.52066 140.0
147.538925 120.0
147.571304 52.0
147.592987 196.0
147.635193 68.0
147.652405 176.0
147.68222 292.0
147.710953 244.0
147.747833 112.0
147.770935 64.0
147.789871 176.0
147.806168 124.0
147.84166 140.0
147.86496 224.0
147.889511 56.0
147.912552 184.0
147.920456 140.0
147.931046 88.0
147.998444 232.0
148.057404 276.0
148.084274 13260.0
148.1259 140.0
148.159027 176.0
148.17215 168.0
148.21875 232.0
148.291367 104.0
148.354584 68.0
148.380386 112.0
148.397781 88.0
148.454575 160.0
148.501907 216.0
148.538177 152.0
148.575272 108.0
148.597107 68.0
148.616516 40.0
148.633499 32.0
148.650482 36.0
148.69902 124.0
148.737549 64.0
148.773804 64.0
148.810684 40.0
148.847717 300.0
148.880264 128.0
148.903961 96.0
148.963745 128.0
148.981659 120.0
149.012268 160.0
149.032394 140.0
149.04805 148.0
149.087418 1456.0
149.136017 52.0
149.145111 48.0
149.149399 84.0
149.190506 176.0
149.242401 204.0
149.268661 200.0
149.340012 164.0
149.348511 136.0
149.403671 116.0
149.425568 172.0
149.452332 92.0
149.486404 56.0
149.503433 100.0
149.581314 228.0
149.695084 160.0
149.737152 68.0
149.763947 40.0
149.815094 88.0
149.846771 76.0
149.87616 128.0
149.944229 144.0
149.997864 76.0
150.017365 144.0
150.036865 216.0
150.10025 328.0
150.129044 208.0
150.15715 228.0
150.208633 100.0
150.239273 112.0
150.264511 248.0
150.290512 148.0
150.313065 116.0
150.331619 52.0
150.373474 172.0
150.433609 252.0
150.493088 80.0
150.512619 52.0
150.581009 124.0
150.61853 132.0
150.647919 192.0
150.667969 228.0
150.70047 88.0
150.781342 44.0
150.808228 120.0
150.852737 132.0
150.876663 128.0
150.910889 160.0
150.940231 124.0
151.001877 216.0
151.032623 160.0
151.099091 80.0
151.160385 196.0
151.189743 148.0
151.206879 112.0
151.23381 384.0
151.282761 152.0
151.299896 56.0
151.348862 56.0
151.365997 136.0
151.395386 140.0
151.48111 164.0
151.506516 204.0
151.523407 96.0
151.557053 160.0
151.595215 168.0
151.674698 132.0
151.705368 164.0
151.730515 192.0
151.779724 204.0
151.821793 144.0
151.87355 160.0
151.90274 144.0
151.930969 212.0
151.961609 140.0
151.97879 112.0
152.00087 76.0
152.018051 76.0
152.060822 384.0
152.09259 108.0
152.162857 216.0
152.178726 172.0
152.210571 176.0
152.305954 192.0
152.359329 200.0
152.422882 144.0
152.485794 164.0
152.521515 252.0
152.546097 96.0
152.582977 148.0
152.602798 128.0
152.639526 48.0
152.66658 160.0
152.718216 184.0
152.805939 500.0
152.841904 208.0
152.884888 248.0
152.907669 148.0
152.951447 148.0
152.976593 320.0
153.016541 208.0
153.04306 68.0
153.069992 1548.0
153.104813 156.0
153.113754 152.0
153.120377 252.0
153.16127 208.0
153.189148 224.0
153.222855 36.0
153.246292 160.0
153.301697 168.0
153.318954 164.0
153.434799 96.0
153.513702 168.0
153.545761 60.0
153.596451 72.0
153.627808 132.0
153.677643 276.0
153.712296 252.0
153.752777 136.0
153.790009 156.0
153.82457 76.0
153.842911 252.0
153.873947 244.0
153.946594 160.0
154.014694 136.0
154.049286 128.0
154.078262 2184.0
154.118454 172.0
154.145645 224.0
154.177765 196.0
154.219772 60.0
154.254379 132.0
154.308548 180.0
154.352188 148.0
154.376633 224.0
154.424988 76.0
154.518997 68.0
154.543732 168.0
154.573425 192.0
154.61055 168.0
154.729355 104.0
154.754471 196.0
154.787582 244.0
154.843262 116.0
154.886917 396.0
154.939301 160.0
155.059433 1388.0
155.086472 1860.0
155.12442 180.0
155.142334 188.0
155.17717 200.0
155.217453 168.0
155.351379 188.0
155.373718 136.0
155.410934 168.0
155.481766 180.0
155.517639 172.0
155.557358 76.0
155.577209 132.0
155.619202 188.0
155.73613 200.0
155.758484 52.0
155.842957 184.0
155.862823 172.0
155.888702 156.0
155.90657 160.0
155.930588 120.0
156.006973 156.0
156.057602 6920.0
156.090271 284.0
156.146545 216.0
156.179291 128.0
156.210312 208.0
156.229874 196.0
156.281113 280.0
156.317093 152.0
156.335297 428.0
156.365158 144.0
156.394775 80.0
156.419907 60.0
156.454453 188.0
156.46228 220.0
156.499573 216.0
156.568192 152.0
156.631561 32.0
156.663956 60.0
156.683884 244.0
156.703812 108.0
156.733704 140.0
156.7686 108.0
156.797165 116.0
156.853333 96.0
156.884018 196.0
156.937119 152.0
156.955551 32.0
156.988724 172.0
156.998337 204.0
157.031616 120.0
157.064026 3684.0
157.0979 464.0
157.117615 168.0
157.207489 56.0
157.237442 92.0
157.289856 220.0
157.309814 204.0
157.374725 180.0
157.406464 68.0
157.459641 196.0
157.517075 148.0
157.579529 140.0
157.627014 52.0
157.678268 156.0
157.767502 208.0
157.812912 128.0
157.878677 124.0
157.897675 140.0
157.994553 68.0
158.017273 368.0
158.072906 14424.0
158.11409 208.0
158.144684 224.0
158.169708 112.0
158.189743 116.0
158.212265 164.0
158.237305 76.0
158.287018 56.0
158.312424 156.0
158.339966 104.0
158.384048 160.0
158.423447 172.0
158.456787 168.0
158.512817 184.0
158.549606 148.0
158.574585 340.0
158.648163 36.0
158.690781 148.0
158.710846 148.0
158.730896 156.0
158.765671 116.0
158.772934 68.0
158.779495 160.0
158.81868 144.0
158.838043 136.0
158.863831 104.0
158.902588 152.0
158.936584 156.0
158.961685 56.0
158.987732 156.0
159.0186 176.0
159.040695 204.0
159.0811 48524.0
159.154114 160.0
159.192627 40.0
159.221619 176.0
159.243835 112.0
159.267044 120.0
159.290573 60.0
159.328247 180.0
159.359802 60.0
159.382385 220.0
159.421219 48.0
159.468964 72.0
159.486572 92.0
159.554047 76.0
159.599686 324.0
159.634369 172.0
159.692963 184.0
159.731232 172.0
159.750198 52.0
159.759293 96.0
159.79335 96.0
159.813492 172.0
159.848709 56.0
159.893661 176.0
159.921204 184.0
159.941833 136.0
159.987137 76.0
160.014832 28.0
160.034973 156.0
160.058868 172.0
160.085754 6412.0
160.132339 204.0
160.203888 176.0
160.242661 52.0
160.321106 128.0
160.349854 152.0
160.400269 136.0
160.443314 152.0
160.472198 248.0
160.513718 96.0
160.559113 96.0
160.598251 216.0
160.62468 144.0
160.647385 144.0
160.720551 80.0
160.770889 240.0
160.791214 208.0
160.841553 124.0
160.88208 164.0
160.917496 120.0
160.937622 148.0
160.967926 188.0
160.993179 104.0
161.028534 176.0
161.046204 56.0
161.096558 4828.0
161.220535 248.0
161.298889 84.0
161.331741 128.0
161.354492 92.0
161.380829 96.0
161.407593 160.0
161.442917 244.0
161.485168 124.0
161.511276 192.0
161.589706 148.0
161.627655 196.0
161.687241 148.0
161.71991 76.0
161.794693 96.0
161.842117 212.0
161.865585 128.0
161.891846 232.0
161.926361 252.0
161.964355 64.0
161.988129 52.0
162.029709 176.0
162.053024 120.0
162.098602 576.0
162.136642 68.0
162.182007 156.0
162.21521 64.0
162.243103 120.0
162.276062 132.0
162.348419 172.0
162.382568 240.0
162.473877 88.0
162.504318 268.0
162.587036 168.0
162.619553 116.0
162.65152 120.0
162.699509 172.0
162.732742 156.0
162.755341 116.0
162.778458 52.0
162.81218 200.0
162.855484 168.0
162.880035 124.0
162.913803 148.0
162.963867 112.0
163.002472 168.0
163.041519 108.0
163.057892 140.0
163.075684 92.0
163.101334 348.0
163.122589 132.0
163.162109 104.0
163.182449 172.0
163.202789 188.0
163.23584 172.0
163.255127 200.0
163.31723 144.0
163.340118 108.0
163.373184 68.0
163.426117 164.0
163.435715 132.0
163.47496 192.0
163.508041 168.0
163.528412 136.0
163.548767 192.0
163.580627 180.0
163.634079 196.0
163.724442 128.0
163.742264 184.0
163.760101 148.0
163.789383 224.0
164.007248 100.0
164.042923 196.0
164.107361 280.0
164.17041 44.0
164.202316 180.0
164.297943 136.0
164.315796 188.0
164.409195 128.0
164.456284 156.0
164.52507 156.0
164.54805 180.0
164.576584 180.0
164.601669 152.0
164.627563 168.0
164.667389 212.0
164.760025 48.0
164.857117 184.0
164.875 168.0
164.906601 188.0
164.96701 60.0
165.002808 172.0
165.03093 164.0
165.069839 3224.0
165.115311 164.0
165.169022 132.0
165.202484 152.0
165.261124 188.0
165.303741 192.0
165.36261 152.0
165.399307 112.0
165.440277 160.0
165.53244 168.0
165.646454 216.0
165.701492 128.0
165.781433 180.0
165.864182 172.0
165.929764 228.0
165.950104 184.0
166.077545 2568.0
166.111664 172.0
166.169388 248.0
166.214279 44.0
166.232254 124.0
166.270737 188.0
166.31694 180.0
166.384079 244.0
166.463272 64.0
166.483826 36.0
166.597809 116.0
166.622528 168.0
166.679047 192.0
166.700684 204.0
166.725021 148.0
166.758713 64.0
166.871811 204.0
166.897522 200.0
166.92067 48.0
166.951523 64.0
166.972107 220.0
166.988937 152.0
167.026108 156.0
167.084427 1452.0
167.189819 128.0
167.227905 144.0
167.272186 108.0
167.2892 200.0
167.311752 108.0
167.378693 208.0
167.455948 148.0
167.493164 224.0
167.542191 116.0
167.56929 144.0
167.595062 140.0
167.627548 236.0
167.692978 48.0
167.747543 120.0
167.767731 152.0
167.821869 36.0
167.876022 120.0
167.930176 168.0
167.948074 124.0
168.010147 44.0
168.033371 100.0
168.091385 600.0
168.134918 168.0
168.164764 152.0
168.195251 124.0
168.221756 168.0
168.273392 160.0
168.294037 124.0
168.340515 152.0
168.392166 196.0
168.423157 144.0
168.464493 112.0
168.505829 160.0
168.538712 220.0
168.578171 212.0
168.612671 160.0
168.648346 160.0
168.670807 176.0
168.753937 204.0
168.809738 180.0
168.839279 168.0
168.869659 160.0
168.917068 200.0
168.9505 120.0
169.022934 216.0
169.067978 1252.0
169.099716 848.0
169.132828 148.0
169.17305 200.0
169.201523 160.0
169.255035 252.0
169.361557 120.0
169.46051 120.0
169.496796 224.0
169.540848 156.0
169.640533 104.0
169.665253 104.0
169.756012 60.0
169.808517 176.0
169.875534 144.0
169.929794 144.0
169.947952 244.0
169.966827 132.0
169.997253 48.0
170.072678 4736.0
170.106171 524.0
170.162262 232.0
170.236084 152.0
170.263245 104.0
170.306198 236.0
170.373734 104.0
170.392517 312.0
170.43869 44.0
170.460892 88.0
170.488068 136.0
170.520966 164.0
170.547836 212.0
170.588669 212.0
170.615417 180.0
170.633621 140.0
170.653061 140.0
170.69487 412.0
170.718246 176.0
170.753098 144.0
170.757584 228.0
170.768204 132.0
170.800049 56.0
170.818268 164.0
170.844269 88.0
170.894653 152.0
170.940033 204.0
170.958649 148.0
170.969421 172.0
171.012482 180.0
171.08194 193588.0
171.166519 152.0
171.196899 116.0
171.217529 208.0
171.262421 124.0
171.300186 236.0
171.321777 212.0
171.349533 156.0
171.38028 236.0
171.401443 84.0
171.436325 240.0
171.467361 160.0
171.508209 1060.0
171.568039 164.0
171.624924 140.0
171.644577 144.0
171.68338 200.0
171.722641 76.0
171.771851 52.0
171.799622 144.0
171.840057 216.0
171.876282 152.0
171.91333 208.0
171.940826 244.0
171.973557 312.0
172.004059 112.0
172.051331 432.0
172.084991 23892.0
172.151123 20.0
172.158508 136.0
172.184204 236.0
172.22226 44.0
172.236038 88.0
172.244354 124.0
172.276093 172.0
172.304123 168.0
172.309784 196.0
172.358902 216.0
172.384277 92.0
172.425171 112.0
172.451996 208.0
172.481888 44.0
172.510269 56.0
172.571609 324.0
172.604874 136.0
172.637878 84.0
172.658691 148.0
172.715393 40.0
172.757019 184.0
172.782684 156.0
172.81662 240.0
172.846603 140.0
172.882599 72.0
172.919052 256.0
172.988876 152.0
172.99823 132.0
173.021179 324.0
173.042328 68.0
173.096741 51664.0
173.146835 264.0
173.181747 104.0
173.220963 196.0
173.240402 60.0
173.268219 272.0
173.287262 132.0
173.35321 252.0
173.380814 180.0
173.409866 240.0
173.458237 184.0
173.476593 132.0
173.519714 188.0
173.564941 92.0
173.595581 52.0
173.604691 56.0
173.635834 148.0
173.659302 112.0
173.685715 48.0
173.721725 76.0
173.778183 40.0
173.806671 100.0
173.863022 180.0
173.883667 104.0
173.924835 136.0
173.97464 148.0
174.038025 100.0
174.068649 212.0
174.100677 6920.0
174.169342 32.0
174.217773 144.0
174.239166 124.0
174.291199 104.0
174.345367 172.0
174.368103 160.0
174.416321 92.0
174.4505 88.0
174.476791 72.0
174.513596 92.0
174.537262 236.0
174.560455 172.0
174.587219 128.0
174.64389 44.0
174.670074 64.0
174.704514 128.0
174.737152 28.0
174.764618 100.0
174.796188 156.0
174.834366 152.0
174.860153 116.0
174.908203 40.0
174.939789 92.0
174.958221 40.0
174.992447 256.0
175.048645 120.0
175.103271 372.0
175.16626 120.0
175.205765 52.0
175.259521 100.0
175.288712 92.0
175.329666 172.0
175.355072 224.0
175.376389 156.0
175.44838 96.0
175.47583 220.0
175.511292 104.0
175.569504 68.0
175.60907 68.0
175.635437 44.0
175.660767 172.0
175.709305 312.0
175.830688 240.0
175.849167 128.0
175.874222 160.0
175.938904 112.0
176.023392 96.0
176.057724 128.0
176.116119 176.0
176.22023 208.0
176.230911 184.0
176.373596 72.0
176.403839 216.0
176.422348 52.0
176.459366 96.0
176.480515 72.0
176.528107 80.0
176.592651 108.0
176.639191 160.0
176.746887 124.0
176.774124 132.0
176.845581 52.0
176.885284 144.0
177.036194 120.0
177.086517 76.0
177.115646 120.0
177.15538 144.0
177.240158 44.0
177.271957 48.0
177.338211 52.0
177.373306 132.0
177.381088 160.0
177.43364 204.0
177.680283 220.0
177.887268 160.0
177.927094 72.0
177.969574 52.0
177.997787 120.0
178.05455 116.0
178.082413 176.0
178.147507 204.0
178.354782 44.0
178.407806 152.0
178.482376 104.0
178.519608 152.0
178.559509 88.0
178.596741 140.0
178.615356 196.0
178.647278 180.0
178.713791 40.0
178.759384 176.0
178.802963 120.0
178.836197 220.0
178.934692 124.0
178.977295 244.0
179.018509 136.0
179.085312 864.0
179.110443 276.0
179.155731 44.0
179.235657 216.0
179.312943 112.0
179.395859 152.0
179.432892 344.0
179.480881 84.0
179.532791 112.0
179.579559 100.0
179.638306 152.0
179.795654 148.0
179.843704 132.0
179.959488 172.0
179.96965 200.0
180.030579 148.0
180.093689 384.0
180.161041 156.0
180.204208 168.0
180.324051 292.0
180.372559 96.0
180.500885 236.0
180.524963 48.0
180.543671 36.0
180.575775 76.0
180.607864 180.0
180.645309 52.0
180.697845 188.0
180.795151 104.0
180.847565 164.0
180.877014 68.0
180.912918 140.0
181.069153 340.0
181.10022 4448.0
181.183395 44.0
181.207504 52.0
181.226257 152.0
181.261093 164.0
181.349533 224.0
181.381699 52.0
181.410553 204.0
181.467484 172.0
181.569382 80.0
181.593506 36.0
181.61998 128.0
181.656616 84.0
181.72496 232.0
181.909164 100.0
182.006775 180.0
182.108444 2996.0
182.173294 180.0
182.288818 104.0
182.313004 52.0
182.364075 120.0
182.410645 184.0
182.436646 172.0
182.487732 80.0
182.541504 164.0
182.572754 164.0
182.717606 136.0
182.751312 112.0
182.810501 168.0
182.880478 180.0
182.980087 56.0
183.080063 2408.0
183.1147 584.0
183.211685 132.0
183.461899 180.0
183.500061 124.0
183.57016 116.0
183.642975 196.0
183.684723 100.0
183.726593 136.0
183.771042 132.0
183.794037 248.0
183.83992 156.0
183.91008 64.0
184.028549 240.0
184.089111 4556.0
184.21521 44.0
184.358414 128.0
184.40976 60.0
184.43811 188.0
184.58548 156.0
184.642273 80.0
184.66391 76.0
184.752579 220.0
184.831619 208.0
184.858337 152.0
184.961533 192.0
185.046356 72.0
185.05748 144.0
185.095947 6612.0
185.130127 252.0
185.156021 216.0
185.21936 200.0
185.248566 96.0
185.306915 148.0
185.440948 88.0
185.476181 292.0
185.507202 180.0
185.63707 140.0
185.663254 40.0
185.703934 208.0
185.823288 84.0
185.857086 140.0
185.910126 72.0
186.01326 80.0
186.051254 184.0
186.070267 240.0
186.09938 1136.0
186.16098 136.0
186.287521 48.0
186.325546 132.0
186.350006 40.0
186.369019 132.0
186.415222 192.0
186.453262 156.0
186.477722 184.0
186.572861 176.0
186.613632 80.0
186.738724 140.0
186.761078 200.0
186.80867 196.0
186.907898 192.0
186.961807 172.0
187.00264 64.0
187.111649 2784.0
187.176865 60.0
187.234055 100.0
187.255844 128.0
187.318481 136.0
187.477524 260.0
187.509216 160.0
187.52829 128.0
187.571899 208.0
187.596436 88.0
187.658508 52.0
187.689133 224.0
187.712143 136.0
187.744934 180.0
187.800934 92.0
187.828217 64.0
187.907333 132.0
187.942795 124.0
188.016479 228.0
188.062866 88.0
188.117188 640.0
188.245789 300.0
188.296341 136.0
188.360489 64.0
188.538086 160.0
188.568146 92.0
188.631409 56.0
188.652542 64.0
188.759506 108.0
188.830612 76.0
188.866165 184.0
188.945496 204.0
188.973648 288.0
189.093262 52.0
189.123367 136.0
189.172638 216.0
189.317856 104.0
189.353348 192.0
189.380737 128.0
189.531403 68.0
189.635544 112.0
189.676666 124.0
189.750671 200.0
189.79454 144.0
189.84938 128.0
189.967682 152.0
190.059616 200.0
190.16214 76.0
190.307632 164.0
190.392761 120.0
190.428452 152.0
190.568558 120.0
190.634506 124.0
190.661987 188.0
190.815918 132.0
190.868912 232.0
190.931396 148.0
190.994659 120.0
191.267059 56.0
191.327621 164.0
191.454285 196.0
191.492844 112.0
191.628616 180.0
191.649857 120.0
191.732529 176.0
191.823486 160.0
192.074402 100.0
192.16301 136.0
192.195786 152.0
192.237183 40.0
192.314453 76.0
192.419357 72.0
192.5298 148.0
192.607132 48.0
192.712112 132.0
192.756317 184.0
192.78949 84.0
192.814362 116.0
192.869705 152.0
193.007858 156.0
193.029984 240.0
193.054871 128.0
193.076996 132.0
193.190399 176.0
193.245728 244.0
193.391754 172.0
193.461746 144.0
193.533569 56.0
193.627731 164.0
193.716354 112.0
193.749268 168.0
193.771759 196.0
193.960205 120.0
194.076645 188.0
194.122833 188.0
194.182022 136.0
194.212524 140.0
194.234711 156.0
194.284348 184.0
194.373428 104.0
194.394272 124.0
194.567719 188.0
194.631577 128.0
194.712097 236.0
194.748215 192.0
194.81488 172.0
194.932114 164.0
194.978806 144.0
195.012161 128.0
195.085968 128.0
195.118713 276.0
195.1595 100.0
195.279068 168.0
195.345825 216.0
195.382919 108.0
195.412598 124.0
195.460922 152.0
195.498856 176.0
195.543381 128.0
195.565643 80.0
195.629669 152.0
195.685349 60.0
195.784271 76.0
195.883072 132.0
195.93338 128.0
195.963852 188.0
196.022369 112.0
196.085602 600.0
196.120163 132.0
196.384796 180.0
196.488007 152.0
196.541016 124.0
196.683334 176.0
196.766891 172.0
197.037827 200.0
197.097229 2236.0
197.129089 132.0
197.250366 352.0
197.269943 88.0
197.297897 152.0
197.348221 140.0
197.367783 112.0
197.399811 248.0
197.493637 140.0
197.56076 108.0
197.661484 116.0
197.683868 120.0
197.77063 240.0
197.833344 188.0
197.877014 176.0
197.938599 236.0
197.969406 136.0
198.018311 156.0
198.104553 45540.0
198.194061 180.0
198.21785 168.0
198.280365 44.0
198.301743 140.0
198.339233 100.0
198.374069 64.0
198.408401 160.0
198.469452 68.0
198.499023 144.0
198.56073 20.0
198.577545 84.0
198.610809 76.0
198.671204 144.0
198.724442 88.0
198.754288 124.0
198.799179 48.0
198.836365 208.0
198.856903 120.0
198.941971 72.0
199.008408 140.0
199.049011 108.0
199.10997 11644.0
199.217529 152.0
199.265289 116.0
199.293381 88.0
199.355194 96.0
199.38353 96.0
199.456375 48.0
199.482254 184.0
199.50705 144.0
199.546249 180.0
199.552643 148.0
199.611008 148.0
199.644745 112.0
199.709427 92.0
199.735168 376.0
199.775864 156.0
199.809387 180.0
199.852905 132.0
199.878235 176.0
199.897919 124.0
199.948578 108.0
199.984634 64.0
200.042831 132.0
200.066803 52.0
200.118362 3116.0
200.154083 88.0
200.193497 84.0
200.216309 40.0
200.258102 64.0
200.290665 160.0
200.355377 136.0
200.381882 100.0
200.39183 88.0
200.417984 156.0
200.464828 240.0
200.503387 92.0
200.529755 112.0
200.585129 76.0
200.620193 100.0
200.641495 124.0
200.66124 152.0
200.710541 72.0
200.798645 164.0
200.9207 68.0
200.948029 216.0
200.999695 148.0
201.120407 748.0
201.210205 72.0
201.232834 80.0
201.253738 56.0
201.281967 68.0
201.315857 60.0
201.442947 160.0
201.490219 196.0
201.553757 72.0
201.640732 104.0
201.664963 244.0
201.725525 144.0
201.748138 164.0
201.767929 32.0
201.790558 64.0
201.881027 56.0
202.005478 152.0
202.098846 152.0
202.127289 144.0
202.167694 120.0
202.200714 100.0
202.282791 128.0
202.435684 56.0
202.497375 132.0
202.591461 72.0
202.611282 108.0
202.713287 44.0
202.775635 208.0
202.815308 132.0
202.869171 152.0
202.948547 72.0
202.993927 236.0
203.070496 180.0
203.101685 128.0
203.121552 112.0
203.207672 144.0
203.245285 156.0
203.300293 176.0
203.399628 168.0
203.535889 192.0
203.625275 84.0
203.663696 168.0
203.684235 120.0
203.726181 96.0
203.774475 108.0
203.848358 88.0
203.888138 112.0
203.957886 236.0
204.016052 144.0
204.058685 148.0
204.084274 224.0
204.31749 60.0
204.380081 60.0
204.400009 132.0
204.445526 152.0
204.491074 180.0
204.533768 176.0
204.599228 224.0
204.652435 216.0
204.718277 188.0
204.767227 228.0
204.846985 120.0
204.869781 28.0
205.143341 32.0
205.27449 176.0
205.295944 44.0
205.408539 160.0
205.49733 192.0
205.531219 80.0
205.628235 184.0
205.759552 148.0
205.884476 228.0
205.993713 208.0
206.093704 96.0
206.253738 36.0
206.325211 144.0
206.365234 120.0
206.416702 192.0
206.528229 96.0
206.629944 72.0
206.674133 116.0
206.752136 216.0
206.787247 244.0
206.977539 196.0
207.086365 156.0
207.126465 108.0
207.199402 104.0
207.218811 168.0
207.274963 120.0
207.47171 192.0
207.527664 116.0
207.714081 192.0
207.797272 232.0
208.00676 44.0
208.122803 208.0
208.153183 144.0
208.403076 148.0
208.466293 144.0
208.55069 108.0
208.5755 112.0
208.627243 212.0
208.727875 148.0
208.762375 152.0
208.79689 140.0
208.934952 84.0
209.034943 208.0
209.075943 168.0
209.108826 1340.0
209.178177 140.0
209.210007 76.0
209.248138 224.0
209.286072 104.0
209.381104 160.0
209.430069 128.0
209.479034 124.0
209.502975 220.0
209.548172 84.0
209.718201 224.0
209.741257 120.0
209.764313 76.0
209.835251 184.0
209.917114 124.0
209.945953 108.0
209.99498 164.0
210.022461 120.0
210.105789 388.0
210.130417 360.0
210.217117 56.0
210.252502 180.0
210.277725 40.0
210.309479 56.0
210.352768 36.0
210.375854 40.0
210.396072 148.0
210.488464 152.0
210.572205 64.0
210.648636 156.0
210.694901 236.0
210.803314 124.0
210.855331 172.0
210.921814 96.0
210.967056 184.0
210.999863 136.0
211.022995 72.0
211.112701 2520.0
211.167572 176.0
211.19072 176.0
211.266632 172.0
211.474258 112.0
211.520569 172.0
211.561096 216.0
211.619003 144.0
211.647949 112.0
211.669312 128.0
211.714554 156.0
211.747528 176.0
211.876755 184.0
211.92601 112.0
211.952087 128.0
212.041931 84.0
212.068008 96.0
212.119843 2448.0
212.157867 224.0
212.239044 64.0
212.270935 160.0
212.291245 172.0
212.311539 48.0
212.334747 108.0
212.379135 144.0
212.525452 156.0
212.559647 280.0
212.598053 136.0
212.632309 204.0
212.652588 200.0
212.688705 200.0
212.710876 144.0
212.787415 68.0
212.8237 168.0
212.855362 128.0
212.876938 160.0
212.957443 132.0
212.983154 128.0
213.022415 152.0
213.039658 372.0
213.070847 252.0
213.128708 144444.0
213.227966 128.0
213.253632 96.0
213.294724 188.0
213.302719 352.0
213.335938 96.0
213.358231 200.0
213.403061 132.0
213.410172 196.0
213.463287 156.0
213.51001 88.0
213.529892 132.0
213.572311 120.0
213.605392 204.0
213.627274 132.0
213.694275 76.0
213.731567 52.0
213.759537 108.0
213.82222 52.0
213.865982 112.0
213.92038 188.0
213.92981 128.0
213.939682 308.0
213.993393 156.0
214.005234 124.0
214.034622 220.0
214.0755 132.0
214.132019 21004.0
214.18132 380.0
214.216034 144.0
214.231506 64.0
214.239212 116.0
214.270645 152.0
214.314255 120.0
214.330261 96.0
214.352081 76.0
214.404694 100.0
214.425079 40.0
214.457611 76.0
214.504364 80.0
214.582642 280.0
214.619064 72.0
214.657288 256.0
214.691208 80.0
214.70108 60.0
214.71283 120.0
214.718719 100.0
214.733643 48.0
214.791061 92.0
214.825058 92.0
214.859161 500.0
214.877716 232.0
214.902039 152.0
214.93309 176.0
214.961182 212.0
214.98317 184.0
214.994659 256.0
215.006821 176.0
215.036667 296.0
215.080841 208.0
215.144318 112544.0
215.249435 48.0
215.320236 276.0
215.352539 104.0
215.388641 276.0
215.41951 188.0
215.444977 60.0
215.473618 244.0
215.508453 184.0
215.542328 180.0
215.585754 60.0
215.623413 324.0
215.664276 100.0
215.687393 116.0
215.722504 80.0
215.741943 220.0
215.787674 156.0
215.807831 284.0
215.847672 128.0
215.873917 224.0
215.911758 52.0
215.924377 44.0
215.970367 324.0
215.99791 152.0
216.041931 104.0
216.094467 156.0
216.146713 15528.0
216.198593 216.0
216.238754 44.0
216.27681 112.0
216.305298 224.0
216.309952 124.0
216.321503 224.0
216.348068 140.0
216.384003 188.0
216.430557 52.0
216.458313 120.0
216.513474 48.0
216.560333 132.0
216.595963 88.0
216.636978 80.0
216.682144 48.0
216.718445 124.0
216.798126 80.0
216.830353 64.0
216.880188 56.0
216.90657 40.0
216.945755 108.0
216.972733 56.0
217.055618 76.0
217.091904 56.0
217.151489 1460.0
217.189697 136.0
217.239044 52.0
217.294876 96.0
217.351196 88.0
217.412842 160.0
217.45166 52.0
217.478531 120.0
217.508011 168.0
217.550262 168.0
217.571243 96.0
217.595947 88.0
217.622375 164.0
217.645859 80.0
217.678101 200.0
217.720184 168.0
217.77681 112.0
217.806519 252.0
217.825317 144.0
217.855621 108.0
217.896301 104.0
217.918594 192.0
217.971909 32.0
218.018921 116.0
218.07373 68.0
218.13942 48.0
218.160004 152.0
218.203278 128.0
218.242325 56.0
218.295258 64.0
218.336426 104.0
218.407013 64.0
218.439362 92.0
218.58075 140.0
218.606613 128.0
218.680634 72.0
218.721848 60.0
218.82782 64.0
218.857269 88.0
218.988602 80.0
219.1194 116.0
219.195999 84.0
219.249039 172.0
219.32428 76.0
219.364426 216.0
219.399368 32.0
219.431793 80.0
219.476028 28.0
219.511414 64.0
219.535004 108.0
219.71492 60.0
219.915573 156.0
220.225586 108.0
220.281708 100.0
220.34375 204.0
220.373291 76.0
220.408752 144.0
220.488541 76.0
220.633377 160.0
220.689545 212.0
220.710083 144.0
220.763474 48.0
220.822617 168.0
221.094803 68.0
221.115509 104.0
221.151031 76.0
221.225037 40.0
221.245758 60.0
221.34642 36.0
221.393799 132.0
221.713745 88.0
221.749313 72.0
221.944962 76.0
221.980545 108.0
222.022064 192.0
222.205963 40.0
222.553223 220.0
222.612167 164.0
222.780823 232.0
223.183121 136.0
223.219604 164.0
223.367508 116.0
223.474594 80.0
223.662079 64.0
223.721619 196.0
223.830338 124.0
223.894318 188.0
223.962814 144.0
224.061111 156.0
224.102829 192.0
224.123688 108.0
224.174332 56.0
224.266724 124.0
224.359131 208.0
224.400864 36.0
224.493301 184.0
224.523132 40.0
224.546982 120.0
224.612854 48.0
224.68718 96.0
224.866211 100.0
224.922928 52.0
224.973679 132.0
225.111008 176.0
225.136307 268.0
225.164764 148.0
225.251389 76.0
225.290222 76.0
225.311127 48.0
225.373871 56.0
225.705643 124.0
225.762466 84.0
225.825272 60.0
225.85817 80.0
225.953903 160.0
225.974838 48.0
225.998779 96.0
226.091537 116.0
226.13588 132.0
226.169357 60.0
226.304062 152.0
226.438812 100.0
226.552643 100.0
226.645523 92.0
226.873291 160.0
227.143936 172.0
227.194168 60.0
227.317932 48.0
227.389206 60.0
227.512833 152.0
227.572327 68.0
227.641388 180.0
227.68042 136.0
227.896698 92.0
228.098053 104.0
228.173203 92.0
228.20929 88.0
228.245361 108.0
228.455887 80.0
228.696609 56.0
228.723709 168.0
228.814011 132.0
228.84111 80.0
229.079025 184.0
229.161652 316.0
229.208572 116.0
229.279861 128.0
229.314056 60.0
229.46347 120.0
229.775406 220.0
229.843964 72.0
230.156891 192.0
230.309708 52.0
230.330856 76.0
230.382217 116.0
230.572571 68.0
230.750916 184.0
230.781143 124.0
230.83255 108.0
230.9384 108.0
231.165298 96.0
231.234894 92.0
231.437714 140.0
231.661835 188.0
232.077209 196.0
232.805283 244.0
232.862976 96.0
233.109055 144.0
233.191101 140.0
233.64418 168.0
233.975891 52.0
234.073334 200.0
234.152512 124.0
234.176865 160.0
234.30481 144.0
234.38707 144.0
234.530304 200.0
234.684586 164.0
234.801651 44.0
234.929764 248.0
235.170822 104.0
235.311234 56.0
235.567764 60.0
235.634964 56.0
236.054672 192.0
236.252518 140.0
236.592209 164.0
236.628937 76.0
237.070023 80.0
237.155823 60.0
237.284576 188.0
237.361221 52.0
237.444031 48.0
237.664886 244.0
237.781494 104.0
238.087326 156.0
238.334244 184.0
238.663132 172.0
238.69696 108.0
238.899948 176.0
238.995316 192.0
239.14415 252.0
239.198425 92.0
239.253845 200.0
239.373917 132.0
239.494034 100.0
239.92543 132.0
239.990173 192.0
240.027176 208.0
240.076508 108.0
240.116608 108.0
240.142395 176.0
240.286255 164.0
240.366486 108.0
240.412766 68.0
240.540802 216.0
240.770874 176.0
240.8172 128.0
240.872803 144.0
240.999466 180.0
241.036545 132.0
241.070526 132.0
241.104523 232.0
241.159424 4176.0
241.21579 28.0
241.404388 48.0
241.704437 124.0
241.73848 156.0
241.862274 56.0
241.945847 36.0
242.162964 508.0
242.277206 40.0
242.577805 68.0
242.655304 80.0
242.717316 48.0
242.850662 176.0
242.932922 160.0
243.114365 88.0
243.164032 168.0
243.216782 112.0
243.241623 144.0
243.269562 200.0
243.377136 80.0
243.52417 88.0
243.549026 52.0
243.844177 44.0
244.09288 28.0
244.17305 200.0
244.276382 60.0
244.752533 160.0
245.156235 300.0
245.167389 180.0
245.643875 52.0
246.258774 44.0
246.600494 96.0
247.425125 116.0
247.472092 108.0
247.873016 112.0
248.258575 96.0
249.215958 76.0
249.737793 88.0
250.351501 120.0
250.669662 168.0
250.754745 140.0
250.858765 124.0
251.180405 108.0
251.205627 96.0
251.486465 52.0
251.615891 160.0
251.732712 156.0
251.799026 44.0
251.903259 36.0
251.991714 128.0
252.073868 76.0
252.276138 76.0
252.450043 204.0
252.620834 168.0
252.845474 184.0
252.886627 184.0
252.994247 152.0
253.345749 92.0
253.925812 96.0
254.580322 168.0
255.113342 104.0
255.498138 188.0
255.526764 144.0
255.671936 340.0
256.023315 104.0
256.112488 36.0
256.182587 188.0
256.233551 92.0
256.380127 148.0
256.561798 220.0
256.721222 160.0
256.775452 80.0
257.185089 440.0
257.461578 208.0
258.142242 32.0
258.171051 156.0
258.193024 128.0
258.484528 248.0
259.180817 168.0
259.25946 128.0
259.38446 92.0
259.406921 120.0
259.580048 156.0
259.759644 60.0
259.88797 40.0
260.041992 112.0
261.031464 108.0
261.070038 28.0
261.156891 124.0
261.227631 112.0
261.288757 44.0
261.610596 140.0
261.758698 92.0
261.919708 148.0
261.968018 92.0
262.042114 156.0
262.148468 96.0
262.296722 88.0
262.383759 120.0
263.203247 120.0
263.429321 52.0
263.846222 224.0
263.87207 236.0
263.904388 44.0
264.091949 188.0
264.491943 148.0
264.797516 184.0
264.920624 144.0
265.053436 176.0
265.306244 68.0
265.328949 80.0
265.393768 144.0
265.520264 100.0
265.903076 56.0
265.961487 136.0
266.179016 180.0
266.445343 164.0
266.481079 164.0
266.591553 72.0
266.737823 52.0
267.014191 132.0
267.128021 116.0
267.150787 44.0
267.183319 92.0
267.625946 104.0
267.834351 188.0
267.873444 108.0
267.96814 132.0
268.003754 284.0
268.098267 188.0
268.222107 172.0
268.326416 64.0
268.424255 84.0
269.5112 144.0
269.622284 108.0
269.697449 64.0
269.730164 76.0
269.815155 156.0
269.89035 140.0
270.142151 160.0
270.189514 200.0
270.233765 152.0
270.395142 76.0
270.49231 68.0
270.583954 104.0
270.724762 108.0
270.797821 144.0
270.831238 132.0
270.875427 128.0
270.947479 124.0
270.980988 104.0
271.022827 172.0
271.116638 244.0
271.168579 84.0
271.194092 172.0
271.255524 76.0
271.283447 332.0
271.307983 80.0
271.348724 140.0
271.37027 260.0
271.395996 160.0
271.422729 100.0
271.465363 256.0
271.55542 284.0
271.612854 188.0
271.668701 168.0
271.703522 236.0
271.73407 204.0
271.803589 160.0
271.845276 128.0
271.925781 116.0
271.963776 236.0
271.98938 248.0
272.023102 180.0
272.05191 192.0
272.059723 196.0
272.072723 172.0
272.129395 384.0
272.202454 151556.0
272.280914 220.0
272.312805 148.0
272.340271 136.0
272.378662 116.0
272.407959 136.0
272.451477 132.0
272.475464 64.0
272.510712 88.0
272.562134 168.0
272.588135 112.0
272.632355 80.0
272.685974 188.0
272.743073 772.0
272.786469 144.0
272.819855 252.0
272.85611 136.0
272.885223 132.0
272.906555 44.0
272.911896 52.0
272.949585 120.0
273.010803 144.0
273.067749 220.0
273.135773 340.0
273.204956 24996.0
273.25946 136.0
273.303925 96.0
273.338959 64.0
273.399933 84.0
273.428986 104.0
273.456207 52.0
273.500702 48.0
273.538483 60.0
273.59259 176.0
273.650421 56.0
273.680878 48.0
273.719116 60.0
273.776581 176.0
273.836853 84.0
273.859406 104.0
273.916443 72.0
274.005829 48.0
274.018097 56.0
274.052856 64.0
274.113098 76.0
274.16275 52.0
274.207214 3140.0
274.261749 144.0
274.290955 64.0
274.344452 36.0
274.372894 68.0
274.402313 72.0
274.439423 92.0
274.464233 112.0
274.495697 52.0
274.509949 60.0
274.573059 28.0
274.602753 112.0
274.662842 72.0
274.69046 76.0
274.714874 116.0
274.750275 104.0
274.780853 116.0
274.829407 164.0
274.866669 112.0
274.888916 48.0
274.940674 128.0
274.980652 44.0
274.98877 56.0
275.012604 116.0
275.060486 164.0
275.111328 120.0
275.151001 52.0
275.159973 92.0
275.173401 124.0
275.185242 84.0
275.222443 284.0
275.27597 128.0
275.310791 96.0
275.443176 96.0
275.546814 76.0
275.631897 64.0
275.683746 36.0
275.745087 68.0
275.858887 64.0
275.907043 72.0
275.942139 84.0
275.996307 48.0
276.042603 132.0
276.082275 52.0
276.131897 64.0
276.18811 56.0
276.267517 84.0
276.293976 56.0
276.403168 56.0
276.505737 80.0
276.654694 40.0
276.770569 52.0
276.836792 64.0
276.876526 76.0
277.290649 52.0
277.496185 60.0
277.768097 44.0
277.963837 52.0
277.99704 100.0
278.594666 96.0
278.757477 44.0
279.415802 52.0
280.081573 56.0
280.458099 88.0
280.638123 60.0
280.71814 56.0
281.024994 48.0
281.455566 76.0
281.559082 80.0
282.437927 76.0
282.588623 52.0
282.699066 32.0
282.822876 148.0
283.75415 112.0
283.804443 104.0
283.827911 60.0
283.858093 120.0
283.998932 52.0
284.082794 68.0
284.250549 84.0
284.482147 76.0
284.579498 32.0
284.727234 60.0
285.096771 68.0
285.258118 44.0
285.594055 88.0
286.102478 108.0
286.301117 68.0
287.950256 108.0
288.274567 80.0
289.885315 116.0
290.085297 84.0
290.323975 100.0
291.340881 48.0
291.663696 116.0
291.755493 116.0
292.173767 56.0
292.575348 92.0
293.87384 52.0
294.03421 80.0
295.993011 124.0
296.034088 48.0
296.061493 76.0
296.544556 48.0
298.133545 80.0
298.356964 64.0
299.093109 72.0
299.196381 64.0
299.26178 72.0
299.475281 88.0
301.984467 72.0
303.747498 140.0
303.872375 76.0
303.938293 76.0
304.570129 92.0
305.588684 48.0
305.856659 104.0
305.881012 52.0
307.37265 92.0
307.623932 48.0
307.962646 116.0
308.993835 52.0
309.284302 32.0
311.328278 48.0
312.671204 96.0
313.304993 28.0
313.780762 96.0
313.80896 136.0
315.60965 56.0
316.32782 56.0
316.501312 52.0
316.859039 108.0
318.657776 60.0
319.336731 128.0
319.991486 80.0
320.066254 60.0
321.053314 80.0
321.766937 84.0
323.568817 100.0
326.234283 96.0
329.073151 60.0
329.257324 72.0
330.338013 88.0
330.728821 92.0
330.920685 104.0
331.648804 60.0
332.160065 40.0
332.64267 64.0
335.738953 80.0
336.016144 96.0
336.636658 80.0
336.943481 56.0
337.286987 72.0
338.399078 72.0
339.234344 40.0
339.292999 80.0
339.799103 112.0
340.022949 96.0
340.70224 148.0
341.088074 64.0
341.496216 60.0
343.286041 88.0
343.315521 88.0
343.643829 56.0
343.691772 84.0
344.116241 120.0
344.474457 88.0
345.254333 156.0
347.717957 44.0
349.044159 80.0
349.077637 92.0
349.453308 68.0
350.045105 128.0
354.126953 36.0
356.328888 156.0
357.686432 108.0
361.135132 56.0
363.131104 64.0
365.493988 48.0
366.023071 72.0
366.346802 120.0
366.51062 44.0
368.540497 44.0
371.357971 40.0
372.006439 28.0
374.240082 40.0
375.801056 76.0
378.247314 56.0
380.468536 36.0
382.579437 76.0
383.650757 72.0
384.071869 132.0
384.501068 64.0
384.555695 172.0
385.614136 68.0
386.130188 88.0
388.496002 80.0
390.192535 80.0
391.944 128.0
394.070679 68.0
399.876068 92.0
400.871674 80.0
401.417786 84.0
403.777924 88.0
407.473694 92.0
409.215149 76.0
411.674774 88.0
412.018097 84.0
415.256348 124.0
416.786774 56.0
417.368011 108.0
417.65271 88.0
418.372955 96.0
419.240509 112.0
419.815308 52.0
421.239716 80.0
422.846588 52.0
423.296906 76.0
426.151703 76.0
430.245453 68.0
430.695557 76.0
431.212006 92.0
432.444489 92.0
433.673065 68.0
434.657471 52.0
435.437897 72.0
440.039215 48.0
440.770142 36.0
444.807404 36.0
444.891357 140.0
445.81958 84.0
446.959167 40.0
447.161163 68.0
448.260284 60.0
453.74231 60.0
454.183319 92.0
455.099945 36.0
457.450958 28.0
457.748993 68.0
458.243073 96.0
458.311249 140.0
459.338654 56.0
459.577576 76.0
459.970184 48.0
461.589386 92.0
462.509186 88.0
463.627014 80.0
465.025116 68.0
466.498413 100.0
468.969147 60.0
470.504791 120.0
474.194489 40.0
474.684387 92.0
475.855896 44.0
477.015808 48.0
477.198395 56.0
481.097534 36.0
483.645966 44.0
483.961151 56.0
484.061859 116.0
486.776184 108.0
490.806793 104.0
492.214355 68.0
492.709045 52.0
496.404816 96.0
498.517822 72.0
499.92749 44.0
501.856232 84.0
503.158997 56.0
503.72168 96.0
505.366852 92.0
508.7146 76.0
510.462311 76.0
511.5466 44.0
522.052429 104.0
522.175232 96.0
527.720276 48.0
530.380005 76.0
531.141113 100.0
531.370483 88.0
531.691711 80.0
533.818665 84.0
538.011414 84.0
538.565552 56.0
538.634827 76.0
539.868835 64.0
542.767639 116.0
543.583984 88.0
544.136353 60.0
548.555786 64.0
548.812195 44.0
549.133972 104.0
551.627319 84.0
553.784424 68.0
556.105225 76.0
556.739014 100.0
558.924866 124.0
568.427307 56.0
569.20105 144.0
572.591675 72.0
577.096313 56.0
577.756287 52.0
579.321716 56.0
584.90155 100.0
584.992981 96.0
588.695862 116.0
589.183655 48.0
592.793152 56.0
595.388428 104.0
596.262939 76.0
598.851257 40.0
601.58667 84.0
601.796631 44.0
605.689331 80.0
607.43927 52.0
607.552063 84.0
618.496582 80.0
621.043396 68.0
623.148132 48.0
623.50592 104.0
627.672546 64.0
627.727356 48.0
634.773071 104.0
635.244507 20.0
639.203491 60.0
642.25647 80.0
642.670166 40.0
644.427185 72.0
650.895325 64.0
651.255859 80.0
651.291443 92.0
653.528198 68.0
653.747009 48.0
653.869141 104.0
654.780457 136.0
658.983704 88.0
659.361816 76.0
660.732178 68.0
663.261902 100.0
663.472046 80.0
663.533569 176.0
667.142578 56.0
671.94751 68.0
675.786255 48.0
684.209595 116.0
687.592468 100.0
691.130188 60.0
691.255798 216.0
696.46698 116.0
701.639709 84.0
703.232727 56.0
704.125 44.0
708.46228 60.0
713.844177 80.0
716.510742 92.0
723.0625 32.0
723.158875 108.0
723.47467 236.0
728.59613 132.0
732.18927 180.0
736.676819 56.0
737.50354 72.0
740.073181 52.0
742.739441 44.0
743.227722 60.0
745.633362 40.0
747.803345 116.0
748.195312 112.0
749.028442 124.0
754.933777 92.0
757.2323 144.0
757.36377 40.0
757.528076 60.0
760.582336 40.0
760.845825 144.0
762.444214 128.0
770.676819 44.0
770.947571 116.0
771.682739 60.0
772.047668 68.0
779.175781 260.0
782.223267 148.0
787.397461 64.0
790.181152 156.0
794.971863 124.0
796.903442 160.0
797.021423 88.0
798.5224 100.0
798.679871 84.0
799.056763 144.0
799.838989 252.0
799.900879 140.0
801.387634 116.0
801.855347 60.0
807.676453 164.0
808.196899 52.0
808.66095 136.0
809.408203 116.0
809.997192 116.0
814.029602 44.0
814.711182 80.0
816.0979 56.0
816.166138 96.0
817.383362 196.0
819.473022 168.0
821.251587 44.0
821.799255 108.0
823.060669 208.0
823.500366 92.0
823.754883 172.0
823.814514 92.0
824.745911 112.0
826.392883 68.0
829.852295 32.0
833.887756 144.0
834.40509 92.0
842.190247 100.0
842.785278 68.0
843.496094 68.0
844.137878 112.0
846.186157 48.0
846.597229 60.0
847.292297 172.0
848.990601 204.0
849.599609 144.0
850.156616 168.0
854.654236 104.0
855.748413 184.0
855.987183 92.0
857.600891 100.0
859.204468 92.0
859.764648 160.0
862.322632 160.0
863.187805 44.0
864.129517 64.0
865.335205 112.0
866.565125 192.0
868.241577 120.0
868.611084 244.0
870.107483 160.0
871.799133 48.0
872.045959 100.0
873.127747 128.0
873.580627 156.0
875.758545 212.0
883.988281 180.0
887.708313 76.0
889.161743 236.0
889.951294 72.0
900.22876 116.0
901.070923 172.0
901.256165 60.0
902.302063 92.0
903.103394 48.0
903.42041 128.0
905.239929 32.0
905.467468 112.0
905.832825 180.0
906.108398 192.0
907.193115 196.0
907.542664 172.0
908.506409 176.0
910.09082 144.0
910.493164 144.0
911.02771 124.0
911.141846 168.0
912.295715 156.0
916.57489 208.0
917.135376 180.0
917.71405 136.0
919.843689 140.0
920.4776 160.0
921.758179 60.0
922.060303 80.0
922.144958 160.0
922.441101 200.0
922.743347 192.0
923.075928 196.0
925.75061 112.0
926.132141 76.0
927.301453 136.0
927.907654 84.0
929.114502 116.0
934.874634 176.0
935.075439 64.0
935.477173 120.0
935.635437 40.0
935.812012 168.0
935.93988 76.0
938.383118 96.0
939.54187 156.0
940.048279 132.0
940.274048 108.0
941.061523 228.0
941.67218 36.0
942.264709 140.0
942.814636 144.0
944.502075 156.0
945.279053 100.0
946.509399 132.0
947.575012 164.0
949.340454 68.0
952.974243 152.0
954.20343 88.0
957.550903 184.0
958.019043 156.0
958.197693 188.0
958.518066 112.0
959.874146 128.0
960.620422 164.0
961.410156 180.0
962.33606 52.0
964.275757 160.0
964.850586 68.0
966.87323 200.0
967.139404 96.0
967.640808 172.0
968.055664 216.0
969.337891 132.0
971.632019 40.0
973.537537 120.0
974.407104 108.0
975.333069 188.0
975.774414 140.0
976.794312 180.0
976.875183 204.0
977.341736 60.0
977.472412 52.0
977.621765 192.0
978.736023 180.0
979.358765 184.0
979.987976 136.0
980.548767 232.0
981.066101 144.0
981.352905 148.0
981.415283 144.0
981.689636 172.0
982.475525 184.0
983.561279 252.0
985.266052 124.0
986.122131 152.0
987.566406 84.0
988.511047 100.0
989.356018 168.0
989.856934 160.0
990.057312 164.0
991.178589 136.0
991.761414 140.0
991.880493 104.0
992.407104 52.0
994.23877 172.0
994.565125 128.0
999.278198 84.0
999.536194 100.0
1000.008179 160.0
1000.60614 144.0
1001.015442 168.0
1001.254761 104.0
1002.168091 88.0
1002.401245 104.0
1002.867615 104.0
1009.7052 160.0
1010.742676 128.0
1010.951477 216.0
1011.438782 188.0
1011.888245 164.0
1011.938904 76.0
1013.199219 144.0
1013.991272 160.0
1014.276489 216.0
1014.473022 120.0
1015.221191 156.0
1015.622314 228.0
1016.217041 128.0
1016.420105 132.0
1017.181641 180.0
1020.103699 48.0
1020.993835 128.0
1022.533386 48.0
1022.794373 156.0
1023.458862 200.0
1023.806702 172.0
1024.144165 68.0
1025.322876 60.0
1027.15918 204.0
1027.254883 168.0
1028.680908 112.0
1029.4823 180.0
1031.354248 40.0
1033.579712 180.0
1034.277344 240.0
1035.122437 52.0
1037.618164 232.0
1038.089355 228.0
1038.307373 52.0
1039.436401 140.0
1040.033203 136.0
1040.103882 244.0
1040.264282 48.0
1040.572388 188.0
1041.156738 144.0
1041.259521 80.0
1041.737793 160.0
1043.116455 196.0
1043.984375 232.0
1045.328857 100.0
1045.933838 180.0
1046.204224 148.0
1049.631714 152.0
1050.050903 36.0
1051.676758 48.0
1052.135132 124.0
1052.858276 76.0
1053.478394 36.0
1053.588135 228.0
1053.846558 180.0
1054.098633 92.0
1054.576782 236.0
1055.3396 144.0
1055.598267 148.0
1055.837524 80.0
1056.025146 120.0
1056.439087 156.0
1057.144287 164.0
1057.590942 116.0
1057.720337 92.0
1058.624878 128.0
1059.015259 36.0
1059.080078 92.0
1059.255005 144.0
1059.436401 180.0
1059.611328 48.0
1059.864014 108.0
1060.019531 128.0
1060.790771 68.0
1061.983765 44.0
1063.813599 68.0
1063.949951 224.0
1064.203125 196.0
1065.008423 88.0
1065.27478 200.0
1065.417603 184.0
1065.714355 204.0
1067.230103 180.0
1067.328491 196.0
1067.926758 176.0
1068.629272 136.0
1068.935059 192.0
1069.377686 164.0
1069.585693 200.0
1070.165283 36.0
1070.236938 252.0
1070.321533 172.0
1070.796997 196.0
1071.161743 120.0
1071.552612 168.0
1072.073853 80.0
1072.601807 220.0
1074.147217 80.0
1075.047485 84.0
1075.112793 204.0
1076.522827 148.0
1076.799805 116.0
1077.241333 204.0
1077.293579 96.0
1077.522217 156.0
1078.19519 184.0
1079.450317 152.0
1079.568115 220.0
1079.88855 144.0
1079.973511 144.0
1080.052002 148.0
1080.601562 148.0
1080.699707 356.0
1080.994141 60.0
1081.412964 168.0
1082.296753 176.0
1082.722412 96.0
1086.349609 120.0
1086.589722 40.0
1086.655273 272.0
1086.838989 144.0
1089.0448 212.0
1089.274658 152.0
1089.938232 132.0
1090.437622 60.0
1091.062134 92.0
1091.279053 160.0
1091.515747 144.0
1091.601318 124.0
1092.127441 76.0
1092.791748 252.0
1093.469604 116.0
1094.549194 172.0
1095.84021 108.0
1096.268433 244.0
1096.485962 116.0
1097.394043 208.0
1098.411255 148.0
1098.873047 116.0
1099.09729 176.0
1099.612061 132.0
1100.21936 44.0
1100.648438 152.0
1101.652344 192.0
1102.080322 216.0
1103.648315 144.0
1103.773926 44.0
1103.932617 152.0
1104.851929 164.0
1104.937988 56.0
1105.460693 136.0
1106.135742 108.0
1106.268188 180.0
1106.804443 104.0
1108.062866 248.0
1108.480225 140.0
1109.328613 132.0
1109.938599 144.0
1110.648193 128.0
1110.913452 104.0
1112.343872 188.0
1112.904541 236.0
1113.20874 220.0
1113.63501 112.0
1116.213501 232.0
1117.630249 56.0
1117.876465 36.0
1118.974731 116.0
1119.727173 216.0
1120.01355 40.0
1120.99292 212.0
1121.086182 184.0
1121.429321 216.0
1121.579468 188.0
1121.639404 168.0
1122.206055 132.0
1122.259399 80.0
1122.505493 136.0
1123.072998 72.0
1124.667603 180.0
1124.787842 168.0
1124.834473 152.0
1125.014771 52.0
1125.615601 76.0
1126.4104 212.0
1127.278931 88.0
1128.448608 116.0
1128.662598 60.0
1129.063843 188.0
1129.311279 128.0
1130.140869 104.0
1130.582397 204.0
1132.517334 148.0
1132.637817 144.0
1133.065552 180.0
1133.193848 72.0
1133.408325 184.0
1133.589233 180.0
1133.957764 132.0
1134.768921 180.0
1135.365723 28.0
1136.244385 148.0
1137.56189 176.0
1137.78125 144.0
1138.143799 224.0
1138.674316 136.0
1138.754883 180.0
1139.80957 188.0
1140.327026 192.0
1140.495117 148.0
1140.737305 200.0
1141.812866 208.0
1144.12085 76.0
1144.343018 108.0
1144.511353 232.0
1145.08374 156.0
1145.817993 160.0
1146.640015 188.0
1146.855713 140.0
1146.909668 52.0
1147.516357 44.0
1147.853394 208.0
1148.075928 128.0
1148.595337 92.0
1149.398071 192.0
1149.458862 224.0
1150.120239 172.0
1150.192383 156.0
1150.606323 112.0
1151.821777 120.0
1152.145996 132.0
1152.287964 148.0
1152.348755 144.0
1152.50415 72.0
1152.571655 36.0
1152.923096 260.0
1153.463745 140.0
1154.342651 116.0
1154.505005 156.0
1154.809326 148.0
1154.937866 104.0
1154.985229 172.0
1155.648193 164.0
1155.783447 188.0
1155.918823 168.0
1155.9729 88.0
1156.494019 148.0
1156.771606 220.0
1157.103271 112.0
1157.543335 52.0
1157.780396 56.0
1158.511963 48.0
1158.586426 172.0
1158.823608 136.0
1158.911621 208.0
1159.101318 180.0
1159.636719 184.0
1159.724854 80.0
1159.995972 148.0
1160.348511 148.0
1160.463745 164.0
1160.98584 96.0
1161.877075 212.0
1162.471436 196.0
1164.494507 160.0
1164.779785 132.0
1165.207764 128.0
1165.581543 128.0
1166.267944 244.0
1166.893311 132.0
1167.178833 172.0
1168.518799 156.0
1168.578979 160.0
1169.274048 148.0
1169.355713 280.0
1170.417725 148.0
1172.243286 176.0
1174.888672 92.0
1175.25708 168.0
1176.683594 172.0
1178.213379 100.0
1178.336304 88.0
1178.582275 120.0
1179.375 176.0
1180.475708 116.0
1180.72876 140.0
1182.80188 188.0
1182.952515 164.0
1183.233154 148.0
1184.123291 116.0
1184.55481 96.0
1184.835693 164.0
1185.171387 92.0
1185.335938 120.0
1186.631348 116.0
1187.536499 176.0
1189.004639 60.0
1189.519409 80.0
1189.828369 136.0
1190.02063 156.0
1190.089233 132.0
1190.199097 52.0
1190.32959 152.0
1190.58374 188.0
1191.160645 224.0
1191.565918 168.0
1192.101929 36.0
1192.477173 220.0
1193.54541 172.0
1193.641602 116.0
1194.21936 140.0
1194.859009 72.0
1196.228516 140.0
1196.311157 156.0
1196.586548 172.0
1196.861938 212.0
1197.867432 164.0
1198.115356 100.0
1199.700439 100.0
1200.782959 156.0
1201.038208 144.0
1201.555542 148.0
1201.686646 156.0
1202.252441 244.0
1202.362915 136.0
1203.377563 188.0
1204.648315 192.0
1204.744995 84.0
1204.896973 96.0
1205.359863 88.0
1205.69165 160.0
1206.147827 140.0
1206.537354 224.0
1206.696045 180.0
1207.032715 144.0
1207.094971 168.0
1207.634399 168.0
1208.083984 40.0
1208.533691 216.0
1208.703857 216.0
1208.768921 156.0
1209.05957 36.0
1209.384888 232.0
1209.682495 152.0
1209.890137 156.0
1210.12561 200.0
1210.388672 172.0
1210.547974 132.0
1210.714111 204.0
1211.365234 144.0
1213.236206 144.0
1213.575928 176.0
1214.588501 168.0
1215.018555 228.0
1215.247437 176.0
1215.636108 204.0
1216.399536 152.0
1217.135376 84.0
1217.899292 28.0
1218.364746 136.0
1218.871948 176.0
1219.163818 144.0
1219.302734 156.0
1219.594727 132.0
1220.992188 264.0
1221.611206 72.0
1221.66687 132.0
1221.812988 176.0
1222.028564 152.0
1222.397339 44.0
1222.912354 188.0
1223.121216 172.0
1224.276978 152.0
1225.063965 36.0
1225.356567 148.0
1225.523804 200.0
1226.750366 116.0
1227.45459 116.0
1227.559204 140.0
1227.874878 188.0
1228.089233 340.0
1228.326294 184.0
1229.107666 52.0
1229.365845 144.0
1231.160034 112.0
1231.257812 144.0
1231.558105 252.0
1231.907349 132.0
1232.27063 192.0
1232.605957 164.0
1232.850586 148.0
1234.423462 184.0
1234.500366 208.0
1235.164795 144.0
1235.379028 180.0
1235.626465 92.0
1235.892334 132.0
1236.018311 176.0
1236.144287 144.0
1236.459229 116.0
1238.265503 176.0
1238.44751 148.0
1238.825806 160.0
1239.071045 48.0
1240.490479 188.0
1241.376953 116.0
1242.281128 160.0
1243.200928 192.0
1243.425415 92.0
1243.748291 176.0
1243.797485 140.0
1244.120361 160.0
1244.21167 144.0
1245.005859 208.0
1245.630127 168.0
1245.820679 164.0
1246.03064 176.0
1246.086792 68.0
1246.466187 136.0
1246.866821 180.0
1247.182983 52.0
1247.267334 136.0
1247.365845 64.0
1247.57019 144.0
1247.963379 72.0
1248.856445 200.0
1249.799072 64.0
1250.854736 192.0
1250.974487 208.0
1251.101196 172.0
1251.884399 220.0
1252.27002 232.0
1252.368652 44.0
1252.484863 72.0
1252.812378 152.0
1253.122437 100.0
1253.953857 152.0
1254.06665 180.0
1254.778687 252.0
1254.926636 184.0
1255.060669 124.0
1255.610718 128.0
1256.231445 168.0
1256.435913 40.0
1256.640625 100.0
1257.423828 232.0
1258.976929 140.0
1259.123657 124.0
1259.923462 100.0
1260.60791 160.0
1260.969238 172.0
1261.145874 232.0
1261.230713 84.0
1261.520508 132.0
1261.874023 96.0
1262.354858 176.0
1262.460938 124.0
1262.896606 396.0
1263.069214 208.0
1263.302612 60.0
1263.564331 128.0
1263.649292 80.0
1264.038452 140.0
1264.179932 212.0
1265.46106 136.0
1265.810547 152.0
1265.999268 196.0
1266.581055 168.0
1266.643799 188.0
1266.835083 96.0
1266.927124 192.0
1267.189209 192.0
1267.444336 164.0
1267.668457 168.0
1267.911987 112.0
1268.105835 116.0
1268.535767 216.0
1268.776733 140.0
1269.684326 112.0
1269.98938 128.0
1270.131226 160.0
1270.216309 228.0
1270.606445 56.0
1270.975464 172.0
1271.415405 160.0
1272.025757 160.0
1272.288452 184.0
1272.4375 184.0
1272.572388 56.0
1273.87207 132.0
1274.546997 108.0
1274.696167 132.0
1275.108398 92.0
1275.321655 132.0
1275.51123 112.0
1276.345337 156.0
1276.629761 128.0
1276.729248 88.0
1277.020874 188.0
1277.084961 140.0
1277.497437 148.0
1277.651123 224.0
1278.333496 248.0
1279.297852 332.0
1280.049316 144.0
1280.643677 104.0
1280.97168 160.0
1281.826294 96.0
1282.53894 140.0
1282.864014 140.0
1282.964233 252.0
1283.073608 140.0
1283.347168 108.0
1283.672485 148.0
1283.879272 144.0
1285.03479 104.0
1285.098999 64.0
1285.31311 176.0
1285.405884 224.0
1285.669922 116.0
1285.901123 168.0
1285.920898 68.0
1285.945557 180.0
1286.276611 172.0
1286.426514 304.0
1286.947632 212.0
1287.076172 120.0
1287.383179 168.0
1287.440308 152.0
1287.674805 164.0
1287.754639 64.0
1288.247437 116.0
1288.683228 144.0
1288.734985 232.0
1288.832031 192.0
1289.169067 168.0
1289.290649 232.0
1289.855225 144.0
1290.019653 156.0
1290.141235 168.0
1290.678711 220.0
1291.02063 44.0
1291.449707 100.0
1291.971924 124.0
1292.537109 140.0
1292.823364 44.0
1293.116821 140.0
1293.217041 140.0
1293.639282 152.0
1293.72522 288.0
1294.591553 128.0
1294.799316 148.0
1295.275146 160.0
1295.515503 188.0
1295.723267 176.0
1295.859375 176.0
1296.124512 104.0
1297.163696 112.0
1297.658325 120.0
1298.002563 124.0
1298.411255 144.0
1298.841553 136.0
1299.480103 160.0
1299.609253 204.0
1300.003906 116.0
1300.168945 112.0
1301.18103 184.0
1301.410767 180.0
1301.489746 216.0
1301.58313 88.0
1301.949341 168.0
1302.085815 216.0
1302.315552 40.0
1302.536377 244.0
1302.775269 120.0
1303.26001 168.0
1303.393188 108.0
1303.522583 140.0
1304.119019 200.0
1304.38501 172.0
1304.61499 232.0
1305.564087 200.0
1305.838013 176.0
1305.973999 152.0
1306.096313 208.0
1306.211426 116.0
1307.218628 264.0
1307.643311 176.0
1307.736816 52.0
1308.629395 196.0
1308.78064 132.0
1308.924683 120.0
1309.08313 172.0
1309.335083 192.0
1310.069824 124.0
1310.221069 208.0
1310.444458 164.0
1311.089722 212.0
1311.345215 136.0
1311.626343 128.0
1311.733887 156.0
1312.614014 156.0
1312.924072 112.0
1313.053955 176.0
1313.516479 180.0
1313.731934 32.0
1314.042114 112.0
1314.107056 224.0
1314.229736 172.0
1315.217773 192.0
1315.283325 160.0
1315.398804 180.0
1315.629883 68.0
1315.766968 188.0
1316.012451 152.0
1316.267822 152.0
1316.582886 152.0
1316.958496 144.0
1317.500244 212.0
1317.550781 136.0
1317.60144 144.0
1317.77478 132.0
1317.984375 120.0
1318.186646 148.0
1318.273315 148.0
1318.410645 48.0
1318.69043 164.0
1319.270752 56.0
1319.652344 160.0
1319.726196 64.0
1320.753174 144.0
1320.803833 136.0
1320.926758 44.0
1321.158203 116.0
1321.232666 180.0
1321.287598 176.0
1321.404175 32.0
1321.606812 104.0
1322.406372 220.0
1323.307739 188.0
1323.358398 120.0
1323.503174 192.0
1323.611816 108.0
1324.017334 160.0
1324.386719 184.0
1324.466309 144.0
1324.654663 188.0
1325.458862 168.0
1325.893677 40.0
1326.053101 140.0
1326.422729 140.0
1326.496216 328.0
1326.850464 216.0
1327.408813 216.0
1327.74231 156.0
1328.315308 208.0
1328.525757 184.0
1328.634521 104.0
1330.260132 156.0
1330.397949 32.0
1330.572266 136.0
1330.724731 188.0
1330.833618 124.0
1330.953369 176.0
1331.487183 84.0
1331.537964 168.0
1332.169922 80.0
1332.310181 236.0
1333.485229 152.0
1333.754028 228.0
1334.168335 152.0
1335.244507 180.0
1335.302734 148.0
1335.724487 140.0
1336.197388 204.0
1336.962158 224.0
1337.310791 208.0
1337.451904 232.0
1337.660156 116.0
1337.71106 204.0
1337.827515 136.0
1337.994995 140.0
1338.264404 268.0
1338.657593 196.0
1339.130981 136.0
1339.240234 200.0
1339.473267 124.0
1339.757324 272.0
1340.464111 68.0
1340.711914 140.0
1340.806641 124.0
1340.872192 196.0
1341.172852 176.0
1341.440796 192.0
1341.506348 184.0
1341.717773 208.0
1342.009399 336.0
1342.1698 132.0
1342.381226 140.0
1342.446899 172.0
1342.753174 88.0
1342.977295 220.0
1343.190796 124.0
1343.300171 216.0
1343.389526 184.0
1343.613892 116.0
1343.840088 96.0
1343.993286 104.0
1344.438477 200.0
1344.737671 284.0
1344.898193 180.0
1345.90564 156.0
1346.226929 100.0
1346.387573 40.0
1346.67981 152.0
1346.738159 156.0
1346.935425 120.0
1347.001099 116.0
1347.300659 184.0
1347.41748 188.0
1347.556396 184.0
1347.687866 104.0
1348.155518 132.0
1348.213989 164.0
1348.38208 160.0
1348.491699 40.0
1348.703613 184.0
1348.984253 224.0
1349.442017 44.0
1349.639404 176.0
1349.961182 128.0
1350.292603 188.0
1350.399902 180.0
1351.065552 240.0
1351.577759 136.0
1352.038696 300.0
1352.514526 188.0
1352.710938 168.0
1352.836548 164.0
1353.136719 168.0
1353.568726 168.0
1353.729858 156.0
1353.949463 184.0
1354.227783 104.0
1354.718628 192.0
1354.806519 132.0
1354.857788 308.0
1355.32666 132.0
1355.77002 168.0
1355.898193 212.0
1356.052124 160.0
1356.11084 112.0
1356.345337 200.0
1356.719238 152.0
1356.946411 204.0
1357.855713 160.0
1358.493896 140.0
1358.691895 156.0
1358.751709 188.0
1359.477051 196.0
1360.915771 108.0
1361.57666 92.0
1361.981812 240.0
1362.252319 144.0
1362.325806 72.0
1362.465454 128.0
1362.582886 144.0
1362.832764 164.0
1362.987061 228.0
1363.148682 156.0
1363.310425 148.0
1363.802734 112.0
1364.302612 112.0
1364.383545 232.0
1364.604004 164.0
1365.118774 200.0
1365.235229 208.0
1365.935181 136.0
1366.347046 140.0
1366.499512 140.0
1366.90625 164.0
1367.649536 160.0
1368.00293 140.0
1368.065063 204.0
1368.177002 168.0
1369.004272 56.0
1369.099976 84.0
1369.254639 232.0
1370.320679 132.0
1370.672852 196.0
1370.978516 128.0
1371.420654 184.0
1371.78186 228.0
1371.988281 112.0
1372.106201 176.0
1372.194458 100.0
1372.257812 220.0
1372.312744 76.0
1372.379028 244.0
1372.61499 136.0
1372.740356 192.0
1372.932129 176.0
1373.131226 48.0
1373.455688 160.0
1373.994263 160.0
1374.230347 156.0
1374.341064 144.0
1375.344604 124.0
1375.772827 168.0
1375.898315 120.0
1376.186279 244.0
1376.57019 196.0
1376.821289 224.0
1376.917236 176.0
1377.105347 212.0
1377.190552 172.0
1377.260132 144.0
1377.53772 148.0
1377.803711 140.0
1377.914429 244.0
1378.091797 52.0
1378.209961 36.0
1378.41687 176.0
1378.55542 168.0
1378.771606 160.0
1379.030273 212.0
1379.126343 284.0
1379.215088 196.0
1379.481201 236.0
1380.02832 168.0
1380.213135 124.0
1380.856445 120.0
1381.477783 144.0
1381.534302 164.0
1381.670166 212.0
1381.847656 44.0
1381.968628 104.0
1382.395264 132.0
1382.920654 124.0
1383.283447 176.0
1383.335205 160.0
1383.504272 172.0
1383.957031 140.0
1384.534668 176.0
1384.704956 220.0
1384.927246 184.0
1385.246338 136.0
1385.386475 188.0
1385.690186 164.0
1386.527588 44.0
1386.683228 136.0
1386.786987 112.0
1387.120483 180.0
1387.216797 176.0
1387.691284 288.0
1387.746948 196.0
1387.953247 200.0
1388.025024 140.0
1388.121338 132.0
1388.840698 40.0
1389.233887 220.0
1389.285767 156.0
1390.065308 184.0
1390.153931 72.0
1390.844116 152.0
1391.601318 168.0
1391.65332 212.0
1391.734985 216.0
1392.150757 152.0
1392.260132 72.0
1392.871216 136.0
1393.40332 168.0
1393.71814 96.0
1393.948486 180.0
1394.104492 112.0
1394.386963 72.0
1394.461304 60.0
1394.907227 180.0
1395.316162 140.0
1396.119141 204.0
1396.550537 148.0
1396.632324 160.0
1396.870361 128.0
1397.004272 176.0
1397.095337 320.0
1397.190186 136.0
1397.30188 180.0
1397.420898 116.0
1397.621704 212.0
1398.164917 180.0
1398.23938 52.0
1398.544556 100.0
1398.633911 172.0
1398.864624 188.0
1398.939087 144.0
1399.087891 148.0
1399.318726 208.0
1399.534668 52.0
1399.622803 204.0
1399.824219 144.0
1399.858643 164.0
1399.886719 228.0
1399.988892 112.0
1400.048462 60.0
1400.279297 96.0
1400.525146 172.0
1400.945923 252.0
1401.016724 164.0
1401.769287 108.0
1401.985352 104.0
1402.328247 160.0
1402.648682 124.0
1403.26001 140.0
1403.565674 156.0
1403.99292 124.0
1404.207031 184.0
1405.012573 124.0
1405.199097 212.0
1405.386108 136.0
1405.505005 120.0
1405.602051 168.0
1405.669189 148.0
1405.758789 136.0
1405.922974 180.0
1406.348145 128.0
1406.377686 124.0
1406.462036 152.0
1406.721558 172.0
1406.923096 132.0
1407.139648 116.0
1407.214233 180.0
1407.562866 144.0
1407.766846 140.0
1407.916138 168.0
1408.095459 140.0
1408.170044 48.0
1408.274658 148.0
1408.353271 204.0
1408.8573 176.0
1409.000122 144.0
1409.340698 176.0
1409.499878 112.0
1409.880981 140.0
1410.127563 192.0
1410.718018 152.0
1410.770386 180.0
1410.837646 192.0
1411.338623 140.0
1411.443237 208.0
1411.532959 96.0
1411.847046 44.0
1411.989136 148.0
1412.086426 164.0
1412.213501 108.0
1412.363159 236.0
1412.490356 136.0
1412.580078 48.0
1412.729614 108.0
1413.021484 148.0
1413.358154 128.0
1413.470337 156.0
1414.989746 172.0
1415.536377 208.0
1415.623901 168.0
1415.873291 212.0
1416.03064 220.0
1416.135498 196.0
1416.187866 140.0
1416.247803 168.0
1416.734741 160.0
1416.899536 168.0
1417.139282 148.0
1417.618774 116.0
1417.73877 148.0
1417.811646 148.0
1418.090942 216.0
1418.203369 148.0
1418.368286 164.0
1418.64563 292.0
1418.78064 216.0
1419.072998 84.0
1419.207886 196.0
1419.470337 200.0
1420.385376 168.0
1420.602905 148.0
1420.755005 200.0
1421.172241 136.0
1421.27063 212.0
1421.495728 244.0
1421.690796 152.0
1421.975952 28.0
1422.06604 168.0
1422.126099 156.0
1422.214355 160.0
1422.696655 112.0
1423.049438 72.0
1423.334717 136.0
1424.145874 192.0
1424.498901 232.0
1424.806885 164.0
1425.513184 120.0
1425.716064 64.0
1426.02417 184.0
1426.279785 140.0
1426.441406 136.0
1426.542847 204.0
1426.903687 152.0
1427.129272 132.0
1427.234497 184.0
1427.414917 220.0
1427.526489 216.0
1427.843628 172.0
1428.377563 180.0
1428.708618 104.0
1428.994507 88.0
1429.1073 128.0
1429.280396 152.0
1429.573853 136.0
1429.670166 256.0
1429.829712 176.0
1430.145874 172.0
1430.333984 236.0
1430.639282 184.0
1430.77063 140.0
1430.853516 32.0
1431.184692 192.0
1431.240479 204.0
1431.493408 88.0
1431.666626 116.0
1431.937744 148.0
1431.998047 200.0
1432.201416 144.0
1432.269165 176.0
1432.495117 108.0
1432.55542 120.0
1432.760864 236.0
1433.066528 220.0
1433.240845 172.0
1433.493042 100.0
1433.919189 68.0
1434.1604 140.0
1434.793579 68.0
1435.163086 144.0
1435.545898 144.0
1435.690918 196.0
1435.879395 176.0
1436.035156 220.0
1436.166016 180.0
1436.300171 208.0
1436.671387 196.0
1436.875122 176.0
1437.078857 140.0
1437.17688 128.0
1437.305176 200.0
1437.561768 84.0
1437.735352 160.0
1437.824219 168.0
1438.029663 136.0
1438.173096 216.0
1438.233398 148.0
1438.610718 212.0
1438.927979 288.0
1439.086426 144.0
1439.137573 84.0
1439.750977 136.0
1439.81897 148.0
1440.105957 168.0
1440.168091 216.0
1440.2948 124.0
1440.737915 120.0
1440.911987 232.0
1441.443115 164.0
1442.443481 164.0
1442.538208 320.0
1442.746582 168.0
1443.045532 168.0
1443.416016 116.0
1443.529419 172.0
1443.960449 60.0
1444.157104 184.0
1444.247925 120.0
1444.459717 124.0
1444.535278 172.0
1444.716919 120.0
1445.261597 148.0
1445.344849 76.0
1445.609741 120.0
1445.88208 124.0
1446.146973 220.0
1446.237793 112.0
1446.321167 104.0
1446.744995 152.0
1446.825684 212.0
1447.320435 124.0
1447.502197 108.0
1448.198853 204.0
1448.494263 124.0
1448.570801 188.0
1449.456421 44.0
1450.02478 68.0
1450.479614 180.0
1450.722168 132.0
1450.782837 184.0
1450.881348 168.0
1450.979858 176.0
1451.093628 168.0
1451.307373 80.0
1451.412109 108.0
1452.087036 180.0
1452.247681 152.0
1452.420166 180.0
1452.944092 136.0
1453.103394 180.0
1453.164185 176.0
1453.323486 156.0
1453.52832 152.0
1453.740845 180.0
1454.581787 184.0
1454.719971 144.0
1454.826172 172.0
1454.917236 128.0
1455.100708 236.0
1455.403198 176.0
1455.524658 284.0
1455.714478 140.0
1456.063843 144.0
1456.296143 160.0
1456.481567 168.0
1456.709473 52.0
1456.899414 236.0
1457.324829 180.0
1457.750366 236.0
1458.122681 64.0
1458.396362 320.0
1458.677612 100.0
1459.027222 160.0
1460.161987 188.0
1460.243896 148.0
1460.5177 156.0
1461.544678 76.0
1461.902344 44.0
1462.199219 344.0
1462.305664 112.0
1462.450317 200.0
1462.663452 188.0
1463.158203 304.0
1463.386719 68.0
1463.645142 168.0
1463.752197 264.0
1463.858765 152.0
1463.957764 208.0
1464.041504 220.0
1464.308105 140.0
1464.609985 208.0
1464.82605 184.0
1465.145996 112.0
1465.49646 148.0
1465.71106 140.0
1465.923096 160.0
1466.265991 180.0
1466.479492 216.0
1466.563232 140.0
1466.761475 244.0
1467.095703 212.0
1467.478027 148.0
1467.653442 184.0
1467.783081 116.0
1468.248169 164.0
1468.637207 132.0
1468.783569 184.0
1468.972778 148.0
1469.110107 92.0
1469.316162 132.0
1469.400024 88.0
1469.667114 172.0
1469.888306 52.0
1470.025757 168.0
1470.269897 148.0
1470.384399 140.0
1470.437744 160.0
1470.857544 144.0
1471.05603 164.0
1471.269775 180.0
1471.338501 220.0
1471.65918 40.0
1471.781372 40.0
1471.850098 184.0
1472.079102 72.0
1472.163086 156.0
1472.233276 192.0
1472.351807 200.0
1472.506836 188.0
1472.567871 188.0
1472.888672 148.0
1473.331787 152.0
1473.744263 184.0
1474.439697 200.0
1474.806519 140.0
1475.43335 196.0
1475.555664 264.0
1476.106201 200.0
1476.312622 224.0
1476.442627 132.0
1476.534424 164.0
1476.626221 128.0
1476.73584 232.0
1476.886719 156.0
1476.962769 168.0
1477.028687 248.0
1477.090942 408.0
1477.337646 128.0
1477.622925 228.0
1477.919067 156.0
1478.140991 132.0
1478.255737 208.0
1478.561768 148.0
1478.753174 128.0
1478.837402 176.0
1479.059326 172.0
1479.181763 152.0
1479.505493 152.0
1479.687012 112.0
1479.77124 152.0
1480.3302 184.0
1480.713135 236.0
1480.774414 168.0
1481.267822 104.0
1481.440796 64.0
1482.375488 140.0
1482.475098 120.0
1482.551758 132.0
1482.613037 92.0
1483.011597 164.0
1483.103638 156.0
1483.302856 180.0
1483.428345 352.0
1483.783813 196.0
1483.849121 184.0
1483.923828 168.0
1484.276489 156.0
1484.40686 120.0
1484.595703 52.0
1484.690674 164.0
1484.874634 128.0
1484.931152 168.0
1485.099121 240.0
1485.595703 368.0
1485.933228 140.0
1486.071411 152.0
1486.470337 120.0
1486.55481 196.0
1486.761963 184.0
1486.838745 132.0
1486.999878 204.0
1487.184082 208.0
1487.675293 152.0
1488.202026 180.0
1488.558228 172.0
1488.765625 144.0
1489.203369 136.0
1489.602783 124.0
1489.940796 156.0
1490.251709 176.0
1490.409424 68.0
1490.540039 128.0
1490.862793 132.0
1491.001221 204.0
1491.162598 156.0
1491.370117 184.0
1491.485352 184.0
1491.915894 128.0
1492.023438 192.0
1492.400146 204.0
1492.473755 316.0
1492.577026 68.0
1492.677002 136.0
1492.781738 192.0
1493.084595 148.0
1493.384521 128.0
1493.446045 144.0
1493.776855 204.0
1493.976807 208.0
1494.076782 160.0
1494.215332 148.0
1494.776978 160.0
1494.869507 156.0
1495.092529 216.0
1495.185059 156.0
1495.531128 184.0
1495.608154 108.0
1495.731323 192.0
1496.177734 120.0
1496.24707 176.0
1496.496216 200.0
1496.562744 172.0
1496.655151 228.0
1497.133545 164.0
1497.610107 72.0
1497.841187 204.0
1498.064575 168.0
1498.788696 160.0
1498.853027 176.0
1498.935181 132.0
1499.012207 140.0
1499.143188 88.0
1499.227905 152.0
1499.466919 168.0
1499.767456 172.0
1499.829102 132.0
1500.006348 192.0
1500.127686 200.0
1500.268555 120.0
1500.376465 204.0
1500.507446 60.0
1500.669434 136.0
1500.815918 176.0
1501.000977 144.0
1501.23999 140.0
1501.33252 144.0
1501.486816 156.0
1501.571655 140.0
1501.756714 208.0
1501.993042 160.0
1502.204102 152.0
1502.358398 140.0
1502.511475 188.0
1502.73645 140.0
1502.921631 140.0
1502.983276 216.0
1503.199341 88.0
1503.407715 188.0
1503.724121 180.0
1503.901611 164.0
1504.040649 376.0
1504.241333 208.0
1504.640137 156.0
1504.712158 308.0
1504.789429 204.0
1504.866577 120.0
1505.044189 132.0
1505.175415 96.0
