>compound MLS001076157-01!426-13-1
>formula C22H29FO4
>ionization [M+H]+
>parentmass 377.212
#inchi InChI=1S/C22H29FO4/c1-12-9-17-15-6-8-21(27,13(2)24)20(15,4)11-18(26)22(17,23)19(3)7-5-14(25)10-16(12)19/h5,7,10,12,15,17-18,26-27H,6,8-9,11H2,1-4H3/t12-,15-,17-,18-,19-,20-,21-,22-/m0/s1
#inchikey FAOZLTXFLGPHNG
#Ion_Source LC-ESI
#Instrument qTof
#Compound_Source NIH Pharmacologically Active Library
#PI Dorrestein
#Data_Collector VP/LMS
#Scan -1
#Precursor_MZ 377.212
#ExactMass 376.205
#Charge 1
#CAS_Number N/A
#Pubmed_ID N/A
#Smiles C[C@H]1C[C@H]2[C@@H]3CC[C@](O)(C(=O)C)[C@@]3(C)C[C@H](O)[C@]2(F)[C@@]4(C)C=CC(=O)C=C14
#INCHI_AUX N/A
#Library_Class 1
#SpectrumID CCMSLIB00000085002
#IonMode Positive
#UpdateWorkflowName UPDATE-SINGLE-ANNOTATED-GOLD
#LibraryQualityString Gold
#TaskID d252d724072548979f1f6f1ced849daf
##Scan# 1949
#SpectrumFile p3-D08_GD8_01_18265.mzXML
#LibraryName Pharm_Active_Library.mgf
#MQScore -1
#Organism Pharm_Active_Library
#TIC_Query 0
#RT_Query -1
#MZErrorPPM -1
#SharedPeaks 0
#MassDiff 0
#LibMZ -1
#SpecMZ 377.212
#SpecCharge 0
#internalFilename spec-00000.mgf

>collision 10
45.167809 256.0
45.347237 152.0
45.423672 124.0
45.43306 160.0
46.221298 56.0
46.371628 56.0
46.381115 132.0
46.771622 168.0
46.84042 160.0
46.936554 172.0
47.37183 164.0
47.489719 168.0
47.543228 184.0
47.583038 92.0
47.686619 228.0
48.042725 172.0
48.421478 116.0
48.494915 92.0
48.596153 96.0
48.619743 152.0
48.639175 188.0
48.785038 152.0
48.811459 192.0
49.041176 148.0
49.099735 176.0
49.402855 196.0
49.506435 200.0
49.767265 232.0
50.010479 160.0
50.033001 148.0
50.045673 160.0
50.082291 180.0
50.354519 208.0
50.394073 136.0
50.484543 236.0
50.553864 180.0
50.590668 116.0
50.753605 156.0
50.798992 148.0
50.976475 172.0
51.191288 164.0
51.658028 160.0
51.678055 124.0
51.894341 156.0
52.237595 148.0
52.665726 40.0
52.685947 100.0
52.842094 164.0
53.066601 212.0
53.105755 268.0
53.372978 180.0
53.705032 168.0
54.03373 136.0
54.095196 184.0
54.279808 164.0
54.47208 168.0
54.78101 240.0
54.829636 200.0
54.910728 172.0
55.028786 200.0
55.101158 252.0
55.265278 104.0
55.402973 180.0
55.453358 184.0
55.699673 164.0
55.869148 240.0
56.0508 168.0
56.29097 136.0
56.364166 132.0
56.488983 168.0
56.895897 156.0
57.086727 224.0
57.151413 180.0
57.216923 164.0
57.229683 176.0
57.341164 88.0
57.351711 60.0
57.405991 180.0
57.43314 216.0
57.461803 124.0
57.667179 80.0
57.88504 76.0
57.895641 120.0
58.053253 88.0
58.42844 108.0
58.656879 124.0
58.882706 124.0
58.930065 108.0
58.959099 144.0
59.079899 144.0
59.558186 160.0
59.588909 152.0
60.351887 208.0
60.563911 160.0
60.5825 172.0
60.649132 116.0
61.183529 156.0
61.50779 144.0
61.523399 116.0
61.65461 232.0
61.682747 180.0
61.764061 200.0
61.969147 216.0
62.008324 116.0
62.077305 148.0
62.215385 144.0
62.29705 92.0
62.458965 148.0
62.512459 144.0
62.532921 144.0
62.748737 160.0
62.9902 32.0
63.013897 164.0
63.045502 92.0
63.156178 160.0
63.178326 144.0
63.472183 196.0
63.728489 180.0
63.9575 144.0
64.158226 164.0
64.183731 124.0
64.344887 204.0
64.419952 224.0
65.592102 188.0
65.694626 124.0
66.033852 200.0
66.085617 176.0
66.313957 136.0
66.328545 220.0
66.758812 168.0
67.066528 132.0
67.180679 168.0
67.716843 124.0
67.92337 188.0
68.256783 152.0
68.296249 48.0
68.389648 216.0
68.520729 168.0
68.558037 144.0
68.721291 168.0
69.253616 180.0
69.32486 160.0
69.416031 176.0
69.563705 180.0
69.640083 124.0
69.852333 140.0
70.219307 180.0
70.603447 228.0
70.626862 124.0
70.931625 128.0
71.304253 132.0
71.36982 124.0
71.410179 176.0
71.54985 144.0
71.622261 28.0
71.740227 180.0
71.817795 204.0
71.932541 228.0
72.202888 132.0
72.231644 96.0
72.282402 116.0
72.426308 40.0
72.456802 120.0
72.517807 104.0
72.677223 188.0
72.770576 192.0
72.811333 168.0
73.187157 136.0
73.210999 228.0
73.250175 160.0
73.277428 168.0
73.307274 144.0
73.64933 228.0
73.696594 192.0
73.881821 32.0
73.907486 148.0
73.977661 108.0
74.27755 40.0
74.313576 152.0
74.419998 152.0
74.511024 28.0
74.584923 144.0
74.923935 96.0
75.697762 136.0
76.19384 136.0
76.581772 244.0
76.606155 104.0
77.098206 136.0
77.206604 116.0
77.35183 76.0
77.791832 176.0
77.974518 128.0
77.997368 184.0
78.486801 104.0
78.571465 172.0
78.695015 168.0
78.917648 84.0
78.960091 160.0
79.124657 164.0
79.262817 176.0
79.284081 64.0
79.315987 68.0
79.34967 172.0
79.443665 220.0
79.527069 140.0
79.662018 156.0
79.982109 160.0
80.042641 128.0
80.286789 104.0
80.543808 132.0
80.964127 76.0
81.140175 148.0
81.178032 180.0
81.344254 128.0
81.49691 128.0
81.633682 228.0
81.881889 72.0
81.986382 104.0
82.181183 156.0
82.280403 156.0
82.625603 128.0
82.645508 96.0
83.140221 44.0
83.203751 164.0
83.321808 152.0
83.421761 40.0
83.475372 156.0
83.92244 140.0
84.022751 180.0
84.225388 232.0
84.450218 136.0
84.61515 156.0
84.699158 180.0
84.838425 48.0
84.905617 112.0
84.917274 144.0
85.053055 100.0
85.166901 180.0
85.301041 176.0
85.337814 148.0
85.422417 56.0
85.593582 196.0
85.637779 84.0
85.934586 204.0
86.228203 176.0
86.2966 124.0
86.342834 184.0
86.450134 176.0
86.466789 216.0
86.598244 104.0
87.162231 176.0
87.325829 228.0
87.584557 140.0
87.649765 128.0
87.879112 172.0
88.024712 128.0
88.634537 224.0
88.730125 120.0
89.034111 80.0
89.244583 176.0
89.314163 168.0
89.415771 160.0
89.515549 136.0
89.670036 136.0
89.802017 220.0
89.881248 132.0
89.952972 40.0
90.087051 196.0
90.172081 144.0
90.387672 220.0
90.497459 52.0
90.601631 200.0
90.667953 136.0
90.813309 128.0
90.8367 172.0
90.905716 216.0
91.055382 492.0
91.338196 136.0
91.53804 104.0
91.555176 212.0
91.862053 220.0
92.054832 100.0
92.079659 136.0
92.10067 168.0
92.15416 124.0
92.335762 220.0
92.864388 112.0
92.937286 124.0
93.019814 136.0
93.069733 356.0
93.169609 68.0
93.540764 116.0
93.725662 192.0
94.022636 108.0
94.04966 144.0
94.071236 204.0
94.140404 176.0
94.291092 108.0
94.403229 204.0
94.974579 40.0
95.048088 204.0
95.083496 676.0
95.388184 124.0
95.458176 148.0
95.51458 156.0
95.859192 156.0
95.952759 196.0
96.14782 76.0
96.315735 216.0
96.446655 80.0
96.730293 168.0
96.745956 120.0
97.059441 200.0
97.137894 36.0
97.481491 212.0
97.790482 180.0
98.188255 152.0
98.245453 168.0
98.42112 44.0
98.442841 160.0
98.818413 164.0
98.927261 152.0
99.040634 236.0
99.865852 216.0
100.08477 192.0
100.609138 100.0
100.671036 84.0
101.056831 304.0
101.076843 204.0
101.164909 132.0
101.349167 192.0
101.621864 148.0
101.659988 196.0
102.011482 168.0
102.182426 32.0
102.432068 148.0
102.595299 92.0
103.055611 364.0
103.72332 92.0
103.93425 132.0
104.1007 164.0
104.151474 116.0
104.346573 148.0
104.576439 156.0
104.600868 252.0
104.625977 144.0
104.64769 172.0
104.824905 148.0
104.910843 124.0
104.95945 48.0
105.070641 2852.0
105.402405 144.0
105.596619 104.0
105.90773 160.0
106.072975 256.0
106.126823 44.0
106.172127 168.0
106.219299 188.0
106.401947 72.0
106.45739 84.0
106.527222 200.0
107.051666 568.0
107.085205 2188.0
107.128334 160.0
107.412399 48.0
107.482544 108.0
107.542397 176.0
107.563034 136.0
107.916313 184.0
108.055145 196.0
108.092239 160.0
108.114899 36.0
108.183205 112.0
108.618385 268.0
108.647423 272.0
108.717972 132.0
108.944298 164.0
109.033493 160.0
109.064827 120.0
109.687218 172.0
109.758102 96.0
110.267487 220.0
110.533081 40.0
111.044258 240.0
111.065231 48.0
111.083313 348.0
111.43261 108.0
111.595581 216.0
111.60424 116.0
111.609886 176.0
111.798492 120.0
111.893219 120.0
111.998207 164.0
112.179733 168.0
112.369545 188.0
112.401192 184.0
112.551064 160.0
112.785568 140.0
113.020325 140.0
114.061302 196.0
114.253044 200.0
114.608604 208.0
114.759941 124.0
114.843117 176.0
115.053947 1276.0
115.084267 124.0
115.124313 196.0
115.169693 116.0
115.220963 164.0
115.312843 208.0
116.056602 292.0
116.105011 180.0
116.514999 120.0
116.530037 176.0
116.570869 96.0
116.932884 156.0
117.068367 656.0
117.237991 88.0
117.900703 160.0
118.088638 72.0
118.387306 128.0
118.478279 180.0
118.634315 216.0
118.692406 136.0
118.734055 132.0
118.846863 92.0
118.966232 152.0
119.086044 1324.0
119.116074 160.0
119.205154 244.0
119.361664 64.0
119.594452 56.0
119.640167 28.0
119.860153 140.0
119.903732 132.0
119.98439 156.0
120.054161 548.0
120.090393 268.0
120.597801 100.0
120.853668 196.0
120.941208 152.0
121.064232 4760.0
121.103737 176.0
121.701935 144.0
121.908424 140.0
121.974358 160.0
122.068161 356.0
122.478264 176.0
122.517914 116.0
122.639114 184.0
122.703041 64.0
122.83316 108.0
122.910378 100.0
123.053848 152.0
123.078194 860.0
123.139969 64.0
123.509094 160.0
123.783531 216.0
123.814537 36.0
123.927513 96.0
123.951889 168.0
123.9674 40.0
124.022804 48.0
124.084198 196.0
124.144745 204.0
124.18689 160.0
124.275627 208.0
124.788704 136.0
124.846519 104.0
124.886551 168.0
125.000015 96.0
125.058884 532.0
125.68634 144.0
125.818031 44.0
125.869385 172.0
125.887245 180.0
125.927444 180.0
126.065964 184.0
126.090546 80.0
126.167023 224.0
126.269409 112.0
126.343224 196.0
126.560326 148.0
126.86055 104.0
127.049904 156.0
127.066879 196.0
127.309303 44.0
127.515991 80.0
127.569939 96.0
128.061249 984.0
128.301788 244.0
128.389542 188.0
128.439163 64.0
128.990143 132.0
129.070251 876.0
129.29097 120.0
129.343185 172.0
129.392822 48.0
129.766663 208.0
130.018463 176.0
130.076797 504.0
130.109253 140.0
130.188721 124.0
131.046127 168.0
131.064529 180.0
131.086777 1076.0
131.167084 140.0
131.203568 148.0
131.516083 164.0
131.739868 68.0
132.057327 452.0
132.086548 328.0
132.128525 212.0
132.451309 184.0
132.492538 120.0
132.7332 108.0
132.788239 148.0
132.841003 52.0
132.884583 124.0
133.067429 868.0
133.100113 1196.0
133.212891 180.0
133.350754 140.0
133.366852 160.0
133.785507 88.0
134.066528 268.0
134.108536 604.0
134.174866 36.0
134.677933 160.0
134.78421 184.0
134.862778 120.0
134.957565 144.0
134.990875 212.0
135.043594 276.0
135.080154 9768.0
135.118805 348.0
135.166901 104.0
135.323135 40.0
135.374084 92.0
135.399551 52.0
135.457458 52.0
135.499161 96.0
135.608078 72.0
135.638214 184.0
135.656754 36.0
135.765732 56.0
135.832993 84.0
135.881714 112.0
135.946686 68.0
136.051193 160.0
136.083054 880.0
136.127762 148.0
136.146332 164.0
136.295013 40.0
136.364731 92.0
136.385651 64.0
136.476318 120.0
136.492584 116.0
136.885849 160.0
137.060028 340.0
137.095062 556.0
137.242371 216.0
137.382309 48.0
137.973175 56.0
138.080734 192.0
138.698563 132.0
138.935715 88.0
139.034271 208.0
139.054306 164.0
139.088104 188.0
139.182159 140.0
139.511093 40.0
139.527557 116.0
139.710999 188.0
140.059402 64.0
140.132431 116.0
140.1772 236.0
140.490784 68.0
140.672501 44.0
140.825989 180.0
141.071091 344.0
141.322433 140.0
141.504684 232.0
141.623093 212.0
142.07576 724.0
142.15416 164.0
142.230103 168.0
142.807495 108.0
142.90741 112.0
143.056335 184.0
143.082123 1316.0
143.459961 148.0
143.968185 52.0
144.008789 140.0
144.054749 176.0
144.090332 632.0
144.697495 208.0
144.754959 36.0
145.061966 1336.0
145.100937 1292.0
145.179123 52.0
145.279861 68.0
145.349442 60.0
145.457443 40.0
145.911484 140.0
145.990845 244.0
146.070343 1380.0
146.103668 132.0
146.202545 144.0
146.344467 88.0
146.445709 104.0
146.631241 48.0
146.691498 136.0
146.744537 112.0
146.841003 96.0
147.079453 2156.0
147.11499 452.0
147.391418 32.0
147.754089 100.0
147.800064 32.0
147.95636 160.0
148.083923 200.0
148.112381 172.0
148.531723 172.0
148.737991 208.0
148.844818 164.0
148.861816 160.0
148.912811 92.0
149.000259 36.0
149.068298 168.0
149.096054 688.0
149.155792 184.0
149.257904 152.0
149.566879 224.0
149.734879 136.0
149.885925 176.0
150.095505 200.0
150.263855 88.0
150.566544 204.0
150.588531 148.0
151.074097 212.0
151.110641 540.0
151.662674 84.0
151.809769 56.0
152.056198 164.0
152.111557 152.0
152.180298 116.0
152.374329 160.0
152.497208 92.0
153.073822 344.0
153.112289 148.0
153.501663 180.0
153.521393 96.0
153.733551 116.0
154.033203 188.0
154.076172 164.0
154.131134 148.0
154.225037 104.0
154.348663 72.0
154.365967 132.0
154.430267 180.0
154.514374 44.0
154.581177 92.0
154.781693 104.0
155.056732 160.0
155.083755 188.0
155.498138 200.0
155.597443 192.0
155.850784 216.0
156.054596 144.0
156.091187 148.0
156.173965 28.0
156.81636 144.0
157.025787 180.0
157.067612 340.0
157.100418 1136.0
157.130569 172.0
157.367676 184.0
157.517517 104.0
157.757416 140.0
158.0 156.0
158.070847 744.0
158.104446 120.0
158.375504 236.0
158.505768 80.0
158.648636 268.0
158.81163 136.0
159.04248 76.0
159.080505 2344.0
159.115219 344.0
159.313675 248.0
159.384033 56.0
159.459412 108.0
159.743561 44.0
159.796387 220.0
160.013794 208.0
160.086655 588.0
160.126709 184.0
160.174011 176.0
160.708481 212.0
161.095352 5756.0
161.132141 624.0
161.238785 44.0
161.43425 52.0
161.491623 52.0
161.580154 36.0
161.980148 52.0
162.018143 68.0
162.098541 1572.0
162.141144 160.0
162.175262 96.0
162.35527 76.0
162.586136 76.0
163.07753 200.0
163.106598 480.0
163.228851 132.0
163.473053 324.0
163.717453 156.0
163.918701 48.0
164.019669 108.0
164.113419 196.0
164.377716 88.0
164.902008 188.0
165.068909 728.0
165.089172 428.0
165.126236 156.0
165.215775 76.0
165.912369 52.0
166.078262 312.0
166.168839 96.0
166.275238 208.0
166.659241 164.0
166.885345 124.0
167.082596 480.0
167.114349 136.0
167.268768 48.0
168.092621 264.0
168.165771 144.0
168.271362 164.0
168.325836 60.0
168.58934 112.0
168.643616 100.0
168.695312 164.0
169.068237 164.0
169.099365 172.0
169.202377 168.0
169.91658 140.0
170.054108 192.0
170.072418 500.0
170.108078 88.0
170.691727 176.0
171.03389 192.0
171.082153 804.0
171.116577 592.0
171.19136 60.0
171.30336 108.0
171.355453 104.0
171.376297 192.0
171.861282 108.0
171.910858 72.0
172.087158 844.0
172.117233 176.0
172.276413 208.0
172.610962 172.0
173.068634 380.0
173.095093 2752.0
173.129105 172.0
173.419922 40.0
174.070557 124.0
174.100754 104.0
174.438385 72.0
174.50148 120.0
175.048782 112.0
175.076141 144.0
175.110672 820.0
175.152924 168.0
175.259521 76.0
175.306946 84.0
175.504654 68.0
175.942627 44.0
176.058807 116.0
176.108383 156.0
176.692032 144.0
176.881104 108.0
177.089935 692.0
177.117569 240.0
177.209488 108.0
177.909668 88.0
178.074646 92.0
178.108826 168.0
178.44899 132.0
178.486221 72.0
179.08493 1480.0
179.298157 64.0
179.848083 132.0
180.091522 332.0
180.138657 76.0
180.258881 176.0
180.309662 152.0
180.502136 84.0
180.673325 176.0
181.058685 124.0
181.09874 648.0
181.139908 164.0
181.198059 84.0
181.755768 88.0
181.946335 36.0
182.0242 148.0
182.069473 168.0
182.103409 332.0
182.362701 208.0
182.384201 112.0
182.744568 132.0
182.802216 104.0
183.077957 956.0
183.115295 308.0
183.350464 60.0
183.587708 160.0
183.714478 76.0
184.022141 168.0
184.089783 312.0
184.13826 172.0
184.246307 136.0
184.503067 180.0
184.778915 96.0
184.952118 180.0
184.979187 108.0
185.038742 128.0
185.095215 3204.0
185.13089 260.0
185.220184 164.0
185.315002 80.0
186.099701 508.0
186.158615 52.0
186.400375 60.0
186.427551 112.0
186.462891 120.0
186.530838 96.0
186.674942 44.0
187.071671 296.0
187.10759 740.0
187.614304 84.0
188.053482 156.0
188.08197 256.0
188.114944 624.0
188.386612 52.0
188.501373 76.0
188.62709 68.0
188.769272 48.0
189.065933 160.0
189.12352 756.0
189.204315 96.0
189.464493 92.0
190.072342 300.0
190.129013 212.0
190.26532 64.0
190.655365 60.0
190.765305 200.0
191.078659 268.0
191.126862 200.0
191.494492 156.0
191.623962 44.0
192.091415 236.0
192.115189 184.0
192.148773 80.0
192.528732 128.0
192.581207 176.0
193.098495 344.0
193.275116 212.0
193.740265 176.0
194.073761 488.0
194.107513 280.0
194.266983 48.0
194.375198 60.0
194.566711 100.0
194.627792 176.0
195.080627 820.0
195.113602 916.0
195.489532 92.0
196.086929 964.0
196.115753 352.0
196.587509 60.0
197.095871 1164.0
197.134857 168.0
197.280197 68.0
197.411621 80.0
197.562653 40.0
197.895706 116.0
198.099304 776.0
198.135666 304.0
198.206619 36.0
198.363571 68.0
198.402817 176.0
198.506561 156.0
198.624359 124.0
199.071152 208.0
199.110733 1600.0
199.362778 180.0
199.717026 120.0
199.792984 180.0
199.930862 76.0
200.082855 152.0
200.11554 208.0
200.356033 68.0
200.454651 148.0
200.939636 148.0
201.088852 544.0
201.119324 252.0
201.238815 80.0
201.662567 56.0
201.8237 92.0
201.956619 44.0
202.06369 212.0
202.100891 364.0
202.132019 152.0
202.202774 72.0
202.565201 132.0
202.65303 92.0
203.085297 612.0
203.140945 160.0
203.248474 156.0
203.597641 116.0
203.773758 236.0
203.795914 232.0
204.091385 244.0
204.205856 60.0
204.319641 104.0
205.033096 196.0
205.101944 568.0
205.479202 204.0
206.064484 136.0
206.107544 180.0
206.133072 76.0
206.161636 72.0
206.610565 96.0
206.693542 104.0
207.078217 344.0
207.116974 616.0
207.143326 196.0
207.168823 144.0
207.292023 168.0
207.86554 200.0
207.937286 104.0
208.040619 168.0
208.085861 812.0
208.121857 428.0
208.189926 56.0
208.451355 44.0
208.666931 28.0
208.960297 164.0
209.094604 2148.0
209.128891 944.0
209.156296 192.0
209.250977 180.0
209.432404 76.0
209.4785 68.0
210.101059 972.0
210.167557 156.0
210.303192 208.0
210.490845 96.0
210.542816 144.0
210.681473 128.0
210.814377 72.0
211.112167 1316.0
211.433273 184.0
211.583786 140.0
212.083313 184.0
212.114807 320.0
212.688278 136.0
212.743423 36.0
212.940887 176.0
213.089874 248.0
213.125107 1544.0
213.298279 160.0
213.687973 88.0
214.082169 272.0
214.128693 192.0
214.244049 100.0
215.084457 436.0
215.108078 168.0
215.142273 180.0
216.089111 152.0
216.127228 132.0
216.516571 192.0
217.099258 600.0
217.126862 356.0
218.064285 128.0
218.105927 292.0
218.268524 140.0
219.070953 304.0
219.11412 544.0
219.149963 264.0
219.18399 68.0
220.082825 148.0
220.120911 340.0
220.27562 92.0
220.64798 56.0
221.095245 1048.0
221.123886 496.0
221.281128 200.0
221.888489 84.0
222.104111 1888.0
222.232544 76.0
222.478882 56.0
222.585297 172.0
222.75209 68.0
222.847153 48.0
223.109146 2736.0
223.142776 408.0
223.415009 80.0
223.659027 156.0
223.867432 48.0
223.953812 152.0
223.989548 160.0
224.117615 732.0
224.406784 60.0
224.600616 100.0
224.672211 84.0
224.700653 180.0
225.091599 384.0
225.124527 1052.0
225.166107 164.0
225.514313 176.0
226.130127 188.0
226.151398 132.0
226.172348 160.0
226.672501 72.0
226.759415 92.0
227.105103 820.0
227.173218 52.0
228.068054 128.0
228.107101 320.0
228.14621 112.0
228.507111 144.0
228.750885 100.0
229.119324 768.0
229.214706 156.0
229.666931 132.0
230.114243 160.0
231.079117 172.0
231.116058 392.0
231.138321 316.0
231.235062 56.0
231.525711 108.0
231.783203 132.0
232.031754 128.0
232.08902 180.0
232.123169 476.0
232.250092 100.0
233.089844 340.0
233.131195 496.0
233.848312 236.0
234.100937 588.0
234.14447 176.0
234.835495 60.0
235.111847 1560.0
235.144745 336.0
235.458115 140.0
236.118759 1664.0
236.34465 184.0
236.534393 28.0
236.83754 100.0
237.126221 4032.0
237.242035 100.0
237.58551 52.0
237.628464 168.0
237.674484 156.0
237.769623 56.0
237.889328 96.0
238.095581 160.0
238.130981 284.0
238.638962 52.0
238.703522 76.0
238.903458 148.0
239.103714 328.0
239.139465 924.0
239.226578 76.0
239.546844 56.0
239.86116 72.0
240.145798 148.0
240.581833 104.0
241.122513 136.0
241.152298 192.0
241.176117 108.0
241.57811 64.0
242.008301 108.0
242.111435 268.0
242.134171 192.0
242.169342 144.0
242.191025 184.0
242.342819 48.0
242.869843 228.0
242.969101 196.0
243.108444 128.0
243.120941 116.0
243.128937 236.0
243.770203 108.0
244.093414 164.0
244.121475 248.0
244.790543 180.0
245.095963 324.0
245.128616 304.0
245.912872 140.0
246.10817 172.0
246.138672 244.0
246.165756 44.0
246.440643 124.0
247.106308 944.0
247.140091 280.0
247.184845 228.0
247.760956 52.0
248.115417 512.0
248.141571 244.0
248.234238 196.0
248.717407 188.0
248.842972 76.0
248.86496 44.0
249.065948 36.0
249.088654 176.0
249.126297 1468.0
249.587646 80.0
249.694565 36.0
250.100449 144.0
250.130569 960.0
250.16922 176.0
250.755585 144.0
250.850143 172.0
250.982559 204.0
251.143188 2048.0
251.182495 208.0
251.386337 228.0
251.509415 44.0
251.695816 96.0
251.976791 152.0
252.144821 724.0
252.460419 52.0
252.912857 32.0
253.121033 428.0
253.158478 636.0
253.229477 48.0
253.286499 148.0
253.679428 124.0
254.047302 36.0
254.104965 164.0
254.165298 240.0
255.06665 132.0
255.114105 164.0
255.136276 360.0
255.171249 200.0
256.123077 176.0
257.123932 124.0
258.118652 200.0
258.213715 92.0
258.988281 56.0
259.111267 596.0
259.151672 196.0
259.231781 44.0
259.632507 92.0
259.808899 76.0
260.124603 296.0
260.158722 156.0
260.187622 76.0
260.939423 84.0
261.124115 292.0
261.293182 92.0
261.814667 232.0
262.134064 532.0
262.236725 64.0
262.259277 76.0
262.304413 104.0
262.70105 256.0
262.965637 108.0
263.001129 120.0
263.049561 144.0
263.094452 176.0
263.140594 2476.0
263.19162 192.0
263.91217 40.0
264.116211 304.0
264.149078 676.0
264.361816 52.0
264.954346 72.0
265.032104 92.0
265.11911 156.0
265.157837 548.0
265.920685 56.0
266.130127 64.0
266.157654 184.0
266.495453 108.0
267.140747 608.0
267.16452 156.0
267.409271 40.0
267.790192 180.0
267.83905 52.0
268.135864 144.0
269.127228 136.0
269.147125 156.0
269.172974 120.0
270.141266 336.0
270.912994 68.0
271.096497 152.0
271.122711 164.0
271.152252 204.0
272.103485 144.0
272.146179 148.0
273.056458 96.0
273.128815 364.0
273.951752 120.0
274.134583 908.0
274.693481 184.0
275.069672 32.0
275.138611 164.0
275.150055 252.0
275.181915 408.0
276.13031 112.0
276.153473 204.0
277.093597 172.0
277.157349 804.0
277.216217 44.0
277.481384 116.0
277.683655 48.0
277.886017 72.0
278.164764 1080.0
278.287628 72.0
278.320831 148.0
278.84903 72.0
278.9953 120.0
279.126984 556.0
279.172638 5216.0
279.224731 56.0
279.284607 88.0
279.371094 100.0
279.401031 44.0
279.554077 84.0
279.61731 92.0
279.740479 120.0
279.8237 76.0
279.966888 64.0
280.136749 164.0
280.172272 640.0
280.660034 44.0
280.803406 48.0
281.1492 412.0
281.183319 388.0
281.420776 72.0
281.510925 72.0
282.109009 64.0
282.145782 192.0
282.406616 32.0
284.15863 60.0
284.49762 128.0
284.843506 68.0
285.164276 140.0
285.778107 48.0
285.885773 92.0
287.143494 764.0
287.547272 60.0
288.153809 684.0
289.155701 260.0
290.019745 64.0
290.168915 68.0
290.59964 56.0
291.020538 120.0
291.145325 180.0
292.138367 320.0
292.179504 160.0
292.778595 84.0
293.158539 160.0
293.191132 528.0
293.65448 76.0
294.05368 176.0
294.142426 144.0
294.189941 288.0
294.384827 68.0
295.013519 60.0
295.166412 316.0
295.649719 44.0
296.174225 140.0
297.183624 396.0
297.672333 52.0
298.167633 200.0
298.190887 144.0
298.755005 136.0
299.133545 148.0
299.181732 148.0
303.175873 992.0
304.176971 352.0
305.132416 132.0
305.462799 76.0
306.159149 308.0
306.441071 44.0
307.030182 32.0
307.138306 164.0
307.173767 192.0
308.158386 156.0
308.234558 40.0
311.208405 284.0
314.584747 104.0
315.478516 76.0
319.759918 140.0
321.186615 532.0
321.520508 56.0
321.948914 28.0
322.182587 268.0
323.103485 76.0
323.18576 148.0
325.217743 120.0
327.616241 96.0
336.253693 152.0
337.035187 140.0
338.004181 32.0
338.915955 44.0
339.199493 428.0
339.293457 104.0
340.195953 188.0
340.746826 108.0
341.176819 160.0
341.217255 92.0
342.332184 56.0
358.583984 84.0
360.928345 72.0
361.053131 184.0
376.196442 136.0
378.225891 132.0
379.484955 56.0
382.021027 48.0
396.716797 96.0
396.839691 88.0
397.069702 132.0
399.301758 192.0
408.888 156.0
414.805359 32.0
427.442261 104.0
432.95752 68.0
436.102417 36.0
454.692841 76.0
490.01944 68.0
561.137939 60.0
582.896179 140.0
594.005676 112.0
602.310181 28.0
617.819946 144.0
621.268005 120.0
632.495361 32.0
656.38324 88.0
671.063599 104.0
704.293091 144.0
710.433594 188.0
736.795837 200.0
737.103821 40.0
737.876709 148.0
761.022461 80.0
769.043396 72.0
770.777527 44.0
771.192017 64.0
780.633667 56.0
789.903381 184.0
800.747742 140.0
805.689148 108.0
840.029358 192.0
860.24762 120.0
870.769897 76.0
910.481384 280.0
921.468689 56.0
926.738647 176.0
936.428101 164.0
940.20813 160.0
942.901489 60.0
970.220276 208.0
981.505188 168.0
983.320557 100.0
985.418762 176.0
988.876892 84.0
1002.385681 100.0
1009.41156 144.0
1015.383484 128.0
1018.614258 68.0
1034.774658 176.0
1038.202881 200.0
1038.927734 192.0
1047.761108 184.0
1052.534058 128.0
1053.386597 172.0
1054.510864 136.0
1065.5271 140.0
1069.207642 200.0
1079.476074 148.0
1088.67688 112.0
1088.913208 140.0
1092.633911 56.0
1095.319824 180.0
1109.494873 160.0
1112.672729 148.0
1118.676025 172.0
1128.382935 216.0
1128.523315 156.0
1131.192749 192.0
1133.329224 144.0
1147.133789 228.0
1149.777832 144.0
1150.142334 176.0
1150.986328 204.0
1152.546631 124.0
1154.743774 168.0
1157.958618 180.0
1159.801636 232.0
1167.174561 112.0
1180.66333 196.0
1187.272217 176.0
1195.199585 108.0
1198.842407 144.0
1202.387207 172.0
1205.577881 84.0
1209.361084 172.0
1211.098999 140.0
1214.058472 152.0
1222.930664 160.0
1225.472534 80.0
1233.009033 220.0
1233.777954 236.0
1234.28833 164.0
1235.596313 128.0
1240.253296 160.0
1255.531616 200.0
1257.994141 76.0
1260.268311 152.0
1269.18689 156.0
1270.030884 48.0
1272.514648 184.0
1273.622559 48.0
1273.700684 156.0
1278.19397 148.0
1285.59082 160.0
1289.311646 148.0
1292.82312 72.0
1297.543457 168.0
1303.989746 128.0
1304.147827 160.0
1304.593506 136.0
1309.688232 128.0
1312.563843 244.0
1318.98938 88.0
1320.298096 152.0
1328.853027 152.0
1329.078003 160.0
1329.963379 120.0
1331.306519 108.0
1331.371948 56.0
1334.802002 152.0
1335.762085 124.0
1341.857544 96.0
1344.97998 180.0
1346.820068 252.0
1350.408813 372.0
1350.796509 160.0
1352.633301 96.0
1353.299438 180.0
1362.753906 196.0
1364.62085 108.0
1364.775269 104.0
1365.253296 156.0
1367.629639 56.0
1368.94751 80.0
1369.352661 176.0
1371.334595 196.0
1371.990601 184.0
1376.875488 160.0
1379.668579 36.0
1382.212891 112.0
1387.419922 60.0
1388.643433 136.0
1391.500366 200.0
1392.064697 160.0
1392.621704 152.0
1394.06311 76.0
1395.78772 140.0
1398.979492 172.0
1399.459473 200.0
1400.856201 156.0
1401.400024 156.0
1404.471558 172.0
1405.210083 232.0
1410.833862 184.0
1411.043213 132.0
1411.155396 116.0
1411.536743 168.0
1411.602661 232.0
1414.656738 192.0
1416.446411 96.0
1417.570312 192.0
1418.259766 144.0
1419.276733 208.0
1420.546875 176.0
1421.950073 160.0
1427.043213 204.0
1427.765137 64.0
1430.10498 184.0
1434.308105 196.0
1435.559692 68.0
1438.472046 184.0
1440.699829 192.0
1441.689697 132.0
1445.440552 144.0
1445.536499 180.0
1447.162598 208.0
1447.484375 188.0
1448.378052 44.0
1448.571045 136.0
1449.605469 180.0
1449.772095 196.0
1452.654419 144.0
1456.775513 160.0
1457.763184 192.0
1458.667725 140.0
1459.047852 184.0
1462.623291 144.0
1462.693848 176.0
1466.073486 56.0
1466.507935 236.0
1468.040405 68.0
1468.139526 144.0
1469.390503 148.0
1470.802246 160.0
1475.439331 144.0
1479.654785 72.0
1484.712158 192.0
1486.745239 164.0
1486.944824 72.0
1488.341919 152.0
1488.503174 168.0
1490.477417 120.0
1490.869263 124.0
1496.60791 112.0
1497.131592 60.0
1499.820435 252.0
1502.681519 208.0
1502.843628 196.0
