>compound MLS001032112-01!
>formula C13H11N3O2
>ionization [M+H]+
>parentmass 242.09053
#inchi InChI=1S/C13H11N3O2/c17-12-4-2-1-3-11(12)9-15-16-13(18)10-5-7-14-8-6-10/h1-9,17H,(H,16,18)
#inchikey VBIZUNYMJSPHBH
#Ion_Source LC-ESI
#Instrument qTof
#Compound_Source NIH Pharmacologically Active Library
#PI Dorrestein
#Data_Collector VP/LMS
#Scan -1
#Precursor_MZ 242.093
#ExactMass 241.085
#Charge 1
#CAS_Number N/A
#Pubmed_ID N/A
#Smiles Oc1ccccc1C=NNC(=O)c2ccncc2
#INCHI_AUX N/A
#Library_Class 1
#SpectrumID CCMSLIB00000084996
#IonMode Positive
#UpdateWorkflowName UPDATE-SINGLE-ANNOTATED-GOLD
#LibraryQualityString Gold
#TaskID d252d724072548979f1f6f1ced849daf
##Scan# 1542
#SpectrumFile p3-D07_GD7_01_18264.mzXML
#LibraryName Pharm_Active_Library.mgf
#MQScore -1
#Organism Pharm_Active_Library
#TIC_Query 0
#RT_Query -1
#MZErrorPPM -1
#SharedPeaks 0
#MassDiff 0
#LibMZ -1
#SpecMZ 242.093
#SpecCharge 0
#internalFilename spec-00000.mgf

>collision 10
44.964546 204.0
45.151596 108.0
45.516117 176.0
45.891544 228.0
46.311844 60.0
46.675571 128.0
46.731339 132.0
46.837532 168.0
46.870232 148.0
47.068024 116.0
47.102169 140.0
47.201942 168.0
47.363445 128.0
47.674904 136.0
47.899181 140.0
47.979111 100.0
48.112938 136.0
48.300884 152.0
48.414383 180.0
48.461483 40.0
48.483696 136.0
48.697323 212.0
48.741779 56.0
48.967155 196.0
49.215393 92.0
49.475456 188.0
49.488056 80.0
49.513264 148.0
49.747433 204.0
49.914635 144.0
50.06662 216.0
50.101837 168.0
50.254108 104.0
50.326096 188.0
50.56076 160.0
50.810162 92.0
50.901451 216.0
50.916626 224.0
51.067287 120.0
51.323631 204.0
51.842552 160.0
51.89846 208.0
51.945789 204.0
51.964439 164.0
52.112328 168.0
52.169819 68.0
52.269062 216.0
52.320881 204.0
52.544273 96.0
52.77393 164.0
52.891113 116.0
52.931652 64.0
53.015678 176.0
53.035969 184.0
53.133129 168.0
53.185375 172.0
53.330631 172.0
53.38588 168.0
53.449886 168.0
53.460075 192.0
53.684425 136.0
53.941402 144.0
54.262024 128.0
54.347095 188.0
54.399929 140.0
54.419018 108.0
54.452793 180.0
54.552715 268.0
54.59977 120.0
54.951839 172.0
55.37019 188.0
55.76783 168.0
55.800537 184.0
56.39386 84.0
56.529961 212.0
56.772652 136.0
57.039917 156.0
57.14772 100.0
57.230988 156.0
57.363571 124.0
57.383167 284.0
57.420868 28.0
57.789471 228.0
58.260998 240.0
58.386082 208.0
58.646 212.0
58.867226 212.0
58.994045 152.0
59.033802 268.0
59.17305 56.0
59.192955 224.0
60.343941 220.0
60.855251 152.0
60.914268 156.0
61.060383 112.0
61.147141 84.0
61.234699 116.0
61.485718 224.0
61.707542 164.0
62.259132 196.0
62.392696 144.0
62.465038 84.0
62.669708 120.0
62.701225 180.0
62.745361 180.0
62.789516 76.0
63.190758 148.0
63.352245 156.0
63.64249 156.0
63.970009 156.0
64.041664 156.0
64.12133 48.0
64.132492 184.0
64.167564 40.0
64.411736 184.0
64.879028 260.0
64.984879 184.0
65.208099 132.0
65.274017 132.0
65.372147 248.0
65.534782 140.0
65.56057 128.0
65.628273 352.0
65.718597 84.0
65.967316 108.0
65.998039 128.0
66.695168 284.0
66.856186 160.0
66.91967 108.0
67.071182 180.0
67.185333 200.0
67.330612 212.0
67.518204 164.0
67.538193 148.0
67.574181 160.0
67.721519 160.0
67.749367 84.0
67.841141 128.0
68.0298 152.0
68.085625 136.0
68.310814 148.0
68.587463 80.0
68.714447 56.0
68.841553 348.0
69.377655 92.0
69.390915 148.0
69.414131 228.0
69.609947 84.0
69.711281 140.0
69.840965 144.0
69.852608 192.0
69.899193 200.0
70.953163 164.0
71.011856 184.0
71.033669 160.0
71.129318 156.0
71.905281 156.0
72.064018 224.0
72.129929 188.0
72.865433 140.0
72.996315 148.0
73.052444 128.0
73.127312 160.0
73.686653 164.0
73.82682 180.0
73.900383 172.0
73.955147 208.0
73.984245 160.0
74.110985 152.0
74.134979 152.0
74.248131 164.0
74.291008 200.0
74.387115 112.0
74.472969 168.0
74.543411 200.0
74.677513 144.0
75.037422 176.0
75.361916 216.0
75.516769 180.0
75.5597 204.0
75.761581 136.0
76.063324 184.0
76.085892 144.0
76.150238 148.0
76.689529 176.0
76.867416 132.0
77.01931 168.0
77.528458 192.0
77.567017 164.0
77.626633 188.0
77.71785 136.0
77.777519 236.0
77.95842 184.0
78.035767 212.0
78.063904 144.0
78.143059 156.0
78.599419 164.0
79.081894 44.0
79.331657 168.0
79.354706 176.0
79.454025 176.0
79.75592 64.0
79.894585 152.0
80.092224 184.0
80.161713 188.0
80.406036 160.0
80.856422 368.0
80.920868 232.0
81.096428 204.0
81.132278 160.0
81.177109 152.0
81.28833 140.0
81.396034 204.0
81.528969 244.0
81.561325 192.0
81.63504 148.0
81.915817 180.0
81.978882 172.0
82.016731 168.0
82.531258 164.0
82.634361 172.0
82.661499 172.0
82.847992 120.0
83.114525 172.0
83.25975 168.0
83.58152 244.0
83.650681 216.0
83.728973 268.0
83.812775 192.0
83.995087 200.0
84.080849 144.0
84.172127 184.0
84.201347 116.0
84.303658 212.0
84.393227 172.0
84.706963 212.0
85.482826 116.0
85.637482 148.0
85.897385 164.0
85.960114 236.0
86.074562 164.0
86.104111 160.0
86.213112 132.0
86.34623 168.0
86.431328 168.0
86.701698 168.0
86.920525 52.0
86.979912 136.0
87.126625 128.0
87.200951 144.0
87.385056 120.0
87.522789 44.0
87.673683 176.0
87.768753 200.0
87.863876 136.0
87.91053 144.0
88.037476 144.0
88.398277 188.0
88.448807 140.0
88.473145 236.0
88.645462 128.0
88.699821 208.0
88.742935 184.0
88.756065 132.0
88.817955 188.0
89.00563 96.0
89.148399 156.0
89.285637 216.0
89.33078 44.0
89.458748 48.0
89.665947 196.0
89.835655 212.0
89.913017 156.0
90.039513 184.0
90.086731 164.0
90.130188 104.0
90.446022 240.0
90.578575 172.0
90.633522 136.0
90.999596 104.0
91.033775 168.0
91.138252 156.0
91.166756 56.0
91.585327 188.0
91.638672 164.0
92.037323 160.0
92.153831 192.0
92.687683 168.0
92.894753 132.0
92.961906 176.0
93.043823 1776.0
93.065567 152.0
93.080925 192.0
93.301888 172.0
93.442284 48.0
93.617455 136.0
93.64827 172.0
93.943192 204.0
94.051231 324.0
94.078285 208.0
94.281982 192.0
94.489937 180.0
94.722252 104.0
94.743561 168.0
94.914124 92.0
95.010086 144.0
95.059364 2568.0
95.084114 236.0
95.271248 204.0
95.703026 180.0
95.777031 40.0
95.798454 216.0
96.04364 296.0
96.1754 132.0
96.375961 160.0
96.580894 228.0
96.624275 112.0
96.675148 60.0
96.735825 132.0
96.916008 204.0
96.988525 140.0
97.047234 152.0
97.106171 168.0
97.394699 136.0
97.512589 180.0
97.787949 148.0
97.827316 116.0
98.063698 168.0
98.262863 108.0
98.430641 192.0
98.60054 176.0
99.426414 132.0
99.454201 212.0
100.122253 108.0
100.706635 128.0
101.030472 176.0
101.164551 180.0
101.260666 168.0
101.280693 116.0
101.439003 128.0
102.033714 344.0
102.135796 164.0
102.149879 216.0
102.180054 116.0
102.282875 216.0
102.772423 296.0
102.826912 144.0
103.028419 240.0
103.051064 160.0
103.099556 172.0
103.467705 200.0
103.498077 256.0
103.587189 68.0
103.775665 152.0
103.868958 168.0
103.91156 140.0
104.052292 176.0
104.080025 188.0
104.222214 80.0
104.368813 164.0
104.392967 236.0
104.42144 128.0
104.761375 132.0
104.824539 160.0
104.846954 260.0
104.896507 232.0
104.948769 140.0
104.977432 160.0
105.020256 204.0
105.044617 31148.0
105.09166 120.0
105.165352 80.0
105.197792 144.0
105.308052 156.0
105.338692 48.0
105.430641 132.0
105.462265 76.0
105.558235 184.0
105.602379 72.0
105.624878 168.0
105.669884 68.0
105.729233 84.0
105.74765 140.0
105.829536 68.0
105.950378 208.0
105.979057 64.0
106.027679 732.0
106.047287 2188.0
106.165604 60.0
106.364624 156.0
106.420052 60.0
106.500145 96.0
106.602867 96.0
106.621368 152.0
106.670692 124.0
106.70359 40.0
106.745575 172.0
106.761162 140.0
106.839325 104.0
106.853729 128.0
106.88459 124.0
106.909286 104.0
106.962799 36.0
106.993683 96.0
107.047752 216.0
107.090462 148.0
107.304779 100.0
107.323341 132.0
107.513123 124.0
107.698944 176.0
107.762985 88.0
107.827042 44.0
108.029686 228.0
108.143494 200.0
108.659492 100.0
108.700989 256.0
108.875374 228.0
108.941841 156.0
109.039497 160.0
109.10186 152.0
109.284889 248.0
109.463898 156.0
109.914162 188.0
110.070717 196.0
110.120842 96.0
110.164711 144.0
110.515953 152.0
110.609642 188.0
110.779747 32.0
111.193329 84.0
111.266296 48.0
111.890717 148.0
111.981262 48.0
112.383911 72.0
112.443001 36.0
113.043198 176.0
113.335419 236.0
113.474205 140.0
113.763847 148.0
113.914619 52.0
114.356911 84.0
114.478264 172.0
114.535767 84.0
115.034752 60.0
115.130836 64.0
115.214142 40.0
115.468513 192.0
115.543381 116.0
116.038124 128.0
116.098167 144.0
116.181824 108.0
117.138466 148.0
118.047569 176.0
118.0774 200.0
118.23967 136.0
118.343575 124.0
118.72496 192.0
118.80088 124.0
119.024124 1264.0
119.065697 164.0
119.187347 144.0
119.328629 56.0
119.539619 152.0
119.698532 144.0
119.820511 128.0
120.01326 192.0
120.019821 144.0
120.049316 1480.0
120.237 92.0
120.420395 108.0
120.477188 140.0
120.505592 68.0
120.549294 200.0
120.702316 72.0
120.746056 120.0
120.816048 152.0
120.883881 124.0
120.903572 112.0
120.925461 144.0
120.981758 156.0
121.039474 44344.0
121.118584 40.0
121.157578 80.0
121.192635 60.0
121.216736 144.0
121.281288 132.0
121.322868 88.0
121.396492 28.0
121.442604 152.0
121.532494 52.0
121.64003 188.0
121.67955 44.0
121.749817 28.0
121.784958 140.0
121.932167 108.0
121.95195 84.0
121.967331 96.0
121.987114 100.0
122.00251 44.0
122.044167 3164.0
122.081139 168.0
122.132835 60.0
122.160843 52.0
122.317085 72.0
122.343506 56.0
122.517487 124.0
122.581383 44.0
122.766556 68.0
122.79232 188.0
122.812469 152.0
122.881256 152.0
122.901115 184.0
122.932014 128.0
122.958076 128.0
123.001167 72.0
123.054634 13080.0
123.121872 40.0
123.157326 148.0
123.265465 152.0
123.411354 48.0
123.455582 64.0
123.519722 84.0
123.570602 72.0
123.60379 36.0
123.7211 32.0
123.756523 116.0
123.827385 40.0
123.920425 48.0
124.056709 356.0
124.122131 156.0
124.272964 96.0
124.423889 84.0
124.530479 64.0
124.761581 148.0
125.060547 232.0
125.095276 124.0
125.137581 112.0
125.643509 40.0
125.688133 60.0
125.909134 116.0
126.356201 160.0
128.06192 148.0
129.385574 52.0
130.036148 140.0
130.151932 144.0
131.972519 52.0
134.040695 124.0
134.305832 180.0
134.682068 44.0
136.062271 244.0
137.036163 520.0
137.111343 44.0
138.047501 156.0
138.339981 88.0
139.094803 88.0
140.127213 168.0
142.077728 172.0
143.342651 148.0
144.053665 104.0
144.078812 184.0
145.015579 168.0
148.049988 1300.0
148.645233 160.0
149.051941 280.0
149.126099 144.0
150.080399 192.0
153.923096 64.0
154.066345 152.0
155.070999 156.0
155.088348 88.0
156.041611 204.0
156.079773 364.0
156.47702 44.0
156.870636 112.0
157.057083 208.0
157.087601 432.0
157.669373 84.0
158.051987 180.0
158.069504 148.0
158.868759 128.0
159.541809 244.0
160.004715 200.0
160.150772 216.0
163.045242 148.0
166.06308 116.0
167.072876 292.0
168.051636 152.0
168.07486 132.0
168.911926 132.0
169.08313 168.0
170.057037 348.0
170.088364 244.0
170.620911 84.0
171.110031 220.0
171.993774 180.0
172.090363 244.0
174.37468 40.0
176.047623 96.0
176.933426 164.0
179.052414 72.0
179.21492 36.0
181.001892 184.0
183.070602 368.0
184.072586 824.0
184.117462 224.0
184.275391 40.0
185.083328 892.0
185.230377 52.0
186.022202 116.0
186.088486 192.0
187.08786 124.0
188.159286 136.0
190.910355 116.0
192.784988 32.0
195.07164 164.0
196.073288 296.0
197.067841 156.0
197.36058 44.0
198.822861 84.0
199.064301 172.0
201.998337 128.0
202.018143 76.0
207.047791 120.0
208.315582 132.0
209.086166 208.0
210.103333 156.0
212.084198 204.0
212.301651 184.0
214.095428 336.0
215.099152 140.0
215.439392 96.0
216.108917 156.0
225.062408 180.0
237.471176 84.0
242.019836 224.0
242.09053 2368.0
242.131317 328.0
242.431824 64.0
242.459717 40.0
242.717026 40.0
243.092575 440.0
243.157532 136.0
243.374832 88.0
244.098846 148.0
244.503265 36.0
245.172852 40.0
248.249054 84.0
272.532806 104.0
290.809021 36.0
296.357513 72.0
322.826904 68.0
332.986694 28.0
366.316406 92.0
391.700653 92.0
398.608612 96.0
403.943207 68.0
414.807953 84.0
465.43634 48.0
560.061523 124.0
738.160706 44.0
779.230164 40.0
795.65033 124.0
808.541809 180.0
839.080627 188.0
843.352417 68.0
846.928284 68.0
885.808044 148.0
888.796143 40.0
889.021606 108.0
900.924255 188.0
907.046143 176.0
912.515198 168.0
924.525146 208.0
927.57782 100.0
937.49707 184.0
940.919006 172.0
969.423462 216.0
972.350647 68.0
974.145142 140.0
974.785095 188.0
977.477661 212.0
981.988098 64.0
984.047424 144.0
986.458984 164.0
986.577759 208.0
987.709595 128.0
994.476807 152.0
998.384705 196.0
999.164673 128.0
1000.568115 80.0
1002.262451 152.0
1006.87384 48.0
1016.179199 56.0
1017.270813 188.0
1023.705261 152.0
1027.032104 176.0
1027.944458 188.0
1028.991333 144.0
1029.055176 204.0
1030.236694 152.0
1030.40271 96.0
1046.875 68.0
1047.738159 108.0
1056.628174 144.0
1058.842041 176.0
1060.721069 168.0
1060.844238 84.0
1061.414795 144.0
1065.685791 120.0
1065.939209 176.0
1067.28479 140.0
1067.661987 188.0
1068.455566 160.0
1070.024048 208.0
1073.484009 148.0
1074.175293 164.0
1079.361084 120.0
1087.747192 192.0
1088.869995 84.0
1090.440308 244.0
1093.623657 128.0
1096.983154 220.0
1103.505859 200.0
1104.180298 148.0
1109.152832 192.0
1109.676636 204.0
1111.892212 184.0
1112.695312 196.0
1113.206665 112.0
1113.890747 184.0
1114.289307 176.0
1116.968506 216.0
1117.840088 180.0
1119.471069 208.0
1119.877319 172.0
1124.804932 136.0
1131.86499 112.0
1133.432373 152.0
1134.638916 188.0
1134.873535 196.0
1135.845947 216.0
1136.161255 164.0
1137.08728 176.0
1138.685181 140.0
1142.321655 196.0
1145.27002 128.0
1146.792725 164.0
1147.534302 144.0
1147.75 220.0
1149.240723 204.0
1150.529785 168.0
1158.882568 204.0
1160.440918 232.0
1162.47644 112.0
1162.591797 152.0
1162.836182 104.0
1163.08728 200.0
1166.823608 124.0
1169.00708 152.0
1171.172119 236.0
1173.066406 180.0
1174.907715 160.0
1175.835815 232.0
1176.955322 108.0
1180.187256 192.0
1182.609009 232.0
1183.437378 196.0
1183.560669 176.0
1184.341431 128.0
1187.610962 140.0
1188.331177 180.0
1190.932983 216.0
1191.0979 48.0
1194.796387 128.0
1198.900269 196.0
1198.948486 72.0
1203.894897 256.0
1205.048462 156.0
1207.135986 88.0
1210.845459 164.0
1211.967651 156.0
1213.007202 148.0
1213.582642 204.0
1214.262207 160.0
1214.831055 64.0
1215.115479 180.0
1218.468872 140.0
1219.059448 168.0
1219.594604 232.0
1219.837891 172.0
1219.956177 124.0
1220.102173 72.0
1221.312134 152.0
1221.402588 120.0
1222.174805 160.0
1223.483276 240.0
1223.622559 156.0
1224.339722 148.0
1227.273438 176.0
1227.496582 116.0
1228.375366 116.0
1229.659302 120.0
1230.741333 164.0
1230.950806 148.0
1231.78894 188.0
1233.200439 184.0
1234.032349 224.0
1235.095337 180.0
1235.263184 204.0
1237.019653 200.0
1238.167969 120.0
1238.609253 140.0
1241.573975 132.0
1243.363037 48.0
1244.380859 332.0
1245.574707 132.0
1247.556396 140.0
1250.278564 176.0
1251.897705 140.0
1254.525879 156.0
1255.322632 188.0
1257.58728 128.0
1260.263794 144.0
1263.183716 172.0
1264.988159 76.0
1265.320923 144.0
1265.391724 184.0
1265.667847 140.0
1266.333496 172.0
1270.047607 164.0
1270.7854 176.0
1272.453369 140.0
1273.340942 184.0
1273.475952 228.0
1276.425293 180.0
1278.637695 144.0
1278.893921 180.0
1279.513306 168.0
1280.325073 208.0
1281.151367 236.0
1282.213013 144.0
1282.897339 76.0
1283.453369 44.0
1284.523193 208.0
1286.542725 204.0
1286.992554 52.0
1287.399658 152.0
1287.606689 164.0
1289.099854 32.0
1295.023682 88.0
1295.353149 164.0
1297.144653 176.0
1298.471069 196.0
1298.614624 200.0
1298.664795 76.0
1299.375 180.0
1300.200195 148.0
1300.666748 84.0
1303.970703 160.0
1304.811768 112.0
1306.070312 136.0
1309.806152 100.0
1309.986206 176.0
1310.836426 108.0
1311.441772 80.0
1311.960815 200.0
1312.393433 88.0
1312.970337 160.0
1315.279175 204.0
1315.892822 228.0
1316.405396 132.0
1317.069946 172.0
1317.279419 220.0
1317.39502 208.0
1317.561157 168.0
1318.261963 280.0
1319.432983 120.0
1321.009521 220.0
1321.103638 188.0
1321.501465 188.0
1321.552124 140.0
1322.290283 180.0
1322.630493 152.0
1322.941772 184.0
1325.447754 152.0
1325.752075 112.0
1328.754028 160.0
1330.161987 196.0
1331.287354 148.0
1332.151733 120.0
1333.459595 136.0
1333.721313 96.0
1336.43396 116.0
1337.714844 160.0
1338.260864 188.0
1339.353271 204.0
1342.064331 164.0
1342.253906 352.0
1343.924316 176.0
1347.312012 160.0
1349.972656 216.0
1350.382202 188.0
1350.953979 160.0
1356.928833 152.0
1359.107178 156.0
1359.393433 120.0
1360.362305 32.0
1360.626587 200.0
1362.536133 156.0
1363.256104 156.0
1364.079346 120.0
1364.557251 168.0
1368.847046 140.0
1369.384644 128.0
1369.443481 232.0
1370.747559 156.0
1371.315063 176.0
1372.243896 208.0
1373.364746 220.0
1373.88855 176.0
1374.70752 92.0
1375.947632 184.0
1376.892822 264.0
1377.291626 220.0
1377.683105 184.0
1377.734863 200.0
1381.283203 80.0
1381.660522 216.0
1382.526245 188.0
1384.184448 168.0
1384.495483 244.0
1387.222168 236.0
1388.401123 152.0
1391.235596 116.0
1391.681152 192.0
1395.559692 144.0
1396.118896 144.0
1397.300049 192.0
1400.866089 136.0
1401.410034 148.0
1402.967651 192.0
1403.13916 160.0
1403.735718 252.0
1405.869263 180.0
1406.712646 168.0
1407.26416 156.0
1410.24585 288.0
1410.484985 152.0
1411.658813 152.0
1412.952881 220.0
1413.087524 180.0
1414.120239 188.0
1414.449585 156.0
1415.175781 164.0
1415.872192 168.0
1416.478882 200.0
1418.28479 152.0
1418.921997 168.0
1419.236938 108.0
1419.41687 96.0
1419.491821 196.0
1420.932007 144.0
1421.6073 80.0
1422.613037 32.0
1424.317749 144.0
1425.820435 156.0
1426.707397 200.0
1427.03064 164.0
1427.820312 168.0
1428.737915 188.0
1428.790649 140.0
1429.422607 208.0
1430.197876 56.0
1430.310791 184.0
1431.809082 152.0
1432.02002 160.0
1432.374023 72.0
1432.758179 116.0
1433.50415 156.0
1434.747803 184.0
1435.222778 224.0
1436.26355 212.0
1436.474731 88.0
1436.640747 260.0
1437.251831 208.0
1437.500854 200.0
1437.916016 204.0
1440.430298 200.0
1443.907227 60.0
1445.00415 192.0
1445.162964 76.0
1447.055176 168.0
1447.206665 148.0
1447.804932 120.0
1448.539551 164.0
1453.498047 116.0
1453.619385 72.0
1453.680176 196.0
1455.858887 108.0
1458.601685 192.0
1458.677734 200.0
1459.179565 168.0
1459.415649 188.0
1459.810669 124.0
1460.373413 140.0
1460.867798 188.0
1461.296997 228.0
1461.674316 148.0
1462.245117 204.0
1463.052002 212.0
1463.272827 180.0
1463.813354 164.0
1464.78833 172.0
1465.740601 204.0
1466.4646 176.0
1466.723755 192.0
1472.751831 116.0
1473.393555 164.0
1474.012451 164.0
1474.738403 176.0
1475.265869 188.0
1475.457031 32.0
1476.680542 172.0
1478.065186 132.0
1479.817993 196.0
1481.771118 164.0
1481.863037 116.0
1482.575684 208.0
1482.935913 72.0
1483.135254 44.0
1484.062866 244.0
1484.200806 72.0
1484.699341 72.0
1486.14917 232.0
1486.839722 132.0
1487.615967 160.0
1488.006592 200.0
1488.428833 144.0
1491.163818 180.0
1491.240601 180.0
1491.294434 164.0
1491.517334 148.0
1492.862793 168.0
1493.224243 176.0
1494.585938 148.0
1497.896484 132.0
1498.543579 152.0
1498.611816 140.0
1499.85376 64.0
1501.1875 148.0
1501.819946 96.0
1503.440186 188.0
1504.82959 132.0
1504.891479 168.0
