>compound MLS002472956-01!(E)-1-[3-[(2E)-3,7-dimethylocta-2,6-dienyl]-2-hydroxy-4-methoxyphenyl]-3-(4-hydroxyphenyl)prop-2-en-1-one
>formula C26H30O4
>ionization [M+H]+
>parentmass 407.222
#inchi InChI=1S/C26H30O4/c1-18(2)6-5-7-19(3)8-14-23-25(30-4)17-15-22(26(23)29)24(28)16-11-20-9-12-21(27)13-10-20/h6,8-13,15-17,27,29H,5,7,14H2,1-4H3/b16-11+,19-8+
#inchikey XBFSDEKOTLYPJU
#Ion_Source LC-ESI
#Instrument qTof
#Compound_Source NIH Natural Product Library
#PI Dorrestein
#Data_Collector VVP/LMS
#Scan -1
#Precursor_MZ 407.222
#ExactMass 406.214
#Charge 1
#CAS_Number N/A
#Pubmed_ID N/A
#Smiles COc1ccc(C(=O)/C=C/c2ccc(O)cc2)c(O)c1C/C=C(\C)/CCC=C(C)C
#INCHI_AUX N/A
#Library_Class 1
#SpectrumID CCMSLIB00000079896
#IonMode Positive
#UpdateWorkflowName UPDATE-SINGLE-ANNOTATED-GOLD
#LibraryQualityString Gold
#TaskID b1d8e8f6646f4e71acdff9ca3d919d08
##Scan# 3156
#SpectrumFile p1-E12_GE12_01_17932.mzXML
#LibraryName NIH_Natural_Products_Library.mgf
#MQScore -1
#Organism NIH_Natural_Products_Library
#TIC_Query 0
#RT_Query -1
#MZErrorPPM -1
#SharedPeaks 0
#MassDiff 0
#LibMZ -1
#SpecMZ 407.222
#SpecCharge 0
#internalFilename spec-00000.mgf

>collision 10
95.01619 120.0
95.047234 236.0
95.204468 160.0
95.242172 184.0
95.256912 148.0
95.336571 72.0
95.515442 116.0
95.819122 36.0
95.854195 152.0
95.867836 136.0
95.928253 240.0
96.006248 168.0
96.119385 212.0
96.236504 88.0
96.283363 64.0
96.326332 148.0
96.490486 56.0
96.513954 196.0
96.54731 204.0
96.578484 100.0
96.909325 68.0
96.956352 148.0
96.97007 172.0
97.203438 204.0
97.254463 108.0
97.336922 160.0
97.397797 68.0
97.513725 152.0
97.533379 176.0
97.580559 232.0
97.612015 104.0
97.633652 200.0
97.686752 156.0
97.922951 124.0
98.003716 156.0
98.210709 96.0
98.315277 116.0
98.443596 152.0
98.554207 168.0
98.615471 144.0
98.670815 128.0
98.718269 108.0
98.799362 80.0
99.114166 208.0
99.29287 164.0
99.485046 176.0
99.596245 164.0
99.765144 136.0
99.914299 204.0
99.950111 52.0
100.220909 148.0
100.366409 200.0
100.420258 200.0
100.599838 140.0
100.627785 168.0
100.765594 248.0
100.821541 176.0
100.865509 132.0
100.931488 184.0
101.067497 204.0
101.145546 52.0
101.191589 144.0
101.291725 88.0
101.397911 92.0
101.427979 80.0
101.670662 144.0
101.724854 124.0
102.112648 180.0
102.152878 164.0
102.177017 64.0
102.241402 168.0
102.295746 244.0
102.331985 120.0
102.501175 140.0
102.549545 156.0
102.601952 144.0
102.646309 160.0
102.880348 152.0
102.900543 160.0
103.021713 172.0
103.108597 216.0
103.217758 160.0
103.250114 152.0
103.272362 120.0
103.59623 132.0
103.618515 164.0
103.794846 168.0
103.892197 196.0
104.089073 128.0
104.107346 320.0
104.241417 124.0
104.313637 240.0
104.483192 204.0
104.540314 228.0
104.558662 120.0
104.639984 80.0
104.717461 168.0
104.764313 132.0
104.851929 188.0
104.92939 44.0
104.958611 156.0
105.002792 164.0
105.034004 21036.0
105.060532 156.0
105.095871 108.0
105.118195 164.0
105.208878 88.0
105.24662 132.0
105.296684 104.0
105.32119 120.0
105.337532 108.0
105.413124 172.0
105.501015 92.0
105.687126 128.0
105.762848 140.0
105.85907 104.0
105.895927 188.0
105.916412 184.0
105.957382 200.0
106.037254 2244.0
106.084442 64.0
106.125443 156.0
106.168503 156.0
106.22683 92.0
106.250549 48.0
106.279274 136.0
106.340836 64.0
106.359604 56.0
106.437325 84.0
106.578087 68.0
106.681816 48.0
106.712646 168.0
106.833992 132.0
106.868965 44.0
106.939545 120.0
106.958176 160.0
107.054222 256.0
107.093346 180.0
107.128365 156.0
107.18399 160.0
107.575851 100.0
107.712143 148.0
107.763786 140.0
107.792717 220.0
108.196037 156.0
108.29129 156.0
108.432167 116.0
108.504723 40.0
108.521309 192.0
108.53997 156.0
108.635368 84.0
108.689316 144.0
108.776482 64.0
108.805542 168.0
108.884445 180.0
108.97377 188.0
109.027115 292.0
109.164993 232.0
109.264839 120.0
109.302284 116.0
109.316856 88.0
109.37513 76.0
109.468811 152.0
109.618797 124.0
109.800163 164.0
109.950371 128.0
110.119484 164.0
110.261551 44.0
110.29081 136.0
110.328438 164.0
110.437431 192.0
110.476913 136.0
110.575256 76.0
110.821342 124.0
110.964874 104.0
111.002617 72.0
111.185127 212.0
111.901917 160.0
111.9356 164.0
111.976936 268.0
112.053551 116.0
112.190536 60.0
112.211624 48.0
112.258011 112.0
112.348816 152.0
112.376129 196.0
112.578766 132.0
112.604111 116.0
112.642128 192.0
112.686493 224.0
112.838661 88.0
112.93409 192.0
112.976128 152.0
113.031136 44.0
113.225891 132.0
113.259781 188.0
113.302147 100.0
113.933388 164.0
113.957718 120.0
113.998093 128.0
114.019341 168.0
114.046967 176.0
114.168152 156.0
114.312813 132.0
114.42775 156.0
114.508667 120.0
114.645012 148.0
114.894478 180.0
114.945686 176.0
115.330101 96.0
115.379265 172.0
115.552498 116.0
115.740845 232.0
115.777252 148.0
115.865067 112.0
115.997932 140.0
116.077255 212.0
116.37336 100.0
116.61396 176.0
116.631149 56.0
116.723595 164.0
116.828979 128.0
116.930115 136.0
117.128197 104.0
117.145432 196.0
117.227303 192.0
117.350166 144.0
117.747215 180.0
117.777451 112.0
118.017326 132.0
118.036789 136.0
118.051926 196.0
118.346207 196.0
118.670738 244.0
118.69072 160.0
118.753609 108.0
118.970596 200.0
119.014015 188.0
119.04937 612.0
119.079163 172.0
119.226898 136.0
119.581398 124.0
119.722908 100.0
119.744682 176.0
119.908081 160.0
119.999634 104.0
120.023682 176.0
120.307251 124.0
120.512543 60.0
120.750809 92.0
120.774872 184.0
121.000267 184.0
121.026047 240.0
121.063766 168.0
121.13166 252.0
121.418785 80.0
121.609665 188.0
121.640388 116.0
121.860001 196.0
122.000656 304.0
122.176582 96.0
122.233788 180.0
122.255798 228.0
122.299812 136.0
122.398949 132.0
122.425301 76.0
122.442924 136.0
122.786728 168.0
122.839661 244.0
123.036064 172.0
123.685974 112.0
123.71032 112.0
123.823242 128.0
123.989403 208.0
124.020432 216.0
124.140152 72.0
124.517418 168.0
124.848557 164.0
124.966446 172.0
124.995369 212.0
125.013176 44.0
125.152405 168.0
125.240257 212.0
125.367996 144.0
125.478699 100.0
125.496536 184.0
125.64373 140.0
125.958488 168.0
126.029984 148.0
126.052322 76.0
126.448151 116.0
126.483963 152.0
126.732544 184.0
126.779602 180.0
126.949974 200.0
127.001556 212.0
127.044174 156.0
127.331482 176.0
127.59214 116.0
127.612373 60.0
127.675331 188.0
127.794556 124.0
128.13002 216.0
128.1931 216.0
128.258453 136.0
128.283249 204.0
128.463654 140.0
128.483963 224.0
128.515549 112.0
128.562927 208.0
128.870026 156.0
129.048584 120.0
129.1707 152.0
129.243103 184.0
129.383423 136.0
129.412857 224.0
129.544205 144.0
129.58725 160.0
129.673355 156.0
129.913712 196.0
129.993118 136.0
130.024887 168.0
130.077103 152.0
130.306458 152.0
130.342819 72.0
130.399628 104.0
130.460999 184.0
130.549667 176.0
130.797668 104.0
131.012207 700.0
131.075516 168.0
131.111969 156.0
131.287506 120.0
131.677765 148.0
131.794067 188.0
131.823975 132.0
131.913101 172.0
131.931396 128.0
132.013519 196.0
132.098328 144.0
132.210449 92.0
132.233322 136.0
132.283691 148.0
132.372971 116.0
132.400452 60.0
132.476044 164.0
132.528732 324.0
132.56311 168.0
132.588318 120.0
132.636444 188.0
132.725861 184.0
132.770355 188.0
132.796951 176.0
132.87265 200.0
132.893295 144.0
132.925095 200.0
132.937393 220.0
132.984268 224.0
133.028839 48676.0
133.075653 116.0
133.128479 84.0
133.153198 72.0
133.181763 108.0
133.206512 120.0
133.248718 84.0
133.281326 64.0
133.308899 80.0
133.345673 60.0
133.369461 148.0
133.406357 144.0
133.441574 164.0
133.460617 88.0
133.4767 144.0
133.522705 72.0
133.573654 52.0
133.69754 116.0
133.713654 32.0
133.766586 68.0
133.87941 48.0
133.923172 116.0
133.976151 100.0
134.032089 4672.0
134.082138 52.0
134.107483 116.0
134.147202 228.0
134.260025 196.0
134.324234 132.0
134.368057 172.0
134.384216 32.0
134.425751 112.0
134.458054 60.0
134.499603 48.0
134.527512 44.0
134.56424 72.0
134.601181 40.0
134.675537 280.0
134.71666 72.0
134.755386 136.0
134.825256 112.0
134.841431 100.0
134.864548 84.0
134.906158 164.0
134.936203 368.0
134.983749 128.0
135.039429 312.0
135.111969 112.0
135.165192 72.0
135.290161 160.0
135.313324 68.0
135.329529 140.0
135.37352 52.0
135.426788 108.0
135.447632 100.0
135.684006 224.0
135.769791 104.0
135.864899 196.0
135.997162 160.0
136.041153 132.0
136.180588 104.0
136.459442 184.0
136.496643 176.0
136.578033 160.0
136.598969 136.0
136.922501 124.0
137.052948 140.0
137.930435 212.0
137.981857 44.0
138.082413 144.0
138.307022 96.0
138.36554 164.0
138.449844 176.0
138.881073 228.0
139.035919 296.0
139.176773 184.0
139.282455 120.0
139.378769 152.0
139.496277 52.0
139.719681 228.0
140.225952 84.0
140.423996 204.0
140.523071 124.0
140.553741 148.0
140.650497 140.0
140.674103 180.0
140.772034 200.0
140.950424 56.0
140.990601 260.0
141.289047 184.0
141.702835 184.0
141.736862 100.0
141.987289 200.0
142.347244 212.0
142.809052 180.0
142.84639 132.0
142.894684 160.0
143.077942 104.0
143.196991 164.0
143.492477 144.0
143.91478 200.0
143.96254 208.0
143.995972 60.0
144.545395 116.0
145.036758 152.0
145.178207 128.0
145.197388 116.0
145.281342 180.0
145.74231 124.0
145.855255 60.0
145.953827 172.0
146.283432 232.0
146.488113 180.0
146.562286 152.0
146.647141 56.0
146.733917 148.0
146.765259 192.0
146.865784 128.0
146.885849 48.0
147.011307 200.0
147.045654 984.0
147.081299 120.0
147.359009 224.0
147.419418 168.0
147.44841 92.0
147.535431 116.0
147.673264 76.0
147.760345 144.0
148.096817 176.0
148.222794 152.0
148.261566 56.0
149.016205 160.0
149.132858 56.0
149.211655 232.0
149.388168 120.0
149.410065 132.0
149.668045 216.0
149.870224 240.0
149.911636 400.0
150.66803 236.0
150.699783 160.0
150.831757 44.0
151.033569 400.0
151.112976 216.0
151.16925 148.0
151.230438 184.0
151.30632 148.0
152.21106 52.0
152.429672 168.0
152.953506 228.0
152.990433 188.0
153.123398 108.0
153.20961 140.0
153.382111 160.0
153.45607 196.0
153.581833 168.0
153.606506 116.0
153.744659 76.0
153.979202 204.0
154.218857 188.0
154.690063 232.0
155.085144 212.0
155.258682 188.0
155.73024 116.0
155.799789 160.0
156.239807 176.0
156.453217 80.0
156.910767 168.0
157.004501 144.0
157.576111 200.0
157.706055 180.0
157.728546 180.0
157.945801 172.0
158.406662 132.0
158.476807 144.0
158.496857 128.0
158.573883 136.0
158.604614 148.0
159.096283 192.0
159.395157 176.0
159.583115 236.0
159.606308 56.0
159.877975 152.0
159.913208 156.0
160.411942 172.0
160.527908 76.0
160.704483 120.0
160.989716 132.0
161.090744 80.0
161.146317 176.0
161.169052 152.0
161.26004 76.0
161.30806 164.0
161.553345 176.0
161.965958 100.0
162.043137 232.0
162.161057 156.0
162.204147 124.0
162.371475 144.0
162.393539 144.0
162.445038 160.0
162.465332 216.0
162.516922 156.0
162.536377 48.0
162.619339 196.0
162.634583 452.0
162.691193 184.0
162.804718 196.0
162.83757 136.0
162.884186 152.0
162.92366 104.0
162.953644 152.0
162.987961 192.0
163.010651 752.0
163.039566 125540.0
163.133972 96.0
163.161133 192.0
163.185898 136.0
163.218567 108.0
163.246002 52.0
163.253555 132.0
163.273773 164.0
163.298309 140.0
163.317719 100.0
163.347122 160.0
163.376266 88.0
163.409439 112.0
163.433716 108.0
163.457794 868.0
163.487228 172.0
163.513916 208.0
163.536377 48.0
163.565414 44.0
163.571243 40.0
163.605804 100.0
163.678009 140.0
163.720703 68.0
163.734451 132.0
163.774246 52.0
163.801804 168.0
163.840668 72.0
163.85965 124.0
163.906418 104.0
163.934479 44.0
163.987 196.0
164.042145 15500.0
164.105728 48.0
164.189865 96.0
164.238327 120.0
164.25618 56.0
164.314865 40.0
164.350586 52.0
164.47052 104.0
164.616043 28.0
164.646423 76.0
164.700333 96.0
164.730972 104.0
164.77951 60.0
164.805069 80.0
164.841858 60.0
164.852142 76.0
164.863052 92.0
164.886841 104.0
164.937958 112.0
164.985458 48.0
165.018814 136.0
165.045609 1156.0
165.105164 84.0
165.147629 52.0
165.165527 108.0
165.181763 104.0
165.234589 84.0
165.256927 124.0
165.30101 88.0
165.329529 280.0
165.352051 124.0
165.380356 124.0
165.403488 152.0
165.439163 120.0
165.46666 148.0
165.531494 52.0
165.550919 124.0
165.6698 64.0
165.76265 104.0
165.790237 64.0
165.83287 100.0
165.92865 44.0
165.969666 68.0
166.049164 288.0
166.070435 176.0
166.115845 128.0
166.251831 72.0
166.274933 48.0
166.407349 68.0
166.662689 104.0
167.308228 68.0
167.434402 56.0
167.635345 76.0
168.32666 92.0
168.773682 272.0
169.726532 68.0
169.983337 120.0
170.476715 96.0
171.29628 44.0
171.53862 120.0
172.062973 124.0
172.094299 140.0
172.261444 92.0
172.66658 84.0
172.799988 28.0
173.031921 96.0
173.135025 80.0
173.24765 56.0
173.273849 108.0
173.562164 60.0
173.667053 120.0
173.786575 136.0
174.065674 180.0
174.0896 68.0
174.844086 108.0
175.002029 232.0
175.038895 160.0
175.133698 68.0
175.953796 36.0
176.033005 176.0
176.122803 136.0
176.276031 80.0
177.054123 1456.0
177.788116 92.0
177.867737 72.0
178.05632 168.0
178.08812 112.0
178.861862 76.0
179.373291 44.0
179.42395 96.0
179.525269 116.0
179.714661 56.0
180.085709 116.0
180.818756 112.0
180.970856 116.0
181.048584 8072.0
181.120834 164.0
181.142258 36.0
181.203873 88.0
181.262817 44.0
181.356613 52.0
181.514786 88.0
181.62207 84.0
181.748154 64.0
181.895752 172.0
181.984344 92.0
182.0504 744.0
182.086395 44.0
182.126678 108.0
182.201889 84.0
182.322815 44.0
182.341614 72.0
182.384628 80.0
182.424942 64.0
183.056107 220.0
183.084137 144.0
183.11377 76.0
183.40744 140.0
183.44249 136.0
183.512421 132.0
184.079224 152.0
185.515884 196.0
187.7509 228.0
188.048279 176.0
188.242111 52.0
189.064011 188.0
189.319534 84.0
190.087097 152.0
191.067764 608.0
192.062424 112.0
192.147934 92.0
192.236237 148.0
193.657242 64.0
194.03688 164.0
194.916733 160.0
195.080704 152.0
195.659348 168.0
200.668747 120.0
202.995819 188.0
203.073593 184.0
203.509399 60.0
204.074814 60.0
205.087296 372.0
205.610184 124.0
205.644424 132.0
206.064194 104.0
206.087051 128.0
206.664612 204.0
206.767624 64.0
207.076828 160.0
207.911118 160.0
208.78157 72.0
209.031845 228.0
209.970978 80.0
210.060394 120.0
210.738815 172.0
211.078323 192.0
212.069977 136.0
213.283234 92.0
216.073975 132.0
217.086075 320.0
219.105225 136.0
220.139038 48.0
220.461029 48.0
222.035461 164.0
223.07518 156.0
224.334381 184.0
225.053375 80.0
225.092194 124.0
225.492493 188.0
226.491821 148.0
227.082291 208.0
227.895798 208.0
231.097565 224.0
232.106537 152.0
232.804398 68.0
234.428848 160.0
235.945816 160.0
241.084335 464.0
242.0905 64.0
243.096527 156.0
247.793823 240.0
252.17099 72.0
253.063065 212.0
253.796555 20.0
254.150208 48.0
255.968369 108.0
259.184967 160.0
262.450653 36.0
263.367157 64.0
265.083252 152.0
269.559418 68.0
271.104034 232.0
271.477692 76.0
273.465302 124.0
275.10022 160.0
279.099091 124.0
281.067627 132.0
281.645203 40.0
283.096802 3252.0
283.156952 148.0
283.424957 104.0
284.099121 676.0
285.104919 280.0
286.249878 36.0
286.637268 68.0
287.165741 512.0
287.402679 64.0
288.166718 192.0
289.166656 120.0
289.918518 52.0
291.523651 36.0
294.084717 176.0
297.106232 32.0
298.892822 44.0
299.15094 68.0
299.54007 96.0
308.140167 156.0
309.066681 100.0
312.557983 52.0
315.121307 60.0
322.09491 72.0
323.124451 56.0
323.747253 44.0
325.138245 112.0
326.165436 168.0
334.161194 92.0
334.270355 36.0
335.175385 156.0
339.164215 100.0
347.164734 152.0
356.531372 36.0
368.142883 72.0
398.18219 56.0
406.180878 176.0
407.248566 104.0
407.951752 28.0
408.237213 172.0
409.086151 52.0
409.746613 140.0
410.782654 92.0
411.496979 92.0
419.998718 76.0
426.394073 64.0
427.093018 40.0
429.560364 80.0
430.513763 60.0
434.051819 84.0
440.030853 60.0
447.274841 64.0
453.31427 132.0
453.560089 116.0
468.659027 136.0
473.774384 72.0
482.819305 72.0
483.129852 56.0
502.289124 96.0
513.845337 92.0
516.049377 68.0
516.094543 116.0
521.193726 108.0
539.277588 80.0
557.693359 40.0
578.680664 120.0
598.989868 48.0
601.953674 56.0
603.44397 76.0
617.191467 68.0
648.451172 128.0
662.771057 60.0
677.537354 92.0
680.882996 208.0
698.881226 168.0
709.41217 144.0
756.100525 156.0
757.557007 148.0
765.449341 176.0
782.369568 164.0
791.548523 96.0
795.748108 180.0
805.501953 56.0
841.141235 92.0
846.315369 156.0
846.940796 116.0
858.220703 124.0
860.443604 220.0
862.862305 188.0
869.686768 136.0
888.867065 32.0
889.786987 132.0
897.378601 164.0
900.702576 168.0
901.539001 96.0
902.387817 180.0
908.610413 180.0
912.11145 156.0
912.159485 116.0
919.055115 256.0
921.464172 72.0
923.386414 128.0
928.619202 152.0
933.368164 144.0
934.262207 176.0
935.077576 144.0
935.120178 184.0
937.525757 252.0
943.055115 144.0
947.38739 168.0
949.152466 228.0
951.213867 140.0
952.177856 200.0
953.351196 204.0
961.029785 116.0
961.56665 132.0
961.84436 144.0
972.571228 72.0
980.189575 232.0
980.270569 172.0
981.504761 76.0
985.986877 288.0
986.199341 212.0
993.180725 96.0
998.682861 116.0
1000.262207 100.0
1000.759521 136.0
1006.705688 204.0
1009.606323 124.0
1009.827637 152.0
1014.570374 160.0
1027.027466 88.0
1028.622681 160.0
1032.321899 80.0
1034.772583 236.0
1038.95752 164.0
1041.133423 188.0
1048.415771 80.0
1049.640625 132.0
1058.486694 144.0
1059.839111 228.0
1060.0802 140.0
1064.595093 144.0
1065.056274 208.0
1065.595459 20.0
1065.900757 116.0
1066.259277 120.0
1069.380005 248.0
1071.411621 144.0
1072.108887 88.0
1074.4823 76.0
1078.328369 92.0
1081.847412 168.0
1082.489014 192.0
1083.654907 96.0
1085.1427 188.0
1087.248291 128.0
1089.053711 188.0
1090.630737 192.0
1091.998291 116.0
1092.859985 180.0
1093.156128 220.0
1096.020508 128.0
1097.615601 204.0
1098.717041 152.0
1098.980957 244.0
1101.27832 160.0
1102.797852 160.0
1103.141602 176.0
1107.031982 48.0
1109.251465 192.0
1109.742065 176.0
1114.75354 120.0
1115.026001 180.0
1115.737183 164.0
1116.435425 136.0
1119.476562 216.0
1120.202515 132.0
1122.175171 120.0
1122.315186 32.0
1123.162109 176.0
1124.790283 120.0
1129.42749 120.0
1129.87561 40.0
1132.841309 168.0
1135.80603 68.0
1140.080811 212.0
1146.447021 240.0
1147.788452 124.0
1163.410645 208.0
1167.07251 196.0
1167.820557 228.0
1169.058838 128.0
1170.536011 176.0
1170.713013 140.0
1171.687012 184.0
1172.859131 156.0
1173.46582 184.0
1173.745361 116.0
1174.106812 144.0
1175.942017 176.0
1176.535889 200.0
1177.85376 180.0
1179.657837 132.0
1181.415283 232.0
1182.598999 184.0
1183.269897 92.0
1184.516235 152.0
1185.845459 156.0
1188.636597 160.0
1190.365601 160.0
1192.289551 92.0
1193.967407 144.0
1194.930298 148.0
1195.948853 88.0
1197.801025 184.0
1197.966309 116.0
1199.365112 92.0
1200.351074 212.0
1200.91394 116.0
1201.737427 32.0
1202.103149 232.0
1202.420532 104.0
1205.631958 56.0
1207.270264 132.0
1207.823608 232.0
1209.781128 172.0
1213.107056 160.0
1217.117065 148.0
1217.978271 160.0
1223.47876 224.0
1226.801636 248.0
1227.715088 200.0
1227.935059 172.0
1229.703369 120.0
1230.192017 88.0
1230.338623 136.0
1231.546631 248.0
1233.691772 124.0
1234.14624 104.0
1234.901489 84.0
1235.125366 188.0
1235.209229 172.0
1235.286255 192.0
1239.739136 160.0
1240.397949 148.0
1240.56665 204.0
1243.301636 52.0
1243.891235 100.0
1244.045654 180.0
1247.052002 204.0
1253.406738 120.0
1254.174927 172.0
1257.264038 116.0
1258.908813 176.0
1258.993652 144.0
1260.187378 116.0
1263.397095 128.0
1263.616333 216.0
1269.254272 108.0
1272.262573 184.0
1272.532349 56.0
1273.036499 148.0
1277.642212 128.0
1279.400024 220.0
1279.542358 304.0
1280.831299 184.0
1281.579346 188.0
1282.805176 188.0
1283.047485 216.0
1284.166992 96.0
1286.264771 92.0
1286.664551 160.0
1288.399902 184.0
1290.386719 148.0
1290.522583 180.0
1291.144653 172.0
1292.010132 128.0
1295.911987 176.0
1298.858398 180.0
1299.080811 152.0
1299.647583 144.0
1300.042236 192.0
1308.617554 208.0
1310.326294 196.0
1310.605469 216.0
1311.108887 132.0
1313.582886 240.0
1316.188232 116.0
1316.296509 156.0
1316.874268 56.0
1318.384277 176.0
1320.155396 148.0
1320.328857 196.0
1321.059448 116.0
1321.153442 160.0
1324.425415 112.0
1325.54834 180.0
1328.506348 224.0
1329.050537 164.0
1330.342407 156.0
1330.973999 176.0
1332.557373 108.0
1334.22168 192.0
1336.134399 172.0
1336.367188 120.0
1337.618896 192.0
1338.405151 156.0
1341.82959 192.0
1342.872314 232.0
1343.237061 160.0
1344.221924 176.0
1344.382446 132.0
1345.177979 172.0
1345.382446 76.0
1345.73291 44.0
1347.200806 196.0
1347.390747 144.0
1347.97522 188.0
1350.182007 132.0
1350.39502 180.0
1351.389893 128.0
1352.538818 188.0
1353.087891 124.0
1353.746826 152.0
1353.864014 188.0
1356.560303 136.0
1357.359497 164.0
1359.083252 164.0
1359.222656 148.0
1359.317993 48.0
1359.875732 32.0
1360.081299 156.0
1361.343994 184.0
1364.216797 152.0
1364.577026 200.0
1365.084351 124.0
1366.908691 160.0
1367.784424 160.0
1368.999268 184.0
1369.153931 136.0
1372.160278 152.0
1373.199951 44.0
1373.782715 76.0
1376.831055 196.0
1377.532715 164.0
1379.439209 176.0
1380.230347 176.0
1380.51123 136.0
1380.755371 144.0
1381.517212 124.0
1382.390259 216.0
1382.9823 180.0
1384.581543 248.0
1386.463257 168.0
1388.746704 180.0
1389.607178 172.0
1391.60376 132.0
1391.848755 44.0
1392.880981 216.0
1393.980591 196.0
1394.233276 244.0
1394.441284 152.0
1394.909668 156.0
1395.831543 144.0
1396.887573 200.0
1399.269043 128.0
1399.469971 204.0
1399.790161 188.0
1399.998657 76.0
1400.646606 132.0
1401.466064 168.0
1402.385986 236.0
1402.449829 168.0
1402.71814 120.0
1403.545654 144.0
1405.0896 156.0
1405.955078 196.0
1406.21875 220.0
1409.741333 164.0
1410.129883 176.0
1410.370361 120.0
1410.705444 164.0
1410.952148 140.0
1411.647461 176.0
1412.253296 228.0
1412.896606 52.0
1412.978882 180.0
1415.269165 140.0
1415.635986 216.0
1416.182739 116.0
1418.348145 160.0
1420.057617 136.0
1420.447632 184.0
1420.77771 136.0
1420.935303 140.0
1421.167847 156.0
1423.660034 224.0
1424.989502 176.0
1426.064087 240.0
1426.154297 248.0
1426.890991 80.0
1427.296997 148.0
1427.80835 220.0
1428.462646 148.0
1431.601196 168.0
1432.060547 112.0
1432.746094 176.0
1433.326172 72.0
1433.386475 40.0
1433.838623 164.0
1434.125 180.0
1434.667725 168.0
1435.074829 140.0
1436.568115 200.0
1436.907593 136.0
1437.647095 160.0
1438.945312 220.0
1439.383301 196.0
1440.79248 136.0
1440.939209 64.0
1442.04248 176.0
1443.69812 216.0
1445.3396 136.0
1448.193604 212.0
1448.784424 52.0
1449.776978 36.0
1450.678955 224.0
1450.982178 160.0
1451.156494 160.0
1451.300659 208.0
1451.626709 76.0
1455.762329 236.0
1456.050903 156.0
1456.423096 176.0
1458.216187 188.0
1458.748291 128.0
1459.295654 172.0
1462.543945 148.0
1462.878784 176.0
1463.830566 240.0
1464.150391 144.0
1464.348389 100.0
1464.584473 36.0
1464.927246 180.0
1465.026245 200.0
1465.323364 92.0
1465.430054 104.0
1465.772949 216.0
1466.016846 180.0
1467.686157 80.0
1467.800537 152.0
1468.433472 48.0
1468.494507 160.0
1470.287354 212.0
1471.335327 216.0
1471.783569 144.0
1472.524292 168.0
1473.036011 216.0
1474.113281 164.0
1474.717041 148.0
1476.712524 168.0
1477.775879 140.0
1478.05896 132.0
1478.372681 100.0
1479.643311 168.0
1479.980225 112.0
1480.064453 156.0
1482.699585 120.0
1482.829834 204.0
1484.048706 152.0
1485.291016 148.0
1485.759033 164.0
1486.088867 84.0
1486.579956 60.0
1487.493286 160.0
1488.40686 216.0
1489.88147 84.0
1490.1427 280.0
1490.972656 140.0
1491.356689 168.0
1491.380005 164.0
1492.048706 168.0
1493.725098 184.0
1494.825317 236.0
1496.82666 172.0
1497.057739 156.0
1497.45813 184.0
1498.760132 104.0
1499.993164 140.0
1500.848877 64.0
1501.134155 168.0
1501.288452 140.0
1501.612305 128.0
1501.913086 208.0
1503.209229 196.0
1503.633667 44.0
1504.235718 196.0
