>compound MLS000697614-01!
>formula C15H10O5
>ionization [M+H]+
>parentmass 271.061066
#inchi InChI=1S/C15H10O5/c16-9-6-11(17)14-12(7-9)19-8-13(15(14)18)20-10-4-2-1-3-5-10/h1-8,16-17H
#inchikey BTXMPQREBZRAKM
#Ion_Source LC-ESI
#Instrument qTof
#Compound_Source NIH Natural Product Library
#PI Dorrestein
#Data_Collector VVP/LMS
#Scan -1
#Precursor_MZ 271.061
#ExactMass 270.053
#Charge 1
#CAS_Number N/A
#Pubmed_ID N/A
#Smiles Oc1cc(O)c2c(=O)c(Oc3ccccc3)coc2c1
#INCHI_AUX N/A
#Library_Class 1
#SpectrumID CCMSLIB00000080216
#IonMode Positive
#UpdateWorkflowName UPDATE-SINGLE-ANNOTATED-GOLD
#LibraryQualityString Gold
#TaskID b1d8e8f6646f4e71acdff9ca3d919d08
##Scan# 2109
#SpectrumFile p2-F05_GF5_01_18041.mzXML
#LibraryName NIH_Natural_Products_Library.mgf
#MQScore -1
#Organism NIH_Natural_Products_Library
#TIC_Query 0
#RT_Query -1
#MZErrorPPM -1
#SharedPeaks 0
#MassDiff 0
#LibMZ -1
#SpecMZ 271.061
#SpecCharge 0
#internalFilename spec-00000.mgf

>collision 10
95.013252 216.0
95.32975 176.0
96.02285 284.0
96.217957 100.0
96.387878 208.0
96.501251 196.0
96.869179 156.0
97.17894 180.0
98.089493 96.0
98.537476 216.0
98.750969 92.0
99.404739 100.0
100.072617 176.0
100.086555 100.0
100.279793 88.0
100.299728 152.0
100.9646 132.0
101.026604 148.0
101.505295 204.0
102.045425 172.0
102.496292 88.0
103.235123 48.0
104.226379 80.0
104.260925 200.0
104.639275 200.0
104.785912 176.0
104.842972 116.0
105.030548 228.0
105.061142 196.0
105.224419 188.0
105.919724 36.0
106.442711 184.0
106.781799 156.0
106.882599 156.0
107.045219 144.0
107.240936 156.0
107.781639 208.0
107.807274 164.0
108.021362 1400.0
108.069046 36.0
108.367195 68.0
108.404495 108.0
109.022224 420.0
109.030609 280.0
109.033821 228.0
109.487595 144.0
109.820312 84.0
110.033165 144.0
110.102074 108.0
110.129227 160.0
110.455307 220.0
111.006653 224.0
111.043884 56.0
111.350304 168.0
111.808632 156.0
111.846519 184.0
112.352272 164.0
113.808418 148.0
113.850891 200.0
114.205826 232.0
114.56131 192.0
114.810692 180.0
115.05323 588.0
115.24189 180.0
115.594704 104.0
116.093842 236.0
116.471581 204.0
116.770348 76.0
117.011353 156.0
117.072319 156.0
117.614967 168.0
117.900063 52.0
118.566635 164.0
119.000473 160.0
119.043907 96.0
119.187271 52.0
120.02095 232.0
121.02916 1552.0
121.102715 48.0
121.172813 44.0
122.03492 896.0
123.011353 156.0
123.101875 92.0
123.35154 116.0
123.789619 220.0
124.014763 800.0
124.674759 152.0
125.018265 188.0
125.057297 176.0
125.587593 228.0
125.80851 176.0
125.980469 108.0
126.037842 440.0
126.499283 144.0
127.056076 140.0
127.412018 44.0
127.695244 152.0
127.834732 232.0
128.062317 136.0
128.258148 212.0
128.373123 156.0
128.686783 180.0
129.069519 540.0
129.353699 104.0
130.079086 56.0
130.897583 204.0
131.047943 356.0
131.082092 128.0
131.125397 28.0
131.709503 240.0
132.022629 168.0
132.059769 232.0
132.297195 116.0
133.028488 192.0
133.402939 136.0
133.775604 188.0
133.828552 176.0
134.400192 212.0
134.423264 164.0
134.691071 76.0
135.005081 144.0
135.046204 200.0
135.120895 232.0
136.016251 1200.0
136.058228 172.0
136.096832 52.0
136.366318 72.0
136.41745 140.0
136.552322 44.0
136.857162 168.0
136.978271 156.0
137.023193 5856.0
137.050491 192.0
137.083115 84.0
137.139511 20.0
137.181015 36.0
137.435226 88.0
137.708359 128.0
138.025833 1060.0
138.445068 48.0
138.667633 48.0
138.872818 148.0
139.024628 148.0
139.05014 132.0
139.228363 148.0
139.359909 52.0
139.468002 168.0
139.804337 212.0
140.056259 120.0
140.079803 92.0
140.879517 56.0
141.030746 112.0
141.069809 1336.0
141.338196 92.0
142.073044 540.0
142.191315 116.0
142.844727 76.0
143.497269 52.0
144.05571 140.0
144.809189 40.0
145.026917 344.0
145.065277 284.0
145.415787 136.0
145.629471 84.0
146.006805 204.0
146.035233 208.0
146.471344 124.0
146.960739 120.0
147.050018 92.0
147.339798 116.0
147.363953 152.0
148.015808 168.0
148.099365 104.0
149.023132 280.0
149.863068 120.0
149.984924 188.0
150.030228 2352.0
150.197067 76.0
150.924835 176.0
151.036209 196.0
152.009949 828.0
152.05899 128.0
152.14743 88.0
152.21373 92.0
152.651138 156.0
152.981262 184.0
153.019104 2660.0
153.069458 152.0
153.133499 128.0
153.41687 84.0
154.022369 164.0
154.06839 128.0
155.050812 464.0
155.303619 56.0
155.720596 56.0
156.073486 252.0
156.785431 56.0
157.06546 308.0
157.156998 132.0
157.34169 160.0
157.43158 120.0
157.691406 232.0
158.068558 188.0
158.164139 132.0
158.482193 144.0
158.928497 172.0
159.043945 144.0
159.26239 44.0
159.868301 44.0
159.958908 136.0
161.020081 200.0
161.070953 176.0
161.369156 48.0
161.930939 208.0
162.181778 136.0
162.704346 196.0
162.975281 148.0
163.354919 208.0
163.994049 128.0
164.112625 140.0
164.353638 176.0
165.018051 1936.0
165.475693 60.0
165.770264 56.0
165.900986 140.0
166.000046 208.0
166.025345 1208.0
166.113831 80.0
166.442337 60.0
166.53479 20.0
167.025192 384.0
167.048889 120.0
168.020111 132.0
168.057678 676.0
169.063522 1000.0
170.030685 232.0
170.073563 156.0
171.046951 136.0
171.92009 48.0
172.057495 200.0
173.028381 144.0
173.061096 320.0
173.358414 160.0
174.056183 56.0
174.876419 128.0
174.989609 40.0
175.044907 196.0
175.079132 176.0
176.020584 220.0
176.673416 240.0
176.861298 148.0
177.020233 472.0
177.157883 252.0
177.560776 124.0
178.025406 3016.0
178.538101 96.0
178.556732 212.0
178.649826 84.0
178.966537 136.0
179.034332 816.0
180.00914 96.0
180.091934 72.0
181.073517 180.0
181.21817 220.0
182.291489 152.0
182.57106 112.0
183.02977 960.0
183.327545 112.0
183.413788 48.0
183.454224 148.0
183.931686 76.0
183.977585 144.0
184.035995 124.0
185.05719 148.0
186.065933 372.0
187.027222 120.0
187.072205 148.0
187.100708 132.0
188.079361 108.0
189.014023 208.0
189.057816 136.0
189.197403 148.0
190.033325 100.0
190.299561 80.0
191.03334 120.0
191.39389 92.0
192.822876 208.0
193.012985 316.0
194.020691 1528.0
194.10463 40.0
194.862381 180.0
195.02739 5116.0
195.118439 60.0
195.276566 144.0
195.407318 48.0
195.696777 76.0
196.032166 372.0
196.058899 92.0
196.625046 28.0
196.904236 60.0
197.062027 840.0
197.086685 116.0
197.376511 104.0
197.51355 164.0
197.597473 84.0
198.065231 164.0
198.611572 80.0
199.071854 156.0
200.043228 364.0
200.295303 48.0
201.04776 132.0
202.059677 380.0
203.033356 320.0
203.175919 200.0
204.2099 40.0
206.291458 72.0
209.050674 160.0
210.53244 128.0
211.037384 280.0
211.281067 92.0
213.051926 176.0
214.026749 108.0
214.055878 132.0
214.854492 196.0
215.035416 164.0
215.066589 244.0
215.077103 208.0
215.257278 56.0
215.780304 104.0
216.071609 580.0
216.327377 108.0
217.083313 128.0
217.323837 164.0
217.367844 136.0
218.531433 204.0
218.972992 72.0
219.951904 112.0
220.282623 76.0
221.58136 88.0
223.713699 172.0
224.041275 160.0
225.053055 288.0
226.898361 160.0
228.039062 156.0
229.053223 148.0
229.809769 124.0
230.057236 152.0
230.256531 104.0
231.024292 140.0
232.475632 64.0
232.985733 136.0
233.025223 196.0
233.666748 176.0
234.077652 84.0
234.882248 152.0
235.040894 168.0
239.452332 156.0
241.0401 136.0
242.046417 156.0
242.07399 208.0
242.309692 52.0
242.774643 176.0
243.06636 632.0
244.153519 36.0
245.558121 172.0
247.057465 148.0
250.844727 108.0
250.901474 156.0
250.989761 136.0
252.072464 140.0
252.467621 168.0
253.049866 1572.0
253.325378 68.0
253.540833 40.0
254.053009 264.0
254.806915 68.0
255.003937 108.0
255.03186 160.0
255.579529 48.0
256.876221 108.0
257.042114 112.0
258.032288 140.0
260.570618 120.0
260.940216 100.0
263.234375 192.0
264.220215 116.0
265.726746 72.0
267.751892 208.0
269.039551 164.0
269.225983 64.0
269.787964 184.0
269.840271 52.0
270.118256 120.0
270.622253 112.0
270.799072 100.0
270.926819 272.0
270.974487 124.0
271.061066 10080.0
271.179138 32.0
271.270935 64.0
271.306976 68.0
271.346313 160.0
271.544312 148.0
271.651337 48.0
271.762878 52.0
271.861298 80.0
272.030914 196.0
272.064301 1268.0
272.248688 72.0
273.064789 428.0
273.106476 72.0
273.47171 56.0
273.540833 68.0
273.567169 48.0
273.613251 60.0
273.721924 88.0
273.883301 112.0
274.071075 120.0
274.489685 112.0
274.842651 116.0
274.865753 36.0
275.179321 108.0
275.281677 96.0
276.955139 96.0
278.21524 84.0
278.25177 88.0
290.372925 52.0
293.747101 44.0
294.064453 88.0
300.957794 44.0
301.085571 128.0
335.56073 140.0
338.956329 128.0
381.289612 108.0
388.956818 56.0
402.441254 80.0
418.88028 120.0
421.949158 52.0
432.306488 88.0
432.703857 120.0
453.520813 92.0
475.468903 64.0
491.737244 96.0
494.021698 80.0
544.624512 92.0
575.11499 72.0
584.676636 100.0
715.811157 96.0
776.421509 144.0
808.71106 52.0
883.3255 208.0
929.575928 196.0
947.863586 84.0
956.541626 148.0
967.480469 192.0
1005.315491 144.0
1026.324707 216.0
1043.522583 220.0
1051.903931 172.0
1061.453247 48.0
1079.674072 152.0
1090.951782 32.0
1097.212402 180.0
1112.122681 136.0
1113.191528 120.0
1128.269775 68.0
1137.158569 212.0
1146.318237 76.0
1151.809937 76.0
1156.807129 136.0
1169.112427 136.0
1171.720337 160.0
1178.775391 236.0
1184.570312 180.0
1185.474731 216.0
1218.713989 120.0
1223.888916 100.0
1224.968384 208.0
1239.213013 156.0
1259.282593 216.0
1276.965942 184.0
1288.085205 212.0
1289.843018 204.0
1294.615112 144.0
1303.998901 192.0
1305.436646 140.0
1310.705811 56.0
1318.557251 152.0
1319.815063 128.0
1320.509277 192.0
1323.04187 108.0
1329.724976 136.0
1330.283936 176.0
1346.557617 116.0
1360.154297 184.0
1365.223755 184.0
1366.753784 188.0
1369.07251 132.0
1369.433472 44.0
1373.428345 164.0
1380.703247 164.0
1387.923218 112.0
1392.457275 124.0
1396.485596 92.0
1398.204224 240.0
1404.895264 124.0
1406.00708 208.0
1411.430298 108.0
1419.412354 208.0
1425.049316 184.0
1427.026001 148.0
1427.529785 180.0
1429.387695 156.0
1429.921997 140.0
1431.992432 180.0
1444.50708 196.0
1449.905518 172.0
1450.640747 224.0
1452.984009 180.0
1453.333008 168.0
1456.794922 156.0
1457.942261 172.0
1460.223022 220.0
1463.883545 116.0
1467.411377 148.0
1468.593384 156.0
1469.333252 108.0
1475.626343 168.0
1476.987549 152.0
1477.423584 164.0
1483.79541 80.0
1486.218994 240.0
1487.032471 128.0
1496.89563 180.0
1498.320557 152.0
1498.466919 160.0
1498.744263 76.0
1499.923462 164.0
1500.771484 140.0
