>compound MLS000876793-01!5-hydroxy-2-(4-hydroxyphenyl)-7-methoxy-2,3-dihydrochromen-4-one
>formula C16H14O5
>ionization [M+H]+
>parentmass 287.090302
#inchi InChI=1S/C16H14O5/c1-20-11-6-12(18)16-13(19)8-14(21-15(16)7-11)9-2-4-10(17)5-3-9/h2-7,14,17-18H,8H2,1H3
#inchikey DJOJDHGQRNZXQQ
#Ion_Source LC-ESI
#Instrument qTof
#Compound_Source NIH Natural Product Library
#PI Dorrestein
#Data_Collector VVP/LMS
#Scan -1
#Precursor_MZ 287.092
#ExactMass 286.084
#Charge 1
#CAS_Number N/A
#Pubmed_ID N/A
#Smiles COc1cc(O)c2C(=O)CC(Oc2c1)c3ccc(O)cc3
#INCHI_AUX N/A
#Library_Class 1
#SpectrumID CCMSLIB00000079727
#IonMode Positive
#UpdateWorkflowName UPDATE-SINGLE-ANNOTATED-GOLD
#LibraryQualityString Gold
#TaskID b1d8e8f6646f4e71acdff9ca3d919d08
##Scan# 1933
#SpectrumFile p1-C10_GC10_01_17906.mzXML
#LibraryName NIH_Natural_Products_Library.mgf
#MQScore -1
#Organism NIH_Natural_Products_Library
#TIC_Query 0
#RT_Query -1
#MZErrorPPM -1
#SharedPeaks 0
#MassDiff 0
#LibMZ -1
#SpecMZ 287.092
#SpecCharge 0
#internalFilename spec-00000.mgf

>collision 10
95.048286 176.0
96.022758 184.0
96.29612 172.0
97.018143 176.0
97.697617 28.0
97.77829 116.0
98.430786 216.0
98.659973 116.0
99.718445 156.0
100.686691 100.0
101.599411 108.0
102.35511 176.0
103.077232 200.0
104.023033 140.0
104.171272 188.0
105.103699 104.0
105.479477 152.0
106.274055 160.0
106.701248 96.0
107.048973 116.0
107.094276 152.0
108.021057 144.0
108.050018 172.0
110.856773 124.0
111.044289 788.0
112.051483 220.0
112.094467 104.0
113.958572 188.0
114.902496 144.0
116.065224 232.0
117.897087 124.0
118.401146 144.0
118.689354 168.0
118.724045 228.0
119.050194 1908.0
119.121231 56.0
119.608307 72.0
119.660553 64.0
119.684502 60.0
120.055328 176.0
120.286201 140.0
120.487106 100.0
121.060158 128.0
122.038788 104.0
123.045647 184.0
123.549522 72.0
124.01342 412.0
124.165283 112.0
125.027252 180.0
125.229851 168.0
127.352394 44.0
127.662537 224.0
127.988815 44.0
130.000595 164.0
131.217484 216.0
131.258514 152.0
132.960464 136.0
135.640549 176.0
136.148651 148.0
136.583267 168.0
137.025574 216.0
138.876938 160.0
139.039276 156.0
140.46463 148.0
141.072952 340.0
141.497314 184.0
141.786285 168.0
142.068451 132.0
142.120636 56.0
146.527115 136.0
146.929718 60.0
147.020447 140.0
147.044006 4128.0
147.196625 56.0
147.4142 116.0
147.521362 64.0
147.557632 80.0
147.596313 140.0
147.700302 72.0
148.051132 248.0
148.749496 36.0
149.084671 116.0
149.313187 48.0
150.03392 156.0
151.037537 232.0
152.009338 376.0
152.060364 172.0
152.152512 92.0
153.606857 240.0
154.038834 168.0
154.335388 192.0
156.255066 216.0
157.628876 100.0
159.116653 188.0
159.222107 76.0
159.50351 132.0
160.79306 60.0
161.444839 44.0
161.475189 84.0
161.718063 192.0
161.867172 180.0
163.059723 64.0
164.97876 204.0
165.05304 216.0
165.232239 168.0
165.800674 188.0
166.057037 128.0
166.285599 240.0
166.783646 168.0
166.855621 160.0
166.881332 120.0
166.966187 244.0
166.999619 152.0
167.034546 11852.0
167.087082 68.0
167.135971 28.0
167.586548 48.0
167.604584 44.0
167.687042 128.0
167.871552 112.0
168.037338 1736.0
168.147964 172.0
168.561874 88.0
168.662659 140.0
168.713196 44.0
168.954865 52.0
169.035904 300.0
169.06459 108.0
169.151535 88.0
169.33699 120.0
169.960114 180.0
170.071701 148.0
170.307968 52.0
181.066422 376.0
182.070663 124.0
184.052139 180.0
185.32608 32.0
188.102722 200.0
189.055344 276.0
189.529892 136.0
190.699326 52.0
191.076721 164.0
193.043701 292.0
194.089325 232.0
196.074112 136.0
197.058929 144.0
198.075745 196.0
206.106628 80.0
208.0513 220.0
210.059906 164.0
211.504669 20.0
212.045059 220.0
216.946091 124.0
227.075531 164.0
241.087204 168.0
242.046143 96.0
243.205582 72.0
249.078888 52.0
251.071152 108.0
261.077057 116.0
261.540833 56.0
269.077301 136.0
275.399109 108.0
287.090302 636.0
288.09137 128.0
288.292297 156.0
288.775757 52.0
289.087006 116.0
290.103058 132.0
296.627594 48.0
301.805389 100.0
307.003571 164.0
420.21875 88.0
580.824707 96.0
726.718323 108.0
800.154602 184.0
823.289124 88.0
896.779602 40.0
936.005432 148.0
936.194214 168.0
940.223755 140.0
963.983459 184.0
1008.416138 20.0
1013.538818 160.0
1027.756104 196.0
1028.521851 176.0
1044.579468 120.0
1072.76123 188.0
1129.547607 168.0
1164.808716 84.0
1176.3302 196.0
1183.063477 20.0
1194.970459 144.0
1195.431396 260.0
1203.551392 268.0
1209.655884 164.0
1220.923584 184.0
1225.823242 132.0
1243.376953 96.0
1244.50708 124.0
1245.67981 56.0
1251.473633 128.0
1269.294434 140.0
1272.040039 180.0
1274.348145 140.0
1290.219604 100.0
1312.793701 148.0
1317.658569 160.0
1332.793823 160.0
1333.149902 160.0
1346.07251 140.0
1351.305786 144.0
1352.864624 132.0
1353.208618 124.0
1358.866577 172.0
1366.88269 168.0
1374.088501 44.0
1374.951782 52.0
1386.710938 172.0
1390.040649 140.0
1391.66626 224.0
1408.571167 140.0
1409.041748 60.0
1437.21936 192.0
1442.422729 244.0
1442.672241 148.0
1458.166138 148.0
1468.916016 172.0
1475.429932 176.0
1484.855713 180.0
1486.297852 224.0
1493.088379 156.0
1494.189453 148.0
1501.097168 224.0
