>compound MLS001148446-01!491-80-5
>formula C16H12O5
>ionization [M+H]+
>parentmass 285.076172
#inchi InChI=1S/C16H12O5/c1-20-11-4-2-9(3-5-11)12-8-21-14-7-10(17)6-13(18)15(14)16(12)19/h2-8,17-18H,1H3
#inchikey WUADCCWRTIWANL
#Ion_Source LC-ESI
#Instrument qTof
#Compound_Source NIH Pharmacologically Active Library
#PI Dorrestein
#Data_Collector VP/LMS
#Scan -1
#Precursor_MZ 285.078
#ExactMass 284.068
#Charge 1
#CAS_Number N/A
#Pubmed_ID N/A
#Smiles COc1ccc(cc1)c2coc3cc(O)cc(O)c3c2=O
#INCHI_AUX N/A
#Library_Class 1
#SpectrumID CCMSLIB00000084748
#IonMode Positive
#UpdateWorkflowName UPDATE-SINGLE-ANNOTATED-GOLD
#LibraryQualityString Gold
#TaskID d252d724072548979f1f6f1ced849daf
##Scan# 2169
#SpectrumFile p3-A03_GA3_01_18225.mzXML
#LibraryName Pharm_Active_Library.mgf
#MQScore -1
#Organism Pharm_Active_Library
#TIC_Query 0
#RT_Query -1
#MZErrorPPM -1
#SharedPeaks 0
#MassDiff 0
#LibMZ -1
#SpecMZ 285.078
#SpecCharge 0
#internalFilename spec-00000.mgf

>collision 10
44.935104 116.0
45.020531 212.0
45.239815 164.0
45.305439 208.0
45.440849 108.0
46.056068 176.0
46.252136 164.0
46.344227 136.0
46.492035 160.0
46.570782 144.0
46.606106 188.0
47.028278 52.0
47.062408 76.0
47.623894 152.0
47.671982 184.0
47.792992 184.0
48.014778 176.0
48.035469 104.0
48.286861 176.0
49.007339 152.0
49.127239 176.0
49.396854 140.0
49.547363 156.0
49.58588 108.0
49.705086 108.0
50.150902 144.0
50.471371 144.0
50.740391 172.0
50.976009 148.0
51.193665 140.0
51.273445 172.0
51.366123 128.0
51.707619 156.0
51.733383 44.0
51.79496 240.0
51.888107 44.0
51.898144 220.0
52.004303 164.0
52.510761 124.0
53.227119 200.0
53.266331 188.0
53.350616 196.0
53.812458 72.0
53.832901 156.0
54.065342 188.0
54.318821 172.0
54.667034 132.0
54.681751 96.0
54.746529 72.0
54.803978 52.0
54.854088 88.0
55.47496 264.0
55.589169 156.0
55.615883 184.0
55.869987 144.0
56.136604 92.0
56.203732 184.0
56.248501 116.0
56.279854 144.0
56.382927 160.0
56.441231 144.0
56.592354 164.0
56.722694 184.0
56.992836 232.0
57.11615 164.0
57.188339 228.0
57.251572 184.0
57.513912 176.0
57.612064 204.0
57.693672 136.0
57.71484 140.0
57.779877 188.0
57.820732 100.0
57.881287 196.0
58.010067 120.0
58.079823 228.0
58.214897 164.0
58.30909 360.0
58.544899 196.0
58.619545 140.0
58.727791 128.0
59.076065 128.0
59.095955 184.0
59.163296 80.0
59.302692 180.0
59.954346 224.0
60.099297 164.0
60.403648 168.0
60.625053 224.0
60.670002 228.0
60.775467 128.0
61.464783 264.0
61.741287 200.0
61.76944 148.0
61.947895 200.0
62.046627 124.0
62.307148 112.0
62.349575 100.0
62.366863 160.0
62.45649 144.0
62.521656 172.0
62.583961 140.0
62.821945 152.0
62.905582 184.0
62.982956 248.0
63.243855 180.0
63.738659 144.0
64.260918 204.0
64.572418 152.0
64.591614 88.0
64.634804 128.0
64.876656 188.0
64.968063 168.0
65.04509 128.0
65.480827 212.0
65.640373 184.0
65.842094 216.0
65.885704 260.0
65.945496 80.0
65.963272 196.0
66.102364 204.0
66.163872 232.0
66.175209 164.0
66.265907 136.0
66.299934 120.0
66.502663 100.0
66.569229 100.0
66.581871 184.0
67.078484 68.0
67.109459 160.0
67.127396 128.0
67.538956 160.0
67.591309 108.0
68.071602 32.0
68.601387 56.0
68.886879 112.0
69.393295 136.0
69.563179 208.0
69.765182 192.0
69.884926 196.0
70.053078 240.0
70.379967 176.0
70.632317 172.0
70.746109 120.0
70.79969 160.0
70.896858 252.0
71.022598 136.0
71.355103 220.0
71.506493 56.0
71.627724 164.0
72.034256 152.0
72.056221 124.0
72.243874 48.0
72.506325 104.0
72.647057 216.0
72.821892 128.0
73.189224 180.0
73.432915 36.0
73.72998 100.0
73.76075 160.0
73.899269 212.0
74.178421 208.0
74.506195 140.0
74.760674 164.0
75.093178 144.0
75.561302 140.0
75.644371 136.0
75.908592 56.0
76.406212 112.0
76.508896 116.0
76.925537 132.0
77.404587 88.0
77.488663 148.0
77.527626 128.0
77.671028 144.0
78.053841 180.0
78.141785 212.0
78.337196 152.0
78.453506 164.0
79.154938 172.0
79.282486 72.0
79.298431 152.0
79.655083 160.0
79.823395 284.0
79.903961 184.0
80.401108 148.0
80.463585 124.0
80.738091 172.0
80.788841 176.0
81.827957 144.0
81.847763 160.0
81.954033 148.0
82.121689 256.0
82.166786 40.0
82.251602 156.0
82.58226 124.0
82.899086 172.0
83.098541 156.0
83.285522 152.0
83.425438 108.0
83.525452 200.0
84.019127 116.0
84.035545 148.0
84.669853 256.0
84.746788 228.0
84.796265 132.0
85.014503 48.0
85.266106 188.0
85.49231 88.0
85.759361 252.0
85.933456 156.0
85.993599 184.0
86.047127 144.0
86.148705 196.0
86.254036 64.0
86.381622 128.0
86.594482 212.0
86.653763 132.0
86.859535 116.0
86.995003 184.0
87.143578 120.0
87.331329 164.0
87.344353 132.0
87.377838 188.0
87.623589 120.0
87.64222 144.0
88.076897 128.0
88.140419 188.0
88.224525 88.0
88.508911 148.0
88.563217 180.0
88.766441 176.0
88.816719 180.0
89.018951 152.0
89.040955 352.0
89.122261 120.0
89.167366 132.0
89.377983 120.0
89.596382 120.0
89.622765 40.0
89.964127 156.0
90.050705 160.0
90.173798 168.0
90.215378 88.0
90.451836 164.0
90.491592 228.0
90.60144 44.0
90.62986 32.0
90.648521 188.0
90.698082 160.0
90.713249 160.0
91.056679 148.0
91.106064 68.0
91.57019 196.0
91.659729 92.0
91.964859 108.0
91.985855 32.0
92.025948 248.0
92.092789 208.0
92.295357 112.0
92.3489 168.0
92.647514 192.0
93.169327 112.0
93.351929 120.0
93.727287 144.0
93.800522 164.0
93.831367 124.0
94.161339 256.0
94.203827 92.0
94.433853 172.0
94.507362 156.0
94.588638 152.0
94.722252 164.0
95.011589 172.0
95.046021 164.0
95.080948 120.0
95.137238 144.0
95.2052 36.0
95.306206 60.0
95.450043 140.0
95.876366 100.0
96.020599 212.0
96.573357 84.0
96.608566 180.0
96.814087 164.0
97.021782 228.0
97.159058 360.0
97.363197 120.0
97.45945 220.0
97.553787 168.0
97.6521 192.0
98.067535 156.0
98.369331 168.0
98.42263 164.0
98.446327 156.0
98.482765 172.0
98.54509 128.0
98.566826 176.0
98.659721 236.0
98.800133 124.0
98.966377 164.0
98.994102 144.0
99.795746 116.0
99.911095 204.0
99.944923 160.0
100.159927 160.0
100.423035 160.0
100.808342 188.0
100.842316 196.0
101.010269 188.0
101.705574 196.0
101.751457 164.0
101.952614 184.0
102.049522 504.0
102.451614 220.0
102.506012 144.0
103.008377 140.0
103.055283 656.0
103.191208 180.0
103.42897 152.0
103.461357 132.0
103.787552 108.0
103.935623 40.0
104.014771 192.0
104.045227 96.0
104.063492 112.0
104.549309 140.0
104.716255 188.0
105.019936 176.0
105.067245 96.0
105.177048 156.0
105.254631 272.0
105.381264 156.0
105.972565 224.0
106.16114 176.0
106.234978 184.0
106.411476 32.0
106.491562 176.0
106.540855 124.0
106.668266 192.0
106.752563 172.0
106.882156 164.0
107.009766 120.0
107.048737 180.0
107.0839 268.0
107.347687 136.0
107.620064 220.0
107.845238 136.0
107.979622 160.0
109.026581 116.0
109.469681 108.0
109.669685 124.0
109.688446 68.0
109.703033 192.0
110.001343 248.0
110.080681 60.0
110.160042 116.0
110.231079 252.0
110.272873 176.0
110.343948 116.0
110.362762 140.0
111.006409 636.0
111.037056 140.0
111.286766 164.0
111.328766 84.0
111.662918 184.0
111.963867 204.0
112.012314 252.0
112.039696 136.0
112.316223 112.0
112.393906 184.0
112.554321 180.0
112.757126 108.0
112.881203 196.0
113.015106 176.0
113.812073 140.0
113.937378 140.0
114.101021 200.0
114.460594 272.0
114.50106 104.0
114.754639 92.0
114.974342 232.0
115.031975 100.0
115.053146 656.0
115.204941 132.0
115.673256 128.0
115.808151 148.0
115.868134 172.0
115.932411 128.0
116.035301 236.0
116.063171 208.0
116.088905 192.0
116.655724 208.0
116.806252 184.0
117.035477 180.0
117.070633 176.0
117.26487 264.0
117.29892 236.0
117.435204 56.0
117.53875 256.0
117.627235 180.0
117.946922 116.0
118.041656 2852.0
118.203018 96.0
118.262718 56.0
118.303848 216.0
118.941154 204.0
119.049316 284.0
119.397415 72.0
119.652 88.0
119.808807 160.0
119.93737 240.0
120.046928 160.0
120.199074 36.0
120.360603 80.0
120.526611 268.0
120.813019 200.0
121.029747 588.0
121.065353 160.0
121.202728 144.0
121.334236 104.0
122.192955 204.0
122.302986 164.0
122.35141 180.0
122.584885 232.0
122.659821 28.0
122.986267 212.0
123.014961 208.0
123.046181 816.0
123.631622 308.0
123.862915 120.0
124.016197 4548.0
124.04274 168.0
124.103439 32.0
124.309723 136.0
124.400726 260.0
124.469551 128.0
124.55616 76.0
124.596146 152.0
124.733925 48.0
124.813965 212.0
125.018616 296.0
125.118774 68.0
125.301399 64.0
125.522057 108.0
125.664803 240.0
125.88578 52.0
125.908119 84.0
126.03273 204.0
126.695457 136.0
127.055534 252.0
127.220215 236.0
127.253891 160.0
127.296555 132.0
127.624619 220.0
127.676338 152.0
127.917084 124.0
128.062485 280.0
128.176086 200.0
128.509796 192.0
128.631653 172.0
128.679062 40.0
129.003815 240.0
129.035019 196.0
129.071274 352.0
129.264481 200.0
129.43425 228.0
129.914734 132.0
130.041046 928.0
130.076736 304.0
130.414291 180.0
130.741791 216.0
130.882919 252.0
130.91481 120.0
130.985413 204.0
131.019577 168.0
131.049622 824.0
131.669662 240.0
131.70163 76.0
131.809128 72.0
132.020187 324.0
132.057114 572.0
132.08107 152.0
132.401489 88.0
132.589355 56.0
132.607681 172.0
132.667282 168.0
132.687912 176.0
132.869095 132.0
133.022842 80.0
133.064316 1416.0
133.144531 184.0
134.039108 64.0
134.070297 340.0
134.373718 444.0
134.452972 244.0
134.532425 208.0
134.574524 68.0
134.830917 228.0
135.001221 168.0
135.044876 128.0
135.066437 172.0
135.221771 68.0
135.261124 40.0
135.462585 204.0
135.62941 56.0
136.012238 184.0
136.304764 128.0
137.029373 216.0
137.263794 156.0
137.329086 208.0
137.511078 116.0
137.595108 52.0
138.048401 232.0
138.401733 136.0
138.582077 116.0
139.013519 208.0
139.049911 284.0
139.255341 152.0
139.610214 144.0
139.664307 132.0
139.781525 96.0
139.888077 196.0
140.06514 416.0
140.109207 168.0
140.128052 204.0
140.524139 152.0
140.821579 208.0
140.849915 132.0
140.899521 132.0
141.068695 904.0
141.185532 156.0
141.218643 128.0
141.284882 192.0
141.822403 104.0
141.907745 148.0
142.045288 224.0
142.076126 384.0
142.221909 208.0
142.294479 172.0
142.337204 180.0
143.050186 144.0
143.221893 216.0
143.505478 144.0
143.629486 160.0
143.646194 140.0
144.057495 664.0
144.231201 148.0
144.577026 224.0
144.709656 52.0
144.905655 220.0
145.030792 148.0
145.064331 800.0
145.131348 60.0
145.515228 216.0
145.572296 180.0
145.700165 184.0
145.991364 212.0
146.036682 40.0
146.071579 340.0
146.233978 160.0
146.766373 116.0
146.792892 116.0
147.04512 372.0
147.089523 232.0
147.20311 152.0
147.62117 32.0
147.64534 172.0
147.889709 192.0
147.960495 212.0
148.064026 200.0
148.274796 44.0
148.337814 196.0
148.434799 152.0
148.563339 116.0
148.853363 184.0
149.02475 2760.0
149.055878 152.0
149.063995 192.0
149.148544 128.0
149.223907 40.0
149.29686 92.0
149.549881 204.0
149.725174 188.0
150.02681 460.0
150.268753 100.0
150.293152 168.0
150.623749 268.0
150.837753 156.0
151.056702 312.0
151.172821 140.0
151.241348 136.0
151.532028 172.0
151.628326 192.0
151.952011 188.0
151.97998 220.0
152.011475 8244.0
152.060608 456.0
152.47995 96.0
152.514359 48.0
152.590561 152.0
152.930023 188.0
152.954636 252.0
153.018768 4508.0
153.07164 336.0
153.363525 68.0
153.415283 32.0
153.541031 96.0
153.834656 48.0
153.967987 208.0
154.025131 232.0
154.032639 412.0
154.059265 184.0
154.068359 176.0
154.12265 164.0
154.1409 76.0
154.165619 108.0
154.662735 56.0
154.808792 44.0
154.930161 188.0
154.972275 228.0
155.009445 208.0
155.036087 176.0
155.057922 640.0
155.329269 76.0
156.029556 168.0
156.059402 528.0
156.094208 116.0
156.318085 120.0
156.8685 176.0
157.024521 176.0
157.067062 1180.0
157.097916 212.0
157.732193 216.0
157.969742 128.0
158.036713 4840.0
158.072098 708.0
158.18811 68.0
158.295105 192.0
158.345184 208.0
158.372742 128.0
158.400299 72.0
158.457916 76.0
158.679718 80.0
158.821396 112.0
158.964401 48.0
159.039993 744.0
159.078247 332.0
159.130066 168.0
159.308365 176.0
159.325958 160.0
159.526993 60.0
159.607452 152.0
159.989868 72.0
160.045105 244.0
160.085556 44.0
160.284546 72.0
160.493759 192.0
160.700577 216.0
160.758621 116.0
161.024353 168.0
161.051483 176.0
161.096893 204.0
161.175262 88.0
161.2258 132.0
161.263718 116.0
161.488739 168.0
161.622818 132.0
161.906326 188.0
162.012711 200.0
162.033478 180.0
162.397995 104.0
162.6492 68.0
162.771057 32.0
162.946304 136.0
162.986969 116.0
163.042862 352.0
163.078445 188.0
163.13945 200.0
163.185211 136.0
163.289474 44.0
163.490448 140.0
163.599899 120.0
163.645721 128.0
163.803619 120.0
164.0522 196.0
164.201233 44.0
165.069626 176.0
165.658157 148.0
166.016983 204.0
166.076782 192.0
166.224777 144.0
166.268402 56.0
166.317169 172.0
166.383911 220.0
166.941467 140.0
167.03009 392.0
167.178131 52.0
167.28624 184.0
167.525726 88.0
167.584976 112.0
168.056305 2276.0
168.100677 104.0
168.697296 120.0
169.065369 696.0
169.113739 36.0
169.367493 56.0
169.590317 160.0
169.937805 152.0
169.966339 212.0
170.020569 688.0
170.0746 168.0
170.329803 48.0
170.350586 108.0
170.399948 156.0
170.454514 32.0
170.62085 216.0
170.88092 180.0
171.018845 184.0
171.044418 620.0
171.086533 204.0
171.201096 132.0
171.670166 76.0
171.688416 40.0
172.051529 416.0
172.361908 152.0
172.422012 56.0
172.482117 200.0
172.670364 140.0
172.733139 96.0
172.884888 176.0
173.060272 332.0
173.09169 176.0
174.022507 196.0
174.306183 148.0
174.840012 208.0
175.038925 140.0
175.888992 240.0
176.047394 136.0
176.308929 180.0
176.684402 44.0
176.824646 128.0
177.020538 212.0
177.052322 124.0
177.582367 124.0
177.996368 104.0
178.025574 56.0
178.533142 120.0
178.578354 144.0
178.711365 124.0
178.769913 212.0
178.815155 184.0
178.980194 164.0
179.034561 880.0
179.063705 232.0
179.206589 104.0
179.235901 172.0
179.337173 52.0
179.734528 76.0
180.035248 256.0
180.113617 128.0
180.444992 208.0
180.589386 40.0
181.033646 124.0
181.064926 196.0
181.526718 212.0
182.066101 152.0
182.522934 180.0
182.56369 180.0
182.584778 148.0
183.043793 196.0
183.078705 416.0
183.203857 100.0
184.053482 564.0
184.090408 172.0
184.197449 228.0
184.231674 152.0
184.326233 152.0
184.385681 244.0
184.566803 68.0
184.712845 212.0
185.06102 2064.0
185.120041 140.0
185.289444 60.0
185.32196 60.0
185.679779 68.0
185.809982 28.0
185.877808 148.0
186.06633 1824.0
186.103088 144.0
186.162827 44.0
186.244308 112.0
186.29863 124.0
186.516022 136.0
186.562241 148.0
186.635635 136.0
187.034836 332.0
187.073929 528.0
187.286057 88.0
187.34053 124.0
187.365051 192.0
187.39502 204.0
188.049118 276.0
188.078781 168.0
188.218735 52.0
188.265152 176.0
188.398987 44.0
189.030579 124.0
189.055206 76.0
189.501526 104.0
189.641281 144.0
190.027939 128.0
190.104767 184.0
190.324356 176.0
190.706207 128.0
190.950912 208.0
191.014175 168.0
191.040253 192.0
191.283829 172.0
191.490341 212.0
191.741058 152.0
192.036057 188.0
192.334045 136.0
193.068954 140.0
193.20726 188.0
193.237686 92.0
193.268127 136.0
194.015915 160.0
194.168411 72.0
194.673492 148.0
194.954056 100.0
195.049164 348.0
196.050751 828.0
196.097885 168.0
196.184296 72.0
196.217743 204.0
196.273514 104.0
196.329285 44.0
196.401794 132.0
196.524536 40.0
196.865082 168.0
196.957245 204.0
197.060303 3504.0
197.34848 52.0
197.373642 48.0
197.421188 128.0
197.700928 80.0
197.73732 44.0
197.975281 212.0
198.064651 380.0
198.160141 104.0
198.437607 108.0
198.684418 176.0
198.841537 188.0
199.039795 292.0
199.073624 352.0
199.311478 196.0
199.422913 52.0
199.451019 168.0
199.555038 88.0
199.937592 124.0
200.045761 712.0
200.109299 184.0
201.053879 340.0
201.09523 528.0
201.861511 96.0
202.025558 176.0
202.05043 156.0
202.12175 120.0
202.223633 128.0
202.50676 108.0
202.804245 152.0
203.022552 204.0
204.297852 36.0
205.283325 196.0
205.682755 80.0
205.756012 180.0
206.379807 240.0
207.049408 132.0
207.143921 220.0
207.688538 176.0
208.170685 184.0
208.506805 96.0
208.653397 124.0
209.130905 244.0
209.309402 116.0
209.381393 152.0
209.600327 156.0
209.888565 208.0
210.029877 228.0
210.214523 28.0
210.355942 140.0
211.034607 148.0
211.076035 516.0
212.045822 344.0
212.091476 52.0
212.210342 80.0
212.587418 144.0
212.639664 96.0
212.734329 240.0
212.773178 284.0
212.799316 64.0
212.927338 136.0
212.950317 172.0
213.054932 18168.0
213.121704 204.0
213.171097 156.0
213.208878 60.0
213.257385 180.0
213.293167 44.0
213.34549 88.0
213.400726 116.0
213.42981 80.0
213.464691 56.0
213.496689 116.0
213.586838 52.0
213.633011 124.0
213.828339 64.0
213.93895 104.0
214.026291 176.0
214.060211 4100.0
214.116562 84.0
214.166077 80.0
214.186462 76.0
214.250549 52.0
214.285507 56.0
214.335037 40.0
214.617767 148.0
214.664429 108.0
214.684845 52.0
214.714005 196.0
214.760666 72.0
214.947372 40.0
215.061157 956.0
215.134171 96.0
215.304977 120.0
215.361923 180.0
215.506073 140.0
215.575195 76.0
215.750565 96.0
216.041763 988.0
216.092743 48.0
216.180527 88.0
216.282959 36.0
216.467392 48.0
216.927368 104.0
217.049118 236.0
217.991745 264.0
218.04567 144.0
218.072113 244.0
218.219101 136.0
218.427887 92.0
218.804565 188.0
218.866394 128.0
219.046036 216.0
219.296494 208.0
219.411453 280.0
219.889313 176.0
220.19635 120.0
221.065506 124.0
221.352646 100.0
221.758499 36.0
222.063873 140.0
222.218124 168.0
222.580246 204.0
223.034775 320.0
223.364838 36.0
223.885681 104.0
224.046356 460.0
224.454849 32.0
224.678528 104.0
224.866516 96.0
225.006821 112.0
225.054214 1664.0
225.32338 84.0
225.753799 56.0
225.963181 212.0
226.06398 228.0
226.118774 168.0
226.65181 212.0
226.744705 152.0
227.031082 176.0
227.063599 176.0
227.254486 152.0
227.314499 100.0
227.918045 180.0
227.966125 156.0
228.047653 404.0
228.096191 200.0
228.212601 152.0
228.928741 76.0
229.004028 228.0
229.044678 376.0
229.086334 4664.0
229.157669 40.0
229.199844 40.0
229.254089 84.0
229.392731 60.0
229.588699 92.0
229.676178 100.0
229.742538 36.0
229.986954 44.0
230.090561 1408.0
230.255661 80.0
230.337204 64.0
230.587997 92.0
230.708893 156.0
230.98407 40.0
231.093246 316.0
231.335098 72.0
231.698502 96.0
231.877274 100.0
232.053085 124.0
232.763077 128.0
233.006058 208.0
233.091141 228.0
233.282608 100.0
233.313004 36.0
234.146729 184.0
234.38739 120.0
234.615967 184.0
235.038315 252.0
235.247437 136.0
235.818634 152.0
235.916443 144.0
236.243652 64.0
236.48233 200.0
237.202133 172.0
238.869507 136.0
239.069916 172.0
239.408112 260.0
239.867188 180.0
240.046005 216.0
240.638428 124.0
240.851501 176.0
240.888565 128.0
240.916367 92.0
241.049454 5044.0
241.129578 160.0
241.274857 28.0
241.383072 92.0
241.466568 64.0
241.546982 152.0
241.602661 192.0
241.649063 84.0
241.738388 60.0
241.78212 120.0
241.81308 48.0
241.847122 312.0
241.919785 300.0
242.020477 132.0
242.057526 11436.0
242.125763 324.0
242.147446 28.0
242.257019 180.0
242.485138 52.0
242.537827 64.0
242.730698 208.0
242.90062 96.0
242.944046 216.0
242.972519 160.0
243.005768 116.0
243.060776 1588.0
243.1035 112.0
243.278275 40.0
243.349823 140.0
243.415802 40.0
243.440643 56.0
243.480606 60.0
243.577301 92.0
243.608368 88.0
243.682922 104.0
243.757492 140.0
243.814743 172.0
243.875595 68.0
243.938538 208.0
243.98439 36.0
244.027908 76.0
244.060776 380.0
244.192719 76.0
244.35759 44.0
244.426041 116.0
244.609665 140.0
244.815155 148.0
245.111084 48.0
245.229492 68.0
245.400955 124.0
245.921906 148.0
246.018661 172.0
246.04364 144.0
246.162292 120.0
246.290329 144.0
246.484024 144.0
246.562149 100.0
246.906036 264.0
247.319031 140.0
248.738937 100.0
249.615479 132.0
250.052765 128.0
250.881165 136.0
251.038818 208.0
251.114502 188.0
252.04364 1072.0
252.080521 124.0
252.890121 40.0
253.000916 184.0
253.049774 6612.0
253.203568 52.0
253.361938 40.0
253.387283 88.0
253.488678 56.0
253.514023 52.0
253.590088 68.0
253.720047 92.0
253.805649 56.0
253.938843 52.0
253.9991 140.0
254.050751 1036.0
254.60849 36.0
255.058975 332.0
255.158188 204.0
255.288559 32.0
255.4953 84.0
255.597107 140.0
255.71167 144.0
256.020477 152.0
256.052338 168.0
256.256195 76.0
256.839569 156.0
257.011841 192.0
257.078125 864.0
257.107574 204.0
257.818512 156.0
258.091766 152.0
259.596436 144.0
259.78244 168.0
262.716278 36.0
263.898285 52.0
264.037323 148.0
264.341431 56.0
265.348755 48.0
266.05426 204.0
266.234558 60.0
266.653656 112.0
266.76416 64.0
266.952759 72.0
267.069641 364.0
268.079071 108.0
268.124695 156.0
268.284424 80.0
268.349609 84.0
268.372437 168.0
268.502869 172.0
268.561584 68.0
268.639862 168.0
268.740997 140.0
268.81604 116.0
268.897644 80.0
268.923737 140.0
269.045441 6552.0
269.098877 68.0
269.14502 128.0
269.305756 44.0
269.351471 80.0
269.403748 56.0
269.534424 100.0
269.570374 40.0
269.665131 44.0
269.781189 144.0
269.848206 100.0
269.95282 48.0
270.008423 192.0
270.052521 11304.0
270.131897 64.0
270.188324 44.0
270.250488 88.0
270.309387 64.0
270.438446 92.0
270.554871 52.0
270.578552 64.0
270.623383 60.0
270.672729 44.0
270.698914 96.0
270.751312 32.0
270.777527 80.0
270.814911 48.0
270.862671 144.0
270.908539 48.0
271.056885 1676.0
271.226379 60.0
271.249329 120.0
271.331299 80.0
271.642822 108.0
271.83313 76.0
272.058563 500.0
272.134308 84.0
272.315704 64.0
272.867767 48.0
273.315063 72.0
273.93399 112.0
274.049774 160.0
275.177277 156.0
276.804047 196.0
277.327484 56.0
277.605957 60.0
277.821564 132.0
278.083679 116.0
279.193329 92.0
279.62915 84.0
282.304688 100.0
283.067657 160.0
283.174835 80.0
283.198273 76.0
283.687469 180.0
283.744476 80.0
284.093262 92.0
284.133514 180.0
284.162048 108.0
284.388519 128.0
284.751129 124.0
285.01358 160.0
285.076172 22284.0
285.205963 160.0
285.241699 76.0
285.41394 100.0
285.438873 60.0
285.478088 64.0
285.554382 76.0
285.625 116.0
285.662018 108.0
285.756226 32.0
285.806671 44.0
285.907623 84.0
285.932526 112.0
285.964844 72.0
286.022064 112.0
286.079895 3032.0
286.318359 36.0
286.358765 68.0
286.392456 56.0
286.527191 60.0
286.554138 96.0
286.638367 112.0
286.68219 64.0
286.756317 76.0
287.082611 320.0
287.130554 64.0
287.167633 68.0
287.478027 88.0
287.640015 64.0
287.709747 60.0
287.769684 128.0
287.831604 116.0
288.0849 296.0
288.138275 96.0
288.180359 104.0
288.258057 96.0
288.650177 40.0
288.785461 32.0
288.998566 108.0
289.073029 96.0
289.18808 48.0
289.218536 48.0
289.990784 64.0
290.73349 56.0
290.950745 88.0
291.735474 40.0
293.297913 60.0
293.560425 88.0
299.306946 84.0
302.140533 68.0
302.348145 108.0
313.837616 60.0
316.094666 80.0
316.53714 92.0
321.80307 100.0
321.86377 88.0
322.163788 96.0
327.88324 56.0
342.251068 56.0
342.302612 52.0
345.069916 164.0
345.23999 48.0
354.831909 76.0
357.491211 100.0
368.969055 60.0
375.384979 68.0
380.503967 60.0
381.459625 120.0
382.895355 56.0
396.635559 56.0
398.087646 56.0
399.737335 56.0
399.912415 100.0
405.940979 32.0
406.005127 120.0
421.800079 60.0
436.710266 44.0
444.891968 160.0
445.21106 36.0
449.783386 64.0
452.738708 112.0
462.552612 56.0
474.624298 44.0
475.379059 68.0
505.721039 72.0
507.127411 68.0
531.435425 72.0
545.028809 80.0
554.567566 144.0
563.796814 120.0
575.491699 80.0
590.455688 52.0
591.171692 68.0
610.804871 104.0
631.443726 60.0
645.191223 96.0
651.769836 132.0
680.103882 168.0
687.46814 56.0
724.680664 68.0
725.993896 52.0
730.484009 56.0
737.796448 76.0
738.737427 124.0
744.406616 36.0
751.630005 100.0
762.714539 72.0
766.677246 228.0
770.87677 244.0
775.098816 100.0
802.600525 192.0
815.030457 48.0
859.719116 56.0
877.503967 36.0
878.223389 120.0
899.495605 100.0
953.01239 136.0
992.847412 156.0
998.939819 232.0
1006.142822 80.0
1015.324036 192.0
1019.520325 184.0
1021.275024 68.0
1029.930786 96.0
1033.2229 136.0
1036.622681 184.0
1038.18042 76.0
1046.591919 136.0
1046.74646 236.0
1053.932007 248.0
1055.276367 88.0
1080.707642 112.0
1081.067627 128.0
1087.772461 180.0
1094.491455 108.0
1103.446289 92.0
1105.859253 48.0
1112.348389 220.0
1125.009644 152.0
1129.332886 188.0
1158.642212 140.0
1164.271973 52.0
1171.386353 60.0
1173.171753 172.0
1173.642212 32.0
1174.508301 364.0
1183.488037 244.0
1184.577026 204.0
1188.422974 260.0
1190.928711 136.0
1199.653809 132.0
1203.096191 180.0
1204.228638 136.0
1210.944336 44.0
1212.801147 108.0
1217.630127 124.0
1218.963867 232.0
1221.619751 188.0
1228.941895 220.0
1232.020752 176.0
1232.377075 84.0
1235.355347 136.0
1235.936035 108.0
1237.321777 124.0
1242.030884 56.0
1242.935913 164.0
1248.837036 168.0
1250.715698 76.0
1251.109863 116.0
1252.849365 208.0
1253.701904 148.0
1257.474976 180.0
1258.526733 132.0
1261.967651 192.0
1267.920776 164.0
1269.444946 188.0
1270.196777 248.0
1279.349365 132.0
1279.449097 128.0
1281.336304 140.0
1286.913696 116.0
1287.592041 152.0
1290.192993 208.0
1293.469238 184.0
1293.648193 180.0
1294.836792 104.0
1296.197876 160.0
1297.703125 88.0
1298.377197 192.0
1299.661255 212.0
1307.033325 132.0
1308.393677 104.0
1311.181152 208.0
1311.873169 212.0
1314.541748 292.0
1315.38623 160.0
1317.588745 84.0
1319.409912 196.0
1320.328247 156.0
1322.737549 164.0
1323.005371 168.0
1324.192871 156.0
1329.166016 164.0
1331.728638 148.0
1335.10083 144.0
1336.519287 192.0
1345.641724 180.0
1346.03894 104.0
1355.08667 132.0
1359.251343 244.0
1360.932251 160.0
1363.23877 188.0
1363.988403 196.0
1368.09314 96.0
1369.050293 160.0
1375.560547 152.0
1377.642944 132.0
1377.968018 88.0
1378.751343 36.0
1379.143066 96.0
1382.796753 224.0
1383.618408 160.0
1385.417969 128.0
1385.736572 144.0
1386.410889 48.0
1387.848877 156.0
1391.224609 172.0
1394.626709 168.0
1397.668335 52.0
1399.402466 92.0
1405.686035 148.0
1408.411011 196.0
1425.297119 92.0
1440.387329 164.0
1441.996704 104.0
1442.677002 220.0
1452.30896 228.0
1454.782593 204.0
1455.564575 156.0
1461.135864 92.0
1464.233887 96.0
1467.015015 180.0
1467.106445 144.0
1467.190308 40.0
1471.088623 176.0
1473.265015 112.0
1480.148438 204.0
1487.577515 136.0
1489.981201 156.0
1501.481079 148.0
1501.735596 136.0
