>compound MLS001333179-01!N,N-Diethyl-3-methylbenzamide134-62-3
>formula C12H17NO
>ionization [M+H]+
>parentmass 192.137909
#inchi InChI=1S/C12H17NO/c1-4-13(5-2)12(14)11-8-6-7-10(3)9-11/h6-9H,4-5H2,1-3H3
#inchikey MMOXZBCLCQITDF
#Ion_Source LC-ESI
#Instrument qTof
#Compound_Source NIH Pharmacologically Active Library
#PI Dorrestein
#Data_Collector VP/LMS
#Scan -1
#Precursor_MZ 192.142
#ExactMass 191.131
#Charge 1
#CAS_Number N/A
#Pubmed_ID N/A
#Smiles CCN(CC)C(=O)c1cccc(C)c1
#INCHI_AUX N/A
#Library_Class 1
#SpectrumID CCMSLIB00000086136
#IonMode Positive
#UpdateWorkflowName UPDATE-SINGLE-ANNOTATED-GOLD
#LibraryQualityString Gold
#TaskID d252d724072548979f1f6f1ced849daf
##Scan# 1860
#SpectrumFile p5-F04_GF4_01_18467.mzXML
#LibraryName Pharm_Active_Library.mgf
#MQScore -1
#Organism Pharm_Active_Library
#TIC_Query 0
#RT_Query -1
#MZErrorPPM -1
#SharedPeaks 0
#MassDiff 0
#LibMZ -1
#SpecMZ 192.142
#SpecCharge 0
#internalFilename spec-00000.mgf

>collision 10
45.034199 84.0
45.071606 140.0
45.465302 240.0
45.859364 248.0
46.335022 204.0
46.840374 220.0
46.852634 148.0
47.321083 144.0
47.795986 192.0
47.930931 76.0
48.13784 128.0
48.561321 112.0
48.612656 224.0
48.942093 124.0
49.248898 192.0
49.321552 320.0
49.47123 192.0
49.778278 248.0
49.997581 184.0
50.555016 160.0
50.883862 128.0
50.927883 176.0
51.27504 144.0
51.494751 188.0
51.80228 124.0
51.848129 128.0
52.433052 216.0
52.828682 80.0
52.922756 164.0
53.452557 100.0
53.543758 228.0
54.292534 156.0
54.414322 224.0
54.570061 168.0
54.724545 168.0
54.957424 144.0
55.521015 196.0
55.711006 164.0
55.898342 156.0
56.592426 32.0
56.655327 132.0
57.101135 144.0
57.126705 224.0
57.411373 180.0
57.435505 176.0
57.581909 240.0
57.660473 260.0
57.677097 164.0
58.541893 96.0
59.311916 224.0
59.437672 156.0
59.480644 144.0
59.903515 176.0
59.979019 120.0
60.219723 224.0
60.598717 196.0
60.767715 232.0
60.815823 192.0
61.243404 124.0
61.268326 184.0
61.946316 180.0
61.99332 128.0
62.112473 204.0
62.425014 116.0
62.84874 224.0
63.118843 164.0
63.557606 144.0
63.697311 176.0
64.214615 196.0
64.259277 100.0
64.712959 140.0
64.907059 68.0
64.980843 256.0
65.000099 124.0
65.085167 212.0
65.16066 144.0
65.963203 240.0
66.413353 176.0
66.952942 88.0
67.01973 152.0
68.52916 156.0
68.954521 196.0
69.250671 204.0
69.403137 108.0
69.428009 184.0
69.853203 136.0
70.533539 148.0
70.903435 172.0
70.921867 140.0
71.457565 200.0
71.62928 196.0
71.64444 168.0
71.870361 184.0
71.88723 164.0
72.301262 144.0
72.37236 140.0
72.757225 228.0
72.869316 100.0
72.933891 228.0
73.16864 156.0
73.581223 144.0
73.798203 164.0
73.897408 176.0
73.988113 96.0
74.099434 244.0
74.591957 176.0
74.619461 148.0
75.032654 196.0
75.234505 220.0
77.507744 164.0
78.24543 160.0
78.458603 164.0
78.543243 188.0
79.000755 184.0
79.149422 188.0
79.230896 176.0
79.525253 148.0
79.708176 168.0
79.79171 212.0
79.837944 168.0
79.866394 172.0
80.170845 188.0
80.315254 212.0
80.536583 168.0
80.745697 116.0
81.044647 220.0
81.545319 136.0
81.577675 152.0
82.227913 148.0
82.574799 236.0
83.259865 176.0
83.441566 192.0
84.099182 56.0
84.210556 192.0
85.41111 88.0
85.864204 116.0
86.174316 168.0
86.586823 156.0
86.610016 176.0
86.681305 84.0
86.781395 256.0
87.189774 176.0
87.640099 192.0
87.988869 192.0
88.05983 140.0
88.134552 168.0
88.263527 60.0
88.913559 60.0
88.992401 144.0
89.091934 248.0
89.439819 152.0
89.877037 116.0
90.035606 140.0
90.135727 156.0
90.254807 260.0
90.656113 136.0
90.728134 212.0
90.76416 204.0
90.783127 168.0
90.87986 236.0
90.995636 124.0
91.033257 168.0
91.054901 18108.0
91.086792 164.0
91.111488 56.0
91.128845 180.0
91.15139 148.0
91.185593 48.0
91.210304 52.0
91.288254 68.0
91.3339 192.0
91.449966 100.0
91.491844 28.0
91.583244 64.0
91.724251 168.0
91.736885 152.0
91.781441 40.0
91.880615 124.0
91.977943 52.0
91.99321 168.0
92.058411 1316.0
92.130707 104.0
92.214783 128.0
92.243454 92.0
92.27404 84.0
92.451935 124.0
92.518921 96.0
92.566788 84.0
92.59935 92.0
92.798637 108.0
92.994308 88.0
93.067253 144.0
93.147911 40.0
93.282425 60.0
93.374718 76.0
93.861931 84.0
94.050995 164.0
95.047264 232.0
95.204903 132.0
95.790337 120.0
95.998886 76.0
96.30529 180.0
96.385384 104.0
96.850998 96.0
96.917603 144.0
97.058731 180.0
97.227882 140.0
97.746231 168.0
98.586281 176.0
98.6436 88.0
98.863144 204.0
99.261314 192.0
99.372383 184.0
100.076637 312.0
100.398788 120.0
100.576355 152.0
101.075981 152.0
101.677162 164.0
101.773521 60.0
103.052551 216.0
103.074738 188.0
103.47319 152.0
104.57341 148.0
105.221642 180.0
105.556725 76.0
105.689682 208.0
105.716286 188.0
105.956772 124.0
106.906525 188.0
107.100052 80.0
107.469063 156.0
107.960686 152.0
108.173798 164.0
109.065155 156.0
109.346527 76.0
109.450615 92.0
110.898354 132.0
111.488091 100.0
111.746727 192.0
111.814064 68.0
111.940376 108.0
111.967751 184.0
112.31974 208.0
112.964005 148.0
113.958298 136.0
114.041176 100.0
115.767136 56.0
116.04998 288.0
116.221565 208.0
117.064186 184.0
117.25161 200.0
117.609642 196.0
117.931465 232.0
118.065346 3496.0
118.119583 176.0
118.145538 76.0
118.268883 44.0
118.608948 100.0
118.867035 72.0
118.983406 156.0
119.005951 196.0
119.049568 21320.0
119.09903 176.0
119.123222 52.0
119.144951 60.0
119.173195 64.0
119.190575 48.0
119.206902 76.0
119.244904 84.0
119.316635 60.0
119.420532 68.0
119.569923 72.0
119.671265 56.0
119.782333 40.0
119.828087 48.0
120.000977 184.0
120.014038 88.0
120.02861 156.0
120.052704 2160.0
120.113663 64.0
120.176926 68.0
120.244576 92.0
120.600586 64.0
120.712082 88.0
120.758003 52.0
120.788628 56.0
120.819252 56.0
120.891457 112.0
120.905807 108.0
120.996521 128.0
121.057831 200.0
121.223801 68.0
121.487419 64.0
121.799126 92.0
122.007889 64.0
122.07605 48.0
125.111771 48.0
126.354843 56.0
127.083 216.0
128.056366 164.0
128.629074 124.0
129.307159 136.0
130.067108 196.0
131.071671 152.0
134.062134 160.0
134.946198 160.0
136.079163 160.0
137.100311 120.0
140.061798 72.0
142.073486 144.0
144.078003 172.0
146.086868 148.0
147.094208 400.0
147.845886 68.0
148.071777 180.0
148.097672 160.0
149.082672 204.0
152.956863 160.0
164.111801 240.0
164.4077 84.0
164.591492 96.0
174.082779 164.0
175.902069 60.0
176.106705 168.0
177.05751 164.0
177.118423 156.0
181.100525 36.0
181.405991 80.0
181.89151 64.0
187.384079 84.0
192.110519 188.0
192.137909 552.0
193.141632 144.0
194.287689 100.0
208.096161 188.0
209.194366 96.0
220.737381 76.0
230.869461 60.0
235.641754 80.0
239.152969 84.0
280.049438 80.0
298.795105 44.0
337.171875 68.0
339.071289 60.0
363.839081 80.0
401.396515 140.0
465.200287 72.0
466.613678 92.0
504.172424 40.0
542.832336 28.0
669.917114 140.0
682.550781 148.0
695.433594 156.0
695.6698 60.0
739.311279 228.0
739.349121 96.0
747.249695 152.0
767.410889 160.0
782.926392 192.0
804.496887 224.0
826.022949 148.0
828.318359 184.0
858.769104 180.0
861.699524 168.0
864.705139 112.0
866.872009 180.0
869.786804 132.0
870.802612 248.0
871.184387 164.0
874.547852 172.0
878.194946 176.0
879.90625 212.0
881.83197 176.0
887.532776 172.0
896.252441 204.0
901.216736 160.0
902.238708 220.0
913.934021 132.0
914.084473 216.0
914.3974 244.0
915.31842 160.0
919.99707 160.0
937.105774 200.0
937.678589 192.0
940.551331 188.0
948.227295 224.0
948.705444 148.0
949.048767 52.0
954.667297 104.0
961.159912 152.0
962.227661 188.0
962.517883 88.0
966.5047 196.0
967.080261 116.0
967.618774 196.0
968.968933 176.0
972.925659 156.0
986.968933 180.0
988.207336 216.0
999.438416 148.0
1002.782288 196.0
1003.923401 176.0
1005.311218 180.0
1012.505432 108.0
1019.788879 164.0
1022.135498 132.0
1023.612305 116.0
1024.058105 152.0
1027.972412 284.0
1037.669189 148.0
1039.311157 156.0
1040.042725 184.0
1040.17749 208.0
1042.759644 152.0
1045.04248 196.0
1047.076538 208.0
1050.647461 132.0
1052.202881 152.0
1053.190796 220.0
1053.862671 216.0
1055.148804 76.0
1059.873657 76.0
1067.136597 196.0
1069.387329 48.0
1071.158447 164.0
1072.129272 216.0
1073.635132 212.0
1076.904907 76.0
1079.597534 196.0
1080.716064 192.0
1082.097046 172.0
1085.766479 160.0
1087.675781 164.0
1090.519897 204.0
1094.243042 180.0
1094.539429 160.0
1096.660645 212.0
1098.355225 164.0
1100.308472 76.0
1102.574097 68.0
1103.935913 204.0
1107.787964 196.0
1113.040649 148.0
1113.505615 180.0
1114.621582 216.0
1119.943726 144.0
1121.436279 148.0
1122.796265 252.0
1130.244629 192.0
1132.21936 212.0
1132.668091 84.0
1133.498901 120.0
1134.598145 120.0
1138.033203 176.0
1138.120483 196.0
1139.450317 160.0
1140.04834 164.0
1143.195557 176.0
1144.113892 212.0
1151.014893 68.0
1151.63623 156.0
1158.474854 148.0
1159.220093 48.0
1160.135132 160.0
1163.262329 136.0
1167.27771 180.0
1167.978149 204.0
1174.912842 176.0
1176.591675 168.0
1176.796509 156.0
1177.117432 148.0
1180.698242 60.0
1181.594238 120.0
1182.969849 172.0
1183.688721 156.0
1187.505859 204.0
1188.006592 144.0
1188.493652 180.0
1200.538452 164.0
1201.54541 80.0
1201.807617 48.0
1210.309326 168.0
1213.649048 152.0
1216.680908 224.0
1217.07666 160.0
1219.167603 176.0
1219.230103 204.0
1219.800049 216.0
1222.178467 240.0
1222.644775 160.0
1231.163818 152.0
1232.183594 144.0
1233.455444 164.0
1241.247559 168.0
1243.738159 168.0
1244.187378 160.0
1246.744141 172.0
1246.91272 116.0
1247.489136 168.0
1248.431274 204.0
1250.358887 188.0
1252.788086 172.0
1253.034668 148.0
1253.584229 164.0
1256.376343 32.0
1271.284424 176.0
1271.412231 156.0
1273.037842 188.0
1274.074829 116.0
1276.718994 164.0
1278.070557 80.0
1287.451416 196.0
1287.651367 56.0
1289.137329 88.0
1291.4823 148.0
1293.435669 156.0
1297.705322 168.0
1298.042358 236.0
1298.1427 164.0
1298.637573 176.0
1299.039185 160.0
1299.304688 168.0
1299.541382 172.0
1301.077271 100.0
1303.627075 104.0
1304.669312 160.0
1306.308838 48.0
1308.38147 116.0
1309.713623 224.0
1311.500488 148.0
1312.170898 212.0
1313.353516 84.0
1315.691528 120.0
1318.869995 192.0
1319.36145 76.0
1319.657959 156.0
1324.27478 184.0
1324.470337 132.0
1325.057129 56.0
1326.049805 136.0
1327.731812 204.0
1329.160889 184.0
1329.68335 172.0
1333.227417 52.0
1334.281372 156.0
1337.067261 132.0
1337.525879 132.0
1339.557373 76.0
1340.599243 148.0
1344.873047 152.0
1347.450806 176.0
1348.197266 192.0
1349.606812 96.0
1351.106201 128.0
1352.606323 152.0
1353.213989 48.0
1356.891846 168.0
1358.490601 148.0
1359.312256 192.0
1365.284546 200.0
1366.299683 192.0
1366.873535 124.0
1372.434692 144.0
1376.707153 128.0
1379.943604 100.0
1382.295654 176.0
1382.74707 120.0
1387.094849 184.0
1389.861206 144.0
1391.598022 72.0
1393.217041 208.0
1393.40271 92.0
1395.282959 184.0
1395.587891 172.0
1397.038086 232.0
1397.10498 252.0
1398.749634 192.0
1399.642944 112.0
1399.963135 184.0
1403.241699 184.0
1404.354614 244.0
1404.859985 132.0
1405.979248 156.0
1406.494263 172.0
1407.741089 236.0
1408.697021 288.0
1409.361938 156.0
1410.012085 172.0
1412.27002 180.0
1417.038452 192.0
1417.37561 184.0
1421.447266 148.0
1422.040161 196.0
1422.242798 216.0
1425.013794 172.0
1427.922852 160.0
1428.095947 192.0
1428.960938 236.0
1429.096436 136.0
1430.165039 176.0
1430.801147 160.0
1432.28833 188.0
1432.371216 44.0
1432.42395 76.0
1435.50647 164.0
1437.66394 56.0
1438.162109 188.0
1438.864136 196.0
1439.090576 216.0
1440.366821 176.0
1440.540649 176.0
1441.424561 164.0
1442.588501 144.0
1444.463745 148.0
1445.076538 72.0
1449.536377 184.0
1449.627197 64.0
1450.438232 192.0
1457.45813 252.0
1458.050781 124.0
1459.738525 200.0
1461.624878 124.0
1464.967163 180.0
1466.003418 72.0
1469.396484 232.0
1469.671143 160.0
1471.266235 116.0
1471.571655 140.0
1471.716675 172.0
1472.358154 188.0
1474.031128 88.0
1474.459106 200.0
1476.263306 160.0
1476.867432 144.0
1479.951416 76.0
1482.134399 168.0
1483.199707 128.0
1488.700562 120.0
1489.944946 56.0
1491.789307 228.0
1491.904541 192.0
1493.250244 188.0
1494.581055 76.0
1499.409302 224.0
