>compound MLS000859939-01!MCN-A-343
>formula C14H17ClN2O2
>ionization [M+H]+
>parentmass 281.106598
#inchi InChI=1S/C14H17ClN2O2/c1-17(2,3)9-4-5-10-19-14(18)16-13-8-6-7-12(15)11-13/h6-8,11H,9-10H2,1-3H3
#inchikey DDKOMKXCUXCQBS
#origInchi InChI=1S/C14H17ClN2O2.ClH/c1-17(2,3)9-4-5-10-19-14(18)16-13-8-6-7-12(15)11-13;/h6-8,11H,9-10H2,1-3H3;1H
#Ion_Source LC-ESI
#Instrument qTof
#Compound_Source NIH Pharmacologically Active Library
#PI Dorrestein
#Data_Collector VP/LMS
#Scan -1
#Precursor_MZ 281.105
#ExactMass 281.106
#Charge 1
#CAS_Number N/A
#Pubmed_ID N/A
#Smiles C[N+](C)(C)CC#CCOC(=O)Nc1cccc(Cl)c1.[Cl-]
#INCHI_AUX N/A
#Library_Class 1
#SpectrumID CCMSLIB00000085825
#IonMode Positive
#UpdateWorkflowName UPDATE-SINGLE-ANNOTATED-GOLD
#LibraryQualityString Gold
#TaskID d252d724072548979f1f6f1ced849daf
##Scan# 1507
#SpectrumFile p4-F10_GF10_01_18394.mzXML
#LibraryName Pharm_Active_Library.mgf
#MQScore -1
#Organism Pharm_Active_Library
#TIC_Query 0
#RT_Query -1
#MZErrorPPM -1
#SharedPeaks 0
#MassDiff 0
#LibMZ -1
#SpecMZ 281.105
#SpecCharge 0
#internalFilename spec-00000.mgf

>collision 10
44.956589 124.0
44.976608 172.0
45.182411 132.0
45.219879 228.0
45.332378 152.0
45.355164 256.0
45.419529 144.0
45.455753 140.0
45.482597 40.0
45.556458 148.0
45.6008 136.0
45.611553 112.0
45.662647 76.0
45.70166 164.0
45.783779 188.0
45.806675 168.0
45.856533 196.0
45.896976 240.0
46.027866 176.0
46.13596 168.0
46.152184 248.0
46.185993 196.0
46.380985 180.0
46.452858 184.0
46.479992 152.0
46.539719 68.0
46.702801 108.0
46.79398 88.0
46.834835 180.0
46.99025 152.0
47.010719 160.0
47.031189 148.0
47.047573 160.0
47.085808 48.0
47.197868 136.0
47.271736 144.0
47.386757 168.0
47.440208 208.0
47.456661 144.0
47.570538 112.0
47.589756 180.0
47.661182 92.0
47.670803 212.0
47.702942 168.0
47.783558 164.0
47.826218 128.0
47.867523 52.0
48.005356 212.0
48.220867 136.0
48.410244 256.0
48.436562 68.0
48.483669 108.0
48.50169 144.0
48.644569 176.0
48.686226 184.0
48.768196 212.0
49.229362 164.0
49.306202 124.0
49.331364 200.0
49.433468 144.0
49.493664 168.0
49.516068 120.0
49.586124 148.0
49.970901 276.0
50.042126 172.0
50.0793 188.0
50.09761 224.0
50.176533 164.0
50.406612 144.0
50.440533 140.0
50.484364 128.0
50.57708 196.0
50.628716 100.0
50.734474 220.0
50.926563 156.0
51.262329 152.0
51.336109 180.0
51.490593 120.0
51.607777 108.0
51.643528 104.0
51.682156 56.0
51.745136 208.0
51.842541 124.0
51.881241 40.0
51.957008 188.0
52.087894 152.0
52.138378 176.0
52.187057 196.0
52.212944 120.0
52.290638 172.0
52.372707 108.0
52.554359 188.0
52.640968 96.0
52.756561 184.0
52.89164 160.0
52.911366 384.0
52.940323 264.0
53.2812 204.0
53.358231 48.0
53.420765 176.0
53.535511 192.0
53.639202 80.0
53.664719 136.0
53.989632 76.0
54.012222 200.0
54.040829 148.0
54.059853 200.0
54.111084 128.0
54.386692 220.0
54.564449 128.0
54.596798 144.0
54.724823 116.0
54.91198 372.0
55.021179 32.0
55.056618 148.0
55.077297 192.0
55.0965 224.0
55.124577 164.0
55.19701 248.0
55.233986 136.0
55.276894 236.0
55.50502 144.0
55.67865 136.0
55.702415 144.0
55.730644 144.0
55.782661 192.0
56.040138 176.0
56.098263 180.0
56.130611 184.0
56.217587 64.0
56.383362 160.0
56.393826 128.0
56.458115 240.0
56.561356 116.0
56.604774 132.0
56.691662 244.0
56.741127 136.0
56.757618 160.0
56.817616 196.0
57.11055 168.0
57.121082 120.0
57.20385 124.0
57.322838 144.0
57.337906 156.0
57.414799 128.0
57.46307 124.0
57.611027 184.0
57.694145 120.0
57.766739 152.0
57.828777 144.0
57.840889 72.0
57.969627 132.0
57.990845 56.0
58.021164 64.0
58.121269 32.0
58.13493 148.0
58.165283 284.0
58.251842 204.0
58.460773 380.0
58.481457 220.0
58.540833 152.0
58.630718 172.0
58.641384 316.0
58.655106 120.0
58.681023 224.0
58.699318 76.0
58.91074 248.0
58.964958 52.0
59.032227 180.0
59.192909 204.0
59.223541 136.0
59.290955 84.0
59.597874 132.0
59.745476 60.0
59.765476 132.0
59.805492 184.0
59.954891 192.0
60.001137 168.0
60.016556 124.0
60.04277 160.0
60.06282 136.0
60.180115 176.0
60.218719 328.0
60.333073 184.0
60.393383 92.0
60.464554 160.0
60.514091 132.0
60.531124 180.0
60.572945 140.0
60.616325 104.0
60.631821 216.0
60.720196 140.0
60.909561 184.0
60.929756 156.0
61.117893 100.0
61.177036 164.0
61.32814 176.0
61.356201 132.0
61.413898 184.0
61.4529 180.0
61.518452 160.0
61.584034 68.0
61.627777 196.0
62.39579 44.0
62.538944 100.0
62.652325 100.0
62.712208 152.0
62.729546 180.0
62.783157 232.0
62.874069 256.0
62.999405 252.0
63.065777 132.0
63.11953 104.0
63.14167 144.0
63.197037 212.0
63.217609 148.0
63.304459 144.0
63.523407 216.0
63.544033 204.0
63.701206 144.0
63.728214 192.0
63.767944 152.0
63.833126 140.0
63.890388 164.0
63.9063 176.0
63.938126 136.0
64.162727 152.0
64.667526 168.0
64.829285 136.0
65.007294 244.0
65.13414 180.0
65.280754 196.0
65.306129 64.0
65.333473 124.0
65.450974 60.0
65.55246 80.0
65.639511 192.0
65.796021 220.0
65.844231 192.0
65.912315 124.0
66.129028 160.0
66.205124 192.0
66.250473 176.0
66.362305 164.0
66.599251 136.0
66.623611 176.0
66.676422 216.0
66.688614 152.0
66.711372 176.0
66.822258 220.0
66.848 160.0
66.960335 180.0
67.0532 92.0
67.085808 164.0
67.155922 164.0
67.179512 216.0
67.381203 172.0
67.551231 120.0
67.960815 164.0
68.167725 152.0
68.41774 84.0
68.539619 136.0
68.661613 176.0
68.795273 164.0
68.813431 120.0
68.836548 132.0
68.871231 84.0
69.067932 164.0
69.201988 120.0
69.243385 68.0
69.329536 192.0
69.36319 156.0
69.407455 96.0
69.651421 160.0
69.79435 100.0
69.815971 160.0
69.992371 140.0
70.097313 152.0
70.147316 28.0
70.292427 80.0
70.314117 128.0
70.670067 200.0
70.704704 196.0
70.768822 200.0
70.782219 224.0
70.798965 68.0
70.889427 52.0
71.009392 108.0
71.057114 88.0
71.1427 140.0
71.172928 140.0
71.270348 184.0
71.282112 88.0
71.443527 136.0
71.628708 80.0
71.660721 168.0
71.770805 116.0
71.881607 180.0
71.974457 224.0
72.016678 96.0
72.112984 176.0
72.14341 156.0
72.231346 360.0
72.243187 196.0
72.261803 104.0
72.351501 148.0
72.466675 52.0
72.509041 124.0
72.537857 168.0
72.558197 192.0
72.642998 72.0
73.000938 200.0
73.157921 48.0
73.287361 156.0
73.454437 176.0
73.473206 84.0
73.502213 116.0
73.837051 204.0
74.040718 128.0
74.189796 108.0
74.357903 144.0
74.448891 196.0
74.543381 260.0
74.734253 176.0
74.894356 128.0
74.935707 168.0
75.037392 144.0
75.204102 164.0
75.216812 144.0
75.469055 192.0
75.586678 120.0
75.775414 188.0
75.841263 152.0
75.917557 136.0
76.056358 192.0
76.174438 192.0
76.230034 72.0
76.344978 172.0
76.367241 144.0
76.525749 160.0
76.848206 52.0
76.912773 164.0
76.961456 208.0
77.181824 52.0
77.430328 88.0
77.512672 224.0
77.547722 120.0
77.565804 180.0
77.672218 128.0
77.688004 132.0
77.854759 168.0
77.932045 28.0
77.954895 144.0
78.000587 208.0
78.018173 52.0
78.162399 184.0
78.445961 148.0
78.581764 124.0
78.675308 204.0
78.795326 196.0
78.821907 36.0
78.855484 168.0
78.977486 52.0
79.019943 128.0
79.034103 144.0
79.25721 160.0
79.356468 140.0
79.380936 196.0
79.455795 80.0
79.485962 136.0
79.534538 108.0
79.578262 148.0
79.599571 212.0
79.8377 120.0
79.857269 216.0
79.922462 192.0
80.445305 128.0
80.48101 60.0
80.589973 124.0
80.66861 248.0
80.76696 208.0
80.81884 180.0
80.84211 76.0
80.969215 140.0
80.983543 140.0
81.100014 152.0
81.169937 124.0
81.281151 224.0
81.363716 144.0
81.471474 196.0
81.511002 124.0
81.55703 204.0
81.65303 212.0
81.699799 112.0
81.877998 124.0
82.01313 160.0
82.258461 136.0
82.487877 156.0
82.639801 160.0
82.73391 160.0
82.748398 124.0
82.768311 140.0
82.849823 112.0
83.054665 184.0
83.098206 148.0
83.290642 148.0
83.57972 128.0
83.89299 152.0
83.925804 148.0
84.053337 232.0
84.188583 216.0
84.323784 148.0
84.61647 80.0
84.926643 188.0
85.106026 156.0
85.118881 92.0
85.139084 184.0
85.287903 68.0
85.383514 172.0
85.40007 60.0
85.450966 216.0
85.56385 124.0
85.71489 148.0
85.982292 132.0
86.041389 148.0
86.133698 124.0
86.274147 48.0
86.386955 64.0
86.514648 76.0
86.544273 116.0
86.70359 172.0
86.736954 160.0
86.753639 180.0
86.937263 196.0
87.000511 160.0
87.028229 160.0
87.080223 220.0
87.257721 144.0
87.273499 124.0
87.29023 96.0
87.433479 160.0
87.489326 164.0
87.547043 148.0
87.761642 148.0
87.822891 220.0
87.847137 160.0
87.925507 208.0
87.947906 164.0
88.013245 132.0
88.144005 152.0
88.160828 112.0
88.20755 112.0
88.272995 156.0
88.33284 88.0
88.658638 152.0
88.991165 152.0
89.033669 196.0
89.249969 152.0
89.293221 168.0
89.364708 208.0
89.396698 124.0
89.718788 136.0
89.754013 88.0
89.967819 176.0
90.028084 140.0
90.043335 208.0
90.071686 80.0
90.177505 156.0
90.306076 140.0
90.408241 156.0
90.578651 172.0
90.747322 164.0
90.779556 200.0
90.853317 140.0
90.870605 168.0
90.900963 44.0
91.005371 164.0
91.039047 212.0
91.066139 88.0
91.263779 172.0
91.292305 184.0
91.381714 60.0
91.570175 128.0
91.642563 132.0
91.850372 172.0
92.037407 172.0
92.058594 420.0
92.197868 216.0
92.2686 176.0
92.320229 192.0
92.343178 260.0
92.368042 152.0
92.400566 100.0
92.43692 184.0
92.521141 192.0
92.597733 108.0
92.70311 172.0
92.856483 148.0
93.032143 192.0
93.056358 944.0
93.09021 224.0
93.200119 116.0
93.269302 140.0
93.286606 148.0
93.326981 108.0
93.340439 56.0
93.523209 160.0
93.580963 156.0
93.646439 140.0
93.700378 216.0
93.713867 144.0
93.870003 140.0
93.954872 136.0
94.024338 52.0
94.0625 204.0
94.136314 248.0
94.267677 144.0
94.370125 76.0
94.391396 176.0
94.588745 132.0
94.610039 132.0
94.627464 180.0
94.761108 168.0
94.887085 184.0
95.071274 164.0
95.172653 228.0
95.335487 224.0
95.376305 200.0
95.543541 188.0
95.695351 236.0
95.732353 124.0
96.065659 76.0
96.233498 124.0
96.272552 116.0
96.323334 216.0
96.612663 180.0
96.796654 112.0
96.844101 228.0
96.910263 152.0
96.972977 200.0
97.074921 128.0
97.159264 172.0
97.172997 72.0
97.273087 220.0
97.546143 136.0
97.71331 124.0
97.878647 192.0
97.931824 112.0
97.969254 168.0
98.053986 192.0
98.06778 164.0
98.083549 204.0
98.126923 152.0
98.190025 116.0
98.393272 132.0
98.612549 180.0
98.67778 100.0
98.905289 140.0
98.927063 216.0
98.999313 4968.0
99.0439 128.0
99.138046 232.0
99.273811 152.0
99.309509 224.0
99.498032 132.0
99.533768 28.0
99.706604 200.0
99.72847 180.0
99.799095 152.0
100.002174 456.0
100.140343 136.0
100.227997 148.0
100.353577 100.0
100.477234 92.0
100.501175 68.0
100.563042 156.0
100.844673 228.0
100.872658 112.0
100.890648 340.0
100.930641 48.0
100.946632 160.0
100.995743 1300.0
101.018639 56.0
101.034233 176.0
101.262848 120.0
101.605637 160.0
101.716011 164.0
101.764191 144.0
101.946991 216.0
102.041069 164.0
102.127937 76.0
102.228539 136.0
102.490318 112.0
102.730247 172.0
102.974495 120.0
103.000755 188.0
103.067467 180.0
103.101776 192.0
103.196785 148.0
103.421349 188.0
103.592278 136.0
103.7556 200.0
103.820099 84.0
103.942207 228.0
104.043694 80.0
104.057899 144.0
104.208206 172.0
104.236649 152.0
104.277298 112.0
104.303719 176.0
104.350479 208.0
104.378944 180.0
104.409454 304.0
104.44606 124.0
104.519302 128.0
104.765671 168.0
104.940948 180.0
105.050766 156.0
105.091881 296.0
105.144943 88.0
105.165352 108.0
105.220467 120.0
105.240883 196.0
105.279686 200.0
105.44313 140.0
105.467659 168.0
105.494232 128.0
105.625107 188.0
105.645561 156.0
105.819527 220.0
105.833862 168.0
105.860481 156.0
105.895302 192.0
105.981339 164.0
106.116623 152.0
106.268402 52.0
106.418236 184.0
106.469574 336.0
106.518867 184.0
106.77169 236.0
106.866318 176.0
106.882782 168.0
106.915703 148.0
106.940399 156.0
106.977455 152.0
107.020691 224.0
107.451469 256.0
107.701584 204.0
107.788033 172.0
107.885178 104.0
107.899651 164.0
107.972023 136.0
108.017937 164.0
108.085808 148.0
108.129265 92.0
108.183083 268.0
108.196152 140.0
108.311478 180.0
108.367409 168.0
108.500061 208.0
108.54982 172.0
108.572632 108.0
108.699181 164.0
108.800888 132.0
108.894333 208.0
109.05986 60.0
109.197784 136.0
109.49958 196.0
109.534988 80.0
109.643341 112.0
109.767456 148.0
109.891495 144.0
110.099426 256.0
110.196335 148.0
110.221405 168.0
110.242302 172.0
110.26947 108.0
110.351311 240.0
110.572746 208.0
110.599953 140.0
110.633446 172.0
110.754601 188.0
110.87014 224.0
110.953987 88.0
110.998627 4532.0
111.018707 268.0
111.069328 148.0
111.102898 208.0
111.247704 128.0
111.470345 44.0
111.619591 176.0
111.979469 228.0
112.004303 536.0
112.076439 252.0
112.093231 60.0
112.209167 128.0
112.33992 76.0
112.424324 132.0
112.474976 28.0
112.582657 120.0
112.665039 160.0
112.681938 152.0
112.736877 204.0
112.766472 96.0
112.825661 184.0
112.995049 1192.0
113.034821 228.0
113.062569 152.0
113.083351 200.0
113.097061 176.0
113.295494 136.0
113.65593 192.0
113.692009 176.0
113.842743 80.0
113.902214 60.0
113.991394 164.0
114.04631 472.0
114.274254 104.0
114.323196 172.0
114.376404 148.0
114.623466 116.0
114.691666 212.0
114.719376 108.0
114.853722 188.0
114.993858 576.0
115.053757 2568.0
115.182449 80.0
115.214493 136.0
115.335129 124.0
115.374786 212.0
115.426102 28.0
115.526627 56.0
115.571556 176.0
115.922424 164.0
115.98275 120.0
116.06189 504.0
116.474144 40.0
116.553635 192.0
116.622406 156.0
116.719154 144.0
116.742805 216.0
116.805183 276.0
116.923523 116.0
116.940742 148.0
116.990738 616.0
117.055946 1072.0
117.140999 68.0
117.225029 260.0
117.337112 164.0
117.40612 72.0
117.475143 52.0
117.785995 176.0
117.868095 40.0
117.993462 132.0
118.061508 180.0
118.305 148.0
118.421936 208.0
118.575768 236.0
118.625626 168.0
118.818642 92.0
118.890244 132.0
118.992271 172.0
119.035667 188.0
119.118233 152.0
119.183411 224.0
119.457352 204.0
119.485634 168.0
119.544388 180.0
119.611855 196.0
119.949501 56.0
120.035789 340.0
120.165413 192.0
120.372772 212.0
120.46888 80.0
120.483078 72.0
120.512573 180.0
120.643707 196.0
120.674316 152.0
120.726799 144.0
120.742111 212.0
120.759605 164.0
120.831795 192.0
120.893066 128.0
121.64048 156.0
121.776619 152.0
121.952393 292.0
122.372581 184.0
122.392395 108.0
122.517937 136.0
122.599472 156.0
122.899376 184.0
122.969994 196.0
123.00531 212.0
123.047256 168.0
123.11129 212.0
123.254883 108.0
123.372025 184.0
123.433937 200.0
123.478165 68.0
123.533463 112.0
123.710503 176.0
123.878815 196.0
123.907616 180.0
123.996254 236.0
124.082703 136.0
124.164749 192.0
124.184715 136.0
124.282326 212.0
124.300079 196.0
124.395515 172.0
124.49543 152.0
124.515419 132.0
124.617607 164.0
124.644272 144.0
124.664268 176.0
124.78653 240.0
124.833229 180.0
124.948891 184.0
125.048286 192.0
125.098 176.0
125.285072 188.0
125.36306 120.0
125.447754 168.0
125.52356 184.0
125.632858 132.0
125.707436 152.0
125.802467 156.0
125.833717 188.0
125.853813 216.0
125.887314 88.0
125.963249 220.0
126.010429 33516.0
126.096107 96.0
126.123825 228.0
126.139786 52.0
126.184143 124.0
126.198914 152.0
126.222511 44.0
126.248451 40.0
126.281395 204.0
126.313095 80.0
126.339439 72.0
126.378304 200.0
126.405945 148.0
126.48204 80.0
126.522339 84.0
126.582794 96.0
126.618622 204.0
126.647743 56.0
126.708229 68.0
126.723907 76.0
126.759766 60.0
127.013412 2948.0
127.040939 284.0
127.21508 72.0
127.231453 68.0
127.348595 188.0
127.38575 104.0
127.405968 176.0
127.428436 60.0
127.464386 32.0
127.637474 60.0
127.664459 108.0
127.72744 140.0
127.761185 104.0
127.806183 68.0
127.890366 164.0
127.915504 188.0
127.961487 212.0
128.007202 11652.0
128.046753 380.0
128.106171 3624.0
128.155197 60.0
128.175476 124.0
128.238571 48.0
128.254868 136.0
128.292679 116.0
128.340027 40.0
128.361145 132.0
128.382874 228.0
128.42572 188.0
128.448273 92.0
128.484375 52.0
128.567871 172.0
128.603973 180.0
128.647995 120.0
128.798172 212.0
128.88176 60.0
129.009048 1564.0
129.109543 440.0
129.14296 168.0
129.20282 52.0
129.277496 88.0
129.345398 176.0
129.655701 60.0
129.71463 56.0
129.877335 160.0
129.927811 28.0
129.945953 92.0
129.989075 128.0
130.015137 292.0
130.062408 1060.0
130.147964 44.0
130.216095 216.0
130.375137 152.0
130.409225 72.0
130.511536 140.0
131.004272 196.0
131.028198 92.0
131.071182 824.0
131.476608 140.0
131.612106 64.0
131.975418 28.0
132.052139 208.0
132.073685 172.0
132.129135 172.0
132.206467 176.0
132.417084 72.0
132.458328 160.0
132.481232 88.0
132.591217 144.0
132.962982 168.0
133.049026 152.0
133.116577 164.0
133.155624 140.0
133.350922 140.0
133.463562 76.0
133.610764 176.0
133.636078 124.0
133.767258 28.0
133.972214 108.0
133.990646 184.0
134.064392 196.0
134.343384 136.0
134.387222 96.0
134.40799 144.0
134.435684 128.0
134.481842 204.0
134.613434 148.0
134.752029 180.0
134.772827 124.0
134.823669 132.0
134.960052 204.0
135.087265 168.0
135.154358 104.0
135.290909 96.0
135.524841 44.0
135.557281 152.0
135.658356 120.0
135.856384 140.0
135.874939 176.0
136.295212 104.0
136.344879 128.0
136.385849 92.0
136.425369 188.0
136.536972 60.0
136.694016 176.0
136.776627 48.0
137.007172 152.0
137.321869 140.0
137.583221 164.0
137.681305 164.0
137.765396 140.0
137.786423 100.0
138.007782 484.0
138.144104 156.0
138.436691 88.0
138.513977 176.0
138.795227 196.0
138.835098 172.0
138.973145 160.0
139.005554 2308.0
139.050934 140.0
139.175354 88.0
139.22937 152.0
139.274002 88.0
139.297485 100.0
139.770065 184.0
140.009735 652.0
140.04834 3156.0
140.073074 160.0
140.144455 40.0
140.182159 164.0
140.627899 120.0
140.748306 104.0
140.874664 216.0
140.913651 152.0
140.932556 208.0
140.956177 204.0
141.001663 1332.0
141.056168 6632.0
141.088547 188.0
141.19133 180.0
141.445755 72.0
141.535736 52.0
141.676575 100.0
141.751923 120.0
141.876923 32.0
142.000229 308.0
142.03244 420.0
142.061874 1952.0
142.292099 80.0
142.389465 160.0
142.413223 44.0
142.517746 132.0
142.572403 156.0
142.646088 160.0
142.734055 184.0
142.819672 56.0
142.960052 212.0
143.000519 64.0
143.036591 156.0
143.072357 10696.0
143.150497 152.0
143.217285 92.0
143.293427 64.0
143.330643 84.0
143.40065 176.0
143.493622 124.0
143.577087 52.0
143.643875 72.0
143.691589 40.0
143.715454 40.0
143.927887 192.0
143.999527 204.0
144.021027 152.0
144.052872 420.0
144.075592 1552.0
144.159607 104.0
144.226532 64.0
144.262375 180.0
144.531647 152.0
144.716965 52.0
144.762451 116.0
144.946915 220.0
145.014023 136.0
145.047165 348.0
145.587433 152.0
145.902206 236.0
146.012817 160.0
146.033478 312.0
146.055145 148.0
146.291946 152.0
146.969193 100.0
147.225082 136.0
147.31929 132.0
147.652863 196.0
147.672211 112.0
147.795593 188.0
147.98439 128.0
148.069138 68.0
148.265381 32.0
148.76506 140.0
148.840332 256.0
149.012894 960.0
149.126999 68.0
149.187775 56.0
149.209656 92.0
149.231537 60.0
149.625687 100.0
149.766937 144.0
150.010162 344.0
150.074005 160.0
150.874832 168.0
151.010986 264.0
151.043869 168.0
151.293182 100.0
151.425415 108.0
151.466019 224.0
151.49646 52.0
151.579758 136.0
151.660629 108.0
151.761154 144.0
151.864151 152.0
151.957367 188.0
152.025513 3032.0
152.522217 88.0
152.583679 96.0
152.625473 64.0
152.942841 148.0
152.996994 124.0
153.029083 288.0
153.319687 164.0
153.440475 172.0
153.477448 168.0
153.531708 124.0
153.593369 140.0
153.703903 140.0
153.711349 112.0
153.914215 228.0
154.004974 30788.0
154.077225 40.0
154.118851 132.0
154.13652 92.0
154.153824 72.0
154.1931 76.0
154.251678 88.0
154.297195 28.0
154.316971 56.0
154.345032 208.0
154.374008 176.0
154.408463 32.0
154.425781 84.0
154.509888 40.0
154.611343 164.0
154.690552 84.0
154.740738 88.0
154.777206 96.0
154.834167 72.0
154.881226 48.0
154.967926 144.0
155.008469 3672.0
155.042267 44.0
155.084412 40.0
155.104233 40.0
155.19101 76.0
155.230682 144.0
155.332367 60.0
155.374542 44.0
155.610336 128.0
155.694763 136.0
155.794113 152.0
155.833862 64.0
155.913391 108.0
155.95813 176.0
156.001526 10116.0
156.045959 244.0
156.139633 92.0
156.18364 52.0
156.28392 128.0
156.331192 52.0
156.380966 72.0
156.550278 48.0
156.629974 108.0
156.699722 92.0
156.939011 36.0
157.005295 324.0
157.10112 188.0
157.370667 92.0
157.542999 88.0
157.993011 48.0
158.060303 324.0
158.086441 164.0
158.224228 144.0
158.263321 32.0
158.910004 88.0
159.063736 500.0
159.158493 128.0
159.299133 108.0
159.429794 112.0
159.844742 176.0
159.952957 132.0
160.063751 60.0
161.342987 124.0
161.375854 124.0
161.423904 180.0
161.881943 196.0
162.008362 928.0
162.391357 104.0
163.003204 124.0
163.020996 256.0
163.90657 160.0
164.0056 308.0
164.153839 44.0
164.176788 200.0
164.605515 60.0
165.010208 176.0
165.654175 172.0
166.00473 660.0
166.043549 256.0
166.08226 36.0
166.12587 44.0
166.39534 64.0
166.665039 104.0
167.005661 196.0
167.010056 280.0
167.035049 144.0
167.151047 76.0
167.997513 552.0
168.039215 304.0
168.125168 60.0
168.326523 56.0
168.424667 112.0
168.910629 48.0
169.049835 5320.0
169.091766 132.0
169.205658 100.0
169.234146 144.0
169.278168 172.0
169.467255 76.0
169.666824 60.0
169.819824 84.0
169.863922 40.0
169.941757 40.0
170.057175 508.0
170.14679 192.0
170.239868 208.0
170.487076 120.0
170.565048 84.0
171.059494 156.0
171.085327 60.0
171.337952 92.0
172.01474 4384.0
172.078674 28.0
172.174881 128.0
172.679718 32.0
172.860229 180.0
173.016953 252.0
173.344696 136.0
173.654053 152.0
174.011444 620.0
174.052963 140.0
174.423401 88.0
175.01799 120.0
175.061569 336.0
175.521286 64.0
175.671616 96.0
176.025528 3836.0
176.249832 112.0
176.51947 60.0
176.625259 68.0
176.884583 200.0
176.964005 48.0
177.031677 536.0
177.059341 212.0
177.841492 176.0
178.027527 1356.0
178.122971 48.0
179.032089 232.0
179.101868 116.0
179.664352 52.0
179.84581 168.0
179.89653 64.0
180.021088 1948.0
180.206345 100.0
180.321243 64.0
180.60199 92.0
181.022186 104.0
181.979477 88.0
182.017181 360.0
182.121811 44.0
182.228745 104.0
182.412018 136.0
182.441589 208.0
182.479233 116.0
182.70784 132.0
182.726669 72.0
183.367584 120.0
183.429581 120.0
185.288895 120.0
186.007217 336.0
186.053253 724.0
186.379639 160.0
186.567184 124.0
186.863632 136.0
186.945267 88.0
187.021469 184.0
187.066177 644.0
188.008118 112.0
188.066513 192.0
189.027466 144.0
189.18895 132.0
190.40918 140.0
191.363403 136.0
191.401962 196.0
192.37677 156.0
194.040298 356.0
194.268143 232.0
194.981766 188.0
195.037354 164.0
195.112411 60.0
195.563065 76.0
195.62709 152.0
195.908356 164.0
196.036484 212.0
197.027084 136.0
197.104904 160.0
198.678894 124.0
200.498199 180.0
203.454163 184.0
203.491074 164.0
203.749527 52.0
204.020157 848.0
204.050797 68.0
204.386429 112.0
204.725174 156.0
205.016586 256.0
206.017639 324.0
206.569046 108.0
207.009827 148.0
207.737839 160.0
207.841125 152.0
208.602234 180.0
209.523163 96.0
209.969955 184.0
212.132828 220.0
212.428619 120.0
215.921112 68.0
218.026154 160.0
219.377213 96.0
219.462708 100.0
220.436829 184.0
220.880325 108.0
220.927658 88.0
221.131836 196.0
221.327225 180.0
221.39534 132.0
221.540466 168.0
221.861404 196.0
221.881302 168.0
221.919846 220.0
221.96431 160.0
222.030304 24540.0
222.174911 56.0
222.25798 80.0
222.278076 52.0
222.338104 184.0
222.406372 96.0
222.495438 72.0
222.531067 60.0
222.557785 52.0
222.614212 52.0
222.68251 48.0
222.75975 68.0
222.813217 72.0
222.902359 40.0
222.925262 68.0
223.032639 2356.0
223.082001 136.0
223.226379 68.0
223.382675 80.0
223.42865 140.0
223.467316 68.0
223.708389 40.0
223.827484 48.0
223.973419 152.0
224.027679 7624.0
224.06192 348.0
224.140259 112.0
224.181992 32.0
224.205826 72.0
224.244568 60.0
224.325058 28.0
224.356216 88.0
224.41748 56.0
224.49202 68.0
224.57724 84.0
224.613235 144.0
224.653091 116.0
224.700516 148.0
225.03334 524.0
225.593796 76.0
225.806107 44.0
225.937729 48.0
226.204071 116.0
226.248978 76.0
226.450394 120.0
226.827164 76.0
227.118027 48.0
227.460114 60.0
227.628235 60.0
227.868546 72.0
227.922623 68.0
231.300522 80.0
233.156815 40.0
233.987244 144.0
234.886276 80.0
235.209732 128.0
235.634232 92.0
237.55687 92.0
238.468857 84.0
239.080902 108.0
240.100662 128.0
249.074509 152.0
250.011475 120.0
251.183578 56.0
252.893066 88.0
256.855499 124.0
258.680176 116.0
263.850128 84.0
266.121368 152.0
268.118713 128.0
274.514954 72.0
280.189728 80.0
280.926514 176.0
281.106598 272.0
281.751099 48.0
282.100403 172.0
283.097443 148.0
283.524597 36.0
292.836365 112.0
311.598511 80.0
312.094086 80.0
314.546204 132.0
326.220428 48.0
333.511719 100.0
335.021912 96.0
339.235565 72.0
341.159241 160.0
421.690948 160.0
422.488342 120.0
435.041809 76.0
440.781311 116.0
452.347809 72.0
459.799072 100.0
472.185913 60.0
481.299103 60.0
496.707947 32.0
507.717529 68.0
551.744141 116.0
558.144287 28.0
571.521545 76.0
585.755554 60.0
589.601135 52.0
594.429443 80.0
610.020264 84.0
610.516907 100.0
641.288086 100.0
642.770813 196.0
654.470215 128.0
658.851501 84.0
670.360596 36.0
672.021057 188.0
700.825623 76.0
704.217773 68.0
716.73822 64.0
722.954163 40.0
739.859619 56.0
758.750671 92.0
759.397705 76.0
778.721863 60.0
786.176758 208.0
787.717834 196.0
788.773987 148.0
810.170349 124.0
820.861877 244.0
842.767151 180.0
854.421265 172.0
862.784607 156.0
872.581604 108.0
876.366211 236.0
886.364197 172.0
887.520081 140.0
888.356384 116.0
890.855652 56.0
899.68158 144.0
905.05072 176.0
913.320801 156.0
931.728821 188.0
932.65863 124.0
939.582703 140.0
939.845032 128.0
948.682983 184.0
959.010193 176.0
959.078003 208.0
960.008972 140.0
961.107056 196.0
963.533569 124.0
969.65979 220.0
970.744751 148.0
977.348022 232.0
985.96637 184.0
990.433777 240.0
993.775269 60.0
994.735535 108.0
997.568726 172.0
998.06543 56.0
1000.110046 252.0
1003.7453 264.0
1016.092163 132.0
1016.212708 80.0
1016.904419 168.0
1017.634521 64.0
1032.942871 192.0
1033.582642 72.0
1035.983643 108.0
1047.418457 144.0
1048.571777 160.0
1048.848999 180.0
1049.364746 240.0
1052.481201 108.0
1053.80542 44.0
1054.897583 124.0
1056.598511 228.0
1058.158325 216.0
1070.860474 140.0
1073.812988 172.0
1075.901245 120.0
1077.684204 220.0
1077.893311 188.0
1078.873779 168.0
1079.619141 180.0
1082.112305 212.0
1083.17334 104.0
1089.044067 188.0
1090.496216 128.0
1091.331055 112.0
1091.870361 136.0
1092.232056 64.0
1092.304443 164.0
1093.232178 200.0
1098.97168 212.0
1099.592041 160.0
1101.110596 52.0
1104.508057 116.0
1107.658936 196.0
1107.990234 164.0
1109.335571 84.0
1115.629028 264.0
1118.363037 156.0
1119.501587 168.0
1120.747314 108.0
1120.820557 144.0
1122.413696 156.0
1122.480347 176.0
1123.247437 156.0
1124.768799 108.0
1124.942383 228.0
1126.12439 132.0
1131.882568 120.0
1134.240845 192.0
1136.306396 56.0
1138.864136 124.0
1148.428955 132.0
1150.541138 96.0
1150.743652 164.0
1156.016235 232.0
1156.104126 124.0
1156.219238 44.0
1156.320801 188.0
1159.192261 168.0
1159.754761 180.0
1159.809082 136.0
1161.429688 128.0
1165.238159 220.0
1166.175903 184.0
1166.577026 144.0
1166.740112 200.0
1168.045898 176.0
1170.986328 60.0
1174.326172 188.0
1174.769531 160.0
1174.824097 108.0
1176.509766 176.0
1177.793701 196.0
1178.695435 180.0
1179.358398 200.0
1179.501953 196.0
1179.953125 148.0
1184.572754 132.0
1184.826172 92.0
1188.411987 152.0
1189.359131 128.0
1193.584351 68.0
1194.836182 116.0
1196.453613 112.0
1196.625732 196.0
1199.739868 164.0
1200.460327 152.0
1201.905518 216.0
1202.119507 116.0
1202.202271 140.0
1202.664673 168.0
1202.747559 144.0
1206.235962 156.0
1206.388062 172.0
1207.833374 200.0
1209.161865 124.0
1209.84021 184.0
1210.428833 188.0
1212.223022 184.0
1213.103271 196.0
1215.794556 168.0
1220.497559 80.0
1224.464233 128.0
1224.875244 64.0
1226.129395 200.0
1226.275757 156.0
1226.498779 192.0
1229.874878 120.0
1230.0354 160.0
1231.662476 120.0
1232.032715 184.0
1232.144531 164.0
1233.143799 76.0
1233.33252 176.0
1236.80896 88.0
1239.204102 200.0
1243.713501 68.0
1244.092529 40.0
1244.498291 224.0
1250.637085 48.0
1250.890503 192.0
1251.869873 124.0
1252.629883 60.0
1253.651611 132.0
1253.884155 120.0
1257.347046 196.0
1258.278931 60.0
1260.927856 236.0
1261.889282 144.0
1263.367432 152.0
1263.438232 56.0
1266.425537 212.0
1266.510498 180.0
1266.779785 40.0
1267.367798 176.0
1267.977173 44.0
1268.962524 112.0
1269.260376 196.0
1269.466064 120.0
1272.637939 148.0
1274.122437 156.0
1274.776123 52.0
1280.396484 140.0
1281.700073 196.0
1281.828369 208.0
1281.986084 164.0
1282.455566 176.0
1282.640869 152.0
1282.890381 192.0
1282.997314 184.0
1284.409302 164.0
1285.643677 64.0
1286.086182 200.0
1286.157593 160.0
1287.235596 136.0
1287.349976 40.0
1288.321289 128.0
1289.178833 168.0
1289.378906 116.0
1289.479004 164.0
1291.44519 96.0
1291.774292 168.0
1292.668579 124.0
1293.176758 60.0
1294.272095 164.0
1294.537109 260.0
1294.615845 168.0
1295.568481 156.0
1296.82251 76.0
1297.030396 168.0
1298.930664 264.0
1300.509277 192.0
1303.446777 156.0
1304.984985 52.0
1305.646606 164.0
1305.711304 128.0
1306.495361 148.0
1307.042114 168.0
1309.669922 168.0
1310.988525 164.0
1311.240723 216.0
1311.716431 104.0
1312.624878 176.0
1312.826782 192.0
1312.935059 88.0
1315.020142 120.0
1316.92627 48.0
1317.265747 144.0
1318.710938 208.0
1318.971191 156.0
1319.484497 124.0
1320.873047 176.0
1322.71106 180.0
1323.978149 140.0
1324.057861 116.0
1325.340088 164.0
1326.738892 212.0
1326.847656 156.0
1328.298096 40.0
1331.223145 120.0
1331.368286 180.0
1334.296753 112.0
1334.522095 188.0
1335.205688 180.0
1337.934448 180.0
1338.203857 236.0
1339.755127 68.0
1340.666016 132.0
1342.510498 132.0
1343.874512 160.0
1344.173706 160.0
1344.305054 132.0
1346.502563 144.0
1347.949097 140.0
1348.117188 168.0
1350.08374 108.0
1350.13501 36.0
1350.412842 52.0
1351.224854 200.0
1351.532227 124.0
1352.278687 248.0
1352.761841 152.0
1353.047241 128.0
1353.434082 208.0
1354.233643 156.0
1354.724365 92.0
1356.54187 220.0
1356.600464 28.0
1357.098999 140.0
1359.328979 184.0
1360.158325 192.0
1360.37854 128.0
1360.510742 128.0
1360.885132 200.0
1361.421265 144.0
1361.839844 164.0
1366.677246 64.0
1366.861206 40.0
1367.001099 56.0
1367.082031 108.0
1367.302856 168.0
1368.58374 216.0
1369.165527 148.0
1369.371704 140.0
1369.622192 188.0
1369.776855 152.0
1369.861084 212.0
1369.975708 140.0
1370.064087 96.0
1370.240967 164.0
1371.84021 144.0
1371.928711 144.0
1373.462524 116.0
1375.344238 188.0
1375.720703 144.0
1376.067627 156.0
1376.348267 52.0
1377.640747 232.0
1377.781128 224.0
1378.032349 72.0
1379.369995 124.0
1379.510498 132.0
1379.84314 160.0
1379.983643 184.0
1382.202759 108.0
1383.623901 148.0
1385.327271 192.0
1385.742065 188.0
1386.201538 192.0
1387.817505 96.0
1387.936157 180.0
1389.018921 104.0
1389.174805 164.0
1389.553101 200.0
1391.609131 88.0
1393.681396 124.0
1393.792847 184.0
1395.785034 100.0
1398.418701 192.0
1398.716431 160.0
1398.850464 148.0
1398.924927 128.0
1399.952393 140.0
1400.213013 128.0
1401.002686 140.0
1402.470703 136.0
1403.469727 168.0
1403.917114 164.0
1406.857056 212.0
1407.536499 128.0
1407.715698 72.0
1408.245972 100.0
1408.410278 172.0
1410.345581 152.0
1413.464355 200.0
1415.425537 152.0
1416.324341 44.0
1417.972656 112.0
1418.025146 268.0
1421.467529 52.0
1421.640137 148.0
1422.856079 204.0
1423.261597 132.0
1423.629517 132.0
1424.035156 160.0
1424.575928 176.0
1424.793823 168.0
1425.146973 180.0
1425.868408 192.0
1426.138916 108.0
1426.214111 176.0
1426.898193 144.0
1427.048584 84.0
1427.334351 164.0
1427.383545 128.0
1427.499756 200.0
1427.82312 176.0
1428.01123 148.0
1428.274414 108.0
1428.342163 152.0
1428.936523 144.0
1429.154663 144.0
1429.658936 252.0
1430.916016 148.0
1431.488281 160.0
1432.113403 68.0
1432.204834 164.0
1432.439941 184.0
1432.859131 192.0
1433.235474 144.0
1433.966919 116.0
1434.042236 128.0
1435.014771 136.0
1435.474731 80.0
1436.402954 188.0
1436.870117 128.0
1438.070068 240.0
1438.477661 156.0
1439.013672 132.0
1439.202393 136.0
1439.829224 160.0
1439.904785 72.0
1440.00293 108.0
1441.551758 220.0
1441.937134 140.0
1442.156372 112.0
1442.829102 180.0
1444.803101 64.0
1445.862427 176.0
1446.028931 124.0
1447.979004 196.0
1448.512573 148.0
1448.747437 172.0
1450.588989 228.0
1450.657227 148.0
1450.975586 160.0
1451.476074 236.0
1452.075195 176.0
1452.621338 44.0
1454.586792 248.0
1458.126343 164.0
1459.494751 144.0
1461.198486 156.0
1461.350708 168.0
1462.845093 208.0
1463.421021 152.0
1463.931274 44.0
1464.79187 152.0
1466.609619 196.0
1467.977783 212.0
1468.473633 96.0
1468.801514 216.0
1469.099121 56.0
1469.578369 160.0
1469.7323 212.0
1470.113892 180.0
1471.029785 144.0
1471.342773 212.0
1471.457397 168.0
1473.045898 176.0
1475.254395 180.0
1475.629028 164.0
1475.697876 232.0
1477.089722 204.0
1477.395752 132.0
1477.600464 176.0
1477.717041 48.0
1479.821899 140.0
1480.894043 188.0
1481.843994 128.0
1482.043213 88.0
1482.457031 68.0
1482.68689 84.0
1482.84021 128.0
1486.25293 144.0
1486.544434 128.0
1487.304321 108.0
1487.542236 176.0
1488.870605 148.0
1489.170166 176.0
1489.969116 176.0
1490.115112 208.0
1490.745239 192.0
1490.906616 204.0
1491.383057 164.0
1491.928833 144.0
1492.174927 108.0
1492.41333 104.0
1493.83606 144.0
1496.737793 100.0
1497.299927 356.0
1498.355225 140.0
1499.464844 120.0
1500.536377 168.0
1501.006714 56.0
1501.461792 204.0
1502.125122 224.0
1502.850342 176.0
1503.128174 104.0
1503.668335 120.0
1504.664185 92.0
