>compound MLS001332387-01!Chlorhexidine55-56-1
>formula C22H30Cl2N10
>ionization [M+H]+
>parentmass 505.2104727720905
#inchi InChI=1S/C22H30Cl2N10/c23-15-5-9-17(10-6-15)31-21(27)33-19(25)29-13-3-1-2-4-14-30-20(26)34-22(28)32-18-11-7-16(24)8-12-18/h5-12H,1-4,13-14H2,(H5,25,27,29,31,33)(H5,26,28,30,32,34)
#inchikey GHXZTYHSJHQHIJ
#Ion_Source LC-ESI
#Instrument qTof
#Compound_Source NIH Pharmacologically Active Library
#PI Dorrestein
#Data_Collector VP/LMS
#Scan -1
#Precursor_MZ 505.214
#ExactMass 504.203
#Charge 1
#CAS_Number N/A
#Pubmed_ID N/A
#Smiles Clc1ccc(NC(=N)NC(=N)NCCCCCCNC(=N)NC(=N)Nc2ccc(Cl)cc2)cc1
#INCHI_AUX N/A
#Library_Class 1
#SpectrumID CCMSLIB00000084913
#IonMode Positive
#UpdateWorkflowName UPDATE-SINGLE-ANNOTATED-GOLD
#LibraryQualityString Gold
#TaskID d252d724072548979f1f6f1ced849daf
##Scan# 1664
#SpectrumFile p3-C06_GC6_01_18251.mzXML
#LibraryName Pharm_Active_Library.mgf
#MQScore -1
#Organism Pharm_Active_Library
#TIC_Query 0
#RT_Query -1
#MZErrorPPM -1
#SharedPeaks 0
#MassDiff 0
#LibMZ -1
#SpecMZ 505.214
#SpecCharge 0
#internalFilename spec-00000.mgf

>collision 10
45.031155 236.0
45.521328 220.0
45.634201 92.0
45.659752 188.0
45.724331 48.0
45.748562 264.0
46.192547 108.0
46.266979 184.0
46.759735 212.0
46.827808 140.0
47.055546 132.0
47.216793 152.0
47.405724 160.0
47.512672 168.0
47.648594 140.0
47.786087 144.0
47.896221 152.0
47.969254 180.0
48.08926 144.0
48.263332 56.0
48.508389 252.0
48.531956 232.0
48.599922 180.0
48.651276 156.0
48.672104 148.0
49.032413 188.0
49.05611 48.0
49.110493 196.0
49.134209 192.0
49.345104 176.0
49.58588 196.0
49.766846 172.0
49.866589 180.0
49.891891 160.0
50.162186 56.0
50.392227 212.0
50.474213 220.0
50.62846 176.0
51.099739 116.0
51.219322 144.0
51.331917 172.0
51.480331 144.0
51.743435 156.0
52.284603 208.0
52.360909 128.0
52.438713 160.0
52.655132 176.0
52.708584 132.0
52.911079 184.0
53.148785 180.0
53.445316 216.0
53.496151 208.0
53.669525 152.0
53.87532 228.0
54.135677 96.0
54.233841 132.0
54.279289 204.0
54.612671 88.0
55.04549 260.0
55.503216 140.0
55.755585 108.0
55.895374 40.0
56.223225 160.0
56.2486 204.0
56.376877 172.0
56.450302 172.0
56.586468 144.0
57.06509 208.0
57.518555 136.0
57.831448 164.0
57.90564 80.0
58.072361 272.0
58.316814 140.0
58.51001 132.0
58.973751 232.0
59.560616 108.0
59.748161 192.0
59.857445 172.0
60.311028 208.0
63.331547 236.0
63.343815 84.0
63.510254 156.0
63.955162 168.0
64.366486 52.0
64.476715 76.0
64.649437 104.0
64.937813 260.0
65.51812 184.0
65.545509 168.0
65.572906 136.0
65.58902 156.0
65.697067 176.0
65.768066 200.0
65.834496 192.0
65.84951 136.0
66.067017 228.0
67.122765 168.0
68.562119 180.0
68.595085 144.0
68.679184 148.0
69.024353 160.0
69.135185 184.0
69.923508 140.0
70.010086 148.0
70.170052 156.0
70.280128 204.0
70.754807 176.0
70.885452 220.0
71.053123 280.0
71.105141 236.0
71.189087 172.0
71.210922 216.0
71.291565 80.0
71.442886 228.0
71.522141 212.0
71.909653 112.0
71.992378 200.0
72.07177 184.0
72.102188 60.0
72.398254 124.0
72.442291 184.0
73.01091 172.0
73.475929 200.0
73.90136 180.0
74.278259 152.0
74.607979 136.0
74.65461 148.0
74.931534 148.0
74.94532 200.0
75.497711 88.0
77.093643 160.0
77.1688 152.0
77.35775 204.0
77.624062 116.0
77.653877 156.0
77.709084 140.0
77.887321 160.0
78.0877 132.0
79.026192 140.0
79.6147 124.0
80.485497 40.0
81.395142 156.0
81.524475 152.0
81.66291 204.0
82.134827 208.0
82.380333 148.0
83.329659 56.0
84.416031 84.0
85.068298 72.0
85.868721 100.0
85.8927 168.0
85.925903 176.0
86.696976 152.0
87.084732 180.0
87.131172 264.0
87.354256 132.0
88.124222 136.0
88.255058 232.0
88.400963 152.0
88.747505 120.0
88.910706 128.0
89.062782 232.0
89.179283 140.0
89.241081 128.0
89.949677 120.0
90.07431 168.0
90.586945 204.0
90.668427 180.0
90.82579 80.0
91.159943 272.0
91.194153 132.0
92.368729 192.0
92.629059 80.0
92.905113 204.0
93.029846 140.0
93.056725 184.0
93.462288 40.0
94.628098 236.0
95.050644 124.0
95.083633 120.0
95.235077 36.0
95.419685 232.0
95.620049 120.0
96.07991 184.0
96.887337 164.0
97.008972 176.0
97.079422 156.0
97.132378 156.0
98.097313 584.0
98.211197 184.0
98.231995 64.0
98.72776 112.0
99.062263 188.0
99.939781 152.0
100.112099 1632.0
100.214554 104.0
100.232491 172.0
100.374016 36.0
100.683334 128.0
100.727272 40.0
100.751244 108.0
100.863152 56.0
100.98912 60.0
101.115173 200.0
101.849007 176.0
102.662117 136.0
102.714554 112.0
103.082008 60.0
103.397484 116.0
103.88987 168.0
104.511566 92.0
104.538017 148.0
105.00251 180.0
105.047386 136.0
105.470078 172.0
106.034981 160.0
106.235931 160.0
106.420639 140.0
106.467873 140.0
106.580849 164.0
106.796715 100.0
106.813164 148.0
107.035439 124.0
107.554977 104.0
108.079857 384.0
108.098526 88.0
108.390503 192.0
108.533524 108.0
108.896698 164.0
109.181427 180.0
109.195984 72.0
109.245903 172.0
109.352028 108.0
109.829163 216.0
109.916786 320.0
110.349159 100.0
110.587631 184.0
110.660904 196.0
110.88295 180.0
110.996155 168.0
111.298309 316.0
111.327713 128.0
111.371811 176.0
111.453743 228.0
111.51049 140.0
111.62822 176.0
111.647141 204.0
111.897545 208.0
112.056 220.0
113.109306 220.0
113.272354 160.0
113.437637 152.0
113.780182 180.0
114.387184 168.0
114.710976 148.0
115.099274 192.0
115.1847 132.0
115.242378 152.0
115.471115 148.0
115.543846 56.0
116.353958 168.0
116.702019 172.0
116.992462 176.0
117.08075 132.0
117.140182 208.0
117.158287 184.0
117.548546 196.0
117.576599 120.0
118.050926 320.0
118.682007 192.0
118.710197 136.0
118.79261 220.0
118.836006 108.0
119.007469 112.0
119.274681 216.0
119.542198 168.0
119.940758 56.0
120.392395 140.0
120.763931 184.0
120.978371 124.0
121.107567 156.0
121.182053 188.0
121.71505 256.0
121.802895 48.0
122.20961 212.0
122.392296 140.0
122.623604 184.0
122.64344 216.0
122.716194 192.0
122.755882 184.0
123.243713 192.0
123.628471 156.0
123.823296 128.0
124.581894 152.0
124.65966 244.0
124.846397 124.0
125.042175 176.0
125.10704 4788.0
125.137894 248.0
125.182426 48.0
125.216843 88.0
125.400757 144.0
125.44088 48.0
125.465401 80.0
125.691986 244.0
126.012512 228.0
126.034538 80.0
126.110115 320.0
126.182053 48.0
126.372162 160.0
126.519875 48.0
127.064468 92.0
127.107101 116.0
127.158714 152.0
127.183403 72.0
127.590004 84.0
127.684441 160.0
127.871178 56.0
128.025406 1236.0
128.233795 88.0
129.008026 184.0
129.022827 132.0
129.093948 56.0
130.023682 540.0
130.074982 40.0
130.338425 52.0
130.806931 68.0
131.084793 180.0
131.16684 84.0
131.586609 84.0
131.625427 88.0
131.748749 260.0
131.82872 28.0
132.219788 116.0
132.334244 152.0
133.596512 116.0
133.996979 152.0
134.368286 172.0
134.437515 136.0
134.54599 160.0
134.800064 132.0
135.151535 128.0
135.623978 120.0
135.992767 144.0
136.929749 236.0
136.983322 36.0
137.288651 204.0
137.6259 176.0
138.185623 192.0
138.304977 204.0
138.595367 100.0
138.665665 120.0
139.069092 92.0
139.271011 168.0
139.400223 184.0
140.011871 128.0
140.117874 168.0
140.212128 152.0
140.835007 176.0
141.279404 168.0
141.807449 64.0
141.971039 128.0
142.134293 4332.0
142.343613 176.0
142.780869 128.0
143.137238 112.0
143.141708 152.0
143.378433 56.0
143.833984 52.0
143.93187 100.0
144.299835 108.0
144.426575 216.0
145.169022 192.0
145.492935 80.0
145.562561 152.0
145.95665 156.0
147.059998 156.0
147.303879 168.0
147.886627 284.0
148.080322 164.0
148.827225 144.0
149.342422 132.0
149.651474 144.0
149.719666 212.0
149.795166 312.0
149.914551 120.0
150.03653 100.0
150.086914 180.0
150.103333 716.0
150.231522 136.0
150.326675 132.0
150.485336 60.0
150.758911 176.0
150.920258 240.0
150.963348 220.0
150.996063 108.0
151.101242 192.0
151.213806 188.0
151.711044 164.0
152.16246 168.0
152.189468 208.0
152.403152 216.0
152.636673 176.0
152.653885 152.0
152.931885 84.0
152.956497 168.0
152.990372 248.0
153.021774 3672.0
153.064819 176.0
153.082062 28.0
153.136246 148.0
153.153488 76.0
153.614441 60.0
153.668716 152.0
154.022995 128.0
154.047958 156.0
154.073608 140.0
154.320755 84.0
154.558212 212.0
154.67453 220.0
154.939499 112.0
155.020248 1876.0
155.063385 72.0
155.758133 140.0
155.847565 172.0
156.022858 144.0
156.280197 204.0
156.990112 60.0
157.027527 128.0
157.059952 188.0
157.314484 200.0
157.53923 156.0
157.661667 192.0
158.036743 128.0
158.62529 128.0
158.835922 224.0
159.160294 3896.0
159.204865 52.0
159.312866 148.0
159.420914 140.0
159.451065 44.0
159.489441 196.0
159.765381 212.0
160.164719 960.0
160.284042 164.0
160.480652 108.0
160.55629 208.0
160.642059 172.0
160.710175 160.0
160.965103 248.0
161.088867 84.0
161.165924 152.0
161.328934 68.0
161.457886 36.0
161.574249 136.0
161.609665 156.0
162.009689 64.0
162.161713 120.0
162.280869 156.0
162.915344 96.0
163.337326 152.0
163.512878 208.0
163.550385 164.0
163.647797 36.0
163.938187 64.0
165.111725 420.0
165.783264 204.0
166.280792 136.0
166.524704 104.0
166.69426 276.0
166.761078 204.0
166.845901 188.0
167.008743 184.0
167.049072 196.0
167.095062 132.0
167.128418 6444.0
167.179855 48.0
167.23175 88.0
167.448029 72.0
167.862946 228.0
167.901627 64.0
168.077042 176.0
168.12851 768.0
168.168259 220.0
168.231903 80.0
168.795135 96.0
168.973602 52.0
169.115936 76.0
169.168533 124.0
169.320465 76.0
169.373322 168.0
169.434448 108.0
169.460358 132.0
169.576965 184.0
169.825867 124.0
169.924438 232.0
169.942612 176.0
169.963364 196.0
169.98671 40.0
170.04744 16308.0
170.087936 152.0
170.155426 40.0
170.208725 160.0
170.254105 40.0
170.271347 36.0
170.350204 176.0
170.404755 40.0
170.428146 68.0
170.521698 172.0
170.555481 108.0
170.805115 48.0
170.984634 48.0
171.049377 1432.0
171.13562 160.0
171.218948 64.0
171.445602 108.0
171.727173 40.0
171.847168 120.0
171.921722 188.0
172.044678 4068.0
172.110794 72.0
172.210754 172.0
172.280548 112.0
172.335419 52.0
172.358932 132.0
172.434097 84.0
173.046936 172.0
173.091339 44.0
173.439789 44.0
173.544647 48.0
174.40834 112.0
174.67392 100.0
175.139832 140.0
176.464584 100.0
176.792587 52.0
177.542297 156.0
177.754532 208.0
178.013336 856.0
178.774963 176.0
178.889404 108.0
179.022171 196.0
179.747604 124.0
180.012131 308.0
180.666718 68.0
181.82962 72.0
182.130341 144.0
182.149139 216.0
182.856293 56.0
183.06897 60.0
183.20903 80.0
183.332977 188.0
183.438095 108.0
183.705048 172.0
183.783295 84.0
183.985718 84.0
184.047806 124.0
184.066711 76.0
184.120728 240.0
184.155457 11804.0
184.24498 64.0
184.290909 124.0
184.371979 40.0
184.42775 44.0
184.463867 40.0
184.531448 40.0
184.607162 72.0
185.031982 48.0
185.105087 52.0
185.157562 1608.0
185.451859 36.0
185.733841 148.0
185.769104 100.0
185.836929 48.0
186.073059 200.0
186.157776 200.0
186.456055 68.0
186.507706 44.0
186.643631 96.0
186.700745 204.0
187.059891 60.0
187.228699 36.0
187.473877 112.0
187.531113 188.0
189.394562 52.0
189.709686 124.0
189.819351 204.0
189.885178 76.0
192.124222 168.0
193.478394 116.0
194.0103 148.0
194.209946 168.0
194.406937 184.0
194.737305 72.0
194.778976 68.0
194.817856 208.0
194.934555 108.0
194.956787 76.0
194.984573 44.0
195.043289 4384.0
195.393341 52.0
195.883301 116.0
195.964081 68.0
196.041046 460.0
196.231644 108.0
196.262314 28.0
197.038208 844.0
197.493881 104.0
197.969666 84.0
198.025681 124.0
199.901031 48.0
200.684097 152.0
201.025406 80.0
201.129822 112.0
201.181152 4368.0
201.282272 40.0
201.381119 72.0
201.525391 56.0
201.889832 84.0
202.107651 112.0
202.182449 620.0
202.552124 44.0
203.649841 104.0
203.789032 80.0
203.837341 84.0
204.24498 96.0
207.050186 156.0
207.401932 144.0
207.946899 168.0
208.938263 108.0
208.96991 152.0
209.150986 1336.0
209.277878 64.0
209.770523 64.0
210.122345 56.0
210.152054 176.0
210.676651 84.0
211.069717 88.0
212.065598 180.0
213.078339 108.0
214.825073 228.0
216.262726 76.0
219.942749 144.0
220.040039 300.0
220.897186 160.0
222.039398 152.0
223.011353 108.0
223.635956 148.0
224.169052 116.0
225.637589 164.0
226.176041 400.0
226.334717 40.0
227.149902 92.0
227.178787 236.0
228.408508 124.0
229.966278 88.0
231.37796 52.0
231.989914 124.0
234.138123 160.0
235.138092 140.0
237.066437 400.0
238.258347 152.0
239.060654 184.0
245.738495 116.0
247.379227 56.0
247.720566 100.0
247.751892 152.0
247.896011 116.0
249.059784 136.0
251.061966 176.0
251.169586 204.0
252.11293 288.0
253.302567 244.0
256.139191 128.0
257.319122 140.0
261.048828 124.0
264.067444 164.0
265.04184 120.0
266.791229 40.0
267.425507 116.0
267.953064 192.0
273.572906 136.0
275.103363 184.0
276.103668 164.0
276.639709 144.0
277.116608 644.0
277.637024 128.0
278.126343 256.0
278.403625 112.0
279.038269 104.0
279.108093 208.0
280.079865 36.0
280.426392 124.0
281.71106 68.0
282.045197 168.0
283.085693 192.0
287.996887 268.0
288.026337 180.0
289.010132 132.0
291.964722 164.0
291.988525 228.0
292.689545 52.0
294.143982 872.0
295.144531 384.0
295.177094 192.0
296.049713 132.0
296.139954 396.0
297.142853 180.0
301.053375 220.0
301.253693 172.0
301.848175 144.0
302.11377 248.0
303.122009 124.0
303.652435 92.0
304.020172 132.0
304.108765 196.0
304.158997 104.0
305.039978 136.0
305.716064 48.0
306.025848 60.0
307.027466 300.0
308.003204 64.0
308.027649 56.0
309.041473 108.0
309.685608 96.0
310.330414 112.0
310.639038 80.0
311.170349 452.0
312.160614 176.0
312.191437 136.0
313.088837 168.0
313.172699 176.0
313.913452 48.0
315.004059 148.0
315.827637 56.0
315.997467 44.0
317.146637 240.0
317.552551 84.0
317.584473 120.0
317.816498 128.0
317.971191 160.0
318.965729 112.0
319.058136 68.0
319.141724 5148.0
319.207489 152.0
319.349731 96.0
319.566742 84.0
319.64856 84.0
319.744659 88.0
320.082855 96.0
320.143127 760.0
320.364197 68.0
320.496033 28.0
320.63501 60.0
321.048553 56.0
321.138763 832.0
321.826447 56.0
322.015717 80.0
322.129303 100.0
322.233612 168.0
322.372986 132.0
322.734009 104.0
323.145325 88.0
323.890442 144.0
324.642578 136.0
327.172089 120.0
327.27652 112.0
328.826599 52.0
330.02594 156.0
330.836334 48.0
331.966797 112.0
334.157959 196.0
335.53009 144.0
336.099091 116.0
336.167267 4168.0
336.237732 164.0
336.427551 88.0
336.898651 32.0
337.037476 100.0
337.171356 468.0
337.28598 60.0
337.487061 96.0
337.560181 52.0
337.88205 48.0
338.028412 144.0
338.06308 252.0
338.162781 1352.0
338.710968 84.0
339.086792 80.0
339.177277 420.0
339.383698 80.0
339.618408 76.0
339.65509 60.0
339.82016 72.0
340.389099 68.0
341.252563 120.0
341.318756 84.0
341.498962 60.0
342.507477 68.0
344.121429 148.0
344.136414 96.0
344.440338 72.0
345.129028 148.0
345.608551 88.0
346.06012 148.0
346.148987 84.0
347.05426 356.0
348.032654 216.0
349.058197 156.0
350.88266 168.0
351.031799 60.0
351.13623 176.0
353.200409 332.0
354.186127 280.0
354.287262 72.0
355.201233 128.0
357.354584 72.0
359.053436 88.0
359.589172 64.0
360.042206 140.0
360.722321 52.0
360.945374 160.0
361.162476 696.0
362.069305 64.0
362.133698 128.0
362.16275 208.0
363.039459 144.0
363.153931 132.0
369.966492 104.0
372.046661 248.0
384.048157 60.0
389.850342 120.0
408.088623 124.0
427.183899 88.0
428.105835 96.0
429.090637 148.0
429.140533 260.0
430.12915 156.0
431.130707 184.0
435.820496 96.0
441.723877 200.0
444.115631 100.0
444.744995 76.0
445.824371 136.0
446.150604 232.0
447.159485 184.0
448.14679 148.0
448.81311 148.0
449.146271 48.0
451.697601 124.0
454.116516 376.0
455.037018 112.0
456.124542 100.0
461.201172 64.0
471.149048 624.0
472.154541 120.0
473.153564 524.0
474.151367 336.0
475.162659 236.0
476.816956 76.0
480.810608 44.0
488.181946 136.0
489.155975 116.0
489.186798 48.0
490.183685 92.0
490.530334 36.0
491.169464 144.0
493.581085 44.0
496.512634 80.0
499.675323 120.0
562.919861 124.0
566.173401 48.0
613.924988 40.0
616.032532 96.0
625.036133 112.0
627.671143 56.0
648.879944 64.0
655.849426 40.0
679.121704 68.0
688.876404 84.0
749.802551 92.0
760.637756 88.0
764.67218 48.0
780.94989 124.0
793.907043 168.0
797.595764 72.0
883.854675 140.0
902.544006 76.0
916.318848 220.0
942.500305 128.0
947.082458 220.0
953.647705 200.0
998.395691 188.0
1001.158386 164.0
1019.955872 208.0
1024.015259 120.0
1030.73291 48.0
1041.303223 52.0
1047.503784 52.0
1067.847778 204.0
1071.577759 220.0
1083.953247 60.0
1096.973145 176.0
1110.024414 56.0
1111.006104 184.0
1129.424927 192.0
1139.520874 140.0
1139.729126 68.0
1157.029175 180.0
1158.559692 208.0
1160.226929 232.0
1168.730225 140.0
1169.084106 192.0
1178.972534 160.0
1180.784302 164.0
1187.41394 144.0
1190.618896 124.0
1191.0448 224.0
1196.587524 176.0
1202.467529 164.0
1202.619263 152.0
1203.675537 172.0
1211.200195 116.0
1213.341431 144.0
1222.050903 60.0
1223.721313 136.0
1228.195312 160.0
1240.390137 148.0
1243.118408 216.0
1250.328735 176.0
1252.109863 100.0
1257.644531 48.0
1257.997559 72.0
1261.557861 244.0
1264.097046 140.0
1265.427734 148.0
1266.298828 184.0
1270.239746 200.0
1274.868896 144.0
1285.669556 124.0
1286.214722 192.0
1288.62854 44.0
1289.58606 152.0
1291.652466 168.0
1296.098389 152.0
1299.92041 132.0
1308.35144 160.0
1308.668213 192.0
1310.533691 148.0
1310.800293 104.0
1313.648193 96.0
1314.513916 252.0
1315.011963 136.0
1319.056763 64.0
1319.194214 112.0
1323.006592 168.0
1324.425903 112.0
1326.375 64.0
1329.653442 164.0
1337.015503 108.0
1341.480469 200.0
1342.873169 148.0
1347.939697 156.0
1348.977539 148.0
1354.560913 160.0
1355.505981 128.0
1356.590698 104.0
1359.282471 172.0
1359.341187 140.0
1359.847534 104.0
1364.012207 128.0
1367.631226 220.0
1378.036499 128.0
1378.568604 204.0
1381.644409 252.0
1385.916504 128.0
1395.409424 232.0
1402.578369 176.0
1402.749878 104.0
1403.45813 260.0
1405.248169 76.0
1410.087036 228.0
1410.737427 180.0
1420.509888 92.0
1422.76123 160.0
1424.067871 196.0
1427.968628 168.0
1428.698242 168.0
1429.23999 192.0
1431.505737 176.0
1436.736572 196.0
1437.008179 124.0
1444.018311 172.0
1445.508667 244.0
1455.324829 68.0
1455.924683 148.0
1459.450562 48.0
1460.538086 196.0
1461.694458 168.0
1461.922852 52.0
1462.234863 156.0
1464.077271 144.0
1467.018311 56.0
1467.338501 156.0
1472.023438 156.0
1474.315186 152.0
1479.631348 204.0
1486.898071 176.0
1487.189697 216.0
1489.001709 200.0
1489.331909 188.0
1490.568848 204.0
1490.822388 192.0
1494.259521 156.0
1494.605713 80.0
1496.576294 176.0
1500.45166 112.0
1500.914307 180.0
1505.189087 208.0
