>compound MLS002153292-01!R(+)-7-Hydroxy-DPAT hydrobromide159795-63-8
>formula C16H25NO
>ionization [M+H]+
>parentmass 248.20089087209053
#inchi InChI=1S/C16H25NO/c1-3-9-17(10-4-2)15-7-5-13-6-8-16(18)12-14(13)11-15/h6,8,12,15,18H,3-5,7,9-11H2,1-2H3
#inchikey BLYMJBIZMIGWFK
#origInchi InChI=1S/C16H25NO.BrH/c1-3-9-17(10-4-2)15-7-5-13-6-8-16(18)12-14(13)11-15;/h6,8,12,15,18H,3-5,7,9-11H2,1-2H3;1H
#Ion_Source LC-ESI
#Instrument qTof
#Compound_Source NIH Pharmacologically Active Library
#PI Dorrestein
#Data_Collector VP/LMS
#Scan -1
#Precursor_MZ 248.205
#ExactMass 247.194
#Charge 1
#CAS_Number N/A
#Pubmed_ID N/A
#Smiles CCCN(CCC)C1CCc2ccc(O)cc2C1.Br
#INCHI_AUX N/A
#Library_Class 1
#SpectrumID CCMSLIB00000086118
#IonMode Positive
#UpdateWorkflowName UPDATE-SINGLE-ANNOTATED-GOLD
#LibraryQualityString Gold
#TaskID d252d724072548979f1f6f1ced849daf
##Scan# 1338
#SpectrumFile p5-F02_GF2_01_18465.mzXML
#LibraryName Pharm_Active_Library.mgf
#MQScore -1
#Organism Pharm_Active_Library
#TIC_Query 0
#RT_Query -1
#MZErrorPPM -1
#SharedPeaks 0
#MassDiff 0
#LibMZ -1
#SpecMZ 248.205
#SpecCharge 0
#internalFilename spec-00000.mgf

>collision 10
44.925861 212.0
45.402031 208.0
45.435562 212.0
45.506695 80.0
45.522808 220.0
45.709656 148.0
45.783695 168.0
45.855099 168.0
45.871273 216.0
45.965679 56.0
46.212055 248.0
46.576263 64.0
46.617023 184.0
46.739403 228.0
46.769344 236.0
46.799294 120.0
46.863964 156.0
47.082928 124.0
47.178574 140.0
47.326332 144.0
47.343033 204.0
47.783375 152.0
47.802639 136.0
48.086529 148.0
48.105854 164.0
48.392029 88.0
48.405876 144.0
48.81871 200.0
48.82914 172.0
48.863861 208.0
49.089561 200.0
49.156517 336.0
49.370251 116.0
49.458393 48.0
49.531204 184.0
49.557198 144.0
49.576038 116.0
49.990303 160.0
50.03112 164.0
50.084633 228.0
50.159313 88.0
50.318722 196.0
50.43597 188.0
50.513744 132.0
50.523643 168.0
50.585911 160.0
50.665215 204.0
50.716228 196.0
50.775776 120.0
51.303299 152.0
51.314705 172.0
51.941074 80.0
51.969769 208.0
52.29166 124.0
52.552486 132.0
52.631874 164.0
52.689644 148.0
52.69976 140.0
52.763351 184.0
52.960152 176.0
52.978981 240.0
53.05434 184.0
53.181992 160.0
53.234257 160.0
53.418839 156.0
53.458122 68.0
53.675167 344.0
53.691208 92.0
53.828381 144.0
53.842987 160.0
54.030083 124.0
54.126682 180.0
54.343613 208.0
54.386169 196.0
54.643333 164.0
54.771408 216.0
54.87014 232.0
55.045723 156.0
55.070827 40.0
55.09594 204.0
55.205315 168.0
55.393284 140.0
55.547447 172.0
55.562279 208.0
55.580086 96.0
55.990368 148.0
56.130447 128.0
56.233383 224.0
56.322968 216.0
56.340893 172.0
56.355835 184.0
56.55024 192.0
56.692513 40.0
56.7075 180.0
56.792961 132.0
56.953568 156.0
56.995632 104.0
57.030197 224.0
57.045227 156.0
57.067776 156.0
57.203175 144.0
57.344761 232.0
57.51218 60.0
57.555962 148.0
57.580124 228.0
57.729736 92.0
57.961338 72.0
58.081104 96.0
58.31797 168.0
58.333172 172.0
58.46854 144.0
58.479191 136.0
58.581211 196.0
58.654354 168.0
58.726017 156.0
59.302433 176.0
59.342289 164.0
59.418976 192.0
59.577103 176.0
60.146862 192.0
60.347691 168.0
60.539566 300.0
60.592228 152.0
61.017471 164.0
61.227535 164.0
61.310101 132.0
61.712833 148.0
61.827023 104.0
62.024364 168.0
62.136135 132.0
62.226734 160.0
62.247147 176.0
62.364971 56.0
62.456169 220.0
62.643486 76.0
62.674995 180.0
62.738037 156.0
62.868565 196.0
63.061626 112.0
63.102726 140.0
63.466888 176.0
63.52557 184.0
63.676357 132.0
63.867085 196.0
63.995987 208.0
64.067657 36.0
64.270134 188.0
64.586449 148.0
65.017738 192.0
65.293762 84.0
65.543282 148.0
65.848167 192.0
65.890167 92.0
65.951576 152.0
66.241623 176.0
66.299545 184.0
66.369247 80.0
67.078079 208.0
67.219971 184.0
67.239548 180.0
67.399582 228.0
67.425728 176.0
67.505836 128.0
67.646538 116.0
67.721863 124.0
67.739883 124.0
67.836563 148.0
67.848038 152.0
67.859512 180.0
68.036697 120.0
68.087601 192.0
68.317719 168.0
68.373657 80.0
68.526802 48.0
68.698257 120.0
68.784065 124.0
68.830292 164.0
69.030235 156.0
69.151001 248.0
69.232124 156.0
69.280159 232.0
69.406113 196.0
69.497345 196.0
69.590286 188.0
69.686623 148.0
69.889465 208.0
69.932732 140.0
70.294373 132.0
70.306061 60.0
70.379501 160.0
70.533203 108.0
70.8545 48.0
70.888824 168.0
70.945 172.0
71.410118 128.0
71.58683 184.0
71.635674 172.0
71.655884 180.0
71.676102 180.0
71.905449 152.0
72.02195 120.0
72.162209 132.0
72.190231 316.0
72.245079 188.0
72.348312 216.0
72.447502 140.0
72.500748 40.0
72.571945 208.0
72.604164 196.0
72.624512 144.0
72.870659 124.0
72.998146 148.0
73.013451 160.0
73.042358 180.0
73.212563 164.0
73.328407 156.0
73.439232 196.0
73.451172 152.0
73.48188 216.0
73.633804 184.0
73.799561 120.0
73.83889 120.0
74.085373 160.0
74.212196 192.0
74.380318 116.0
74.718849 104.0
74.901329 108.0
75.023674 184.0
75.151299 168.0
75.332573 112.0
75.344666 136.0
75.391319 108.0
75.520981 128.0
75.581535 144.0
75.730415 212.0
75.758125 220.0
75.999115 124.0
76.11367 216.0
76.264816 116.0
76.282196 140.0
77.365509 164.0
77.677429 164.0
77.810806 140.0
78.102516 160.0
78.269699 156.0
78.35424 120.0
78.399544 200.0
78.431778 136.0
78.526993 216.0
78.82534 136.0
78.906647 164.0
78.987991 116.0
79.080002 128.0
79.372307 124.0
79.857117 96.0
80.024391 168.0
80.09919 188.0
80.122025 196.0
80.150856 184.0
80.282768 240.0
80.450485 180.0
80.516548 160.0
80.58979 184.0
80.632675 152.0
80.684517 148.0
80.902771 124.0
80.927834 72.0
80.974396 140.0
81.15538 196.0
81.48024 136.0
81.584473 132.0
81.694168 200.0
81.715759 152.0
81.946213 240.0
81.996666 48.0
82.260002 144.0
82.319588 44.0
82.485802 128.0
82.610573 152.0
82.677521 152.0
82.713722 64.0
82.769844 148.0
82.970955 48.0
83.007217 152.0
83.448441 108.0
83.672218 44.0
83.765099 176.0
83.967415 184.0
84.109726 144.0
84.12616 88.0
84.243027 120.0
84.358154 168.0
84.466042 92.0
84.982658 180.0
85.05423 176.0
85.071297 176.0
85.208488 260.0
85.484291 148.0
85.780815 220.0
86.01693 180.0
86.490128 176.0
86.525299 196.0
86.734627 136.0
86.946068 192.0
87.198647 304.0
87.250694 136.0
87.686264 168.0
87.839157 116.0
87.893257 204.0
87.951111 164.0
87.99778 76.0
88.023926 180.0
88.283669 156.0
88.309853 148.0
88.470779 128.0
88.558784 156.0
88.599991 108.0
88.785561 156.0
88.971321 156.0
89.096535 148.0
89.121567 160.0
89.275703 164.0
89.303917 200.0
89.435623 164.0
89.631485 212.0
89.859627 156.0
89.895477 200.0
89.985519 176.0
89.999298 92.0
90.037064 200.0
90.115295 240.0
90.292198 172.0
90.500351 184.0
90.596939 196.0
90.784584 136.0
90.801651 148.0
90.913582 176.0
90.98761 224.0
91.05529 3700.0
91.095856 188.0
91.270699 72.0
91.539001 220.0
91.725708 156.0
92.021912 212.0
92.058624 484.0
92.076782 52.0
92.092064 52.0
92.61039 196.0
92.731102 172.0
92.971596 140.0
93.071289 228.0
93.143623 60.0
93.174362 76.0
93.223389 124.0
93.366577 164.0
93.397346 240.0
93.522415 176.0
93.657196 128.0
94.315163 244.0
94.365425 152.0
94.421501 212.0
94.551117 144.0
94.804817 108.0
94.830078 120.0
94.899796 216.0
95.247833 260.0
95.381248 124.0
95.832741 152.0
96.787865 196.0
96.834862 148.0
97.005333 176.0
97.066109 144.0
97.122986 204.0
97.152405 40.0
97.334938 144.0
97.358498 60.0
97.661163 224.0
97.84108 212.0
97.974144 180.0
97.993851 56.0
98.023407 164.0
98.052963 192.0
98.066757 80.0
98.459373 188.0
98.854752 120.0
99.017082 176.0
99.373894 112.0
99.560478 176.0
99.614105 176.0
100.136192 200.0
100.157143 176.0
100.294632 140.0
100.342476 196.0
100.729622 140.0
100.769577 220.0
100.97747 128.0
101.642563 152.0
101.827248 76.0
101.947784 156.0
102.046196 188.0
102.076439 92.0
102.128151 1136.0
102.168961 352.0
102.521324 64.0
102.60598 168.0
102.663429 236.0
102.989388 188.0
103.003525 60.0
103.054321 1116.0
103.096466 164.0
103.127663 208.0
103.324951 60.0
103.385651 56.0
103.535461 56.0
103.624588 104.0
103.715782 164.0
103.729973 152.0
103.760376 144.0
103.936836 236.0
104.062164 424.0
104.253616 188.0
104.564766 140.0
104.705246 84.0
104.760239 212.0
105.017075 60.0
105.071968 504.0
105.388611 88.0
105.513283 52.0
105.787415 148.0
106.0578 196.0
106.096748 184.0
106.148003 108.0
106.236198 224.0
106.287491 140.0
106.305954 132.0
106.43528 212.0
106.616051 164.0
106.714714 128.0
106.735275 188.0
106.819595 152.0
106.871033 116.0
106.903954 120.0
106.953346 180.0
107.009148 152.0
107.049469 20188.0
107.118073 172.0
107.160599 112.0
107.184006 52.0
107.200485 96.0
107.232536 152.0
107.263565 92.0
107.305611 76.0
107.522202 156.0
107.544899 204.0
107.592377 176.0
107.691498 152.0
107.734871 52.0
108.016006 320.0
108.052864 1544.0
108.341011 88.0
108.616714 240.0
108.666504 60.0
108.749512 160.0
108.782722 76.0
109.055725 180.0
109.071457 120.0
109.277336 128.0
109.512566 176.0
109.710518 132.0
110.188431 112.0
110.299187 252.0
110.361908 184.0
110.656914 168.0
110.950218 180.0
111.598969 108.0
111.874573 192.0
111.906151 220.0
112.477448 156.0
112.760475 168.0
112.77739 164.0
112.798523 124.0
112.950768 116.0
112.990959 136.0
113.380569 148.0
113.558662 176.0
113.700806 60.0
114.183075 116.0
114.534256 112.0
114.566208 192.0
114.745224 216.0
114.890244 196.0
115.014015 212.0
115.055252 1072.0
115.127167 144.0
115.313034 156.0
115.937958 204.0
115.98082 92.0
116.058022 360.0
116.096596 212.0
116.126617 132.0
116.253197 152.0
116.291824 140.0
116.321877 60.0
116.586052 152.0
116.650536 188.0
116.715034 180.0
117.070061 1740.0
117.102386 32.0
117.23381 48.0
117.276909 44.0
117.60907 136.0
117.75589 176.0
117.803413 92.0
118.015205 164.0
118.041153 200.0
118.07209 144.0
118.450203 204.0
118.614883 196.0
118.807884 184.0
118.872971 188.0
118.987068 212.0
119.011894 180.0
119.047974 784.0
119.086212 9440.0
119.168274 48.0
119.190002 32.0
119.21608 92.0
119.382278 132.0
119.400864 40.0
119.476997 100.0
119.513977 108.0
119.640213 212.0
119.943008 200.0
119.977882 112.0
120.047043 156.0
120.090744 604.0
120.137077 108.0
120.418655 144.0
120.523918 172.0
120.627327 248.0
120.761795 80.0
120.778709 104.0
121.066498 196.0
121.092285 120.0
121.754616 128.0
121.798546 200.0
121.902634 180.0
122.187637 152.0
122.456192 204.0
122.473808 136.0
122.533287 84.0
122.572952 152.0
123.228264 108.0
123.909691 68.0
124.342094 52.0
124.806366 240.0
124.893097 120.0
125.322754 172.0
125.980896 140.0
126.045692 176.0
126.159676 136.0
126.833458 84.0
126.974716 112.0
127.054619 464.0
127.715889 56.0
127.875633 204.0
128.061737 3444.0
128.425385 72.0
128.526901 96.0
128.96727 120.0
129.069916 2528.0
129.115204 168.0
129.390289 104.0
129.686844 96.0
129.972778 236.0
130.004547 196.0
130.072052 328.0
130.113968 192.0
130.302002 176.0
130.390625 184.0
130.8797 164.0
131.048843 3888.0
131.078125 72.0
131.128555 176.0
131.166763 144.0
131.356018 116.0
131.385681 116.0
131.403931 124.0
131.757797 112.0
131.855652 180.0
131.938339 228.0
132.057312 16640.0
132.159958 164.0
132.212814 116.0
132.273926 80.0
132.34787 128.0
132.41745 52.0
132.528824 52.0
132.673203 60.0
132.780975 212.0
132.803909 40.0
132.895676 36.0
132.946152 192.0
133.061234 1636.0
133.116028 100.0
133.134399 48.0
133.196411 32.0
133.598694 48.0
133.7966 144.0
133.870285 64.0
133.932465 84.0
133.979568 108.0
134.006195 156.0
134.065613 136.0
134.162903 68.0
134.181351 140.0
134.217133 108.0
134.418915 108.0
134.495071 32.0
134.534317 60.0
134.610504 168.0
134.71907 60.0
134.936295 108.0
135.243973 72.0
135.322678 52.0
135.480164 64.0
136.236435 140.0
136.787552 208.0
137.603485 132.0
137.643173 196.0
137.84407 60.0
138.070816 168.0
138.321167 116.0
138.550659 268.0
138.939835 156.0
138.967987 52.0
139.127579 140.0
139.719803 208.0
139.928741 164.0
140.153 80.0
140.329773 52.0
141.144379 144.0
141.246063 212.0
141.589264 76.0
142.148727 44.0
142.305374 204.0
142.393234 52.0
142.485886 72.0
142.721176 92.0
143.354355 120.0
144.031921 168.0
144.060577 156.0
144.524399 180.0
144.687134 128.0
145.065353 1208.0
145.111191 132.0
145.195129 172.0
145.396652 96.0
145.857788 76.0
145.982803 108.0
146.073273 356.0
146.143967 180.0
146.367828 76.0
146.423203 136.0
146.577377 96.0
146.723846 172.0
146.811218 76.0
146.852219 172.0
146.911377 212.0
147.026611 168.0
147.081177 40876.0
147.127289 160.0
147.143799 48.0
147.179871 140.0
147.197174 144.0
147.245605 36.0
147.288361 172.0
147.311371 176.0
147.33606 108.0
147.367645 212.0
147.400223 48.0
147.433868 52.0
147.485962 128.0
147.532349 64.0
147.652664 64.0
147.679718 108.0
147.704834 108.0
147.735291 136.0
147.781326 176.0
147.808868 60.0
147.925034 64.0
148.083557 4648.0
148.157516 48.0
148.176895 120.0
148.218094 48.0
148.299423 64.0
148.56601 80.0
148.824478 68.0
148.846329 68.0
149.057663 192.0
149.088303 408.0
149.142715 116.0
149.27887 36.0
149.334793 40.0
149.802139 140.0
150.094604 124.0
150.255585 76.0
150.309265 56.0
151.152267 60.0
151.811218 76.0
152.756805 44.0
154.068283 244.0
155.060486 180.0
156.468933 88.0
157.080734 156.0
157.65123 72.0
158.199585 64.0
158.895676 88.0
159.563736 68.0
161.103546 128.0
161.358795 48.0
161.624374 76.0
162.513718 80.0
165.053192 128.0
168.797165 92.0
171.546646 56.0
191.966171 48.0
195.161621 52.0
199.031525 236.0
199.388275 100.0
202.1548 200.0
207.604477 196.0
208.721527 76.0
210.588943 52.0
216.346497 68.0
225.047791 148.0
229.385895 84.0
237.327042 68.0
248.205032 564.0
248.565613 44.0
249.206146 152.0
263.212646 96.0
263.490417 96.0
263.561493 92.0
265.283264 64.0
268.042603 72.0
271.248718 76.0
278.83371 100.0
293.962463 60.0
299.489014 40.0
305.874054 104.0
309.308807 76.0
321.931305 96.0
332.650146 116.0
345.143677 44.0
370.584106 40.0
375.358002 120.0
377.037262 68.0
381.650177 56.0
406.430573 72.0
520.422852 64.0
531.202515 100.0
596.756104 76.0
702.908508 64.0
723.306458 180.0
730.45929 148.0
784.014526 192.0
812.029968 120.0
812.353271 172.0
820.183289 44.0
854.058838 20.0
859.068298 168.0
867.289795 128.0
867.395264 40.0
877.683594 172.0
880.705139 152.0
889.492188 208.0
894.015137 180.0
894.526978 108.0
897.893433 192.0
902.264282 124.0
909.758667 172.0
913.032715 196.0
914.019897 136.0
914.314758 152.0
924.108276 212.0
924.386658 184.0
930.872742 128.0
941.987854 176.0
944.922241 100.0
950.405823 168.0
952.603699 208.0
961.568726 180.0
971.878296 196.0
972.610596 116.0
974.653748 188.0
978.19873 256.0
982.72937 216.0
987.401917 192.0
993.27063 152.0
993.753723 160.0
997.125793 136.0
997.528015 84.0
1002.701843 136.0
1005.136047 48.0
1006.935181 176.0
1012.829956 244.0
1015.847168 220.0
1018.500488 164.0
1019.841187 168.0
1020.285156 132.0
1020.699402 236.0
1024.575439 208.0
1025.040649 216.0
1028.10791 208.0
1030.764404 136.0
1039.774536 192.0
1043.223755 40.0
1050.881226 236.0
1051.28772 176.0
1052.753052 136.0
1053.857666 180.0
1053.95459 148.0
1054.684814 192.0
1055.725708 204.0
1056.786499 240.0
1057.899658 144.0
1058.631348 188.0
1061.145386 104.0
1061.346313 216.0
1061.703003 188.0
1064.59082 184.0
1067.37207 112.0
1067.924805 148.0
1068.165527 76.0
1077.441895 120.0
1081.810303 152.0
1083.250977 180.0
1084.227295 148.0
1091.454712 172.0
1091.875488 180.0
1094.079834 156.0
1097.195923 116.0
1097.762939 192.0
1101.452271 208.0
1104.697876 56.0
1108.816284 180.0
1113.726074 176.0
1114.051514 32.0
1116.238159 160.0
1116.849976 168.0
1119.592041 88.0
1121.050903 40.0
1122.804199 248.0
1125.393311 188.0
1126.167969 160.0
1129.376221 76.0
1132.582275 172.0
1140.627563 92.0
1141.743652 116.0
1142.248047 48.0
1143.937134 52.0
1145.465698 140.0
1146.516724 92.0
1147.305298 188.0
1148.593262 176.0
1149.706543 128.0
1151.691528 204.0
1155.889771 48.0
1158.713135 160.0
1159.675415 160.0
1160.014282 228.0
1160.197266 124.0
1162.008057 136.0
1162.096313 196.0
1166.544556 188.0
1166.951416 124.0
1168.700439 176.0
1169.53064 172.0
1170.245483 144.0
1172.404785 188.0
1173.311279 48.0
1174.770752 100.0
1177.77417 220.0
1178.450439 52.0
1178.846802 224.0
1182.998413 184.0
1185.436646 148.0
1186.361938 220.0
1193.907837 84.0
1196.081909 204.0
1196.708374 216.0
1196.811646 140.0
1197.231689 124.0
1202.636841 160.0
1204.729126 116.0
1206.740234 152.0
1207.438599 40.0
1207.860474 120.0
1208.801392 124.0
1212.367798 132.0
1214.107788 204.0
1214.426758 136.0
1215.932373 172.0
1216.321045 148.0
1220.3573 192.0
1220.746582 216.0
1225.082764 116.0
1225.333618 176.0
1230.061646 176.0
1231.940186 232.0
1235.866821 116.0
1239.986816 124.0
1242.230469 112.0
1246.773193 172.0
1248.101807 136.0
1248.305664 120.0
1249.901367 168.0
1250.979248 172.0
1251.289062 168.0
1251.78894 164.0
1256.18689 192.0
1256.440796 188.0
1257.569824 96.0
1258.974731 156.0
1259.123047 180.0
1260.055542 172.0
1261.786987 72.0
1262.147583 168.0
1265.097778 220.0
1265.359741 164.0
1265.642944 248.0
1267.5625 160.0
1272.811646 148.0
1273.450684 108.0
1273.543091 156.0
1273.614136 228.0
1274.978149 160.0
1275.198486 136.0
1277.082642 272.0
1281.254028 168.0
1286.238647 160.0
1286.459839 124.0
1288.823853 172.0
1288.888184 136.0
1289.086304 152.0
1290.153198 132.0
1292.52771 224.0
1292.670776 144.0
1295.412964 104.0
1296.609497 188.0
1299.176392 188.0
1299.771973 128.0
1300.92749 116.0
1303.038818 208.0
1304.217285 124.0
1304.2677 176.0
1304.821167 220.0
1310.225952 196.0
1310.406128 136.0
1311.249146 152.0
1312.438599 204.0
1314.66748 144.0
1315.08606 160.0
1316.602295 204.0
1317.252319 256.0
1318.697388 44.0
1319.940796 156.0
1321.561035 224.0
1323.406616 152.0
1323.899048 184.0
1324.695801 204.0
1324.775269 204.0
1325.731812 192.0
1326.478394 176.0
1327.355591 192.0
1327.529663 124.0
1327.747192 96.0
1330.460938 152.0
1330.925537 180.0
1334.340454 200.0
1335.780273 152.0
1336.529663 164.0
1337.126343 204.0
1338.189087 128.0
1338.560425 160.0
1341.044678 52.0
1341.642456 140.0
1344.209717 164.0
1344.633057 240.0
1345.662231 96.0
1346.071167 188.0
1346.925659 148.0
1348.079956 244.0
1349.593018 132.0
1349.892822 144.0
1349.944092 172.0
1350.616943 164.0
1352.285034 104.0
1353.361206 172.0
1354.342529 68.0
1358.689453 128.0
1359.254395 180.0
1359.474487 180.0
1360.626831 152.0
1360.795776 196.0
1361.515381 92.0
1362.727417 152.0
1363.065308 148.0
1363.366577 52.0
1363.44751 108.0
1363.587158 84.0
1364.175171 208.0
1365.888428 156.0
1366.77124 172.0
1367.117188 132.0
1369.355225 164.0
1369.458252 44.0
1369.546631 36.0
1369.627686 72.0
1371.108643 136.0
1372.922119 96.0
1373.453125 224.0
1374.094971 76.0
1374.685303 92.0
1375.135376 120.0
1378.532593 200.0
1379.988647 140.0
1383.488037 148.0
1383.828613 112.0
1385.769043 200.0
1386.799194 144.0
1390.366455 104.0
1391.256226 224.0
1391.546753 172.0
1392.111084 128.0
1392.564087 72.0
1395.120117 216.0
1395.990112 200.0
1396.109009 148.0
1396.235474 88.0
1397.209839 132.0
1397.745605 120.0
1397.939087 216.0
1398.296265 108.0
1398.995972 144.0
1399.092773 204.0
1400.477783 200.0
1402.578979 132.0
1404.96521 136.0
1405.569458 120.0
1410.857422 228.0
1411.216309 204.0
1415.121826 176.0
1415.323975 64.0
1416.559692 220.0
1417.735962 176.0
1417.795898 152.0
1418.328125 144.0
1419.085205 184.0
1422.566162 180.0
1424.368408 144.0
1428.540283 144.0
1428.64563 168.0
1428.818726 200.0
1429.112061 124.0
1429.616211 36.0
1431.498169 216.0
1432.537598 148.0
1432.650513 140.0
1432.76355 184.0
1433.456787 180.0
1435.801147 152.0
1438.245728 176.0
1438.419312 228.0
1440.057739 168.0
1444.063477 168.0
1444.540039 168.0
1444.782104 148.0
1446.938965 200.0
1447.461426 116.0
1447.991455 112.0
1448.392944 252.0
1450.643433 216.0
1450.787476 140.0
1451.856567 136.0
1452.425415 208.0
1452.90332 128.0
1453.669678 196.0
1456.736938 108.0
1457.276367 156.0
1457.975464 52.0
1459.328491 148.0
1459.754272 152.0
1461.85376 168.0
1462.074463 156.0
1462.196167 160.0
1463.505493 72.0
1463.627319 228.0
1465.242065 76.0
1465.470581 148.0
1468.428345 176.0
1468.657104 88.0
1469.793823 216.0
1470.602783 232.0
1470.785889 172.0
1471.671509 180.0
1472.702393 200.0
1472.832275 48.0
1473.649658 60.0
1473.848267 164.0
1473.955322 228.0
1476.982666 128.0
1477.411133 172.0
1478.038452 224.0
1479.967285 80.0
1480.204712 168.0
1480.901611 192.0
1482.648315 144.0
1484.61853 108.0
1486.66687 164.0
1487.395874 188.0
1488.148315 200.0
1489.161865 160.0
1489.609131 184.0
1489.82251 136.0
1489.999146 96.0
1490.498657 40.0
1492.32019 184.0
1492.743164 44.0
1493.935303 180.0
1495.250977 176.0
1495.389526 76.0
1495.751343 104.0
1496.089966 112.0
1497.0448 176.0
1498.207764 176.0
1498.585327 144.0
1500.781982 204.0
1500.851318 208.0
1501.439941 228.0
1501.907837 108.0
1503.497192 156.0
1504.616455 168.0
