>compound MLS000069687-01!NOMIFENSINE MALEATE SALT
>formula C16H18N2
>ionization [M+H]+
>parentmass 239.154007
#inchi InChI=1S/C16H18N2/c1-18-10-14(12-6-3-2-4-7-12)13-8-5-9-16(17)15(13)11-18/h2-9,14H,10-11,17H2,1H3
#inchikey XXPANQJNYNUNES
#origInchi InChI=1S/C16H18N2.C4H4O4/c1-18-10-14(12-6-3-2-4-7-12)13-8-5-9-16(17)15(13)11-18;5-3(6)1-2-4(7)8/h2-9,14H,10-11,17H2,1H3;1-2H,(H,5,6)(H,7,8)/b;2-1-
#Ion_Source LC-ESI
#Instrument qTof
#Compound_Source NIH Pharmacologically Active Library
#PI Dorrestein
#Data_Collector VP/LMS
#Scan -1
#Precursor_MZ 239.15
#ExactMass 238.147
#Charge 1
#CAS_Number N/A
#Pubmed_ID N/A
#Smiles CN1CC(c2ccccc2)c3cccc(N)c3C1.OC(=O)/C=C\C(=O)O
#INCHI_AUX N/A
#Library_Class 1
#SpectrumID CCMSLIB00000085374
#IonMode Positive
#UpdateWorkflowName UPDATE-SINGLE-ANNOTATED-GOLD
#LibraryQualityString Gold
#TaskID d252d724072548979f1f6f1ced849daf
##Scan# 1432
#SpectrumFile p3-H11_GH11_01_18316.mzXML
#LibraryName Pharm_Active_Library.mgf
#MQScore -1
#Organism Pharm_Active_Library
#TIC_Query 0
#RT_Query -1
#MZErrorPPM -1
#SharedPeaks 0
#MassDiff 0
#LibMZ -1
#SpecMZ 239.15
#SpecCharge 0
#internalFilename spec-00000.mgf

>collision 10
44.917469 140.0
44.950825 172.0
45.071011 164.0
45.167274 188.0
45.393627 132.0
45.431187 212.0
45.467415 176.0
45.693176 136.0
45.726818 256.0
45.748356 244.0
45.766041 128.0
45.819736 144.0
45.898724 280.0
46.001808 152.0
46.406345 164.0
46.445675 72.0
46.46331 156.0
46.677925 80.0
46.8181 148.0
46.868504 204.0
47.096344 120.0
47.198849 276.0
47.212524 192.0
47.300095 132.0
47.328846 144.0
47.369934 152.0
47.400078 164.0
47.411041 260.0
47.436153 200.0
47.471363 224.0
47.522118 156.0
47.649811 200.0
47.772175 52.0
47.81208 176.0
47.850624 116.0
47.978756 132.0
48.007713 172.0
48.136829 200.0
48.175869 224.0
48.293617 324.0
48.319901 64.0
48.54985 152.0
48.595631 188.0
48.621998 100.0
48.64143 140.0
48.742821 148.0
48.762276 128.0
49.099216 196.0
49.149437 128.0
49.215046 184.0
49.277901 256.0
49.296066 68.0
49.315632 188.0
49.375755 76.0
49.389744 196.0
49.460426 172.0
49.793427 180.0
49.820118 184.0
49.969151 244.0
49.991665 108.0
50.324345 168.0
50.370953 152.0
50.653877 168.0
50.726151 168.0
50.750256 264.0
50.780037 236.0
50.963173 136.0
50.978802 172.0
51.004387 132.0
51.037086 196.0
51.076908 176.0
51.123863 132.0
51.144424 188.0
51.290508 188.0
51.380356 160.0
51.431732 52.0
51.617466 136.0
51.630337 180.0
51.66753 64.0
51.779186 132.0
51.850822 168.0
51.892395 124.0
51.998554 192.0
52.199688 140.0
52.30616 132.0
52.336395 92.0
52.394619 180.0
52.431473 164.0
52.578587 124.0
52.621891 156.0
52.632 92.0
52.678219 136.0
52.845932 100.0
52.85606 176.0
52.899479 136.0
53.1096 140.0
53.154579 216.0
53.187962 68.0
53.375381 172.0
53.475769 180.0
53.503426 108.0
53.576248 52.0
53.720577 268.0
53.885555 128.0
54.036156 164.0
54.069813 104.0
54.082272 164.0
54.110802 164.0
54.43486 144.0
54.524479 48.0
54.627411 196.0
54.640652 176.0
54.733383 220.0
54.891056 188.0
54.936783 128.0
54.954487 168.0
55.128735 164.0
55.343235 40.0
55.543312 172.0
55.574471 104.0
55.58931 200.0
55.708092 180.0
55.977314 184.0
56.005611 216.0
56.029446 112.0
56.057758 144.0
56.089058 92.0
56.112911 92.0
56.200912 432.0
56.241207 164.0
56.287491 228.0
56.311386 204.0
56.349957 220.0
56.499741 152.0
56.576069 164.0
56.612007 184.0
56.737877 240.0
56.766365 92.0
56.808361 164.0
56.829369 108.0
56.862381 72.0
56.987026 176.0
57.303001 208.0
57.351227 124.0
57.532249 176.0
57.574532 168.0
57.637981 216.0
57.781628 308.0
57.901215 176.0
57.920906 144.0
57.973938 36.0
58.159794 104.0
58.339748 220.0
58.371681 148.0
58.392971 132.0
58.502533 108.0
58.542122 148.0
58.557499 212.0
58.711288 172.0
58.729591 232.0
58.818096 80.0
58.90514 204.0
59.024357 148.0
59.085537 36.0
59.119202 124.0
59.143692 136.0
59.203403 100.0
59.249359 136.0
59.321388 208.0
59.447163 200.0
59.467113 116.0
59.623779 204.0
59.64991 188.0
59.74218 152.0
59.782188 128.0
59.839142 144.0
59.883801 168.0
59.968548 180.0
60.404385 80.0
60.419254 144.0
60.499947 176.0
60.597519 140.0
60.698277 184.0
60.859657 168.0
60.875092 136.0
60.944389 196.0
60.982388 236.0
61.016586 168.0
61.058575 156.0
61.099018 176.0
61.377827 136.0
61.816792 164.0
61.893497 124.0
61.970249 168.0
62.094296 156.0
62.164692 220.0
62.180386 144.0
62.207073 180.0
62.285591 144.0
62.296585 184.0
62.464798 176.0
62.567089 212.0
62.841335 60.0
62.923412 168.0
63.021339 176.0
63.130413 40.0
63.185776 132.0
63.212677 176.0
63.366272 52.0
63.377365 128.0
63.424908 48.0
63.472473 128.0
63.534332 152.0
63.67561 160.0
63.696259 224.0
63.799557 92.0
63.925217 184.0
63.939541 164.0
63.99844 168.0
64.092422 200.0
64.302933 192.0
64.362862 188.0
64.395538 152.0
64.435478 144.0
64.707375 212.0
64.773041 196.0
65.196632 120.0
65.209488 112.0
65.241447 168.0
65.417 240.0
65.455643 248.0
65.508789 432.0
65.544235 172.0
65.621605 196.0
65.929321 200.0
65.949326 152.0
65.980042 140.0
66.009148 212.0
66.120293 160.0
66.285965 228.0
66.316582 144.0
66.334587 160.0
66.38485 176.0
66.71447 152.0
66.733978 136.0
66.841339 60.0
66.859238 120.0
67.076454 168.0
67.090546 148.0
67.374519 168.0
67.425179 168.0
67.698395 188.0
67.763916 68.0
67.798325 164.0
67.861397 220.0
67.914742 220.0
68.009911 216.0
68.050949 108.0
68.073944 112.0
68.197166 188.0
68.226898 232.0
68.333656 156.0
68.485115 136.0
68.537834 52.0
68.641685 80.0
68.699417 228.0
68.816597 160.0
68.844666 48.0
68.904137 112.0
68.950401 216.0
68.988426 208.0
69.145569 128.0
69.249878 192.0
69.327751 176.0
69.399033 124.0
69.533623 148.0
69.574898 100.0
69.594826 188.0
69.734375 100.0
69.869072 172.0
70.120522 104.0
70.137192 172.0
70.235573 220.0
70.247246 216.0
70.277283 124.0
70.299629 132.0
70.486008 152.0
70.735214 128.0
70.860825 160.0
71.00666 172.0
71.045242 160.0
71.061745 192.0
71.077126 192.0
71.181206 168.0
71.201355 64.0
71.243347 32.0
71.283676 204.0
71.359314 144.0
71.520821 112.0
71.672394 156.0
71.810638 184.0
72.163589 176.0
72.232925 236.0
72.298256 236.0
72.371712 120.0
72.434372 100.0
72.535484 168.0
72.663246 192.0
72.965561 152.0
73.091431 236.0
73.299179 136.0
73.375885 136.0
73.496986 212.0
73.515984 120.0
73.573799 164.0
73.655769 176.0
73.718987 160.0
73.773682 136.0
73.957321 136.0
73.977264 168.0
74.011505 212.0
74.098862 192.0
74.287445 168.0
74.313179 180.0
74.431618 164.0
74.577652 60.0
74.589684 56.0
74.933884 64.0
75.097656 176.0
75.116631 268.0
75.228806 176.0
75.263336 184.0
75.320328 160.0
75.368706 116.0
75.456856 148.0
75.515656 96.0
75.576202 256.0
75.647209 152.0
75.719887 152.0
75.778786 164.0
75.971237 152.0
76.049873 176.0
76.169136 156.0
76.341209 252.0
76.388168 168.0
76.410789 192.0
76.567459 160.0
77.019211 96.0
77.10482 176.0
77.192238 144.0
77.332199 168.0
77.540627 220.0
77.715996 164.0
77.773911 196.0
77.923187 136.0
77.951302 156.0
78.074356 156.0
78.252678 168.0
78.359528 192.0
78.421211 212.0
78.475716 152.0
78.530525 112.0
78.54464 168.0
78.66993 168.0
78.698181 100.0
79.037567 188.0
79.278404 144.0
79.397186 96.0
79.608376 192.0
79.752289 136.0
79.816292 176.0
79.857193 156.0
79.912743 216.0
79.937256 132.0
79.972855 124.0
80.004898 176.0
80.150948 120.0
80.181244 124.0
80.227585 212.0
80.345299 160.0
80.620285 56.0
80.66497 184.0
80.697105 160.0
80.804466 64.0
80.825935 152.0
80.927963 188.0
80.951241 176.0
80.981689 108.0
81.173264 188.0
81.189598 164.0
81.344421 224.0
81.363655 140.0
81.560463 120.0
81.611603 132.0
81.674545 188.0
81.766312 36.0
81.912163 104.0
82.105377 208.0
82.141098 216.0
82.23674 164.0
82.251175 236.0
82.281082 152.0
82.306503 168.0
82.327011 108.0
82.415527 108.0
82.475166 132.0
82.88781 156.0
83.063683 156.0
83.092705 128.0
83.130814 156.0
83.163483 52.0
83.395515 204.0
83.483246 172.0
83.532356 144.0
83.548729 164.0
83.617882 124.0
83.654282 168.0
83.727119 48.0
83.90023 44.0
83.92028 164.0
84.037209 188.0
84.057091 72.0
84.162964 104.0
84.265251 176.0
84.320076 144.0
84.535881 96.0
84.81427 72.0
84.874771 120.0
84.913284 52.0
85.093124 232.0
85.107811 32.0
85.148216 200.0
85.192299 196.0
85.216187 88.0
85.486488 196.0
85.617203 96.0
85.725899 52.0
85.803314 148.0
85.952721 152.0
86.054237 140.0
86.122574 152.0
86.264854 216.0
86.329575 204.0
86.342522 40.0
86.444267 96.0
86.46093 160.0
86.514603 120.0
86.533119 120.0
86.595192 216.0
86.688721 204.0
86.779549 152.0
86.815758 220.0
87.043037 152.0
87.256721 240.0
87.368309 232.0
87.496727 236.0
87.655052 152.0
87.720284 188.0
87.794868 100.0
88.05616 140.0
88.102859 156.0
88.190689 176.0
88.27108 144.0
88.306618 204.0
88.334671 136.0
88.36274 144.0
88.377708 84.0
88.645485 124.0
88.660477 148.0
88.834854 184.0
88.89798 36.0
88.969978 148.0
89.036781 208.0
89.054482 212.0
89.107079 144.0
89.163452 196.0
89.189774 132.0
89.263092 104.0
89.295067 216.0
89.311996 160.0
89.325165 224.0
89.40419 164.0
89.438065 172.0
89.454056 160.0
89.575531 180.0
89.714981 216.0
90.035767 184.0
90.277672 32.0
90.45742 160.0
90.508537 140.0
90.586189 160.0
90.650002 212.0
90.701782 164.0
90.918015 236.0
90.973061 212.0
91.026222 200.0
91.054184 3860.0
91.090797 52.0
91.107895 176.0
91.123093 168.0
91.159203 236.0
91.225723 136.0
91.252342 156.0
91.54538 48.0
91.573952 116.0
91.619667 148.0
91.640625 168.0
91.692078 208.0
91.789307 200.0
91.938103 208.0
92.022095 240.0
92.056137 564.0
92.390968 184.0
92.634102 156.0
93.059868 164.0
93.292343 176.0
93.580933 148.0
93.69072 172.0
93.708061 208.0
93.798637 68.0
93.831413 32.0
93.931694 240.0
94.018524 140.0
94.064842 156.0
94.431984 116.0
94.511299 116.0
94.532585 300.0
94.712646 204.0
94.809525 164.0
94.832779 120.0
94.889 148.0
94.943298 44.0
94.966568 220.0
94.997604 248.0
95.191704 140.0
95.232483 184.0
95.246086 28.0
95.273277 108.0
95.407379 168.0
95.514336 168.0
95.744011 180.0
95.934967 168.0
96.011017 108.0
96.203781 152.0
96.299873 160.0
96.450325 188.0
96.464012 56.0
96.598946 160.0
96.616554 140.0
96.72419 104.0
96.784882 128.0
96.814255 108.0
97.006271 172.0
97.294662 144.0
97.351601 136.0
97.734932 132.0
97.772324 96.0
97.914078 180.0
97.939682 148.0
98.069725 80.0
98.111122 152.0
98.203804 40.0
98.450516 156.0
98.478165 132.0
98.820168 32.0
98.857765 124.0
98.929024 124.0
99.137001 192.0
99.164742 56.0
99.384872 208.0
99.503967 148.0
99.641006 180.0
99.700623 124.0
100.53508 100.0
100.592964 176.0
101.050629 104.0
101.126671 76.0
101.240791 104.0
101.26683 180.0
101.328934 152.0
101.389046 204.0
101.419113 248.0
101.445175 204.0
101.481262 140.0
101.54744 164.0
101.675842 152.0
101.732048 124.0
101.912811 184.0
102.067581 240.0
102.244614 164.0
102.43187 156.0
102.552773 112.0
102.566887 180.0
102.841209 64.0
102.867332 196.0
102.93206 204.0
103.016891 44.0
103.054474 2028.0
103.176552 160.0
103.273613 148.0
103.380844 136.0
103.398735 148.0
103.607628 236.0
103.631943 196.0
103.656258 72.0
103.678551 92.0
103.741386 220.0
103.765717 132.0
103.859001 80.0
103.960449 148.0
104.050552 288.0
104.05687 200.0
104.35656 232.0
104.509109 40.0
104.576271 188.0
104.677086 152.0
104.702499 176.0
104.812508 168.0
104.86142 216.0
105.070366 520.0
105.091858 76.0
105.328682 160.0
105.35524 152.0
105.55555 176.0
105.731483 92.0
105.745811 136.0
105.930099 136.0
105.944443 56.0
105.979271 148.0
106.014107 208.0
106.065872 2152.0
106.093521 164.0
106.155556 136.0
106.23912 184.0
106.278641 108.0
106.306595 172.0
106.350464 204.0
106.370995 216.0
106.438751 156.0
106.463394 196.0
106.503052 180.0
106.609818 188.0
106.716461 184.0
106.800461 76.0
106.899216 148.0
106.9198 140.0
106.956848 128.0
107.028908 152.0
107.071899 760.0
107.12365 128.0
107.150429 156.0
107.783875 124.0
107.829346 144.0
108.054749 52.0
108.080696 308.0
108.156151 20.0
108.247246 172.0
108.267952 188.0
108.381889 136.0
108.415047 152.0
108.655586 48.0
108.670105 168.0
108.703308 228.0
108.836159 196.0
108.900543 156.0
108.958702 80.0
109.044975 244.0
109.093796 136.0
109.266411 140.0
109.426674 244.0
109.732948 164.0
109.864342 156.0
109.890152 152.0
110.058449 192.0
110.369797 104.0
110.434624 196.0
110.620857 180.0
110.782112 100.0
110.800964 128.0
110.836586 188.0
110.868019 172.0
110.932999 124.0
111.081886 108.0
111.279167 164.0
111.464012 248.0
111.512344 204.0
111.545982 192.0
111.596436 156.0
111.663727 260.0
111.712112 72.0
111.789963 68.0
111.886787 28.0
111.933105 244.0
111.964699 116.0
112.28083 172.0
112.428513 160.0
112.485504 224.0
112.757988 100.0
112.846771 40.0
113.524384 140.0
113.736549 196.0
113.853333 132.0
113.938293 148.0
114.080688 160.0
114.125336 172.0
114.212532 184.0
114.244438 196.0
114.297203 120.0
114.324585 144.0
114.39341 172.0
114.985977 144.0
115.053993 4528.0
115.099129 60.0
115.481674 164.0
115.507339 80.0
115.717072 200.0
115.954857 128.0
116.0569 440.0
116.092064 228.0
116.195023 228.0
116.304474 48.0
116.321648 100.0
116.368645 188.0
116.630974 76.0
116.661064 120.0
116.689018 228.0
116.721268 144.0
116.824509 128.0
116.886116 164.0
116.940704 196.0
116.990417 216.0
117.027168 148.0
117.05719 5052.0
117.265938 56.0
117.287498 164.0
117.325691 156.0
117.378044 64.0
117.624008 256.0
117.745399 144.0
117.821671 188.0
117.87886 124.0
117.913445 244.0
117.976128 156.0
117.991264 208.0
118.02153 52.0
118.0653 22588.0
118.103714 44.0
118.183037 56.0
118.235695 48.0
118.274658 48.0
118.29847 48.0
118.325859 196.0
118.3302 128.0
118.356926 92.0
118.406738 60.0
118.486885 72.0
118.557739 172.0
118.608246 88.0
118.78389 172.0
118.846802 84.0
118.977028 188.0
119.000275 176.0
119.0075 76.0
119.068047 2576.0
119.113846 32.0
119.261604 128.0
119.276825 208.0
119.292038 204.0
119.329407 172.0
119.550873 144.0
119.622704 80.0
119.656189 136.0
119.681488 248.0
119.812172 44.0
119.862282 144.0
119.888435 168.0
119.956001 52.0
119.973442 108.0
120.014626 108.0
120.079788 2620.0
120.119553 112.0
120.175331 92.0
120.206825 132.0
120.30941 164.0
120.342163 212.0
120.444809 120.0
120.495056 88.0
120.56279 172.0
120.58287 128.0
120.683243 196.0
120.757378 128.0
121.081703 336.0
121.153587 52.0
121.245102 188.0
121.273346 180.0
121.310371 192.0
121.368378 236.0
121.438965 172.0
121.548248 72.0
121.574585 188.0
121.752411 204.0
121.908394 112.0
122.07547 116.0
122.247063 104.0
122.440796 68.0
122.522705 108.0
122.54409 184.0
122.98098 244.0
123.177162 180.0
123.325554 100.0
123.413879 260.0
123.63298 196.0
123.84996 156.0
123.969604 116.0
124.050156 188.0
124.100388 164.0
124.189095 132.0
124.379921 60.0
124.542023 144.0
124.741638 144.0
124.859856 48.0
124.997787 48.0
125.378601 172.0
125.48114 88.0
125.55027 196.0
125.768921 72.0
126.146439 160.0
126.490936 164.0
126.54467 200.0
126.596169 88.0
126.808624 236.0
126.843346 212.0
127.013054 140.0
127.058693 128.0
127.091576 208.0
127.19706 48.0
127.264412 196.0
127.385689 224.0
127.450844 196.0
127.563217 56.0
127.590195 172.0
127.623924 152.0
127.869133 48.0
127.887138 132.0
128.062088 320.0
128.094299 188.0
128.152878 172.0
128.234009 92.0
128.556519 164.0
128.599396 208.0
128.633255 124.0
128.689697 140.0
128.777771 148.0
128.828568 172.0
129.067703 456.0
129.231277 172.0
129.377014 184.0
129.587646 136.0
129.612564 156.0
129.639771 200.0
129.768967 164.0
129.891434 204.0
130.041199 168.0
130.06514 6944.0
130.150543 72.0
130.179688 200.0
130.288712 164.0
130.314682 64.0
130.354614 48.0
130.388702 60.0
130.450073 152.0
130.592712 148.0
130.804947 128.0
130.92334 172.0
130.944458 220.0
131.032684 92.0
131.068542 1744.0
131.148544 128.0
131.208176 28.0
131.231033 176.0
131.545822 96.0
131.80162 324.0
131.851898 52.0
131.872467 32.0
131.888458 116.0
131.915894 212.0
131.94104 76.0
132.080673 4308.0
132.107986 272.0
132.208664 52.0
132.247574 80.0
132.302521 72.0
132.32312 224.0
132.381958 156.0
132.556763 48.0
132.973389 156.0
133.076111 1576.0
133.141754 52.0
133.438187 136.0
133.716537 296.0
133.799408 76.0
133.817825 100.0
133.859268 48.0
133.918091 200.0
133.983658 108.0
134.07634 232.0
134.097321 504.0
134.216446 136.0
134.299469 196.0
134.377899 204.0
134.47377 140.0
134.615662 60.0
134.742706 96.0
134.88829 72.0
134.950714 116.0
135.061722 212.0
135.093628 152.0
135.242203 36.0
135.571091 44.0
135.765823 176.0
135.95607 176.0
136.097672 232.0
136.112991 208.0
136.148758 232.0
136.304413 148.0
136.506577 144.0
136.546188 44.0
136.602005 204.0
136.736969 172.0
136.930206 124.0
136.951172 164.0
137.303116 160.0
137.38475 208.0
137.508423 96.0
137.692871 120.0
137.746597 40.0
138.078751 196.0
138.19548 152.0
138.258667 108.0
138.422531 72.0
138.499817 168.0
138.56073 192.0
138.682587 184.0
138.942886 156.0
138.992157 108.0
139.053528 160.0
139.229263 148.0
139.51828 120.0
139.593521 204.0
139.617035 188.0
139.657028 152.0
139.710709 204.0
140.046906 144.0
140.170258 148.0
140.375122 208.0
140.592392 188.0
140.634872 120.0
140.922989 172.0
141.038788 252.0
141.070053 788.0
141.10025 76.0
141.225586 104.0
141.372269 228.0
141.81279 152.0
142.07637 564.0
142.280121 36.0
142.496246 152.0
142.567139 192.0
142.666138 148.0
142.909958 140.0
143.07518 492.0
143.162277 172.0
143.205154 172.0
143.312347 52.0
143.622284 116.0
143.918213 172.0
144.073318 344.0
144.235962 120.0
144.298111 172.0
144.365067 168.0
144.408112 176.0
144.46553 200.0
144.874893 176.0
145.052231 156.0
145.076309 748.0
145.109772 152.0
145.203293 144.0
145.268051 36.0
145.294449 60.0
145.328033 464.0
145.344833 176.0
145.500854 156.0
145.704987 144.0
145.808319 124.0
146.082642 2284.0
146.154617 80.0
146.183487 124.0
146.217804 184.0
146.23999 92.0
146.414597 124.0
146.448318 168.0
146.696579 168.0
146.809845 96.0
147.00766 60.0
147.090485 1900.0
147.176636 200.0
147.261475 96.0
147.373734 188.0
147.439957 160.0
147.45929 180.0
147.48587 72.0
147.519714 152.0
147.592255 100.0
147.618851 232.0
148.091965 152.0
148.277359 136.0
148.616852 180.0
148.767334 148.0
148.837753 116.0
148.953293 184.0
149.100113 176.0
149.136566 60.0
149.574402 160.0
149.623093 204.0
149.815491 80.0
149.834991 144.0
149.947083 120.0
150.000702 144.0
150.173828 204.0
150.298248 176.0
150.336563 120.0
150.693802 212.0
150.845703 132.0
150.879562 116.0
150.982254 192.0
151.050369 368.0
151.643311 168.0
151.770782 192.0
151.790405 172.0
151.846817 192.0
151.955124 132.0
152.061844 1072.0
152.367218 228.0
152.409546 88.0
152.642517 164.0
152.814697 180.0
152.989441 164.0
153.033752 148.0
153.069153 1368.0
153.405777 92.0
153.535583 260.0
153.563583 36.0
153.64711 224.0
153.914032 148.0
154.070068 236.0
154.31926 68.0
154.386017 36.0
154.410751 140.0
154.516754 132.0
154.757202 148.0
154.811691 100.0
154.8414 120.0
154.925629 144.0
154.952881 44.0
154.997177 168.0
155.063248 208.0
155.067978 176.0
155.083069 452.0
155.30986 124.0
155.562973 232.0
155.980301 196.0
156.080124 596.0
156.100815 220.0
156.139435 260.0
156.241425 132.0
156.274734 200.0
156.505249 176.0
156.574982 124.0
156.697037 164.0
156.931335 188.0
157.046051 160.0
157.210709 124.0
157.386993 168.0
157.865234 204.0
158.065369 156.0
158.082886 188.0
158.205521 176.0
158.343246 176.0
158.458481 160.0
158.509476 148.0
159.092896 444.0
159.1633 36.0
159.190918 148.0
159.243668 220.0
159.474823 140.0
159.796707 128.0
159.867172 180.0
159.993027 164.0
160.098328 332.0
160.451553 56.0
160.517105 144.0
160.547379 188.0
160.842575 180.0
160.864487 164.0
161.064789 116.0
161.107468 900.0
161.129379 308.0
161.198685 88.0
161.246704 84.0
161.313202 248.0
161.33168 196.0
161.522324 176.0
161.884247 172.0
161.939972 196.0
162.000763 84.0
162.112183 176.0
162.157867 44.0
162.256729 184.0
162.369247 216.0
162.388596 124.0
162.686523 136.0
162.85054 140.0
163.050644 592.0
163.107178 128.0
163.154343 192.0
163.23175 112.0
163.371643 152.0
163.486145 92.0
163.756027 200.0
163.784042 200.0
163.870651 96.0
164.018463 84.0
164.061142 344.0
164.316193 152.0
164.34491 132.0
164.452087 208.0
164.528671 200.0
164.600174 168.0
164.814743 108.0
164.890533 156.0
164.937408 160.0
164.962967 176.0
165.070862 4392.0
165.100327 308.0
165.118958 52.0
165.139404 144.0
165.431122 148.0
165.463577 124.0
165.618057 172.0
165.682098 188.0
165.85379 152.0
165.987106 56.0
166.076538 1324.0
166.138443 200.0
166.366852 204.0
166.64679 68.0
166.844696 180.0
166.870407 160.0
166.898697 216.0
166.973267 120.0
167.042709 156.0
167.0784 960.0
167.441681 88.0
167.619446 176.0
167.732849 96.0
168.034576 40.0
168.058701 576.0
168.082047 628.0
168.246216 80.0
168.488968 144.0
168.525146 132.0
168.623352 52.0
168.72934 80.0
168.858627 200.0
168.915527 228.0
169.068512 244.0
169.290833 76.0
169.490295 132.0
169.765076 56.0
170.00116 132.0
170.060852 172.0
170.094589 152.0
170.715561 116.0
170.897644 56.0
171.295975 56.0
171.405411 100.0
171.454926 132.0
171.767807 220.0
171.981781 156.0
172.096649 108.0
172.242905 108.0
172.512054 176.0
173.087662 164.0
173.237885 148.0
173.449219 144.0
173.491165 52.0
173.84227 172.0
173.955505 148.0
174.801819 176.0
174.949219 244.0
175.046631 172.0
175.373322 200.0
175.412872 128.0
175.441864 196.0
175.708237 156.0
175.787399 152.0
175.89032 64.0
175.927277 160.0
176.061752 472.0
176.20723 116.0
176.312927 148.0
176.34465 176.0
176.376358 132.0
176.42659 164.0
176.619629 188.0
176.836609 56.0
176.963669 160.0
177.013977 60.0
177.07045 1368.0
177.228546 164.0
177.427338 104.0
177.652756 160.0
177.729691 184.0
177.926102 84.0
178.033096 164.0
178.076981 18620.0
178.171326 120.0
178.216187 372.0
178.244278 188.0
178.305969 56.0
178.393677 80.0
178.441086 180.0
178.486435 176.0
178.511047 120.0
178.531952 132.0
178.686218 32.0
178.727051 164.0
178.784683 92.0
178.864532 164.0
178.912445 56.0
178.941727 128.0
178.960373 200.0
179.018951 212.0
179.037598 144.0
179.084518 12368.0
179.173447 36.0
179.200089 148.0
179.261368 164.0
179.306686 176.0
179.391022 112.0
179.426636 136.0
179.567963 72.0
179.605301 172.0
179.639984 52.0
179.669327 64.0
179.697647 104.0
179.728027 52.0
179.789413 44.0
179.85881 32.0
179.898849 124.0
179.992294 76.0
180.016327 200.0
180.080994 21568.0
180.119293 196.0
180.152542 48.0
180.171249 60.0
180.197662 72.0
180.227356 64.0
180.246063 88.0
180.272064 208.0
180.297592 128.0
180.338333 84.0
180.37851 36.0
180.388779 20.0
180.476959 84.0
180.521393 92.0
180.542801 152.0
180.7258 68.0
180.7556 176.0
180.78624 56.0
180.807648 84.0
180.842453 56.0
180.976303 144.0
180.996536 308.0
181.019821 48.0
181.043182 148.0
181.047607 140.0
181.088547 27740.0
181.187714 120.0
181.19841 52.0
181.208908 136.0
181.297394 60.0
181.335663 124.0
181.375488 140.0
181.411789 280.0
181.439499 112.0
181.506851 124.0
181.536652 36.0
181.576584 72.0
181.721436 100.0
181.742905 72.0
181.820724 76.0
181.844879 48.0
181.884552 92.0
181.960312 72.0
182.008636 68.0
182.051605 144.0
182.091492 3524.0
182.136002 104.0
182.161728 36.0
182.183228 44.0
182.261139 48.0
182.367264 188.0
182.503052 44.0
182.642899 76.0
182.731674 68.0
182.817795 48.0
182.836624 100.0
182.904816 84.0
183.02507 84.0
183.096725 488.0
183.158585 88.0
183.241821 132.0
183.461548 112.0
183.480408 132.0
183.539734 112.0
183.582886 80.0
183.663788 64.0
183.892899 180.0
184.021378 96.0
184.052429 40.0
184.244186 132.0
184.387405 40.0
184.596802 44.0
184.8228 164.0
184.88504 52.0
185.627319 52.0
185.790588 84.0
186.034302 92.0
186.227112 44.0
186.352066 156.0
186.517853 36.0
186.819702 164.0
186.890442 52.0
187.80307 192.0
187.983139 152.0
188.229507 176.0
188.529327 144.0
188.583984 48.0
188.693329 168.0
188.846466 112.0
189.06958 952.0
189.289825 80.0
189.670654 216.0
189.804993 44.0
189.848877 92.0
190.075958 468.0
190.224777 72.0
190.625778 144.0
190.801697 72.0
191.024445 188.0
191.085419 2408.0
191.159271 40.0
191.641159 160.0
192.08345 528.0
192.360977 76.0
192.421707 156.0
192.603973 72.0
192.761459 144.0
192.941116 56.0
193.051727 128.0
193.088501 7280.0
193.170654 88.0
193.217682 256.0
193.310379 104.0
193.375168 44.0
193.475067 40.0
193.516602 104.0
193.569763 196.0
193.619064 216.0
194.095886 7712.0
194.184464 40.0
194.228836 52.0
194.273224 56.0
194.339813 160.0
194.367554 88.0
194.431381 32.0
194.484116 148.0
194.659027 60.0
194.728455 56.0
194.750671 112.0
194.789566 92.0
194.909027 136.0
194.995178 172.0
195.059113 88.0
195.103516 3052.0
195.192566 36.0
195.342758 60.0
195.4767 124.0
195.504135 36.0
195.623825 120.0
195.673935 172.0
195.703506 92.0
195.726837 32.0
195.746338 44.0
195.807602 68.0
195.840805 200.0
195.874451 184.0
195.935745 104.0
195.966385 84.0
196.046387 152.0
196.070587 172.0
196.075714 156.0
196.11145 13880.0
196.173004 236.0
196.203293 48.0
196.226486 112.0
196.267426 48.0
196.331558 124.0
196.367813 52.0
196.387344 56.0
196.411316 124.0
196.459869 36.0
196.534439 44.0
196.604965 192.0
196.627289 68.0
196.791992 80.0
196.970718 72.0
197.040573 76.0
197.114273 2636.0
197.33403 92.0
197.359207 52.0
197.454285 124.0
197.616531 136.0
197.652908 136.0
197.739655 92.0
197.871231 132.0
197.969238 88.0
198.127808 540.0
198.187729 32.0
198.238174 32.0
198.278046 104.0
198.325058 84.0
198.358688 60.0
198.397934 44.0
198.532532 44.0
198.587875 152.0
198.700836 84.0
198.723282 144.0
199.128601 280.0
199.279205 48.0
200.331436 176.0
200.455399 148.0
200.483582 48.0
201.078659 168.0
201.58136 124.0
202.10733 144.0
202.752991 40.0
203.127258 64.0
203.552994 60.0
204.083069 172.0
204.941116 60.0
205.095016 176.0
205.317398 64.0
205.756836 92.0
206.09407 1748.0
206.734421 72.0
206.91188 120.0
207.1035 1124.0
207.262115 204.0
207.335831 188.0
207.467682 108.0
207.504227 116.0
207.685623 40.0
208.110611 4012.0
208.182144 40.0
208.239594 60.0
208.394714 96.0
208.541275 56.0
208.618896 32.0
208.653397 120.0
208.716644 108.0
208.866196 164.0
209.110718 716.0
209.151138 172.0
209.174103 36.0
210.127243 2872.0
210.174179 52.0
210.36235 40.0
210.428177 68.0
210.454163 96.0
211.08699 136.0
211.129196 524.0
211.211349 76.0
211.871384 48.0
211.91774 112.0
212.138 112.0
212.294571 84.0
212.404785 40.0
212.625305 52.0
212.784958 112.0
213.831451 68.0
215.169464 204.0
216.131073 108.0
216.655167 80.0
216.936508 52.0
217.0186 64.0
217.479187 180.0
218.051926 108.0
218.263596 172.0
219.081818 124.0
220.521835 188.0
221.083771 176.0
221.11235 152.0
221.809433 176.0
222.120148 592.0
223.026459 168.0
223.07402 140.0
223.122269 1096.0
224.131104 788.0
224.774673 108.0
225.135223 160.0
225.368896 76.0
226.323074 124.0
226.544708 140.0
227.06926 68.0
229.731354 48.0
236.854004 92.0
237.137161 960.0
237.687927 156.0
238.142044 416.0
238.766205 220.0
238.990768 44.0
239.107712 68.0
239.154007 8412.0
239.258545 112.0
239.310883 32.0
239.381699 40.0
239.450912 76.0
239.589828 120.0
239.711319 44.0
240.154938 1304.0
240.213882 80.0
240.417526 64.0
240.440628 68.0
240.66449 40.0
240.970261 68.0
241.158615 152.0
241.520538 156.0
241.734024 108.0
241.802109 84.0
241.860916 84.0
241.947586 96.0
242.238693 60.0
242.892776 52.0
243.631607 104.0
243.79007 80.0
245.019165 48.0
245.084595 56.0
247.004639 100.0
248.687912 84.0
252.278366 52.0
259.178711 32.0
263.836029 72.0
270.763855 56.0
275.437805 112.0
279.648926 76.0
280.781738 52.0
282.033813 116.0
286.857544 136.0
288.975098 80.0
289.794464 120.0
289.906281 56.0
297.763489 100.0
300.983429 52.0
303.034546 148.0
304.776367 92.0
311.20343 176.0
311.797089 124.0
313.162231 92.0
313.437012 100.0
314.205658 92.0
342.143127 40.0
347.194366 32.0
352.058502 44.0
378.778595 44.0
384.997955 32.0
400.630402 48.0
411.624542 52.0
457.574524 84.0
466.163666 88.0
466.494598 76.0
468.646515 64.0
474.039307 136.0
477.255859 88.0
479.702667 36.0
490.777466 100.0
494.709625 64.0
495.236572 56.0
507.196228 48.0
538.920288 48.0
570.427124 140.0
579.346436 120.0
585.648865 92.0
586.106567 88.0
604.026855 84.0
609.046387 92.0
631.025818 68.0
637.617737 156.0
647.764771 88.0
689.603638 112.0
702.558289 76.0
709.640076 52.0
713.1651 96.0
752.030457 52.0
762.953491 112.0
784.952209 48.0
787.189941 136.0
799.709106 96.0
814.660278 136.0
820.824402 176.0
829.577942 64.0
829.704102 176.0
836.350586 152.0
864.746338 136.0
872.460144 96.0
876.309265 76.0
883.74292 200.0
886.597229 72.0
896.784241 128.0
897.219421 124.0
905.064392 200.0
907.593079 180.0
917.718811 116.0
923.389282 32.0
937.675537 104.0
938.468018 184.0
939.39502 168.0
949.518311 212.0
950.475281 32.0
952.089844 176.0
952.323181 208.0
952.538208 108.0
953.484436 164.0
962.65155 176.0
965.952026 128.0
971.093262 160.0
975.955872 180.0
985.211365 92.0
989.044739 92.0
994.38501 204.0
999.978882 88.0
1009.005859 188.0
1012.536865 220.0
1013.366699 152.0
1016.714844 124.0
1018.918274 160.0
1019.744385 80.0
1023.446899 136.0
1024.924683 188.0
1026.582031 208.0
1028.413086 196.0
1030.035034 204.0
1030.373657 228.0
1031.977905 180.0
1045.255737 136.0
1045.365112 156.0
1048.024658 88.0
1051.126221 180.0
1058.683228 268.0
1062.131348 156.0
1064.474365 132.0
1065.974976 52.0
1066.904419 188.0
1068.881714 144.0
1069.623657 192.0
1070.509155 40.0
1072.972168 136.0
1074.354858 212.0
1074.889771 180.0
1075.144287 264.0
1076.874512 200.0
1078.226929 148.0
1089.090332 80.0
1091.72583 80.0
1091.896851 100.0
1093.199463 144.0
1093.495605 172.0
1097.87793 128.0
1102.24707 128.0
1104.051758 184.0
1105.262329 92.0
1110.522583 204.0
1110.721558 224.0
1111.949097 92.0
1113.409668 284.0
1117.504517 192.0
1118.116821 168.0
1118.988037 180.0
1119.694702 120.0
1120.27417 168.0
1120.853882 212.0
1120.913818 164.0
1122.206909 84.0
1124.89563 140.0
1127.567383 148.0
1127.721191 132.0
1129.305786 208.0
1131.052246 96.0
1133.610718 224.0
1134.964844 196.0
1141.128662 172.0
1141.364014 176.0
1141.653198 120.0
1142.635254 164.0
1145.395386 76.0
1146.972168 172.0
1147.390137 116.0
1151.283569 148.0
1157.254639 228.0
1162.684448 220.0
1163.105347 140.0
1165.461914 172.0
1165.835693 156.0
1168.004639 172.0
1168.324341 204.0
1169.705811 180.0
1171.421875 248.0
1172.791504 148.0
1173.234619 68.0
1177.752197 148.0
1177.963867 64.0
1179.412598 124.0
1181.033081 104.0
1182.990234 192.0
1183.859741 136.0
1183.914551 188.0
1184.113159 180.0
1184.98999 156.0
1188.123291 152.0
1190.745483 116.0
1191.32251 88.0
1193.425537 200.0
1193.638794 208.0
1194.016968 256.0
1194.188965 28.0
1195.571899 140.0
1196.501099 40.0
1197.038208 144.0
1197.94043 216.0
1198.532959 244.0
1199.814941 188.0
1200.511353 152.0
1200.959717 112.0
1201.318359 140.0
1201.704712 192.0
1202.029053 168.0
1203.830811 140.0
1206.878174 192.0
1209.188843 232.0
1210.192627 84.0
1210.621948 168.0
1211.827148 140.0
1212.589478 132.0
1215.869995 152.0
1218.738037 196.0
1219.71106 144.0
1219.947388 176.0
1221.122559 152.0
1222.882324 224.0
1223.300537 232.0
1223.947998 80.0
1228.506226 156.0
1228.764404 168.0
1229.24585 268.0
1233.443359 48.0
1233.960693 184.0
1235.758301 176.0
1236.02417 116.0
1237.732178 160.0
1237.837158 56.0
1241.56543 188.0
1241.867065 168.0
1242.765015 164.0
1243.845825 152.0
1245.481934 244.0
1246.549805 144.0
1248.785522 176.0
1248.848755 160.0
1249.847778 180.0
1250.192627 164.0
1251.121704 52.0
1254.358398 152.0
1256.308716 168.0
1256.463013 144.0
1256.929565 188.0
1257.360107 164.0
1259.51355 204.0
1259.824341 236.0
1260.76416 252.0
1261.612427 136.0
1266.445557 92.0
1266.523438 104.0
1266.693481 120.0
1269.074707 52.0
1269.63501 236.0
1270.273315 172.0
1272.196533 232.0
1272.581543 168.0
1272.828369 156.0
1274.931152 164.0
1276.317383 132.0
1276.564575 172.0
1277.32019 100.0
1277.533569 184.0
1277.604736 176.0
1277.725708 152.0
1278.351807 116.0
1284.029907 196.0
1285.906372 196.0
1286.084839 132.0
1289.005859 184.0
1289.327393 180.0
1289.649048 188.0
1289.920654 108.0
1291.264893 128.0
1296.684814 244.0
1300.349854 128.0
1300.773438 152.0
1301.591919 120.0
1302.827271 184.0
1303.121826 148.0
1308.869019 160.0
1309.265015 212.0
1313.784546 168.0
1314.585449 176.0
1317.119629 48.0
1317.986572 160.0
1318.918945 160.0
1320.95813 168.0
1321.377686 40.0
1324.266113 116.0
1326.222534 204.0
1326.998169 48.0
1328.796875 140.0
1329.428223 124.0
1329.486206 164.0
1329.703979 228.0
1329.805542 204.0
1330.125 156.0
1330.981689 208.0
1333.168213 144.0
1334.084106 180.0
1334.498535 164.0
1335.318848 168.0
1335.378418 72.0
1335.763916 124.0
1337.656006 160.0
1338.806396 240.0
1339.476562 132.0
1340.460083 124.0
1342.807617 188.0
1343.077515 212.0
1344.011353 172.0
1344.544067 196.0
1345.814209 164.0
1347.545288 208.0
1351.449829 228.0
1351.566895 200.0
1351.661987 180.0
1352.09375 152.0
1352.518311 140.0
1354.392822 36.0
1355.074097 228.0
1358.409912 148.0
1358.754639 176.0
1358.974731 184.0
1360.890503 108.0
1362.528442 180.0
1364.902466 128.0
1366.093994 184.0
1366.969604 124.0
1371.292603 64.0
1371.904419 132.0
1374.117065 168.0
1375.3125 116.0
1375.814453 168.0
1381.438477 172.0
1381.875 116.0
1382.918457 228.0
1383.436523 164.0
1384.847656 196.0
1384.999023 232.0
1386.592041 184.0
1387.711426 232.0
1387.993286 192.0
1388.675537 204.0
1389.684448 140.0
1389.773438 144.0
1390.612061 164.0
1390.678833 236.0
1393.820312 176.0
1394.154785 184.0
1396.117432 72.0
1396.995117 72.0
1398.088867 36.0
1398.252686 104.0
1399.130981 208.0
1400.195801 140.0
1402.110596 184.0
1402.229858 156.0
1405.541016 116.0
1406.593384 128.0
1407.528076 164.0
1408.422852 48.0
1409.042847 152.0
1409.737793 152.0
1410.866455 144.0
1412.900635 180.0
1413.596558 92.0
1414.172852 128.0
1416.284424 152.0
1417.588013 168.0
1420.572144 180.0
1421.112305 216.0
1423.176514 68.0
1423.43335 96.0
1424.085205 216.0
1425.212036 168.0
1427.301758 180.0
1428.320801 20.0
1428.625488 180.0
1429.325195 180.0
1429.859497 244.0
1431.387817 288.0
1431.53833 224.0
1432.653076 52.0
1433.391479 172.0
1435.110107 244.0
1435.743652 176.0
1435.856689 32.0
1436.595947 164.0
1438.157959 180.0
1438.465576 120.0
1439.184692 204.0
1439.735962 140.0
1439.871948 156.0
1440.544189 204.0
1440.702759 180.0
1441.76062 164.0
1444.308716 76.0
1445.04248 224.0
1445.156006 192.0
1445.549438 144.0
1446.419922 112.0
1447.040649 168.0
1447.964478 140.0
1448.578003 180.0
1449.320557 148.0
1449.850952 76.0
1450.76062 104.0
1452.072388 196.0
1452.254395 168.0
1454.174072 156.0
1454.325928 56.0
1454.940796 208.0
1455.267212 136.0
1458.328735 136.0
1458.381958 124.0
1459.628784 176.0
1460.381714 156.0
1460.937012 44.0
1461.089233 204.0
1461.949097 188.0
1462.207764 172.0
1464.438599 152.0
1465.581421 132.0
1466.915161 228.0
1468.562256 164.0
1469.210571 204.0
1474.448853 80.0
1474.572266 192.0
1474.769897 164.0
1475.98291 200.0
1476.153687 188.0
1478.540527 188.0
1479.466797 116.0
1479.834229 124.0
1479.964478 156.0
1481.304688 188.0
1482.185791 184.0
1482.453979 196.0
1483.105469 160.0
1483.442749 212.0
1484.286133 152.0
1484.546875 268.0
1485.544312 188.0
1485.950684 172.0
1486.32666 120.0
1486.718018 160.0
1486.955933 132.0
1487.025024 120.0
1487.984497 108.0
1488.237915 188.0
1489.835449 228.0
1490.788208 128.0
1493.263794 140.0
1493.755127 164.0
1494.056152 104.0
1494.833252 172.0
1495.672241 228.0
1496.157227 204.0
1497.581787 148.0
1498.521606 168.0
1498.960815 204.0
1500.032227 236.0
1500.255737 248.0
1502.22229 156.0
1502.353394 212.0
1504.213257 140.0
1505.178345 200.0
