>compound MLS000697746-01!(2R,3S,3aS)-2-(1,3-benzodioxol-5-yl)-5-methoxy-3-methyl-3a-prop-2-enyl-2,3-dihydro-1-benzofuran-6-one
>formula C20H20O5
>ionization [M+H]+
>parentmass 341.1383501920905
#inchi InChI=1S/C20H20O5/c1-4-7-20-10-17(22-3)14(21)9-18(20)25-19(12(20)2)13-5-6-15-16(8-13)24-11-23-15/h4-6,8-10,12,19H,1,7,11H2,2-3H3/t12-,19-,20-/m1/s1
#inchikey SOLJFAQVSWXZEQ
#Ion_Source LC-ESI
#Instrument qTof
#Compound_Source NIH Natural Product Library
#PI Dorrestein
#Data_Collector VVP/LMS
#Scan -1
#Precursor_MZ 341.139
#ExactMass 340.131
#Charge 1
#CAS_Number N/A
#Pubmed_ID N/A
#Smiles COC1=C[C@]2(CC=C)[C@H](C)[C@@H](OC2=CC1=O)c3ccc4OCOc4c3
#INCHI_AUX N/A
#Library_Class 1
#SpectrumID CCMSLIB00000079360
#IonMode Positive
#UpdateWorkflowName UPDATE-SINGLE-ANNOTATED-GOLD
#LibraryQualityString Gold
#TaskID b1d8e8f6646f4e71acdff9ca3d919d08
##Scan# 2225
#SpectrumFile p1-B05_GB5_01_17889.mzXML
#LibraryName NIH_Natural_Products_Library.mgf
#MQScore -1
#Organism NIH_Natural_Products_Library
#TIC_Query 0
#RT_Query -1
#MZErrorPPM -1
#SharedPeaks 0
#MassDiff 0
#LibMZ -1
#SpecMZ 341.139
#SpecCharge 0
#internalFilename spec-00000.mgf

>collision 10
94.964851 136.0
95.026924 168.0
95.052147 152.0
95.090958 136.0
95.34343 120.0
95.46785 112.0
95.572762 180.0
96.017029 148.0
96.063843 200.0
96.272682 196.0
96.36644 204.0
96.405518 164.0
96.51889 88.0
96.663643 192.0
96.961304 120.0
97.027946 48.0
97.059319 132.0
97.177002 128.0
97.249611 128.0
97.312424 172.0
97.428299 136.0
97.561928 140.0
97.695656 100.0
97.866875 128.0
98.022484 184.0
98.038254 164.0
98.227524 100.0
98.385391 128.0
98.774681 120.0
98.978523 40.0
99.008232 64.0
99.305511 188.0
100.076546 96.0
100.24585 152.0
100.457191 124.0
100.497093 148.0
100.934517 92.0
101.028519 208.0
101.068535 200.0
101.262711 172.0
101.350853 48.0
101.366882 152.0
101.485146 136.0
101.561348 152.0
101.641594 288.0
101.84034 156.0
101.905724 224.0
101.956871 248.0
102.047295 336.0
102.353157 100.0
102.471985 236.0
102.707848 192.0
103.054367 1988.0
103.449432 92.0
103.785744 164.0
104.058754 136.0
104.104324 140.0
104.118538 208.0
104.48848 164.0
104.545448 48.0
104.637047 92.0
104.653336 56.0
104.903923 152.0
104.954887 92.0
105.035858 224.0
105.069427 668.0
105.222168 132.0
105.30793 204.0
105.418251 116.0
105.651337 176.0
105.903107 52.0
105.919495 112.0
106.013741 56.0
106.077278 208.0
106.204407 96.0
106.23645 148.0
106.345978 180.0
106.415771 172.0
106.493805 116.0
106.534889 176.0
106.670517 52.0
106.769203 164.0
107.020248 156.0
107.048599 528.0
107.086143 176.0
107.304573 124.0
107.407684 136.0
107.479889 172.0
107.622307 52.0
107.959122 152.0
108.055069 380.0
108.118416 212.0
108.197067 100.0
108.221916 152.0
108.424919 88.0
108.873024 180.0
109.030907 220.0
109.050972 196.0
109.064957 524.0
109.245064 184.0
109.317886 136.0
109.386566 216.0
109.757408 168.0
109.890892 144.0
109.943253 176.0
110.036987 144.0
110.195717 136.0
110.268852 132.0
110.301117 92.0
110.337837 112.0
110.375465 188.0
110.4403 64.0
110.630714 156.0
110.85273 84.0
110.894638 216.0
110.919792 172.0
111.055328 200.0
111.289017 168.0
111.740891 104.0
111.953484 156.0
111.989288 256.0
112.375053 184.0
112.579803 116.0
112.69809 164.0
112.72345 176.0
112.746696 128.0
112.80587 156.0
112.945435 152.0
113.08696 160.0
113.146461 180.0
113.708183 44.0
114.128784 204.0
114.196838 172.0
114.330872 156.0
114.452202 124.0
114.482018 132.0
114.667358 96.0
114.743279 156.0
114.812325 208.0
115.053917 540.0
115.232834 128.0
115.378159 108.0
115.508606 116.0
115.639122 152.0
115.756866 172.0
115.977531 128.0
116.059929 884.0
116.264923 192.0
116.393723 184.0
116.447411 156.0
116.541924 224.0
116.599945 184.0
116.651527 136.0
116.67733 128.0
117.034256 540.0
117.070015 384.0
117.262817 176.0
117.296997 196.0
117.541008 116.0
117.756882 188.0
117.873543 164.0
117.940536 264.0
118.040977 164.0
118.070259 156.0
118.13488 164.0
118.245499 212.0
118.273636 140.0
118.440361 244.0
118.503181 200.0
118.741631 148.0
118.837074 184.0
119.050461 5184.0
119.082809 132.0
119.295311 76.0
119.402092 144.0
119.645554 192.0
119.787102 164.0
119.815422 104.0
119.950531 244.0
120.054161 452.0
120.424011 160.0
120.635956 128.0
120.677498 48.0
120.885292 152.0
120.997856 112.0
121.029663 88.0
121.060196 40.0
121.126122 80.0
121.312378 184.0
121.375961 152.0
121.437363 172.0
121.507561 204.0
121.551437 108.0
121.62825 148.0
121.852242 184.0
121.90937 240.0
122.038971 756.0
122.366882 48.0
122.499016 128.0
122.756882 168.0
122.887024 40.0
123.04483 420.0
123.081253 172.0
123.27343 128.0
123.524178 48.0
123.549805 108.0
123.868576 40.0
123.890724 132.0
124.005951 140.0
124.049232 156.0
124.24099 136.0
124.314209 100.0
124.476257 124.0
124.769539 104.0
124.816231 56.0
125.02533 364.0
125.057587 292.0
125.183388 116.0
125.241287 172.0
125.274704 88.0
125.461891 152.0
125.519859 92.0
125.604607 136.0
125.649223 144.0
125.680458 72.0
125.763031 36.0
125.80098 160.0
126.026543 124.0
126.053352 152.0
126.144989 32.0
126.288094 144.0
126.326118 80.0
126.610374 196.0
126.773911 132.0
126.843384 120.0
127.033989 128.0
127.238205 116.0
127.296577 116.0
127.368446 204.0
127.442238 236.0
127.516739 116.0
127.710098 144.0
127.849586 128.0
127.909729 216.0
128.011673 176.0
128.06076 628.0
128.345154 132.0
128.638443 168.0
128.656509 104.0
128.850723 132.0
129.064926 692.0
129.312012 192.0
129.799072 124.0
129.955582 180.0
130.040146 376.0
130.075851 176.0
130.105362 160.0
130.273407 44.0
130.557526 228.0
130.70993 92.0
130.755447 92.0
130.967178 152.0
131.049591 716.0
131.084854 432.0
131.286255 168.0
131.335999 208.0
131.359238 152.0
131.441376 92.0
131.598862 164.0
131.738174 196.0
132.012451 60.0
132.052521 352.0
132.091019 268.0
132.115372 48.0
132.21376 52.0
132.257248 248.0
132.303024 124.0
132.417511 148.0
132.733749 32.0
133.002167 164.0
133.028748 5204.0
133.065048 876.0
133.104065 156.0
133.408752 168.0
133.517563 272.0
133.583527 64.0
133.618027 152.0
133.682449 72.0
133.799835 204.0
134.032608 824.0
134.063965 324.0
134.269897 120.0
134.358475 192.0
134.754639 40.0
134.777756 180.0
134.893311 184.0
134.964966 188.0
134.997345 168.0
135.044434 6516.0
135.075851 140.0
135.08316 188.0
135.170837 112.0
135.274979 220.0
135.353699 140.0
135.388428 64.0
135.437073 88.0
135.564499 192.0
135.638657 148.0
135.682709 88.0
135.861267 92.0
136.050797 840.0
136.095184 208.0
136.516266 96.0
136.781494 120.0
137.025818 148.0
137.060593 2732.0
137.343033 76.0
137.457352 116.0
137.473694 32.0
137.492355 80.0
137.737518 60.0
137.94548 144.0
137.983704 192.0
138.03363 696.0
138.061172 208.0
138.088104 44.0
138.141907 256.0
138.200394 140.0
138.219116 56.0
138.235489 180.0
138.415726 228.0
138.436813 152.0
138.572662 124.0
138.64296 60.0
138.661697 276.0
138.713272 196.0
138.821121 60.0
138.933701 120.0
139.053955 628.0
139.262329 76.0
139.372742 200.0
139.415039 64.0
139.666595 140.0
139.871307 32.0
139.931854 216.0
140.024353 160.0
140.047653 860.0
140.2034 100.0
140.575989 64.0
140.611389 108.0
141.071625 576.0
141.150848 236.0
141.339233 240.0
141.379654 188.0
141.872116 140.0
141.959839 148.0
142.052338 144.0
142.075394 492.0
142.140121 132.0
142.425003 64.0
143.049713 292.0
143.083984 172.0
143.121796 176.0
143.174637 228.0
143.662811 108.0
143.915787 84.0
144.056549 400.0
144.114029 144.0
144.498962 120.0
144.822128 152.0
145.030807 168.0
145.062683 900.0
145.411926 200.0
145.737335 156.0
145.896606 200.0
146.04863 112.0
146.06546 88.0
146.091919 124.0
146.363876 104.0
146.492523 184.0
146.718048 156.0
146.734924 160.0
147.044586 8932.0
147.142654 64.0
147.174042 36.0
147.205429 40.0
147.239243 36.0
147.260971 60.0
147.292374 44.0
147.480835 96.0
147.572708 44.0
147.76619 144.0
147.80101 204.0
147.887177 132.0
148.050018 1904.0
148.095398 76.0
148.148697 64.0
148.168076 176.0
148.204422 164.0
148.366806 64.0
148.398315 56.0
148.519562 80.0
148.585068 60.0
148.788925 136.0
148.9832 68.0
149.023163 1984.0
149.058975 1644.0
149.148438 156.0
149.64798 176.0
149.712891 112.0
149.834671 188.0
149.890717 116.0
150.029236 316.0
150.068359 236.0
150.095459 116.0
150.134476 164.0
151.025909 336.0
151.076996 1176.0
151.29509 184.0
151.770386 108.0
151.893005 176.0
152.042664 192.0
152.064896 456.0
152.465073 124.0
152.583054 152.0
152.676498 76.0
152.750275 32.0
152.784714 152.0
152.927444 168.0
153.066132 2016.0
153.122589 152.0
153.183517 56.0
153.351059 64.0
153.716049 140.0
153.738266 220.0
153.859207 184.0
153.906113 124.0
153.997482 168.0
154.067413 280.0
154.232208 164.0
154.442383 216.0
154.48938 212.0
154.606232 176.0
154.890396 64.0
155.052399 244.0
155.082245 456.0
155.229553 136.0
155.915985 244.0
156.05809 180.0
156.138824 148.0
156.240814 36.0
156.330383 184.0
156.566879 208.0
156.708862 68.0
156.833466 164.0
157.063171 420.0
157.232513 192.0
157.447205 292.0
157.947083 140.0
158.064575 204.0
158.437714 112.0
158.600601 172.0
158.833786 116.0
159.044266 604.0
159.080429 2728.0
159.270538 148.0
159.330826 172.0
159.607285 100.0
159.680222 104.0
159.980621 184.0
160.050766 1256.0
160.080505 384.0
160.113098 140.0
160.150864 144.0
160.171021 72.0
160.642395 84.0
160.676834 220.0
160.882126 52.0
160.980591 108.0
161.020035 84.0
161.060776 2080.0
161.088577 132.0
161.473389 184.0
161.54422 32.0
161.690964 192.0
161.726395 112.0
161.906158 128.0
162.033173 292.0
162.068573 1372.0
162.146835 152.0
162.58049 116.0
162.755646 76.0
162.847061 144.0
163.007111 216.0
163.038467 1920.0
163.074982 1248.0
163.149445 116.0
163.258774 84.0
163.299469 52.0
163.357971 184.0
163.505539 268.0
163.637909 80.0
163.884964 176.0
163.90535 180.0
163.966507 132.0
164.046707 644.0
164.07753 184.0
164.100006 240.0
164.180222 96.0
164.377075 64.0
164.40004 84.0
164.417908 80.0
164.489365 48.0
164.637451 180.0
164.754944 84.0
164.821381 148.0
164.862259 168.0
164.987503 116.0
165.054184 7900.0
165.10257 84.0
165.133255 56.0
165.161392 68.0
165.263718 60.0
165.286743 72.0
165.309769 44.0
165.542725 44.0
165.601624 80.0
165.727142 76.0
165.960388 68.0
166.031677 224.0
166.058197 752.0
166.14505 44.0
166.211746 52.0
166.61998 148.0
166.645676 204.0
166.835861 168.0
166.889847 40.0
166.928421 68.0
167.018433 116.0
167.052826 360.0
167.073944 588.0
167.146011 128.0
167.270599 144.0
167.304062 88.0
167.504913 32.0
167.97406 40.0
167.992111 56.0
168.057571 108.0
168.092056 144.0
168.121124 148.0
168.394775 124.0
168.609207 268.0
168.743622 116.0
168.787582 176.0
169.065567 468.0
169.30513 112.0
169.343979 36.0
169.400955 192.0
169.470901 108.0
169.551239 192.0
169.72847 172.0
169.797531 144.0
169.849396 216.0
170.075485 352.0
170.155609 212.0
170.488083 88.0
170.755859 136.0
170.815674 60.0
171.044006 224.0
171.080734 480.0
171.127975 32.0
171.427521 116.0
171.701233 196.0
172.057449 168.0
172.390427 224.0
172.641388 112.0
173.026016 92.0
173.058472 700.0
173.094086 172.0
173.261719 216.0
173.403214 64.0
173.426804 108.0
173.484467 112.0
174.066223 252.0
174.471542 108.0
175.040298 472.0
175.078064 496.0
175.500961 216.0
175.833328 156.0
175.989075 184.0
176.047073 836.0
176.084137 388.0
176.102631 132.0
176.726501 44.0
177.054459 1468.0
177.102402 208.0
177.131546 56.0
177.393875 132.0
177.794373 96.0
177.895233 232.0
178.065338 996.0
178.213928 56.0
178.410599 120.0
178.503662 160.0
178.660583 48.0
178.844193 208.0
178.995926 52.0
179.069656 1712.0
179.13176 124.0
179.153732 160.0
179.225006 76.0
179.280441 124.0
179.488892 36.0
179.518219 228.0
179.600891 44.0
179.790314 56.0
180.07338 332.0
180.204208 200.0
180.311081 40.0
180.359192 92.0
180.784439 148.0
180.945038 48.0
180.966461 160.0
181.065063 1884.0
181.103668 388.0
181.207504 156.0
181.24501 48.0
181.290558 76.0
181.424576 128.0
181.50769 44.0
181.53949 140.0
182.001404 168.0
182.070786 464.0
182.192093 120.0
182.743225 148.0
182.764755 168.0
182.875092 184.0
183.04364 396.0
183.078552 1012.0
183.121124 136.0
183.257477 212.0
183.405701 40.0
183.483871 76.0
183.912781 108.0
184.053177 356.0
184.090958 184.0
184.174683 188.0
184.61792 140.0
185.059906 1008.0
185.10289 184.0
185.384018 92.0
185.630692 48.0
185.790726 128.0
186.070145 444.0
186.241333 216.0
186.385315 192.0
186.496735 236.0
186.826126 144.0
186.901932 52.0
186.986298 92.0
187.074524 1844.0
187.176086 172.0
187.259857 108.0
187.882751 40.0
187.945511 80.0
188.043747 176.0
188.0784 332.0
188.890762 124.0
189.051086 220.0
189.068115 288.0
189.325943 68.0
189.353333 40.0
189.827423 208.0
189.953583 56.0
190.075562 472.0
190.41745 204.0
190.76091 80.0
190.857132 80.0
191.033142 184.0
191.069717 688.0
191.097717 236.0
191.330353 180.0
191.655334 180.0
191.828964 176.0
192.033005 76.0
192.088165 160.0
192.148865 56.0
192.36412 88.0
192.745239 152.0
193.067123 272.0
193.101166 380.0
194.007294 152.0
194.067749 276.0
194.120972 176.0
194.24855 80.0
194.612106 192.0
195.043671 428.0
195.079239 568.0
195.134445 84.0
195.693665 56.0
195.805054 156.0
196.053253 408.0
196.08905 352.0
196.223022 136.0
196.362442 80.0
197.058777 804.0
197.194427 80.0
197.241943 136.0
197.297852 80.0
197.368576 136.0
197.851776 52.0
197.924561 120.0
198.065231 148.0
198.33783 124.0
198.496185 140.0
198.619583 128.0
198.703735 100.0
199.040924 344.0
199.075455 560.0
199.892258 92.0
200.0495 152.0
200.081833 268.0
200.568161 156.0
200.686569 164.0
200.762695 52.0
201.093597 220.0
201.185928 60.0
201.750931 108.0
201.892303 28.0
202.057632 156.0
202.076157 368.0
202.993881 148.0
203.080948 356.0
203.206604 128.0
203.558563 100.0
204.079727 1128.0
204.320297 144.0
204.519485 184.0
205.081253 240.0
205.100342 188.0
205.171799 188.0
205.42276 68.0
205.49408 44.0
205.662445 120.0
205.745224 192.0
205.887985 160.0
206.105087 204.0
206.834351 156.0
207.046219 176.0
207.076462 176.0
207.430145 64.0
207.49321 92.0
208.087219 452.0
208.397278 44.0
208.673187 108.0
208.72937 244.0
208.883118 192.0
208.963669 240.0
209.062775 1216.0
209.101639 232.0
209.994919 48.0
210.035309 188.0
210.06781 908.0
210.341171 156.0
210.687698 68.0
210.722366 180.0
211.074127 1356.0
211.309265 40.0
211.717392 100.0
211.792694 148.0
212.048462 824.0
212.077515 212.0
212.369492 132.0
212.526138 120.0
212.784454 48.0
212.99353 200.0
213.053909 532.0
213.086411 308.0
213.554504 72.0
213.854187 152.0
213.970612 68.0
214.060562 180.0
214.299728 68.0
214.564941 172.0
214.827408 156.0
215.042313 212.0
215.069321 1044.0
215.700516 108.0
215.908096 180.0
215.975372 132.0
216.041946 428.0
216.069443 384.0
216.177231 196.0
216.250397 156.0
216.405548 160.0
216.677917 168.0
216.789261 72.0
216.906494 80.0
217.041351 192.0
217.089294 404.0
217.625244 120.0
217.739761 52.0
218.072662 816.0
218.827759 180.0
218.933762 168.0
219.080399 272.0
219.10025 244.0
219.106094 276.0
220.095764 64.0
220.157593 152.0
220.455963 204.0
220.710175 168.0
220.816635 108.0
221.064392 192.0
221.096832 208.0
221.304901 40.0
221.515167 60.0
221.787766 116.0
222.062897 372.0
222.116898 200.0
222.1436 168.0
222.188095 100.0
222.360199 204.0
222.793716 152.0
223.040344 240.0
223.074936 652.0
223.115433 156.0
223.266312 160.0
224.052505 148.0
224.077179 436.0
224.120636 132.0
225.051147 744.0
225.091354 868.0
225.717545 120.0
225.772354 156.0
226.063217 380.0
226.097443 160.0
226.208191 40.0
226.351898 168.0
226.501648 280.0
227.028046 176.0
227.068817 1612.0
227.287109 96.0
227.557236 148.0
227.619888 60.0
228.043869 172.0
228.074753 416.0
228.65741 188.0
229.088089 480.0
229.458664 148.0
229.491837 200.0
230.052628 176.0
230.094696 1076.0
230.143539 164.0
230.282455 112.0
230.759903 104.0
230.787109 148.0
231.065414 2904.0
231.407364 168.0
232.068893 128.0
232.322601 44.0
232.56839 60.0
232.859863 216.0
233.060364 156.0
233.094009 412.0
233.121124 128.0
233.394699 92.0
234.423462 128.0
235.077377 272.0
235.137161 132.0
235.622665 52.0
235.644058 52.0
235.998596 64.0
236.041397 180.0
236.08046 700.0
236.276917 164.0
236.867722 104.0
236.938187 40.0
237.05394 1684.0
237.086655 208.0
237.149612 152.0
237.192535 80.0
237.22319 148.0
237.404083 92.0
237.440872 116.0
238.059784 364.0
238.088791 252.0
238.165207 84.0
238.266571 172.0
238.401764 92.0
238.730698 48.0
238.772903 116.0
238.810654 116.0
238.858093 164.0
238.946014 256.0
239.001389 124.0
239.07077 10356.0
239.111145 120.0
239.147049 84.0
239.179886 140.0
239.266068 188.0
239.339966 92.0
239.389236 136.0
239.484711 160.0
239.549393 44.0
239.577118 180.0
239.617157 40.0
239.655426 96.0
239.715759 60.0
239.77739 72.0
239.857529 44.0
239.913025 132.0
240.011673 36.0
240.039734 120.0
240.07489 1404.0
240.113434 332.0
240.230652 136.0
240.381821 192.0
240.468231 180.0
241.044647 92.0
241.083054 536.0
241.116806 60.0
241.305359 56.0
241.326996 188.0
241.444504 28.0
241.555847 108.0
241.688889 36.0
242.054611 260.0
242.095474 68.0
242.140839 116.0
242.329788 124.0
242.509521 68.0
243.056961 160.0
243.09375 212.0
243.480606 176.0
243.6297 52.0
243.813019 68.0
244.063889 176.0
244.108582 108.0
244.220306 56.0
244.372726 144.0
245.059616 104.0
245.082916 124.0
245.346008 80.0
247.078415 304.0
247.995148 88.0
248.08197 176.0
248.299255 132.0
249.021103 140.0
249.102768 184.0
249.241013 124.0
249.388702 60.0
249.866684 156.0
250.063416 268.0
250.100632 128.0
250.716843 120.0
251.069122 952.0
251.102463 428.0
251.256027 168.0
251.461121 96.0
251.830521 64.0
252.035858 92.0
252.076599 452.0
252.247604 88.0
252.484741 44.0
252.740967 96.0
253.049225 5824.0
253.08075 1076.0
253.219604 60.0
253.301315 48.0
253.340836 76.0
253.469238 92.0
253.561127 60.0
254.05545 1108.0
254.103363 108.0
254.182678 128.0
254.64299 120.0
254.722397 92.0
254.862183 196.0
254.992477 72.0
255.065475 1428.0
255.326294 80.0
255.537155 96.0
255.644409 116.0
255.762161 152.0
255.835373 48.0
255.937256 128.0
256.047577 292.0
256.067993 784.0
256.121979 92.0
256.520264 68.0
256.545776 28.0
257.033752 120.0
257.080505 6792.0
257.214447 160.0
257.244385 56.0
257.35611 132.0
257.380951 88.0
257.47821 68.0
257.665924 224.0
257.764984 88.0
257.886414 60.0
258.083221 1064.0
258.302094 92.0
258.410858 52.0
258.484436 48.0
258.794922 196.0
259.072662 160.0
259.289917 84.0
259.541473 76.0
259.727478 140.0
259.791626 120.0
259.814087 100.0
259.99057 140.0
260.022644 128.0
260.103699 156.0
260.751678 40.0
260.902771 76.0
261.084412 280.0
261.102844 212.0
262.095459 288.0
262.203156 100.0
263.041748 164.0
263.078186 188.0
263.104767 176.0
264.077789 472.0
264.379822 220.0
264.914032 48.0
265.046875 152.0
265.086578 316.0
265.225128 112.0
265.617462 228.0
265.643402 240.0
265.812134 136.0
266.062042 156.0
266.08963 108.0
266.19516 136.0
266.724701 152.0
266.851501 120.0
267.065521 6784.0
267.420776 144.0
267.443542 40.0
267.495636 44.0
267.603058 64.0
267.857086 40.0
267.922241 132.0
268.071045 2972.0
268.37851 44.0
268.49176 104.0
268.629639 88.0
268.799286 52.0
269.037231 132.0
269.080322 1024.0
269.226898 48.0
269.44574 128.0
269.540497 140.0
269.837952 48.0
269.870636 116.0
270.0047 208.0
270.052399 468.0
270.082031 652.0
271.055847 316.0
271.097321 392.0
271.419342 100.0
271.448853 84.0
272.067566 120.0
272.098907 444.0
272.338226 40.0
272.502472 68.0
273.066254 440.0
273.085266 312.0
273.588348 92.0
274.071899 136.0
274.101562 112.0
274.193848 44.0
274.721405 64.0
275.072968 172.0
275.956543 92.0
276.073334 248.0
276.346802 152.0
276.69101 196.0
276.787018 48.0
277.303802 44.0
278.059998 160.0
278.089172 156.0
278.857086 192.0
279.068848 176.0
279.104309 436.0
280.063812 152.0
280.097748 200.0
280.115753 248.0
280.388 120.0
280.581329 128.0
280.994873 176.0
281.074707 168.0
281.115936 432.0
281.308594 40.0
281.432098 176.0
281.478851 80.0
281.8396 60.0
282.087646 368.0
282.802704 128.0
283.097046 1692.0
283.358582 68.0
283.589813 36.0
283.697052 152.0
283.733826 104.0
283.800995 76.0
284.063873 144.0
284.098419 312.0
284.196777 108.0
284.559265 116.0
284.781921 128.0
284.848053 148.0
284.945496 88.0
285.075623 8136.0
285.183929 88.0
285.241211 212.0
285.409302 52.0
285.479218 116.0
285.80957 52.0
286.077423 1380.0
286.166351 52.0
286.469452 36.0
286.637909 112.0
287.092285 292.0
287.309601 124.0
287.626038 128.0
287.864624 108.0
287.936676 68.0
288.075134 176.0
288.629425 56.0
288.75116 128.0
289.671783 88.0
291.106445 176.0
291.452911 140.0
291.656799 96.0
292.108307 148.0
292.755707 72.0
293.080627 160.0
293.144043 144.0
293.167908 164.0
293.843048 188.0
294.089386 800.0
294.481384 88.0
295.07254 168.0
295.12381 108.0
296.061401 96.0
296.09906 88.0
297.07251 128.0
297.532349 108.0
297.879211 64.0
299.087219 996.0
299.299561 40.0
299.377747 188.0
299.397003 188.0
299.521057 192.0
299.654327 44.0
299.716339 60.0
299.919678 148.0
299.978027 164.0
300.099487 16768.0
300.197083 112.0
300.354126 64.0
300.612885 120.0
300.688782 48.0
300.802704 60.0
301.013306 100.0
301.103882 2776.0
301.139343 56.0
301.14682 168.0
301.230865 60.0
301.382874 88.0
301.530884 68.0
301.780365 84.0
301.859894 44.0
301.960175 48.0
302.099945 580.0
302.178101 72.0
302.207977 76.0
302.233459 72.0
302.271515 84.0
302.684784 88.0
302.887787 108.0
302.912018 116.0
302.970917 92.0
303.209991 100.0
304.712463 100.0
306.584473 56.0
307.097351 220.0
307.219055 64.0
307.718109 208.0
308.109253 120.0
308.329407 88.0
308.661499 52.0
308.762909 144.0
309.108551 812.0
309.161713 140.0
309.851501 44.0
310.125885 144.0
311.085938 168.0
311.117523 144.0
311.405457 48.0
311.489746 60.0
312.132904 212.0
313.100616 144.0
313.844147 64.0
313.932312 68.0
314.126282 48.0
314.909882 92.0
315.842987 56.0
317.670776 136.0
325.052582 144.0
326.113861 368.0
326.144348 236.0
328.387451 60.0
329.343933 120.0
333.096497 52.0
338.798187 128.0
338.856812 104.0
341.135803 176.0
347.554596 128.0
351.573425 100.0
352.839661 36.0
353.640167 84.0
362.009277 52.0
363.229675 112.0
367.383636 132.0
369.73349 108.0
375.34201 140.0
376.434021 28.0
384.661041 76.0
389.045349 212.0
391.904541 108.0
406.859192 128.0
423.927704 64.0
428.517395 52.0
431.005341 48.0
435.83667 84.0
437.887512 120.0
443.247253 108.0
454.081482 80.0
471.978058 100.0
485.564972 68.0
490.700958 76.0
491.666962 76.0
517.369995 44.0
519.953613 40.0
520.584656 80.0
521.475037 64.0
534.724915 56.0
537.130005 52.0
547.67511 80.0
560.904175 68.0
564.358521 76.0
574.593628 96.0
594.601929 56.0
612.344543 148.0
639.012268 100.0
640.96582 20.0
672.195068 84.0
679.85376 56.0
682.326172 48.0
693.387024 144.0
746.606262 72.0
758.256592 48.0
759.435364 84.0
766.488586 120.0
777.842712 148.0
785.399048 168.0
815.165344 76.0
818.572693 48.0
826.518372 124.0
832.387939 200.0
837.85199 176.0
839.171753 148.0
847.164368 164.0
847.674255 164.0
850.968811 116.0
871.246277 64.0
871.622314 184.0
879.690918 180.0
889.481689 224.0
891.114807 112.0
905.430908 80.0
907.480225 124.0
911.477661 88.0
922.887756 68.0
928.531494 120.0
929.848022 196.0
931.438782 176.0
938.193359 60.0
944.917297 148.0
953.655518 160.0
956.207947 160.0
972.667419 168.0
989.279968 116.0
993.980469 160.0
994.513916 168.0
1004.278931 76.0
1007.005493 196.0
1009.198303 140.0
1015.72113 116.0
1016.196899 172.0
1017.237732 144.0
1030.100708 212.0
1041.155518 152.0
1043.288818 172.0
1044.240356 84.0
1061.651733 168.0
1064.00061 132.0
1065.689209 160.0
1066.267578 152.0
1071.492554 176.0
1073.434937 196.0
1081.948364 156.0
1084.090088 176.0
1084.968384 168.0
1089.161621 148.0
1097.189697 140.0
1105.545166 40.0
1106.677124 128.0
1108.048096 56.0
1109.022217 144.0
1110.169067 152.0
1114.829224 116.0
1116.1521 120.0
1126.549072 104.0
1134.271118 48.0
1138.907715 136.0
1139.996094 48.0
1146.355225 48.0
1149.625732 128.0
1153.002441 184.0
1156.045532 180.0
1162.727539 168.0
1164.723633 96.0
1164.920654 68.0
1168.918335 152.0
1169.374268 128.0
1176.135498 160.0
1179.441406 204.0
1183.491333 164.0
1188.35083 128.0
1203.147705 148.0
1203.479004 136.0
1203.548096 88.0
1206.194092 160.0
1206.339233 180.0
1207.521606 208.0
1209.922607 92.0
1211.189819 136.0
1211.459961 220.0
1212.173584 120.0
1221.212524 48.0
1221.268188 136.0
1234.917603 200.0
1236.23291 132.0
1239.63623 280.0
1239.909546 148.0
1240.673462 156.0
1247.243896 184.0
1250.577881 144.0
1252.640869 192.0
1253.373535 216.0
1253.592041 60.0
1255.171021 232.0
1262.04834 236.0
1264.37561 124.0
1264.57373 112.0
1275.233765 252.0
1278.490967 176.0
1279.458984 152.0
1280.128296 208.0
1282.08728 180.0
1286.609375 120.0
1287.28772 108.0
1288.537598 20.0
1291.418457 184.0
1299.046875 156.0
1299.283569 108.0
1312.012695 148.0
1312.50293 192.0
1314.270142 120.0
1315.887573 200.0
1324.209839 164.0
1325.992188 144.0
1326.369019 100.0
1327.846558 128.0
1328.15271 172.0
1329.016113 168.0
1330.402222 164.0
1333.016968 120.0
1336.478027 124.0
1341.940674 156.0
1346.13623 80.0
1346.647339 168.0
1346.954102 80.0
1348.861328 248.0
1350.243164 152.0
1350.65271 96.0
1351.611084 160.0
1354.751953 160.0
1358.358521 136.0
1359.781982 180.0
1361.852417 148.0
1364.159668 100.0
1365.299316 120.0
1365.622925 84.0
1366.380615 128.0
1368.271973 192.0
1368.352905 124.0
1368.500244 184.0
1368.713745 208.0
1374.094116 200.0
1377.822388 128.0
1378.775635 152.0
1379.773438 108.0
1380.36499 148.0
1380.416748 132.0
1381.674072 180.0
1383.161499 220.0
1383.235596 84.0
1388.407104 148.0
1389.794189 208.0
1392.125 172.0
1392.518555 84.0
1393.246582 208.0
1393.432251 216.0
1395.490967 172.0
1397.045288 152.0
1397.975342 200.0
1398.094482 208.0
1398.369751 132.0
1401.67627 192.0
1404.43457 204.0
1404.680176 232.0
1411.581665 144.0
1413.466675 128.0
1414.45459 180.0
1416.596191 184.0
1420.081543 184.0
1429.78833 140.0
1430.2323 88.0
1431.979126 176.0
1434.819946 44.0
1438.486206 192.0
1444.417847 168.0
1445.554443 216.0
1448.505371 208.0
1449.808594 72.0
1450.361816 232.0
1456.758545 148.0
1458.278198 36.0
1459.707397 192.0
1461.959106 92.0
1463.359619 80.0
1464.342041 248.0
1468.23645 68.0
1469.548462 140.0
1469.800171 144.0
1479.973633 124.0
1480.157471 40.0
1480.693481 240.0
1481.903809 172.0
1482.340576 276.0
1486.803589 168.0
1487.041504 220.0
1487.555786 200.0
1487.908936 204.0
1488.43103 124.0
1492.441895 116.0
1493.964722 68.0
1494.764893 128.0
1500.39502 172.0
