>compound MLS001140708-01!1-[(2S)-2-[[(2S)-2-(2,4-dioxo-1H-quinazolin-3-yl)-3-phenylpropanoyl]amino]propanoyl]piperidine-4-carboxylic acid
>formula C26H28N4O6
>ionization [M+H]+
>parentmass 493.209
#inchi InChI=1S/C26H28N4O6/c1-16(23(32)29-13-11-18(12-14-29)25(34)35)27-22(31)21(15-17-7-3-2-4-8-17)30-24(33)19-9-5-6-10-20(19)28-26(30)36/h2-10,16,18,21H,11-15H2,1H3,(H,27,31)(H,28,36)(H,34,35)/t16-,21-/m0/s1
#inchikey QSDALNKTMACYSH
#Ion_Source LC-ESI
#Instrument qTof
#Compound_Source NIH Natural Product Library
#PI Dorrestein
#Data_Collector VVP/LMS
#Scan -1
#Precursor_MZ 493.209
#ExactMass 492.201
#Charge 1
#CAS_Number N/A
#Pubmed_ID N/A
#Smiles C[C@H](NC(=O)[C@H](Cc1ccccc1)n2c(=O)[nH]c3ccccc3c2=O)C(=O)N4CCC(CC4)C(=O)O
#INCHI_AUX N/A
#Library_Class 1
#SpectrumID CCMSLIB00000079890
#IonMode Positive
#UpdateWorkflowName UPDATE-SINGLE-ANNOTATED-GOLD
#LibraryQualityString Gold
#TaskID b1d8e8f6646f4e71acdff9ca3d919d08
##Scan# 1836
#SpectrumFile p1-E12_GE12_01_17932.mzXML
#LibraryName NIH_Natural_Products_Library.mgf
#MQScore -1
#Organism NIH_Natural_Products_Library
#TIC_Query 0
#RT_Query -1
#MZErrorPPM -1
#SharedPeaks 0
#MassDiff 0
#LibMZ -1
#SpecMZ 493.209
#SpecCharge 0
#internalFilename spec-00000.mgf

>collision 10
95.213928 120.0
95.2994 136.0
95.867584 112.0
95.88707 176.0
96.253822 120.0
96.406189 100.0
96.459091 176.0
96.55085 160.0
96.670181 144.0
96.740646 104.0
97.007057 148.0
97.281693 152.0
97.320953 68.0
97.377899 100.0
97.507889 148.0
97.574402 80.0
97.824242 168.0
97.867554 68.0
97.912849 156.0
98.409767 184.0
98.508507 152.0
98.599396 232.0
98.642883 136.0
98.848572 136.0
98.870338 220.0
98.927734 156.0
98.971291 216.0
99.173355 236.0
99.337936 172.0
99.363724 136.0
99.381584 140.0
99.437141 176.0
99.532433 148.0
99.582977 132.0
99.76886 164.0
99.995621 112.0
100.013535 88.0
100.182793 44.0
100.19873 48.0
100.445923 196.0
100.489807 96.0
100.507301 172.0
100.795296 140.0
100.845261 172.0
100.891235 176.0
101.330429 192.0
101.521942 252.0
101.640297 56.0
101.654343 156.0
101.90332 96.0
102.037979 152.0
102.098297 212.0
102.690407 112.0
102.892517 200.0
102.999222 196.0
103.027725 180.0
103.054138 4576.0
103.1063 136.0
103.140663 116.0
103.175835 72.0
103.221527 72.0
103.284225 64.0
103.314568 60.0
103.417763 48.0
103.529114 144.0
103.589874 76.0
103.78466 152.0
104.056442 704.0
104.243179 140.0
104.365135 108.0
104.485138 164.0
104.737556 136.0
104.961731 180.0
105.029404 196.0
105.063713 84.0
105.224937 120.0
105.261688 136.0
105.723679 128.0
105.926376 96.0
106.024719 104.0
106.100563 132.0
106.114914 212.0
106.227707 176.0
106.260529 196.0
106.607536 156.0
106.879082 148.0
107.05188 120.0
107.374496 204.0
107.594147 132.0
107.608604 180.0
107.623055 152.0
107.705658 72.0
107.761436 192.0
107.783524 220.0
107.939194 188.0
108.065361 160.0
108.123306 168.0
108.226807 152.0
108.303429 152.0
108.344856 180.0
108.458633 192.0
108.838478 176.0
109.210144 232.0
109.260384 208.0
109.414391 196.0
109.539337 156.0
109.647682 208.0
109.699791 44.0
109.749825 124.0
109.804047 184.0
110.077423 96.0
110.131081 156.0
110.379951 168.0
110.404602 188.0
110.510101 60.0
110.623108 196.0
110.755028 252.0
110.838829 88.0
111.12188 144.0
111.163849 48.0
111.333885 164.0
111.407402 104.0
111.455719 40.0
111.573418 144.0
111.756393 204.0
111.969002 184.0
112.075836 6724.0
112.149544 104.0
112.183922 68.0
112.24295 112.0
112.28302 96.0
112.739021 136.0
112.777061 56.0
112.853165 152.0
112.996986 168.0
113.016029 172.0
113.077698 356.0
113.126076 116.0
113.276428 120.0
113.812988 176.0
113.8321 200.0
114.144463 112.0
114.40403 184.0
114.855782 204.0
115.297737 104.0
115.659187 188.0
115.84977 216.0
115.931183 136.0
116.237831 164.0
116.413857 116.0
116.551331 204.0
116.581413 196.0
117.097733 184.0
117.235611 112.0
117.736107 200.0
118.031219 148.0
118.084053 164.0
118.151108 96.0
118.211693 164.0
118.380539 100.0
118.759804 96.0
119.089714 140.0
119.137497 188.0
119.831497 144.0
119.853287 188.0
119.942642 256.0
119.988419 224.0
120.044327 796.0
120.132355 112.0
120.156349 124.0
120.221809 272.0
120.317848 56.0
120.365883 44.0
120.403 352.0
120.57122 136.0
120.689262 88.0
120.938652 188.0
121.059319 160.0
121.076584 132.0
121.166389 200.0
121.181725 144.0
121.567642 92.0
121.591782 168.0
121.945381 132.0
122.149864 136.0
122.169662 144.0
122.215866 196.0
122.273079 120.0
122.352318 152.0
122.715843 160.0
123.340584 164.0
123.389221 144.0
123.698929 56.0
123.721062 128.0
124.133171 196.0
124.173088 124.0
124.386093 200.0
124.588173 192.0
124.761513 120.0
124.979469 176.0
125.079613 168.0
125.514046 136.0
125.531578 204.0
125.656792 196.0
125.746048 220.0
126.197281 188.0
126.242004 112.0
126.376213 168.0
126.584373 208.0
126.810646 112.0
127.275009 184.0
127.340202 132.0
127.389549 156.0
127.609787 100.0
127.64801 116.0
128.00354 184.0
128.046005 164.0
128.066986 168.0
128.233337 96.0
128.366333 40.0
128.941956 220.0
128.980423 140.0
129.118347 200.0
129.211075 168.0
129.475922 112.0
129.541443 120.0
129.645828 60.0
129.679825 92.0
129.738754 204.0
129.829453 436.0
129.849854 156.0
129.888412 132.0
129.942856 136.0
130.086334 18720.0
130.172104 116.0
130.213165 52.0
130.281128 88.0
130.33429 20.0
130.364182 80.0
130.412918 88.0
130.437927 64.0
130.551605 124.0
130.808701 132.0
130.835007 144.0
130.97493 60.0
131.051498 640.0
131.087143 1280.0
131.340927 140.0
131.37384 48.0
131.389801 72.0
131.549545 156.0
131.629456 148.0
131.713959 92.0
131.768784 160.0
131.921829 112.0
131.999634 144.0
132.043091 124.0
132.060135 188.0
132.096024 196.0
132.118576 136.0
132.146027 72.0
132.293167 68.0
132.569626 120.0
132.594833 84.0
132.626923 128.0
132.656723 88.0
132.716339 112.0
132.73468 144.0
132.856232 92.0
132.904419 172.0
132.952606 104.0
133.094925 152.0
133.370605 48.0
133.425766 108.0
133.471756 172.0
133.685684 144.0
134.072571 200.0
134.636169 224.0
134.662018 20.0
134.734787 180.0
135.271286 84.0
135.491287 120.0
135.785675 216.0
135.897018 144.0
135.950378 140.0
136.066437 216.0
136.229004 116.0
136.48465 200.0
136.554138 168.0
137.047928 48.0
137.649719 68.0
137.783157 184.0
138.077377 164.0
138.096085 200.0
138.217728 144.0
138.264526 92.0
138.718918 44.0
138.883057 104.0
139.27739 212.0
139.345505 88.0
139.437149 148.0
139.575851 180.0
139.676971 120.0
140.022964 124.0
140.487305 152.0
140.576965 120.0
140.607651 116.0
140.798874 40.0
141.756958 156.0
141.804367 240.0
142.316757 116.0
142.34288 68.0
142.397491 152.0
142.563797 120.0
142.649353 140.0
142.744461 112.0
142.915726 156.0
142.979965 84.0
143.020432 28.0
143.134705 212.0
143.151367 176.0
143.415588 212.0
143.451569 184.0
143.570786 56.0
143.814133 80.0
143.880966 136.0
144.025787 168.0
144.430588 232.0
144.641144 264.0
144.902176 116.0
144.928528 28.0
145.037918 672.0
145.085693 160.0
145.170639 204.0
145.288162 68.0
145.33374 56.0
145.381729 80.0
145.475342 136.0
145.607407 124.0
145.739517 128.0
145.833237 112.0
145.867462 168.0
145.929398 56.0
145.979507 124.0
146.023743 28864.0
146.054276 308.0
146.106384 88.0
146.13118 40.0
146.155487 64.0
146.215652 60.0
146.326782 48.0
146.359894 100.0
146.376038 280.0
146.437149 60.0
146.502182 96.0
146.564819 180.0
146.641937 84.0
146.687729 192.0
146.77211 176.0
146.822754 116.0
146.83963 72.0
146.984375 88.0
147.025848 1996.0
147.687378 44.0
147.706741 100.0
147.752701 68.0
147.785461 192.0
148.027786 368.0
148.064941 144.0
148.101135 136.0
148.16066 224.0
148.30899 148.0
148.464813 152.0
148.561829 56.0
148.615204 76.0
149.035263 180.0
149.238434 128.0
149.263733 48.0
149.562973 36.0
149.612366 152.0
149.628708 180.0
150.128204 160.0
150.250168 116.0
150.42099 68.0
150.440506 100.0
151.320618 52.0
151.49205 124.0
151.619461 148.0
151.732208 84.0
151.78125 56.0
151.810669 136.0
152.159088 152.0
152.8965 180.0
152.955566 164.0
153.1698 188.0
153.623367 204.0
153.902237 200.0
153.954102 132.0
154.020782 124.0
154.178909 180.0
154.25058 40.0
154.290131 264.0
154.406357 140.0
154.426132 64.0
154.450867 156.0
154.599319 116.0
154.797348 124.0
155.431931 216.0
155.501404 172.0
155.677673 112.0
156.040451 168.0
156.077744 216.0
156.101959 268.0
156.657623 212.0
156.812119 136.0
157.039001 148.0
157.105179 188.0
157.713135 132.0
157.760895 112.0
157.908157 120.0
157.963181 180.0
158.110794 100.0
158.584152 144.0
158.669373 184.0
158.701965 268.0
158.737076 168.0
158.842407 112.0
159.276367 108.0
159.475159 204.0
159.744202 60.0
159.872528 216.0
160.06636 188.0
160.109161 108.0
160.257782 60.0
160.335892 188.0
160.356064 128.0
160.381271 56.0
160.522446 128.0
160.6082 164.0
160.731812 184.0
160.769669 140.0
160.951416 180.0
161.279831 112.0
161.456802 164.0
161.484634 140.0
161.78067 144.0
161.894608 100.0
162.211319 64.0
162.297516 192.0
162.518188 108.0
162.637451 40.0
162.695847 100.0
162.734833 168.0
162.761566 244.0
162.815186 156.0
162.832962 92.0
162.937103 204.0
163.049759 13716.0
163.092651 56.0
163.150574 64.0
163.198883 124.0
163.229401 208.0
163.247192 52.0
163.311371 68.0
163.420166 80.0
163.96254 124.0
163.990585 176.0
164.052521 876.0
164.148636 44.0
164.278717 176.0
164.393524 68.0
164.513489 40.0
164.600296 76.0
164.661575 64.0
164.745865 168.0
164.962357 156.0
164.983536 92.0
165.056458 160.0
165.156296 184.0
165.253876 96.0
165.705231 76.0
165.887192 96.0
166.03334 156.0
166.115417 180.0
166.138504 228.0
166.215469 116.0
166.364334 48.0
166.385361 104.0
166.438782 184.0
166.908997 160.0
167.001587 172.0
167.098404 188.0
167.246017 168.0
167.359283 116.0
167.591095 140.0
167.774078 72.0
168.024231 232.0
168.078415 236.0
168.406281 184.0
168.514771 180.0
168.933578 148.0
168.967209 104.0
169.446167 156.0
169.635345 112.0
169.873917 88.0
170.369751 152.0
170.58284 164.0
171.121338 132.0
171.433914 52.0
171.647675 92.0
171.725906 180.0
171.934616 144.0
172.234512 148.0
172.422989 176.0
172.723663 236.0
172.898956 112.0
173.074341 92.0
173.291733 124.0
173.391312 48.0
173.511887 120.0
173.792526 224.0
174.091766 180.0
174.152161 168.0
174.291397 280.0
174.577423 168.0
174.772583 164.0
174.809418 164.0
175.758026 132.0
176.124985 140.0
176.241226 84.0
176.48967 140.0
176.542557 136.0
176.629837 148.0
176.703903 88.0
176.751938 112.0
177.228149 208.0
177.299683 48.0
177.668243 64.0
177.790298 96.0
178.034546 180.0
178.406525 164.0
179.087723 140.0
179.162308 148.0
179.370163 208.0
179.52124 180.0
179.63414 144.0
179.6875 132.0
179.759537 28.0
179.962402 128.0
180.077469 184.0
180.173386 112.0
180.325699 104.0
180.37648 244.0
180.625168 136.0
180.774994 228.0
180.839218 144.0
181.064102 284.0
181.38562 152.0
182.217529 176.0
182.650345 100.0
182.90596 40.0
182.951721 160.0
182.98941 176.0
183.111832 132.0
183.487839 160.0
183.722458 52.0
184.211075 140.0
184.762543 184.0
184.900543 152.0
185.190247 240.0
185.274216 168.0
185.852173 160.0
185.930389 184.0
186.188293 204.0
186.45726 160.0
186.873291 140.0
186.933151 88.0
187.020248 92.0
187.052765 288.0
187.213547 100.0
187.336884 224.0
187.412399 64.0
187.513214 112.0
188.055969 184.0
188.241608 152.0
188.345383 176.0
188.610428 64.0
188.711578 52.0
189.384766 116.0
189.749222 88.0
189.916504 192.0
189.946671 32.0
190.015259 220.0
190.185684 184.0
190.707245 224.0
191.207809 92.0
191.287354 160.0
191.356461 164.0
191.419785 96.0
191.499649 140.0
191.598587 196.0
191.797211 192.0
192.082687 104.0
192.163986 132.0
192.19986 140.0
192.641586 172.0
193.056183 132.0
193.11702 116.0
193.379868 156.0
193.437988 156.0
193.847885 180.0
193.9608 140.0
194.028046 192.0
194.094208 304.0
194.216614 52.0
194.49408 124.0
194.530167 96.0
194.577362 136.0
194.860641 72.0
195.105209 112.0
195.124664 92.0
195.18306 232.0
195.255356 84.0
195.283173 160.0
195.391235 132.0
195.497391 36.0
195.672745 148.0
195.708939 112.0
196.087799 164.0
196.969482 112.0
197.005798 172.0
197.489365 156.0
197.545319 72.0
197.637634 188.0
197.715988 96.0
197.74678 132.0
197.864349 124.0
198.2677 76.0
198.312531 172.0
198.466721 68.0
198.584503 180.0
198.724762 112.0
198.873489 136.0
199.230103 104.0
199.261002 204.0
199.547684 188.0
200.17514 112.0
200.259628 132.0
200.380753 152.0
200.445557 152.0
200.521637 36.0
200.803574 104.0
200.989761 128.0
201.122955 2272.0
201.167557 164.0
201.591217 176.0
201.984207 164.0
202.094543 144.0
202.121307 148.0
202.332275 140.0
202.352097 68.0
202.374741 32.0
203.096649 140.0
203.126846 268.0
203.730392 196.0
204.010742 116.0
204.08548 132.0
204.760056 72.0
205.695267 200.0
205.729523 124.0
206.052231 128.0
207.047653 220.0
207.070557 140.0
207.22525 152.0
207.474579 156.0
209.048569 148.0
209.180954 108.0
209.561096 132.0
209.924286 120.0
210.098557 124.0
210.192551 188.0
210.466766 208.0
211.09668 176.0
211.362808 84.0
211.464096 140.0
211.672531 148.0
212.020157 176.0
212.246262 96.0
212.417374 120.0
212.545013 160.0
212.710449 184.0
212.756897 156.0
212.893356 200.0
213.003723 96.0
213.044388 140.0
213.21582 180.0
213.305923 224.0
213.721802 84.0
214.152649 152.0
214.286636 160.0
214.478973 96.0
214.779297 200.0
214.834732 148.0
215.596786 72.0
215.623093 32.0
215.643555 100.0
216.096802 224.0
216.169952 188.0
216.421692 176.0
216.650131 196.0
217.113235 148.0
217.362579 240.0
217.929276 176.0
218.035065 76.0
218.652664 128.0
218.913162 244.0
218.938217 168.0
219.079819 168.0
219.377243 100.0
219.633774 140.0
219.996735 92.0
220.064636 184.0
220.45105 200.0
220.563889 212.0
220.699875 224.0
221.072586 148.0
221.128815 192.0
221.210098 160.0
221.259064 120.0
221.700394 136.0
221.863419 144.0
222.014633 132.0
222.088837 1192.0
222.248978 56.0
222.272705 232.0
222.447815 128.0
223.090866 496.0
223.24704 116.0
223.958344 108.0
224.184769 204.0
224.405334 152.0
224.721481 80.0
224.903519 164.0
225.016953 132.0
225.097565 216.0
225.270798 48.0
225.375366 144.0
225.408234 172.0
225.5457 188.0
226.170853 116.0
226.194794 116.0
226.23671 148.0
226.425339 176.0
226.751892 104.0
227.000717 132.0
227.393707 200.0
227.465744 60.0
228.165695 152.0
229.445175 144.0
229.888565 172.0
230.154205 144.0
230.332382 172.0
230.389771 180.0
230.679886 172.0
231.021591 128.0
231.069992 220.0
231.093033 320.0
231.817871 188.0
231.911835 128.0
232.078186 132.0
232.128922 184.0
232.548767 68.0
232.642853 48.0
232.758224 48.0
232.818954 160.0
232.885773 108.0
232.934372 96.0
232.973862 56.0
233.0802 72.0
233.119705 152.0
233.320312 124.0
233.381119 240.0
233.508835 164.0
233.977448 136.0
234.278931 200.0
235.068604 32.0
235.248672 264.0
235.27005 144.0
235.557098 204.0
235.63652 64.0
235.972717 176.0
236.208191 180.0
236.434601 156.0
236.624374 148.0
236.645813 136.0
236.746857 136.0
236.958206 120.0
237.101654 780.0
238.108597 376.0
238.572464 192.0
238.661621 160.0
238.69545 212.0
238.87999 40.0
239.612671 40.0
239.849945 144.0
240.056503 148.0
240.204544 172.0
240.939255 124.0
241.044312 128.0
241.149384 144.0
242.003174 204.0
242.232346 104.0
242.706512 152.0
242.873978 152.0
243.078735 208.0
243.628281 84.0
244.215775 116.0
244.399323 124.0
244.533127 136.0
244.657639 144.0
245.006424 100.0
245.074966 40.0
245.330536 240.0
245.885742 116.0
246.066788 56.0
246.138596 104.0
246.169815 164.0
246.235397 64.0
246.63533 192.0
247.08522 1700.0
247.145081 180.0
247.260849 240.0
247.332657 196.0
247.42363 36.0
247.464325 100.0
247.598175 140.0
247.683533 48.0
247.777512 96.0
248.028214 128.0
248.073654 276.0
248.094574 208.0
249.093796 176.0
249.157898 152.0
249.682831 204.0
249.934479 120.0
250.57048 100.0
250.863571 236.0
250.891937 160.0
251.065353 124.0
251.093735 116.0
251.283005 184.0
251.39975 152.0
251.554398 64.0
251.611221 172.0
251.724899 36.0
251.873322 56.0
252.021805 200.0
252.122925 108.0
252.151367 132.0
252.22406 128.0
252.347351 76.0
252.957916 124.0
253.087723 124.0
253.308502 140.0
253.64212 136.0
253.87674 172.0
253.997269 140.0
254.057541 128.0
254.282822 128.0
254.520905 164.0
254.593948 184.0
254.657455 164.0
255.350327 232.0
255.999542 192.0
256.334015 152.0
256.429626 152.0
256.628784 96.0
256.671906 132.0
257.076996 224.0
257.648529 108.0
257.670898 208.0
258.048035 56.0
258.105591 68.0
258.243103 140.0
258.268677 76.0
259.068939 68.0
259.190674 200.0
260.024445 156.0
260.917419 100.0
260.94635 152.0
261.024658 104.0
261.136078 172.0
261.602051 192.0
261.667023 88.0
261.966522 140.0
262.41449 180.0
262.469299 84.0
262.51767 72.0
262.575714 112.0
263.402008 360.0
263.792999 180.0
263.835022 88.0
263.88028 72.0
263.909363 216.0
264.005096 244.0
264.058136 384.0
264.148682 232.0
264.225555 116.0
264.280884 156.0
264.299561 140.0
264.350586 204.0
264.483521 152.0
264.524048 36.0
264.552887 124.0
264.589905 140.0
264.641449 152.0
264.687866 128.0
264.71344 132.0
264.747467 256.0
264.7789 140.0
264.829468 148.0
264.874786 76.0
264.911835 256.0
264.957031 160.0
265.021057 388.0
265.046295 456.0
265.096985 112556.0
265.194305 180.0
265.225983 184.0
265.291779 112.0
265.318359 92.0
265.348907 84.0
265.360443 204.0
265.394836 76.0
265.467865 132.0
265.492676 188.0
265.498108 44.0
265.504913 88.0
265.540222 124.0
265.58548 200.0
265.632111 320.0
265.670013 164.0
265.743164 120.0
265.775635 64.0
265.82312 224.0
265.883575 140.0
265.960938 120.0
266.017517 368.0
266.059479 300.0
266.099152 22176.0
266.161133 80.0
266.1716 68.0
266.230194 72.0
266.261963 44.0
266.287933 128.0
266.309021 120.0
266.335846 64.0
266.383362 84.0
266.438965 32.0
266.49527 168.0
266.508209 64.0
266.516052 124.0
266.555389 72.0
266.598328 108.0
266.635559 96.0
266.694366 44.0
266.723145 68.0
266.764343 64.0
266.802612 92.0
266.869598 84.0
266.936249 64.0
266.959015 100.0
267.019745 92.0
267.061462 68.0
267.102081 1720.0
267.181824 40.0
267.25058 60.0
267.276184 36.0
267.357666 120.0
267.400787 176.0
267.45517 128.0
267.514465 60.0
267.562286 44.0
267.645508 64.0
267.673279 72.0
267.696075 88.0
267.729706 116.0
267.777496 116.0
267.810364 132.0
267.86322 100.0
267.901398 124.0
267.928558 64.0
267.961212 140.0
268.02182 192.0
268.07605 88.0
268.113434 380.0
268.171722 100.0
268.222321 100.0
268.32373 128.0
268.390137 52.0
268.432526 92.0
268.543427 72.0
268.677155 92.0
268.732849 72.0
268.768524 92.0
268.804413 60.0
268.869659 112.0
268.931671 108.0
268.96106 124.0
269.016541 64.0
269.077087 192.0
269.189575 52.0
269.277771 56.0
269.333282 44.0
269.613678 68.0
269.643677 120.0
269.728668 60.0
270.003296 128.0
270.127594 72.0
270.598846 104.0
270.837891 60.0
271.027893 60.0
271.090149 64.0
271.188477 36.0
271.326141 100.0
271.454987 68.0
271.942841 40.0
272.869171 156.0
272.918518 28.0
273.668671 128.0
274.129822 140.0
274.782684 112.0
274.931152 48.0
275.078308 1428.0
275.145721 192.0
275.277771 116.0
275.40329 40.0
275.492462 136.0
275.832825 176.0
276.082275 416.0
276.166779 100.0
276.514191 168.0
276.567139 112.0
276.785645 64.0
277.024109 100.0
277.084564 80.0
277.126801 44.0
277.169861 72.0
277.391907 112.0
278.204651 168.0
278.370667 40.0
278.716125 76.0
278.835754 92.0
278.895569 88.0
278.975342 88.0
279.194794 48.0
279.351105 68.0
280.519958 56.0
281.143646 28.0
281.467438 80.0
281.527557 76.0
283.085876 64.0
285.697174 36.0
287.196136 180.0
288.077148 36.0
288.360962 168.0
290.952271 140.0
291.074493 128.0
292.124695 84.0
292.192719 80.0
292.253967 188.0
292.373047 160.0
292.475159 92.0
292.75174 168.0
292.822449 104.0
292.92804 116.0
293.0914 14008.0
293.140686 116.0
293.20401 40.0
293.265381 52.0
293.408539 44.0
293.451447 68.0
293.541382 64.0
293.619934 40.0
293.834839 56.0
293.926971 60.0
293.978149 112.0
294.094543 2592.0
294.172699 60.0
294.305847 60.0
294.384369 48.0
294.565399 48.0
294.667877 76.0
294.825043 60.0
295.098236 280.0
295.262634 56.0
295.618439 80.0
295.745056 32.0
295.786133 84.0
296.200439 80.0
296.39917 48.0
296.745331 48.0
298.568665 96.0
299.260315 64.0
299.74942 64.0
300.259644 100.0
307.716766 112.0
307.772614 80.0
308.163818 80.0
310.123474 140.0
310.197083 52.0
315.088257 152.0
319.061493 96.0
320.225067 116.0
321.05545 156.0
322.208374 52.0
323.234528 52.0
331.028839 76.0
337.084564 40.0
350.025116 144.0
362.443634 140.0
364.117249 108.0
364.549622 68.0
366.174072 240.0
372.65799 100.0
381.13913 52.0
382.002228 140.0
386.035034 120.0
387.126831 192.0
390.395721 120.0
391.2771 80.0
392.104279 96.0
395.782013 104.0
403.368835 56.0
408.027069 168.0
411.015594 84.0
413.035553 172.0
428.924225 112.0
431.934387 32.0
433.250763 96.0
433.661011 52.0
434.075562 60.0
437.853058 68.0
445.994965 68.0
446.17572 84.0
451.983459 88.0
456.114166 48.0
457.841553 132.0
459.986176 60.0
461.301849 92.0
462.602264 92.0
464.461975 40.0
469.343109 52.0
473.20578 116.0
473.27182 60.0
476.193542 92.0
480.123474 76.0
481.384644 116.0
485.143005 104.0
485.349091 76.0
488.621185 112.0
491.118866 80.0
491.246796 104.0
491.304138 180.0
492.805206 204.0
494.680328 96.0
499.873108 72.0
509.823029 92.0
518.614746 80.0
519.435425 48.0
520.288574 116.0
531.227356 52.0
531.337463 156.0
532.471252 60.0
534.608948 68.0
551.294617 112.0
552.351257 120.0
553.768677 120.0
554.903503 44.0
567.620117 76.0
572.481323 128.0
572.619446 60.0
578.229187 96.0
580.989197 124.0
583.871155 56.0
590.836243 92.0
592.080261 88.0
604.268921 28.0
618.179138 112.0
618.258301 60.0
621.747192 40.0
625.051758 144.0
649.610596 20.0
650.676331 148.0
651.128235 84.0
655.217896 60.0
658.431396 120.0
676.774231 100.0
689.769897 40.0
698.384888 208.0
705.334351 48.0
707.699097 72.0
715.796509 76.0
731.48877 152.0
732.441895 160.0
736.471069 96.0
745.969849 76.0
754.741943 200.0
772.755249 208.0
777.093384 68.0
784.127686 172.0
785.108887 64.0
787.653931 104.0
851.996887 68.0
862.275513 76.0
911.075439 64.0
918.883789 148.0
919.770874 88.0
920.477234 48.0
926.156006 148.0
932.569275 244.0
937.942749 88.0
969.827148 200.0
988.579529 192.0
991.021606 88.0
992.933472 76.0
1012.337463 44.0
1017.517761 72.0
1032.076294 172.0
1038.416016 136.0
1040.623413 60.0
1042.26123 176.0
1052.625366 56.0
1063.806763 104.0
1071.395752 144.0
1073.755371 156.0
1075.027466 136.0
1084.071411 164.0
1086.753296 124.0
1089.445068 176.0
1090.660645 60.0
1092.546265 172.0
1094.035156 84.0
1098.179932 44.0
1102.286133 184.0
1109.692749 152.0
1114.225708 168.0
1119.060791 112.0
1122.138916 168.0
1122.985718 184.0
1129.544922 76.0
1131.800171 184.0
1135.298096 80.0
1142.700195 240.0
1143.265503 208.0
1145.871338 196.0
1146.572021 132.0
1149.309814 64.0
1151.652344 188.0
1158.030396 252.0
1159.215942 168.0
1160.090332 76.0
1160.4021 160.0
1165.295532 76.0
1168.865234 168.0
1172.351685 56.0
1175.611328 280.0
1176.014038 140.0
1179.907593 208.0
1181.336914 72.0
1190.857788 224.0
1196.344849 92.0
1197.914917 96.0
1198.659058 224.0
1199.155273 144.0
1202.741821 192.0
1203.197388 108.0
1203.404541 80.0
1215.815796 196.0
1216.176636 216.0
1220.176025 148.0
1221.332275 56.0
1234.849243 148.0
1238.320679 168.0
1239.301392 148.0
1247.674316 192.0
1250.66394 168.0
1252.501709 212.0
1258.665405 148.0
1259.936768 148.0
1261.993408 200.0
1272.365723 64.0
1272.521851 140.0
1273.082764 152.0
1279.631592 232.0
1280.35791 176.0
1282.431152 216.0
1287.282349 164.0
1287.832275 100.0
1292.271484 128.0
1302.846191 56.0
1304.283325 220.0
1305.484009 68.0
1307.56311 68.0
1313.860718 176.0
1316.358032 172.0
1317.730469 220.0
1319.949341 184.0
1320.368774 184.0
1324.067017 56.0
1325.957886 184.0
1328.016968 208.0
1328.640747 132.0
1328.872925 80.0
1331.725708 192.0
1332.248779 160.0
1338.518188 164.0
1341.702026 160.0
1342.679199 148.0
1342.890625 104.0
1346.452271 160.0
1349.535889 116.0
1350.274536 184.0
1350.640137 140.0
1352.696289 140.0
1356.204956 148.0
1357.949951 192.0
1362.515625 160.0
1368.310913 64.0
1368.384521 132.0
1369.636353 180.0
1371.640625 228.0
1373.565186 224.0
1376.19873 204.0
1376.281006 180.0
1383.267334 140.0
1387.245239 52.0
1389.151001 204.0
1393.620239 72.0
1393.924927 128.0
1394.965454 136.0
1396.757446 128.0
1399.771606 160.0
1401.335815 68.0
1401.544434 172.0
1402.990234 64.0
1403.668701 132.0
1404.630859 144.0
1408.056763 120.0
1410.208374 236.0
1410.469971 76.0
1411.187744 228.0
1414.322144 164.0
1414.57666 172.0
1415.737183 152.0
1416.590942 48.0
1416.815674 136.0
1419.656494 184.0
1421.576782 156.0
1422.072144 116.0
1422.882812 112.0
1425.090942 184.0
1426.834595 132.0
1427.278198 100.0
1428.300903 188.0
1434.309692 152.0
1436.074097 144.0
1440.036499 144.0
1441.222534 220.0
1442.703857 136.0
1443.157471 184.0
1443.406982 92.0
1446.493652 128.0
1448.166992 44.0
1454.498169 180.0
1454.604492 164.0
1454.665161 188.0
1455.128296 192.0
1457.07251 184.0
1460.120605 108.0
1460.584595 92.0
1461.581177 252.0
1463.811401 192.0
1466.767456 116.0
1466.912354 224.0
1468.292358 48.0
1469.612061 200.0
1471.82959 188.0
1473.895508 200.0
1476.311035 156.0
1477.488892 192.0
1477.986206 144.0
1480.029907 200.0
1480.428101 188.0
1481.339478 204.0
1485.30249 112.0
1486.706543 112.0
1488.341553 72.0
1490.300171 164.0
1490.599854 80.0
1491.575806 124.0
1496.276123 208.0
1499.935303 124.0
1500.875732 168.0
1501.299927 32.0
1501.392456 64.0
1504.13147 120.0
1504.270386 228.0
