>compound MLS001361402-01!Nalpha-Benzoyl-DL-arginine 4-nitroanilide hydrochloride911-77-3
>formula C19H22N6O4
>ionization [M+H]+
>parentmass 399.1775296360905
#inchi InChI=1S/C19H22N6O4/c20-19(21)22-12-4-7-16(24-17(26)13-5-2-1-3-6-13)18(27)23-14-8-10-15(11-9-14)25(28)29/h1-3,5-6,8-11,16H,4,7,12H2,(H,23,27)(H,24,26)(H4,20,21,22)
#inchikey RKDYKIHMFYAPMZ
#origInchi InChI=1S/C19H22N6O4.ClH/c20-19(21)22-12-4-7-16(24-17(26)13-5-2-1-3-6-13)18(27)23-14-8-10-15(11-9-14)25(28)29;/h1-3,5-6,8-11,16H,4,7,12H2,(H,23,27)(H,24,26)(H4,20,21,22);1H
#Ion_Source LC-ESI
#Instrument qTof
#Compound_Source NIH Pharmacologically Active Library
#PI Dorrestein
#Data_Collector VP/LMS
#Scan -1
#Precursor_MZ 399.174
#ExactMass 398.17
#Charge 1
#CAS_Number N/A
#Pubmed_ID N/A
#Smiles NC(=N)NCCCC(NC(=O)c1ccccc1)C(=O)Nc2ccc(cc2)[N+](=O)[O-].Cl
#INCHI_AUX N/A
#Library_Class 1
#SpectrumID CCMSLIB00000085289
#IonMode Positive
#UpdateWorkflowName UPDATE-SINGLE-ANNOTATED-GOLD
#LibraryQualityString Gold
#TaskID d252d724072548979f1f6f1ced849daf
##Scan# 1630
#SpectrumFile p3-G10_GG10_01_18303.mzXML
#LibraryName Pharm_Active_Library.mgf
#MQScore -1
#Organism Pharm_Active_Library
#TIC_Query 0
#RT_Query -1
#MZErrorPPM -1
#SharedPeaks 0
#MassDiff 0
#LibMZ -1
#SpecMZ 399.174
#SpecCharge 0
#internalFilename spec-00000.mgf

>collision 10
44.923141 144.0
45.017662 128.0
45.07135 156.0
45.09808 188.0
45.130165 164.0
45.14999 136.0
45.160927 56.0
45.197048 84.0
45.218559 164.0
45.254608 124.0
45.380566 40.0
45.399338 188.0
45.416775 148.0
45.429302 236.0
45.502666 156.0
45.516094 96.0
45.584606 200.0
45.623589 184.0
45.671459 188.0
45.734833 180.0
45.801231 120.0
45.828178 60.0
45.864567 92.0
45.879395 148.0
45.903667 136.0
45.915806 132.0
45.937389 160.0
46.030521 180.0
46.065639 200.0
46.169724 160.0
46.180542 168.0
46.218426 92.0
46.249554 128.0
46.32539 140.0
46.349426 184.0
46.352768 136.0
46.358398 212.0
46.470463 96.0
46.508465 188.0
46.517464 172.0
46.53426 236.0
46.557346 152.0
46.653824 176.0
46.691898 196.0
46.72863 132.0
46.758568 200.0
46.772182 84.0
46.796688 76.0
46.811668 148.0
46.842854 192.0
46.871609 148.0
46.889324 208.0
46.920681 148.0
47.006615 192.0
47.022995 68.0
47.061218 156.0
47.236469 108.0
47.242279 68.0
47.246445 140.0
47.34156 44.0
47.375805 36.0
47.394985 64.0
47.530746 100.0
47.576042 152.0
47.585651 180.0
47.679066 132.0
47.713432 144.0
47.757442 172.0
47.843601 168.0
48.060539 176.0
48.084003 144.0
48.151657 108.0
48.187576 108.0
48.238712 312.0
48.262218 132.0
48.288494 204.0
48.320312 216.0
48.361832 156.0
48.411674 428.0
48.45739 264.0
48.475403 84.0
48.557201 164.0
48.636295 148.0
48.729343 168.0
48.786331 116.0
48.803017 172.0
48.88509 216.0
48.937988 104.0
48.981163 140.0
49.007637 236.0
49.059208 112.0
49.074543 196.0
49.201515 152.0
49.262966 56.0
49.297897 200.0
49.355213 256.0
49.439152 184.0
49.483948 108.0
49.605839 116.0
49.636688 56.0
49.682976 144.0
49.737705 176.0
49.76017 204.0
49.869747 180.0
49.88662 108.0
49.925991 156.0
50.041386 204.0
50.062508 208.0
50.100441 228.0
50.116039 60.0
50.37706 180.0
50.415215 184.0
50.430759 196.0
50.491478 136.0
50.520161 168.0
50.596279 152.0
50.60619 184.0
50.650093 168.0
50.686932 140.0
50.699688 272.0
50.711025 112.0
50.813133 168.0
50.855709 148.0
50.897217 168.0
51.008671 176.0
51.034718 144.0
51.04467 136.0
51.061737 100.0
51.081654 180.0
51.151382 156.0
51.172741 184.0
51.195526 132.0
51.211193 164.0
51.236835 152.0
51.251083 68.0
51.310951 140.0
51.416233 184.0
51.489136 148.0
51.515041 204.0
51.560768 232.0
51.590786 200.0
51.612232 212.0
51.64513 148.0
51.670879 128.0
51.720516 164.0
51.748238 172.0
51.850773 144.0
51.885723 120.0
51.901493 124.0
51.929424 168.0
51.944523 68.0
51.973217 132.0
52.047863 216.0
52.112503 168.0
52.217449 172.0
52.234711 224.0
52.272121 160.0
52.334019 176.0
52.388752 204.0
52.414688 172.0
52.428894 168.0
52.450718 108.0
52.509838 112.0
52.589199 36.0
52.69318 324.0
52.831978 156.0
52.875389 156.0
52.888416 216.0
52.90699 212.0
53.060818 228.0
53.134789 96.0
53.172516 196.0
53.25964 156.0
53.272713 160.0
53.310493 204.0
53.322121 160.0
53.343925 172.0
53.377365 196.0
53.390419 168.0
53.512695 184.0
53.642365 148.0
53.681732 160.0
53.798466 136.0
53.8102 212.0
53.86272 184.0
53.880253 120.0
53.932861 180.0
54.000126 176.0
54.011829 164.0
54.031475 164.0
54.092316 136.0
54.136242 136.0
54.168465 296.0
54.188976 208.0
54.206562 68.0
54.265194 228.0
54.322395 196.0
54.398708 140.0
54.482418 48.0
54.566196 184.0
54.586784 196.0
54.742779 168.0
54.803177 160.0
54.955051 120.0
54.98457 136.0
55.014091 148.0
55.077591 104.0
55.149998 132.0
55.172173 112.0
55.229851 108.0
55.290516 124.0
55.398613 132.0
55.464119 196.0
55.526093 148.0
55.558727 160.0
55.592857 160.0
55.606216 224.0
55.705708 140.0
55.742851 156.0
55.89156 176.0
55.931747 120.0
55.960033 168.0
56.070274 216.0
56.088161 180.0
56.110355 180.0
56.147804 44.0
56.205986 164.0
56.229866 140.0
56.268333 208.0
56.280624 188.0
56.291077 68.0
56.314972 36.0
56.335239 120.0
56.352322 144.0
56.47192 180.0
56.487263 188.0
56.506329 96.0
56.538403 148.0
56.551186 148.0
56.568542 148.0
56.760975 272.0
56.948681 184.0
57.011723 156.0
57.03273 156.0
57.094376 192.0
57.123745 168.0
57.144939 240.0
57.18465 128.0
57.195187 68.0
57.24638 172.0
57.388031 56.0
57.409145 148.0
57.546467 124.0
57.605885 232.0
57.726292 224.0
57.738392 100.0
57.829174 164.0
57.941238 128.0
58.001698 152.0
58.050377 188.0
58.086781 196.0
58.12471 200.0
58.152031 152.0
58.180874 172.0
58.250732 160.0
58.288719 156.0
58.323673 156.0
58.387535 112.0
58.401226 200.0
58.455997 268.0
58.489483 96.0
58.529068 148.0
58.614414 160.0
58.650009 116.0
58.693645 144.0
58.718536 224.0
58.748554 172.0
58.792427 192.0
58.805016 200.0
58.919552 176.0
58.979401 172.0
59.032188 256.0
59.072433 224.0
59.086205 56.0
59.162727 196.0
59.196415 200.0
59.242367 120.0
59.351192 160.0
59.427887 104.0
59.592186 156.0
59.615234 48.0
59.642902 120.0
59.722862 144.0
59.818272 160.0
59.835205 148.0
59.933838 116.0
59.965775 148.0
60.043243 168.0
60.069466 108.0
60.156769 196.0
60.174416 52.0
60.189857 120.0
60.273273 132.0
60.330463 220.0
60.37376 96.0
60.403149 160.0
60.413979 160.0
60.437187 140.0
60.458851 196.0
60.545551 176.0
60.612167 100.0
60.646267 192.0
60.756371 96.0
60.768646 224.0
60.917831 184.0
60.973774 184.0
60.986206 120.0
61.020409 256.0
61.090397 168.0
61.101288 184.0
61.112179 104.0
61.188446 188.0
61.247627 164.0
61.355274 216.0
61.381668 200.0
61.401939 292.0
61.49868 156.0
61.554886 132.0
61.638378 188.0
61.664249 172.0
61.677887 188.0
61.718967 196.0
61.778404 232.0
61.806568 212.0
61.84726 136.0
61.954933 212.0
62.11993 148.0
62.170143 144.0
62.220375 164.0
62.242355 152.0
62.25774 156.0
62.289715 132.0
62.334023 204.0
62.364902 172.0
62.547375 124.0
62.578861 188.0
62.616657 84.0
62.663918 168.0
62.904865 176.0
62.944698 188.0
63.015156 172.0
63.040203 192.0
63.080578 188.0
63.175468 100.0
63.229267 164.0
63.286259 192.0
63.318039 180.0
63.341694 148.0
63.363873 108.0
63.382889 140.0
63.397152 188.0
63.424095 116.0
63.436779 180.0
63.49382 148.0
63.536694 160.0
63.611282 208.0
63.70816 180.0
63.808289 144.0
63.884628 132.0
63.913269 152.0
63.9431 128.0
64.000816 152.0
64.043968 172.0
64.069305 148.0
64.082054 192.0
64.115814 240.0
64.161751 128.0
64.354813 188.0
64.369003 180.0
64.386749 156.0
64.425087 140.0
64.437874 156.0
64.45385 56.0
64.500198 172.0
64.553902 160.0
64.594292 148.0
64.636147 152.0
64.676163 156.0
64.822762 136.0
64.952911 176.0
65.062515 136.0
65.163704 192.0
65.202271 128.0
65.232811 140.0
65.342178 144.0
65.404938 204.0
65.470634 244.0
65.530556 164.0
65.591805 148.0
65.653076 140.0
65.689514 196.0
65.803146 208.0
65.875824 116.0
66.108276 200.0
66.166153 304.0
66.234962 504.0
66.264877 212.0
66.317604 152.0
66.407875 196.0
66.448959 160.0
66.500893 196.0
66.512253 168.0
66.59182 176.0
66.661682 204.0
66.689194 160.0
66.694099 148.0
66.729958 192.0
66.790131 160.0
66.918701 260.0
66.988731 168.0
67.009911 200.0
67.031097 192.0
67.114235 144.0
67.184372 200.0
67.205582 96.0
67.375389 124.0
67.398338 172.0
67.448929 160.0
67.478355 208.0
67.499619 160.0
67.568314 136.0
67.64196 152.0
67.699272 108.0
67.736946 176.0
67.764793 156.0
67.979607 360.0
68.033775 196.0
68.115891 168.0
68.137245 152.0
68.189835 160.0
68.245728 156.0
68.26313 176.0
68.28849 80.0
68.375694 176.0
68.389687 104.0
68.416847 120.0
68.642586 172.0
68.711868 144.0
68.742355 184.0
68.769623 72.0
68.858788 196.0
69.005867 304.0
69.086906 52.0
69.119713 136.0
69.125473 196.0
69.159721 32.0
69.172966 188.0
69.211044 188.0
69.292213 92.0
69.318726 188.0
69.360161 188.0
69.373421 72.0
69.46463 112.0
69.552582 128.0
69.567528 88.0
69.622322 168.0
69.673813 120.0
69.866676 88.0
69.923058 200.0
70.129791 104.0
70.183144 204.0
70.211494 156.0
70.365021 168.0
70.445183 88.0
70.590599 176.0
70.65918 120.0
70.766457 176.0
70.781372 64.0
70.793098 224.0
70.804825 144.0
70.952286 184.0
70.980789 244.0
71.019363 108.0
71.036942 184.0
71.062988 204.0
71.210716 144.0
71.237595 160.0
71.256073 168.0
71.331703 180.0
71.365334 240.0
71.444382 116.0
71.472984 120.0
71.611038 180.0
71.672363 120.0
71.777885 60.0
71.838608 196.0
71.894295 124.0
72.013916 188.0
72.100342 184.0
72.142601 112.0
72.210236 188.0
72.345612 160.0
72.420128 200.0
72.518402 36.0
72.543831 224.0
72.570953 160.0
72.584076 212.0
72.642189 208.0
72.674423 164.0
72.727036 124.0
72.757599 184.0
72.78476 192.0
72.806839 188.0
72.90538 152.0
73.104362 172.0
73.117973 212.0
73.191177 160.0
73.208206 160.0
73.308723 272.0
73.438301 264.0
73.457062 128.0
73.494598 132.0
73.508255 204.0
73.519783 196.0
73.663628 140.0
73.701218 108.0
73.725143 148.0
73.892723 164.0
74.02282 176.0
74.058784 104.0
74.093048 196.0
74.146172 120.0
74.255898 112.0
74.279915 120.0
74.343399 204.0
74.501373 120.0
74.742416 148.0
74.755859 204.0
74.938393 148.0
75.007332 176.0
75.057327 184.0
75.142418 316.0
75.198799 120.0
75.216064 156.0
75.241959 124.0
75.26268 228.0
75.419899 312.0
75.464844 196.0
75.57209 196.0
75.610161 132.0
75.622276 144.0
75.69326 136.0
75.724434 48.0
75.802399 156.0
75.869995 192.0
75.915085 188.0
75.954971 188.0
76.067772 52.0
76.093811 184.0
76.198029 148.0
76.255371 128.0
76.331871 124.0
76.512833 176.0
76.58075 236.0
76.643471 116.0
76.702728 172.0
76.753632 184.0
76.823059 148.0
76.891113 164.0
77.020432 188.0
77.039536 184.0
77.05526 128.0
77.089844 172.0
77.142647 156.0
77.154884 144.0
77.222824 132.0
77.24408 240.0
77.352577 144.0
77.41732 336.0
77.457649 88.0
77.555779 160.0
77.578568 232.0
77.689056 156.0
77.755737 124.0
77.885674 76.0
77.918335 176.0
77.934868 144.0
77.982315 164.0
78.015717 176.0
78.047363 44.0
78.063187 196.0
78.172264 176.0
78.222458 172.0
78.272606 184.0
78.316635 132.0
78.35363 152.0
78.369492 132.0
78.515808 136.0
78.588135 188.0
78.600487 208.0
78.642799 156.0
78.7117 160.0
78.729362 164.0
78.752319 80.0
78.860107 144.0
78.872482 80.0
78.911377 248.0
78.946739 204.0
79.191139 236.0
79.252991 180.0
79.277802 208.0
79.320343 164.0
79.350479 116.0
79.424965 120.0
79.474648 52.0
79.5989 224.0
79.632645 192.0
79.645081 220.0
79.678833 148.0
79.70549 132.0
79.732147 72.0
79.748146 164.0
79.780144 136.0
79.956764 232.0
80.045258 368.0
80.168877 164.0
80.203362 152.0
80.342926 112.0
80.387184 180.0
80.410736 148.0
80.496437 136.0
80.510719 48.0
80.619705 176.0
80.905907 136.0
80.961418 324.0
80.986488 128.0
81.002609 300.0
81.024109 112.0
81.068909 104.0
81.120888 180.0
81.144196 176.0
81.212341 200.0
81.242432 176.0
81.248169 136.0
81.253983 172.0
81.285904 120.0
81.318207 164.0
81.332565 164.0
81.372063 132.0
81.465454 152.0
81.503189 144.0
81.817955 88.0
81.864769 208.0
81.889984 176.0
82.023331 124.0
82.070206 156.0
82.104469 200.0
82.154976 192.0
82.182045 172.0
82.225349 164.0
82.274094 144.0
82.396904 196.0
82.427628 164.0
82.548744 88.0
82.583107 148.0
82.62339 224.0
82.657288 76.0
82.691673 220.0
82.71701 120.0
82.836533 204.0
82.979713 120.0
83.043182 200.0
83.100464 132.0
83.162941 156.0
83.215591 188.0
83.308212 112.0
83.384537 84.0
83.415436 208.0
83.435432 180.0
83.628265 132.0
83.648293 112.0
83.679237 172.0
83.88147 140.0
83.927048 252.0
83.976677 244.0
84.02372 156.0
84.058388 132.0
84.407951 248.0
84.431076 140.0
84.474976 148.0
84.539017 220.0
84.569344 204.0
84.601257 216.0
84.841255 72.0
84.982483 148.0
85.074249 160.0
85.155052 180.0
85.232208 136.0
85.311249 124.0
85.365799 168.0
85.42527 84.0
85.445503 196.0
85.52832 176.0
85.651695 208.0
85.683014 116.0
85.701439 208.0
85.874733 228.0
86.029747 176.0
86.042664 168.0
86.13472 128.0
86.271759 148.0
86.340179 176.0
86.353127 204.0
86.397522 208.0
86.421173 92.0
86.747543 128.0
86.819862 160.0
86.877365 360.0
86.925606 220.0
87.066704 152.0
87.100136 172.0
87.144722 204.0
87.178169 64.0
87.196754 124.0
87.256241 184.0
87.367836 180.0
87.466469 124.0
87.548393 212.0
87.604279 108.0
87.628494 148.0
87.694199 188.0
87.732613 88.0
87.796265 132.0
87.863998 180.0
87.913803 128.0
88.033287 136.0
88.083717 184.0
88.175278 176.0
88.283714 196.0
88.349335 244.0
88.375374 148.0
88.59256 180.0
88.615044 152.0
88.65815 84.0
88.735001 128.0
88.800636 84.0
88.849411 200.0
88.92823 176.0
89.02774 48.0
89.131058 176.0
89.218071 164.0
89.296455 152.0
89.424706 176.0
89.448921 140.0
89.480927 232.0
89.642921 208.0
89.65538 196.0
89.737175 160.0
89.784317 164.0
89.804268 236.0
89.820152 132.0
89.891853 192.0
89.976791 188.0
89.99379 92.0
90.016449 128.0
90.059883 152.0
90.150574 100.0
90.364258 108.0
90.421028 196.0
90.553566 256.0
90.575241 220.0
90.638817 112.0
90.768791 192.0
90.799965 212.0
90.833519 180.0
91.023911 140.0
91.052391 336.0
91.111282 156.0
91.147385 144.0
91.194893 184.0
91.213905 192.0
91.348923 116.0
91.379364 76.0
91.409813 156.0
91.432648 136.0
91.506889 108.0
91.535454 192.0
91.584969 136.0
91.84803 148.0
92.033943 184.0
92.041107 220.0
92.082809 160.0
92.103821 156.0
92.138206 204.0
92.174507 60.0
92.262436 112.0
92.27964 196.0
92.327454 156.0
92.382919 180.0
92.411621 76.0
92.569916 144.0
92.62796 108.0
92.647118 132.0
92.718178 148.0
92.754761 192.0
92.819626 84.0
92.850311 156.0
92.863739 92.0
93.013412 252.0
93.053726 172.0
93.072929 168.0
93.128624 240.0
93.153595 176.0
93.326569 212.0
93.345802 184.0
93.384438 176.0
93.479836 172.0
93.519455 124.0
93.527008 152.0
93.55938 200.0
93.794411 208.0
93.807907 172.0
93.888893 228.0
93.915894 96.0
93.946762 116.0
94.029732 124.0
94.161026 104.0
94.227867 20.0
94.284683 200.0
94.311218 192.0
94.373604 120.0
94.499588 180.0
94.532227 196.0
94.549644 156.0
94.567062 216.0
94.594162 32.0
94.774124 144.0
94.788147 156.0
94.813049 148.0
94.908035 112.0
94.9701 180.0
94.999199 176.0
95.012779 152.0
95.060028 6016.0
95.117577 128.0
95.171936 164.0
95.212715 160.0
95.226311 76.0
95.25351 180.0
95.340942 136.0
95.368156 164.0
95.426476 92.0
95.469261 52.0
95.593765 144.0
95.716408 164.0
95.776787 232.0
95.794319 168.0
95.831337 172.0
95.856667 72.0
95.889801 56.0
95.952682 108.0
95.985329 44.0
96.006783 216.0
96.045258 192.0
96.063187 604.0
96.084808 188.0
96.164818 156.0
96.274155 36.0
96.297592 112.0
96.313217 236.0
96.36792 112.0
96.493011 232.0
96.555588 52.0
96.606445 136.0
96.633835 164.0
96.680801 200.0
96.82177 36.0
96.980476 96.0
97.017715 112.0
97.074722 1084.0
97.139313 148.0
97.176582 200.0
97.215836 32.0
97.24527 176.0
97.329689 104.0
97.396469 160.0
97.478989 128.0
97.500603 140.0
97.68544 100.0
97.736595 44.0
97.81926 108.0
97.8862 60.0
97.996513 68.0
98.058784 1368.0
98.163216 204.0
98.422577 152.0
98.590492 212.0
98.695267 104.0
98.760529 84.0
98.800095 160.0
98.835709 152.0
98.853668 160.0
98.960419 176.0
99.042503 116.0
99.060715 340.0
99.09626 208.0
99.186272 184.0
99.261612 152.0
99.352852 152.0
99.384598 132.0
99.41935 180.0
99.479866 184.0
99.53212 188.0
99.602989 160.0
99.654648 184.0
99.669624 148.0
99.702339 152.0
99.935005 176.0
100.046463 200.0
100.106201 228.0
100.173103 204.0
100.427086 108.0
100.640625 252.0
100.672577 44.0
100.690552 160.0
100.722511 272.0
100.744484 164.0
100.834404 180.0
100.984367 112.0
101.013741 204.0
101.028374 156.0
101.10041 220.0
101.130432 196.0
101.324684 144.0
101.442924 312.0
101.525139 220.0
101.591331 152.0
101.635475 156.0
101.657547 176.0
101.689659 64.0
101.751892 160.0
101.810127 148.0
101.976624 152.0
102.029152 192.0
102.095512 76.0
102.11763 132.0
102.133728 132.0
102.216217 104.0
102.279236 244.0
102.355118 144.0
102.401436 192.0
102.461868 188.0
102.494278 192.0
102.560616 172.0
102.592873 136.0
102.759277 340.0
102.885406 200.0
102.915695 176.0
102.939926 188.0
103.053345 188.0
103.141968 100.0
103.190491 168.0
103.245094 188.0
103.284195 192.0
103.342194 136.0
103.360405 176.0
103.431244 120.0
103.449463 144.0
103.491974 52.0
103.524376 160.0
103.568939 152.0
103.652 188.0
103.672272 140.0
103.812157 204.0
103.834465 208.0
103.864555 196.0
103.964005 216.0
104.048553 4620.0
104.072235 236.0
104.090179 212.0
104.134857 176.0
104.182205 156.0
104.22525 324.0
104.266922 256.0
104.327904 68.0
104.427551 184.0
104.517059 212.0
104.541481 48.0
104.594406 96.0
104.622902 256.0
104.6548 180.0
104.675842 52.0
104.699989 376.0
104.726761 224.0
104.748985 156.0
104.769539 332.0
104.796028 152.0
104.825096 212.0
104.8592 80.0
104.879585 208.0
104.893852 68.0
104.921196 144.0
104.95858 252.0
104.984024 352.0
104.996925 264.0
105.033653 107988.0
105.084969 124.0
105.088806 104.0
105.112167 172.0
105.152908 112.0
105.180908 352.0
105.201492 120.0
105.230865 220.0
105.264252 52.0
105.291542 120.0
105.313789 96.0
105.348419 96.0
105.368927 1216.0
105.388046 232.0
105.414421 84.0
105.453156 92.0
105.477104 60.0
105.537727 164.0
105.588104 164.0
105.602417 68.0
105.629402 104.0
105.655609 60.0
105.682205 96.0
105.709145 72.0
105.762024 136.0
105.796822 48.0
105.813202 56.0
105.835854 64.0
105.858253 136.0
105.899765 148.0
105.968864 104.0
105.989357 52.0
106.013283 136.0
106.037071 12288.0
106.065811 440.0
106.105637 196.0
106.126694 32.0
106.145149 88.0
106.174591 140.0
106.210777 96.0
106.239502 72.0
106.283272 108.0
106.321312 92.0
106.350311 64.0
106.364685 92.0
106.395477 68.0
106.43425 68.0
106.456711 152.0
106.462654 112.0
106.470253 192.0
106.512535 84.0
106.541298 68.0
106.584442 124.0
106.602936 76.0
106.621437 56.0
106.639931 64.0
106.65432 148.0
106.701607 260.0
106.715347 164.0
106.731628 168.0
106.748199 148.0
106.762596 224.0
106.80349 244.0
106.859978 220.0
106.88546 52.0
106.92646 104.0
106.942299 88.0
106.958763 80.0
106.973175 188.0
107.01741 148.0
107.037613 796.0
107.114456 152.0
107.162651 96.0
107.255394 132.0
107.278069 188.0
107.299721 76.0
107.313118 168.0
107.365486 76.0
107.432281 108.0
107.6185 72.0
107.664726 104.0
107.68045 76.0
107.699043 132.0
107.901566 56.0
107.924316 48.0
107.986359 160.0
108.050484 172.0
108.100143 152.0
108.151886 84.0
108.186287 64.0
108.209854 172.0
108.375557 80.0
108.423225 192.0
108.591164 84.0
108.820663 68.0
108.863045 168.0
108.896278 196.0
108.921204 44.0
108.967979 132.0
109.037567 260.0
109.070824 60.0
109.137352 164.0
109.153984 44.0
109.216377 128.0
109.245506 44.0
109.280876 84.0
109.297523 44.0
109.407837 180.0
109.432823 72.0
109.484879 52.0
109.499458 52.0
109.536957 172.0
109.630287 196.0
109.731857 92.0
109.782906 64.0
109.987381 36.0
110.098038 200.0
110.127281 140.0
110.198311 52.0
110.292358 212.0
110.361351 68.0
110.468018 84.0
110.620781 88.0
110.715012 196.0
110.859566 192.0
110.905678 92.0
111.024529 140.0
111.300102 32.0
111.363106 92.0
111.495476 172.0
111.642639 152.0
111.720467 148.0
111.895157 188.0
112.019409 156.0
112.044693 52.0
112.059441 120.0
112.087044 4788.0
112.331413 108.0
112.394707 144.0
112.582588 68.0
112.676292 112.0
112.827705 148.0
112.982277 384.0
113.034996 248.0
113.07016 4912.0
113.114784 120.0
113.145065 48.0
113.343803 304.0
113.389832 88.0
113.414108 164.0
113.562538 168.0
113.590111 196.0
113.613449 56.0
113.641029 52.0
113.685593 228.0
113.715309 56.0
113.766251 204.0
113.808716 60.0
113.872429 48.0
113.989273 56.0
114.006279 36.0
114.056862 460.0
114.073006 500.0
114.101685 3364.0
114.304008 48.0
114.327415 56.0
114.357353 60.0
114.387543 144.0
114.510513 184.0
114.548859 160.0
114.625557 120.0
114.676712 72.0
114.693764 128.0
114.736397 160.0
114.804634 92.0
114.821693 80.0
114.84729 64.0
114.875023 60.0
114.92836 64.0
114.953972 60.0
114.988113 80.0
115.054642 196.0
115.107979 280.0
115.171745 176.0
115.188835 148.0
115.302086 136.0
115.498795 136.0
115.571541 104.0
115.757774 60.0
115.856049 100.0
115.899155 104.0
115.915459 228.0
116.006325 188.0
116.038483 72.0
116.067787 524.0
116.227234 100.0
116.419052 228.0
116.523552 140.0
116.597786 44.0
116.641754 104.0
116.87188 180.0
117.296165 188.0
117.401817 88.0
117.565781 152.0
117.656441 164.0
117.980515 100.0
118.028076 144.0
118.058945 176.0
118.075661 196.0
118.119102 212.0
118.395973 172.0
118.673355 104.0
118.75576 116.0
118.96843 136.0
119.037659 172.0
119.196487 200.0
119.366051 164.0
119.595161 104.0
119.611908 64.0
119.838409 212.0
119.958282 100.0
119.995338 144.0
120.023689 152.0
120.056396 144.0
120.357552 184.0
120.403412 152.0
120.488602 140.0
120.591316 40.0
120.774986 52.0
120.910645 40.0
121.076042 484.0
121.355347 164.0
121.410172 116.0
121.432106 156.0
121.603249 168.0
121.647697 192.0
121.742531 184.0
121.80751 160.0
121.926109 108.0
121.954681 192.0
121.976662 124.0
122.014038 196.0
122.0597 36492.0
122.123993 100.0
122.161392 140.0
122.176788 68.0
122.236198 308.0
122.259369 68.0
122.286819 60.0
122.319832 44.0
122.389267 112.0
122.422073 92.0
122.440941 84.0
122.462837 140.0
122.489403 92.0
122.524651 40.0
122.565041 140.0
122.645851 112.0
122.698761 60.0
122.740654 124.0
122.784767 76.0
122.843254 132.0
122.976723 152.0
123.035408 212.0
123.062012 3072.0
123.147179 220.0
123.22052 80.0
123.241737 80.0
123.283722 84.0
123.303612 88.0
123.334557 36.0
123.487129 48.0
123.509247 84.0
123.677422 44.0
123.754906 72.0
123.883362 104.0
123.954262 92.0
124.002228 100.0
124.065109 736.0
124.111656 64.0
124.131607 160.0
124.156006 128.0
124.302795 72.0
124.36235 216.0
124.971283 112.0
125.046944 196.0
125.073654 180.0
125.222839 152.0
125.274078 64.0
125.291901 180.0
125.621849 68.0
125.83387 208.0
126.097473 156.0
126.287529 184.0
126.560562 128.0
126.582954 108.0
126.598633 116.0
126.724075 116.0
126.874245 116.0
126.977394 180.0
127.10527 40.0
127.328087 80.0
127.397163 224.0
127.491539 160.0
127.96843 212.0
128.241028 96.0
128.491333 140.0
128.577087 204.0
128.750931 104.0
128.841293 232.0
129.074646 180.0
129.597 88.0
129.630981 208.0
129.855438 40.0
130.021057 160.0
130.065338 324.0
130.096466 2900.0
130.373093 80.0
130.407181 148.0
130.441284 84.0
130.518585 76.0
130.604996 76.0
130.869003 204.0
131.001099 144.0
131.05806 156.0
131.084381 248.0
131.099152 564.0
131.16745 80.0
131.265503 228.0
131.313385 148.0
131.372696 52.0
131.495926 212.0
131.792801 56.0
131.875076 128.0
132.035034 164.0
132.042053 156.0
132.04924 188.0
132.090195 204.0
132.108322 156.0
132.190689 56.0
132.378418 172.0
132.651077 156.0
133.054855 136.0
133.119141 196.0
133.436249 200.0
133.910309 36.0
134.048294 192.0
134.076797 168.0
134.290619 184.0
134.357513 236.0
134.531845 120.0
135.032043 136.0
135.059799 136.0
135.63176 120.0
135.705948 44.0
135.98201 172.0
136.544281 192.0
136.977234 32.0
137.028488 52.0
137.0914 120.0
137.110046 128.0
137.189301 240.0
137.231262 136.0
137.457535 156.0
137.4832 128.0
137.54155 136.0
137.62326 140.0
137.938675 124.0
138.064926 156.0
138.345718 152.0
138.420654 208.0
138.483887 144.0
138.526047 176.0
138.633835 72.0
138.821381 136.0
138.931625 188.0
139.050919 816.0
139.100601 216.0
139.412994 48.0
139.648102 168.0
139.888123 60.0
139.956406 192.0
139.987015 64.0
140.048248 232.0
140.581085 56.0
140.628296 216.0
140.885696 160.0
140.961304 236.0
141.068314 276.0
141.294708 200.0
141.63324 164.0
141.927124 100.0
142.064682 92.0
142.10907 156.0
142.732101 204.0
143.043793 144.0
143.073792 476.0
144.07782 184.0
144.923401 152.0
145.054001 320.0
145.087219 140.0
145.179901 80.0
145.573486 40.0
145.890656 220.0
146.059616 172.0
146.090668 484.0
146.135986 140.0
146.160049 140.0
146.391144 284.0
147.059555 308.0
147.09761 72.0
148.030899 148.0
148.06813 128.0
148.248932 184.0
148.2659 168.0
148.950134 160.0
149.032867 312.0
149.222336 180.0
149.536148 132.0
149.597 228.0
149.913651 188.0
150.036957 232.0
150.167221 148.0
150.882721 168.0
151.043854 192.0
151.283951 140.0
151.707779 80.0
151.76416 148.0
152.294266 48.0
152.353226 156.0
152.586716 76.0
152.672775 204.0
153.072128 176.0
153.155182 80.0
153.372025 152.0
154.001251 88.0
154.186554 128.0
154.592148 156.0
154.956161 236.0
155.070145 156.0
155.459534 160.0
155.682968 148.0
155.822067 140.0
155.881714 204.0
155.906555 152.0
156.081268 536.0
156.244736 196.0
156.446335 184.0
156.81749 36.0
157.092514 236.0
157.833588 160.0
157.866104 240.0
157.926132 132.0
157.978653 192.0
158.058319 124.0
158.095764 1648.0
158.574631 120.0
158.619751 84.0
158.710007 144.0
158.893112 128.0
159.10379 280.0
159.219437 72.0
159.334991 168.0
159.470688 168.0
159.571259 192.0
160.215561 128.0
160.374329 104.0
160.523071 128.0
160.982071 148.0
161.068237 128.0
161.419556 72.0
161.768723 188.0
162.054916 136.0
162.206985 148.0
163.466766 144.0
164.048126 148.0
164.077087 380.0
164.116348 232.0
164.187744 136.0
164.951202 116.0
165.027557 1220.0
165.081894 176.0
165.160889 148.0
165.596039 80.0
165.642136 152.0
165.759995 204.0
166.031754 180.0
166.057846 184.0
166.361359 212.0
166.537384 136.0
166.838043 236.0
166.884323 156.0
166.987183 152.0
167.035522 96.0
167.06813 308.0
167.102951 148.0
167.301132 192.0
167.453049 56.0
167.556091 92.0
167.739075 212.0
167.945374 80.0
168.332504 180.0
168.60376 148.0
169.079651 144.0
170.079498 176.0
170.285278 108.0
170.422958 136.0
170.833755 168.0
170.922211 136.0
171.04454 140.0
171.086395 100.0
171.497787 104.0
171.544708 208.0
171.599457 84.0
171.907257 208.0
172.094788 676.0
172.474792 124.0
172.502777 92.0
172.853256 140.0
173.03125 108.0
173.083496 992.0
173.105927 5436.0
173.238159 160.0
173.793991 60.0
173.951462 172.0
173.975098 56.0
174.044373 152.0
174.08989 7440.0
174.203568 128.0
174.360565 160.0
174.369812 120.0
174.375351 192.0
174.40065 56.0
174.419052 40.0
174.458481 172.0
174.520645 56.0
174.547882 228.0
174.616257 40.0
174.665176 148.0
174.693802 92.0
175.042603 148.0
175.069839 148.0
175.093628 916.0
175.120041 632.0
175.190109 52.0
175.219086 52.0
175.298141 88.0
175.509018 60.0
175.691025 68.0
175.714767 168.0
175.809753 108.0
176.013031 184.0
176.046722 216.0
176.098465 184.0
176.123962 332.0
176.245483 104.0
176.266632 28.0
176.594452 44.0
176.763779 132.0
177.027405 184.0
177.060211 152.0
177.115723 176.0
177.404755 104.0
177.558563 156.0
177.940689 164.0
178.04425 152.0
178.123932 188.0
178.185028 88.0
178.216919 76.0
178.286011 160.0
178.348877 80.0
179.073105 552.0
179.156128 108.0
179.31868 164.0
179.539963 72.0
179.577301 76.0
179.708023 168.0
180.041702 52.0
180.258102 48.0
180.530777 112.0
180.645798 128.0
180.953568 84.0
181.077576 184.0
181.258224 180.0
181.561874 80.0
181.695999 140.0
181.784546 232.0
181.902634 168.0
182.10672 128.0
182.195953 92.0
182.238358 192.0
182.934937 236.0
183.042633 164.0
183.24736 184.0
183.473755 96.0
184.194305 124.0
184.586197 72.0
185.074554 188.0
185.428177 84.0
185.674896 160.0
186.08194 128.0
186.426926 160.0
186.780396 112.0
187.112411 120.0
187.657333 92.0
187.840057 164.0
188.107498 96.0
188.148438 136.0
188.506271 176.0
188.765976 156.0
188.957443 92.0
189.069733 108.0
189.105438 308.0
189.61467 72.0
190.049133 176.0
190.097351 100.0
190.176941 180.0
190.369125 184.0
190.913269 200.0
191.048264 156.0
191.080994 144.0
191.736465 76.0
191.893585 100.0
192.034225 156.0
192.103195 2020.0
192.183197 156.0
192.213562 32.0
192.724411 100.0
192.945679 216.0
193.056137 196.0
193.105774 160.0
193.401978 64.0
193.496109 60.0
193.565323 120.0
194.058563 152.0
194.105698 164.0
194.716248 56.0
194.749588 160.0
195.06337 264.0
195.191483 208.0
195.34491 120.0
195.656143 148.0
195.695129 148.0
195.722977 116.0
196.06842 204.0
196.525757 40.0
196.743454 148.0
197.112152 88.0
197.226746 188.0
198.101196 1316.0
198.228714 92.0
198.457642 60.0
198.520264 224.0
198.657715 176.0
198.958008 52.0
199.025513 92.0
199.106674 76.0
199.570511 32.0
199.598633 52.0
199.975616 140.0
200.11644 2192.0
200.175507 128.0
200.296616 56.0
200.50795 88.0
200.631973 44.0
200.691177 220.0
200.880142 136.0
201.014709 180.0
201.057266 316.0
201.100891 8164.0
201.182114 112.0
201.218811 32.0
201.244553 68.0
201.326126 192.0
201.458878 140.0
201.642548 32.0
201.684952 68.0
201.984695 76.0
202.10257 1364.0
202.137466 32.0
202.16011 80.0
202.397903 72.0
202.624496 124.0
202.774689 60.0
203.090073 172.0
203.143311 72.0
203.302216 64.0
203.373169 132.0
204.086853 132.0
204.478836 48.0
204.598404 124.0
204.928787 160.0
205.069199 300.0
205.282257 64.0
205.319321 80.0
205.538986 84.0
205.63031 108.0
205.690262 224.0
205.74736 192.0
205.781616 212.0
205.935837 108.0
206.070099 152.0
206.287308 192.0
206.710617 116.0
206.756409 156.0
207.069199 268.0
207.31488 136.0
207.498337 68.0
207.578613 76.0
208.011856 128.0
208.310516 116.0
208.934372 124.0
208.983276 252.0
209.141571 160.0
209.170349 104.0
210.320511 68.0
210.496628 204.0
211.060699 976.0
211.1064 160.0
211.355179 104.0
211.523041 160.0
211.896637 72.0
212.066544 120.0
212.549042 144.0
212.952744 144.0
213.100739 180.0
213.344879 28.0
213.597885 80.0
213.624069 92.0
213.728806 152.0
214.153854 108.0
214.232513 248.0
214.421921 48.0
214.480209 120.0
215.168701 124.0
215.305939 144.0
215.358521 168.0
215.449066 40.0
215.582016 184.0
215.738403 132.0
215.773972 120.0
215.807266 108.0
215.960648 112.0
216.004517 268.0
216.046936 152.0
216.057953 76.0
216.071747 172.0
216.112625 19168.0
216.181534 136.0
216.208435 208.0
216.228653 60.0
216.264954 64.0
216.301285 140.0
216.368744 88.0
216.418655 64.0
216.565536 104.0
216.613419 48.0
216.815598 56.0
216.853699 96.0
216.947495 48.0
216.99147 52.0
217.0634 212.0
217.115692 2848.0
217.255432 120.0
217.34346 32.0
217.363998 56.0
217.413879 44.0
217.449112 196.0
217.523499 128.0
217.566528 64.0
217.801453 48.0
217.827896 76.0
217.980682 64.0
218.092804 408.0
218.120316 368.0
218.204071 104.0
218.239349 88.0
218.576599 136.0
218.598236 192.0
218.639435 156.0
218.686523 152.0
218.721848 68.0
218.745392 68.0
218.783676 52.0
218.80722 104.0
218.922058 216.0
219.016312 72.0
219.074265 3472.0
219.112411 4036.0
219.206802 60.0
219.234344 72.0
219.5616 32.0
219.601212 120.0
219.641235 108.0
219.800552 68.0
219.827103 72.0
219.909744 52.0
220.018967 64.0
220.075378 404.0
220.115814 476.0
220.151855 188.0
220.583237 92.0
220.728104 160.0
221.076157 168.0
221.114594 200.0
221.251831 88.0
221.491699 56.0
222.152771 144.0
222.978271 152.0
223.186371 92.0
223.21907 120.0
223.373734 40.0
223.498703 200.0
223.799332 124.0
223.948242 136.0
224.085693 116.0
224.204483 176.0
224.487701 132.0
224.580154 60.0
224.66069 156.0
224.818848 124.0
225.064697 6332.0
225.317505 48.0
225.703094 84.0
225.735977 64.0
226.066788 1000.0
226.208725 56.0
226.262619 92.0
226.669983 108.0
226.855804 76.0
227.046768 76.0
227.066986 168.0
227.11969 128.0
227.329712 56.0
227.470795 84.0
228.089615 96.0
228.510651 92.0
228.631012 68.0
228.781525 72.0
228.871841 120.0
228.989304 60.0
229.368958 88.0
229.869629 72.0
230.482635 188.0
231.486954 144.0
231.805038 56.0
232.535934 132.0
233.070435 96.0
233.109314 176.0
233.136719 380.0
233.645096 76.0
234.013382 140.0
234.056 152.0
234.086334 624.0
234.142975 136.0
234.900253 36.0
235.080109 152.0
235.120819 700.0
235.64212 68.0
236.103195 260.0
236.388229 104.0
237.082047 864.0
237.543335 56.0
238.0867 168.0
239.085815 64.0
239.175079 40.0
240.432632 88.0
240.827835 96.0
242.094559 548.0
243.063141 160.0
243.122299 288.0
243.749405 64.0
243.82399 104.0
243.870621 72.0
244.107407 4752.0
245.110306 1080.0
245.177841 64.0
245.240173 36.0
245.601883 52.0
245.626831 52.0
246.111176 128.0
246.191772 32.0
246.919983 176.0
247.096558 144.0
247.120682 152.0
247.586624 52.0
247.74324 136.0
248.094238 132.0
248.11618 152.0
248.150681 32.0
248.715378 124.0
248.815826 48.0
249.139313 136.0
249.227295 92.0
250.643295 160.0
251.099854 132.0
252.094925 148.0
253.047058 200.0
253.515869 96.0
256.016113 44.0
256.745941 120.0
257.096893 100.0
258.115967 128.0
259.297302 144.0
260.106018 196.0
261.097504 588.0
261.135681 2196.0
261.497406 76.0
261.738861 32.0
262.08371 240.0
262.135986 140.0
262.94458 164.0
263.084778 188.0
263.144745 164.0
263.332031 104.0
263.396637 56.0
263.554932 124.0
265.870361 104.0
267.07254 136.0
267.870056 184.0
269.177979 160.0
269.455627 140.0
273.051727 180.0
274.464508 72.0
274.80426 164.0
276.059509 180.0
276.123962 344.0
276.234802 120.0
277.039246 160.0
277.127197 304.0
278.124176 236.0
278.618439 132.0
279.107605 144.0
280.078857 404.0
280.112183 92.0
280.85553 56.0
281.08725 156.0
282.091095 192.0
285.111816 100.0
285.175018 104.0
286.123657 152.0
288.10675 112.0
289.476654 100.0
291.416931 68.0
291.818024 104.0
292.103699 160.0
292.484833 72.0
293.196686 120.0
294.08429 260.0
294.821228 36.0
294.947693 176.0
295.088715 172.0
295.193848 180.0
295.734436 140.0
296.114471 100.0
299.153412 52.0
299.249817 88.0
299.897491 160.0
301.125824 164.0
303.399353 148.0
304.59314 196.0
305.097046 136.0
307.241516 128.0
308.1185 636.0
308.300415 68.0
309.117554 248.0
309.272766 72.0
309.59137 152.0
310.390381 124.0
311.099121 160.0
311.295746 40.0
312.054749 168.0
313.868134 76.0
314.079742 48.0
318.785217 144.0
319.133575 136.0
320.404236 52.0
320.853302 100.0
321.133179 284.0
321.473938 152.0
321.566742 176.0
322.117188 1140.0
322.495422 44.0
322.860107 68.0
323.114166 412.0
324.11911 192.0
325.131531 116.0
326.115631 116.0
327.745941 104.0
329.098572 120.0
329.510345 172.0
330.13208 228.0
330.298462 72.0
331.406311 96.0
333.093323 176.0
335.101562 144.0
335.589996 60.0
335.673859 136.0
337.686188 64.0
338.191132 104.0
339.145477 1100.0
339.255737 64.0
339.664642 92.0
339.720093 212.0
339.935669 192.0
339.973907 124.0
340.053131 176.0
340.12793 5772.0
340.306427 44.0
340.453308 68.0
341.052216 52.0
341.13147 984.0
341.298523 96.0
341.353699 52.0
341.60379 120.0
341.997528 104.0
342.145996 344.0
342.222107 56.0
342.605133 72.0
342.966278 104.0
343.102692 56.0
343.130249 140.0
343.412445 136.0
343.445648 64.0
343.526794 144.0
346.130127 160.0
346.343628 36.0
347.504028 52.0
353.198944 116.0
353.2052 164.0
355.256958 104.0
355.83493 56.0
357.148468 108.0
357.771179 152.0
357.891663 52.0
360.933044 32.0
362.235016 204.0
363.152344 124.0
364.137482 960.0
364.264557 92.0
365.135803 504.0
365.439331 96.0
366.15274 208.0
366.28833 92.0
367.008636 68.0
367.119232 120.0
369.066772 84.0
369.170013 132.0
370.398651 84.0
372.066864 124.0
375.510956 208.0
375.568787 132.0
379.160797 56.0
379.319702 104.0
380.491302 88.0
380.92627 80.0
381.166626 1036.0
381.746399 112.0
381.977509 104.0
382.150543 1116.0
382.216492 128.0
382.85553 80.0
383.155487 452.0
384.165222 160.0
384.426636 52.0
385.184113 136.0
387.018372 68.0
388.158661 136.0
393.498291 48.0
394.794403 84.0
395.890625 120.0
396.6474 56.0
397.059784 88.0
397.274567 132.0
397.333496 136.0
397.559662 84.0
397.619202 112.0
398.075745 220.0
398.210785 84.0
398.437225 144.0
398.547455 124.0
398.771027 248.0
398.937988 156.0
398.969788 108.0
399.175201 8256.0
399.27597 104.0
399.335632 40.0
399.63797 104.0
399.68573 96.0
399.852875 84.0
399.920532 60.0
400.059845 88.0
400.179565 1648.0
400.262909 76.0
400.338257 140.0
400.436432 56.0
400.485931 48.0
400.689117 56.0
400.71701 28.0
401.035828 60.0
401.173645 220.0
401.188019 268.0
401.490356 56.0
401.937134 88.0
402.104767 52.0
402.158752 128.0
402.186615 128.0
402.743622 128.0
402.895416 116.0
402.924713 60.0
402.959351 52.0
403.227081 84.0
403.263062 84.0
403.398956 60.0
404.002838 52.0
404.061798 76.0
404.158875 124.0
404.815369 40.0
404.855438 92.0
406.687714 76.0
407.973206 56.0
411.538879 72.0
414.293213 64.0
420.812897 100.0
426.104706 104.0
432.368561 32.0
437.52832 44.0
443.674011 104.0
445.255981 64.0
448.706604 80.0
456.115265 180.0
481.749786 100.0
482.164886 104.0
484.834625 44.0
490.244659 112.0
510.758057 64.0
549.68103 84.0
551.539917 112.0
558.724365 56.0
569.892273 28.0
604.861633 100.0
611.778625 76.0
629.355408 168.0
642.919617 92.0
652.768066 80.0
669.353638 64.0
669.976868 96.0
675.386963 80.0
678.919373 60.0
692.737549 80.0
703.106812 84.0
756.546448 48.0
758.134888 72.0
764.538513 96.0
773.065125 132.0
776.38916 120.0
791.939575 240.0
800.718567 76.0
805.134644 44.0
808.690979 112.0
811.166382 252.0
813.24823 120.0
814.133911 180.0
821.739014 28.0
824.160034 136.0
825.932312 88.0
830.101868 148.0
830.30835 208.0
830.457458 164.0
840.981506 140.0
847.72522 156.0
851.159485 172.0
865.598145 216.0
866.828308 180.0
868.698669 148.0
869.144592 128.0
870.394897 228.0
883.178284 204.0
889.061768 68.0
890.082825 156.0
893.333069 176.0
897.187195 192.0
898.708069 196.0
900.499084 176.0
904.475403 188.0
905.379517 216.0
909.594666 156.0
911.997437 112.0
912.845154 140.0
913.958069 164.0
915.05957 120.0
916.408752 192.0
920.426025 140.0
922.15387 152.0
924.270569 256.0
925.547852 180.0
927.371399 180.0
927.535034 140.0
928.083252 152.0
930.714172 136.0
930.829529 148.0
930.975281 244.0
931.588806 144.0
934.774841 112.0
935.584412 120.0
936.637939 144.0
937.198425 196.0
939.106628 224.0
939.911926 152.0
941.871765 156.0
945.638367 172.0
946.53833 268.0
946.801697 180.0
947.567383 84.0
949.369568 184.0
950.081116 168.0
950.731567 172.0
954.638794 52.0
956.201477 68.0
958.418518 160.0
958.628052 176.0
959.059448 240.0
959.127258 212.0
960.496216 176.0
962.409424 192.0
964.670715 156.0
964.961304 112.0
966.037415 152.0
966.08075 116.0
966.625244 140.0
970.602173 164.0
971.098999 168.0
972.376465 132.0
972.80481 168.0
972.960022 168.0
973.121399 124.0
973.264221 52.0
975.824219 164.0
976.906372 72.0
979.944641 172.0
980.125366 168.0
980.243774 128.0
981.403198 160.0
981.758667 184.0
982.039307 196.0
983.811523 116.0
984.011353 132.0
986.204102 160.0
989.093994 136.0
989.438293 196.0
990.058228 204.0
990.277466 172.0
991.85022 132.0
992.038269 188.0
992.508545 100.0
996.192749 212.0
998.619141 132.0
999.009155 144.0
999.770569 244.0
999.984558 188.0
1000.815552 160.0
1001.760254 156.0
1002.037476 180.0
1002.402954 268.0
1002.661316 124.0
1003.682617 160.0
1005.581543 156.0
1005.758301 140.0
1006.01709 64.0
1006.894836 104.0
1007.65918 172.0
1007.810852 196.0
1009.245728 236.0
1009.650452 228.0
1010.042603 232.0
1010.719543 160.0
1012.555481 164.0
1013.258606 120.0
1013.860596 144.0
1014.240906 164.0
1015.058777 180.0
1015.401245 216.0
1018.346313 196.0
1019.540771 160.0
1021.174744 196.0
1021.314697 120.0
1023.262085 204.0
1023.548584 216.0
1024.8927 164.0
1025.128418 72.0
1025.466187 136.0
1026.13562 156.0
1027.299561 160.0
1027.487671 64.0
1028.074829 112.0
1028.776978 152.0
1030.220215 180.0
1030.814453 172.0
1031.102051 188.0
1031.402466 340.0
1031.55835 176.0
1033.478271 212.0
1034.537109 136.0
1035.561646 148.0
1036.868652 144.0
1036.996704 188.0
1037.304565 216.0
1038.529297 144.0
1039.27356 124.0
1039.414673 144.0
1039.498169 192.0
1039.639282 204.0
1039.7677 180.0
1039.908813 80.0
1040.268311 152.0
1041.706787 144.0
1042.927734 196.0
1046.633545 204.0
1046.74939 144.0
1047.367798 196.0
1047.419312 196.0
1048.650024 148.0
1048.836914 148.0
1048.991699 164.0
1049.346191 140.0
1049.539673 192.0
1049.784668 180.0
1050.900635 140.0
1051.79126 108.0
1053.089233 180.0
1053.354004 148.0
1053.425049 240.0
1056.101318 180.0
1057.957031 228.0
1057.969971 176.0
1058.952026 200.0
1059.104736 144.0
1059.247314 176.0
1060.536743 152.0
1062.76123 64.0
1063.247925 164.0
1064.273682 76.0
1065.091919 180.0
1066.287476 128.0
1066.41748 56.0
1066.703491 76.0
1067.529297 128.0
1067.971558 180.0
1068.22522 160.0
1069.077637 108.0
1069.403076 172.0
1069.533203 32.0
1069.637329 240.0
1069.695923 132.0
1069.800171 224.0
1070.55542 160.0
1071.226318 152.0
1072.510132 176.0
1072.927246 212.0
1073.657593 192.0
1074.088135 164.0
1074.420776 168.0
1074.890625 76.0
1075.275635 244.0
1076.032959 148.0
1076.189575 160.0
1076.431274 224.0
1076.66626 184.0
1078.005615 128.0
1078.136353 164.0
1079.489624 236.0
1080.150146 136.0
1080.895996 240.0
1081.596313 188.0
1082.172485 208.0
1082.545776 116.0
1083.141724 208.0
1083.82312 232.0
1084.209717 196.0
1084.334351 156.0
1084.924194 172.0
1085.022583 176.0
1086.209595 112.0
1086.419556 140.0
1087.515381 184.0
1087.600708 196.0
1087.915894 180.0
1088.027466 148.0
1088.33606 164.0
1088.467407 68.0
1088.598755 148.0
1089.143921 176.0
1089.623413 136.0
1090.241089 180.0
1090.786743 164.0
1091.490234 48.0
1092.726807 116.0
1093.535034 176.0
1093.588867 140.0
1094.661987 192.0
1095.078735 72.0
1095.267944 124.0
1096.032227 180.0
1096.170654 160.0
1097.587891 204.0
1097.779175 200.0
1097.891235 152.0
1099.190063 168.0
1099.573608 120.0
1099.989502 172.0
1100.900635 152.0
1101.594238 164.0
1103.127441 180.0
1103.332397 188.0
1103.828247 200.0
1105.588013 132.0
1105.667358 104.0
1106.157227 72.0
1107.024536 156.0
1107.474976 128.0
1107.971802 260.0
1108.02478 192.0
1109.522705 72.0
1110.915405 172.0
1111.665161 328.0
1112.262573 132.0
1112.953003 148.0
1113.50415 216.0
1113.97583 232.0
1114.141846 148.0
1114.334595 180.0
1114.44751 112.0
1115.045654 228.0
1115.13208 72.0
1115.244995 136.0
1116.840942 132.0
1116.987183 240.0
1117.612671 132.0
1118.417969 256.0
1118.551025 136.0
1119.323364 40.0
1119.369995 176.0
1119.429932 64.0
1119.476562 164.0
1119.982788 68.0
1120.415771 128.0
1120.562378 64.0
1120.868774 124.0
1121.621948 144.0
1121.868652 68.0
1121.995239 128.0
1122.088623 144.0
1123.40918 108.0
1124.67041 104.0
1125.765869 248.0
1126.226196 52.0
1126.540161 192.0
1127.509033 152.0
1129.120361 172.0
1130.412842 144.0
1131.810669 128.0
1132.426758 204.0
1133.089966 180.0
1135.228271 72.0
1135.416016 204.0
1136.133789 160.0
1136.361938 88.0
1136.744385 192.0
1136.80481 104.0
1137.334961 124.0
1138.281738 200.0
1138.416016 164.0
1139.00708 276.0
1139.275757 228.0
1140.478638 204.0
1140.875244 236.0
1141.231567 84.0
1141.722534 56.0
1142.226929 152.0
1142.341309 92.0
1142.47583 164.0
1142.556641 180.0
1142.83252 132.0
1143.041138 96.0
1144.030518 164.0
1144.185303 148.0
1144.764404 120.0
1144.825073 144.0
1145.350464 108.0
1145.855713 180.0
1146.233032 148.0
1147.257568 168.0
1147.668823 116.0
1147.99939 176.0
1148.215088 96.0
1149.307983 152.0
1150.671387 76.0
1151.319702 164.0
1151.995117 112.0
1153.664307 44.0
1153.759033 188.0
1154.029663 184.0
1154.874756 132.0
1155.023682 156.0
1156.092651 180.0
1157.040283 156.0
1157.155396 192.0
1157.473633 200.0
1158.042603 64.0
1158.713257 160.0
1158.890015 208.0
1159.167236 168.0
1159.445068 84.0
1159.587402 136.0
1159.831421 168.0
1160.116089 140.0
1160.190674 172.0
1160.461914 248.0
1160.536499 76.0
1160.706055 208.0
1161.404541 36.0
1161.533447 408.0
1161.65564 216.0
1162.469849 28.0
1163.226929 196.0
1164.819092 156.0
1165.077148 144.0
1165.314941 60.0
1165.369385 136.0
1165.460449 212.0
1165.668335 156.0
1165.772217 168.0
1166.096436 68.0
1166.660645 132.0
1167.00061 152.0
1167.789551 168.0
1169.456543 136.0
1171.676636 136.0
1171.737915 148.0
1171.80542 184.0
1171.874146 52.0
1172.296631 184.0
1172.69873 28.0
1172.787354 144.0
1173.898682 152.0
1174.430664 132.0
1174.860474 184.0
1175.317627 156.0
1175.604248 132.0
1176.020508 196.0
1176.491577 180.0
1177.133423 188.0
1177.940674 196.0
1179.005249 180.0
1179.497437 176.0
1179.599976 148.0
1180.345215 148.0
1180.89917 140.0
1181.220703 152.0
1181.549072 116.0
1182.37085 172.0
1183.253296 216.0
1183.520264 136.0
1186.192261 120.0
1186.418579 116.0
1186.620605 176.0
1187.035645 116.0
1187.303101 156.0
1188.435059 184.0
1188.997681 144.0
1190.824097 128.0
1191.174438 152.0
1191.785889 180.0
1192.136353 92.0
1192.232544 184.0
1192.782471 172.0
1193.696899 116.0
1194.632324 176.0
1194.962524 212.0
1195.926025 160.0
1196.029297 136.0
1196.084351 152.0
1196.765869 136.0
1197.337524 168.0
1197.902344 152.0
1198.74292 144.0
1200.521484 76.0
1200.680176 160.0
1200.769775 104.0
1200.859497 120.0
1201.077881 152.0
1201.349243 188.0
1201.466553 208.0
1201.576904 192.0
1201.770142 212.0
1202.235474 156.0
1202.743164 208.0
1202.895142 172.0
1202.998657 60.0
1203.336914 192.0
1203.571655 200.0
1203.633789 124.0
1203.785767 176.0
1203.916992 60.0
1205.3125 160.0
1205.585083 304.0
1205.720215 160.0
1205.996704 36.0
1206.231689 168.0
1206.653442 92.0
1207.313721 164.0
1207.739136 116.0
1207.939697 152.0
1208.597046 212.0
1209.199097 188.0
1209.35144 176.0
1210.646118 44.0
1211.754395 128.0
1212.281128 196.0
1212.398926 188.0
1212.502808 128.0
1212.953369 128.0
1213.81311 160.0
1214.024658 212.0
1214.45813 132.0
1214.506714 136.0
1214.777222 132.0
1215.124146 148.0
1215.200439 172.0
1215.459229 176.0
1215.595947 144.0
1216.269165 108.0
1216.463501 132.0
1216.949585 156.0
1217.651001 120.0
1217.866211 64.0
1218.776367 196.0
1218.851074 172.0
1218.922363 196.0
1219.443604 84.0
1220.58374 128.0
1220.903564 164.0
1221.070557 156.0
1221.369629 180.0
1221.529663 56.0
1222.169678 84.0
1222.239258 196.0
1222.496826 156.0
1222.823853 56.0
1223.394653 260.0
1223.471313 92.0
1224.418335 88.0
1225.226318 60.0
1226.550415 92.0
1226.88501 132.0
1227.136108 164.0
1227.742676 88.0
1228.126343 176.0
1228.503052 188.0
1228.697754 220.0
1228.796021 64.0
1229.647461 144.0
1229.752075 172.0
1230.932007 192.0
1231.518677 168.0
1231.770142 152.0
1231.944824 212.0
1232.077515 136.0
1232.727417 220.0
1232.964966 144.0
1233.013916 120.0
1233.419312 212.0
1233.837646 192.0
1234.090454 156.0
1234.223389 192.0
1234.61499 176.0
1235.195557 216.0
1235.328369 160.0
1235.426392 160.0
1235.522583 168.0
1235.643188 80.0
1236.105103 236.0
1236.259033 200.0
1237.785156 192.0
1238.177368 156.0
1238.688599 160.0
1238.744629 180.0
1239.354248 92.0
1239.417236 188.0
1240.13916 168.0
1240.57373 176.0
1240.657837 120.0
1240.713989 212.0
1241.085571 116.0
1241.443237 152.0
1241.969238 148.0
1242.158691 136.0
1242.909424 196.0
1243.028687 208.0
1243.702393 168.0
1243.786743 224.0
1244.404541 148.0
1244.601074 216.0
1245.612427 232.0
1245.686157 128.0
1245.898438 228.0
1246.392334 156.0
1247.748901 252.0
1248.079346 256.0
1248.845947 140.0
1249.837891 192.0
1249.929443 176.0
1250.203857 196.0
1250.393921 176.0
1251.069702 172.0
1251.182251 128.0
1251.836426 196.0
1252.802124 112.0
1253.309448 172.0
1255.099854 136.0
1255.817627 256.0
1256.341187 172.0
1256.785767 124.0
1257.300903 56.0
1257.682007 120.0
1257.738525 112.0
1257.921997 208.0
1258.105591 116.0
1258.762207 64.0
1259.03064 84.0
1259.341431 236.0
1259.489746 196.0
1259.575317 160.0
1260.577759 204.0
1260.921021 168.0
1261.228027 180.0
1262.182495 164.0
1262.316895 72.0
1262.86853 164.0
1263.109009 168.0
1264.56665 164.0
1264.623291 96.0
1264.878052 88.0
1265.055054 184.0
1265.60022 96.0
1265.748901 120.0
1265.883545 180.0
1265.954346 132.0
1266.010986 160.0
1266.103027 112.0
1266.166748 156.0
1266.280151 140.0
1266.407593 96.0
1266.549316 144.0
1266.832642 100.0
1267.031006 160.0
1267.314453 148.0
1267.633301 88.0
1268.653931 164.0
1269.199951 128.0
1269.511963 168.0
1269.625366 136.0
1270.512085 80.0
1270.746216 156.0
1270.866821 132.0
1271.193237 160.0
1271.846191 152.0
1272.400024 172.0
1272.470947 64.0
1273.3302 128.0
1273.692505 44.0
1274.310547 156.0
1274.687134 172.0
1275.134888 116.0
1275.632446 140.0
1276.03772 176.0
1276.139526 224.0
1276.926636 200.0
1277.766113 116.0
1277.85144 184.0
1278.27124 176.0
1278.812134 176.0
1278.926025 248.0
1279.872925 148.0
1279.944092 124.0
1280.171997 144.0
1280.254639 168.0
1280.492554 160.0
1280.948364 84.0
1281.240479 176.0
1282.687134 196.0
1283.892822 236.0
1284.626831 116.0
1285.054932 120.0
1285.2677 152.0
1285.46167 176.0
1285.789917 156.0
1286.182495 200.0
1286.3396 248.0
1287.288452 172.0
1287.496338 116.0
1288.103394 44.0
1288.253418 176.0
1288.782227 180.0
1288.98938 80.0
1289.839966 172.0
1290.797974 228.0
1290.933228 240.0
1291.634766 76.0
1291.949585 252.0
1292.600708 68.0
1292.750977 132.0
1293.101685 188.0
1293.266235 140.0
1293.44519 196.0
1294.175537 220.0
1294.383179 156.0
1295.106567 180.0
1295.69397 180.0
1296.217041 176.0
1296.307983 232.0
1296.389038 220.0
1296.446411 160.0
1296.661377 116.0
1296.912231 132.0
1297.044067 156.0
1297.127319 116.0
1297.557373 108.0
1297.932495 168.0
1298.539917 148.0
1299.227295 92.0
1300.190063 192.0
1300.455688 160.0
1301.611572 60.0
1303.019409 140.0
1303.234863 128.0
1304.348877 144.0
1304.521484 156.0
1304.938477 188.0
1305.156738 192.0
1305.305176 212.0
1305.369873 140.0
1305.456177 184.0
1305.621582 192.0
1305.9021 212.0
1306.578247 164.0
1307.262817 188.0
1307.621704 208.0
1307.751221 192.0
1308.060791 172.0
1308.456787 196.0
1308.643921 224.0
1309.558594 148.0
1309.990723 116.0
1310.281982 244.0
1310.413086 236.0
1311.208496 132.0
1311.619385 136.0
1311.835693 172.0
1311.979858 168.0
1312.037476 156.0
1312.109619 140.0
1312.870239 132.0
1312.967773 168.0
1313.256226 172.0
1315.153931 240.0
1316.092529 108.0
1316.143066 84.0
1316.612427 176.0
1316.778564 156.0
1317.31311 180.0
1318.064453 176.0
1318.831787 120.0
1319.235352 92.0
1319.293213 140.0
1319.806641 120.0
1320.081421 120.0
1320.938843 160.0
1321.036133 212.0
1321.390625 236.0
1322.628174 44.0
1322.780151 188.0
1323.663452 96.0
1323.728638 36.0
1324.445679 264.0
1324.503662 160.0
1324.554321 200.0
1324.757202 176.0
1325.25708 180.0
1327.01123 220.0
1327.214233 112.0
1327.526123 176.0
1327.671143 188.0
1328.070801 180.0
1328.606812 184.0
1329.608276 132.0
1329.738892 56.0
1329.927612 72.0
1330.08728 196.0
1330.26062 160.0
1330.464844 88.0
1330.61731 32.0
1330.94397 204.0
1331.67749 192.0
1331.74292 140.0
1331.94519 160.0
1332.142456 128.0
1332.374878 172.0
1332.44751 64.0
1332.541992 184.0
1332.839966 168.0
1333.363159 120.0
1333.988281 160.0
1334.482666 180.0
1335.122559 128.0
1335.428101 56.0
1336.002808 88.0
1336.177368 220.0
1336.672119 144.0
1336.759521 192.0
1336.897705 204.0
1337.268921 144.0
1337.581909 52.0
1338.360962 136.0
1338.652222 188.0
1338.8125 56.0
1338.875 108.0
1339.169312 152.0
1339.978638 180.0
1340.327759 120.0
1340.553589 164.0
1341.574097 160.0
1341.654297 164.0
1341.719849 148.0
1341.822021 132.0
1341.902222 152.0
1342.551147 168.0
1342.638672 144.0
1342.835571 208.0
1342.952271 144.0
1343.419189 32.0
1343.866333 292.0
1344.170898 264.0
1344.236328 220.0
1344.513672 128.0
1344.842163 152.0
1345.002686 124.0
1345.514526 176.0
1345.652466 188.0
1347.892822 124.0
1348.516235 200.0
1348.603882 104.0
1349.071777 128.0
1349.232544 168.0
1349.781006 260.0
1349.912598 116.0
1350.914673 156.0
1350.96582 124.0
1351.082886 148.0
1351.338989 148.0
1351.51123 200.0
1351.690186 160.0
1351.880493 152.0
1352.004883 184.0
1352.12207 184.0
1352.173218 120.0
1352.744263 204.0
1353.176147 148.0
1353.359253 200.0
1354.53833 192.0
1354.649658 208.0
1354.706909 112.0
1354.809448 144.0
1355.322266 132.0
1355.424927 160.0
1355.505493 220.0
1356.018555 128.0
1356.069824 204.0
1356.868896 132.0
1356.949585 176.0
1357.081543 180.0
1357.902832 60.0
1358.115601 108.0
1358.224487 252.0
1358.621704 192.0
1359.017944 228.0
1360.17749 156.0
1360.522583 128.0
1360.603271 156.0
1360.926392 132.0
1361.572632 160.0
1361.660767 84.0
1361.719482 204.0
1361.815063 160.0
1361.895752 200.0
1362.0354 64.0
1362.395386 156.0
1362.452026 224.0
1362.89502 120.0
1363.078613 236.0
1363.196289 268.0
1363.328491 40.0
1363.916504 212.0
1364.217896 188.0
1364.276733 320.0
1364.666382 180.0
1364.923828 156.0
1365.078247 136.0
1365.225342 104.0
1365.490112 140.0
1365.791626 144.0
1366.453735 160.0
1367.373657 224.0
1367.660645 188.0
1367.977173 116.0
1368.18335 140.0
1368.816528 172.0
1369.015381 216.0
1369.700439 172.0
1369.766724 180.0
1370.164551 164.0
1370.835083 172.0
1371.070923 152.0
1371.395142 200.0
1371.586792 144.0
1372.036499 144.0
1372.906616 148.0
1373.437744 208.0
1373.939331 92.0
1374.15332 188.0
1374.212402 156.0
1374.418945 176.0
1374.540405 208.0
1374.677246 132.0
1375.016724 180.0
1376.145996 168.0
1376.31604 120.0
1376.441528 164.0
1376.833008 64.0
1376.973267 128.0
1377.416504 96.0
1377.512573 172.0
1378.812988 136.0
1379.929199 164.0
1380.017578 144.0
1380.47644 140.0
1380.764893 148.0
1381.164307 144.0
1381.756104 252.0
1381.859741 140.0
1381.948486 196.0
1382.753174 240.0
1383.006836 140.0
1383.806396 188.0
1384.417847 148.0
1384.554321 144.0
1384.635742 160.0
1384.754272 180.0
1385.131958 212.0
1385.494995 72.0
1385.998901 208.0
1386.050781 132.0
1386.169312 176.0
1386.510254 72.0
1386.962402 216.0
1387.318115 144.0
1387.481323 160.0
1387.577637 196.0
1388.111572 92.0
1388.237671 192.0
1389.119751 164.0
1389.239014 48.0
1389.5802 156.0
1389.78064 156.0
1390.918579 236.0
1390.997803 204.0
1391.702637 196.0
1391.792236 160.0
1392.074341 132.0
1392.156006 120.0
1392.505127 116.0
1392.720581 196.0
1392.995361 176.0
1393.314819 212.0
1393.493164 204.0
1393.797852 156.0
1393.87207 140.0
1394.481567 160.0
1395.165405 152.0
1395.321533 120.0
1396.13208 44.0
1396.213867 116.0
1396.295654 168.0
1396.532959 148.0
1396.547241 132.0
1396.883301 56.0
1397.597534 164.0
1398.006836 236.0
1398.326904 188.0
1398.699097 172.0
1399.554443 204.0
1399.837402 188.0
1400.083984 212.0
1400.151001 152.0
1400.434082 96.0
1400.508545 156.0
1400.665039 200.0
1400.855469 200.0
1400.940552 172.0
1401.374146 192.0
1402.416992 156.0
1403.481323 200.0
1403.840088 204.0
1403.974365 120.0
1404.54126 228.0
1404.593506 132.0
1405.39917 224.0
1405.817139 140.0
1406.60083 280.0
1406.712769 168.0
1407.183105 144.0
1407.743164 192.0
1407.877563 116.0
1408.010254 184.0
1408.109131 184.0
1408.176392 184.0
1408.228638 152.0
1408.661865 100.0
1409.027954 120.0
1409.259644 200.0
1409.536133 164.0
1410.171387 156.0
1410.582397 196.0
1411.060913 108.0
1411.367432 120.0
1412.062988 180.0
1412.130249 152.0
1412.190186 84.0
1413.372192 208.0
1413.574219 140.0
1414.230957 156.0
1414.479858 136.0
1414.854248 144.0
1414.914307 136.0
1414.989014 204.0
1415.131714 184.0
1415.363403 184.0
1415.89502 176.0
1415.992432 172.0
1416.513184 160.0
1416.584229 200.0
1416.689087 192.0
1418.165283 72.0
1418.322754 116.0
1418.727539 216.0
1418.952515 216.0
1419.027466 168.0
1419.139893 188.0
1419.244873 188.0
1419.507324 176.0
1419.664795 140.0
1420.204834 176.0
1420.474854 116.0
1420.595825 160.0
1421.367798 136.0
1421.752686 212.0
1422.388428 144.0
1422.463501 56.0
1422.581177 160.0
1422.786377 196.0
1422.835205 176.0
1422.891479 148.0
1422.996582 64.0
1423.439575 156.0
1424.385986 156.0
1425.57312 168.0
1427.159302 128.0
1427.828491 196.0
1428.232666 188.0
1428.588257 216.0
1429.033813 204.0
1429.122437 164.0
1429.242798 188.0
1429.506226 140.0
1429.739502 180.0
1429.837402 196.0
1429.965332 148.0
1430.033081 244.0
1430.161011 152.0
1430.544922 124.0
1430.612671 152.0
1431.312988 160.0
1431.458862 200.0
1431.561401 196.0
1431.659302 96.0
1431.915405 252.0
1432.216675 64.0
1432.548096 128.0
1433.067993 168.0
1433.429688 128.0
1433.588013 244.0
1433.723633 96.0
1433.981567 184.0
1434.062744 156.0
1434.115601 164.0
1434.713989 208.0
1434.944824 120.0
1435.570679 168.0
1436.883179 240.0
1437.109497 228.0
1437.230225 120.0
1438.558594 56.0
1439.140015 172.0
1439.449585 144.0
1439.827148 164.0
1440.114258 152.0
1440.227539 164.0
1440.310669 176.0
1440.695923 164.0
1441.239868 160.0
1441.867188 108.0
1441.965332 140.0
1442.381104 20.0
1442.842285 184.0
1444.21106 168.0
1444.914551 144.0
1445.277832 128.0
1445.421509 164.0
1445.671265 220.0
1445.73938 208.0
1446.011841 168.0
1446.829468 168.0
1447.026245 200.0
1447.313965 136.0
1447.685059 160.0
1447.859253 164.0
1448.177368 156.0
1449.37439 64.0
1449.4729 204.0
1449.806396 104.0
1450.352051 208.0
1450.88269 124.0
1450.988892 128.0
1451.671265 204.0
1451.891235 180.0
1451.944336 152.0
1452.59668 184.0
1452.847046 176.0
1452.953247 56.0
1454.15979 76.0
1454.235718 208.0
1454.508911 196.0
1454.668335 192.0
1456.323853 136.0
1456.72644 124.0
1457.478638 132.0
1457.668579 156.0
1457.78064 148.0
1457.949707 164.0
1458.063721 180.0
1458.382935 200.0
1458.443726 120.0
1458.610962 140.0
1458.839111 224.0
1459.213989 152.0
1459.49292 88.0
1459.616821 196.0
1460.261108 40.0
1460.801147 176.0
1461.097778 340.0
1461.490967 196.0
1461.607666 36.0
1462.254517 140.0
1462.505737 248.0
1462.817749 136.0
1463.015747 128.0
1463.975098 216.0
1464.112183 164.0
1464.409302 176.0
1464.774902 100.0
1465.018677 192.0
1465.224365 204.0
1465.460571 168.0
1465.620605 124.0
1465.78064 156.0
1465.864502 372.0
1466.047363 164.0
1466.230225 200.0
1466.512329 212.0
1467.251709 168.0
1467.335571 160.0
1467.815918 192.0
1467.910278 204.0
1468.549438 160.0
1468.769287 176.0
1469.402588 208.0
1469.608521 192.0
1469.692505 188.0
1469.936646 72.0
1470.119873 160.0
1470.226685 164.0
1470.70752 172.0
1471.051025 52.0
1471.41748 168.0
1471.944336 184.0
1472.196411 232.0
1472.36438 52.0
1472.784546 252.0
1472.838013 180.0
1473.265747 148.0
1473.456787 112.0
1473.892334 184.0
1474.106201 264.0
1474.281982 156.0
1475.359863 36.0
1475.634155 192.0
1476.109131 168.0
1476.300293 40.0
1476.453247 128.0
1476.552734 148.0
1476.751587 116.0
1476.889282 196.0
1476.950439 204.0
1477.294678 156.0
1477.906738 124.0
1478.220459 104.0
1478.939941 60.0
1479.537109 260.0
1479.805054 148.0
1480.486572 220.0
1480.754639 48.0
1480.813965 184.0
1481.068726 136.0
1481.152954 224.0
1481.344482 132.0
1481.59729 184.0
1481.689209 196.0
1481.949707 188.0
1482.041626 184.0
1482.171875 184.0
1482.516724 144.0
1482.708374 108.0
1483.022583 176.0
1483.367554 208.0
1483.681885 88.0
1483.919556 168.0
1484.187012 160.0
1484.602051 136.0
1485.346069 140.0
1485.829346 108.0
1486.036499 100.0
1486.0979 56.0
1486.159302 204.0
1487.249146 140.0
1487.394897 164.0
1487.778809 48.0
1487.8479 124.0
1488.59021 160.0
1489.007446 236.0
1489.54126 176.0
1489.606567 200.0
1490.082886 180.0
1490.255005 168.0
1491.727539 164.0
1492.065796 128.0
1492.150391 152.0
1492.230957 188.0
1492.957764 168.0
1493.711548 124.0
1494.53479 148.0
1494.665649 144.0
1494.765625 156.0
1494.942627 152.0
1495.011963 132.0
1495.181274 176.0
1495.412109 120.0
1495.466064 176.0
1495.55835 260.0
1495.766235 200.0
1495.935547 188.0
1496.574585 124.0
1496.713257 172.0
1498.301392 160.0
1498.477173 84.0
1498.993408 64.0
1499.078125 68.0
1499.694824 124.0
1499.856689 144.0
1500.095581 220.0
1500.642944 188.0
1501.190552 188.0
1501.815186 196.0
1502.324341 120.0
1502.540405 200.0
1502.663818 208.0
1502.933838 184.0
1503.396851 168.0
1503.582153 196.0
1503.801758 176.0
1504.022095 192.0
1504.137939 152.0
1504.500732 48.0
