>compound MLS001157805-01!4-[[2-(3-benzyl-6-chloro-4-methyl-2-oxochromen-7-yl)oxypropanoylamino]methyl]cyclohexane-1-carboxylic acid
>formula C28H30ClNO6
>ionization [M+H]+
>parentmass 512.184
#inchi InChI=1S/C28H30ClNO6/c1-16-21-13-23(29)25(14-24(21)36-28(34)22(16)12-18-6-4-3-5-7-18)35-17(2)26(31)30-15-19-8-10-20(11-9-19)27(32)33/h3-7,13-14,17,19-20H,8-12,15H2,1-2H3,(H,30,31)(H,32,33)/t17?,19-,20-
#inchikey SAUWKXGLBXTEBC
#Ion_Source LC-ESI
#Instrument qTof
#Compound_Source NIH Natural Product Library
#PI Dorrestein
#Data_Collector VVP/LMS
#Scan -1
#Precursor_MZ 512.184
#ExactMass 511.176
#Charge 1
#CAS_Number N/A
#Pubmed_ID N/A
#Smiles CC(Oc1cc2oc(=O)c(Cc3ccccc3)c(C)c2cc1Cl)C(=O)NC[C@H]4CC[C@@H](CC4)C(=O)O
#INCHI_AUX N/A
#Library_Class 1
#SpectrumID CCMSLIB00000079734
#IonMode Positive
#UpdateWorkflowName UPDATE-SINGLE-ANNOTATED-GOLD
#LibraryQualityString Gold
#TaskID b1d8e8f6646f4e71acdff9ca3d919d08
##Scan# 2391
#SpectrumFile p1-D10_GD10_01_17918.mzXML
#LibraryName NIH_Natural_Products_Library.mgf
#MQScore -1
#Organism NIH_Natural_Products_Library
#TIC_Query 0
#RT_Query -1
#MZErrorPPM -1
#SharedPeaks 0
#MassDiff 0
#LibMZ -1
#SpecMZ 512.184
#SpecCharge 0
#internalFilename spec-00000.mgf

>collision 10
94.963531 176.0
94.982925 180.0
95.033363 140.0
95.085098 2332.0
95.103111 200.0
95.204178 200.0
95.334335 88.0
95.404305 168.0
95.544327 92.0
95.668869 104.0
95.69223 144.0
95.834412 140.0
96.044136 48.0
96.081337 208.0
96.113228 160.0
96.290871 156.0
96.396362 220.0
96.453041 76.0
96.613388 172.0
97.075615 128.0
97.260033 172.0
97.717903 28.0
98.11573 72.0
98.139389 88.0
98.216301 144.0
98.563751 172.0
98.646759 192.0
98.76738 224.0
98.959335 228.0
99.067039 300.0
99.554184 160.0
99.719078 212.0
99.981598 120.0
100.073158 108.0
100.19664 128.0
100.487717 132.0
100.521637 160.0
100.603462 80.0
100.793198 144.0
101.255295 192.0
101.505791 152.0
101.7827 148.0
102.005699 120.0
102.208824 172.0
102.591484 80.0
102.752815 52.0
102.974861 136.0
103.057831 220.0
103.154686 164.0
103.213318 104.0
103.288139 140.0
103.603928 156.0
103.74781 212.0
104.194275 136.0
104.389397 212.0
104.56028 164.0
104.939156 128.0
105.039085 144.0
105.069359 408.0
105.157425 136.0
105.18396 52.0
105.559875 180.0
105.660095 152.0
105.89959 176.0
105.997925 100.0
106.062263 192.0
106.070732 76.0
106.078903 156.0
106.393768 120.0
106.531357 132.0
106.967293 192.0
107.057884 220.0
107.103195 172.0
107.313393 160.0
107.552689 120.0
108.220413 156.0
108.338455 172.0
108.809219 68.0
108.848663 152.0
108.890198 152.0
108.981598 196.0
109.066803 160.0
109.10006 128.0
109.265076 196.0
109.391296 64.0
109.412109 200.0
109.501648 104.0
109.749565 144.0
110.060219 416.0
110.096558 528.0
110.231796 176.0
111.067123 196.0
111.104088 1784.0
111.23539 104.0
111.594223 128.0
111.619453 80.0
111.728821 52.0
111.956139 204.0
111.981415 108.0
112.074104 136.0
112.111862 1488.0
112.145752 184.0
112.175262 36.0
112.379822 104.0
112.704613 116.0
112.831787 68.0
112.907906 136.0
112.922714 152.0
113.007324 116.0
113.083504 168.0
113.116089 356.0
113.543243 176.0
113.625969 120.0
113.906418 144.0
113.965668 140.0
114.016663 252.0
114.086807 136.0
114.540054 176.0
114.635933 196.0
114.791542 224.0
114.953659 72.0
115.055786 184.0
115.31884 112.0
115.37014 88.0
115.911629 160.0
115.950203 156.0
116.141014 196.0
116.413574 220.0
116.428612 200.0
116.583282 208.0
116.63916 164.0
116.675705 56.0
116.885269 52.0
117.345253 160.0
117.368973 112.0
117.567429 108.0
117.589005 148.0
117.658081 148.0
117.865417 208.0
118.010231 172.0
118.423553 144.0
118.44738 128.0
118.752991 120.0
119.297997 196.0
119.313217 252.0
120.077499 580.0
120.38739 144.0
120.584007 172.0
120.82016 132.0
121.14196 180.0
121.187965 184.0
121.685829 208.0
121.738533 212.0
121.758293 112.0
122.074745 196.0
122.096733 152.0
122.142921 52.0
122.213318 176.0
122.261726 160.0
122.424637 116.0
122.702263 104.0
123.072922 136.0
123.280556 120.0
123.388863 152.0
123.490578 200.0
123.751694 44.0
124.075859 720.0
124.108414 140.0
124.14167 160.0
124.252579 236.0
124.275055 180.0
124.367966 128.0
125.084808 196.0
125.119301 160.0
125.321976 200.0
125.402199 160.0
125.464607 64.0
125.506966 156.0
126.058617 320.0
126.257263 140.0
126.39595 220.0
126.994095 148.0
127.023247 168.0
127.964851 204.0
128.059845 176.0
128.097717 76.0
128.203613 204.0
128.869263 156.0
128.948349 152.0
129.070099 688.0
129.133743 216.0
129.215179 184.0
129.233276 280.0
129.378128 160.0
129.572876 184.0
130.074921 196.0
130.099014 116.0
130.37384 156.0
130.744522 144.0
130.837845 80.0
131.026871 144.0
131.051331 184.0
131.921448 160.0
132.055664 196.0
132.578323 188.0
132.603531 180.0
132.619583 208.0
132.998032 188.0
133.159378 72.0
133.473572 120.0
133.745041 84.0
133.816406 124.0
134.095123 192.0
134.57724 136.0
134.688095 144.0
134.852142 152.0
134.937668 188.0
135.083359 184.0
135.143509 164.0
135.229126 40.0
135.254593 148.0
135.799072 188.0
136.035751 88.0
136.219193 172.0
136.42601 144.0
136.842438 176.0
136.8797 148.0
137.094009 204.0
137.646851 196.0
137.691223 136.0
137.721588 156.0
137.803345 184.0
137.957581 152.0
138.055786 200.0
138.092453 1776.0
138.128525 3120.0
138.189117 60.0
138.209305 76.0
138.350601 56.0
138.399765 196.0
139.088058 132.0
139.131866 388.0
139.180542 184.0
139.250992 132.0
139.27449 92.0
139.493011 112.0
139.563538 156.0
139.678772 124.0
139.845825 96.0
139.871719 200.0
140.043594 160.0
140.077591 212.0
140.107269 14848.0
140.141525 180.0
140.173172 40.0
140.285461 56.0
140.345749 56.0
140.435669 104.0
140.49939 144.0
140.687332 136.0
140.878616 88.0
140.99202 144.0
141.048752 152.0
141.067261 200.0
141.108765 1048.0
141.159866 88.0
141.259201 56.0
141.315979 68.0
141.488739 136.0
141.562134 228.0
141.611877 224.0
141.675827 64.0
141.744537 52.0
141.829849 132.0
141.936523 184.0
142.012421 56.0
142.05748 72.0
142.112518 244.0
142.438675 144.0
142.472916 164.0
142.924637 144.0
143.076965 56.0
143.167435 104.0
143.334183 220.0
143.627411 104.0
143.858871 60.0
144.01886 152.0
144.065369 196.0
144.243469 152.0
144.331924 156.0
145.066071 228.0
145.140488 128.0
145.460312 176.0
145.710052 168.0
145.827805 132.0
145.979263 136.0
146.573807 212.0
147.015091 72.0
147.592407 116.0
147.616211 128.0
148.110306 328.0
148.495682 196.0
148.575729 120.0
148.903412 140.0
149.097763 128.0
149.535522 60.0
149.705933 64.0
149.766815 156.0
149.891068 144.0
150.061676 136.0
150.125076 176.0
150.525269 220.0
151.121674 144.0
151.363983 164.0
151.682465 140.0
151.71434 64.0
152.108109 1184.0
152.190292 40.0
152.244308 152.0
152.438385 188.0
153.045929 228.0
153.121033 176.0
153.324295 80.0
153.482056 168.0
153.57576 188.0
153.86058 276.0
154.094147 224.0
154.336365 108.0
154.615891 44.0
155.039368 164.0
155.334412 124.0
155.62973 116.0
155.69429 132.0
155.823456 140.0
155.98996 172.0
156.064545 72.0
156.098724 204.0
156.430252 116.0
156.462616 172.0
156.574661 236.0
156.594589 68.0
156.831284 164.0
156.928497 188.0
157.644867 108.0
158.019928 232.0
158.064972 168.0
158.75885 148.0
159.155319 92.0
159.459274 184.0
159.661346 116.0
159.861649 100.0
160.027145 132.0
160.052689 372.0
160.319962 32.0
161.018112 184.0
161.058441 232.0
161.35231 84.0
161.671005 172.0
162.022949 156.0
162.069794 172.0
163.004852 136.0
163.070923 200.0
163.676376 116.0
163.732391 188.0
163.760406 172.0
164.066177 204.0
164.219177 48.0
165.04657 204.0
165.072144 88.0
165.361221 196.0
165.491776 152.0
165.537857 112.0
165.586517 108.0
165.845291 176.0
165.960648 132.0
166.085159 332.0
166.121902 2280.0
166.214569 176.0
166.391678 84.0
166.458435 116.0
166.522629 132.0
166.545746 100.0
166.597122 96.0
166.75386 108.0
166.902954 212.0
166.983353 76.0
167.024734 260.0
167.044403 40.0
167.074539 168.0
167.08548 120.0
167.093979 164.0
167.130112 6136.0
167.25798 84.0
167.283722 112.0
167.308014 100.0
167.348083 128.0
167.711304 172.0
168.020737 56.0
168.13504 1400.0
168.20137 124.0
168.263336 28.0
168.299469 60.0
168.798172 164.0
169.005096 240.0
169.077545 92.0
169.131897 100.0
169.175903 188.0
169.300186 32.0
169.450409 36.0
169.528152 168.0
169.662933 160.0
169.968964 120.0
170.093536 164.0
170.114304 136.0
170.179214 92.0
171.016266 144.0
171.044891 112.0
171.102158 216.0
171.138611 144.0
171.917984 160.0
172.11377 124.0
172.466431 224.0
172.803772 176.0
173.055038 128.0
173.149292 60.0
173.233109 60.0
173.385818 200.0
173.581696 148.0
173.998871 148.0
174.054001 196.0
175.15593 92.0
175.198074 100.0
175.361435 124.0
175.706879 124.0
175.733261 128.0
176.14772 40.0
176.185028 164.0
176.406693 140.0
176.814011 144.0
177.970764 208.0
178.070969 144.0
178.079544 140.0
178.087326 192.0
178.123795 260.0
178.272568 52.0
178.333694 196.0
179.081329 52.0
179.417068 96.0
179.91861 104.0
180.098892 356.0
180.632095 156.0
181.738525 228.0
181.845856 144.0
182.498627 148.0
182.627716 172.0
182.810654 144.0
183.017914 140.0
183.115433 192.0
183.554108 124.0
184.02359 104.0
184.099838 328.0
184.132507 2244.0
184.301788 68.0
184.653214 72.0
184.850693 60.0
185.137039 164.0
185.516953 116.0
186.322952 168.0
186.393585 20.0
186.738831 148.0
186.801392 232.0
186.87532 92.0
187.269562 164.0
187.880142 96.0
188.256805 140.0
188.49173 128.0
188.538177 208.0
188.636566 104.0
189.986603 160.0
190.074493 116.0
190.277512 192.0
190.821487 172.0
191.08432 392.0
191.38826 140.0
191.479126 104.0
191.536972 60.0
192.092056 300.0
192.51329 132.0
193.005142 148.0
193.040527 472.0
193.105667 196.0
193.287277 80.0
193.328781 224.0
193.580688 64.0
193.932541 172.0
194.00972 128.0
194.043411 132.0
194.116318 2152.0
194.190384 40.0
194.248627 56.0
194.268051 28.0
194.312439 88.0
194.49559 184.0
194.531662 76.0
194.637161 48.0
194.731583 52.0
195.019348 1140.0
195.122177 480.0
195.148407 88.0
195.192902 48.0
195.323608 60.0
195.370895 132.0
195.760559 96.0
196.027618 96.0
196.032028 336.0
196.094864 228.0
196.705688 108.0
196.884384 104.0
196.923477 160.0
196.976547 160.0
197.019394 364.0
197.07991 204.0
197.697876 164.0
197.784256 200.0
198.019394 180.0
198.288788 176.0
198.639267 208.0
198.995667 128.0
199.120621 140.0
199.641937 168.0
199.751617 188.0
201.056824 208.0
201.293243 100.0
201.813156 112.0
202.418671 156.0
202.832291 120.0
203.084641 124.0
203.86821 172.0
204.095612 136.0
204.271942 80.0
204.39711 176.0
204.53656 80.0
204.604889 28.0
205.094833 120.0
206.01651 76.0
206.113647 168.0
206.307999 184.0
206.89444 196.0
207.014694 160.0
207.062988 144.0
207.116562 232.0
207.234863 148.0
207.395737 200.0
207.719742 120.0
207.748428 176.0
207.99234 152.0
208.090469 152.0
208.115784 152.0
208.503571 176.0
209.009674 168.0
209.033386 140.0
209.090256 132.0
209.110397 164.0
209.266022 196.0
209.52504 164.0
210.107391 128.0
210.432724 248.0
210.748322 64.0
210.944839 84.0
211.911423 184.0
212.044724 136.0
212.12587 176.0
212.360733 152.0
212.392639 104.0
213.133316 328.0
213.31601 112.0
213.583527 104.0
213.926895 36.0
214.061829 172.0
214.490677 176.0
214.833176 152.0
215.060776 124.0
215.127899 136.0
215.750137 144.0
216.175537 184.0
216.402542 172.0
216.513809 164.0
216.657333 112.0
217.102859 164.0
217.179108 164.0
217.275909 208.0
217.8983 132.0
218.068726 160.0
219.075043 128.0
219.116287 256.0
219.213516 116.0
219.944916 236.0
220.021667 144.0
220.091522 212.0
220.122055 60.0
220.243134 80.0
220.795822 128.0
221.038589 244.0
221.096832 264.0
221.45285 132.0
221.603928 28.0
222.01001 164.0
222.075256 120.0
222.101944 180.0
222.122711 180.0
222.419434 108.0
222.535217 96.0
222.580353 176.0
222.615387 200.0
222.710632 164.0
222.75145 108.0
222.787643 108.0
222.811417 112.0
222.872025 160.0
222.937729 140.0
222.970001 140.0
223.015701 31756.0
223.159134 28.0
223.221817 176.0
223.245361 80.0
223.296997 132.0
223.361359 200.0
223.408951 176.0
223.478989 52.0
223.505646 28.0
223.551758 56.0
223.605331 60.0
223.673782 184.0
223.789886 96.0
223.86731 52.0
223.980484 40.0
224.017319 2924.0
224.065033 52.0
224.189972 164.0
224.263535 56.0
224.39917 64.0
224.522919 168.0
224.558899 132.0
224.60643 48.0
224.660126 64.0
224.722778 72.0
224.763016 136.0
224.860031 40.0
224.92868 56.0
225.011505 8052.0
225.071716 44.0
225.122742 148.0
225.148285 80.0
225.203384 36.0
225.282776 76.0
225.350525 128.0
225.394577 72.0
225.446869 80.0
225.514114 136.0
225.607544 92.0
225.660583 108.0
225.690475 32.0
225.746292 132.0
226.016556 1320.0
226.046829 148.0
226.124237 36.0
226.288879 48.0
226.456558 40.0
226.558411 60.0
226.588364 72.0
226.642288 120.0
226.678253 28.0
227.01004 76.0
227.061966 224.0
227.184937 84.0
227.24794 52.0
227.494034 100.0
227.600845 132.0
227.626129 40.0
228.037704 156.0
228.600983 132.0
228.849899 116.0
228.892059 100.0
228.928192 80.0
229.063721 132.0
229.997665 168.0
230.113174 108.0
230.826233 160.0
230.941162 76.0
231.065186 192.0
231.773651 68.0
232.043411 232.0
232.070923 156.0
232.10405 160.0
232.392197 44.0
233.105728 104.0
233.282013 128.0
233.83255 100.0
234.063904 148.0
234.101105 352.0
234.173538 72.0
235.109634 212.0
235.888321 196.0
235.986145 88.0
236.087051 136.0
236.117844 144.0
236.839935 124.0
237.024582 176.0
237.054382 72.0
237.091156 320.0
237.128174 156.0
237.259735 112.0
237.423965 56.0
237.486649 28.0
237.833359 116.0
238.745834 208.0
239.013458 96.0
239.087311 120.0
239.1427 152.0
239.619995 92.0
240.310608 200.0
241.524658 104.0
241.744308 112.0
241.830963 76.0
241.880096 156.0
241.942398 108.0
242.754166 124.0
242.921646 52.0
243.049393 392.0
243.095398 144.0
244.073853 56.0
244.170258 144.0
244.686783 84.0
245.090698 128.0
245.922043 132.0
246.067902 128.0
246.09288 164.0
246.370834 216.0
247.10759 204.0
247.87262 200.0
248.113113 164.0
248.590698 124.0
248.873199 60.0
248.954834 56.0
249.029068 3300.0
249.096176 136.0
249.275253 84.0
249.756256 48.0
249.787704 64.0
250.039734 360.0
250.080338 268.0
250.291245 80.0
250.820511 236.0
251.030151 796.0
251.112091 172.0
251.593353 56.0
252.036987 148.0
253.071671 160.0
254.052246 116.0
254.341003 100.0
255.058395 200.0
255.151031 172.0
256.061066 148.0
256.092926 144.0
256.513519 36.0
257.049316 168.0
257.093994 96.0
257.470703 64.0
258.026672 92.0
258.0737 180.0
258.448853 160.0
259.015503 156.0
259.05899 116.0
259.082764 148.0
259.486572 128.0
259.775177 184.0
259.832916 184.0
260.497437 48.0
260.805908 68.0
261.500641 48.0
262.109283 148.0
263.057465 124.0
263.110962 256.0
263.18338 60.0
263.632355 52.0
263.852142 60.0
264.10907 424.0
264.191711 96.0
265.120148 300.0
265.147766 164.0
266.09079 160.0
266.610504 76.0
266.857544 76.0
267.065674 192.0
269.099091 132.0
270.040192 136.0
270.832245 92.0
271.052551 768.0
271.080902 208.0
271.559875 52.0
272.055359 108.0
272.078339 212.0
272.245789 164.0
272.327881 136.0
273.064087 212.0
273.088135 336.0
274.056793 168.0
274.069763 96.0
274.753876 136.0
275.108948 60.0
275.969238 132.0
276.700409 96.0
276.862671 64.0
276.985199 44.0
277.02356 204.0
277.077942 292.0
277.299957 148.0
277.740936 68.0
277.873627 100.0
278.024811 156.0
278.554169 32.0
279.022095 172.0
281.031006 144.0
282.648193 204.0
283.006317 228.0
283.042389 164.0
283.093384 132.0
283.914429 196.0
284.057312 800.0
285.0271 360.0
285.061157 284.0
285.583557 140.0
286.043427 216.0
286.088287 224.0
287.065369 140.0
288.977173 104.0
289.721954 132.0
290.009979 160.0
291.107758 144.0
291.530396 188.0
291.673157 160.0
292.108948 824.0
293.11441 568.0
294.054596 572.0
294.117859 308.0
294.147308 124.0
294.171509 80.0
294.205963 76.0
294.25293 108.0
294.480682 124.0
294.73349 144.0
295.051331 140.0
295.133392 156.0
295.430939 40.0
295.797089 56.0
295.916901 192.0
296.046539 248.0
296.228546 144.0
297.055298 128.0
298.032684 132.0
298.156799 108.0
298.184296 96.0
298.383667 108.0
299.047516 940.0
299.081879 1036.0
299.257538 48.0
299.319519 80.0
299.409027 60.0
299.836243 208.0
300.048157 612.0
300.079803 308.0
300.153381 128.0
300.218903 124.0
300.449982 164.0
300.63974 80.0
300.678345 44.0
300.719116 76.0
300.798523 92.0
300.905518 140.0
300.959167 216.0
301.061615 7772.0
301.111664 80.0
301.189301 92.0
301.245453 148.0
301.281952 60.0
301.420166 52.0
301.447815 68.0
301.579132 40.0
301.779633 72.0
301.883362 112.0
301.994019 192.0
302.016296 156.0
302.063568 2040.0
302.284637 100.0
302.312317 112.0
302.554596 36.0
302.697754 156.0
303.060394 2012.0
303.112213 272.0
303.165649 48.0
303.212708 72.0
303.32016 92.0
303.413757 132.0
303.455353 28.0
303.555908 60.0
303.673828 116.0
303.861145 80.0
304.060791 316.0
304.102203 160.0
304.263702 164.0
304.409546 40.0
304.476685 60.0
304.510254 48.0
304.791626 204.0
305.014038 40.0
305.073151 96.0
305.535645 92.0
305.566956 80.0
305.643524 56.0
305.855804 68.0
305.880157 168.0
306.214417 64.0
307.382263 124.0
309.097931 128.0
309.136414 96.0
309.328918 104.0
309.440948 204.0
310.169586 76.0
310.250214 56.0
311.071075 120.0
311.130737 92.0
311.169373 152.0
311.495972 220.0
312.058228 120.0
313.059967 236.0
313.519012 112.0
313.585968 172.0
314.07959 152.0
315.064453 96.0
317.021057 72.0
318.195099 112.0
319.083282 120.0
319.197052 64.0
319.271729 96.0
319.406891 240.0
319.61322 164.0
321.123657 188.0
322.66983 132.0
323.836365 108.0
324.624786 64.0
325.058838 52.0
325.119843 80.0
326.071533 136.0
326.413025 68.0
326.513733 188.0
326.578461 148.0
326.643219 200.0
326.864044 156.0
326.938232 144.0
327.028198 124.0
327.077911 12136.0
327.238953 88.0
327.246277 48.0
327.30899 52.0
327.345001 88.0
327.432892 80.0
327.47464 40.0
327.53949 96.0
327.676392 48.0
327.714325 112.0
327.844513 60.0
328.027924 100.0
328.07962 2740.0
328.249451 56.0
328.285522 96.0
328.833862 148.0
328.962006 160.0
329.074402 4440.0
329.172302 48.0
329.183655 36.0
329.259277 64.0
329.433258 32.0
329.566925 52.0
329.80545 112.0
330.000641 56.0
330.029572 68.0
330.074005 140.0
330.185059 112.0
330.355621 76.0
330.391235 36.0
330.868927 128.0
331.046356 116.0
331.071716 140.0
331.122406 84.0
331.346985 124.0
331.791138 92.0
332.115479 116.0
332.231537 84.0
332.300476 48.0
332.910278 56.0
333.149994 64.0
333.244446 40.0
333.800568 52.0
339.057281 124.0
339.445862 84.0
340.194336 152.0
341.370026 192.0
342.529358 88.0
343.819763 116.0
345.07196 180.0
348.782715 28.0
348.864502 72.0
350.617584 120.0
350.926971 52.0
354.166901 96.0
354.500336 108.0
355.072601 432.0
356.082672 172.0
357.072296 300.0
357.123138 128.0
357.576019 136.0
358.078766 216.0
358.543915 164.0
358.717285 100.0
359.188629 128.0
359.958527 68.0
360.04538 56.0
360.460907 160.0
361.485657 80.0
362.204987 140.0
371.322052 88.0
372.094269 1100.0
372.392853 72.0
372.619476 92.0
372.750122 64.0
373.099152 460.0
374.093231 772.0
374.408569 148.0
374.604523 152.0
375.101776 176.0
375.259674 80.0
376.382446 108.0
384.098267 328.0
385.092987 144.0
385.561798 92.0
386.085663 144.0
386.390747 68.0
387.107025 144.0
388.133759 136.0
389.126312 92.0
389.157715 100.0
390.124939 176.0
394.021698 92.0
394.325958 128.0
405.537842 88.0
408.662048 160.0
410.071442 60.0
414.674835 80.0
419.226501 64.0
425.152039 116.0
429.9216 76.0
430.18576 156.0
430.966309 108.0
431.205383 136.0
431.606964 100.0
433.158905 76.0
435.211731 128.0
435.481659 80.0
435.901245 144.0
435.996826 32.0
436.433289 60.0
437.073822 184.0
437.140411 100.0
438.237183 128.0
439.190125 104.0
440.236359 168.0
449.497955 76.0
450.718262 64.0
451.3396 36.0
454.92804 156.0
457.155151 80.0
462.263092 92.0
463.680542 76.0
463.75769 76.0
464.053467 84.0
465.287628 60.0
465.924408 128.0
466.176819 3408.0
466.732666 48.0
467.176758 1012.0
468.022919 88.0
468.101013 156.0
468.174133 1140.0
468.234497 156.0
468.850555 92.0
469.176178 184.0
469.187286 336.0
469.803436 48.0
470.179138 160.0
481.697815 32.0
489.279938 84.0
495.170349 136.0
501.550568 104.0
511.21994 160.0
512.309509 148.0
513.292053 176.0
528.88855 76.0
532.832214 72.0
536.066772 56.0
544.560608 100.0
548.720642 64.0
550.208862 48.0
554.629395 44.0
556.143677 132.0
561.937195 72.0
568.139465 40.0
573.088623 88.0
588.045532 84.0
704.030579 116.0
709.920471 108.0
710.477356 136.0
728.849121 112.0
746.351196 72.0
754.256042 92.0
756.476868 68.0
781.59436 132.0
792.921997 20.0
799.017212 184.0
803.05603 240.0
830.947205 40.0
836.538879 40.0
847.372742 180.0
877.979431 88.0
883.212219 72.0
885.603455 164.0
885.864075 80.0
887.00769 176.0
889.73053 72.0
892.629944 164.0
894.379028 164.0
912.390564 204.0
912.89563 148.0
925.016541 132.0
934.209839 96.0
938.472961 180.0
942.17749 188.0
942.947449 104.0
971.065552 172.0
974.848083 68.0
991.220215 116.0
991.615051 204.0
992.404907 160.0
997.068848 252.0
997.188232 76.0
999.798157 208.0
1006.871521 200.0
1009.146301 108.0
1026.218994 164.0
1033.538696 180.0
1034.133789 132.0
1045.126465 180.0
1047.03833 156.0
1047.927246 152.0
1048.829468 68.0
1054.981079 136.0
1058.060425 112.0
1060.061768 148.0
1065.271606 216.0
1077.322876 56.0
1099.667847 192.0
1106.304199 144.0
1110.544922 200.0
1113.046875 172.0
1116.07666 148.0
1120.116333 120.0
1121.182373 36.0
1128.437988 96.0
1138.408325 160.0
1138.972412 176.0
1148.274048 156.0
1150.919312 260.0
1151.059814 204.0
1151.162354 244.0
1154.730591 188.0
1158.202759 80.0
1159.700073 144.0
1160.127075 124.0
1161.666504 212.0
1165.910034 164.0
1168.307983 244.0
1169.40564 100.0
1171.33252 84.0
1177.0271 196.0
1178.126709 64.0
1180.12915 192.0
1188.299927 172.0
1195.342651 156.0
1199.426636 148.0
1204.795288 268.0
1206.619751 100.0
1210.96521 220.0
1220.97998 196.0
1226.201294 272.0
1228.153564 88.0
1237.790771 88.0
1239.878296 168.0
1241.161011 112.0
1246.277832 184.0
1247.310913 100.0
1250.138184 140.0
1252.200195 192.0
1254.018555 132.0
1254.335815 60.0
1256.571289 184.0
1260.246094 20.0
1265.164917 112.0
1266.977783 172.0
1267.417114 156.0
1272.133301 100.0
1275.784668 132.0
1280.395264 64.0
1284.729004 104.0
1284.828857 64.0
1285.442383 168.0
1292.945801 168.0
1294.234253 240.0
1295.179565 184.0
1296.254272 148.0
1299.251221 144.0
1299.523804 84.0
1301.691406 128.0
1301.921265 164.0
1304.860107 232.0
1312.744263 212.0
1313.364502 144.0
1315.940796 128.0
1318.17981 188.0
1322.352539 192.0
1325.140381 104.0
1328.888794 96.0
1329.861084 196.0
1330.66687 148.0
1334.692017 184.0
1339.305908 184.0
1339.400635 36.0
1340.500732 180.0
1341.178467 152.0
1343.635864 132.0
1348.287109 40.0
1351.255737 144.0
1353.312378 208.0
1354.813721 188.0
1356.667725 180.0
1357.188354 108.0
1365.55249 136.0
1367.951172 144.0
1368.032104 152.0
1369.055542 160.0
1369.153931 56.0
1369.821533 232.0
1376.865234 20.0
1384.304688 200.0
1386.704956 168.0
1388.002197 164.0
1390.753906 228.0
1391.32605 72.0
1397.72522 84.0
1405.612183 204.0
1408.468018 196.0
1409.140381 52.0
1413.028076 208.0
1413.26001 160.0
1414.045654 156.0
1416.516479 180.0
1420.316895 208.0
1420.796997 92.0
1423.55896 144.0
1424.182373 164.0
1427.827515 120.0
1428.662354 164.0
1436.798462 192.0
1437.145508 192.0
1439.923462 132.0
1441.011108 268.0
1444.428101 72.0
1445.18457 176.0
1448.644409 136.0
1449.856689 148.0
1455.675049 160.0
1457.194092 216.0
1468.673584 52.0
1470.581055 172.0
1477.213379 136.0
1479.179932 148.0
1483.906494 128.0
1487.120728 140.0
1487.396973 80.0
1496.306519 160.0
1497.838989 192.0
1499.904053 176.0
1500.675903 164.0
1501.931885 148.0
1502.903931 148.0
