>compound MLS001157745-01!(2S)-1-[(2S)-2-[(5-methoxy-1-methylindole-2-carbonyl)amino]-3-methylbutanoyl]pyrrolidine-2-carboxylic acid
>formula C21H27N3O5
>ionization [M+Na]+
>parentmass 424.184
#inchi InChI=1S/C21H27N3O5/c1-12(2)18(20(26)24-9-5-6-16(24)21(27)28)22-19(25)17-11-13-10-14(29-4)7-8-15(13)23(17)3/h7-8,10-12,16,18H,5-6,9H2,1-4H3,(H,22,25)(H,27,28)/t16-,18-/m0/s1
#inchikey KGGMUKPCMBFYJH
#Ion_Source LC-ESI
#Instrument qTof
#Compound_Source NIH Natural Product Library
#PI Dorrestein
#Data_Collector VVP/LMS
#Scan -1
#Precursor_MZ 424.184
#ExactMass 401.195
#Charge 1
#CAS_Number N/A
#Pubmed_ID N/A
#Smiles COc1ccc2n(C)c(cc2c1)C(=O)N[C@@H](C(C)C)C(=O)N3CCC[C@H]3C(=O)O
#INCHI_AUX N/A
#Library_Class 1
#SpectrumID CCMSLIB00000079385
#IonMode Positive
#UpdateWorkflowName UPDATE-SINGLE-ANNOTATED-GOLD
#LibraryQualityString Gold
#TaskID b1d8e8f6646f4e71acdff9ca3d919d08
##Scan# 1991
#SpectrumFile p1-E05_GE5_01_17925.mzXML
#LibraryName NIH_Natural_Products_Library.mgf
#MQScore -1
#Organism NIH_Natural_Products_Library
#TIC_Query 0
#RT_Query -1
#MZErrorPPM -1
#SharedPeaks 0
#MassDiff 0
#LibMZ -1
#SpecMZ 424.184
#SpecCharge 0
#internalFilename spec-00000.mgf

>collision 10
101.398285 100.0
103.414345 116.0
104.38813 172.0
104.406433 156.0
105.050056 160.0
105.609734 96.0
106.579391 168.0
108.055412 228.0
108.212921 100.0
109.879745 52.0
109.942337 128.0
111.019699 180.0
111.258896 80.0
113.834808 88.0
117.054527 380.0
119.048485 332.0
119.716621 64.0
122.355072 88.0
127.21833 176.0
128.994507 228.0
129.261383 216.0
130.084076 96.0
135.42923 132.0
136.073898 196.0
136.392151 164.0
138.020172 188.0
138.052322 2284.0
139.053848 296.0
139.543396 240.0
140.011658 92.0
140.957611 56.0
141.094696 268.0
141.847488 168.0
142.013458 160.0
142.93045 216.0
142.949478 160.0
142.978043 148.0
144.828354 124.0
145.050232 192.0
146.064499 136.0
147.062027 144.0
148.550125 204.0
149.047821 172.0
153.673096 156.0
154.82251 84.0
154.976074 164.0
156.030884 184.0
156.677933 128.0
157.04187 120.0
160.0793 188.0
162.082306 180.0
163.547745 100.0
163.937393 116.0
164.521484 152.0
165.324051 220.0
165.526276 180.0
167.805328 104.0
172.020905 160.0
173.048447 136.0
173.072006 56.0
174.042145 196.0
175.600006 232.0
176.064499 136.0
176.098831 132.0
178.0401 108.0
178.582275 204.0
184.852051 20.0
187.505234 104.0
187.71788 176.0
188.031601 164.0
188.070679 4136.0
188.326462 72.0
188.528625 64.0
188.955185 84.0
189.007172 144.0
189.074219 632.0
189.269928 36.0
190.071655 108.0
190.276154 144.0
191.227249 108.0
191.519104 108.0
193.042511 132.0
195.681244 92.0
197.019897 88.0
198.105316 204.0
200.042923 212.0
202.021088 156.0
203.395401 84.0
204.026031 120.0
208.993942 204.0
209.025604 92.0
209.077393 244.0
210.085846 140.0
212.974701 68.0
216.138062 392.0
217.145508 80.0
218.308456 60.0
224.915405 104.0
228.021347 208.0
228.061462 164.0
229.020218 164.0
229.559677 76.0
229.94281 188.0
230.024292 168.0
230.277924 60.0
230.667694 52.0
230.700943 76.0
231.054779 96.0
231.702637 100.0
233.384048 108.0
242.068024 120.0
243.046768 292.0
244.047668 128.0
246.036194 152.0
251.816238 124.0
255.397766 68.0
257.092682 80.0
259.140961 168.0
260.941589 144.0
261.054077 480.0
262.053192 408.0
264.043884 352.0
265.035431 128.0
268.054047 180.0
268.122498 132.0
269.414581 56.0
279.059875 196.0
280.079651 120.0
280.372833 84.0
281.136536 136.0
283.051941 132.0
289.043579 176.0
289.947723 200.0
293.708069 96.0
296.988251 152.0
297.067444 156.0
297.554443 108.0
301.066559 160.0
302.075806 152.0
307.133331 180.0
309.107208 136.0
312.106232 136.0
313.077423 128.0
313.211273 188.0
315.052612 140.0
315.098541 176.0
325.940948 184.0
327.130096 1140.0
327.171967 160.0
328.128357 316.0
329.912689 84.0
330.947388 104.0
335.999298 56.0
341.25119 148.0
345.144745 136.0
347.088348 132.0
348.127686 112.0
350.128387 32.0
350.966827 44.0
353.125275 152.0
365.103516 144.0
377.072815 160.0
382.121552 136.0
387.149017 112.0
394.135193 64.0
396.144989 116.0
396.193604 104.0
397.151031 104.0
399.049988 120.0
404.187256 80.0
404.403351 48.0
409.377502 52.0
413.717896 136.0
415.168427 260.0
421.138885 108.0
422.864258 80.0
423.73233 128.0
424.179565 716.0
424.273315 104.0
424.363495 92.0
425.190552 224.0
425.298828 100.0
426.173523 72.0
426.23288 324.0
426.748932 88.0
428.753571 88.0
433.17865 132.0
446.157104 128.0
458.157471 156.0
458.210205 68.0
460.626862 20.0
476.165894 172.0
493.669342 48.0
556.141418 20.0
694.087585 20.0
1048.521362 116.0
1062.040405 204.0
1068.19812 180.0
1071.593018 20.0
1085.178711 24.0
1208.060059 188.0
1226.217285 312.0
1274.514771 36.0
1309.856689 136.0
1345.609009 140.0
1356.428467 200.0
1388.583374 172.0
1399.633545 104.0
1436.620361 36.0
1438.937256 244.0
1447.753662 136.0
1461.97998 208.0
