>compound MLS002472954-01!(E)-1-[2-hydroxy-3-(2-hydroxy-3-methylbut-3-enyl)-4-methoxyphenyl]-3-(4-hydroxyphenyl)prop-2-en-1-one
>formula C21H22O5
>ionization [M+H]+
>parentmass 355.155
#inchi InChI=1S/C21H22O5/c1-13(2)19(24)12-17-20(26-3)11-9-16(21(17)25)18(23)10-6-14-4-7-15(22)8-5-14/h4-11,19,22,24-25H,1,12H2,2-3H3/b10-6+
#inchikey YSOKENZJQWPLRA
#Ion_Source LC-ESI
#Instrument qTof
#Compound_Source NIH Natural Product Library
#PI Dorrestein
#Data_Collector VVP/LMS
#Scan -1
#Precursor_MZ 355.155
#ExactMass 354.147
#Charge 1
#CAS_Number N/A
#Pubmed_ID N/A
#Smiles COc1ccc(C(=O)/C=C/c2ccc(O)cc2)c(O)c1CC(O)C(=C)C
#INCHI_AUX N/A
#Library_Class 1
#SpectrumID CCMSLIB00000079910
#IonMode Positive
#UpdateWorkflowName UPDATE-SINGLE-ANNOTATED-GOLD
#LibraryQualityString Gold
#TaskID b1d8e8f6646f4e71acdff9ca3d919d08
##Scan# 2309
#SpectrumFile p1-F12_GF12_01_17944.mzXML
#LibraryName NIH_Natural_Products_Library.mgf
#MQScore -1
#Organism NIH_Natural_Products_Library
#TIC_Query 0
#RT_Query -1
#MZErrorPPM -1
#SharedPeaks 0
#MassDiff 0
#LibMZ -1
#SpecMZ 355.155
#SpecCharge 0
#internalFilename spec-00000.mgf

>collision 10
95.011574 332.0
95.046501 212.0
95.112488 60.0
95.285316 112.0
95.347496 176.0
95.473862 64.0
95.53167 200.0
95.59642 188.0
95.651726 164.0
95.676224 212.0
95.767746 144.0
95.849564 180.0
95.863205 136.0
95.896339 184.0
95.917778 88.0
96.044518 196.0
96.185013 136.0
96.362724 148.0
96.405708 180.0
96.522995 180.0
96.546463 108.0
96.716446 136.0
96.766197 136.0
96.855698 112.0
96.894882 160.0
96.947784 52.0
97.024223 204.0
97.167839 88.0
97.182869 176.0
97.239998 48.0
97.303619 224.0
97.32048 164.0
97.526756 204.0
97.54641 72.0
97.575897 184.0
97.78244 180.0
97.882835 136.0
97.981316 136.0
98.002991 168.0
98.081818 148.0
98.138992 160.0
98.17054 48.0
98.286926 144.0
98.419174 68.0
98.627617 172.0
98.703705 208.0
98.745232 88.0
98.763031 172.0
98.834251 48.0
98.873833 176.0
98.988647 224.0
99.016373 100.0
99.059952 152.0
99.097588 124.0
99.184784 108.0
99.232147 144.0
99.293839 108.0
99.321602 132.0
99.393021 184.0
99.506157 124.0
99.601479 116.0
99.615387 112.0
99.678963 228.0
99.742561 52.0
99.800209 72.0
99.83004 96.0
99.85788 200.0
99.972183 216.0
100.00312 160.0
100.025017 176.0
100.104652 128.0
100.122574 232.0
100.174362 140.0
100.208229 116.0
100.234131 212.0
100.275986 144.0
100.301895 152.0
100.391609 148.0
100.587135 188.0
100.748894 124.0
100.858795 196.0
100.920769 204.0
100.938766 216.0
100.979286 184.0
101.034767 120.0
101.088791 148.0
101.268974 224.0
101.325058 152.0
101.421249 132.0
101.453323 48.0
101.481392 112.0
101.497429 160.0
101.596184 184.0
101.714104 176.0
101.728149 212.0
101.78437 196.0
101.807816 148.0
101.836578 88.0
101.981247 212.0
102.003357 164.0
102.049591 156.0
102.153229 160.0
102.295029 132.0
102.405777 128.0
102.419876 140.0
102.445038 208.0
102.480316 184.0
102.593651 204.0
102.635513 108.0
102.665764 52.0
102.742409 108.0
102.804916 204.0
102.861473 200.0
103.002815 120.0
103.052559 1024.0
103.154373 40.0
103.19278 100.0
103.212997 144.0
103.590828 140.0
103.621857 196.0
103.642113 72.0
103.679245 148.0
103.744789 188.0
103.810356 160.0
103.87323 128.0
103.947281 152.0
103.96656 196.0
104.055176 280.0
104.0979 212.0
104.177727 180.0
104.191948 124.0
104.230553 160.0
104.244774 52.0
104.311844 88.0
104.32811 152.0
104.356567 220.0
104.653625 164.0
104.698425 192.0
104.720825 136.0
104.776375 240.0
104.804352 148.0
104.959366 156.0
105.033478 5924.0
105.070702 1892.0
105.138779 48.0
105.183678 68.0
105.241974 144.0
105.287804 80.0
105.322525 168.0
105.416504 196.0
105.502983 52.0
105.528931 92.0
105.549377 52.0
105.565735 152.0
105.813316 160.0
106.036674 304.0
106.071083 768.0
106.085785 168.0
106.111481 180.0
106.200615 128.0
106.247795 180.0
106.389397 180.0
106.652328 184.0
106.78186 136.0
106.837402 120.0
107.011322 156.0
107.026749 164.0
107.048241 648.0
107.076172 124.0
107.119423 52.0
107.14415 132.0
107.172989 132.0
107.377075 132.0
107.544189 188.0
107.571022 140.0
107.682526 120.0
107.711441 216.0
107.812683 264.0
107.891754 276.0
107.947052 144.0
108.052536 160.0
108.087708 156.0
108.120819 40.0
108.211899 264.0
108.299622 144.0
108.321655 120.0
108.369308 156.0
108.491585 196.0
108.520607 144.0
108.566971 112.0
108.580742 196.0
108.603561 148.0
108.665794 160.0
108.721817 112.0
108.748802 120.0
108.94191 136.0
108.981384 132.0
109.010475 164.0
109.030357 380.0
109.045807 160.0
109.067497 376.0
109.118561 156.0
109.141426 156.0
109.291382 172.0
109.397331 216.0
109.576431 156.0
109.628525 164.0
109.673752 388.0
109.849525 64.0
109.910034 128.0
109.945503 116.0
109.976814 176.0
110.024773 160.0
110.077019 332.0
110.207573 144.0
110.230774 208.0
110.302658 104.0
110.334015 84.0
110.381554 144.0
110.409874 100.0
110.449028 212.0
110.660393 148.0
110.725311 160.0
110.766151 112.0
110.811188 40.0
110.859383 148.0
110.900085 152.0
110.978867 180.0
111.194931 164.0
111.2789 188.0
111.298683 180.0
111.404907 136.0
111.419609 192.0
111.436417 92.0
111.470039 168.0
111.5457 192.0
111.600357 112.0
111.660606 156.0
111.747589 136.0
111.772835 108.0
112.036018 44.0
112.166664 32.0
112.208832 116.0
112.280525 112.0
112.297394 44.0
112.362785 344.0
112.478851 192.0
112.540077 252.0
112.572701 204.0
112.592865 144.0
112.62455 56.0
112.709053 172.0
112.744972 144.0
112.80204 176.0
113.008362 136.0
113.0495 120.0
113.187096 120.0
113.231567 56.0
113.261215 152.0
113.295113 148.0
113.309937 136.0
113.479492 124.0
113.555832 168.0
113.589767 176.0
113.672508 160.0
113.812607 168.0
113.960808 176.0
114.005913 156.0
114.03141 236.0
114.19059 184.0
114.216393 164.0
114.235535 88.0
114.63562 176.0
115.023979 88.0
115.054291 2428.0
115.111511 32.0
115.22258 148.0
115.284546 180.0
115.312325 36.0
115.352936 188.0
115.37645 112.0
115.395691 92.0
115.573219 144.0
115.670197 228.0
115.830124 272.0
116.060562 912.0
116.181679 196.0
116.213867 104.0
116.349602 196.0
116.387726 156.0
116.54882 168.0
116.57724 212.0
116.780991 168.0
116.841225 184.0
116.879951 160.0
117.069481 1456.0
117.213707 68.0
117.22879 80.0
117.381844 44.0
117.399094 64.0
117.470268 60.0
117.500473 120.0
117.668808 68.0
117.938118 192.0
117.977745 204.0
118.043709 144.0
118.075851 1120.0
118.122635 48.0
118.138901 208.0
118.207008 100.0
118.404007 124.0
118.577332 56.0
118.64669 60.0
118.833206 128.0
118.859245 160.0
118.880943 220.0
118.911331 232.0
118.948227 92.0
119.0177 144.0
119.048485 8704.0
119.084343 672.0
119.103554 184.0
119.121948 48.0
119.158875 152.0
119.178429 140.0
119.200157 56.0
119.221893 164.0
119.281189 156.0
119.364708 132.0
119.382759 380.0
119.408859 68.0
119.491516 140.0
119.511101 48.0
119.530685 44.0
119.622093 160.0
119.641685 168.0
119.800659 56.0
119.924858 44.0
120.016418 152.0
120.052879 656.0
120.088387 140.0
120.184372 52.0
120.223648 120.0
120.295677 136.0
120.328423 140.0
120.374275 100.0
120.439796 128.0
120.599297 64.0
120.682365 152.0
120.826714 216.0
120.955826 56.0
120.977722 108.0
121.033623 472.0
121.067589 520.0
121.120056 172.0
121.18486 124.0
121.330429 32.0
121.402786 176.0
121.481743 260.0
121.532204 96.0
121.565117 260.0
121.606812 144.0
121.624374 168.0
121.659492 128.0
121.68145 68.0
121.804428 116.0
121.843971 144.0
122.035744 484.0
122.069466 384.0
122.092354 208.0
122.369606 76.0
122.385017 232.0
122.581062 164.0
122.596481 160.0
122.674469 188.0
122.746384 200.0
122.788284 136.0
122.900787 156.0
122.920647 72.0
123.006447 188.0
123.04303 496.0
123.086197 180.0
123.132576 176.0
123.231979 204.0
123.342476 184.0
123.430908 104.0
123.492828 76.0
123.534859 96.0
123.607864 216.0
123.66983 168.0
123.694183 104.0
123.738457 136.0
123.780525 244.0
123.807098 136.0
123.842537 88.0
123.893486 128.0
123.973251 168.0
124.07299 104.0
124.288132 156.0
124.368019 148.0
124.414635 152.0
124.454597 180.0
124.545654 100.0
124.643402 384.0
124.661179 172.0
124.716743 112.0
124.948006 48.0
124.963585 144.0
124.999939 148.0
125.221802 220.0
125.250755 136.0
125.270805 172.0
125.826103 152.0
125.937752 152.0
125.993599 152.0
126.036354 176.0
126.080742 144.0
126.237228 160.0
126.261826 156.0
126.326691 164.0
126.375908 180.0
126.485565 164.0
126.757072 180.0
126.812584 144.0
126.830521 120.0
126.965042 124.0
127.000923 100.0
127.054718 524.0
127.083931 40.0
127.175934 104.0
127.19838 144.0
127.214096 124.0
127.232056 128.0
127.261238 92.0
127.342087 144.0
127.503845 92.0
127.708443 180.0
127.809677 92.0
127.856934 212.0
127.892944 120.0
128.02803 132.0
128.061401 5568.0
128.145157 40.0
128.178955 124.0
128.248825 136.0
128.320953 52.0
128.393112 168.0
128.456268 100.0
128.57811 196.0
128.645813 156.0
128.666138 152.0
128.799377 148.0
128.819702 380.0
128.840027 196.0
128.85585 160.0
128.879349 168.0
128.897583 128.0
128.957535 176.0
128.986923 228.0
129.069611 12628.0
129.098831 176.0
129.159988 112.0
129.21759 96.0
129.232574 40.0
129.251526 220.0
129.326202 144.0
129.369217 64.0
129.403168 48.0
129.429413 88.0
129.455246 80.0
129.4711 192.0
129.486954 52.0
129.59343 160.0
129.622879 204.0
129.654602 176.0
129.785034 120.0
129.813293 124.0
129.845047 208.0
129.936447 208.0
129.999313 140.0
130.02861 132.0
130.073746 2212.0
130.130966 180.0
130.180923 56.0
130.203629 148.0
130.249054 64.0
130.342194 184.0
130.362656 148.0
130.41037 72.0
130.435577 132.0
130.471756 204.0
130.542236 96.0
130.593674 116.0
130.665054 156.0
130.683258 224.0
130.737869 92.0
130.767456 44.0
130.842575 188.0
130.863068 172.0
130.933655 176.0
131.007095 256.0
131.048019 2504.0
131.082901 2308.0
131.223053 160.0
131.305145 68.0
131.34848 32.0
131.378128 180.0
131.451828 132.0
131.478531 56.0
131.592667 80.0
131.72728 156.0
131.747955 108.0
131.990234 104.0
132.015381 188.0
132.054276 496.0
132.088348 180.0
132.11145 72.0
132.136795 204.0
132.264755 168.0
132.406723 208.0
132.431915 60.0
132.525833 56.0
132.709198 192.0
132.773407 88.0
132.796341 136.0
132.828445 184.0
132.917923 152.0
132.939835 88.0
132.9608 176.0
132.98999 96.0
133.028198 13268.0
133.064438 944.0
133.101028 508.0
133.139099 208.0
133.170456 144.0
133.209503 52.0
133.257736 68.0
133.335876 48.0
133.361145 76.0
133.565796 52.0
133.609497 152.0
133.641708 36.0
133.844269 84.0
133.888016 132.0
133.947891 148.0
133.982452 60.0
134.030411 996.0
134.079803 204.0
134.099976 116.0
134.132248 184.0
134.201401 288.0
134.32132 112.0
134.418228 192.0
134.501312 188.0
134.548737 124.0
134.577484 76.0
134.65831 92.0
134.686035 148.0
134.768341 184.0
134.843704 132.0
134.919418 120.0
134.944855 120.0
134.988785 48.0
135.04364 496.0
135.078979 300.0
135.121475 180.0
135.148972 96.0
135.207611 160.0
135.317352 184.0
135.440353 176.0
135.498001 132.0
135.546661 132.0
135.567505 64.0
135.674133 96.0
135.699631 176.0
135.808624 192.0
135.844955 200.0
136.032791 192.0
136.049896 480.0
136.159088 72.0
136.200897 172.0
136.24968 112.0
136.430939 128.0
136.462936 220.0
136.514648 196.0
136.565811 168.0
136.640244 40.0
136.668167 192.0
136.698425 116.0
136.840408 48.0
136.886978 260.0
136.931213 168.0
137.022537 1236.0
137.057022 196.0
137.145569 140.0
137.323395 332.0
137.474411 176.0
137.504761 108.0
137.672836 148.0
137.703201 136.0
137.763931 36.0
137.789627 152.0
137.890106 164.0
137.974258 204.0
138.022247 244.0
138.06311 112.0
138.083588 164.0
138.109894 136.0
138.149658 132.0
138.226868 92.0
138.44223 60.0
138.538254 128.0
138.681198 88.0
138.821869 120.0
138.838272 192.0
138.908646 120.0
138.969635 188.0
139.044113 144.0
139.053482 220.0
139.115143 176.0
139.170502 276.0
139.220795 40.0
139.244293 84.0
139.267776 140.0
139.352341 192.0
139.53801 140.0
139.575638 184.0
139.613266 160.0
139.669708 192.0
139.74263 56.0
139.796753 44.0
139.842651 152.0
139.905029 172.0
139.945053 172.0
140.059799 132.0
140.133469 144.0
140.208359 200.0
140.324371 172.0
140.418701 204.0
140.491821 160.0
140.546082 196.0
140.671173 140.0
140.702835 212.0
140.770325 216.0
140.888428 132.0
141.067444 1272.0
141.136581 124.0
141.261932 140.0
141.368408 60.0
141.529373 176.0
141.735443 364.0
141.811279 148.0
141.861053 32.0
141.927429 136.0
141.967621 160.0
141.995209 144.0
142.040512 176.0
142.075058 1164.0
142.175919 128.0
142.277222 148.0
142.402054 60.0
142.466187 148.0
142.527954 152.0
142.554367 144.0
142.573105 128.0
142.691956 160.0
142.76329 108.0
142.877457 160.0
142.955978 92.0
142.979782 384.0
143.047852 688.0
143.084946 464.0
143.169113 172.0
143.232162 156.0
143.375107 172.0
143.413239 124.0
143.456146 148.0
143.549133 64.0
143.580139 164.0
143.615982 152.0
143.656464 228.0
143.725647 160.0
143.778152 136.0
143.887955 152.0
143.918991 156.0
143.985855 156.0
144.055344 684.0
144.08139 244.0
144.160248 164.0
144.41127 56.0
144.506958 92.0
144.555832 132.0
144.643372 132.0
144.688858 204.0
144.875641 144.0
144.952316 164.0
145.00264 72.0
145.027527 472.0
145.063171 1956.0
145.153671 296.0
145.271194 152.0
145.314377 140.0
145.403168 200.0
145.434357 76.0
145.527985 112.0
145.760971 172.0
145.78981 156.0
145.941498 120.0
146.032501 144.0
146.071823 8120.0
146.135254 176.0
146.164093 112.0
146.203445 104.0
146.241104 68.0
146.427338 100.0
146.470703 160.0
146.536774 116.0
146.552612 184.0
146.617615 160.0
146.653824 124.0
146.702026 312.0
146.831558 200.0
146.8853 168.0
146.939957 220.0
146.984207 132.0
147.015244 172.0
147.042953 9696.0
147.077713 2256.0
147.189392 216.0
147.206284 92.0
147.235611 56.0
147.298065 56.0
147.319809 132.0
147.365707 160.0
147.397125 216.0
147.438202 156.0
147.479294 184.0
147.520386 40.0
147.5784 72.0
147.62677 204.0
147.67514 104.0
147.7211 52.0
147.74585 196.0
147.798508 168.0
147.832306 128.0
147.953415 32.0
148.004257 40.0
148.047607 976.0
148.081696 392.0
148.13504 120.0
148.173798 164.0
148.261032 84.0
148.317261 176.0
148.350708 176.0
148.406464 196.0
148.454971 224.0
148.474365 124.0
148.535004 160.0
148.575623 140.0
148.600494 144.0
148.630371 128.0
148.733978 248.0
148.809235 160.0
149.022995 2088.0
149.05658 272.0
149.095291 712.0
149.21254 68.0
149.230286 132.0
149.302505 172.0
149.351151 144.0
149.465485 140.0
149.492035 184.0
149.645599 160.0
149.689743 188.0
149.954971 112.0
150.025864 532.0
150.064865 584.0
150.091492 112.0
150.230515 52.0
150.33786 188.0
150.393997 28.0
150.41597 160.0
150.43306 44.0
150.535599 108.0
150.618637 212.0
150.679703 144.0
150.740784 56.0
150.884995 72.0
150.982803 112.0
151.037872 712.0
151.070862 116.0
151.095322 144.0
151.119797 160.0
151.136917 76.0
151.161392 60.0
151.185852 236.0
151.222565 124.0
151.380798 240.0
151.484573 192.0
151.581009 44.0
151.626678 156.0
151.947906 184.0
152.041992 144.0
152.060104 116.0
152.077957 168.0
152.097595 124.0
152.16188 152.0
152.188431 84.0
152.225266 140.0
152.249817 196.0
152.559402 60.0
152.679886 140.0
152.884079 224.0
152.992386 160.0
153.039154 144.0
153.066238 320.0
153.315048 160.0
153.347076 60.0
153.556656 216.0
153.615189 300.0
153.778702 144.0
154.005859 144.0
154.087372 140.0
154.149139 204.0
154.485397 88.0
154.517548 60.0
154.547241 152.0
154.844299 192.0
154.948334 132.0
155.057953 700.0
155.228424 40.0
155.245773 56.0
155.446716 64.0
155.580734 172.0
156.053787 1180.0
156.241791 132.0
156.316437 72.0
156.498138 236.0
156.552933 164.0
156.640106 32.0
156.687439 72.0
156.714844 160.0
156.836945 196.0
156.876831 64.0
156.894287 220.0
156.931686 212.0
156.967453 244.0
157.063934 8544.0
157.10376 132.0
157.148163 176.0
157.208557 104.0
157.253372 184.0
157.277451 224.0
157.333359 176.0
157.35083 164.0
157.573105 160.0
157.690552 152.0
157.720551 160.0
157.745544 144.0
157.819244 136.0
157.890564 56.0
157.943085 84.0
157.990616 192.0
158.010635 144.0
158.072052 8384.0
158.128235 88.0
158.210846 84.0
158.26091 108.0
158.290283 164.0
158.338547 148.0
158.361084 216.0
158.399094 228.0
158.473816 172.0
158.559006 124.0
158.729477 28.0
158.847351 64.0
159.043259 2328.0
159.078644 1144.0
159.142227 52.0
159.231384 60.0
159.253983 48.0
159.289154 40.0
159.340958 224.0
159.376572 60.0
159.412262 148.0
159.4776 92.0
159.522842 76.0
159.669632 164.0
159.721497 152.0
159.905167 124.0
160.015076 776.0
160.049545 2024.0
160.08107 232.0
160.119171 192.0
160.139313 28.0
160.206024 208.0
160.345917 112.0
160.446747 56.0
160.532471 72.0
160.901962 156.0
160.923584 132.0
161.021713 564.0
161.057785 1204.0
161.095016 7416.0
161.145844 164.0
161.17363 184.0
161.198898 260.0
161.235611 68.0
161.264603 132.0
161.287354 48.0
161.327805 68.0
161.384079 184.0
161.43399 92.0
161.474457 40.0
161.492157 52.0
161.647003 184.0
161.745178 76.0
161.795807 44.0
161.897095 156.0
161.92749 228.0
161.978149 124.0
162.028809 136.0
162.057068 104.0
162.09787 656.0
162.160568 104.0
162.201126 124.0
162.229019 104.0
162.282257 36.0
162.439484 72.0
162.511337 124.0
162.532425 108.0
162.566345 156.0
162.604416 44.0
162.637405 56.0
162.679337 256.0
162.710037 108.0
162.76181 128.0
162.820206 208.0
162.881165 116.0
162.986603 192.0
163.037888 30360.0
163.072906 260.0
163.107956 156.0
163.129303 88.0
163.155624 40.0
163.196411 84.0
163.232971 140.0
163.250748 96.0
163.277664 132.0
163.305649 68.0
163.331757 156.0
163.351425 68.0
163.383286 100.0
163.42366 100.0
163.47876 92.0
163.509186 84.0
163.588089 44.0
163.633911 56.0
163.721985 116.0
163.791794 144.0
163.832993 116.0
163.980347 68.0
164.041443 3384.0
164.174103 96.0
164.232758 92.0
164.276123 88.0
164.510895 88.0
164.636017 48.0
164.685852 116.0
164.733063 184.0
164.781601 164.0
164.829849 100.0
164.929825 92.0
164.957947 132.0
164.978394 48.0
165.044205 632.0
165.067245 176.0
165.178223 192.0
165.208557 160.0
165.252045 100.0
165.295547 208.0
165.37999 116.0
165.408142 132.0
165.428635 68.0
165.490067 88.0
165.538727 144.0
165.610428 52.0
165.628357 80.0
165.697525 168.0
165.720581 164.0
165.807709 76.0
165.853851 40.0
165.882034 204.0
165.989716 176.0
166.043579 120.0
166.08989 208.0
166.117966 180.0
166.179535 112.0
166.356613 76.0
166.5569 48.0
166.615982 52.0
166.869095 184.0
166.947556 124.0
167.034378 136.0
167.089035 256.0
167.413345 44.0
167.59108 156.0
167.676132 136.0
167.756027 116.0
167.835953 136.0
168.078415 80.0
168.377869 248.0
168.437271 140.0
168.531235 156.0
168.664322 212.0
168.801682 92.0
168.843063 72.0
168.899963 52.0
168.933578 48.0
168.956863 232.0
169.072037 524.0
169.635361 116.0
169.702759 52.0
169.739059 176.0
169.993271 68.0
170.030884 128.0
170.071777 160.0
170.258072 156.0
170.278839 160.0
170.468491 80.0
170.637436 200.0
170.741455 196.0
170.80127 172.0
170.840286 56.0
170.907928 140.0
171.042053 1960.0
171.078323 2616.0
171.176041 72.0
171.212494 68.0
171.230728 188.0
171.261169 128.0
171.333817 104.0
171.463608 124.0
171.566864 156.0
171.598145 116.0
171.809402 224.0
171.939865 176.0
172.046722 596.0
172.085358 960.0
172.125214 204.0
172.234894 156.0
172.302811 152.0
172.334167 240.0
172.553711 72.0
172.663528 144.0
172.946106 52.0
173.020706 916.0
173.057434 988.0
173.0952 232.0
173.236755 32.0
173.325836 324.0
173.422806 208.0
173.49881 180.0
173.560776 120.0
173.681732 180.0
173.778397 220.0
173.796234 220.0
173.855545 152.0
173.976273 140.0
174.029831 576.0
174.066422 8932.0
174.157455 32.0
174.215256 28.0
174.367645 36.0
174.441254 220.0
174.577484 144.0
174.638458 56.0
174.704224 160.0
174.877884 216.0
174.904205 152.0
174.988831 216.0
175.037964 4400.0
175.07373 2928.0
175.143814 144.0
175.183472 72.0
175.249191 80.0
175.315063 44.0
175.362503 80.0
175.396774 96.0
175.505692 164.0
175.541779 152.0
175.641998 160.0
175.668381 72.0
175.747528 64.0
175.78447 140.0
175.847809 40.0
175.961365 196.0
175.992371 152.0
176.001099 116.0
176.006927 160.0
176.041672 668.0
176.075272 676.0
176.191071 224.0
176.233353 132.0
176.426285 96.0
176.500305 192.0
176.539978 64.0
176.632538 104.0
176.778061 136.0
176.97493 148.0
177.008362 56.0
177.053726 5804.0
177.090027 124.0
177.204361 68.0
177.291809 80.0
177.440247 88.0
177.503143 136.0
177.527084 192.0
177.709183 100.0
177.984161 160.0
178.008057 60.0
178.05629 656.0
178.138199 112.0
178.17804 68.0
178.249786 100.0
178.550171 192.0
178.592728 196.0
178.84816 76.0
178.869461 176.0
179.02594 192.0
179.069153 344.0
179.199677 172.0
179.221344 184.0
179.324921 180.0
179.418228 92.0
179.818344 192.0
180.005219 96.0
180.368561 152.0
180.432709 76.0
180.478165 128.0
180.504898 212.0
180.700165 32.0
180.936951 160.0
180.989227 148.0
181.047684 1232.0
181.104385 140.0
181.187424 56.0
181.222244 68.0
181.281204 104.0
181.423248 136.0
181.527817 116.0
181.613647 108.0
182.046417 304.0
182.300934 208.0
182.335876 112.0
182.748962 188.0
182.981445 164.0
183.035294 32.0
183.064926 104.0
183.220245 60.0
183.242691 104.0
183.439423 140.0
183.625473 40.0
183.690262 196.0
183.819702 136.0
183.865585 136.0
183.954651 144.0
184.022156 160.0
184.049576 432.0
184.076157 176.0
184.127457 296.0
184.338181 60.0
184.567932 156.0
184.735626 160.0
184.833023 168.0
184.857376 96.0
184.897964 92.0
184.954193 160.0
184.984573 152.0
185.019775 128.0
185.058853 19996.0
185.12027 136.0
185.233704 44.0
185.257111 144.0
185.282471 164.0
185.333954 172.0
185.43692 120.0
185.501221 52.0
185.545349 128.0
185.594147 164.0
185.626694 152.0
185.678223 220.0
185.71077 84.0
185.747726 88.0
185.849792 64.0
185.895248 64.0
185.982086 116.0
186.064056 2912.0
186.125977 80.0
186.215591 32.0
186.242752 76.0
186.430222 84.0
186.495438 32.0
186.523819 136.0
186.614288 100.0
186.661285 40.0
186.691193 160.0
186.751022 44.0
186.770065 164.0
186.808151 176.0
186.911194 96.0
186.921326 160.0
186.952347 144.0
186.989059 172.0
187.038788 8724.0
187.074097 2448.0
187.145615 204.0
187.218475 172.0
187.240921 120.0
187.292679 44.0
187.338531 248.0
187.37439 88.0
187.437057 92.0
187.473923 84.0
187.529724 124.0
187.58696 92.0
187.606049 92.0
187.678253 68.0
187.717834 136.0
187.747833 76.0
188.042526 1044.0
188.073914 192.0
188.119873 124.0
188.15712 120.0
188.178955 48.0
188.274536 60.0
188.424759 92.0
188.752747 100.0
188.777359 124.0
188.875824 152.0
188.903168 112.0
188.95079 208.0
189.053223 3260.0
189.090302 3256.0
189.135757 68.0
189.157669 88.0
189.275391 52.0
189.315918 100.0
189.356598 100.0
189.406845 44.0
189.741165 44.0
189.905701 140.0
189.963303 188.0
189.987396 144.0
190.058212 580.0
190.093979 360.0
190.32283 36.0
190.523315 92.0
190.54805 36.0
190.613983 96.0
190.690933 116.0
190.726669 104.0
191.03421 432.0
191.057785 260.0
191.092346 164.0
191.121399 60.0
191.141937 112.0
191.265793 36.0
191.532516 92.0
191.731247 152.0
191.756058 132.0
191.775345 32.0
191.802917 68.0
192.049149 184.0
192.070374 236.0
192.169693 208.0
192.31871 236.0
192.376678 208.0
192.448456 64.0
192.498154 204.0
192.766113 164.0
192.909836 120.0
193.056015 220.0
193.092621 144.0
193.327469 124.0
193.424347 136.0
193.634003 216.0
193.891449 148.0
193.970032 76.0
194.070084 148.0
194.103104 136.0
194.128067 76.0
194.197403 88.0
194.477631 188.0
194.583115 192.0
194.713623 88.0
194.796951 172.0
195.019241 148.0
195.080643 200.0
195.1082 236.0
195.174927 160.0
195.366837 96.0
195.44751 72.0
195.519867 124.0
195.633987 172.0
195.711945 216.0
195.803833 32.0
196.062927 144.0
196.099152 108.0
196.464447 148.0
196.514664 60.0
196.623489 184.0
196.710007 220.0
196.793762 188.0
197.017197 136.0
197.058609 248.0
197.089828 252.0
197.464432 128.0
197.514771 136.0
197.590302 56.0
197.654663 164.0
198.063568 192.0
198.133438 252.0
198.273529 160.0
198.808456 172.0
198.938293 200.0
199.028137 84.0
199.07402 4612.0
199.219116 76.0
199.306198 72.0
199.412994 64.0
199.719467 64.0
199.744781 208.0
200.040497 160.0
200.077148 1088.0
200.099808 192.0
200.189468 76.0
201.05159 288.0
201.086853 152.0
201.097305 276.0
201.30899 80.0
201.455856 60.0
202.007095 112.0
202.061951 3888.0
202.100983 216.0
202.431641 72.0
202.476959 180.0
202.757431 152.0
202.80278 184.0
202.879303 64.0
203.006897 196.0
203.065643 580.0
203.113388 132.0
203.20546 52.0
203.903992 64.0
204.062729 124.0
204.080582 328.0
204.447189 140.0
204.669998 132.0
204.83725 192.0
204.911316 48.0
205.051712 196.0
205.701263 160.0
205.781204 100.0
206.055328 1088.0
206.086807 156.0
206.833221 144.0
207.056671 180.0
207.076599 228.0
207.173981 148.0
207.282867 156.0
207.583847 120.0
207.778885 72.0
207.913742 188.0
207.953934 36.0
208.163498 116.0
208.353073 68.0
208.666336 144.0
208.743958 156.0
208.827362 36.0
209.028748 112.0
209.189911 104.0
209.423157 172.0
209.846756 188.0
209.990952 128.0
210.03421 132.0
210.15538 180.0
210.322754 112.0
210.625946 164.0
210.666382 232.0
210.756638 212.0
210.839737 44.0
211.075745 232.0
211.097031 124.0
211.664185 144.0
211.748169 124.0
212.078461 144.0
212.113251 248.0
212.443832 44.0
212.554077 108.0
213.024414 112.0
213.070892 164.0
213.271408 216.0
213.393494 164.0
213.594162 264.0
213.623245 64.0
213.806549 192.0
213.82692 44.0
213.96373 212.0
214.059814 112.0
214.321976 72.0
214.391907 148.0
214.595947 216.0
214.805923 128.0
214.992661 128.0
215.071915 448.0
215.109879 172.0
215.154266 152.0
215.188232 60.0
215.547501 148.0
215.632248 40.0
215.687775 196.0
215.714081 128.0
215.772552 172.0
215.871964 132.0
215.93045 36.0
215.971405 108.0
216.002075 172.0
216.066086 76.0
216.104568 192.0
216.145325 132.0
216.284485 84.0
216.416214 184.0
216.43721 188.0
216.483963 88.0
216.519089 220.0
216.559708 72.0
216.60733 204.0
216.619873 52.0
216.626236 180.0
216.650513 128.0
216.685669 96.0
216.720078 216.0
216.767715 152.0
216.824142 188.0
216.855637 208.0
216.895432 160.0
216.925888 128.0
216.981781 192.0
217.023849 192.0
217.08551 99128.0
217.168808 212.0
217.214035 72.0
217.253021 100.0
217.28244 120.0
217.303314 40.0
217.31604 36.0
217.348312 128.0
217.376282 120.0
217.418869 84.0
217.439011 128.0
217.468979 100.0
217.480148 52.0
217.489868 136.0
217.521774 116.0
217.565765 256.0
217.623718 108.0
217.667038 96.0
217.701584 196.0
217.714828 84.0
217.756363 56.0
217.800903 160.0
217.814178 64.0
217.818787 116.0
217.850494 124.0
217.881683 132.0
217.916336 96.0
217.956985 108.0
218.003632 332.0
218.043961 72.0
218.08786 12480.0
218.138336 152.0
218.166901 144.0
218.220657 100.0
218.250061 28.0
218.280991 92.0
218.306198 44.0
218.383209 100.0
218.432388 40.0
218.479462 76.0
218.54007 40.0
218.594208 44.0
218.682495 132.0
218.718796 60.0
218.768463 72.0
218.806137 44.0
218.87532 136.0
218.935364 72.0
218.945999 64.0
219.092072 1256.0
219.127823 212.0
219.162262 48.0
219.172958 44.0
219.194748 136.0
219.227341 96.0
219.260986 96.0
219.285019 128.0
219.347443 144.0
219.37175 276.0
219.393707 108.0
219.437897 128.0
219.532166 128.0
219.565872 132.0
219.59993 52.0
219.651596 120.0
219.693787 84.0
219.737442 76.0
219.833633 160.0
219.970764 64.0
220.023712 56.0
220.068314 192.0
220.090683 176.0
220.151398 100.0
220.194977 52.0
220.259964 76.0
220.28064 44.0
220.386993 28.0
220.451996 68.0
220.475647 120.0
220.567261 64.0
220.702377 160.0
220.747879 136.0
220.794937 100.0
220.904373 84.0
221.093735 140.0
221.324631 104.0
221.50824 80.0
221.822342 88.0
222.10997 144.0
222.519501 104.0
223.083954 260.0
223.223694 88.0
223.402145 88.0
223.443802 44.0
223.768204 152.0
224.003464 84.0
224.03508 248.0
224.080933 120.0
224.125626 172.0
224.235886 28.0
224.256744 52.0
224.569809 68.0
224.65332 52.0
225.084763 136.0
225.139847 76.0
225.420654 64.0
225.674713 48.0
225.899017 72.0
226.06308 192.0
226.072403 160.0
226.47673 48.0
226.96521 88.0
227.080338 184.0
227.260727 84.0
227.388199 120.0
227.496246 156.0
227.649384 48.0
227.691422 48.0
227.931747 56.0
228.199249 116.0
228.364639 96.0
228.761826 76.0
229.102127 160.0
229.415527 80.0
229.723129 88.0
229.843811 28.0
230.112442 136.0
230.257385 96.0
230.695511 56.0
230.816437 112.0
231.076553 228.0
231.600266 72.0
231.621475 112.0
232.133667 152.0
232.488586 72.0
232.852905 92.0
233.08754 168.0
233.84404 84.0
233.956665 48.0
234.058609 208.0
234.115005 188.0
234.31604 32.0
234.551956 48.0
235.101059 724.0
235.835709 132.0
236.067749 116.0
236.079468 104.0
236.087814 192.0
237.056824 104.0
237.102798 64.0
237.207001 116.0
238.382492 44.0
239.088074 156.0
239.200592 84.0
240.050934 116.0
240.103363 160.0
241.078903 164.0
242.08429 112.0
242.276321 64.0
243.073151 108.0
243.094864 300.0
243.349396 44.0
243.998734 88.0
244.093658 140.0
244.331497 108.0
244.98526 184.0
245.095444 404.0
245.627411 52.0
246.073669 128.0
246.101776 180.0
247.075073 180.0
247.105057 156.0
248.078506 356.0
249.04863 120.0
249.124023 160.0
250.06105 180.0
250.917847 56.0
251.078445 116.0
251.16066 52.0
251.29631 88.0
251.965637 64.0
252.085709 88.0
253.053604 164.0
253.082108 48.0
255.076309 196.0
256.24234 116.0
257.061798 148.0
257.234161 128.0
257.872986 100.0
258.104065 180.0
259.117767 212.0
261.086945 336.0
262.103149 280.0
263.102478 160.0
263.322052 128.0
264.068634 148.0
264.120392 124.0
265.084625 404.0
265.295837 80.0
265.613647 76.0
266.093933 176.0
266.824921 72.0
266.867188 60.0
267.070282 136.0
267.166412 96.0
267.801575 148.0
270.102386 128.0
271.085876 200.0
272.092255 176.0
273.096985 192.0
273.732147 40.0
274.04834 152.0
274.588959 40.0
274.763794 92.0
274.849579 52.0
275.062683 148.0
275.098663 160.0
275.124481 152.0
276.111481 204.0
277.084656 132.0
277.135254 164.0
278.125916 112.0
278.252075 68.0
278.461273 80.0
279.006226 72.0
279.071503 256.0
279.103546 328.0
279.159149 64.0
279.182434 40.0
279.222351 84.0
279.298859 56.0
279.698151 40.0
281.064545 168.0
281.101227 172.0
282.036346 96.0
283.103638 188.0
283.344788 56.0
285.13327 128.0
286.085175 144.0
286.920654 112.0
287.08847 176.0
287.112152 168.0
287.413086 48.0
288.061279 108.0
288.125488 128.0
288.930084 100.0
289.085846 284.0
289.427612 100.0
290.020477 92.0
290.087036 140.0
290.488403 76.0
290.742889 76.0
291.10202 292.0
291.140076 148.0
293.090027 172.0
293.566467 52.0
294.723633 72.0
295.024414 76.0
295.097046 520.0
295.134399 676.0
295.195343 156.0
295.421082 88.0
295.499786 64.0
295.602417 48.0
295.711945 64.0
296.122772 168.0
296.431122 40.0
296.770447 28.0
297.103119 100.0
297.600769 128.0
301.016541 192.0
301.06488 80.0
301.117126 128.0
303.046936 168.0
303.102386 220.0
303.286072 64.0
304.107422 212.0
304.281647 112.0
305.108093 160.0
305.130737 212.0
306.121002 236.0
307.095886 312.0
308.095154 120.0
308.654358 84.0
309.081116 108.0
310.047607 100.0
310.885773 80.0
311.13147 76.0
313.097015 140.0
316.703033 88.0
318.242126 100.0
319.130676 324.0
321.10318 156.0
322.120422 144.0
324.988068 204.0
325.160309 44.0
326.015015 116.0
326.690979 36.0
330.584106 20.0
332.599182 56.0
337.13739 520.0
337.319977 36.0
337.594208 48.0
338.152649 368.0
338.959625 68.0
340.540771 68.0
343.219849 64.0
343.883881 60.0
346.420441 124.0
349.036987 64.0
356.22641 184.0
362.119598 76.0
365.026581 80.0
367.65509 160.0
372.809723 80.0
373.774902 68.0
374.267609 112.0
375.003387 116.0
382.222046 64.0
383.386383 36.0
389.273895 112.0
389.812042 92.0
390.051788 116.0
399.829193 72.0
400.780914 44.0
402.839539 40.0
403.399017 104.0
411.146973 60.0
414.860077 48.0
422.336334 76.0
424.498749 80.0
445.976593 68.0
449.088104 64.0
450.709198 60.0
452.989563 72.0
454.17218 116.0
454.414001 96.0
456.848328 88.0
457.065308 112.0
464.66214 44.0
464.799438 164.0
490.033142 84.0
492.499115 68.0
495.059845 164.0
500.944855 68.0
501.216614 60.0
509.790375 112.0
510.08252 88.0
512.620911 52.0
540.533081 80.0
544.115906 100.0
557.861267 92.0
564.862915 92.0
564.981201 84.0
567.533936 112.0
591.76001 72.0
593.528564 112.0
594.251221 92.0
600.575317 88.0
600.780212 60.0
613.31897 48.0
615.524231 48.0
618.599426 52.0
619.926758 76.0
625.514221 84.0
629.662598 40.0
641.287476 44.0
659.483765 136.0
667.167664 80.0
667.327026 120.0
675.418335 80.0
677.178162 112.0
696.498108 120.0
701.49176 76.0
701.591919 52.0
719.198181 80.0
730.074219 88.0
747.732727 144.0
751.214478 72.0
752.824524 56.0
754.359863 76.0
756.175781 108.0
770.152283 224.0
774.909729 108.0
776.373108 228.0
783.097839 56.0
787.464905 148.0
790.595703 196.0
800.965698 88.0
818.716187 96.0
818.898438 64.0
821.640259 72.0
822.36499 60.0
836.833923 208.0
850.722534 76.0
855.94751 76.0
863.721191 116.0
870.748779 220.0
872.05304 44.0
874.240845 184.0
876.619934 156.0
886.393738 236.0
889.258118 204.0
889.958618 184.0
894.756592 176.0
903.43988 96.0
907.920166 40.0
915.46814 208.0
917.37207 112.0
921.638977 132.0
929.52887 236.0
930.736816 200.0
930.997925 176.0
940.990112 52.0
941.918335 116.0
944.736389 176.0
953.529236 212.0
954.258423 32.0
961.15918 204.0
961.89978 248.0
961.998596 40.0
965.384399 124.0
967.500488 64.0
968.11969 176.0
968.466492 72.0
969.792419 56.0
969.941162 148.0
972.192566 160.0
972.819458 128.0
973.788086 120.0
975.509277 192.0
981.479797 176.0
983.594727 144.0
983.757019 124.0
984.094177 136.0
988.42572 204.0
992.980042 68.0
993.845764 240.0
994.002625 88.0
997.865479 68.0
998.16095 112.0
999.299438 132.0
999.991638 160.0
1000.281189 148.0
1001.534241 172.0
1005.323303 204.0
1008.449524 144.0
1012.409973 108.0
1013.442444 108.0
1027.863525 52.0
1029.861694 116.0
1029.965942 44.0
1032.207153 184.0
1035.394043 124.0
1038.079102 184.0
1047.043945 168.0
1047.977295 184.0
1048.145508 148.0
1050.94397 112.0
1054.321167 196.0
1055.51709 168.0
1060.573242 140.0
1062.025635 192.0
1062.259155 56.0
1066.070312 196.0
1067.298828 140.0
1068.794922 256.0
1069.126709 116.0
1071.275391 176.0
1073.413208 180.0
1073.915283 84.0
1077.093994 236.0
1080.028931 80.0
1081.612427 96.0
1082.65332 116.0
1082.777832 136.0
1084.487793 124.0
1086.750244 184.0
1087.170166 76.0
1088.962524 160.0
1089.363159 184.0
1091.150635 208.0
1091.4729 180.0
1092.604126 204.0
1094.381104 60.0
1094.980347 136.0
1095.210938 72.0
1096.390259 172.0
1097.082275 216.0
1098.262695 108.0
1100.334717 192.0
1103.4729 240.0
1107.403687 176.0
1108.523315 148.0
1108.695557 176.0
1110.04126 176.0
1112.104492 208.0
1112.217407 120.0
1113.963745 176.0
1114.847412 212.0
1115.119873 144.0
1118.252441 172.0
1119.82373 184.0
1121.2229 220.0
1121.382812 248.0
1121.556152 36.0
1126.654297 184.0
1130.217773 184.0
1131.208374 132.0
1131.482788 208.0
1133.291138 72.0
1134.209229 68.0
1134.812622 216.0
1138.825562 168.0
1139.967651 204.0
1140.760742 136.0
1141.224609 60.0
1145.093994 68.0
1146.225708 216.0
1149.428711 196.0
1149.833618 256.0
1151.156738 76.0
1152.115845 148.0
1156.66687 172.0
1157.208496 84.0
1163.601929 112.0
1167.311768 168.0
1168.495239 212.0
1168.672119 148.0
1170.196777 208.0
1171.05481 140.0
1171.681396 144.0
1171.913086 88.0
1173.408936 176.0
1176.851196 56.0
1177.062866 196.0
1178.176147 204.0
1179.508667 180.0
1179.782104 124.0
1180.076172 88.0
1180.787231 200.0
1181.991333 120.0
1182.545654 160.0
1183.278076 152.0
1184.277832 44.0
1184.908081 220.0
1186.347168 176.0
1186.655762 212.0
1188.768311 52.0
1190.477661 136.0
1197.52002 72.0
1198.546509 144.0
1200.152466 216.0
1201.02832 76.0
1201.469849 124.0
1201.738892 112.0
1203.574829 160.0
1203.623169 104.0
1205.149658 104.0
1205.281006 156.0
1207.583008 104.0
1207.915039 160.0
1208.530762 76.0
1211.147583 48.0
1214.169434 104.0
1214.717285 148.0
1215.098877 176.0
1217.52832 196.0
1218.945435 120.0
1221.420532 188.0
1221.844849 76.0
1223.027832 180.0
1224.239258 104.0
1224.483032 144.0
1224.558105 268.0
1225.883301 136.0
1226.266602 164.0
1227.284302 52.0
1228.274658 248.0
1228.623413 208.0
1228.755981 108.0
1230.486816 216.0
1231.63208 168.0
1232.156006 48.0
1232.735962 196.0
1233.903198 192.0
1234.147949 232.0
1235.35083 184.0
1240.813232 116.0
1241.353149 108.0
1241.598633 192.0
1242.187744 96.0
1243.450806 204.0
1244.812744 216.0
1245.13855 204.0
1247.222412 168.0
1247.79187 156.0
1249.374268 200.0
1251.56311 152.0
1252.027832 140.0
1252.591309 156.0
1252.774414 144.0
1254.92395 60.0
1256.503784 164.0
1256.609619 160.0
1257.265869 124.0
1257.386353 160.0
1257.498779 128.0
1258.903687 156.0
1262.833008 140.0
1263.822876 236.0
1264.87793 232.0
1266.761475 164.0
1267.037842 120.0
1268.561401 52.0
1268.731567 72.0
1269.206543 52.0
1269.773926 136.0
1270.1427 228.0
1270.320068 148.0
1273.17334 136.0
1275.510864 112.0
1276.6698 204.0
1277.324097 148.0
1277.985718 196.0
1278.035522 180.0
1279.579956 52.0
1280.158569 300.0
1281.431763 156.0
1283.213501 164.0
1284.348145 168.0
1285.032227 164.0
1285.160645 144.0
1285.524536 176.0
1285.670044 156.0
1286.580933 200.0
1287.02356 176.0
1287.187744 136.0
1288.001953 116.0
1288.159058 52.0
1288.251953 204.0
1288.359131 164.0
1288.430542 140.0
1288.637817 140.0
1288.916382 172.0
1289.309448 124.0
1291.032349 168.0
1292.878052 140.0
1295.104614 64.0
1295.362549 192.0
1297.186035 236.0
1297.698853 148.0
1300.317139 76.0
1301.042114 124.0
1301.142578 108.0
1301.587769 192.0
1302.219727 76.0
1303.052979 60.0
1303.699585 224.0
1303.843384 180.0
1303.965576 156.0
1304.598145 136.0
1307.237671 160.0
1307.676758 128.0
1309.332642 116.0
1310.88147 172.0
1312.784546 220.0
1314.869385 132.0
1315.280884 140.0
1315.959473 176.0
1317.418335 164.0
1319.824951 160.0
1320.439697 156.0
1321.720093 164.0
1321.826538 184.0
1322.139771 176.0
1323.587646 180.0
1323.855469 116.0
1324.862305 204.0
1325.050659 176.0
1326.717529 248.0
1326.913208 176.0
1327.91394 140.0
1328.636719 188.0
1329.480957 128.0
1330.032593 76.0
1331.412109 200.0
1331.535522 168.0
1332.312744 124.0
1332.644043 160.0
1333.918701 184.0
1334.602173 120.0
1334.900269 152.0
1335.511108 212.0
1337.351929 120.0
1337.453857 228.0
1338.529419 120.0
1339.041138 96.0
1341.810181 120.0
1342.969604 216.0
1343.779297 144.0
1344.275513 176.0
1344.501709 144.0
1345.319214 112.0
1346.392578 160.0
1346.589722 96.0
1347.027954 132.0
1347.495483 204.0
1347.897339 88.0
1349.015625 108.0
1349.147217 216.0
1349.33728 136.0
1349.870972 156.0
1350.053833 156.0
1350.858398 164.0
1354.459839 160.0
1355.441528 160.0
1356.123047 156.0
1359.069946 124.0
1359.239868 144.0
1359.760864 176.0
1360.091187 152.0
1360.208618 152.0
1361.038208 152.0
1361.318359 212.0
1361.912109 208.0
1362.99939 92.0
1363.660767 176.0
1363.969482 160.0
1364.837036 248.0
1365.337036 56.0
1365.94751 48.0
1367.595703 156.0
1368.221436 132.0
1369.443848 176.0
1369.605835 48.0
1372.354614 128.0
1372.487305 148.0
1373.047729 244.0
1373.999268 280.0
1374.198486 48.0
1376.102661 136.0
1376.287354 196.0
1376.405396 164.0
1376.759888 188.0
1378.658447 144.0
1378.976318 180.0
1379.538086 180.0
1381.357178 200.0
1382.215332 192.0
1382.311523 116.0
1382.480103 156.0
1383.658691 156.0
1384.450928 300.0
1384.717529 196.0
1384.776855 104.0
1385.361938 200.0
1386.162109 208.0
1386.311035 136.0
1387.014404 124.0
1388.423218 192.0
1389.187134 96.0
1390.37561 208.0
1390.789917 208.0
1391.34668 124.0
1391.821777 136.0
1392.133667 224.0
1393.990845 192.0
1394.429321 180.0
1394.570557 108.0
1395.135498 176.0
1395.797119 160.0
1395.990356 148.0
1397.507935 192.0
1400.634644 152.0
1400.850586 200.0
1402.59436 60.0
1402.750854 168.0
1403.384521 36.0
1403.608276 88.0
1404.622559 196.0
1405.6521 112.0
1405.920776 168.0
1407.144897 52.0
1407.675049 96.0
1408.459229 212.0
1408.698242 208.0
1409.251099 144.0
1409.490234 220.0
1409.811035 192.0
1409.908691 172.0
1410.207642 132.0
1410.678467 140.0
1411.748047 176.0
1412.7948 164.0
1412.914551 140.0
1413.370972 172.0
1413.602905 128.0
1413.677734 112.0
1414.179199 92.0
1414.370117 228.0
1415.339478 108.0
1415.638672 160.0
1416.118286 104.0
1416.300415 184.0
1416.462891 108.0
1416.6427 120.0
1417.002197 84.0
1418.366089 152.0
1419.408203 196.0
1420.090698 224.0
1420.263184 124.0
1420.398193 132.0
1420.488159 104.0
1421.531128 140.0
1422.476807 68.0
1423.527832 244.0
1424.736084 132.0
1426.232544 128.0
1426.630859 48.0
1427.059448 80.0
1427.495483 160.0
1427.856567 168.0
1427.90918 232.0
1428.736572 128.0
1430.241577 160.0
1431.062134 180.0
1431.973267 180.0
1432.155396 260.0
1432.749146 36.0
1433.0354 180.0
1433.284058 200.0
1433.34436 100.0
1434.015137 120.0
1434.384399 132.0
1435.100586 124.0
1436.503418 140.0
1436.67688 80.0
1436.835327 92.0
1437.476685 164.0
1438.103516 256.0
1438.608765 172.0
1439.41748 172.0
1439.620483 52.0
1439.786621 184.0
1440.247314 108.0
1440.557007 208.0
1440.723267 184.0
1441.637451 232.0
1442.227051 156.0
1442.3479 192.0
1442.778809 184.0
1443.530762 160.0
1443.678589 172.0
1443.882812 156.0
1444.51062 144.0
1444.616455 144.0
1444.888794 68.0
1445.320068 140.0
1447.36377 228.0
1447.772705 176.0
1448.09082 112.0
1448.855835 176.0
1449.08313 32.0
1449.340698 232.0
1449.499878 172.0
1450.621582 184.0
1450.939941 236.0
1451.69812 208.0
1453.662842 180.0
1455.826416 144.0
1456.335205 168.0
1456.540283 104.0
1456.844116 172.0
1457.269653 132.0
1457.497559 160.0
1458.417114 132.0
1458.584351 188.0
1458.903564 188.0
1459.002441 108.0
1459.450928 176.0
1459.755127 132.0
1459.983276 212.0
1461.299194 172.0
1461.481812 124.0
1463.034424 124.0
1463.50647 80.0
1464.047119 132.0
1464.184204 180.0
1465.067749 176.0
1465.700073 156.0
1466.146606 168.0
1466.96521 88.0
1467.232056 124.0
1467.750488 56.0
1467.994507 136.0
1468.536011 220.0
1468.810669 148.0
1469.329346 164.0
1470.649536 136.0
1470.711426 180.0
1470.909058 200.0
1471.107544 228.0
1472.558228 172.0
1472.886719 256.0
1473.20752 216.0
1473.37561 168.0
1473.795776 116.0
1474.025024 172.0
1474.720459 40.0
1475.507812 48.0
1476.471313 228.0
1476.585938 44.0
1477.259155 84.0
1483.469482 208.0
1484.542969 160.0
1484.934082 160.0
1485.225464 148.0
1485.900635 44.0
1485.954346 76.0
1486.443604 228.0
1486.653931 160.0
1487.043945 236.0
1487.374023 176.0
1488.064941 136.0
1488.69458 256.0
1488.937012 212.0
1489.30896 188.0
1489.785156 96.0
1489.931152 160.0
1489.984985 152.0
1490.484375 76.0
1491.060669 128.0
1492.367432 136.0
1492.578613 112.0
1492.951904 116.0
1494.359497 144.0
1495.375244 188.0
1498.894653 204.0
1499.588257 168.0
1499.858032 200.0
1500.829346 28.0
1500.983643 192.0
1503.30542 148.0
1503.845703 140.0
1504.185303 104.0
