>compound Imatinib
>formula C29H31N7O 
>ionization [M+H]+
>parentmass 494.267059
#inchi InChI=1S/C29H31N7O/c1-21-5-10-25(18-27(21)34-29-31-13-11-26(33-29)24-4-3-12-30-19-24)32-28(37)23-8-6-22(7-9-23)20-36-16-14-35(2)15-17-36/h3-13,18-19H,14-17,20H2,1-2H3,(H,32,37)(H,31,33,34)
#inchikey KTUFNOKKBVMGRW
#Ion_Source LC-ESI
#Instrument qTof
#Compound_Source Isolated
#PI Sirenas
#Data_Collector Ed Esquenazi 
#Scan -1
#Precursor_MZ 494.268
#ExactMass 0.0
#Charge 1
#CAS_Number N/A
#Pubmed_ID N/A
#Smiles N/A
#INCHI_AUX N/A
#Library_Class 3
#SpectrumID CCMSLIB00000004885
#IonMode Positive
#UpdateWorkflowName UPDATE-SINGLE-ANNOTATED-BRONZE
#LibraryQualityString Bronze
#TaskID d19310cd93df49b68e9fcbec27720eb5
##Scan# 3
#SpectrumFile Imatinib.mgf
#LibraryName fda_library.mgf
#MQScore -1
#Organism fda_library
#TIC_Query 0
#RT_Query -1
#MZErrorPPM -1
#SharedPeaks 0
#MassDiff 0
#LibMZ -1
#SpecMZ 494.268
#SpecCharge 0
#internalFilename spec-00000.mgf

>collision 10
100.09877 2460.650879
100.140739 13.04445
100.149597 6.818182
100.15815 2.367424
100.227745 3.802778
100.234657 5.177632
100.245705 6.740942
100.283501 8.472222
100.290497 2.003788
100.329643 6.42803
100.360168 4.003788
100.365868 9.160088
100.384583 9.001126
100.541496 8.109649
100.54847 7.334302
100.652245 24.45719
100.834724 9.445371
100.849899 5.097222
101.079407 8.693376
101.173927 6.355392
101.184364 4.675926
101.401497 13.41987
101.88195 4.033333
102.569748 10.10526
103.05423 83.295326
104.049606 190.929306
104.363777 17.380751
104.642982 11.03858
104.963394 7.338542
105.035614 226.375702
105.044037 548.433411
105.090858 2.520833
105.144257 8.03728
105.166512 17.41346
105.188057 8.66821
105.216606 8.463542
105.233521 2.816667
105.273705 11.90278
105.373672 10.68
105.418869 11.0
105.445107 4.225
105.607437 18.225
105.709625 6.349638
105.841026 5.185606
105.97448 4.054824
106.128693 7.989943
107.05014 59.126049
108.077019 17.08884
108.514328 5.007576
109.07502 587.227478
109.120384 3.034091
109.324036 7.605556
109.549103 9.083333
110.527657 10.32143
110.55101 5.84375
110.758194 7.341667
110.86071 4.335526
110.944977 6.449713
111.091637 1821.243042
111.127281 15.6078
111.138832 3.341666
111.150269 3.0
111.17411 3.708333
111.186951 6.775537
111.19796 11.09513
111.208961 15.94676
111.242035 11.40833
111.282349 5.666667
111.308037 5.346264
111.319054 12.01894
111.361893 3.226852
111.375214 5.926282
111.443886 6.680555
111.497612 17.929779
111.509338 3.708333
111.517349 8.03592
111.557762 3.668651
111.575867 8.535
111.668022 8.20119
112.09816 783.147705
112.133789 4.35
112.231033 4.5
112.276962 7.757576
112.496643 14.54667
112.851532 10.89851
113.106087 113.531601
113.135986 5.083333
115.001152 5.007576
116.049316 46.287479
117.056053 41.555908
117.242989 16.2041
118.039848 440.42691
118.064842 87.912079
118.267456 5.226852
118.345444 7.083333
118.51609 6.177631
118.674469 12.23184
118.982109 14.33333
119.048927 3614.351074
119.087845 45.429821
119.095978 20.69635
119.118111 5.121212
119.17952 10.38889
119.202309 7.358974
119.247887 16.880341
119.259293 16.37738
119.294807 13.15463
119.328407 7.755556
119.422714 2.375
119.437912 3.703704
119.448814 17.6381
119.476212 16.604839
119.500656 2.583333
119.541924 4.387821
119.827934 19.20833
120.081314 13.66764
121.075119 1141.378052
121.216133 5.8
121.254738 10.8375
121.325401 7.583333
121.403969 6.668011
121.438652 7.927469
121.515923 14.22222
121.53817 5.801667
121.626396 7.001068
122.080353 76.465027
122.243423 4.893518
122.476784 2.375
123.093758 25.787041
128.141846 28.700001
129.045944 79.599289
130.063446 92.816254
130.286087 5.787037
130.335892 5.558333
130.400345 20.24008
130.952835 5.120098
130.984818 9.280702
131.05983 2515.899902
131.096878 23.85714
131.120209 9.070175
131.128174 6.001437
131.160049 6.335145
131.179993 7.893817
131.188065 2.669444
131.259705 20.216141
131.302612 25.432199
131.320496 27.846149
131.347458 4.736111
131.375656 7.041667
131.383255 3.003205
131.391235 2.347222
131.443481 13.5126
131.46701 7.027778
131.500183 3.075
131.578735 8.893518
131.642822 2.449074
131.731842 8.336111
131.854233 8.240196
132.043167 427.536591
132.067612 844.797485
132.181992 3.336111
132.20665 42.972328
132.244629 7.259615
132.33963 18.673479
132.394058 5.348333
132.486053 15.06061
132.506363 3.490385
132.514191 16.390539
132.682465 5.522727
133.562378 16.74107
134.038315 12.41667
134.083344 31.456791
134.093643 58.13158
135.092545 199.656097
136.075195 47.810711
137.10379 30.96314
139.459793 10.66793
143.360016 18.219299
145.065582 37.333328
146.068771 227.621704
146.095886 134.425201
146.181198 10.69444
146.400665 3.555556
146.749588 3.333333
146.79805 8.166667
148.117188 12.77381
148.160553 11.48457
148.232544 8.816667
149.255081 7.713542
149.270615 15.81548
152.061768 47.292931
154.100693 20.3536
155.083969 72.293793
156.05484 334.604797
156.302383 3.333333
157.038544 20.2663
157.666687 5.348333
158.059982 527.271179
158.071793 89.85334
158.110718 3.741667
158.222107 4.347222
158.302216 16.33333
158.322617 3.380953
158.607468 27.518681
158.630173 10.70833
158.717117 2.386905
160.075348 334.272614
160.10675 21.444441
160.492432 12.72115
160.513336 10.42803
160.640686 4.680556
160.801071 8.025407
160.840912 15.02216
161.246933 11.33426
161.264633 11.00093
161.419266 10.67803
161.47702 7.345238
162.085327 21.72459
162.955124 5.458333
163.503342 8.049797
164.058304 29.5947
165.070663 76.151627
166.050354 19.146931
167.087708 93.283173
167.233765 8.083333
168.270737 19.0404
168.563202 4.083333
168.582733 5.966667
170.071732 98.686058
171.089127 17.92161
172.121338 4.963235
172.384125 7.736842
172.644592 8.881579
173.08316 526.955322
173.112625 61.360039
173.218491 19.6
173.408783 4.763889
174.09137 513.907593
174.11734 68.501732
174.322021 11.4359
174.358383 9.34248
174.46875 14.40076
174.689285 3.080128
175.107956 3.402778
175.190842 10.00089
176.177612 4.335318
177.065445 21.835421
177.184387 7.891666
178.067963 73.970917
178.108414 9.721847
178.954422 9.400001
179.085571 281.620514
183.09021 24.56465
184.108688 17.419331
185.081757 474.675415
185.108261 114.965103
185.221985 16.84355
185.38266 15.36915
185.481552 10.52083
187.039032 7.027778
187.082458 8.284091
187.581818 12.38081
188.127411 91.084282
188.325256 13.93452
188.665039 14.36742
188.970917 9.012097
189.067108 42.484852
189.138824 1473.879028
189.187393 12.46204
189.234039 25.334999
189.286469 9.378623
189.322281 10.75556
189.368896 5.0625
189.391617 15.0336
189.463806 8.0
189.545227 7.004386
189.603485 19.867201
190.063568 16.420139
190.946365 8.740741
191.608521 4.933333
191.677765 5.692308
192.135712 6.868333
193.085968 64.455643
193.29657 5.721154
194.095947 1531.265991
194.14299 15.5664
194.15657 2.670455
194.345657 5.357143
194.365067 5.801667
194.423981 6.633333
194.447403 9.880051
194.568817 11.9616
194.622345 2.083333
194.749634 11.70833
195.075134 53.227112
195.281067 3.416667
195.900711 9.72
196.910034 10.34028
197.139587 4.166667
198.086014 28.879061
199.117752 12.34347
202.068207 37.648441
202.107025 56.761848
202.214294 3.185606
202.286789 6.840517
202.490158 2.816667
202.538132 15.85787
203.070999 58.101559
203.115417 33.179081
204.080597 1858.689941
204.148102 4.875
204.427551 4.166667
204.91275 16.724541
205.035797 5.414216
205.500778 9.599999
206.727722 7.297619
206.922821 3.893518
206.93956 12.34343
207.062073 42.866619
207.073395 45.925621
207.169891 2.733333
207.635773 3.380953
208.070419 28.78125
209.087036 14.01828
209.163239 8.518678
210.09288 112.882004
210.112198 53.4576
210.196777 6.906746
210.492889 8.523648
212.108521 87.031647
212.151657 1.671296
212.293564 6.352941
215.789566 13.62963
215.907364 13.75972
215.944534 8.595239
216.009949 7.704166
216.031845 2.815476
216.17424 8.916667
216.864639 17.340151
216.926147 6.020833
217.133347 4287.873047
217.181839 8.107456
217.193939 9.222222
217.294937 31.905769
217.314804 20.344049
217.335922 5.695513
217.364304 10.27726
217.396729 23.80567
217.413177 7.033602
217.475021 16.969191
217.501511 15.89572
217.587708 1.671296
217.652863 21.43446
217.674881 6.713542
217.7108 13.78677
217.753677 6.683333
217.777542 5.013889
217.933945 17.76333
218.02565 16.615391
218.178314 4.695513
218.207596 10.44444
218.275818 12.44537
218.500748 15.63575
218.599991 10.47115
218.743866 8.647059
218.877655 1.671296
219.09436 146.280701
219.253571 30.352551
219.56369 13.74085
219.76889 1.672619
219.830215 12.38889
219.95459 4.022059
219.985519 6.734848
220.083603 5.371913
220.095367 68.110046
220.171341 6.0
220.238464 3.670455
220.420303 2.695513
220.466888 11.18534
220.479584 12.03788
220.716751 57.6847
220.739532 9.42455
220.814514 43.545101
220.830612 16.81349
220.843002 17.55784
220.858429 2.666667
220.904922 4.926282
220.943436 29.966049
220.975601 40.504669
221.0504 35.039871
221.077438 56.936531
221.106293 2241.158936
221.168976 9.797283
221.251541 14.05833
221.292938 4.673077
221.344467 31.95089
221.374847 5.094697
221.425323 14.79167
221.598801 8.081897
221.691589 4.047619
221.726166 10.5625
221.878494 43.750401
221.940308 17.375
221.990982 10.24008
222.020294 14.01667
222.091553 12774.669922
222.157578 30.503031
222.176102 26.730539
222.204559 58.9762
222.25238 101.033897
222.277298 12.69338
222.291061 26.70833
222.301315 19.14333
222.396912 56.04274
222.425323 74.094017
222.438095 14.46136
222.448502 11.68883
222.464066 16.66667
222.483337 13.9375
222.501938 78.010941
222.525467 15.44444
222.538406 56.334759
222.552292 6.728535
222.578217 8.737069
222.610062 17.15802
222.630142 7.386905
222.66185 70.958672
222.690094 21.01827
222.731888 69.660027
222.761383 9.708333
222.774078 29.48987
222.858597 7.343468
222.895935 55.70475
222.914459 7.375
222.97641 48.10947
223.01619 24.86511
223.066376 9.334401
223.176712 11.38889
223.220917 18.75
223.331512 8.674243
223.343063 8.469444
223.445847 7.041667
223.575882 7.805555
224.039215 5.391026
224.076294 49.84845
224.269333 6.408333
224.41423 7.782407
224.464264 6.575658
224.50592 5.761905
224.586151 8.000926
225.062271 14.29876
225.212997 6.6875
225.520355 5.480072
228.845642 10.38095
229.074524 42.406509
230.074539 103.448601
231.089691 62.932541
232.058258 28.655661
232.070282 6.927083
233.083847 17.16263
234.085846 49.808361
234.116394 8.125
234.323532 8.748563
235.10968 22.669189
236.091522 44.388802
236.830841 22.016451
237.101395 381.972107
237.127121 222.705994
237.299606 4.695513
237.868088 10.78241
237.887009 3.125
238.109879 1269.552979
238.163666 3.047619
238.190155 2.347222
238.303482 10.22685
238.329773 5.015
238.465439 19.925989
238.587646 2.678571
238.641525 3.125
238.770386 6.685185
238.910812 4.008333
239.060471 4.367424
239.640549 5.185606
240.219086 18.385559
244.578735 5.010417
244.878418 6.306159
244.936401 10.66865
245.107681 11.93895
245.226746 4.166667
245.575378 4.69697
245.597565 17.867821
245.624542 13.41987
245.706665 11.93895
245.756561 10.67361
245.815323 9.010715
245.869858 4.382936
245.90892 8.148809
245.930023 14.84816
245.949265 11.18249
246.095535 70.995422
246.118515 19.880211
246.183624 2.541667
246.310974 7.444445
246.635712 6.075
246.654495 4.337121
246.737976 57.25565
246.790436 11.4537
247.043915 4.107143
247.086716 10271.570312
247.152222 86.279243
247.17598 24.03141
247.247742 31.61726
247.276352 25.592859
247.309036 74.219093
247.333817 35.207741
247.375549 71.627289
247.433167 29.57584
247.459976 29.6409
247.480286 6.11574
247.499542 46.386318
247.525726 6.494048
247.540466 5.375
247.565994 48.59536
247.598969 18.362181
247.628723 33.602459
247.664764 41.039059
247.689758 35.107422
247.769135 24.10648
248.049576 47.520359
248.208221 8.967865
248.29689 7.407609
248.354675 15.85368
248.406693 35.321251
248.637955 14.34405
249.099579 147.130295
249.307526 7.429762
249.497787 9.160088
249.813141 8.341311
249.896774 9.075
250.242218 9.00119
250.280731 9.483334
250.308258 6.716667
251.311279 28.327869
255.086853 50.521069
256.084045 22.96196
257.098602 33.775162
258.980103 9.219203
259.070557 10.0947
259.097351 270.280609
260.101624 159.003601
260.121735 45.548828
260.337006 19.045401
261.109009 153.533203
261.242279 11.29412
261.627472 7.708333
262.076935 24.89966
262.130341 47.1436
262.270447 12.31071
262.428253 9.732527
262.462036 5.002193
262.596954 10.00198
262.664978 2.4
262.681885 7.005208
262.8013 18.87244
262.828522 13.68432
262.992096 12.2838
263.089722 22.361111
263.117218 416.133087
263.154999 18.537571
263.18396 5.734848
263.212158 4.0
263.235474 3.185606
263.392822 4.673077
263.517029 6.716667
263.884247 5.679598
264.053864 4.481482
264.113556 5179.780762
264.181793 14.01429
264.206482 13.73851
264.223663 24.03791
264.248383 24.98988
264.28833 4.753205
264.32486 19.834749
264.359161 28.170919
264.389832 39.33279
264.428101 59.48835
264.454865 18.83667
264.496918 6.080883
264.525513 18.66678
264.559082 10.29657
264.597168 25.8729
264.616791 14.73986
264.79306 24.190479
264.824493 23.975
264.860626 48.420158
264.912933 16.23082
265.044037 6.020833
265.502869 4.736111
265.694305 15.68613
265.758148 9.42803
265.976105 25.680559
266.24057 5.003788
266.439178 10.00417
267.621582 5.019737
267.650055 5.013889
267.906219 8.166667
271.110901 101.338699
272.115509 62.093849
272.245697 19.78676
272.658997 7.001667
273.103973 359.954987
273.187683 7.69697
273.630096 5.469444
273.683411 15.08333
273.768707 9.601191
274.097229 893.009705
274.500336 9.561992
274.569031 7.416667
274.892395 11.39701
275.365601 6.335
275.434509 5.786765
275.631195 6.160257
276.121857 255.103699
276.162659 5.148148
276.291138 14.59269
276.394012 3.671296
276.609711 17.111839
277.112488 114.581299
277.131775 36.3368
277.268158 9.009616
277.795563 7.688889
278.526794 12.00219
279.123566 136.672302
279.828674 6.00119
285.450684 7.935
285.617462 5.095238
286.402161 5.121212
287.312134 11.13038
288.111023 10.64744
288.361633 9.523809
288.384583 21.611111
288.582428 7.041667
288.602386 11.4406
288.69101 12.05518
288.998505 5.671875
289.115753 78.754936
289.217377 3.666667
289.394897 10.25397
290.071411 51.729229
290.129517 3165.210938
290.207336 22.04645
290.228821 9.407609
290.252106 7.856884
290.313934 25.068371
290.331909 22.646971
290.368561 12.77482
290.455048 24.672621
290.508453 14.67325
290.54425 9.002192
290.591614 10.2937
290.899872 14.46965
291.024231 3.002451
291.102844 9.185345
291.351166 7.819445
292.016815 14.53289
292.096527 21.00054
292.662445 8.300439
293.274506 9.149692
294.163696 3.666667
298.106384 15.85227
300.109436 6.75
301.122253 25.435419
304.124176 68.877312
309.121857 35.578949
310.088715 77.518677
310.834717 4.054824
311.124359 29.755739
312.283875 16.680559
314.100098 6.013889
315.107971 11.66786
315.130554 22.00079
316.293396 31.55802
317.322479 3.266667
317.680115 6.125
318.14682 50.948719
321.074402 22.726191
321.113312 12.0
322.123505 16.171749
323.116364 23.34074
324.145935 71.446152
324.173553 3.375
325.120178 38.835251
326.125336 63.093029
328.131104 12.08854
332.064667 34.560841
333.108765 20.96154
334.12854 68.26593
334.503021 5.564815
335.118469 110.118401
335.693298 14.3869
336.137238 80.926147
336.273285 11.84314
337.114655 103.202698
337.231262 8.081667
337.274017 31.743851
337.409271 9.020833
338.142792 24.85586
339.1633 6.364899
339.438416 17.38081
339.742279 3.444444
344.101166 17.347219
346.10202 59.22163
347.089508 4.349638
347.681854 4.306818
347.916412 5.136111
348.136963 83.286713
349.143768 110.540199
349.192749 11.77174
349.312714 5.75
349.400604 14.67628
349.423431 11.625
349.512482 12.98263
350.132721 581.223022
350.211914 22.592489
350.285614 9.561992
350.334473 28.818939
350.801575 31.426229
351.127258 399.868988
351.158783 2229.365967
351.256439 41.864342
351.378632 12.34167
351.432495 4.408333
351.459045 11.57143
351.498749 45.28191
351.525116 16.70833
351.680939 20.70249
351.873901 59.35751
351.971039 13.33929
352.065125 20.34667
352.940643 7.35
352.985443 13.74833
353.202118 6.482143
355.653351 8.307693
357.104156 33.84211
357.683807 6.906746
359.131378 56.660488
359.447327 8.647059
359.697937 11.8642
359.94281 20.83333
360.137054 149.215195
360.534058 3.893518
360.675903 3.185606
361.13443 341.994904
361.174988 26.592951
361.388153 7.016666
361.457611 11.02083
361.508392 11.87879
362.116852 14.34877
362.478729 11.15152
362.887939 7.428572
362.938171 7.028153
363.125488 168.657394
363.468567 7.020833
363.786987 2.333333
363.986084 4.083333
364.154663 837.666992
364.238342 6.00119
364.298096 30.856421
364.38443 3.358333
364.484131 16.363331
364.657166 7.91804
364.910828 22.670429
365.022217 10.33333
365.129883 62.12112
365.480988 9.469697
365.82782 9.027778
366.093109 10.47704
366.170776 1709.246948
366.227844 24.975929
366.326508 13.41095
366.378937 34.207539
366.446228 32.373402
366.525909 8.086538
366.573181 4.190476
366.624634 20.016529
366.672424 6.69697
366.998383 5.19853
367.158295 496.266693
367.19223 9.380815
367.299194 15.22222
367.492279 5.666667
367.51236 11.04545
368.019318 15.33761
368.11908 4.367424
368.219574 11.66733
368.586823 5.371913
369.25293 6.125
372.752869 4.71627
373.552551 3.760417
373.870331 5.002778
373.899841 4.721154
373.935822 5.375
374.043549 11.33333
374.071594 10.45
374.133698 43.338711
374.292542 12.13962
374.589386 5.633333
374.696838 7.741667
374.777313 5.35307
374.851379 7.009615
374.883972 7.001984
374.922455 15.90758
375.02124 12.59314
375.113403 5.683333
375.139526 51.02063
375.242157 3.010417
375.722137 18.06673
375.767792 7.7
375.835419 8.385684
375.88089 5.633333
375.893646 16.3232
376.155121 2467.906982
376.238647 19.866671
376.318115 10.36143
376.375427 18.69722
376.402649 19.69231
376.435913 12.7067
376.476776 9.337121
376.516937 24.979811
376.540955 9.482142
376.59137 44.52776
376.685669 6.340278
376.712921 16.4401
376.761688 14.68333
376.795624 42.732121
376.899628 86.45726
376.939026 15.4213
377.139465 2550.833984
377.225159 60.76741
377.259094 32.78981
377.287689 80.625603
377.361328 23.7381
377.445679 48.051559
377.476776 67.100082
377.567322 4.5
377.651825 2.367424
377.705078 19.34623
377.847382 17.946859
378.012665 6.42803
378.037292 9.378703
378.084778 12.1875
378.135223 3357.581055
378.307892 8.001437
378.345062 74.34964
378.394897 4.891667
378.529083 101.429398
378.581482 18.165739
378.666595 2.333333
378.693695 13.75212
378.721466 5.5
378.741089 4.666667
378.890289 8.669444
379.058685 2.782408
379.142731 8094.956055
379.239044 94.522087
379.307373 29.20163
379.379608 86.180367
379.412964 91.715858
379.471558 11.18855
379.494537 31.52002
379.592804 33.53117
379.613068 8.0
379.635284 16.683741
379.659851 40.05114
379.714111 40.625488
379.806091 91.180634
379.833984 22.12681
379.96225 54.3787
380.031708 24.366831
380.198151 14.14371
380.286316 15.04003
380.428772 10.78205
380.570984 28.373619
380.994385 18.715281
381.089478 7.653986
381.203339 12.04167
381.374817 9.053572
381.542389 9.476191
381.848969 25.89361
382.072632 4.342593
382.406128 9.677381
382.426331 4.013889
383.06192 5.884804
387.737854 6.98077
388.676575 11.34848
389.019684 7.242816
389.617554 21.73847
390.152954 17.019609
390.441223 7.005556
390.77121 50.995178
391.116821 7.190217
391.167145 11.675
391.328156 3.458333
391.459259 8.348485
391.534912 19.073071
391.562378 44.745399
391.607635 68.359833
391.675629 35.819118
391.70636 77.301331
391.749756 103.309303
391.811829 142.922501
391.860748 35.13522
391.90271 114.922897
391.933777 88.84922
391.967987 59.72398
392.00647 59.602421
392.045593 20.171749
392.092773 6.075617
392.145691 87.232109
392.176117 116.738503
392.224823 39.935871
392.284088 52.308819
392.341034 47.179958
392.358673 59.218151
392.505463 86.791031
392.571655 4.333333
392.627075 15.38967
393.027771 28.94121
393.078827 22.96991
393.112091 75.074448
393.196991 19.777781
393.259247 92.526688
393.548157 113.5914
393.820099 43.896629
393.880188 35.229832
394.092468 107.851997
394.167023 49050.71875
394.423737 46.07267
394.519165 140.200104
394.606995 54.382481
394.632446 89.655724
394.658234 16.679729
394.686157 302.797089
394.720581 63.89711
394.747894 173.456696
394.793884 131.098694
394.853851 176.662292
394.904022 168.387802
394.933685 162.369995
394.958649 168.781799
395.002686 54.99482
395.039185 133.517502
395.122009 131.634796
395.276733 74.658836
395.324768 75.1269
395.580475 62.71172
395.663239 27.782579
395.728394 40.18457
396.347687 11.67628
396.444641 24.762369
396.506989 2.0
396.62262 3.1875
396.770721 33.416672
396.835938 24.679131
396.888062 11.03157
397.079041 25.217171
397.144531 2.4
397.185974 67.684517
397.21579 5.15
397.252014 17.50758
397.611481 3.408334
397.933044 3.560185
398.032776 18.10688
398.122681 5.666667
398.421326 3.802778
398.442078 7.347222
398.726776 11.00154
398.848602 9.708333
398.893555 3.0
399.071503 11.03402
399.310577 3.669444
399.358887 17.22983
399.554443 5.265351
399.790375 3.016667
399.908112 7.552536
400.182617 5.136111
400.242432 3.066667
400.444519 12.66742
400.813385 8.769231
401.879974 8.708333
402.389404 11.82315
404.912201 4.760417
405.177643 65.754013
405.535614 8.041667
405.612701 6.005952
405.893005 9.716464
406.524048 8.380815
408.675751 9.149692
409.180145 13.08333
409.464813 3.625
410.764648 2.333333
411.196198 22.88002
411.645386 14.75
417.181549 67.27169
419.192596 56.109959
419.511383 3.080128
419.939453 7.347222
432.36377 4.531863
437.204559 21.74856
449.234802 13.96154
449.669495 11.01389
451.212677 7.921875
469.628113 8.219203
473.449829 8.808036
473.548676 8.388441
473.631531 10.875
473.6763 5.672619
474.515198 3.440476
476.252777 839.255981
476.353455 9.679598
476.399048 8.240196
476.430725 8.424836
476.596497 10.01293
476.664825 6.690476
476.710388 8.789216
476.740906 7.938889
476.789246 54.74482
476.877533 10.68182
477.000488 3.926282
477.074341 5.633333
477.103516 24.627899
477.212158 22.09646
479.296448 14.56609
488.309509 9.527778
493.165314 7.173611
494.267059 710.698975
494.68869 6.002451
494.801849 13.44643
495.75705 24.758249
495.865509 6.667857
497.424133 5.573412
498.965179 3.75
529.736267 11.34626
577.654785 17.683201
626.924255 5.88587
806.792725 7.714285
841.61615 12.9467
847.461853 15.55864
1481.738037 16.934259
