>compound MLS002153805-01!Chlorogenic acid hemihydrate6001-76-9
>formula C16H18O9
>ionization [M+H]+
>parentmass 355.103
#inchi InChI=1S/C16H18O9/c17-9-3-1-8(5-10(9)18)2-4-13(20)25-12-7-16(24,15(22)23)6-11(19)14(12)21/h1-5,11-12,14,17-19,21,24H,6-7H2,(H,22,23)/b4-2+/t11-,12-,14-,16+/m1/s1
#inchikey CWVRJTMFETXNAD
#Ion_Source LC-ESI
#Instrument qTof
#Compound_Source NIH Pharmacologically Active Library
#PI Dorrestein
#Data_Collector VP/LMS
#Scan -1
#Precursor_MZ 355.103
#ExactMass 354.095
#Charge 1
#CAS_Number N/A
#Pubmed_ID N/A
#Smiles O[C@@H]1C[C@](O)(C[C@@H](OC(=O)/C=C/c2ccc(O)c(O)c2)[C@@H]1O)C(=O)O
#INCHI_AUX N/A
#Library_Class 1
#SpectrumID CCMSLIB00000085409
#IonMode Positive
#UpdateWorkflowName UPDATE-SINGLE-ANNOTATED-GOLD
#LibraryQualityString Gold
#TaskID d252d724072548979f1f6f1ced849daf
##Scan# 1214
#SpectrumFile p4-A06_GA6_01_18331.mzXML
#LibraryName Pharm_Active_Library.mgf
#MQScore -1
#Organism Pharm_Active_Library
#TIC_Query 0
#RT_Query -1
#MZErrorPPM -1
#SharedPeaks 0
#MassDiff 0
#LibMZ -1
#SpecMZ 355.103
#SpecCharge 0
#internalFilename spec-00000.mgf

>collision 10
47.243027 160.0
47.648823 176.0
47.669434 120.0
50.537998 152.0
50.679588 160.0
53.124168 228.0
53.321644 192.0
53.532589 200.0
53.707478 92.0
54.236786 164.0
55.125725 152.0
58.205807 220.0
58.281754 180.0
58.826984 224.0
59.681873 148.0
60.38662 144.0
61.318169 136.0
61.524063 112.0
61.786613 60.0
63.009762 44.0
63.438637 188.0
65.993904 120.0
66.239891 196.0
67.569931 208.0
72.772484 192.0
73.083527 184.0
73.444687 176.0
75.110237 236.0
75.973434 76.0
76.100128 84.0
76.291237 160.0
78.372223 100.0
79.402817 152.0
79.85215 172.0
80.035439 80.0
87.318024 164.0
89.040199 324.0
91.141861 176.0
92.182266 188.0
94.857567 172.0
95.003006 176.0
95.060013 272.0
95.327255 164.0
97.186188 136.0
97.358932 64.0
97.543617 192.0
98.754288 100.0
99.336632 200.0
99.39814 84.0
99.412033 108.0
99.936607 172.0
101.998482 108.0
103.412415 152.0
104.083435 176.0
107.047836 572.0
107.087639 148.0
108.126137 180.0
108.258629 84.0
108.899467 140.0
109.33815 180.0
109.802734 140.0
109.850708 152.0
111.04895 232.0
111.41449 148.0
111.837158 224.0
112.921638 192.0
113.141701 172.0
113.832909 208.0
115.741371 68.0
116.59729 208.0
116.644577 148.0
117.034035 1268.0
117.376572 176.0
117.648422 188.0
117.937874 204.0
118.034119 108.0
118.418205 56.0
119.042786 180.0
119.649422 184.0
120.006721 168.0
124.415848 120.0
124.713509 184.0
127.222054 192.0
127.810898 148.0
129.227859 144.0
130.123108 72.0
132.062347 164.0
134.032074 168.0
134.895233 96.0
135.00621 156.0
135.044769 3484.0
135.353317 100.0
136.046585 256.0
137.564346 44.0
137.695099 144.0
139.23378 108.0
140.158264 200.0
144.469925 164.0
144.718826 152.0
145.027954 2552.0
145.404404 64.0
146.033371 808.0
146.356354 64.0
146.816605 68.0
147.139938 36.0
147.214783 44.0
148.182312 104.0
149.024216 104.0
149.97084 188.0
151.603424 124.0
154.823273 184.0
155.614273 164.0
156.601501 128.0
160.465652 152.0
160.690109 84.0
160.791046 256.0
162.796082 136.0
162.831635 160.0
162.971344 144.0
163.011993 84.0
163.039993 7932.0
163.144165 76.0
163.222977 64.0
163.288635 88.0
163.317078 32.0
163.556259 36.0
163.823624 172.0
163.943375 28.0
164.043976 1412.0
164.103973 44.0
164.236572 104.0
164.839081 92.0
164.994995 136.0
165.043564 204.0
165.184235 96.0
165.202133 56.0
165.312149 80.0
166.075607 176.0
167.734085 48.0
174.687073 52.0
191.908936 152.0
195.760544 68.0
228.603561 112.0
255.062927 216.0
272.920593 228.0
276.940094 96.0
299.22821 140.0
313.108734 136.0
353.308594 208.0
354.192017 164.0
356.326538 164.0
358.248962 164.0
363.170532 64.0
396.339661 56.0
397.247559 36.0
400.913422 48.0
617.457153 112.0
778.898987 180.0
898.577393 216.0
956.008179 208.0
985.550049 136.0
1077.179565 132.0
1085.543945 144.0
1125.693115 48.0
1128.185303 172.0
1144.805054 156.0
1155.794556 184.0
1159.654663 104.0
1215.682617 176.0
1264.100342 184.0
1293.444458 156.0
1297.004395 196.0
1310.2052 144.0
1311.213989 164.0
1312.345703 128.0
1313.788086 200.0
1318.315186 148.0
1334.312378 124.0
1335.810425 168.0
1342.000732 160.0
1368.914673 100.0
1386.029907 168.0
1392.922119 200.0
1399.310303 112.0
1447.039551 164.0
1455.736572 176.0
1458.160034 164.0
1466.303467 88.0
1483.754639 68.0
1487.935791 104.0
1499.019409 228.0
