>compound MLS001076856-01!
>formula C22H25N3O3S
>ionization [M+H]+
>parentmass 412.169
#inchi InChI=1S/C22H25N3O3S/c1-2-10-28-18-8-6-16(7-9-18)21(27)23-22(29)24-12-15-11-17(14-24)19-4-3-5-20(26)25(19)13-15/h3-9,15,17H,2,10-14H2,1H3,(H,23,27,29)/t15-,17-/m1/s1
#inchikey VTQZLOQHRKROSM
#Ion_Source LC-ESI
#Instrument qTof
#Compound_Source NIH Natural Product Library
#PI Dorrestein
#Data_Collector VVP/LMS
#Scan -1
#Precursor_MZ 412.169
#ExactMass 411.162
#Charge 1
#CAS_Number N/A
#Pubmed_ID N/A
#Smiles CCCOc1ccc(cc1)C(=O)NC(=S)N2C[C@H]3C[C@H](C2)c4cccc(=O)n4C3
#INCHI_AUX N/A
#Library_Class 1
#SpectrumID CCMSLIB00000079622
#IonMode Positive
#UpdateWorkflowName UPDATE-SINGLE-ANNOTATED-GOLD
#LibraryQualityString Gold
#TaskID b1d8e8f6646f4e71acdff9ca3d919d08
##Scan# 1907
#SpectrumFile p1-H08_GH8_01_17964.mzXML
#LibraryName NIH_Natural_Products_Library.mgf
#MQScore -1
#Organism NIH_Natural_Products_Library
#TIC_Query 0
#RT_Query -1
#MZErrorPPM -1
#SharedPeaks 0
#MassDiff 0
#LibMZ -1
#SpecMZ 412.169
#SpecCharge 0
#internalFilename spec-00000.mgf

>collision 10
94.98687 132.0
95.00045 56.0
95.163475 180.0
95.297485 184.0
95.447159 148.0
95.616402 128.0
95.740997 60.0
95.766319 228.0
95.928047 88.0
96.072357 232.0
96.105522 56.0
96.136749 208.0
96.261681 160.0
96.666328 196.0
96.764198 220.0
96.815109 224.0
96.856239 88.0
97.296257 200.0
97.75544 200.0
98.037048 160.0
98.068581 188.0
98.155327 72.0
98.25 228.0
98.273674 148.0
98.30722 196.0
98.411835 184.0
98.571831 112.0
98.587639 192.0
98.65287 128.0
99.020912 64.0
99.046661 144.0
99.365822 88.0
99.381699 200.0
99.44986 220.0
99.467033 52.0
99.480934 112.0
99.675568 156.0
99.710846 128.0
99.774948 116.0
100.015656 152.0
100.047501 136.0
100.067413 200.0
100.232735 64.0
100.343834 184.0
100.37426 192.0
100.557793 132.0
100.791451 236.0
101.397804 180.0
101.522102 120.0
101.600334 188.0
102.255402 188.0
102.301697 128.0
102.331894 140.0
102.366127 212.0
102.450722 200.0
102.511169 208.0
102.543411 144.0
102.765236 176.0
102.823753 132.0
102.936806 132.0
103.031738 128.0
103.051941 164.0
103.106499 84.0
103.272285 136.0
103.300606 172.0
103.565781 148.0
103.857658 136.0
104.052002 192.0
104.399933 144.0
104.442642 176.0
104.619682 156.0
104.652252 140.0
104.711311 44.0
104.772415 172.0
105.017029 192.0
105.068314 144.0
105.392662 172.0
105.527557 124.0
105.738258 108.0
106.063927 144.0
106.145927 164.0
106.334671 116.0
106.400352 104.0
106.4599 92.0
106.729095 152.0
107.149231 156.0
107.177818 92.0
107.443787 112.0
107.487114 192.0
107.518066 160.0
107.927086 108.0
108.022224 64.0
108.044189 168.0
108.256104 200.0
108.510971 192.0
108.788971 156.0
108.840874 120.0
109.024803 460.0
109.052773 196.0
109.100586 136.0
109.230103 232.0
109.393906 136.0
109.620934 184.0
109.693878 88.0
109.714722 176.0
109.793961 156.0
109.829414 100.0
110.002609 96.0
110.048317 264.0
110.136253 80.0
110.192657 44.0
110.307594 152.0
110.471092 240.0
110.552307 212.0
110.619057 184.0
110.996407 120.0
111.040443 152.0
111.123802 152.0
111.323761 108.0
111.390968 176.0
111.416183 48.0
111.594826 192.0
111.630569 208.0
111.70208 188.0
111.737846 92.0
111.956757 108.0
112.04628 148.0
112.14637 124.0
112.220978 216.0
112.296074 28.0
112.323494 164.0
112.399445 224.0
112.469086 184.0
112.557755 160.0
112.771133 64.0
112.868378 224.0
112.883179 48.0
113.003746 68.0
113.126495 236.0
113.179665 176.0
113.266258 128.0
113.282326 184.0
113.47818 144.0
113.550278 160.0
113.567245 128.0
113.777328 164.0
113.921738 196.0
113.964226 108.0
114.029877 224.0
114.151283 136.0
114.236359 168.0
114.283165 164.0
114.300186 128.0
114.412987 176.0
114.506683 84.0
115.123024 212.0
115.373016 144.0
115.586899 192.0
115.774239 140.0
115.80098 224.0
115.933807 136.0
115.976669 128.0
116.229736 188.0
116.283386 120.0
116.717331 128.0
116.75174 156.0
116.859299 152.0
116.97551 236.0
116.990578 160.0
117.056847 324.0
117.259827 248.0
117.309402 212.0
117.363304 64.0
117.395653 120.0
117.460358 172.0
117.597572 188.0
117.969978 148.0
118.066353 140.0
118.26416 100.0
118.437386 152.0
118.485039 144.0
118.504539 200.0
118.537041 148.0
118.721306 84.0
118.764687 220.0
118.784203 140.0
118.812408 204.0
118.829765 244.0
118.879669 140.0
118.962151 228.0
119.044655 116.0
119.214096 116.0
119.32061 84.0
119.381493 120.0
119.427162 248.0
119.651299 176.0
119.758003 140.0
120.082756 128.0
120.102386 192.0
120.418877 60.0
120.451637 188.0
120.471977 232.0
120.495331 184.0
120.51281 216.0
120.539032 132.0
120.567436 140.0
120.584923 148.0
120.604591 44.0
120.619896 72.0
120.705162 208.0
120.845146 72.0
120.898636 216.0
120.948006 168.0
120.994934 396.0
121.028389 72124.0
121.11908 92.0
121.142891 76.0
121.160416 68.0
121.178383 180.0
121.19474 120.0
121.22345 64.0
121.267487 120.0
121.365738 132.0
121.388458 620.0
121.45636 104.0
121.476097 44.0
121.533905 92.0
121.550697 76.0
121.622124 108.0
121.684586 80.0
121.791206 80.0
121.840523 144.0
121.87664 76.0
121.901436 72.0
121.990799 84.0
122.031265 5736.0
122.058937 160.0
122.097038 80.0
122.174683 100.0
122.196686 36.0
122.240692 68.0
122.273705 92.0
122.295242 188.0
122.335335 52.0
122.366158 184.0
122.388176 32.0
122.414597 88.0
122.507103 108.0
122.636406 248.0
122.661362 128.0
122.741463 168.0
122.764984 100.0
122.80468 104.0
122.822227 84.0
122.860756 220.0
122.892921 100.0
122.933884 192.0
122.965744 120.0
123.003273 60.0
123.033325 792.0
123.076126 100.0
123.27935 224.0
123.303658 52.0
123.458412 312.0
123.515923 156.0
123.560165 76.0
123.626549 68.0
123.923378 80.0
124.011909 192.0
124.035057 124.0
124.124969 224.0
124.46447 232.0
125.142639 144.0
125.193855 188.0
125.231712 116.0
125.474609 204.0
125.528122 168.0
125.603951 52.0
125.699188 128.0
125.798088 72.0
125.88517 108.0
125.900803 196.0
126.345612 128.0
126.92234 180.0
127.049065 84.0
127.075989 68.0
127.253296 92.0
127.435226 216.0
127.538597 184.0
128.326523 208.0
128.409958 40.0
128.446045 152.0
128.845612 164.0
128.884018 180.0
129.04451 104.0
129.071121 208.0
129.161118 212.0
129.182236 164.0
129.223175 52.0
129.386139 192.0
129.497086 96.0
129.515213 60.0
129.664749 124.0
129.852936 52.0
130.063873 144.0
130.218338 204.0
130.500122 60.0
130.54332 76.0
130.830017 144.0
131.071198 436.0
131.098785 220.0
131.132965 116.0
131.438553 144.0
131.532135 152.0
131.682831 60.0
131.954071 112.0
132.043716 368.0
132.075439 152.0
132.391815 152.0
133.053024 356.0
133.091217 180.0
133.561508 168.0
133.610641 160.0
133.725693 48.0
134.05838 160.0
134.10112 148.0
134.276352 104.0
134.375534 140.0
134.500153 128.0
134.717224 84.0
134.758804 208.0
134.793472 40.0
134.825821 160.0
135.067322 196.0
135.429672 204.0
135.545517 164.0
135.788925 160.0
136.074356 196.0
136.378677 260.0
136.771759 180.0
137.005936 172.0
137.233032 200.0
137.505966 72.0
137.8703 160.0
138.207031 184.0
138.342773 120.0
138.654297 152.0
139.031891 144.0
139.085861 172.0
139.245529 96.0
139.725067 48.0
140.165359 68.0
140.193634 132.0
140.243134 64.0
140.455338 208.0
140.554428 172.0
140.696045 48.0
140.899155 48.0
140.991302 68.0
141.040939 140.0
141.194626 208.0
141.246658 164.0
142.063904 148.0
142.348724 168.0
142.448486 52.0
142.469864 112.0
142.643341 88.0
142.935867 172.0
142.95491 164.0
143.031067 180.0
143.617233 144.0
143.908554 160.0
144.02301 160.0
144.082962 196.0
144.142456 244.0
144.400436 232.0
144.651886 132.0
144.788361 120.0
145.051926 144.0
145.080688 104.0
145.195786 68.0
145.440506 96.0
145.757523 68.0
145.865677 80.0
145.914566 60.0
145.947418 116.0
146.058121 908.0
146.099426 376.0
146.190369 148.0
146.240906 208.0
146.99765 40.0
147.066711 548.0
147.094193 152.0
147.188354 116.0
147.301865 108.0
147.335693 260.0
147.845886 56.0
148.032288 136.0
148.074768 11064.0
148.12674 188.0
148.306046 88.0
148.33934 148.0
148.361801 68.0
148.43454 36.0
148.878632 48.0
149.078812 1004.0
149.109421 72.0
149.194504 128.0
149.367157 228.0
149.41095 36.0
149.608078 64.0
149.71521 152.0
150.080872 308.0
150.195358 104.0
150.385666 112.0
150.402756 172.0
150.510178 196.0
150.874222 28.0
151.077209 212.0
151.321564 184.0
151.388046 160.0
151.412537 136.0
151.821747 148.0
151.951828 164.0
152.062241 196.0
152.182526 120.0
152.339706 176.0
152.777298 148.0
152.80928 172.0
153.575409 164.0
154.064163 268.0
154.405273 60.0
154.486908 180.0
154.620514 180.0
154.704681 52.0
155.177872 168.0
155.463135 188.0
155.557449 132.0
156.071716 120.0
156.524597 80.0
156.581863 40.0
156.659088 168.0
157.070404 180.0
157.217606 244.0
157.322433 96.0
157.519714 224.0
157.787109 184.0
157.824615 124.0
158.058807 312.0
158.731064 180.0
158.81633 192.0
159.066162 220.0
159.157639 212.0
160.012497 164.0
160.074631 3456.0
160.102753 160.0
160.120789 64.0
160.161087 52.0
160.282013 148.0
160.362656 144.0
161.08049 572.0
161.109573 180.0
161.39769 252.0
161.468506 176.0
161.934189 48.0
162.091278 416.0
162.114075 212.0
162.298431 208.0
162.512177 216.0
162.562927 156.0
162.641602 192.0
162.720612 196.0
162.806641 124.0
162.847275 172.0
162.871628 196.0
162.978271 212.0
163.019547 252.0
163.074646 38996.0
163.113007 348.0
163.142029 156.0
163.173813 60.0
163.192871 40.0
163.27272 160.0
163.280441 64.0
163.288193 124.0
163.308167 60.0
163.345627 76.0
163.396347 56.0
163.41713 212.0
163.444687 112.0
163.46759 28.0
163.493759 28.0
163.513397 64.0
163.61734 72.0
163.663589 56.0
163.727249 56.0
163.770004 204.0
163.792038 64.0
163.925964 136.0
164.015167 60.0
164.078415 4672.0
164.150284 120.0
164.185989 236.0
164.438568 80.0
164.492172 120.0
164.516052 56.0
164.589188 44.0
164.673462 96.0
164.719437 172.0
164.770523 88.0
164.908524 64.0
164.969864 84.0
165.078552 212.0
165.169327 108.0
165.223038 108.0
165.2444 144.0
165.290894 100.0
165.348419 228.0
165.366348 72.0
165.402176 100.0
165.481537 76.0
165.635193 112.0
165.695099 52.0
165.765854 28.0
165.909393 116.0
166.162262 120.0
166.226456 124.0
166.358337 48.0
166.802734 140.0
167.698486 64.0
168.041458 92.0
168.108551 164.0
168.139526 136.0
168.7052 140.0
168.994858 152.0
170.075516 100.0
171.078918 140.0
171.378418 180.0
171.75383 212.0
172.07515 508.0
172.330765 48.0
172.380417 180.0
172.508484 76.0
172.589539 56.0
172.908676 96.0
173.016006 96.0
173.079758 184.0
173.3172 48.0
173.589813 80.0
173.642273 80.0
173.692108 52.0
173.720963 124.0
174.089783 2412.0
174.172455 68.0
174.225006 72.0
174.303818 64.0
174.332733 56.0
174.385284 116.0
174.632446 76.0
175.000854 76.0
175.090485 452.0
175.245804 28.0
175.612244 212.0
175.635971 108.0
175.841782 136.0
175.937469 60.0
176.388535 124.0
176.668839 120.0
176.920258 52.0
178.368668 88.0
178.914001 176.0
178.996536 228.0
179.153687 104.0
180.012527 164.0
181.068878 168.0
182.44809 148.0
183.069641 188.0
183.312088 188.0
184.037689 220.0
184.188934 180.0
184.326721 56.0
184.554459 220.0
185.073273 164.0
185.596222 164.0
186.329056 164.0
187.086594 860.0
187.698135 60.0
187.902695 164.0
188.050049 176.0
188.088257 96.0
189.09964 176.0
189.326828 60.0
190.023071 112.0
190.105377 144.0
190.621643 92.0
190.695847 112.0
190.855301 124.0
190.891037 148.0
190.926788 56.0
190.962555 104.0
191.009308 52.0
191.045074 120.0
191.081604 144.0
191.117065 28360.0
191.183228 56.0
191.210907 60.0
191.243713 64.0
191.289993 84.0
191.309265 36.0
191.361572 100.0
191.408371 44.0
191.441422 68.0
191.554352 64.0
191.581894 52.0
191.749969 56.0
191.77478 76.0
191.802353 204.0
191.832672 40.0
191.865753 24.0
191.940186 72.0
192.120956 3240.0
192.257431 80.0
192.293304 40.0
192.367828 72.0
192.412003 56.0
192.463776 156.0
192.508652 76.0
192.533508 88.0
192.591507 44.0
192.624649 56.0
192.725952 108.0
192.804245 104.0
192.978394 144.0
193.083466 136.0
193.120911 156.0
193.354599 216.0
193.465317 80.0
193.498535 100.0
193.569504 88.0
193.634232 72.0
193.686859 144.0
193.709015 120.0
193.782471 132.0
193.922379 96.0
194.094254 112.0
194.130295 44.0
194.613129 52.0
194.946457 44.0
195.552734 208.0
197.245834 68.0
198.441223 92.0
199.082581 196.0
200.088974 192.0
200.699036 96.0
200.735687 96.0
201.2323 60.0
202.02916 192.0
204.037537 136.0
204.463852 144.0
204.552078 84.0
206.060699 88.0
208.15451 56.0
210.296432 152.0
211.226837 148.0
212.942764 60.0
213.774231 100.0
215.614426 64.0
216.01207 124.0
216.04425 132.0
216.110062 344.0
217.095276 192.0
220.549301 132.0
222.060837 360.0
223.065231 172.0
223.18782 160.0
226.944077 64.0
229.014648 140.0
231.006882 192.0
231.058319 172.0
232.953064 152.0
233.072769 6152.0
233.180954 52.0
233.238708 48.0
233.266068 64.0
233.326859 40.0
234.077087 556.0
234.684769 72.0
235.067917 456.0
235.630936 96.0
235.716492 136.0
235.795944 96.0
236.977142 108.0
241.80571 100.0
242.096725 204.0
242.589371 84.0
245.309433 140.0
246.101883 96.0
249.014221 48.0
251.094604 124.0
253.012634 140.0
254.820404 84.0
260.886353 92.0
263.273926 148.0
263.51297 36.0
265.555603 120.0
267.020416 128.0
269.926117 124.0
272.049225 188.0
273.75238 112.0
274.05542 120.0
276.085724 148.0
284.959167 60.0
290.431458 56.0
295.052521 172.0
297.213715 48.0
298.19931 48.0
298.539673 36.0
299.575684 204.0
303.44989 40.0
309.488129 44.0
313.076935 72.0
321.243439 72.0
324.20752 140.0
325.053833 92.0
340.916931 88.0
341.979828 52.0
346.13678 44.0
380.910034 72.0
389.217163 100.0
395.248077 40.0
411.145477 140.0
412.162628 140.0
439.780609 144.0
446.248718 108.0
447.031097 156.0
501.274109 48.0
502.263855 76.0
507.671143 48.0
508.14212 60.0
510.145111 92.0
523.131958 80.0
525.525757 40.0
529.337952 76.0
538.766968 104.0
541.936157 52.0
554.621582 96.0
565.341187 88.0
573.105042 56.0
574.549683 104.0
588.786865 100.0
593.306274 196.0
618.174866 104.0
634.36731 80.0
669.407593 88.0
688.465942 32.0
707.119446 152.0
710.664612 92.0
724.473206 68.0
752.407166 72.0
767.760254 140.0
831.962891 80.0
833.341248 128.0
851.259399 108.0
854.037415 144.0
918.951721 20.0
921.276123 140.0
922.539124 204.0
933.063538 112.0
950.747192 224.0
951.993408 80.0
959.117981 116.0
971.559937 192.0
972.608643 160.0
983.432861 156.0
986.02478 136.0
1004.030762 180.0
1013.734741 124.0
1029.370972 196.0
1032.25293 188.0
1033.154785 124.0
1051.054932 132.0
1073.225708 156.0
1076.626099 184.0
1079.278564 176.0
1085.623779 216.0
1085.879517 216.0
1093.007324 184.0
1097.156738 180.0
1109.055542 76.0
1116.737671 168.0
1118.108276 184.0
1119.000244 72.0
1120.585449 112.0
1124.920288 184.0
1135.854492 108.0
1138.263916 164.0
1140.669189 164.0
1144.753052 220.0
1146.161011 48.0
1148.338379 36.0
1150.990601 148.0
1152.996948 192.0
1154.822388 220.0
1160.443115 168.0
1161.121216 104.0
1162.437256 156.0
1165.424927 196.0
1169.41687 192.0
1172.297607 244.0
1179.484375 44.0
1180.263794 136.0
1180.47583 212.0
1180.763062 180.0
1185.822632 172.0
1187.104614 232.0
1196.841553 196.0
1198.391357 136.0
1200.431641 132.0
1201.680176 152.0
1203.28833 208.0
1204.58667 332.0
1205.284424 152.0
1206.825806 140.0
1207.39978 144.0
1208.499634 188.0
1208.596436 116.0
1209.51001 160.0
1213.042725 144.0
1214.817993 172.0
1215.824097 220.0
1215.935181 200.0
1217.28894 176.0
1218.365479 48.0
1223.699829 180.0
1226.277344 184.0
1226.514282 160.0
1230.581421 84.0
1232.844604 124.0
1233.837158 76.0
1236.012329 140.0
1237.566284 148.0
1240.75415 172.0
1243.903931 124.0
1244.36731 144.0
1247.402222 128.0
1248.794434 176.0
1249.948242 136.0
1253.116699 120.0
1255.421753 232.0
1256.41626 244.0
1256.698486 152.0
1257.312378 200.0
1258.696045 156.0
1259.190308 200.0
1260.405396 36.0
1262.625122 104.0
1263.403198 112.0
1267.389282 120.0
1268.07666 64.0
1268.927368 168.0
1270.501831 128.0
1270.877808 204.0
1273.909302 132.0
1276.041382 252.0
1281.436279 144.0
1282.355591 200.0
1283.91687 92.0
1284.123779 160.0
1285.093872 60.0
1286.399902 144.0
1286.585571 164.0
1289.721558 104.0
1290.872559 164.0
1293.319336 128.0
1294.178467 156.0
1294.235718 200.0
1295.632324 172.0
1297.42395 60.0
1297.588867 120.0
1301.261719 156.0
1301.441772 176.0
1302.906982 208.0
1304.049438 184.0
1306.393677 156.0
1307.199463 196.0
1308.552612 152.0
1310.576538 192.0
1311.643188 172.0
1313.085205 180.0
1314.32605 120.0
1316.549438 108.0
1318.153076 172.0
1320.806396 168.0
1321.283936 192.0
1321.689087 216.0
1322.419922 180.0
1324.823975 196.0
1326.635742 148.0
1326.817017 212.0
1327.114258 200.0
1327.172241 184.0
1327.397095 44.0
1327.948242 232.0
1328.064209 80.0
1328.789673 36.0
1329.519531 200.0
1329.587891 128.0
1330.320923 160.0
1330.625854 136.0
1331.606201 92.0
1332.165527 176.0
1332.586914 132.0
1332.906616 236.0
1333.706055 124.0
1337.204468 144.0
1338.675049 164.0
1339.731201 136.0
1341.713501 148.0
1342.836426 128.0
1342.967773 172.0
1344.784546 196.0
1345.025391 228.0
1347.347656 152.0
1347.515625 112.0
1348.202515 220.0
1348.275635 60.0
1349.240479 80.0
1349.525635 276.0
1350.542114 124.0
1350.710327 156.0
1350.951782 144.0
1352.445557 140.0
1354.59729 172.0
1355.894165 60.0
1355.945557 216.0
1356.729858 172.0
1358.247803 108.0
1358.511841 228.0
1361.271606 148.0
1362.85083 80.0
1364.614868 152.0
1364.864868 212.0
1366.821411 128.0
1366.946533 152.0
1368.013794 120.0
1369.832642 176.0
1369.928467 124.0
1370.14209 176.0
1372.625977 144.0
1372.810303 144.0
1372.898804 152.0
1377.423218 52.0
1377.691162 180.0
1378.568359 192.0
1379.248413 144.0
1380.327759 128.0
1381.074707 120.0
1382.110474 220.0
1382.695068 136.0
1384.220093 68.0
1385.205078 152.0
1385.597778 84.0
1387.249146 228.0
1387.569092 128.0
1389.571655 136.0
1389.734863 184.0
1390.202393 72.0
1390.254272 168.0
1390.699585 96.0
1390.855469 152.0
1392.437012 64.0
1393.41748 96.0
1397.395142 180.0
1398.950562 176.0
1399.650391 152.0
1402.719971 228.0
1403.584717 184.0
1403.890503 136.0
1403.965088 152.0
1404.032227 172.0
1404.367798 136.0
1406.830322 144.0
1407.62915 36.0
1407.786011 164.0
1410.146851 164.0
1411.14856 208.0
1411.380249 112.0
1412.404907 144.0
1412.936035 212.0
1414.440186 232.0
1414.994141 148.0
1416.570312 204.0
1416.941406 168.0
1417.084717 156.0
1418.575073 176.0
1418.912476 172.0
1419.467285 180.0
1420.434814 180.0
1422.536011 180.0
1423.136597 188.0
1424.721313 172.0
1426.096436 60.0
1427.201538 128.0
1427.359375 116.0
1428.472534 156.0
1428.654541 104.0
1429.209839 160.0
1433.253296 44.0
1433.652588 164.0
1433.916382 188.0
1434.09729 216.0
1434.918945 160.0
1435.748413 224.0
1435.937012 160.0
1437.392944 108.0
1438.645874 348.0
1438.962891 88.0
1439.340454 156.0
1439.914429 172.0
1440.548828 220.0
1440.790649 168.0
1441.327026 176.0
1442.422974 176.0
1443.360352 152.0
1443.579712 144.0
1444.109131 192.0
1444.570557 180.0
1445.137939 72.0
1445.977905 212.0
1446.174683 104.0
1446.37146 180.0
1447.105835 64.0
1448.287109 236.0
1449.037109 160.0
1449.423584 288.0
1450.022217 124.0
1451.204834 172.0
1452.296875 168.0
1452.463745 68.0
1453.685181 168.0
1454.223999 188.0
1454.640869 248.0
1454.747803 44.0
1455.94751 92.0
1456.676636 100.0
1456.729736 68.0
1457.618652 128.0
1457.732666 136.0
1460.758667 232.0
1462.554565 240.0
1463.369019 124.0
1464.016357 84.0
1465.250244 72.0
1465.471191 160.0
1466.728638 124.0
1468.421387 236.0
1468.932373 120.0
1470.389771 124.0
1471.389771 148.0
1473.199707 200.0
1473.367798 160.0
1473.658081 224.0
1474.345825 108.0
1474.85791 136.0
1475.423584 100.0
1475.889893 184.0
1476.364014 48.0
1476.685303 116.0
1477.258911 136.0
1477.526733 188.0
1477.840332 176.0
1477.9552 168.0
1478.330078 164.0
1478.620972 148.0
1478.973022 184.0
1479.271484 172.0
1482.020996 256.0
1482.588013 136.0
1485.026001 172.0
1487.734741 124.0
1487.888306 180.0
1488.011108 176.0
1488.295166 132.0
1488.755981 168.0
1490.369141 132.0
1492.329102 224.0
1492.675049 240.0
1493.36731 204.0
1493.790283 20.0
1494.044189 164.0
1495.013672 196.0
1497.53894 152.0
1498.37854 80.0
1498.93335 148.0
1498.994995 64.0
1501.276733 68.0
1501.43103 44.0
1503.706909 160.0
