>compound Fluocinonide
>formula C26H32F2O7 
>ionization [M+H]+
>parentmass 495.2188862560905
#inchi InChI=1S/C26H32F2O7/c1-13(29)33-12-20(32)26-21(34-22(2,3)35-26)10-15-16-9-18(27)17-8-14(30)6-7-23(17,4)25(16,28)19(31)11-24(15,26)5/h6-8,15-16,18-19,21,31H,9-12H2,1-5H3/t15-,16-,18-,19-,21+,23-,24-,25-,26+/m0/s1
#inchikey WJOHZNCJWYWUJD
#Ion_Source LC-ESI
#Instrument qTof
#Compound_Source Isolated
#PI Sirenas
#Data_Collector Ed Esquenazi 
#Scan -1
#Precursor_MZ 495.221
#ExactMass 0.0
#Charge 1
#CAS_Number N/A
#Pubmed_ID N/A
#Smiles N/A
#INCHI_AUX N/A
#Library_Class 3
#SpectrumID CCMSLIB00000005046
#IonMode Positive
#UpdateWorkflowName UPDATE-SINGLE-ANNOTATED-BRONZE
#LibraryQualityString Bronze
#TaskID d19310cd93df49b68e9fcbec27720eb5
##Scan# 2
#SpectrumFile Fluocinonide.mgf
#LibraryName fda_library.mgf
#MQScore -1
#Organism fda_library
#TIC_Query 0
#RT_Query -1
#MZErrorPPM -1
#SharedPeaks 0
#MassDiff 0
#LibMZ -1
#SpecMZ 495.221
#SpecCharge 0
#internalFilename spec-00000.mgf

>collision 10
101.022285 582.615906
101.34848 4.75
103.037277 62.96524
103.237915 5.019737
103.56237 5.669445
105.069466 114.263397
105.097893 6.564815
107.088829 22.877781
109.041382 24.46368
109.063393 46.27438
111.043076 25.11544
111.076492 36.335781
111.502625 4.59375
113.05822 13.41223
113.320595 3.666667
113.346367 5.840278
113.513252 11.01828
113.568855 6.338542
114.00676 7.081667
115.037964 10.41667
119.083969 59.577499
120.729973 3.490385
121.064568 1087.660034
121.110458 6.816919
121.154457 6.095238
121.26178 7.969086
121.365158 2.722222
121.408112 8.240196
121.560692 6.666667
121.837013 9.04344
123.081192 24.093439
123.833405 10.375
125.058769 108.444801
125.076363 48.013519
126.293213 19.602079
129.053009 23.099211
133.064941 104.677803
133.163193 3.0
133.520721 5.708333
134.438889 18.952921
134.7173 14.02778
135.040527 12.85057
135.080566 160.719498
137.074768 88.733528
137.713074 14.17083
139.053268 85.806709
139.076309 95.99231
139.121689 2.333333
144.237885 2.75
145.064301 219.139694
145.123795 41.85714
147.078033 108.4562
147.095093 3.761364
147.709702 6.266666
149.058533 8.494048
150.515167 4.007576
151.036652 64.251953
151.0737 130.923904
151.478043 4.483333
151.609756 7.102564
153.048157 12.16447
153.065369 12.53086
153.091934 24.36865
154.096588 67.858147
155.06897 6.102564
156.584579 12.00278
157.06398 64.91169
159.082336 166.164001
159.207397 5.763889
159.427261 16.91927
161.057465 125.251198
161.576492 2.777778
162.930389 9.711021
163.074493 41.236111
163.302551 5.415
165.068863 55.5625
167.071869 20.0119
169.049759 33.799999
169.061844 26.120029
169.163956 8.573413
170.070541 14.5873
170.779373 8.816667
171.081406 37.659679
171.395813 7.008333
173.096298 29.408581
175.073349 24.85195
175.26387 6.564103
175.31369 6.833333
175.494156 6.666667
177.068069 136.753204
177.098984 7.973485
178.256363 12.86596
179.077744 180.3237
183.080551 62.446331
184.194504 17.683741
185.059006 32.148811
185.097488 101.7388
185.125793 2.337963
185.362549 9.761363
185.452545 9.05
185.466446 9.005952
185.53334 10.34405
185.647293 8.45
187.075272 253.887894
187.113083 11.51923
187.328812 4.531863
189.075333 73.561562
191.085724 51.425758
193.087921 57.440479
195.078156 255.432297
197.092438 108.358002
197.338974 15.00298
199.076675 70.96772
199.087509 23.832211
201.072144 33.353951
201.085602 37.015308
203.068344 70.231583
204.93158 11.79688
205.067902 24.48245
205.714493 14.73333
207.119247 23.354589
207.988083 19.6
209.094238 114.855499
210.102753 121.971397
211.033539 13.26453
211.108887 307.804596
211.700073 9.706699
213.087662 181.783203
213.129517 73.870201
215.237946 6.003788
217.091003 20.445181
217.105194 8.691667
218.070541 8.231482
219.670044 2.337963
221.080856 74.539192
221.093384 41.129311
221.12648 2.00463
221.189468 5.703947
221.37413 3.027778
221.689194 13.63949
221.830597 9.00085
222.097641 74.457001
222.982056 10.64706
223.077118 54.617802
223.110977 468.996704
223.19754 7.967105
223.462097 27.58696
223.625885 8.371212
225.083786 17.76333
225.12439 83.830978
227.068726 14.41987
227.089478 11.67157
227.104111 66.747177
228.091949 15.77381
229.086166 86.236992
230.890488 6.25
231.079208 56.557289
231.114716 56.184601
233.068085 4.083333
233.095993 56.41935
233.135254 69.443878
233.195572 3.888889
233.261047 3.266667
233.3284 10.20833
235.110214 188.258102
235.143829 5.708333
235.30423 4.670455
235.492355 18.807619
235.752411 8.711957
235.870087 10.13043
235.895386 5.375
236.34584 7.102273
237.084488 11.64031
237.126022 123.054298
237.159531 15.7947
238.100952 10.0
238.796326 6.710784
238.909424 7.656609
239.101868 235.2043
239.33963 7.341667
239.457962 4.347222
239.511856 8.523648
241.085831 187.248703
241.124664 263.142303
243.116852 50.679039
243.131409 40.303761
244.083176 22.75
244.159149 9.375
245.090485 36.962151
245.133163 27.04006
247.111755 238.949493
247.705215 5.813406
248.200729 7.757576
249.090149 43.00404
249.125504 502.063904
249.191223 6.033602
249.207703 2.016667
249.312469 17.343901
249.658234 4.763889
249.985703 10.59259
251.106522 92.451881
251.140427 76.023293
251.205246 3.003205
251.541702 11.34783
251.811234 15.67083
251.933594 12.33333
253.057556 58.388611
253.121628 749.980896
253.169205 21.789471
253.222977 4.297619
253.288864 5.388889
253.349167 2.700758
253.380112 13.48302
253.484085 12.86613
253.575638 12.52365
253.803436 8.004167
254.606522 13.50694
255.096954 27.481991
255.20755 4.09375
255.299942 9.866667
256.084869 10.85256
257.135162 26.22715
257.586761 12.90476
258.100525 84.375099
259.111267 286.020691
259.4711 13.62681
259.804138 17.17729
259.851135 4.630952
261.094971 84.708344
261.125397 268.006897
261.621948 16.73387
263.104889 104.0354
263.143433 262.02771
263.216797 2.0
263.380463 1.675
263.512329 4.013889
263.736328 9.852273
263.770233 10.4
263.939667 12.33426
264.090698 42.282051
265.080231 96.666656
265.122589 65.202217
265.326294 6.001812
265.400024 8.783046
267.093292 25.952841
267.134064 101.120598
267.226318 3.266667
268.078644 35.476589
268.105072 19.40514
268.144501 55.737789
269.094635 40.886608
269.125397 49.014301
269.559052 2.005952
269.919006 5.673611
270.096893 30.020269
271.110077 16.40221
271.458679 5.007576
271.546082 2.520833
271.745331 6.019737
272.118958 38.307381
272.468445 4.120098
273.126465 319.197205
273.53183 5.720238
273.578156 18.29167
273.865631 2.695513
275.108276 64.379433
275.155731 13.06127
275.630157 6.160257
276.112274 41.125
276.236938 8.357558
276.682343 23.438971
277.057007 36.381802
277.119629 488.134613
277.238129 10.33681
277.418396 9.1875
277.481476 5.667929
277.626556 20.375
277.956879 12.66774
278.102844 20.569441
278.519775 7.672222
278.76947 4.355392
279.079865 48.55238
279.097137 36.481709
279.136292 166.050797
279.193665 4.340909
279.269226 9.021258
279.304108 9.020833
279.487091 15.5873
279.759705 11.29412
280.293365 7.403736
280.981079 4.335784
281.133942 231.935303
283.111298 96.436073
283.145752 55.145828
283.230774 10.73016
283.857483 10.35
284.30896 20.430559
285.128448 34.560001
287.097412 28.289289
288.113007 67.146057
289.117889 59.260731
289.163086 15.34205
289.234589 8.45
289.512177 11.3913
290.139404 7.708333
291.136841 1158.863037
291.180206 15.00119
291.21228 2.14881
291.242798 17.72464
291.344147 8.491228
291.522461 9.375
291.904938 6.25926
292.205597 4.375
292.388458 16.3344
292.776978 4.35307
293.108856 79.53257
293.156219 34.34864
293.366577 17.190399
295.091522 48.025379
295.131226 291.91571
295.146423 52.278992
297.126556 80.604858
297.647949 10.24282
299.147705 221.028397
299.843201 7.00463
301.087921 51.750751
301.121155 464.240601
301.237518 6.075
301.477814 8.395833
301.673279 11.66786
301.949432 3.125
303.135406 28.015961
304.109039 33.6465
304.175018 33.888241
306.133545 7.833333
307.13208 166.226898
307.174438 21.888889
308.217041 7.375
308.879089 18.171749
309.147644 778.099915
309.338959 15.93056
309.399719 7.355392
309.675446 1.720238
309.742767 2.020833
309.803986 4.382936
309.938293 2.361111
311.299866 4.44079
311.465637 8.33477
311.580933 4.115741
311.827972 6.04529
312.079803 6.355392
312.313507 6.422222
312.46106 20.373039
313.128845 30.62701
314.084808 6.080883
314.259216 2.761364
315.145996 52.24789
315.605164 10.07843
317.126434 23.522909
317.147827 37.26075
317.349426 1.777778
318.497955 3.668651
319.132629 1358.380981
319.20639 3.669444
319.318024 11.3373
319.395416 32.25515
319.448547 16.53788
319.47995 12.93333
319.545258 4.761905
319.597839 11.09167
320.233582 2.449074
320.645081 10.00556
321.147003 30.254061
321.185944 19.66715
322.777557 9.41565
323.040253 10.05235
323.120819 4.080128
323.146515 10.36687
325.136078 41.71841
327.005127 10.06944
327.167511 19.004869
327.463318 8.377451
327.929382 6.201666
329.071045 3.857143
329.121124 4.681667
329.152222 68.150902
329.961304 5.541667
331.144928 74.223289
331.169983 62.585171
333.128174 16.004169
335.137939 36.108479
335.424408 14.66752
335.513611 8.391666
335.571136 6.25
336.430969 9.708334
337.143372 2296.094971
337.261902 2.020833
337.340332 59.66901
337.376923 13.36794
337.40567 7.25
337.508881 20.620951
337.549469 20.14912
337.578156 21.417061
337.623901 7.815476
337.646454 11.40789
337.807098 6.533333
337.901093 23.326151
337.920593 51.471668
337.952728 33.152321
337.985565 4.297619
338.779907 20.131399
339.032837 3.347222
339.219727 3.0
339.386353 3.003788
339.848602 4.125
340.094666 8.881667
340.245697 6.333333
340.559418 4.354167
341.04834 11.01293
341.145355 112.917
341.314423 14.39126
341.747314 9.966954
341.98703 8.647059
342.130707 16.706699
346.112793 10.63095
347.159973 16.271509
349.161285 39.17387
349.750916 5.573412
350.167938 62.10738
351.131653 13.56609
351.154236 128.740295
352.808685 10.28004
352.945892 12.00798
353.145996 4.630952
355.153625 1606.890991
355.217438 2.00463
357.220062 4.673611
357.380829 6.102564
357.489716 6.001984
357.58905 16.492201
357.792816 53.803101
357.836578 22.16379
357.897827 25.381781
357.926483 18.309959
358.049316 7.37037
359.456573 10.53333
359.651459 5.083333
359.769226 27.232071
361.144897 83.340714
362.110596 10.45581
369.169098 45.47126
371.161865 46.867222
372.906036 3.703704
374.924042 9.016305
375.161133 435.811401
375.200378 2.722222
375.592102 4.59375
375.81604 6.533333
376.711365 11.36742
377.096313 7.667593
379.15799 351.240814
379.328979 11.34347
379.444183 2.016667
379.748779 9.088768
380.129028 3.802778
380.507477 16.8293
381.152618 47.107201
381.235321 4.734848
381.353027 7.080883
381.758606 9.32545
382.55423 4.0
387.113678 17.61714
393.156403 7.625
394.941254 7.408333
395.158356 43.558819
395.182739 55.74239
396.041595 6.380208
397.162903 549.158386
413.19455 207.479599
413.326935 27.56497
413.729889 7.0
416.190918 26.758329
417.167206 161.217606
418.292358 10.35088
418.733612 15.19861
419.159607 49.071308
419.316223 10.91667
433.199158 19.947371
435.187164 3.345238
437.183502 192.297607
438.211456 4.358333
449.245056 10.66667
454.149567 7.337963
455.204285 433.527802
455.938049 18.015551
457.165619 44.31189
457.395172 8.740741
457.690002 9.906746
458.139496 7.344697
458.452301 6.344697
459.149933 76.93721
475.213074 206.883408
495.213287 30.926189
496.104736 8.962963
732.234375 40.664371
