>compound MLS001165699-01!VALDECOXIB
>formula C16H14N2O3S
>ionization [M+H]+
>parentmass 315.080444
#inchi InChI=1S/C16H14N2O3S/c1-11-15(12-7-9-14(10-8-12)22(17,19)20)16(18-21-11)13-5-3-2-4-6-13/h2-10H,1H3,(H2,17,19,20)
#inchikey LNPDTQAFDNKSHK
#Ion_Source LC-ESI
#Instrument qTof
#Compound_Source NIH Pharmacologically Active Library
#PI Dorrestein
#Data_Collector VP/LMS
#Scan -1
#Precursor_MZ 315.077
#ExactMass 314.073
#Charge 1
#CAS_Number N/A
#Pubmed_ID N/A
#Smiles Cc1onc(c1c2ccc(cc2)S(=O)(=O)N)c3ccccc3
#INCHI_AUX N/A
#Library_Class 1
#SpectrumID CCMSLIB00000085955
#IonMode Positive
#UpdateWorkflowName UPDATE-SINGLE-ANNOTATED-GOLD
#LibraryQualityString Gold
#TaskID d252d724072548979f1f6f1ced849daf
##Scan# 1949
#SpectrumFile p4-H07_GH7_01_18415.mzXML
#LibraryName Pharm_Active_Library.mgf
#MQScore -1
#Organism Pharm_Active_Library
#TIC_Query 0
#RT_Query -1
#MZErrorPPM -1
#SharedPeaks 0
#MassDiff 0
#LibMZ -1
#SpecMZ 315.077
#SpecCharge 0
#internalFilename spec-00000.mgf

>collision 10
45.207928 124.0
45.392796 168.0
45.442425 172.0
46.398685 148.0
46.462429 232.0
46.564236 168.0
46.628094 228.0
46.750496 60.0
46.800861 124.0
46.91531 92.0
46.987591 48.0
47.096802 112.0
47.182896 148.0
47.284119 196.0
47.373123 112.0
47.613163 180.0
47.739601 64.0
47.834538 176.0
47.884106 136.0
47.987461 144.0
48.100586 112.0
48.446308 100.0
48.596043 180.0
48.965816 132.0
49.159603 120.0
49.357967 136.0
49.530113 64.0
49.861244 160.0
50.141319 188.0
50.232971 152.0
50.306355 168.0
50.415115 220.0
50.597584 160.0
50.966358 112.0
51.120075 164.0
51.756596 124.0
52.044807 52.0
52.375587 100.0
52.84333 216.0
52.979424 148.0
53.03159 124.0
53.289902 232.0
53.588177 128.0
54.267834 176.0
54.303894 156.0
54.354374 156.0
54.668854 156.0
54.732151 144.0
54.745403 144.0
54.891296 136.0
54.965942 232.0
54.982761 188.0
55.327175 148.0
55.365673 100.0
55.622181 176.0
56.040081 144.0
56.095226 124.0
56.287693 128.0
56.493954 192.0
56.525372 104.0
56.5583 152.0
56.801048 120.0
57.023277 224.0
57.038307 156.0
57.632103 164.0
57.692558 228.0
57.810535 280.0
57.893799 188.0
58.127258 64.0
58.222897 220.0
58.235046 64.0
58.326218 128.0
58.432671 168.0
58.466145 64.0
58.702278 168.0
58.949581 228.0
59.081078 136.0
59.468769 32.0
59.502541 180.0
59.602379 52.0
59.696148 68.0
60.104366 52.0
60.645653 104.0
61.01511 204.0
61.426247 200.0
61.508949 144.0
61.624519 192.0
61.674526 88.0
61.81324 144.0
61.931141 192.0
61.978138 36.0
62.001644 168.0
62.183578 208.0
62.488438 176.0
62.614372 60.0
62.760929 204.0
62.800354 188.0
62.84137 264.0
62.90292 232.0
62.932667 152.0
63.02137 236.0
63.095654 160.0
63.263351 212.0
63.304516 148.0
63.345699 124.0
63.470905 168.0
63.648628 136.0
63.766186 168.0
63.864765 104.0
63.925224 188.0
63.945911 40.0
64.051003 224.0
64.237511 80.0
64.304268 172.0
64.45784 36.0
64.491402 148.0
64.528168 156.0
64.923691 80.0
64.98304 196.0
65.103432 152.0
65.125916 96.0
65.449173 160.0
65.582886 172.0
65.810356 192.0
66.555191 164.0
67.196487 136.0
67.397316 188.0
67.490486 192.0
67.675385 56.0
67.881851 44.0
68.25132 80.0
68.696007 84.0
68.72406 232.0
69.061073 160.0
69.573112 104.0
69.701004 168.0
69.815712 188.0
70.345566 152.0
70.373947 176.0
70.404007 72.0
70.920998 52.0
71.139069 128.0
71.330574 200.0
71.38942 140.0
71.446609 168.0
71.572838 184.0
71.842514 188.0
71.864441 184.0
71.886383 200.0
72.5952 112.0
73.006172 92.0
73.035088 76.0
73.568459 152.0
73.805946 180.0
74.288933 136.0
74.489784 168.0
74.752838 180.0
74.871628 184.0
74.919853 188.0
75.121559 292.0
75.192307 144.0
75.326981 156.0
75.475616 92.0
75.653824 188.0
75.776787 172.0
75.830513 28.0
75.910263 184.0
76.63163 52.0
76.713539 124.0
77.389671 44.0
77.627983 200.0
77.761314 168.0
77.929901 172.0
78.501984 176.0
78.667839 160.0
78.697853 172.0
78.72081 164.0
79.010689 92.0
79.047852 180.0
79.131042 156.0
79.192169 216.0
79.53701 132.0
79.620461 152.0
79.751938 40.0
79.879967 120.0
79.926224 164.0
80.116737 172.0
80.147026 256.0
80.409172 192.0
80.468079 128.0
80.484154 80.0
80.578819 84.0
80.593109 28.0
80.668175 168.0
80.696777 160.0
81.690353 148.0
81.735329 96.0
81.852333 168.0
82.032509 152.0
82.416931 80.0
82.599533 196.0
82.889214 60.0
82.956268 56.0
83.100342 164.0
83.1558 188.0
83.172134 144.0
83.313782 212.0
83.969086 84.0
84.01651 188.0
84.0895 84.0
84.242882 88.0
84.277596 224.0
84.306839 148.0
84.50798 112.0
84.733185 60.0
84.788162 132.0
84.876152 68.0
84.929337 44.0
85.076141 176.0
85.1147 200.0
85.177139 108.0
85.223068 180.0
85.955933 116.0
86.207077 184.0
86.299507 164.0
86.686378 92.0
87.003548 172.0
87.098259 120.0
87.200455 152.0
87.501808 308.0
87.661995 168.0
87.94735 144.0
88.160263 268.0
88.345375 136.0
88.410866 132.0
88.77243 140.0
89.037041 192.0
89.303925 224.0
89.510948 116.0
89.721977 168.0
89.804947 172.0
90.343307 72.0
90.634888 168.0
90.653831 204.0
90.868103 172.0
90.90036 60.0
91.054131 36.0
91.073128 144.0
91.156723 132.0
91.200432 124.0
92.20871 168.0
92.913757 104.0
93.009338 88.0
93.197548 192.0
93.262886 104.0
93.3321 184.0
93.516785 156.0
93.936852 212.0
94.251549 176.0
94.390732 72.0
94.648087 144.0
94.942642 140.0
95.105621 184.0
95.134743 184.0
95.185219 136.0
95.581772 124.0
95.677139 176.0
95.770615 64.0
95.891418 136.0
96.113739 200.0
96.23671 164.0
96.333664 192.0
96.568924 108.0
96.799858 212.0
96.925224 236.0
96.956581 156.0
96.976181 224.0
97.254707 72.0
97.421616 144.0
97.449127 128.0
97.929123 40.0
98.076904 168.0
98.092674 180.0
98.331345 164.0
98.358978 156.0
98.501152 156.0
98.825378 44.0
98.868919 156.0
98.965912 116.0
99.068901 148.0
99.302803 36.0
99.554855 192.0
100.207306 132.0
100.273064 128.0
100.548294 152.0
100.680061 144.0
100.863884 196.0
100.971855 32.0
101.540649 224.0
101.659019 168.0
101.699158 156.0
102.010513 224.0
102.042526 160.0
102.074844 140.0
102.193443 256.0
102.316299 196.0
102.437126 200.0
102.959084 136.0
103.054771 4604.0
103.135887 92.0
103.210121 160.0
103.363853 148.0
103.760849 144.0
103.866302 160.0
104.028641 48.0
104.059433 1560.0
104.103767 204.0
104.414711 160.0
104.764816 96.0
104.954369 108.0
104.976799 168.0
104.995148 232.0
105.038078 180.0
105.054123 368.0
105.063614 128.0
105.07003 440.0
105.156334 140.0
105.321716 216.0
105.657509 184.0
105.744965 232.0
105.759293 132.0
106.066963 196.0
106.337296 112.0
106.750237 60.0
107.05275 144.0
107.446442 120.0
108.014557 180.0
108.310562 200.0
108.486702 200.0
109.056641 168.0
109.182297 180.0
109.253021 40.0
109.436172 148.0
110.072151 156.0
110.446251 144.0
110.569695 124.0
110.632492 80.0
110.801712 120.0
111.753242 188.0
111.902679 168.0
112.284096 164.0
112.429665 36.0
112.583778 132.0
112.705017 256.0
112.763359 112.0
113.173767 172.0
113.398323 136.0
114.047813 108.0
114.386024 152.0
114.633095 204.0
114.824959 196.0
115.054474 412.0
115.288246 64.0
115.427193 172.0
115.900261 164.0
116.052444 336.0
116.067764 168.0
116.657883 172.0
116.771851 76.0
116.819176 180.0
117.198097 136.0
117.385628 156.0
117.687729 136.0
117.931847 68.0
118.037781 140.0
118.087517 200.0
118.109146 164.0
118.340714 124.0
118.364532 168.0
118.923866 76.0
119.0448 392.0
119.427963 84.0
119.953987 216.0
120.083565 140.0
120.123734 152.0
120.282127 188.0
120.817528 188.0
120.880981 64.0
121.060486 300.0
121.503258 152.0
121.564697 176.0
122.001793 124.0
122.303162 260.0
122.338387 92.0
122.763634 144.0
122.7901 156.0
122.834213 168.0
122.862892 144.0
123.134399 148.0
123.395157 168.0
123.459282 168.0
123.649544 168.0
123.735878 152.0
123.837746 228.0
123.910843 180.0
124.549751 180.0
124.574188 168.0
124.874268 152.0
125.537949 124.0
125.718643 148.0
125.79007 140.0
125.857048 136.0
125.993286 80.0
126.16761 64.0
126.29731 112.0
126.366661 156.0
126.491989 124.0
127.110573 144.0
127.144234 116.0
127.319351 40.0
127.355286 52.0
127.605873 228.0
128.045792 152.0
128.061554 160.0
128.417679 92.0
128.458282 152.0
128.941483 92.0
128.995728 116.0
129.045471 172.0
129.154022 236.0
129.661194 216.0
129.760925 144.0
129.851639 140.0
129.917419 304.0
129.935577 188.0
130.044678 200.0
130.066422 176.0
130.212509 132.0
130.344269 172.0
130.444275 192.0
130.587524 160.0
130.806595 176.0
130.835556 56.0
130.910706 160.0
130.965363 136.0
131.048981 16560.0
131.085526 276.0
131.165878 48.0
131.224823 28.0
131.264526 172.0
131.320938 124.0
131.364273 92.0
131.391647 100.0
131.419617 92.0
131.629028 72.0
131.693573 228.0
131.775223 44.0
131.791855 112.0
131.836914 148.0
131.910049 156.0
131.960342 92.0
131.994644 112.0
132.010651 112.0
132.057129 17176.0
132.114456 260.0
132.157059 84.0
132.177643 28.0
132.206375 180.0
132.222885 120.0
132.262894 48.0
132.603607 152.0
132.764099 208.0
132.814545 28.0
132.991226 192.0
133.023361 276.0
133.061279 2324.0
133.096832 60.0
133.167358 68.0
133.32196 152.0
133.459885 136.0
133.726746 248.0
133.772781 132.0
133.822906 160.0
133.876389 52.0
133.924759 112.0
134.030731 184.0
134.062454 188.0
134.159805 160.0
134.203613 156.0
134.314316 116.0
134.450439 92.0
134.65361 132.0
134.748322 156.0
134.829193 120.0
134.921661 100.0
135.018768 200.0
135.206177 144.0
135.720444 296.0
136.558792 68.0
136.819427 164.0
137.348419 120.0
137.497742 100.0
137.567764 52.0
138.538269 120.0
138.646057 144.0
138.721069 96.0
138.770294 152.0
138.901627 188.0
139.009552 108.0
139.051987 376.0
139.669754 96.0
140.102905 96.0
140.555588 108.0
140.576828 132.0
140.966751 208.0
141.073975 200.0
141.564987 144.0
141.60524 36.0
141.621826 136.0
142.095947 160.0
142.758667 196.0
142.806229 60.0
143.573135 136.0
144.883026 128.0
144.940521 220.0
145.19223 248.0
145.506577 192.0
146.56488 108.0
146.752899 244.0
147.045242 496.0
147.919785 112.0
148.07428 468.0
148.222534 176.0
148.700287 68.0
149.0578 168.0
149.103455 220.0
149.370911 196.0
150.057678 320.0
150.860901 148.0
151.98999 132.0
152.063797 676.0
152.144623 120.0
152.39267 220.0
152.992783 100.0
153.070312 432.0
153.808746 44.0
153.826019 164.0
153.984055 32.0
154.08287 124.0
154.924026 148.0
155.052872 188.0
155.174332 112.0
155.2388 112.0
155.360336 64.0
155.422363 204.0
155.464554 168.0
156.043274 244.0
156.088074 168.0
156.351776 136.0
156.463791 168.0
156.842438 132.0
157.055588 232.0
157.878601 108.0
158.09375 124.0
158.314056 208.0
158.361633 192.0
158.386688 200.0
158.439285 180.0
158.501923 176.0
159.055023 200.0
159.279678 92.0
159.505829 240.0
159.553604 152.0
159.712021 172.0
159.966171 184.0
159.988831 136.0
160.016525 172.0
160.379288 212.0
160.830795 192.0
161.007538 156.0
161.083313 92.0
161.141418 116.0
161.687622 128.0
163.05368 388.0
164.274292 92.0
164.45546 60.0
164.532043 40.0
164.649506 116.0
165.06958 9788.0
165.168365 36.0
165.214722 168.0
165.380737 72.0
165.414017 36.0
165.7444 36.0
166.07196 752.0
166.098206 208.0
166.16748 48.0
166.675873 40.0
166.722122 116.0
167.07074 328.0
167.14386 56.0
167.213348 124.0
167.762833 148.0
167.816147 40.0
167.862564 52.0
168.053741 332.0
168.080658 168.0
168.192795 116.0
168.626724 176.0
168.991348 128.0
169.075455 132.0
169.164749 236.0
169.309753 172.0
169.519592 112.0
170.604538 196.0
170.730499 176.0
170.960892 144.0
171.831207 132.0
172.457947 116.0
175.200165 108.0
175.809265 148.0
176.504028 136.0
176.641556 128.0
177.055374 300.0
177.865799 40.0
178.076218 408.0
178.452911 128.0
179.074127 336.0
179.496704 132.0
179.896912 176.0
180.080353 952.0
180.653198 68.0
181.066498 452.0
181.077377 272.0
181.204697 56.0
182.020111 76.0
182.074081 164.0
182.097992 232.0
182.28067 132.0
182.68129 212.0
183.5 176.0
184.417847 172.0
185.029205 152.0
185.113144 92.0
185.641586 84.0
185.695831 188.0
185.828751 104.0
186.070312 84.0
188.251373 172.0
189.038681 204.0
189.062485 188.0
189.263138 80.0
189.369949 116.0
189.756332 168.0
190.063019 776.0
190.104691 144.0
190.563263 44.0
190.730896 108.0
190.90686 180.0
190.964615 40.0
191.072403 3480.0
191.298233 148.0
191.46553 44.0
191.495819 260.0
191.575714 64.0
191.826477 44.0
191.889893 96.0
192.027771 264.0
192.080063 4084.0
192.416855 72.0
192.509369 40.0
192.665421 240.0
192.698578 92.0
192.720688 132.0
192.90033 180.0
193.088287 4700.0
193.179916 156.0
193.423141 92.0
193.539413 44.0
193.680664 48.0
193.724991 88.0
193.833038 76.0
193.943893 156.0
194.032608 196.0
194.064255 328.0
194.094543 1116.0
194.157394 76.0
194.293304 60.0
194.429657 88.0
194.490326 32.0
195.021713 196.0
195.070892 216.0
195.098694 108.0
195.335068 132.0
195.42131 48.0
195.454712 128.0
195.763702 216.0
195.994904 188.0
196.025558 156.0
196.045059 196.0
196.070969 108.0
196.335007 104.0
196.407516 144.0
197.06781 172.0
197.088226 184.0
197.418579 56.0
198.079117 208.0
198.118332 148.0
198.359329 80.0
200.210953 64.0
200.8564 148.0
200.941025 52.0
202.957718 152.0
203.147736 104.0
203.264069 116.0
203.644485 64.0
204.079514 788.0
204.17598 56.0
205.015823 120.0
205.064178 132.0
205.085144 184.0
205.232468 136.0
205.617584 76.0
206.096786 928.0
206.386032 64.0
206.846649 60.0
207.07724 268.0
207.096756 264.0
207.187424 64.0
207.993256 136.0
208.019089 112.0
208.077133 2796.0
208.145416 224.0
208.932953 128.0
209.075485 380.0
210.090073 248.0
210.298859 84.0
210.656921 208.0
210.830276 52.0
211.518661 160.0
211.576553 44.0
212.033371 512.0
212.121185 156.0
213.392761 92.0
213.689438 120.0
213.9077 168.0
215.324783 148.0
216.083679 352.0
216.608856 184.0
217.060211 44.0
217.085907 188.0
217.236176 184.0
218.07106 1224.0
218.196518 164.0
218.255325 32.0
218.740768 124.0
219.069092 1088.0
219.25032 32.0
219.318115 32.0
219.465515 160.0
219.53923 148.0
219.589371 88.0
219.676437 176.0
219.813583 136.0
219.854904 100.0
219.934586 108.0
219.973648 208.0
220.002319 144.0
220.075272 19020.0
220.158981 164.0
220.197372 68.0
220.226898 44.0
220.27121 152.0
220.291885 56.0
220.321426 68.0
220.366638 40.0
220.55957 200.0
220.627884 92.0
220.652435 40.0
220.75705 96.0
220.785507 68.0
220.841705 52.0
220.912689 64.0
220.968903 96.0
220.998489 64.0
221.019211 72.0
221.077698 3008.0
221.128708 52.0
221.164215 152.0
221.193817 84.0
221.23822 40.0
221.30336 52.0
221.37146 60.0
221.412933 120.0
221.540298 64.0
221.584137 60.0
221.795135 36.0
221.845535 104.0
221.884079 136.0
222.073593 420.0
222.32605 96.0
222.379471 124.0
222.49057 112.0
222.640732 76.0
222.709045 40.0
223.092377 120.0
223.505798 80.0
223.842163 92.0
224.072021 644.0
224.157928 52.0
225.072357 364.0
226.111038 152.0
226.391602 84.0
229.047562 48.0
231.999985 72.0
232.034897 124.0
232.043762 64.0
232.163727 28.0
232.50351 80.0
232.661346 112.0
232.910355 68.0
233.082352 660.0
234.089493 2992.0
234.382858 120.0
235.050644 140.0
235.092651 452.0
235.355896 56.0
235.722458 84.0
236.098709 360.0
236.144348 180.0
236.361557 108.0
236.621719 124.0
236.768707 96.0
237.059753 152.0
237.117981 204.0
237.820343 48.0
238.084396 124.0
240.044708 132.0
240.467361 100.0
244.036072 172.0
246.064392 140.0
247.41188 144.0
249.070786 132.0
250.085495 280.0
250.924377 212.0
251.05632 496.0
251.089996 84.0
251.233444 80.0
252.057678 148.0
252.348312 96.0
252.832291 40.0
253.449799 160.0
255.052505 148.0
255.405457 48.0
256.064331 196.0
257.065369 176.0
257.598572 76.0
260.061005 268.0
265.077393 280.0
266.075562 180.0
266.146515 128.0
267.09787 284.0
267.150787 40.0
272.062164 312.0
273.067322 280.0
274.085449 128.0
284.076721 144.0
285.016815 112.0
292.981598 68.0
298.98761 116.0
299.048218 204.0
300.05545 204.0
302.138031 80.0
314.064362 128.0
314.202271 116.0
314.251678 132.0
315.080444 688.0
317.055847 148.0
317.112579 224.0
317.215363 136.0
317.974426 128.0
320.527832 100.0
334.073425 72.0
355.108704 104.0
367.899139 116.0
381.72818 64.0
395.515442 88.0
401.590881 56.0
437.357666 80.0
442.312439 64.0
443.912903 124.0
492.316925 128.0
512.408569 116.0
521.618164 140.0
536.206055 88.0
573.687134 60.0
583.251648 72.0
649.233398 68.0
657.3526 144.0
674.93634 128.0
703.559448 172.0
735.516479 132.0
736.213013 128.0
743.662781 104.0
752.137817 156.0
782.325867 52.0
783.723816 36.0
822.482361 212.0
823.801514 60.0
830.401428 140.0
842.738159 116.0
845.184021 36.0
848.729004 168.0
858.924133 176.0
861.767273 140.0
864.568298 196.0
871.928589 236.0
879.874939 224.0
888.14209 256.0
919.96637 168.0
920.461487 236.0
923.743347 200.0
937.672607 84.0
941.223083 132.0
945.447266 112.0
963.902466 152.0
976.052185 64.0
984.614685 80.0
987.452209 88.0
994.626526 188.0
997.666931 64.0
1003.421265 208.0
1006.651917 136.0
1007.188782 36.0
1022.214844 180.0
1027.682129 140.0
1040.13623 164.0
1041.047974 124.0
1051.593628 140.0
1061.154785 224.0
1066.647095 100.0
1067.011108 72.0
1072.459839 176.0
1081.159546 168.0
1081.310059 212.0
1088.482056 172.0
1100.565186 84.0
1104.252686 236.0
1115.784424 100.0
1117.393921 176.0
1120.256714 168.0
1124.951416 188.0
1127.416138 208.0
1127.864014 152.0
1134.243164 148.0
1135.845825 164.0
1139.141724 44.0
1145.694214 124.0
1154.725952 204.0
1157.358521 104.0
1160.719482 204.0
1161.886108 132.0
1163.793335 172.0
1173.543701 176.0
1177.576782 132.0
1178.198364 228.0
1179.544678 244.0
1179.7771 48.0
1179.906982 160.0
1184.820923 196.0
1187.213135 136.0
1187.871582 168.0
1189.436157 144.0
1190.09729 176.0
1194.356201 164.0
1197.474121 160.0
1198.693604 296.0
1201.196289 204.0
1201.644775 176.0
1204.634155 52.0
1204.806763 248.0
1210.637817 192.0
1211.510498 112.0
1212.88269 116.0
1217.12854 92.0
1234.263306 172.0
1248.569336 140.0
1249.72998 156.0
1249.814453 228.0
1255.82373 96.0
1261.882812 220.0
1265.20105 204.0
1267.091919 200.0
1272.468018 140.0
1281.322754 132.0
1281.465332 180.0
1281.557861 140.0
1284.866211 216.0
1287.314453 156.0
1289.021729 132.0
1289.357666 128.0
1294.114746 212.0
1294.78064 204.0
1297.0448 164.0
1298.012695 124.0
1301.514526 144.0
1302.692383 200.0
1304.258911 128.0
1306.186035 240.0
1307.905762 148.0
1311.521729 160.0
1312.091187 276.0
1313.656128 156.0
1316.362793 196.0
1320.113403 172.0
1321.704834 176.0
1323.116211 56.0
1326.10791 200.0
1326.441406 160.0
1332.07251 72.0
1338.057739 164.0
1339.630859 132.0
1341.489136 180.0
1341.926514 124.0
1347.188599 204.0
1354.855591 128.0
1359.210815 144.0
1367.795044 180.0
1374.073853 184.0
1379.213745 168.0
1383.430298 84.0
1385.296509 136.0
1385.578003 128.0
1387.119385 156.0
1387.31958 168.0
1389.643555 152.0
1394.111206 156.0
1400.107422 136.0
1404.049927 52.0
1406.59436 140.0
1409.07373 184.0
1409.536987 100.0
1412.09375 200.0
1412.894165 92.0
1413.103638 60.0
1418.038574 132.0
1422.126343 312.0
1422.741821 136.0
1423.162354 176.0
1428.513428 144.0
1428.581177 116.0
1431.094849 60.0
1431.727417 204.0
1431.900635 140.0
1433.399902 172.0
1434.432373 172.0
1437.456787 180.0
1438.536133 132.0
1442.358521 96.0
1445.474487 140.0
1446.20105 248.0
1447.344238 172.0
1455.024902 204.0
1455.510864 156.0
1456.217163 32.0
1458.086182 68.0
1458.200195 172.0
1458.519409 148.0
1458.5802 240.0
1459.606689 104.0
1461.797485 52.0
1463.00769 116.0
1466.145874 148.0
1468.524048 168.0
1468.796753 200.0
1471.508423 196.0
1475.80249 196.0
1477.745239 96.0
1479.444336 128.0
1482.262939 84.0
1485.92041 208.0
1487.025391 200.0
1496.411621 148.0
1497.805542 204.0
1498.753174 156.0
1498.891846 156.0
1500.125 136.0
1500.533569 156.0
1503.78125 172.0
1504.360229 128.0
