>compound MLS000862188-01!SC 19220
>formula C16H14ClN3O3
>ionization [M+H]+
>parentmass 332.07964544009053
#inchi InChI=1S/C16H14ClN3O3/c1-10(21)18-19-16(22)20-9-11-4-2-3-5-14(11)23-15-7-6-12(17)8-13(15)20/h2-8H,9H2,1H3,(H,18,21)(H,19,22)
#inchikey KNURFLJTOUGOOQ
#Ion_Source LC-ESI
#Instrument qTof
#Compound_Source NIH Pharmacologically Active Library
#PI Dorrestein
#Data_Collector VP/LMS
#Scan -1
#Precursor_MZ 332.083
#ExactMass 331.072
#Charge 1
#CAS_Number N/A
#Pubmed_ID N/A
#Smiles CC(=O)NNC(=O)N1Cc2ccccc2Oc3ccc(Cl)cc13
#INCHI_AUX N/A
#Library_Class 1
#SpectrumID CCMSLIB00000084824
#IonMode Positive
#UpdateWorkflowName UPDATE-SINGLE-ANNOTATED-GOLD
#LibraryQualityString Gold
#TaskID d252d724072548979f1f6f1ced849daf
##Scan# 1882
#SpectrumFile p3-B03_GB3_01_18236.mzXML
#LibraryName Pharm_Active_Library.mgf
#MQScore -1
#Organism Pharm_Active_Library
#TIC_Query 0
#RT_Query -1
#MZErrorPPM -1
#SharedPeaks 0
#MassDiff 0
#LibMZ -1
#SpecMZ 332.083
#SpecCharge 0
#internalFilename spec-00000.mgf

>collision 10
44.967766 160.0
45.805809 68.0
46.178352 124.0
46.776741 68.0
47.778488 188.0
47.807384 40.0
47.99197 92.0
48.431438 128.0
49.544472 172.0
50.755196 152.0
51.049137 160.0
51.128803 156.0
51.376736 116.0
51.759781 172.0
51.918846 188.0
52.299583 188.0
52.411179 180.0
52.502731 240.0
52.583523 132.0
52.934826 128.0
53.065231 124.0
53.176929 164.0
53.458874 236.0
53.563702 176.0
53.991356 184.0
54.134769 196.0
54.344383 140.0
54.622044 180.0
54.776608 140.0
55.655098 124.0
56.681343 184.0
56.723309 44.0
56.852295 200.0
56.92886 152.0
57.046051 240.0
57.363682 180.0
57.488869 92.0
58.600349 152.0
59.021618 128.0
59.570293 104.0
59.668648 276.0
59.764008 176.0
60.858337 220.0
61.435745 116.0
61.876457 140.0
62.037823 52.0
62.342319 100.0
63.135284 168.0
63.176407 144.0
63.328369 236.0
63.464653 72.0
63.782166 188.0
64.496262 140.0
64.561813 200.0
64.749062 116.0
65.058525 160.0
65.428284 164.0
65.933151 292.0
66.012367 168.0
66.547081 168.0
66.755066 120.0
66.790848 152.0
68.387833 128.0
68.644836 124.0
68.783424 216.0
68.823044 180.0
68.989914 204.0
69.209961 172.0
69.289459 168.0
69.707588 236.0
70.347145 200.0
70.400574 92.0
70.738312 124.0
70.857216 140.0
71.839005 240.0
72.007797 132.0
72.281662 192.0
72.853035 160.0
73.554619 100.0
73.715164 164.0
74.124138 120.0
74.22184 164.0
74.348785 144.0
74.389977 148.0
74.821472 56.0
75.097183 172.0
75.625885 132.0
75.996735 168.0
76.047066 60.0
76.08004 148.0
76.43808 208.0
76.929573 80.0
77.298355 156.0
77.550537 120.0
77.813667 108.0
77.903236 164.0
78.033287 124.0
78.066689 248.0
78.434662 124.0
79.100594 112.0
79.538422 148.0
80.014839 132.0
80.39093 56.0
80.449829 200.0
81.172661 32.0
81.371819 192.0
82.023041 236.0
82.114998 184.0
82.302673 152.0
82.631622 132.0
82.751076 108.0
83.797218 228.0
84.28804 44.0
84.304482 144.0
84.454399 184.0
84.760132 180.0
84.886612 224.0
85.15638 108.0
85.402672 176.0
86.278572 220.0
86.472794 200.0
86.532028 220.0
86.741364 108.0
86.908272 200.0
86.95652 256.0
87.296494 220.0
87.417412 128.0
87.577515 144.0
87.941093 140.0
88.410194 104.0
88.434525 244.0
88.97438 176.0
89.404816 192.0
89.617599 104.0
90.622765 148.0
90.658768 176.0
90.960327 184.0
91.435493 152.0
91.504021 168.0
92.404854 132.0
92.855003 136.0
93.288948 40.0
93.716194 212.0
94.548462 152.0
95.009178 176.0
95.364967 44.0
95.656731 124.0
95.680092 180.0
95.820312 112.0
95.919701 180.0
96.66185 196.0
98.093605 216.0
98.496147 200.0
98.63842 164.0
99.003304 236.0
99.028206 112.0
99.107445 176.0
99.16095 72.0
99.351311 200.0
99.855835 136.0
99.881065 152.0
100.479317 136.0
100.938698 60.0
101.036613 344.0
101.21283 212.0
101.32299 160.0
101.792328 164.0
102.031425 112.0
102.272812 188.0
102.59713 260.0
102.837166 124.0
102.875519 228.0
103.057281 256.0
103.320114 68.0
103.451653 88.0
103.546822 120.0
103.889374 100.0
104.883736 188.0
105.983498 196.0
106.175896 180.0
106.2817 104.0
106.547417 168.0
106.676888 128.0
107.053398 40.0
107.125488 208.0
108.031723 164.0
108.106209 156.0
108.329819 112.0
108.545357 236.0
108.572319 124.0
108.972939 192.0
109.291046 108.0
109.617958 168.0
109.647133 140.0
110.875992 92.0
110.993385 180.0
111.010162 68.0
111.614914 164.0
111.995827 112.0
112.916046 216.0
113.049324 180.0
113.417831 172.0
113.578979 136.0
113.890999 148.0
114.371529 172.0
114.405586 140.0
114.642006 240.0
115.58371 136.0
118.904572 212.0
120.280136 136.0
121.08036 140.0
121.310425 184.0
121.499016 160.0
121.520958 176.0
121.567039 144.0
122.682159 212.0
122.737274 156.0
123.267036 184.0
123.322289 232.0
123.822296 44.0
124.032784 136.0
124.349953 184.0
124.520905 88.0
125.01667 128.0
125.393036 152.0
126.01561 188.0
126.062531 208.0
126.096054 60.0
126.14299 204.0
126.192177 152.0
127.005066 192.0
127.090317 44.0
127.263138 184.0
127.404633 188.0
127.975876 176.0
128.988815 180.0
129.058899 136.0
129.359787 172.0
129.989853 212.0
130.151016 176.0
130.235031 156.0
130.915039 224.0
131.051712 116.0
131.13147 172.0
131.774963 184.0
131.816101 164.0
132.280365 140.0
134.10022 160.0
134.669418 92.0
135.1595 168.0
135.37709 120.0
136.558365 128.0
136.919098 176.0
137.084488 60.0
137.366608 196.0
137.613968 96.0
138.009964 372.0
138.025146 160.0
138.057938 164.0
138.081329 116.0
138.177231 216.0
138.263809 192.0
138.499786 212.0
138.760391 164.0
138.915161 88.0
139.007736 204.0
139.053345 148.0
139.185059 120.0
139.427017 156.0
139.760925 148.0
139.857422 164.0
139.946869 156.0
140.008102 172.0
140.026932 168.0
140.046875 120.0
140.217773 148.0
140.760345 64.0
140.998932 168.0
141.072205 184.0
141.173874 196.0
142.465622 156.0
142.784119 148.0
142.904816 200.0
142.972061 220.0
143.994812 160.0
145.133881 192.0
145.160263 160.0
145.239395 144.0
145.277786 124.0
145.563385 140.0
145.798813 116.0
146.058472 136.0
147.08252 120.0
148.020554 48.0
150.044479 156.0
150.300568 168.0
151.05484 356.0
151.297745 52.0
151.336914 156.0
151.439774 60.0
151.542648 132.0
151.75589 176.0
151.782852 156.0
152.060028 316.0
152.199982 52.0
152.583267 60.0
153.065506 188.0
153.842133 88.0
153.879166 156.0
154.005493 232.0
155.073944 128.0
155.108643 52.0
155.168335 156.0
155.314453 264.0
155.503021 236.0
155.902863 128.0
156.04454 128.0
156.223587 140.0
156.696594 140.0
157.008179 148.0
157.434921 136.0
157.667252 64.0
159.112518 144.0
159.215469 132.0
159.396332 200.0
159.635147 128.0
159.924454 76.0
159.982346 204.0
160.455963 168.0
160.524048 184.0
160.660233 168.0
162.005127 56.0
162.491867 184.0
162.730438 108.0
163.971771 100.0
164.030396 240.0
164.048248 168.0
164.563583 160.0
165.655579 192.0
165.778564 64.0
165.909286 156.0
166.004715 1332.0
166.061478 912.0
166.088959 168.0
166.353073 120.0
166.931564 124.0
166.992874 240.0
167.012741 180.0
167.072144 1116.0
167.162674 104.0
167.288773 104.0
167.998825 216.0
168.061508 332.0
168.080627 532.0
168.193542 56.0
168.988708 184.0
169.003281 192.0
169.069229 132.0
169.088333 640.0
169.582489 88.0
169.693954 124.0
169.963699 100.0
170.860062 168.0
171.09819 176.0
171.654449 176.0
171.675308 116.0
171.753555 128.0
171.842239 156.0
172.12413 36.0
172.440231 188.0
172.463745 60.0
172.910995 96.0
173.872803 100.0
173.946289 48.0
174.250916 152.0
175.032928 312.0
175.095276 144.0
175.240158 96.0
175.472092 156.0
175.999771 128.0
176.020889 120.0
176.298264 48.0
176.499161 156.0
176.91983 160.0
177.058105 712.0
178.012177 168.0
178.065369 588.0
178.838989 212.0
178.988068 156.0
179.009369 116.0
179.07222 2596.0
179.182495 52.0
179.377029 132.0
179.683701 104.0
180.006668 172.0
180.030899 156.0
180.078339 564.0
180.108002 156.0
180.503677 176.0
180.624023 104.0
180.749756 248.0
180.886246 160.0
181.064865 1132.0
181.095108 128.0
181.328186 56.0
181.553391 96.0
181.615067 68.0
181.883392 68.0
181.939758 188.0
182.068542 184.0
182.24324 200.0
184.458496 116.0
184.612595 120.0
185.457275 176.0
186.083908 40.0
186.230545 80.0
187.030899 492.0
187.931946 232.0
188.494415 52.0
189.868622 124.0
190.041931 224.0
190.64003 188.0
191.724289 204.0
192.110291 112.0
192.524307 188.0
192.935989 124.0
194.010117 184.0
194.055771 540.0
194.548294 116.0
194.987152 224.0
195.034409 116.0
195.066193 948.0
195.115021 52.0
195.635239 164.0
195.729889 148.0
195.87471 168.0
195.963867 212.0
195.988937 164.0
196.022369 236.0
196.075562 8540.0
196.1091 232.0
196.197968 100.0
196.217484 164.0
196.239777 80.0
196.26767 96.0
196.321991 116.0
196.393158 176.0
196.58844 104.0
196.697296 96.0
196.848343 76.0
196.990494 44.0
197.037979 160.0
197.082642 8876.0
197.19725 56.0
197.27153 84.0
197.38736 48.0
197.541168 60.0
197.630463 48.0
197.692261 60.0
197.714645 76.0
197.73703 80.0
197.829407 64.0
198.085922 1412.0
198.142456 132.0
198.238312 156.0
198.288757 120.0
198.45134 108.0
198.529861 104.0
198.656067 160.0
198.731812 164.0
199.074265 108.0
199.096725 336.0
199.209076 104.0
199.310211 64.0
199.565048 60.0
199.60733 124.0
200.010468 40.0
200.25824 176.0
201.036346 120.0
201.188766 148.0
201.259338 240.0
201.832916 92.0
202.004089 176.0
202.044891 448.0
202.107285 104.0
202.97403 172.0
203.022232 152.0
203.044922 280.0
203.34848 36.0
204.015991 140.0
204.057663 168.0
204.260544 104.0
205.902252 116.0
206.050781 92.0
206.445221 124.0
207.066238 152.0
208.371384 36.0
209.369492 100.0
209.409805 100.0
210.144882 252.0
211.060364 188.0
211.254242 156.0
211.500198 152.0
212.024719 524.0
212.270828 152.0
212.404236 48.0
212.659561 132.0
213.042847 148.0
213.531174 92.0
213.662064 172.0
214.006104 224.0
214.042038 6560.0
214.116135 32.0
214.220993 64.0
214.328781 76.0
214.503647 156.0
214.993637 152.0
215.045532 1224.0
215.094467 88.0
215.468887 208.0
216.037796 2412.0
216.124481 48.0
216.440598 136.0
216.50502 60.0
216.657333 92.0
216.759872 124.0
216.929855 148.0
217.034607 376.0
217.108719 96.0
217.258301 120.0
217.498917 108.0
217.757294 60.0
218.030518 100.0
218.071655 228.0
218.483322 52.0
218.765839 100.0
220.063599 176.0
221.062057 184.0
221.141968 116.0
222.055145 6176.0
222.152374 28.0
222.226532 36.0
222.309616 64.0
222.832199 208.0
222.939178 160.0
223.060593 3344.0
223.825623 128.0
223.891129 136.0
224.065262 1184.0
224.418549 136.0
224.463272 56.0
224.642227 48.0
224.898834 104.0
225.057053 40.0
225.203384 120.0
225.538025 84.0
225.558945 64.0
225.83403 84.0
226.261932 40.0
226.531448 68.0
227.070969 208.0
227.983612 164.0
228.076767 60.0
228.831833 132.0
228.940231 32.0
229.027573 84.0
229.277634 116.0
230.037201 1708.0
230.267181 92.0
230.540359 48.0
230.726471 152.0
230.941162 68.0
231.041809 160.0
231.46167 52.0
231.52829 184.0
231.958527 144.0
231.983673 164.0
232.051575 7916.0
232.100388 136.0
232.134369 52.0
232.21019 144.0
232.234451 108.0
232.279953 48.0
232.310287 92.0
232.377853 44.0
232.413437 84.0
232.862701 96.0
232.895218 124.0
232.938644 48.0
233.057953 804.0
233.130051 72.0
233.835602 140.0
233.990845 80.0
234.049362 1512.0
234.310608 72.0
234.39592 136.0
234.469055 72.0
234.514771 52.0
234.633652 88.0
234.700729 80.0
234.82576 104.0
234.847107 64.0
235.055481 340.0
235.112534 176.0
235.952515 96.0
236.374603 132.0
237.069717 316.0
238.082047 100.0
239.062698 168.0
240.92189 136.0
242.038391 176.0
244.40979 60.0
244.773972 44.0
245.047226 208.0
245.079224 88.0
246.014832 176.0
246.035645 236.0
247.042374 176.0
251.116898 124.0
255.027069 124.0
258.032196 1396.0
259.038879 348.0
259.662933 64.0
260.028351 824.0
260.185944 124.0
261.783936 52.0
263.141388 68.0
266.06485 152.0
270.043457 132.0
273.039154 312.0
274.053406 112.0
275.031067 168.0
280.057617 64.0
285.042328 160.0
285.217072 92.0
288.970398 104.0
290.073212 128.0
291.075226 204.0
291.214447 84.0
292.04715 84.0
314.063873 124.0
314.171295 216.0
318.475616 84.0
328.02951 164.0
329.169586 108.0
334.539093 108.0
346.867371 84.0
349.474365 116.0
380.051727 104.0
386.234222 76.0
401.503784 56.0
449.659698 56.0
476.487549 112.0
482.309418 116.0
497.631256 112.0
514.37915 96.0
520.831543 80.0
525.119019 108.0
593.623291 80.0
643.024353 104.0
740.176331 108.0
767.453552 76.0
798.03302 96.0
813.773926 48.0
840.04834 100.0
849.773193 56.0
900.030823 64.0
904.514587 64.0
1015.739502 104.0
1038.978882 44.0
1044.41333 216.0
1045.108032 212.0
1047.921753 128.0
1056.191162 108.0
1079.716187 160.0
1087.473267 180.0
1091.072876 184.0
1091.296387 124.0
1098.672607 108.0
1126.360962 80.0
1146.125 196.0
1251.618408 144.0
1258.959106 172.0
1314.167725 148.0
1314.60791 140.0
1342.872681 208.0
1391.143555 92.0
1400.721191 160.0
1405.5448 40.0
1411.318481 136.0
1441.664429 176.0
1446.073486 148.0
1459.683228 140.0
1459.880859 128.0
1461.805542 120.0
1479.734863 72.0
1484.999268 144.0
1494.932739 216.0
1498.659546 164.0
1502.599365 152.0
