>compound MLS002472928-01!
>formula C11H10O4
>ionization [M+H]+
>parentmass 207.063278
#inchi InChI=1S/C11H10O4/c1-13-7-5-9(14-2)8-3-4-11(12)15-10(8)6-7/h3-6H,1-2H3
#inchikey NXJCRELRQHZBQA
#Ion_Source LC-ESI
#Instrument qTof
#Compound_Source NIH Natural Product Library
#PI Dorrestein
#Data_Collector VVP/LMS
#Scan -1
#Precursor_MZ 207.066
#ExactMass 206.058
#Charge 1
#CAS_Number N/A
#Pubmed_ID N/A
#Smiles COc1cc(OC)c2ccc(=O)oc2c1
#INCHI_AUX N/A
#Library_Class 1
#SpectrumID CCMSLIB00000079922
#IonMode Positive
#UpdateWorkflowName UPDATE-SINGLE-ANNOTATED-GOLD
#LibraryQualityString Gold
#TaskID b1d8e8f6646f4e71acdff9ca3d919d08
##Scan# 1972
#SpectrumFile p1-H12_GH12_01_17968.mzXML
#LibraryName NIH_Natural_Products_Library.mgf
#MQScore -1
#Organism NIH_Natural_Products_Library
#TIC_Query 0
#RT_Query -1
#MZErrorPPM -1
#SharedPeaks 0
#MassDiff 0
#LibMZ -1
#SpecMZ 207.066
#SpecCharge 0
#internalFilename spec-00000.mgf

>collision 10
94.99707 196.0
95.015953 220.0
95.041573 276.0
95.107681 176.0
95.46711 124.0
95.663628 176.0
95.733719 180.0
96.014351 148.0
96.033852 144.0
96.211426 204.0
96.324692 232.0
96.346184 144.0
96.432159 200.0
96.760796 56.0
96.97628 176.0
97.027245 148.0
97.435463 152.0
97.462967 88.0
97.476723 148.0
97.573036 152.0
97.639893 148.0
97.706772 152.0
97.75399 132.0
97.850441 140.0
97.970573 112.0
98.023773 148.0
98.329453 168.0
98.459755 120.0
98.787865 176.0
98.805672 180.0
98.892738 136.0
99.025398 120.0
99.35643 128.0
99.787407 152.0
100.105774 176.0
100.207359 144.0
100.312988 140.0
100.334915 140.0
100.378784 184.0
100.674126 160.0
101.036011 156.0
101.35025 248.0
101.499054 220.0
101.69117 180.0
101.891975 56.0
102.044563 236.0
102.181488 232.0
102.479469 164.0
102.505669 156.0
102.61451 180.0
102.689125 196.0
102.85054 200.0
103.017998 392.0
103.052521 1140.0
103.086838 268.0
103.135345 64.0
103.169708 176.0
103.321388 188.0
103.430664 164.0
103.568352 168.0
103.600761 52.0
103.760864 168.0
103.884575 72.0
104.030685 160.0
104.053017 160.0
104.06723 208.0
104.284599 192.0
104.496086 132.0
104.762787 148.0
104.815758 152.0
105.034286 1232.0
105.067749 408.0
105.156334 132.0
105.199196 216.0
105.276787 144.0
105.321716 136.0
105.360527 40.0
105.405479 132.0
105.538345 180.0
105.826843 64.0
106.040985 1612.0
106.07679 240.0
106.11779 132.0
106.140343 128.0
106.246994 128.0
106.276833 140.0
106.302399 52.0
106.440659 124.0
106.476898 164.0
106.538071 228.0
106.920975 212.0
107.012024 224.0
107.04908 3136.0
107.20517 172.0
107.240211 76.0
107.564049 168.0
107.667282 92.0
107.743713 68.0
107.969017 152.0
108.021828 316.0
108.054512 632.0
108.113838 28.0
108.600716 52.0
108.822762 88.0
108.90583 96.0
108.922447 176.0
109.026337 196.0
109.061363 292.0
109.138588 40.0
109.488182 200.0
109.502762 144.0
109.631935 280.0
109.67086 136.0
109.729904 128.0
109.782028 168.0
109.84877 200.0
109.863373 188.0
109.96373 216.0
110.03466 484.0
110.055389 188.0
110.092972 60.0
110.626152 52.0
110.726654 236.0
110.816734 176.0
111.024254 120.0
111.158516 132.0
111.236168 160.0
111.252968 144.0
111.479805 192.0
111.824715 204.0
111.892075 120.0
111.997368 116.0
112.041603 164.0
112.256599 196.0
112.450691 128.0
112.507683 48.0
112.759048 104.0
113.002228 208.0
113.033966 112.0
113.247795 160.0
113.434258 200.0
113.641655 212.0
113.656952 156.0
113.72274 80.0
113.871361 72.0
113.894722 176.0
113.920219 216.0
113.943977 108.0
114.016174 172.0
114.290154 152.0
114.543503 220.0
114.583977 172.0
114.684135 144.0
115.050621 144.0
115.054276 116.0
115.06263 204.0
115.20266 156.0
115.260345 136.0
115.390732 232.0
115.548996 92.0
115.570396 80.0
115.632454 156.0
115.999977 248.0
116.021538 348.0
116.0802 108.0
116.174568 100.0
116.213188 228.0
116.344109 64.0
116.457916 148.0
116.550217 108.0
116.683556 116.0
116.986893 204.0
117.033043 496.0
117.066559 128.0
117.135483 88.0
117.245369 48.0
118.016006 192.0
118.041168 1244.0
118.070068 148.0
118.711098 112.0
119.012718 156.0
119.046921 1504.0
119.07135 120.0
119.138687 172.0
119.256027 144.0
119.297325 136.0
119.443024 136.0
119.512642 216.0
119.739037 132.0
120.015274 184.0
120.055565 1100.0
120.111748 84.0
120.236115 128.0
120.25959 180.0
120.332161 88.0
120.495972 188.0
120.513451 168.0
120.670815 228.0
120.841415 148.0
120.926758 132.0
121.027885 9520.0
121.064507 7024.0
121.142876 136.0
121.17202 152.0
121.292549 188.0
121.389915 156.0
121.478821 76.0
121.542564 200.0
121.577675 152.0
121.621574 44.0
121.656693 104.0
121.68084 132.0
121.7006 164.0
121.957634 104.0
122.032684 756.0
122.067482 604.0
122.335983 208.0
122.518768 180.0
122.763435 124.0
122.873718 128.0
122.950951 68.0
122.986267 72.0
123.00563 192.0
123.040718 216.0
123.078995 608.0
123.156281 144.0
123.405998 224.0
123.425903 136.0
123.64048 172.0
123.972672 104.0
123.990402 52.0
124.021431 188.0
124.050247 188.0
124.480675 148.0
124.500664 256.0
124.809547 108.0
124.920471 160.0
124.989716 148.0
125.018646 160.0
125.036453 184.0
125.055016 280.0
125.194748 116.0
125.538368 108.0
125.644775 160.0
125.720634 192.0
125.767509 188.0
125.792061 120.0
125.995285 148.0
126.265755 184.0
126.355232 108.0
126.579056 136.0
126.731369 56.0
126.749298 144.0
126.986931 92.0
127.101341 176.0
127.923927 156.0
128.043274 144.0
128.101837 172.0
128.246048 196.0
128.460266 188.0
128.518921 200.0
128.622726 176.0
128.710785 64.0
128.87793 148.0
129.018875 176.0
129.297379 164.0
129.321182 140.0
129.545349 60.0
129.81279 164.0
129.901245 160.0
129.994278 120.0
130.037399 144.0
130.16452 104.0
130.644104 76.0
130.782913 180.0
130.839813 200.0
131.009903 932.0
131.048401 180.0
131.067581 152.0
131.672104 208.0
131.754349 164.0
131.856079 148.0
132.015182 328.0
132.05629 512.0
132.081238 148.0
132.316956 140.0
132.424576 44.0
132.738541 160.0
132.871582 176.0
132.892227 120.0
133.027588 2212.0
133.064072 1264.0
133.124069 56.0
133.298645 36.0
133.466461 160.0
133.569611 192.0
133.800079 144.0
133.908295 104.0
133.938248 140.0
134.034515 4080.0
134.073517 168.0
134.111633 60.0
134.140656 124.0
134.157166 116.0
134.18483 76.0
134.320892 140.0
134.379715 200.0
134.401642 148.0
134.519333 160.0
134.692123 116.0
134.766449 168.0
134.960617 88.0
135.001709 196.0
135.042801 7232.0
135.094757 28.0
135.110947 52.0
135.150284 128.0
135.202072 164.0
135.277573 48.0
135.393341 160.0
135.511475 88.0
135.527695 52.0
135.606491 124.0
136.014725 108.0
136.050568 1380.0
136.133133 260.0
136.193512 56.0
136.384048 160.0
136.572388 144.0
136.721283 184.0
136.760849 112.0
136.881912 68.0
136.919174 180.0
136.989059 40.0
137.021133 212.0
137.051376 132.0
137.10556 100.0
137.387695 188.0
137.614075 192.0
137.679459 160.0
137.906082 144.0
137.973877 68.0
138.014816 180.0
138.029953 480.0
138.053375 188.0
138.889511 112.0
139.013855 200.0
139.03714 324.0
139.058441 176.0
139.07486 528.0
139.406021 224.0
139.591736 204.0
139.666992 200.0
139.801102 104.0
139.862289 164.0
140.276871 64.0
140.585846 152.0
140.821945 112.0
141.020554 416.0
141.21666 104.0
141.557449 88.0
141.834641 200.0
142.176178 156.0
142.33049 176.0
142.361359 156.0
142.570419 124.0
142.691986 136.0
142.76297 188.0
142.862869 172.0
142.950912 136.0
143.010406 148.0
143.084198 124.0
143.391479 52.0
143.539291 140.0
143.563141 96.0
144.480347 104.0
144.780304 64.0
145.02742 472.0
145.117416 64.0
145.628571 88.0
145.813568 140.0
145.897705 48.0
145.928955 216.0
146.035278 4804.0
146.099716 228.0
146.270569 76.0
146.383728 252.0
146.405411 120.0
146.468033 112.0
146.757217 208.0
147.007492 180.0
147.044952 1308.0
147.278488 148.0
147.401703 80.0
147.909592 72.0
148.016403 236.0
148.051117 3092.0
148.2099 52.0
148.328659 80.0
148.41835 76.0
148.529922 52.0
148.554169 160.0
148.602692 136.0
148.654984 312.0
148.68277 128.0
148.709473 228.0
148.736176 164.0
148.77095 196.0
148.821136 224.0
148.997757 196.0
149.0233 33880.0
149.057693 792.0
149.099686 36.0
149.136444 96.0
149.158829 84.0
149.205872 92.0
149.241486 88.0
149.267014 112.0
149.304718 28.0
149.336334 124.0
149.370392 36.0
149.405655 40.0
149.465271 92.0
149.535843 76.0
149.628586 40.0
149.752533 108.0
149.779327 212.0
149.825607 248.0
149.843582 120.0
149.937698 104.0
149.957199 160.0
150.025467 2788.0
150.064331 156.0
150.070847 148.0
150.077637 248.0
150.135178 176.0
150.171753 64.0
150.196152 116.0
150.310822 188.0
150.381592 48.0
150.401108 52.0
150.569275 220.0
150.919037 128.0
150.950821 88.0
150.986679 120.0
151.030502 504.0
151.074127 3624.0
151.146515 88.0
151.175873 36.0
151.22493 160.0
151.270599 108.0
151.522995 184.0
151.60199 76.0
151.832428 232.0
152.009064 160.0
152.042877 180.0
152.076553 484.0
152.286484 240.0
152.546951 140.0
152.743668 140.0
152.878983 144.0
153.050293 220.0
153.290237 36.0
153.465256 92.0
153.958771 108.0
153.990875 156.0
154.270096 168.0
154.324493 48.0
154.745117 136.0
154.898651 80.0
155.089447 60.0
155.373657 132.0
155.555786 96.0
155.684906 152.0
155.863754 168.0
156.104874 72.0
156.31134 188.0
156.443268 156.0
156.625046 128.0
156.667389 40.0
157.071228 180.0
157.148575 48.0
157.558029 180.0
157.765457 28.0
157.912979 116.0
157.930496 192.0
158.496277 144.0
158.654175 128.0
158.686768 228.0
158.87738 108.0
159.020874 200.0
159.042313 88.0
159.108261 88.0
159.570541 196.0
159.706345 144.0
160.010834 196.0
160.038528 176.0
160.081345 80.0
160.260178 44.0
160.4366 160.0
160.687805 172.0
160.835175 196.0
160.986664 124.0
161.058823 260.0
161.158432 152.0
161.42131 40.0
161.578125 168.0
161.611023 108.0
161.760345 28.0
161.904663 140.0
162.029007 4408.0
162.06752 152.0
162.174789 104.0
162.378586 88.0
162.396347 168.0
162.453751 196.0
162.553635 224.0
162.617081 208.0
162.756714 164.0
162.909103 156.0
162.942123 168.0
162.961899 184.0
163.038834 13220.0
163.073975 2396.0
163.170868 116.0
163.253326 148.0
163.272568 72.0
163.308182 68.0
163.490723 112.0
163.618637 84.0
163.672104 36.0
163.747086 216.0
163.813965 200.0
163.931931 148.0
163.949768 164.0
163.967606 56.0
164.008392 164.0
164.046158 15564.0
164.114395 96.0
164.172928 104.0
164.194962 92.0
164.242966 40.0
164.309296 248.0
164.334808 72.0
164.378189 36.0
164.491806 108.0
164.496872 56.0
164.656326 96.0
164.707535 72.0
164.740738 52.0
164.871063 192.0
164.888947 88.0
165.016754 140.0
165.048492 1352.0
165.111374 80.0
165.185547 128.0
165.223923 64.0
165.241837 44.0
165.303238 64.0
165.579727 52.0
166.053574 376.0
166.14621 76.0
166.264252 88.0
166.320709 132.0
167.032486 172.0
167.107086 100.0
167.856644 204.0
168.038528 220.0
168.127518 124.0
168.9673 48.0
169.503265 68.0
170.754562 208.0
170.827393 192.0
170.93927 140.0
171.256897 148.0
171.402786 60.0
172.010468 44.0
173.020386 792.0
173.339081 208.0
173.782227 140.0
174.018448 176.0
174.036819 124.0
174.61232 44.0
174.801743 204.0
175.040817 408.0
175.20195 180.0
175.239227 116.0
175.510315 164.0
176.014313 156.0
176.249405 68.0
176.829575 120.0
177.01651 116.0
177.05986 272.0
177.591614 124.0
177.795898 188.0
178.021561 116.0
178.060974 380.0
178.316452 156.0
178.654144 120.0
178.77388 72.0
179.002823 168.0
179.067139 900.0
179.130661 160.0
179.9841 152.0
180.802109 224.0
181.075195 176.0
181.123398 36.0
182.333481 120.0
182.933304 68.0
183.175659 256.0
183.199905 60.0
183.399307 112.0
183.563766 108.0
184.006271 152.0
185.510452 184.0
188.539917 104.0
189.99115 176.0
190.721603 156.0
191.033569 3636.0
191.10936 40.0
191.315781 128.0
191.343307 40.0
191.384613 68.0
191.525055 68.0
191.59668 144.0
191.778549 124.0
191.819901 156.0
191.864014 212.0
192.040985 14440.0
192.103943 188.0
192.159119 36.0
192.194977 72.0
192.233612 68.0
192.269485 104.0
192.298538 76.0
192.410263 60.0
192.656052 44.0
192.957291 44.0
192.977249 160.0
193.042236 1152.0
193.3936 52.0
193.549408 52.0
194.017654 176.0
194.051392 300.0
194.231171 80.0
194.253372 44.0
194.514206 132.0
194.641922 60.0
194.714127 40.0
194.803009 72.0
195.414642 120.0
195.520386 140.0
195.8517 48.0
196.261368 116.0
196.283676 180.0
197.568466 44.0
198.792908 172.0
199.056778 160.0
201.057739 92.0
201.880447 164.0
203.183395 88.0
204.439316 108.0
204.732544 168.0
204.966125 76.0
206.05928 228.0
206.158951 60.0
207.063278 11072.0
207.174698 176.0
207.234299 60.0
207.553024 128.0
207.713638 88.0
207.842728 44.0
208.067169 972.0
208.819473 92.0
209.069778 324.0
209.245361 44.0
209.294312 64.0
209.354782 60.0
209.382584 128.0
209.6371 80.0
210.049393 212.0
210.901215 48.0
211.459442 56.0
213.164688 80.0
214.445206 96.0
217.003098 160.0
218.815872 84.0
225.373871 84.0
227.09523 140.0
239.67308 48.0
243.21106 148.0
250.889389 20.0
265.116119 40.0
285.172394 52.0
285.935883 92.0
288.631287 76.0
288.654968 108.0
289.663544 92.0
299.718536 112.0
311.425568 36.0
320.974091 56.0
322.41272 144.0
327.806519 72.0
332.489746 152.0
336.147125 44.0
347.083527 72.0
349.189148 20.0
360.916077 92.0
371.212799 40.0
404.787903 36.0
449.739197 72.0
450.372559 152.0
450.415161 48.0
456.40744 56.0
464.114716 28.0
472.699677 68.0
493.32309 476.0
507.817352 76.0
519.314392 32.0
519.71814 40.0
533.258667 52.0
564.492676 76.0
611.869995 152.0
625.021057 120.0
668.283875 88.0
741.672668 168.0
781.630188 60.0
791.056885 20.0
791.63916 240.0
797.367065 80.0
810.719971 124.0
817.79657 132.0
818.360107 216.0
822.367737 164.0
824.258057 148.0
825.509888 180.0
827.203491 120.0
829.494812 156.0
830.595825 160.0
835.104736 176.0
848.670105 148.0
853.954712 208.0
867.243713 52.0
867.489929 156.0
873.185547 204.0
874.850769 180.0
879.112183 124.0
887.648376 152.0
889.380737 108.0
894.790405 232.0
902.337646 64.0
911.340027 180.0
913.059265 176.0
918.353333 72.0
920.610535 200.0
921.256836 20.0
924.866882 184.0
925.393555 84.0
933.43335 224.0
935.215881 204.0
937.999573 124.0
938.487305 148.0
947.251221 156.0
951.187988 204.0
959.012085 128.0
980.986633 176.0
989.420349 200.0
990.69165 228.0
992.00769 132.0
994.661133 128.0
997.123291 132.0
997.343262 112.0
1000.847412 48.0
1007.476135 164.0
1011.066589 120.0
1017.114258 224.0
1017.971313 92.0
1018.727173 144.0
1023.930237 140.0
1026.096802 136.0
1026.160522 116.0
1029.453125 136.0
1038.425659 84.0
1039.529175 124.0
1040.248047 172.0
1045.060181 88.0
1052.958374 156.0
1054.877441 212.0
1055.646851 92.0
1058.105591 112.0
1065.830566 168.0
1070.195068 164.0
1082.988281 144.0
1083.446899 156.0
1083.722046 64.0
1084.298706 120.0
1084.960693 64.0
1086.42981 120.0
1087.683105 144.0
1089.495605 244.0
1093.875366 136.0
1094.322998 124.0
1095.930054 84.0
1098.956543 248.0
1101.484985 100.0
1105.935059 44.0
1106.285889 184.0
1110.51355 240.0
1112.836182 124.0
1113.467041 168.0
1114.835571 36.0
1115.034912 220.0
1115.453735 216.0
1115.633179 128.0
1116.510864 212.0
1117.029663 204.0
1119.785278 156.0
1122.531006 188.0
1124.458984 188.0
1128.306641 48.0
1131.678711 168.0
1131.839355 168.0
1133.587646 48.0
1136.511353 148.0
1137.22937 208.0
1138.055054 160.0
1138.249878 64.0
1138.32373 72.0
1138.820679 204.0
1143.170532 84.0
1144.59082 56.0
1147.076904 68.0
1147.78479 148.0
1149.241699 152.0
1150.078613 188.0
1150.996704 164.0
1156.303467 120.0
1158.700562 132.0
1160.327148 188.0
1160.95105 188.0
1164.120117 156.0
1164.208496 164.0
1166.980835 160.0
1169.552368 224.0
1171.540771 144.0
1173.680786 176.0
1173.858154 140.0
1174.492432 140.0
1178.246948 176.0
1179.189941 148.0
1180.796631 188.0
1182.096436 92.0
1185.362915 208.0
1185.828857 224.0
1190.116455 140.0
1196.545044 204.0
1199.424561 196.0
1200.341553 152.0
1200.700073 100.0
1206.984375 148.0
1209.49939 148.0
1209.876465 172.0
1210.665771 172.0
1213.132446 104.0
1214.838379 152.0
1216.392822 172.0
1217.462036 112.0
1217.996826 236.0
1222.786255 116.0
1226.37439 156.0
1227.447998 164.0
1228.759277 88.0
1234.990601 144.0
1238.357178 208.0
1238.658325 116.0
1239.064331 140.0
1240.038696 56.0
1240.192871 96.0
1245.954102 124.0
1246.544312 188.0
1247.704102 176.0
1248.583008 204.0
1249.983032 164.0
1251.432983 220.0
1253.806885 172.0
1254.737305 148.0
1255.054688 120.0
1258.293213 212.0
1259.006348 180.0
1260.631226 172.0
1260.87146 104.0
1261.253174 76.0
1262.426758 176.0
1263.098633 116.0
1263.515991 152.0
1265.009277 144.0
1265.320801 176.0
1265.497803 204.0
1266.319214 340.0
1267.651123 156.0
1267.799927 196.0
1272.325317 100.0
1273.603516 124.0
1274.512939 160.0
1274.790039 224.0
1275.678467 80.0
1283.175049 96.0
1283.360352 212.0
1283.980835 144.0
1285.6073 188.0
1287.063599 244.0
1287.77063 164.0
1287.884888 164.0
1293.089966 200.0
1295.39563 188.0
1296.463257 136.0
1296.807251 124.0
1297.352051 204.0
1300.702026 36.0
1302.123657 128.0
1302.217041 168.0
1302.439697 152.0
1302.504395 104.0
1304.020508 224.0
1305.192261 152.0
1306.630737 108.0
1307.127197 164.0
1308.516357 188.0
1310.453857 224.0
1311.282593 152.0
1312.270142 136.0
1313.690918 200.0
1313.79187 160.0
1316.211304 164.0
1317.184814 192.0
1319.873291 36.0
1322.745483 184.0
1322.832397 176.0
1323.947388 148.0
1326.548584 132.0
1326.947266 120.0
1328.753174 176.0
1329.754639 160.0
1330.342529 112.0
1332.826416 108.0
1333.487793 176.0
1335.327271 132.0
1335.399902 92.0
1337.480957 68.0
1337.815796 72.0
1338.376343 52.0
1339.519775 200.0
1339.636353 124.0
1339.825806 192.0
1342.594727 168.0
1343.018677 216.0
1343.186401 176.0
1343.397949 156.0
1344.448608 160.0
1345.236938 180.0
1345.513672 232.0
1345.87207 196.0
1346.397827 220.0
1346.719238 164.0
1347.106323 216.0
1349.386475 132.0
1353.073853 180.0
1356.414429 164.0
1356.773682 124.0
1360.104126 168.0
1360.405029 176.0
1361.286133 144.0
1361.667969 168.0
1361.792847 176.0
1361.895752 200.0
1363.21814 152.0
1363.681152 264.0
1364.048706 228.0
1364.386841 148.0
1364.570679 144.0
1367.108398 216.0
1367.616211 144.0
1367.704468 152.0
1369.714722 192.0
1370.392456 148.0
1371.66748 188.0
1375.879761 52.0
1376.463013 160.0
1377.548706 176.0
1381.05249 168.0
1384.960571 40.0
1385.508789 180.0
1386.605469 140.0
1386.672119 72.0
1389.660645 68.0
1390.254272 188.0
1391.189453 128.0
1392.281006 244.0
1393.387695 192.0
1393.536377 88.0
1395.498535 176.0
1395.758789 172.0
1396.338867 196.0
1398.235962 144.0
1398.667725 184.0
1399.106934 192.0
1401.773438 136.0
1402.086426 104.0
1403.211914 56.0
1403.97998 68.0
1404.106812 84.0
1404.912354 44.0
1405.755493 132.0
1405.822632 36.0
1407.464844 172.0
1410.385986 128.0
1411.582153 212.0
1414.020996 172.0
1414.784546 120.0
1415.256226 228.0
1415.682983 160.0
1418.297852 144.0
1418.97998 168.0
1420.584839 180.0
1421.462769 188.0
1421.657837 188.0
1421.852905 128.0
1423.091553 180.0
1425.562866 184.0
1427.449707 180.0
1432.816284 244.0
1433.494507 184.0
1434.157715 144.0
1438.276001 100.0
1438.789429 192.0
1439.703003 116.0
1439.786133 132.0
1440.19397 104.0
1442.324707 48.0
1442.574219 148.0
1444.767334 148.0
1444.941284 208.0
1445.970459 140.0
1447.340576 148.0
1447.476929 128.0
1447.779785 164.0
1449.499512 168.0
1450.575684 184.0
1450.825806 172.0
1451.735718 204.0
1452.433472 160.0
1454.231689 156.0
1454.36084 136.0
1454.945312 176.0
1455.135132 160.0
1455.438843 152.0
1458.067261 140.0
1458.203979 168.0
1460.583862 128.0
1460.972412 168.0
1461.428345 248.0
1462.006714 144.0
1462.668823 160.0
1462.843506 136.0
1463.413696 132.0
1464.755249 156.0
1465.555176 144.0
1465.760986 128.0
1465.920898 132.0
1470.672363 124.0
1471.596069 180.0
1471.947266 196.0
1476.012451 132.0
1476.127197 152.0
1478.077759 136.0
1479.057373 184.0
1479.241089 56.0
1479.776978 164.0
1480.26709 44.0
1480.634644 224.0
1482.220337 180.0
1483.408325 228.0
1484.052368 152.0
1484.60144 264.0
1485.194946 56.0
1485.310059 240.0
1486.313843 240.0
1486.391846 192.0
1487.013428 156.0
1487.88855 96.0
1487.949951 72.0
1488.218628 188.0
1489.808472 228.0
1490.161865 192.0
1490.323242 192.0
1490.784302 212.0
1490.838135 64.0
1490.899536 172.0
1490.999512 352.0
1491.852661 248.0
1492.252441 100.0
1492.575317 264.0
1493.675171 240.0
1495.829712 184.0
1496.052979 272.0
1496.137695 64.0
1496.414795 108.0
1496.969238 152.0
1497.123291 60.0
1497.870361 208.0
1498.009033 152.0
1499.311157 144.0
1500.68335 128.0
1500.775757 208.0
1501.77832 184.0
1501.917236 176.0
1502.009766 204.0
1502.117798 232.0
