>compound MLS001048891-01!methyl quinoline-2-carboxylate
>formula C11H9NO2
>ionization [M+H]+
>parentmass 188.071
#inchi InChI=1S/C11H9NO2/c1-14-11(13)10-7-6-8-4-2-3-5-9(8)12-10/h2-7H,1H3
#inchikey CILJSZLWPHTUIP
#Ion_Source LC-ESI
#Instrument qTof
#Compound_Source NIH Natural Product Library
#PI Dorrestein
#Data_Collector VVP/LMS
#Scan -1
#Precursor_MZ 188.071
#ExactMass 187.063
#Charge 1
#CAS_Number N/A
#Pubmed_ID N/A
#Smiles COC(=O)c1ccc2ccccc2n1
#INCHI_AUX N/A
#Library_Class 1
#SpectrumID CCMSLIB00000079825
#IonMode Positive
#UpdateWorkflowName UPDATE-SINGLE-ANNOTATED-GOLD
#LibraryQualityString Gold
#TaskID b1d8e8f6646f4e71acdff9ca3d919d08
##Scan# 1783
#SpectrumFile p1-E11_GE11_01_17931.mzXML
#LibraryName NIH_Natural_Products_Library.mgf
#MQScore -1
#Organism NIH_Natural_Products_Library
#TIC_Query 0
#RT_Query -1
#MZErrorPPM -1
#SharedPeaks 0
#MassDiff 0
#LibMZ -1
#SpecMZ 188.071
#SpecCharge 0
#internalFilename spec-00000.mgf

>collision 10
95.035179 128.0
95.242897 220.0
95.36142 176.0
95.503357 160.0
96.560463 140.0
97.411125 140.0
97.460243 200.0
98.838509 252.0
99.895958 176.0
100.939041 228.0
100.971039 132.0
101.038033 1456.0
101.055054 200.0
101.577927 176.0
101.83284 224.0
102.036873 416.0
102.265106 128.0
102.541039 212.0
102.92836 56.0
103.037422 148.0
103.073792 212.0
104.028793 196.0
104.570419 176.0
105.030121 312.0
105.179848 168.0
107.080528 84.0
107.212379 188.0
107.614609 268.0
108.44828 136.0
108.551933 148.0
108.676392 180.0
109.18116 204.0
110.784164 116.0
111.188835 116.0
111.365196 220.0
113.403366 232.0
113.721512 20.0
113.766083 192.0
117.61953 200.0
117.973572 152.0
118.057899 220.0
118.159561 48.0
119.048241 292.0
119.219856 224.0
119.502533 224.0
120.049263 332.0
120.228149 152.0
121.870453 160.0
121.94297 188.0
125.625343 120.0
125.665497 208.0
125.723511 140.0
126.107643 128.0
126.720787 128.0
126.758881 148.0
126.790253 52.0
127.043625 116.0
127.088493 128.0
127.499428 140.0
127.51516 136.0
127.764748 80.0
127.809746 132.0
127.838997 192.0
127.891769 144.0
127.933533 200.0
127.985313 168.0
128.049118 19884.0
128.091721 176.0
128.115936 136.0
128.131104 128.0
128.175354 76.0
128.20607 52.0
128.248886 56.0
128.293976 60.0
128.348083 104.0
128.404449 68.0
128.447311 148.0
128.483856 76.0
128.547089 88.0
128.657181 72.0
128.722656 48.0
128.767822 84.0
128.790405 52.0
128.937256 176.0
129.04921 2560.0
129.08194 96.0
129.324005 132.0
129.419083 60.0
129.595749 68.0
129.638809 72.0
129.933563 44.0
129.963058 164.0
130.055756 204.0
130.096954 48.0
130.117386 96.0
131.036209 40.0
131.885101 116.0
134.848297 68.0
137.572433 56.0
138.301743 76.0
138.48671 76.0
138.667114 64.0
141.318665 72.0
141.505646 40.0
145.866638 140.0
146.060272 4460.0
146.237061 48.0
146.504333 68.0
147.060852 376.0
147.488861 44.0
147.55896 32.0
147.619415 88.0
147.763336 20.0
147.890366 64.0
148.033203 44.0
148.270905 168.0
149.801346 164.0
156.321243 32.0
159.088058 188.0
160.11644 152.0
174.109848 132.0
182.195724 36.0
188.082703 184.0
194.085938 188.0
232.994736 100.0
252.108871 64.0
292.112274 20.0
328.161987 56.0
408.392303 60.0
471.87674 124.0
637.833801 204.0
721.215576 228.0
792.654175 116.0
793.59021 80.0
797.311829 20.0
802.558167 128.0
802.811951 76.0
821.968628 172.0
830.383728 232.0
836.462769 228.0
843.725525 208.0
856.066833 188.0
912.973206 200.0
962.278503 164.0
966.283386 148.0
978.70282 176.0
978.846069 136.0
979.007935 212.0
986.838928 96.0
1002.210144 144.0
1007.358154 64.0
1008.552429 128.0
1013.380859 176.0
1021.875854 132.0
1028.944458 200.0
1053.71521 52.0
1064.083984 128.0
1085.872437 84.0
1086.46936 180.0
1123.86438 216.0
1124.7052 180.0
1143.330811 40.0
1147.527222 164.0
1153.136841 236.0
1162.217896 184.0
1167.237427 108.0
1168.216797 180.0
1174.55188 172.0
1185.511353 52.0
1189.18042 156.0
1207.071411 156.0
1213.725708 180.0
1214.675781 148.0
1215.640259 204.0
1232.568237 164.0
1255.593628 68.0
1260.86731 152.0
1276.264038 60.0
1278.61145 184.0
1280.305786 52.0
1283.262939 148.0
1290.323975 212.0
1291.232056 216.0
1299.728027 216.0
1312.848755 136.0
1313.461792 172.0
1315.684326 196.0
1318.530273 152.0
1321.755493 144.0
1341.60498 64.0
1346.114014 200.0
1348.605225 160.0
1354.158447 156.0
1367.719604 56.0
1373.924316 180.0
1379.056274 168.0
1379.536743 96.0
1382.73938 164.0
1383.68689 184.0
1384.582886 212.0
1388.132568 164.0
1396.36084 52.0
1398.220825 152.0
1402.272339 100.0
1407.516602 116.0
1408.442627 108.0
1410.557251 176.0
1415.884521 52.0
1418.252075 220.0
1425.70459 188.0
1432.59668 124.0
1437.655884 208.0
1439.376953 120.0
1445.643555 140.0
1450.308716 212.0
1454.822144 116.0
1455.999023 156.0
1457.343506 176.0
1465.1875 132.0
1467.016479 96.0
1471.425903 152.0
1471.677856 68.0
1471.807739 36.0
1471.861206 92.0
1479.759399 156.0
1483.927246 192.0
1484.034546 128.0
1484.532959 232.0
1486.15918 76.0
1486.642578 168.0
1489.59082 208.0
1491.28894 192.0
1493.118652 72.0
1493.680176 196.0
1497.921509 164.0
