>compound MLS001304190-01!
>formula C19H30O2
>ionization [M+H]+
>parentmass 291.2318566520905
#inchi InChI=1S/C19H30O2/c1-18-9-7-13(20)11-12(18)3-4-14-15-5-6-17(21)19(15,2)10-8-16(14)18/h12-16,20H,3-11H2,1-2H3/t12-,13-,14-,15-,16-,18-,19-/m0/s1
#inchikey QGXBDMJGAMFCBF
#Ion_Source LC-ESI
#Instrument qTof
#Compound_Source NIH Pharmacologically Active Library
#PI Dorrestein
#Data_Collector VP/LMS
#Scan -1
#Precursor_MZ 291.234
#ExactMass 290.225
#Charge 1
#CAS_Number N/A
#Pubmed_ID N/A
#Smiles C[C@@]12CC[C@H]3[C@@H](CC[C@H]4C[C@@H](O)CC[C@@]43C)[C@@H]2CCC1=O
#INCHI_AUX N/A
#Library_Class 1
#SpectrumID CCMSLIB00000084793
#IonMode Positive
#UpdateWorkflowName UPDATE-SINGLE-ANNOTATED-GOLD
#LibraryQualityString Gold
#TaskID d252d724072548979f1f6f1ced849daf
##Scan# 2224
#SpectrumFile p3-A09_GA9_01_18230.mzXML
#LibraryName Pharm_Active_Library.mgf
#MQScore -1
#Organism Pharm_Active_Library
#TIC_Query 0
#RT_Query -1
#MZErrorPPM -1
#SharedPeaks 0
#MassDiff 0
#LibMZ -1
#SpecMZ 291.234
#SpecCharge 0
#internalFilename spec-00000.mgf

>collision 10
45.817417 44.0
45.889553 144.0
46.503719 168.0
46.52544 120.0
46.651783 128.0
46.819145 152.0
47.21629 176.0
47.583527 156.0
47.813087 80.0
49.682068 164.0
50.668949 156.0
51.709892 152.0
51.977879 236.0
52.200531 208.0
53.254105 104.0
53.754917 72.0
54.096928 144.0
54.233154 132.0
55.232956 180.0
55.955669 128.0
56.197121 184.0
57.26598 176.0
57.593281 180.0
58.197533 176.0
61.676479 208.0
61.887676 212.0
61.906467 128.0
63.450649 64.0
64.258591 128.0
65.277306 236.0
65.377045 148.0
65.962524 48.0
68.542923 120.0
68.674812 244.0
69.321228 112.0
69.910751 188.0
73.874474 52.0
75.344337 192.0
75.505089 136.0
75.558716 140.0
76.137657 168.0
77.768349 152.0
78.297554 112.0
79.885262 144.0
79.952873 144.0
81.773026 124.0
83.451759 140.0
83.875931 44.0
84.047363 136.0
84.220795 168.0
85.235733 148.0
85.47477 164.0
85.59626 148.0
87.073853 208.0
88.406815 188.0
89.250938 148.0
89.749908 104.0
89.823463 252.0
90.562523 136.0
91.055099 580.0
92.168152 136.0
92.869484 180.0
92.941719 108.0
93.072975 448.0
94.222076 112.0
94.29937 56.0
95.082726 304.0
95.828506 184.0
95.951286 168.0
97.265884 32.0
97.989563 104.0
101.710442 172.0
103.047607 64.0
104.98407 172.0
105.069832 916.0
106.073822 136.0
106.858307 140.0
107.086487 540.0
107.604378 96.0
108.08596 148.0
109.006638 144.0
109.064827 144.0
109.103523 416.0
110.426331 168.0
112.299805 136.0
113.166214 40.0
115.057892 180.0
115.984673 192.0
117.069656 452.0
117.320961 212.0
117.965034 148.0
118.08828 160.0
118.748863 188.0
118.831291 148.0
119.086372 1040.0
119.300385 28.0
119.350388 64.0
119.790009 112.0
120.094078 192.0
120.197708 104.0
120.667297 96.0
120.888214 136.0
121.039261 212.0
121.085243 156.0
121.102623 576.0
121.122482 200.0
122.090378 148.0
125.271004 76.0
125.886581 200.0
125.940178 192.0
126.420853 132.0
127.050461 152.0
128.059738 220.0
129.07222 792.0
129.491653 180.0
130.085709 344.0
130.899643 132.0
131.086914 496.0
131.371429 64.0
133.099686 720.0
133.140717 200.0
133.287735 96.0
134.104691 40.0
135.119293 712.0
135.183212 36.0
135.628159 160.0
136.115982 152.0
139.933334 172.0
140.263138 52.0
141.071472 372.0
142.088745 264.0
143.084534 476.0
143.44902 68.0
144.094528 172.0
145.100723 1436.0
146.102371 196.0
147.11795 1560.0
147.203842 100.0
148.119064 212.0
149.134308 368.0
149.183319 184.0
151.913467 176.0
153.3741 156.0
154.198456 124.0
154.799606 144.0
157.100891 644.0
157.395615 92.0
157.622925 44.0
158.095535 116.0
159.11853 1632.0
160.124023 188.0
161.102692 168.0
161.134186 1392.0
162.135239 184.0
165.989456 60.0
169.093704 300.0
170.105927 128.0
171.1194 496.0
172.122238 152.0
173.13324 1100.0
174.135529 132.0
175.149246 348.0
175.776138 72.0
176.151031 164.0
176.201233 68.0
177.127106 108.0
179.519073 188.0
183.117386 344.0
184.089111 52.0
184.110718 136.0
185.131912 788.0
186.135437 208.0
186.576416 152.0
187.14447 820.0
188.15506 176.0
189.17128 140.0
195.343857 60.0
198.976822 96.0
199.147675 916.0
199.182938 80.0
199.682114 68.0
200.092941 76.0
200.149368 152.0
200.509827 72.0
200.631027 56.0
201.167267 204.0
201.220657 60.0
202.167542 216.0
203.179077 116.0
203.675842 184.0
206.260239 140.0
211.148102 124.0
211.738495 80.0
212.152832 164.0
212.315201 96.0
212.820114 88.0
213.166306 184.0
214.166534 188.0
214.845383 204.0
215.17775 468.0
216.186829 164.0
217.144806 192.0
225.072922 92.0
225.410446 132.0
226.170074 52.0
227.168945 316.0
228.182938 132.0
232.189926 136.0
240.183853 176.0
247.087769 128.0
255.211853 1320.0
256.218231 160.0
256.779236 52.0
257.216339 116.0
257.468567 76.0
257.720917 44.0
273.219818 312.0
278.163513 128.0
324.285553 56.0
500.554565 48.0
700.863159 148.0
752.66394 104.0
911.679504 208.0
931.946533 128.0
949.74176 208.0
951.644165 112.0
960.987061 192.0
983.545166 276.0
1053.900635 196.0
1054.766602 180.0
1070.356445 200.0
1076.250854 160.0
1082.986572 112.0
1085.050659 180.0
1101.601685 52.0
1110.875854 152.0
1116.687744 228.0
1135.019043 92.0
1142.864258 96.0
1162.55481 172.0
1172.729004 224.0
1183.693726 164.0
1187.675415 104.0
1189.130005 88.0
1197.807129 176.0
1202.233521 164.0
1206.667969 188.0
1208.230957 200.0
1208.466187 180.0
1218.901367 152.0
1232.083618 132.0
1233.599976 148.0
1247.627441 188.0
1249.540283 148.0
1264.096436 216.0
1276.474731 140.0
1296.43396 136.0
1316.071411 128.0
1331.510132 48.0
1340.960815 168.0
1342.178223 128.0
1357.013428 152.0
1367.38562 212.0
1384.868896 92.0
1394.633057 224.0
1397.377075 36.0
1398.024414 204.0
1401.442261 156.0
1401.740234 32.0
1416.885254 220.0
1425.168213 176.0
1427.220093 188.0
1445.322754 172.0
1449.222168 116.0
1449.782837 172.0
1452.246826 116.0
1462.831421 156.0
1480.001343 108.0
1481.456543 92.0
1482.368286 88.0
1482.797363 176.0
1490.694214 184.0
1504.08728 144.0
