>compound MLS000697603-01!
>formula C22H26O5
>ionization [M+H]+
>parentmass 371.186
#inchi InChI=1S/C22H26O5/c1-13(2)5-7-17-20(25-3)11-21-18(22(17)26-4)9-14(12-27-21)16-8-6-15(23)10-19(16)24/h5-6,8,10-11,14,23-24H,7,9,12H2,1-4H3/t14-/m0/s1
#inchikey DDMAUIOCNQXFHL
#Ion_Source LC-ESI
#Instrument qTof
#Compound_Source NIH Natural Product Library
#PI Dorrestein
#Data_Collector VVP/LMS
#Scan -1
#Precursor_MZ 371.186
#ExactMass 370.178
#Charge 1
#CAS_Number N/A
#Pubmed_ID N/A
#Smiles COc1cc2OC[C@H](Cc2c(OC)c1CC=C(C)C)c3ccc(O)cc3O
#INCHI_AUX N/A
#Library_Class 1
#SpectrumID CCMSLIB00000080421
#IonMode Positive
#UpdateWorkflowName UPDATE-SINGLE-ANNOTATED-GOLD
#LibraryQualityString Gold
#TaskID b1d8e8f6646f4e71acdff9ca3d919d08
##Scan# 2485
#SpectrumFile p2-F08_GF8_01_18044.mzXML
#LibraryName NIH_Natural_Products_Library.mgf
#MQScore -1
#Organism NIH_Natural_Products_Library
#TIC_Query 0
#RT_Query -1
#MZErrorPPM -1
#SharedPeaks 0
#MassDiff 0
#LibMZ -1
#SpecMZ 371.186
#SpecCharge 0
#internalFilename spec-00000.mgf

>collision 10
95.049057 604.0
95.151199 176.0
95.300751 72.0
95.783226 184.0
95.925476 172.0
96.052231 284.0
96.079536 144.0
96.939865 116.0
96.959465 184.0
96.975143 156.0
97.069244 224.0
97.186935 220.0
97.489342 212.0
97.668259 152.0
98.184288 152.0
98.796616 120.0
99.244225 236.0
99.325539 128.0
99.573639 184.0
100.30188 156.0
100.387611 100.0
100.944756 164.0
101.028763 96.0
101.315041 40.0
101.379166 152.0
101.443298 144.0
101.728157 104.0
102.049263 140.0
102.732346 148.0
103.014969 200.0
103.054314 436.0
103.227196 40.0
103.623924 152.0
103.861107 132.0
104.059692 164.0
104.598724 68.0
105.03363 328.0
105.069626 328.0
105.12252 140.0
105.424759 152.0
105.637398 128.0
105.741753 60.0
105.764267 172.0
105.837975 172.0
106.018234 176.0
106.041565 504.0
106.856018 204.0
106.9795 136.0
107.047096 328.0
107.088638 240.0
108.057838 464.0
108.24102 84.0
108.448189 164.0
108.531113 204.0
108.643112 148.0
108.674232 184.0
108.780075 132.0
109.064606 712.0
109.118706 104.0
109.497429 44.0
109.572418 204.0
110.068832 304.0
110.114777 68.0
110.21714 208.0
110.524521 164.0
111.016792 172.0
111.041962 168.0
111.08181 164.0
111.106987 152.0
111.20771 76.0
111.480736 192.0
111.697296 172.0
112.086784 152.0
112.348228 184.0
112.451622 152.0
112.506508 172.0
112.631096 164.0
112.652222 124.0
112.869911 180.0
112.960854 168.0
113.072998 136.0
114.212379 152.0
114.248543 60.0
114.442223 184.0
114.644585 204.0
114.691475 96.0
115.059265 196.0
115.107498 140.0
115.834679 152.0
116.036125 196.0
116.205566 176.0
116.291405 72.0
116.540512 132.0
116.706017 164.0
116.972786 224.0
117.068047 280.0
117.427437 172.0
117.533142 160.0
117.848389 172.0
118.004005 168.0
118.041611 280.0
118.071495 172.0
118.090508 172.0
118.803169 216.0
119.031059 104.0
119.053207 224.0
119.090782 296.0
119.265701 116.0
119.398323 80.0
119.507095 164.0
120.05603 164.0
120.820526 176.0
121.065269 1016.0
121.089767 164.0
122.03997 160.0
122.067978 196.0
122.105942 200.0
122.185127 164.0
122.546211 140.0
122.56163 212.0
122.682854 180.0
122.956367 120.0
123.018173 192.0
123.043427 10040.0
123.078369 180.0
123.113113 32.0
123.179375 92.0
123.239021 88.0
123.371628 100.0
123.927605 212.0
124.00692 104.0
124.048271 980.0
124.368462 148.0
124.508339 44.0
124.650513 116.0
124.752754 184.0
124.999634 116.0
125.056847 312.0
125.146545 120.0
125.171036 76.0
125.453995 48.0
126.063713 164.0
126.37191 184.0
126.817558 148.0
127.430191 216.0
127.448166 116.0
128.058685 520.0
129.041641 156.0
129.068237 248.0
129.116333 120.0
129.177399 48.0
129.240738 72.0
129.426346 60.0
129.591705 136.0
130.071457 200.0
130.320023 144.0
130.556442 224.0
130.947891 152.0
131.044556 172.0
131.085068 204.0
131.10965 144.0
131.178024 96.0
131.207657 80.0
131.38327 160.0
131.636627 180.0
132.057571 180.0
132.146347 156.0
132.173813 184.0
132.595184 220.0
132.74649 132.0
133.030991 200.0
133.06192 616.0
133.102158 192.0
133.297409 64.0
133.400848 196.0
133.421539 192.0
133.589417 132.0
133.658432 144.0
133.828766 164.0
134.03334 152.0
134.049896 172.0
134.072937 132.0
134.418854 152.0
135.043823 728.0
135.080505 472.0
135.507919 104.0
135.739716 120.0
136.052811 444.0
136.080795 124.0
136.127243 232.0
136.738663 236.0
136.783569 152.0
137.032211 140.0
137.060333 3284.0
137.102997 64.0
137.146255 164.0
137.39888 60.0
137.477448 88.0
137.654861 40.0
137.732834 256.0
137.83284 168.0
138.024063 248.0
138.062271 740.0
138.103088 132.0
138.126968 60.0
138.358643 196.0
138.417175 120.0
138.483658 124.0
138.667847 48.0
139.074661 1124.0
139.294342 116.0
139.40242 96.0
139.440018 80.0
139.861038 172.0
140.039978 208.0
140.070602 48.0
140.122437 96.0
140.301544 180.0
140.320404 52.0
140.417099 152.0
140.509094 164.0
140.63652 164.0
141.071152 136.0
142.073502 140.0
142.749817 44.0
142.952026 136.0
143.085373 988.0
143.156754 116.0
143.946075 144.0
144.090591 316.0
144.337967 64.0
144.41449 88.0
145.029175 380.0
145.064453 156.0
145.084991 156.0
145.104156 156.0
146.0383 152.0
146.076965 396.0
146.893417 72.0
146.919952 212.0
147.043228 360.0
147.081772 360.0
147.559952 96.0
147.721985 192.0
148.052368 336.0
148.080231 204.0
148.419495 196.0
148.499527 56.0
148.635391 164.0
148.873276 156.0
148.929138 208.0
149.016602 152.0
149.060379 4924.0
149.09436 164.0
149.624619 76.0
149.668457 72.0
149.846252 76.0
149.902298 84.0
150.061462 904.0
150.221695 100.0
150.382736 84.0
150.920181 148.0
151.040024 364.0
151.073792 1160.0
151.128098 88.0
151.487991 68.0
151.524734 64.0
151.669312 88.0
152.017578 44.0
152.044586 236.0
152.082336 148.0
152.108398 80.0
153.051743 884.0
153.091919 960.0
153.471344 148.0
153.639069 152.0
154.058334 236.0
154.085098 248.0
155.069031 356.0
155.125336 52.0
155.187317 48.0
155.937012 220.0
156.001633 80.0
156.075867 56.0
156.98761 76.0
157.074905 216.0
157.87915 168.0
158.114319 168.0
158.249496 40.0
159.040558 152.0
159.086319 496.0
159.699997 160.0
160.046341 276.0
160.083237 360.0
160.306732 44.0
160.430237 160.0
160.874237 76.0
161.059906 876.0
161.091415 508.0
162.067062 320.0
162.367126 84.0
162.524399 48.0
163.036926 484.0
163.073883 516.0
163.311935 236.0
163.617294 60.0
164.042603 204.0
164.131973 192.0
164.318176 152.0
164.422791 188.0
164.496811 104.0
164.573395 180.0
165.058029 344.0
165.092529 1060.0
165.537415 100.0
165.77565 100.0
166.058182 236.0
166.108963 60.0
166.198746 120.0
166.350174 96.0
166.536316 164.0
166.594131 76.0
166.863983 224.0
166.923126 36.0
167.033493 136.0
167.040268 124.0
167.068848 11944.0
167.239563 64.0
167.515091 52.0
167.561462 40.0
167.643921 40.0
167.788254 56.0
167.979095 56.0
168.071518 1232.0
168.275879 144.0
168.55484 60.0
169.059097 176.0
169.149689 116.0
169.305038 104.0
169.380142 76.0
169.774109 60.0
169.971252 116.0
170.080261 84.0
170.155548 64.0
170.792221 60.0
171.078461 176.0
172.093826 292.0
172.719849 176.0
173.065002 176.0
173.09935 200.0
173.293182 56.0
173.32724 68.0
173.757248 128.0
174.461075 52.0
175.030609 200.0
175.075516 184.0
175.110321 236.0
176.084244 136.0
176.123856 160.0
177.017776 92.0
177.055527 748.0
177.091187 164.0
177.535904 108.0
177.895386 68.0
178.062576 292.0
178.921555 140.0
179.069351 1796.0
179.315796 48.0
179.358444 36.0
179.574417 88.0
179.649094 200.0
180.001404 84.0
180.075974 560.0
180.191055 56.0
180.509125 72.0
180.570633 140.0
180.739166 52.0
181.085266 4296.0
181.130051 88.0
181.288116 108.0
181.317596 32.0
181.392654 44.0
181.475754 76.0
181.574982 44.0
181.845963 64.0
181.926483 80.0
182.091766 380.0
182.270264 68.0
182.590179 48.0
183.050354 124.0
183.087509 156.0
183.672928 84.0
183.724182 128.0
185.090454 160.0
185.818207 160.0
186.611282 172.0
187.078949 256.0
188.082748 160.0
188.910355 168.0
189.052643 164.0
189.078537 112.0
190.065369 196.0
190.187302 80.0
190.698181 76.0
191.070648 432.0
191.105469 224.0
192.085007 164.0
192.110779 116.0
192.999084 248.0
193.083725 2396.0
193.41507 44.0
193.764008 76.0
194.087692 740.0
194.673798 156.0
195.040543 168.0
195.073898 172.0
195.09613 272.0
196.081512 144.0
196.229248 44.0
197.056885 144.0
197.362839 180.0
198.093307 128.0
200.077484 192.0
200.96376 152.0
201.09639 76.0
201.11615 140.0
201.536942 56.0
203.071503 332.0
203.101944 152.0
204.106415 164.0
205.08606 404.0
205.121399 136.0
205.617691 52.0
206.092087 156.0
206.46048 40.0
206.500519 56.0
207.075806 152.0
207.135956 180.0
209.312958 116.0
210.552994 56.0
211.06131 120.0
212.086823 152.0
213.055664 144.0
213.090515 128.0
214.105713 116.0
215.067856 152.0
215.105804 140.0
217.091278 360.0
217.12471 128.0
220.1147 164.0
223.074463 168.0
223.142838 176.0
226.051071 104.0
226.317474 192.0
226.479187 56.0
227.054642 188.0
227.105637 192.0
228.006348 160.0
228.066467 180.0
231.097763 168.0
231.348465 68.0
231.696732 80.0
232.111969 148.0
233.113708 124.0
235.131134 3364.0
236.132935 392.0
236.422516 108.0
237.074814 112.0
237.142242 184.0
237.731079 144.0
238.268417 76.0
241.984863 92.0
242.502197 96.0
249.148819 128.0
250.130066 156.0
252.091827 156.0
253.050247 164.0
253.075577 120.0
255.052017 384.0
255.096512 92.0
256.063812 136.0
257.084015 120.0
258.09024 124.0
259.425293 132.0
261.147705 376.0
262.167023 192.0
269.072937 124.0
269.26886 64.0
270.072876 140.0
270.115417 80.0
271.099274 144.0
272.106323 168.0
281.522034 116.0
281.759186 44.0
282.819244 116.0
284.283844 224.0
285.079742 164.0
285.109985 176.0
288.085205 108.0
288.108856 256.0
292.10907 140.0
293.188416 48.0
298.119873 180.0
300.440582 76.0
301.839386 52.0
302.098785 96.0
302.334076 112.0
303.124969 448.0
304.122437 144.0
313.513336 88.0
315.122803 488.0
315.246063 88.0
315.641968 68.0
316.127686 260.0
325.139526 120.0
325.994232 36.0
327.004822 56.0
341.159027 72.0
355.138062 148.0
356.255249 60.0
370.240723 108.0
370.355621 152.0
374.184265 132.0
375.04718 156.0
392.6875 68.0
397.426727 76.0
407.777832 52.0
444.160675 56.0
452.377838 48.0
523.710083 80.0
558.696045 92.0
570.942261 88.0
582.485107 76.0
729.342529 40.0
764.908142 176.0
774.42749 108.0
811.924744 72.0
870.560791 76.0
916.136719 64.0
941.7901 156.0
962.091187 40.0
972.794678 144.0
976.479309 116.0
985.430786 76.0
1018.778137 184.0
1029.880981 180.0
1035.938477 176.0
1036.636841 52.0
1066.317261 68.0
1073.061035 140.0
1078.387817 188.0
1085.005737 208.0
1085.615479 140.0
1087.59021 172.0
1091.453125 148.0
1095.085815 224.0
1096.647217 192.0
1097.748291 128.0
1105.371216 176.0
1117.287598 28.0
1135.49646 124.0
1153.203613 176.0
1163.561035 72.0
1163.77832 152.0
1168.957764 148.0
1191.184937 180.0
1193.576538 192.0
1193.631592 88.0
1200.662598 36.0
1224.023071 140.0
1230.144531 232.0
1234.993774 236.0
1236.959961 200.0
1241.240601 108.0
1245.275879 136.0
1254.479492 144.0
1254.585205 176.0
1258.804443 140.0
1262.06897 132.0
1262.677002 236.0
1270.028809 156.0
1273.457031 68.0
1275.538818 92.0
1279.764648 180.0
1281.231812 196.0
1289.552002 184.0
1290.016602 204.0
1290.395508 112.0
1291.718506 248.0
1293.178101 108.0
1296.185913 220.0
1304.000977 188.0
1305.481934 176.0
1310.109985 188.0
1318.219727 160.0
1326.302979 200.0
1327.035889 100.0
1334.107056 200.0
1334.383301 80.0
1346.756958 128.0
1351.74292 148.0
1357.302612 148.0
1358.33667 60.0
1363.013306 184.0
1364.380371 224.0
1378.229004 224.0
1382.369873 160.0
1388.696655 100.0
1389.230713 188.0
1392.905151 96.0
1394.510132 132.0
1394.77771 148.0
1400.596436 260.0
1402.807495 180.0
1403.741455 196.0
1419.489624 260.0
1423.203857 172.0
1425.021484 196.0
1426.426758 184.0
1427.178589 180.0
1427.554565 164.0
1434.270142 144.0
1436.856689 192.0
1440.140381 152.0
1442.172852 232.0
1445.901489 128.0
1447.294312 128.0
1448.218262 180.0
1449.384888 240.0
1449.914185 136.0
1454.564697 80.0
1455.323853 112.0
1457.73938 164.0
1463.12439 168.0
1465.729248 216.0
1466.39978 76.0
1469.869629 192.0
1471.739746 196.0
1472.098633 164.0
1475.177612 120.0
1481.628784 152.0
1481.782104 184.0
1492.450562 168.0
1499.532715 152.0
1500.673584 216.0
1501.066772 220.0
