>compound MLS002153913-01!Quipazine dimaleate salt150323-78-7
>formula C13H15N3
>ionization [M+H]+
>parentmass 214.13387393209052
#inchi InChI=1S/C13H15N3/c1-2-4-12-11(3-1)5-6-13(15-12)16-9-7-14-8-10-16/h1-6,14H,7-10H2
#inchikey XRXDAJYKGWNHTQ
#origInchi InChI=1S/C13H15N3.C4H4O4/c1-2-4-12-11(3-1)5-6-13(15-12)16-9-7-14-8-10-16;5-3(6)1-2-4(7)8/h1-6,14H,7-10H2;1-2H,(H,5,6)(H,7,8)/p-2/b;2-1-
#Ion_Source LC-ESI
#Instrument qTof
#Compound_Source NIH Pharmacologically Active Library
#PI Dorrestein
#Data_Collector VP/LMS
#Scan -1
#Precursor_MZ 214.138
#ExactMass 213.127
#Charge 1
#CAS_Number N/A
#Pubmed_ID N/A
#Smiles C1CN(CCN1)c2ccc3ccccc3n2.[O-]C(=O)/C=C\C(=O)[O-]
#INCHI_AUX N/A
#Library_Class 1
#SpectrumID CCMSLIB00000086086
#IonMode Positive
#UpdateWorkflowName UPDATE-SINGLE-ANNOTATED-GOLD
#LibraryQualityString Gold
#TaskID d252d724072548979f1f6f1ced849daf
##Scan# 219
#SpectrumFile p5-D05_GD5_01_18456.mzXML
#LibraryName Pharm_Active_Library.mgf
#MQScore -1
#Organism Pharm_Active_Library
#TIC_Query 0
#RT_Query -1
#MZErrorPPM -1
#SharedPeaks 0
#MassDiff 0
#LibMZ -1
#SpecMZ 214.138
#SpecCharge 0
#internalFilename spec-00000.mgf

>collision 10
45.127823 156.0
45.169281 124.0
45.543247 204.0
45.660175 200.0
46.199707 184.0
46.351345 112.0
46.538525 140.0
46.785965 172.0
46.836346 132.0
47.317028 100.0
47.834568 80.0
47.941998 180.0
48.528076 164.0
48.758503 152.0
49.675846 160.0
50.177895 68.0
50.956299 208.0
52.123642 88.0
53.233028 164.0
54.056637 172.0
54.774567 112.0
54.84087 132.0
54.892467 168.0
55.044456 152.0
56.650757 136.0
56.709194 112.0
58.14349 220.0
58.640812 76.0
59.304134 160.0
59.56805 168.0
60.018974 152.0
60.190247 148.0
60.224224 160.0
60.275204 56.0
60.511848 156.0
60.699329 228.0
60.885544 180.0
61.513008 132.0
61.709846 212.0
61.781788 144.0
62.439003 140.0
62.585346 184.0
63.773396 156.0
64.129921 148.0
64.894035 84.0
64.999893 128.0
65.025566 176.0
65.664284 124.0
65.76593 100.0
65.898346 136.0
67.068382 216.0
67.141747 152.0
67.81205 160.0
68.625763 180.0
68.678528 148.0
69.233841 72.0
69.369705 172.0
69.533913 164.0
70.056007 144.0
71.546455 88.0
71.605385 184.0
72.086182 96.0
72.253571 160.0
72.346642 168.0
72.541451 108.0
72.61097 124.0
72.868988 184.0
73.015167 164.0
73.187035 172.0
73.200661 152.0
73.761955 140.0
73.80983 72.0
73.924438 144.0
75.272118 192.0
78.560463 144.0
78.977333 204.0
79.19149 132.0
79.452065 160.0
81.609558 172.0
83.257545 172.0
83.462883 172.0
83.653908 132.0
84.597679 144.0
85.191826 152.0
85.566994 128.0
85.616707 104.0
85.775154 196.0
86.704834 144.0
87.477501 156.0
88.010689 132.0
88.614815 140.0
88.637299 140.0
89.98967 200.0
90.337402 108.0
90.64222 164.0
91.504524 196.0
92.550812 140.0
93.320198 184.0
93.95768 168.0
94.264671 232.0
94.283997 164.0
94.9907 108.0
96.050819 148.0
96.378799 196.0
96.417877 180.0
97.108978 164.0
97.544876 112.0
97.572395 112.0
97.625481 176.0
97.790741 100.0
97.879326 140.0
97.983711 212.0
98.26564 148.0
98.425514 160.0
98.97718 196.0
98.998962 216.0
99.27243 176.0
99.456932 188.0
99.693275 68.0
99.77079 144.0
100.059258 140.0
100.120979 136.0
101.040428 584.0
101.261337 56.0
101.281372 176.0
101.431648 168.0
101.985634 48.0
102.815407 180.0
103.055702 148.0
103.312454 208.0
105.030975 124.0
105.375969 132.0
106.038963 120.0
106.225548 200.0
106.5951 240.0
107.167114 112.0
108.13974 120.0
109.347649 152.0
109.70591 192.0
110.190071 192.0
110.480667 164.0
110.786308 152.0
110.943474 216.0
111.747826 164.0
112.584648 120.0
112.842438 176.0
113.509392 216.0
115.054054 344.0
115.421539 184.0
115.669708 120.0
116.057419 196.0
116.106789 180.0
116.299881 172.0
116.398636 152.0
116.619904 200.0
116.673645 172.0
116.692993 80.0
117.068794 180.0
117.349663 212.0
117.746704 96.0
118.265594 184.0
120.743706 184.0
121.22094 216.0
122.684731 144.0
123.203331 64.0
124.463539 164.0
124.512398 164.0
124.899124 180.0
124.919144 140.0
126.185829 136.0
126.718491 220.0
126.817093 76.0
126.931427 152.0
126.998703 268.0
127.041321 172.0
127.369049 72.0
127.55555 116.0
127.60051 152.0
128.050308 15808.0
128.242065 60.0
128.291641 196.0
128.335541 68.0
128.386353 92.0
128.575851 56.0
128.740646 52.0
128.889725 68.0
128.96431 68.0
129.052399 2116.0
129.355621 28.0
129.496002 56.0
129.795029 92.0
129.969788 40.0
130.062332 200.0
130.142288 128.0
130.726456 156.0
130.910843 124.0
131.124985 88.0
131.715927 156.0
132.010757 104.0
133.848083 184.0
134.003098 188.0
134.796829 144.0
137.052216 192.0
137.46727 132.0
137.985809 144.0
138.137817 64.0
139.023438 212.0
142.064774 176.0
142.912918 176.0
143.075638 652.0
143.334366 132.0
143.577515 220.0
143.732574 204.0
143.875778 168.0
144.080963 1416.0
144.128937 128.0
144.81311 64.0
145.078033 2380.0
145.328506 188.0
146.058884 1884.0
146.21521 88.0
146.986343 108.0
147.065247 224.0
147.408905 48.0
147.938583 84.0
148.12262 152.0
148.234055 40.0
148.957047 68.0
151.658173 144.0
152.089859 92.0
152.482834 104.0
152.583618 72.0
152.932922 148.0
153.051086 112.0
154.066116 448.0
154.104263 156.0
155.024734 148.0
155.06218 312.0
156.075027 168.0
157.074295 580.0
157.115784 152.0
157.150711 28.0
158.087723 144.0
158.696396 160.0
160.083405 160.0
160.164001 84.0
160.991241 176.0
161.190796 148.0
162.906021 132.0
163.348328 148.0
164.571594 132.0
166.055786 188.0
168.070038 124.0
169.07605 584.0
169.168411 40.0
169.624329 120.0
170.074432 204.0
170.094513 340.0
170.511993 96.0
170.659607 196.0
171.024353 160.0
171.093002 13452.0
171.21962 124.0
171.256088 56.0
171.349854 36.0
171.521851 80.0
172.095795 852.0
172.181946 60.0
172.208069 36.0
172.367416 52.0
172.521622 36.0
172.736053 72.0
173.089355 68.0
173.128647 196.0
173.160065 104.0
173.353928 144.0
173.4142 80.0
174.971893 168.0
180.071121 160.0
181.07756 180.0
182.08577 136.0
183.08287 208.0
183.228317 72.0
184.080627 132.0
184.851028 128.0
185.102768 152.0
185.934998 124.0
195.090393 116.0
197.108612 1232.0
197.424118 48.0
198.115448 244.0
198.984833 36.0
199.113998 132.0
201.898376 180.0
212.190094 48.0
214.13829 348.0
215.134186 168.0
215.610291 56.0
231.098969 40.0
270.292725 116.0
286.621155 80.0
373.227753 72.0
484.945801 124.0
494.357178 52.0
694.359741 32.0
778.139404 32.0
915.26886 192.0
933.628418 156.0
978.798767 80.0
1005.024536 88.0
1013.231018 168.0
1015.094421 152.0
1021.273682 204.0
1028.045898 168.0
1035.135132 244.0
1048.554932 260.0
1088.827393 144.0
1122.218262 108.0
1150.895142 208.0
1154.726685 168.0
1158.720337 160.0
1159.120117 60.0
1162.720947 152.0
1179.2229 232.0
1185.799927 144.0
1202.195068 160.0
1228.609863 148.0
1255.39624 188.0
1262.571045 76.0
1264.012451 216.0
1271.277466 176.0
1280.789917 176.0
1288.279785 112.0
1293.292236 208.0
1297.934448 208.0
1303.116577 256.0
1304.438843 244.0
1304.719238 204.0
1308.726562 68.0
1314.925903 52.0
1316.304688 180.0
1327.716675 152.0
1332.456421 152.0
1341.035645 228.0
1341.837524 212.0
1345.565552 188.0
1349.203735 212.0
1350.17627 128.0
1351.873413 60.0
1363.327881 208.0
1369.411987 172.0
1372.153198 212.0
1387.767944 100.0
1409.397461 116.0
1414.415527 152.0
1419.494995 152.0
1422.78125 288.0
1426.221558 148.0
1436.386597 124.0
1442.880981 152.0
1444.88501 164.0
1461.553833 184.0
1461.995117 236.0
1462.489868 168.0
1463.342407 204.0
1479.504517 128.0
1488.574707 128.0
1491.463379 252.0
