>compound (Z)-methyl 5-(ethoxy(hydroxy)methylene)-2,6-dimethyl-4-(3-nitrophenyl)-4,5-dihydropyridine-3-carboxylate
>formula C18H20N2O6
>ionization [M+H]+
>parentmass 361.14
#inchi InChI=1S/C18H20N2O6/c1-5-26-18(22)15-11(3)19-10(2)14(17(21)25-4)16(15)12-7-6-8-13(9-12)20(23)24/h6-9,16,22H,5H2,1-4H3/b18-15+
#inchikey OYFHPBSUARUOQE
#Ion_Source LC-ESI
#Instrument qTof
#Compound_Source Commercial
#PI Dorrestein
#Data_Collector Garg_Neha
#Scan -1
#Precursor_MZ 361.14
#ExactMass 360.132
#Charge 1
#CAS_Number N/A
#Pubmed_ID N/A
#Smiles CCO/C(=C\1/C(C(=C(C)N=C1C)C(=O)OC)c2cccc(c2)[N+](=O)[O-])/O
#INCHI_AUX N/A
#Library_Class 1
#SpectrumID CCMSLIB00000079257
#IonMode Positive
#UpdateWorkflowName UPDATE-SINGLE-ANNOTATED-GOLD
#LibraryQualityString Gold
#TaskID 278b19f5865741e282cec7349aa7e7a1
##Scan# 1839
#SpectrumFile NCP003512_A2_B11_BD4_01_15728.mzXML
#LibraryName NIHcollectionI_05062014.mgf
#MQScore -1
#Organism NIHcollectionI_05062014
#TIC_Query 0
#RT_Query -1
#MZErrorPPM -1
#SharedPeaks 0
#MassDiff 0
#LibMZ -1
#SpecMZ 361.14
#SpecCharge 0
#internalFilename spec-00000.mgf

>collision 10
45.805218 152.0
47.947224 160.0
48.253666 148.0
48.541664 144.0
49.072823 172.0
51.824966 168.0
56.707539 144.0
58.178268 140.0
63.563709 160.0
65.221481 140.0
66.098816 248.0
69.338226 140.0
72.238396 160.0
72.568634 208.0
73.405212 268.0
78.673538 196.0
81.969727 152.0
84.159111 180.0
84.533829 216.0
86.061325 152.0
88.123009 156.0
96.962288 140.0
97.236862 148.0
99.048851 348.0
99.886513 144.0
100.424309 164.0
107.103714 172.0
108.07399 148.0
108.448822 160.0
109.785637 168.0
111.651581 148.0
112.944466 172.0
113.041786 172.0
113.529015 160.0
118.038139 256.0
119.051003 144.0
120.284233 188.0
122.262466 212.0
122.425369 180.0
122.76474 168.0
128.062607 180.0
128.420868 256.0
130.065811 172.0
132.082382 184.0
132.352432 156.0
134.060959 256.0
134.18132 188.0
136.345596 192.0
137.750565 164.0
139.052414 184.0
140.063171 180.0
141.052109 184.0
141.068542 184.0
143.037521 176.0
143.07579 172.0
143.316147 196.0
144.077225 176.0
145.089188 168.0
145.192642 168.0
145.478165 144.0
146.040451 148.0
147.035477 152.0
147.269669 160.0
148.041168 184.0
149.040543 204.0
149.062424 144.0
149.220413 152.0
150.017532 320.0
150.056946 416.0
150.074997 156.0
151.034729 192.0
151.065903 172.0
151.943558 168.0
153.175156 200.0
154.038513 272.0
154.069107 180.0
154.092865 144.0
155.050476 140.0
155.067825 140.0
155.085175 188.0
155.268631 156.0
156.593307 144.0
157.089325 240.0
158.100082 348.0
159.571121 148.0
160.071838 160.0
160.570801 148.0
162.835739 156.0
163.062057 196.0
164.071182 216.0
165.083344 328.0
165.73642 164.0
166.061142 144.0
166.085083 120.0
167.075195 524.0
168.080338 1028.0
169.082535 396.0
169.775803 164.0
170.058594 160.0
170.105728 148.0
171.065857 124.0
171.102859 544.0
171.431747 172.0
172.07254 192.0
172.105133 260.0
173.082794 504.0
174.052826 284.0
174.084335 284.0
176.033112 564.0
176.08316 152.0
177.043167 224.0
178.056229 504.0
179.070496 448.0
180.078888 600.0
181.089523 624.0
182.094147 892.0
182.513626 208.0
183.052704 224.0
183.104431 936.0
184.075439 416.0
184.107422 332.0
184.249344 236.0
185.220474 220.0
186.054855 116.0
186.26207 144.0
187.066971 144.0
187.41011 172.0
187.688126 172.0
188.071991 312.0
188.28302 140.0
189.066299 316.0
189.281143 148.0
189.977295 176.0
190.064987 108.0
191.076172 228.0
191.244034 192.0
192.063416 324.0
192.923904 156.0
193.060287 172.0
194.389069 156.0
195.044495 220.0
195.095734 232.0
195.214081 208.0
195.7957 168.0
196.079483 532.0
196.11261 172.0
196.92244 192.0
197.08165 712.0
197.126373 196.0
198.094711 436.0
198.697144 140.0
199.019913 168.0
199.070831 176.0
199.102341 280.0
199.564987 156.0
200.031433 536.0
200.083282 216.0
201.034943 112.0
201.073502 152.0
201.238586 192.0
202.009949 148.0
202.088013 476.0
203.032593 144.0
203.114838 168.0
205.801331 148.0
205.838455 240.0
207.067398 140.0
208.075058 1240.0
208.721069 180.0
209.082993 2248.0
210.091827 5044.0
211.095322 1432.0
211.952972 96.0
212.07164 776.0
212.102203 672.0
212.13942 344.0
213.039017 152.0
213.073349 312.0
213.108658 160.0
213.591324 184.0
213.736786 164.0
214.05336 216.0
214.084549 408.0
214.840988 196.0
215.05423 152.0
215.095413 356.0
216.059204 172.0
216.104965 168.0
217.060608 1084.0
217.632233 144.0
218.038422 152.0
218.085449 148.0
219.088867 152.0
221.068436 136.0
222.056381 184.0
222.38887 156.0
222.771912 160.0
223.063126 144.0
224.038528 144.0
224.067505 288.0
224.36998 196.0
225.081375 616.0
225.122116 368.0
226.037354 188.0
226.086334 6168.0
226.479675 156.0
226.563538 172.0
227.087692 1684.0
228.066833 392.0
228.08696 264.0
229.041794 152.0
229.087494 280.0
229.113525 144.0
229.508911 156.0
230.064041 188.0
230.085175 364.0
230.317688 184.0
231.083664 448.0
232.055908 172.0
233.117081 144.0
234.077362 164.0
234.596268 176.0
235.068756 188.0
236.070236 852.0
236.116837 152.0
237.073486 464.0
238.074219 484.0
238.10965 520.0
239.050568 140.0
239.085373 676.0
240.059219 548.0
240.100876 1072.0
240.800659 248.0
241.071182 1532.0
241.102646 324.0
242.037247 176.0
242.078293 1052.0
242.307083 216.0
243.088791 1804.0
243.327438 244.0
244.063797 148.0
244.093887 224.0
244.857315 184.0
244.932068 160.0
246.057816 156.0
247.092285 208.0
247.978455 172.0
248.135178 156.0
249.065704 296.0
249.096359 340.0
250.085922 180.0
251.079956 140.0
252.070419 244.0
252.391998 148.0
253.074097 1504.0
254.081192 7484.0
255.086456 4760.0
256.090729 1032.0
256.538361 140.0
257.091095 780.0
257.623352 260.0
258.041931 160.0
258.072296 288.0
259.072052 308.0
260.079376 220.0
260.805298 204.0
261.706055 168.0
263.680237 168.0
265.063721 264.0
266.015564 252.0
266.066315 348.0
266.353241 144.0
267.0867 1116.0
268.096771 4404.0
268.203186 100.0
268.616791 156.0
269.067169 696.0
269.105652 5792.0
270.074615 1144.0
270.107422 516.0
270.805511 148.0
271.067505 188.0
271.109375 220.0
271.283905 160.0
271.849274 156.0
272.048248 152.0
272.085083 120.0
273.087799 696.0
275.099854 148.0
275.839783 172.0
275.988556 140.0
280.082275 136.0
281.090607 672.0
281.881989 176.0
282.111389 484.0
283.002502 192.0
283.072357 3796.0
283.120483 1016.0
284.078613 2192.0
284.117889 420.0
285.064148 1652.0
286.074341 248.0
287.078979 2620.0
288.080048 448.0
289.085358 156.0
294.234467 208.0
295.105652 192.0
297.044006 164.0
297.088501 420.0
298.094971 2596.0
298.1427 184.0
298.188873 120.0
299.077972 1768.0
300.081451 192.0
300.943176 184.0
301.086517 6176.0
301.145508 200.0
301.533875 140.0
302.089111 1180.0
303.087494 236.0
303.1604 148.0
305.820709 144.0
307.402893 144.0
307.944031 176.0
309.125641 140.0
311.109436 140.0
311.235809 160.0
312.114471 544.0
312.786194 152.0
313.085724 264.0
314.060883 168.0
314.131287 200.0
314.544098 124.0
314.601593 144.0
314.831573 120.0
314.892029 152.0
314.95813 164.0
315.030701 132.0
315.098877 73556.0
315.237335 192.0
315.484528 108.0
315.613373 276.0
315.762451 112.0
315.807037 140.0
315.838379 180.0
315.907074 160.0
316.101685 11200.0
316.177673 216.0
316.554382 152.0
316.739075 112.0
316.762207 172.0
317.016205 232.0
317.103546 1352.0
317.736694 104.0
317.871918 144.0
317.980469 136.0
318.017426 156.0
318.108063 204.0
318.253448 196.0
319.096588 120.0
319.223572 236.0
325.087372 140.0
327.34848 156.0
327.791534 144.0
328.186432 136.0
328.617249 148.0
328.716583 136.0
328.870941 104.0
328.914124 188.0
329.016571 264.0
329.057556 188.0
329.11441 44752.0
329.603394 160.0
329.784821 156.0
330.013702 112.0
330.115845 7740.0
330.193787 168.0
331.122955 692.0
332.104919 212.0
332.216522 124.0
332.315948 124.0
332.365265 100.0
332.47287 96.0
338.745819 144.0
342.831451 184.0
343.13739 204.0
344.12146 176.0
359.123199 776.0
359.198456 132.0
360.135284 248.0
360.23056 204.0
361.134369 780.0
361.224731 160.0
361.255005 140.0
362.121796 160.0
362.150726 136.0
480.664276 164.0
683.432861 152.0
959.41626 144.0
1325.637085 200.0
1524.11792 188.0
1610.115845 200.0
1809.284302 204.0
1835.9646 164.0
1963.12207 220.0
1981.755249 156.0
