>compound NCGC00160147-01!2-[2-(4-Methyl-2-oxo-2H-chromen-7-yloxy)-acetyl]-1,2,3,4-tetrahydro-beta-carbolin-3-ylcarboxylic acid methyl ester
>formula C25H22N2O6
>ionization [M+H]+
>parentmass 447.156
#inchi InChI=1S/C25H22N2O6/c1-14-9-24(29)33-22-10-15(7-8-16(14)22)32-13-23(28)27-12-20-18(11-21(27)25(30)31-2)17-5-3-4-6-19(17)26-20/h3-10,21,26H,11-13H2,1-2H3/t21-/m1/s1
#inchikey WNAYNBDAJBVOPW
#Ion_Source LC-ESI
#Instrument qTOF
#Compound_Source Prestwick Phytochem Lib
#PI Dorrestein
#Data_Collector VVP/LMS
#Scan -1
#Precursor_MZ 447.156
#ExactMass 446.148
#Charge 1
#CAS_Number N/A
#Pubmed_ID N/A
#Smiles COC(=O)[C@H]1CC2=C(CN1C(=O)COC3=CC=C4C(C)=CC(=O)OC4=C3)NC5=CC=CC=C25
#INCHI_AUX N/A
#Library_Class 1
#SpectrumID CCMSLIB00000078687
#IonMode Positive
#UpdateWorkflowName UPDATE-SINGLE-ANNOTATED-GOLD
#LibraryQualityString Gold
#TaskID 67c915c6594c435cadc1fe2b5358144d
##Scan# 2263
#SpectrumFile p1-A02_GA2_01_17875.mzXML
#LibraryName phytochem_lib.mgf
#MQScore -1
#Organism phytochem_lib
#TIC_Query 0
#RT_Query -1
#MZErrorPPM -1
#SharedPeaks 0
#MassDiff 0
#LibMZ -1
#SpecMZ 447.156
#SpecCharge 0
#internalFilename spec-00000.mgf

>collision 10
95.894516 168.0
96.660721 112.0
97.075264 244.0
97.518921 168.0
97.707687 164.0
97.841499 180.0
98.1035 160.0
98.352028 128.0
98.91732 120.0
99.073753 128.0
100.814659 56.0
100.886604 164.0
101.47316 180.0
101.699829 112.0
102.190132 44.0
102.214272 200.0
103.052834 256.0
103.220772 120.0
103.338081 124.0
104.175316 228.0
104.217979 260.0
104.315521 144.0
104.814125 156.0
104.989426 64.0
105.352715 148.0
106.070946 152.0
106.785439 156.0
107.473442 100.0
109.377892 104.0
109.438972 224.0
110.28936 180.0
110.986443 124.0
111.057739 156.0
111.725693 172.0
112.235352 204.0
112.439964 156.0
113.332291 172.0
113.489128 28.0
114.364311 156.0
114.547424 20.0
114.879944 164.0
115.051247 188.0
117.068176 188.0
117.22052 72.0
117.747459 216.0
117.939743 92.0
118.504524 164.0
119.027229 168.0
119.058975 232.0
119.133644 184.0
119.244453 144.0
119.934372 148.0
120.093529 120.0
120.728485 224.0
120.840584 148.0
121.03318 192.0
121.066071 200.0
121.99408 168.0
122.526619 100.0
122.908028 164.0
123.19944 136.0
123.550926 108.0
124.495102 244.0
125.677025 216.0
127.054184 188.0
127.079819 208.0
127.549149 172.0
128.059875 324.0
128.210815 204.0
128.321259 212.0
129.057266 220.0
129.074448 352.0
129.188431 120.0
129.242722 124.0
129.901962 40.0
129.933716 180.0
130.276505 196.0
131.046097 120.0
131.073776 188.0
131.841736 204.0
132.097794 168.0
133.069427 164.0
134.051544 120.0
134.65593 176.0
134.676712 272.0
135.354279 180.0
135.871109 220.0
136.151947 212.0
136.449356 148.0
136.595856 148.0
137.108063 208.0
138.151703 212.0
138.430222 176.0
139.126541 104.0
139.678726 104.0
139.885788 160.0
140.048264 144.0
140.078873 36.0
140.130707 212.0
140.968292 248.0
141.625961 96.0
141.656754 88.0
142.064468 256.0
142.192581 180.0
142.487015 144.0
142.72229 72.0
142.922089 252.0
143.05722 204.0
143.074127 372.0
143.419785 224.0
144.081879 404.0
144.130905 208.0
144.439301 44.0
145.054657 180.0
145.081024 212.0
145.781845 156.0
146.062759 212.0
146.087173 116.0
146.154541 180.0
146.375977 168.0
146.665054 168.0
146.751831 152.0
149.056015 152.0
149.124054 116.0
149.216415 176.0
150.109955 108.0
150.151413 136.0
150.168488 152.0
150.405151 220.0
150.471054 220.0
150.663971 200.0
152.978851 172.0
153.060974 336.0
153.274384 172.0
153.387741 180.0
154.064621 6984.0
154.310974 60.0
154.753815 72.0
154.808289 128.0
155.022507 100.0
155.071777 620.0
155.125412 68.0
155.172516 128.0
155.605576 92.0
155.959381 156.0
156.011581 128.0
156.081528 908.0
156.33989 48.0
156.616226 48.0
156.975082 132.0
157.083038 456.0
157.792755 20.0
158.058472 168.0
158.099152 136.0
159.045029 744.0
159.071579 180.0
159.099197 124.0
159.860718 64.0
160.046982 156.0
160.068787 152.0
160.132599 64.0
160.869629 176.0
161.055847 456.0
161.080811 164.0
161.353836 132.0
161.983932 44.0
163.052063 188.0
164.271622 64.0
165.065872 244.0
165.160492 164.0
165.462433 132.0
165.508514 88.0
166.064804 292.0
167.06337 144.0
167.949799 188.0
168.042664 140.0
168.081223 1456.0
168.540955 160.0
168.871826 184.0
168.920975 152.0
169.077362 2400.0
169.560471 40.0
169.716003 80.0
169.998123 192.0
170.058365 1872.0
170.131088 224.0
170.307648 48.0
170.835297 44.0
170.928955 124.0
170.994003 108.0
171.069183 356.0
171.092422 472.0
171.202271 148.0
171.266037 196.0
172.071564 128.0
172.109665 56.0
172.161896 140.0
172.438797 192.0
173.071823 120.0
173.344238 116.0
174.087479 340.0
175.070023 152.0
176.019287 108.0
176.161896 136.0
176.494888 164.0
176.566284 228.0
176.918182 40.0
177.053833 2784.0
177.201538 80.0
177.294266 76.0
178.056946 188.0
179.070496 168.0
179.154099 84.0
179.660583 168.0
180.063614 216.0
181.059052 204.0
181.072601 288.0
182.061172 1020.0
182.115082 176.0
182.139252 28.0
182.727951 52.0
182.93132 104.0
183.065552 252.0
183.090302 1128.0
183.185577 76.0
184.077499 876.0
184.0923 580.0
184.278122 56.0
184.334854 48.0
185.081375 160.0
185.555496 136.0
186.088455 116.0
186.459366 52.0
186.853622 228.0
186.98967 228.0
187.030426 168.0
187.210175 136.0
187.472076 136.0
188.033432 144.0
188.057999 120.0
189.055069 636.0
190.057388 284.0
190.96759 136.0
191.052856 164.0
191.350067 88.0
192.06636 380.0
193.076172 2256.0
193.691727 80.0
193.736053 48.0
193.82193 108.0
193.852417 144.0
194.083145 464.0
194.332092 48.0
194.723465 68.0
195.091354 1328.0
195.58812 40.0
196.099625 596.0
197.067764 144.0
198.050369 356.0
198.076782 1028.0
198.93956 144.0
199.066071 1116.0
199.087601 620.0
199.162384 56.0
199.299026 60.0
199.737564 96.0
200.061035 372.0
200.100571 168.0
200.421631 160.0
200.461075 120.0
201.070175 160.0
201.092758 76.0
201.584122 112.0
201.683029 80.0
201.716949 64.0
202.738647 200.0
203.56694 204.0
206.670914 52.0
209.070053 308.0
209.490067 64.0
210.076675 208.0
210.184845 60.0
210.548553 96.0
210.629425 164.0
211.086929 3916.0
211.210373 92.0
211.265335 124.0
211.653137 72.0
211.760284 312.0
212.055786 140.0
212.091553 1928.0
212.563263 100.0
212.775131 44.0
213.064346 128.0
213.099548 248.0
213.929199 64.0
214.086914 772.0
214.558411 76.0
214.683777 88.0
214.718781 72.0
215.027725 208.0
215.088394 348.0
215.120773 128.0
215.152542 60.0
216.038956 172.0
216.076981 128.0
216.404755 76.0
217.700729 124.0
218.879837 60.0
218.932846 56.0
219.015305 120.0
219.197952 212.0
219.404251 92.0
220.014893 108.0
220.085754 132.0
220.718033 112.0
221.069824 800.0
221.1884 112.0
221.380829 120.0
221.614822 132.0
221.934921 204.0
221.967529 180.0
222.079041 7596.0
222.178101 56.0
222.261169 100.0
222.290848 44.0
222.332382 36.0
222.4422 88.0
222.534225 64.0
222.572815 116.0
222.644089 52.0
222.691605 40.0
222.938171 156.0
223.042191 64.0
223.079391 2172.0
223.446594 40.0
223.610245 48.0
223.699539 36.0
224.047943 296.0
224.087921 248.0
225.064774 336.0
225.366577 60.0
226.006393 72.0
226.620148 88.0
227.054779 108.0
227.084778 172.0
228.060516 136.0
228.66803 184.0
229.053406 128.0
229.097549 372.0
229.237183 20.0
230.102798 132.0
232.114761 128.0
239.080505 2160.0
239.117493 204.0
240.052826 200.0
240.089539 916.0
240.422989 64.0
241.08931 292.0
241.290894 92.0
241.872971 96.0
243.098419 148.0
243.829437 104.0
244.056351 208.0
244.11232 200.0
246.072098 168.0
247.056488 112.0
253.097366 480.0
254.059326 196.0
254.097397 116.0
255.110718 164.0
255.759293 136.0
271.097656 176.0
273.103516 188.0
282.115997 128.0
286.886047 220.0
316.09491 148.0
325.009857 132.0
326.112274 108.0
330.110168 160.0
336.899292 212.0
339.101959 136.0
342.102753 196.0
342.165314 224.0
343.112091 144.0
352.109985 140.0
353.470673 212.0
355.779297 144.0
356.537994 88.0
360.13205 204.0
364.27948 88.0
369.150116 200.0
370.107056 196.0
382.331604 112.0
387.155396 188.0
387.685394 80.0
388.131073 120.0
395.843292 224.0
396.810028 56.0
397.122925 172.0
398.127838 156.0
403.898132 196.0
404.798553 56.0
414.939758 132.0
415.13031 164.0
415.16275 52.0
419.965637 100.0
421.492371 100.0
428.19516 20.0
443.220398 120.0
447.230774 88.0
447.306519 140.0
449.227966 120.0
453.659485 52.0
468.888519 40.0
470.372162 88.0
517.459412 136.0
551.320679 168.0
555.665771 40.0
617.186646 20.0
659.046509 88.0
660.411377 188.0
689.482971 48.0
822.33429 124.0
833.270935 20.0
966.115295 68.0
969.229309 176.0
1046.196655 72.0
1098.083984 172.0
1108.747437 180.0
1115.756348 36.0
1130.616821 236.0
1173.09375 132.0
1211.278564 216.0
1220.765503 148.0
1222.817749 176.0
1234.66333 200.0
1259.832397 160.0
1269.188232 108.0
1271.181274 104.0
1282.552612 104.0
1324.708862 152.0
1341.43689 216.0
1374.497559 212.0
1382.899658 132.0
1394.922607 148.0
1414.861816 184.0
1416.734009 232.0
1420.496948 164.0
1442.657715 252.0
1443.633057 184.0
1444.268311 180.0
1462.743774 208.0
1463.406006 176.0
1465.927124 124.0
1470.907104 220.0
1475.734985 160.0
