>compound MLS001148180-01!ANTAZOLINE PHOSPHATE
>formula C17H19N3
>ionization [M+H]+
>parentmass 266.163574
#inchi InChI=1S/C17H19N3/c1-3-7-15(8-4-1)13-20(14-17-18-11-12-19-17)16-9-5-2-6-10-16/h1-10H,11-14H2,(H,18,19)
#inchikey REYFJDPCWQRWAA
#origInchi InChI=1S/C17H19N3.H3O4P/c1-3-7-15(8-4-1)13-20(14-17-18-11-12-19-17)16-9-5-2-6-10-16;1-5(2,3)4/h1-10H,11-14H2,(H,18,19);(H3,1,2,3,4)
#Ion_Source LC-ESI
#Instrument qTof
#Compound_Source NIH Pharmacologically Active Library
#PI Dorrestein
#Data_Collector VP/LMS
#Scan -1
#Precursor_MZ 266.167
#ExactMass 265.158
#Charge 1
#CAS_Number N/A
#Pubmed_ID N/A
#Smiles C(N(Cc1ccccc1)c2ccccc2)C3=NCCN3.OP(=O)(O)O
#INCHI_AUX N/A
#Library_Class 1
#SpectrumID CCMSLIB00000085118
#IonMode Positive
#UpdateWorkflowName UPDATE-SINGLE-ANNOTATED-GOLD
#LibraryQualityString Gold
#TaskID d252d724072548979f1f6f1ced849daf
##Scan# 1616
#SpectrumFile p3-F02_GF2_01_18283.mzXML
#LibraryName Pharm_Active_Library.mgf
#MQScore -1
#Organism Pharm_Active_Library
#TIC_Query 0
#RT_Query -1
#MZErrorPPM -1
#SharedPeaks 0
#MassDiff 0
#LibMZ -1
#SpecMZ 266.167
#SpecCharge 0
#internalFilename spec-00000.mgf

>collision 10
45.583981 100.0
45.660614 236.0
45.834286 152.0
45.874718 280.0
45.978584 176.0
46.144745 216.0
46.224556 232.0
46.449474 144.0
46.649105 160.0
47.037361 152.0
47.294357 204.0
48.008839 208.0
48.036423 220.0
48.133041 172.0
48.197968 120.0
48.580116 168.0
48.720337 204.0
48.969345 76.0
49.043198 76.0
49.177105 96.0
49.348942 256.0
49.3923 148.0
49.474136 184.0
49.88031 200.0
49.947807 192.0
50.410278 128.0
50.694736 132.0
50.775551 168.0
50.842232 164.0
50.899021 168.0
50.923164 184.0
51.404388 184.0
51.567204 88.0
51.597225 188.0
51.771805 156.0
52.199471 108.0
52.72858 160.0
52.967335 108.0
52.990513 124.0
53.061535 140.0
53.20953 44.0
53.219692 264.0
53.389721 132.0
53.462463 156.0
53.99353 192.0
54.524284 200.0
54.778847 48.0
54.86285 228.0
54.961674 112.0
55.224651 176.0
55.606934 140.0
55.681171 144.0
55.751003 200.0
55.966709 244.0
56.042675 236.0
56.182831 260.0
56.415813 80.0
56.617825 132.0
56.641788 192.0
56.875721 188.0
56.938786 116.0
57.107128 68.0
57.263668 144.0
57.378197 156.0
57.781464 264.0
57.819298 32.0
57.94347 164.0
58.16489 128.0
58.432369 204.0
58.476501 48.0
58.738594 196.0
59.062443 176.0
59.393284 184.0
59.472355 160.0
59.746655 172.0
60.043961 124.0
60.097954 144.0
60.329632 128.0
60.530781 132.0
60.554012 204.0
60.653183 140.0
60.823818 132.0
61.718121 180.0
62.126919 104.0
62.656574 176.0
62.705605 136.0
63.707283 140.0
63.843983 180.0
64.189568 224.0
64.475334 136.0
64.577667 132.0
64.592064 128.0
64.616058 224.0
64.830635 152.0
65.01828 148.0
65.428185 128.0
65.511932 232.0
65.629593 144.0
65.687653 172.0
65.787712 172.0
66.337761 148.0
66.362083 40.0
66.735542 156.0
66.953606 56.0
67.017136 132.0
67.074181 204.0
67.194862 160.0
67.477432 48.0
68.237259 72.0
68.442833 204.0
68.462013 76.0
68.582291 80.0
68.852882 236.0
68.895836 136.0
69.084305 132.0
69.268066 168.0
69.455383 192.0
69.702766 184.0
69.928947 180.0
70.546158 184.0
71.010002 120.0
71.411438 136.0
71.952385 120.0
72.036827 128.0
72.055412 176.0
72.111176 180.0
72.434372 176.0
72.56826 224.0
72.683609 40.0
73.106758 200.0
73.491882 208.0
73.520889 144.0
73.674576 132.0
74.014946 192.0
74.169144 192.0
74.22744 192.0
74.711815 152.0
75.076988 136.0
75.337639 132.0
75.981689 196.0
76.290833 224.0
76.57621 196.0
77.371078 204.0
77.46534 220.0
77.737114 156.0
78.204628 256.0
78.320839 168.0
78.963341 128.0
79.27317 208.0
79.308617 132.0
79.599586 140.0
79.635101 156.0
80.076218 196.0
80.793831 148.0
80.960304 180.0
81.374535 84.0
81.478706 160.0
81.505661 220.0
81.584747 140.0
81.959122 168.0
82.60006 156.0
82.636246 168.0
82.840828 152.0
83.279823 164.0
83.414291 172.0
83.801949 212.0
83.962364 120.0
84.097382 240.0
84.479301 128.0
85.240227 248.0
85.551071 184.0
86.183708 160.0
86.246544 104.0
86.670364 76.0
86.903999 76.0
87.186264 160.0
87.206711 92.0
87.219719 164.0
87.616112 164.0
87.62915 48.0
87.73912 180.0
87.897667 200.0
88.088104 244.0
88.263794 200.0
88.357323 160.0
88.434044 140.0
88.921371 224.0
89.056564 224.0
89.442039 224.0
89.700119 52.0
89.775536 72.0
90.096428 168.0
90.531487 132.0
90.618622 120.0
90.717178 160.0
90.756996 100.0
90.84803 224.0
90.895882 128.0
90.923935 216.0
90.939117 108.0
90.979179 196.0
91.01696 196.0
91.053749 19076.0
91.087486 148.0
91.108131 96.0
91.13105 168.0
91.175026 156.0
91.205048 60.0
91.273491 68.0
91.332451 72.0
91.364792 104.0
91.391426 52.0
91.429489 124.0
91.562759 156.0
91.576088 68.0
91.650391 40.0
91.76857 100.0
91.812431 40.0
91.965065 28.0
92.00795 216.0
92.056114 2120.0
92.087273 40.0
92.14267 92.0
92.236313 112.0
92.272636 80.0
92.423744 76.0
92.452446 152.0
92.4869 48.0
92.517532 148.0
92.658203 152.0
92.672668 100.0
92.735321 156.0
93.057861 156.0
93.563873 68.0
93.710251 64.0
96.235725 148.0
96.885078 116.0
97.456032 52.0
97.904549 268.0
98.071426 376.0
98.450844 52.0
99.194817 100.0
100.108803 108.0
100.312042 124.0
101.085007 40.0
101.848892 228.0
101.864967 136.0
102.839584 160.0
102.873901 80.0
103.545639 80.0
104.048279 168.0
104.102959 140.0
105.05619 824.0
105.251495 120.0
105.271919 176.0
105.973557 156.0
106.064377 1204.0
106.090378 64.0
106.11293 84.0
106.149841 132.0
106.266762 52.0
106.4207 136.0
107.072273 236.0
107.350822 60.0
107.951538 172.0
108.007622 36.0
109.410492 128.0
110.19471 224.0
110.48114 156.0
111.554893 116.0
112.013657 152.0
113.209145 108.0
113.720108 52.0
113.766808 100.0
114.432274 164.0
114.555801 76.0
114.894775 156.0
114.950256 224.0
116.202034 168.0
117.005875 56.0
117.053787 304.0
117.950783 92.0
118.063499 1292.0
118.882133 72.0
119.071396 760.0
119.560204 164.0
119.745262 124.0
120.307861 176.0
120.458549 152.0
122.69046 192.0
122.752197 220.0
123.116333 148.0
123.545151 68.0
124.107727 220.0
124.509399 188.0
124.771606 176.0
124.953987 124.0
128.047745 136.0
131.059082 148.0
131.329834 156.0
131.405106 228.0
131.706467 148.0
132.028732 244.0
132.076004 324.0
133.072891 284.0
134.053604 256.0
134.092789 184.0
134.429504 224.0
135.833954 136.0
136.375 148.0
136.514496 152.0
137.320328 104.0
139.448669 172.0
140.74913 208.0
141.074814 172.0
141.427643 128.0
141.491562 144.0
142.0224 164.0
142.050873 192.0
143.084671 188.0
144.58136 160.0
145.074829 184.0
145.283447 96.0
146.068832 268.0
147.084808 152.0
150.951553 196.0
152.054001 176.0
152.478912 232.0
153.065506 200.0
153.542511 108.0
154.075714 140.0
155.700699 72.0
156.765488 156.0
156.900101 196.0
157.075516 356.0
158.083542 336.0
159.091461 164.0
159.126846 140.0
160.243591 152.0
160.276352 96.0
161.106064 656.0
162.1073 292.0
163.44162 124.0
165.063995 116.0
167.249908 160.0
167.999802 108.0
168.619537 128.0
168.955704 208.0
170.951096 120.0
172.997452 228.0
173.104691 184.0
174.054092 236.0
174.099991 1264.0
174.27211 36.0
174.374603 100.0
174.742752 48.0
174.90329 88.0
175.108276 1160.0
175.145554 160.0
175.256195 80.0
175.461792 32.0
175.680679 40.0
175.897079 196.0
176.112839 260.0
176.499466 32.0
178.074051 388.0
178.772888 72.0
179.055099 172.0
179.08577 320.0
179.353516 52.0
179.817627 32.0
180.081543 564.0
180.349167 132.0
181.091522 152.0
182.090775 168.0
182.491196 64.0
183.110138 168.0
187.24054 132.0
188.331543 156.0
189.261398 136.0
190.061798 60.0
191.10321 100.0
191.684219 128.0
193.18071 228.0
193.922821 240.0
194.096344 196.0
194.469238 68.0
194.80246 128.0
194.908035 144.0
195.099823 148.0
195.686874 156.0
195.731415 108.0
195.773193 184.0
195.991928 268.0
196.06015 48.0
196.110626 16532.0
196.161072 208.0
196.252487 60.0
196.279984 56.0
196.447723 60.0
196.520264 76.0
196.631058 108.0
196.659439 156.0
196.698883 80.0
196.785431 60.0
196.85524 52.0
196.939026 40.0
197.000473 156.0
197.115204 1576.0
197.442123 40.0
197.537216 36.0
198.110306 180.0
198.433411 168.0
198.671814 64.0
199.286682 40.0
199.466553 88.0
200.429092 80.0
200.677139 80.0
201.136993 64.0
204.820557 68.0
204.863281 156.0
206.092972 100.0
218.754166 112.0
219.614609 80.0
220.116333 316.0
223.611679 104.0
232.878876 40.0
233.860992 100.0
237.132248 200.0
246.138428 188.0
256.063568 96.0
263.1185 64.0
263.170166 108.0
266.163574 196.0
267.156708 212.0
267.781708 36.0
292.811096 84.0
317.392822 108.0
326.359222 200.0
357.10022 44.0
363.4888 88.0
373.937622 80.0
379.748779 88.0
405.550995 28.0
496.977142 56.0
515.503174 40.0
610.441711 64.0
731.923218 216.0
733.15686 180.0
747.970764 212.0
750.187927 192.0
754.047119 188.0
761.690857 156.0
764.219849 164.0
768.081848 168.0
774.222595 72.0
774.809753 220.0
777.238342 184.0
784.440857 84.0
798.83313 128.0
801.811829 168.0
803.170654 132.0
808.306335 124.0
808.453491 104.0
811.699524 176.0
822.937744 48.0
823.308899 172.0
823.908691 168.0
829.981506 136.0
834.465942 180.0
839.135437 108.0
839.683289 68.0
839.856323 224.0
851.24646 204.0
851.316162 188.0
851.647217 180.0
854.804199 152.0
856.568359 72.0
857.314148 144.0
859.413452 184.0
860.534119 168.0
862.350952 220.0
868.516602 216.0
870.230286 108.0
871.352112 220.0
875.039856 180.0
879.939453 128.0
884.059509 208.0
884.67511 156.0
889.393738 192.0
895.238281 168.0
895.947144 216.0
896.423828 188.0
896.531067 260.0
897.550476 184.0
898.534607 60.0
901.14978 132.0
902.578369 176.0
903.954224 136.0
907.619812 240.0
910.837219 136.0
912.327515 144.0
913.133301 248.0
913.638611 124.0
915.360046 200.0
915.420288 160.0
916.902344 180.0
918.632874 144.0
919.260376 164.0
923.556091 172.0
923.816162 164.0
925.165771 136.0
927.061646 44.0
928.310486 176.0
929.129333 196.0
934.555115 136.0
934.597717 164.0
934.926331 148.0
940.539856 136.0
944.738098 220.0
945.545776 148.0
946.886658 164.0
950.288879 220.0
952.806213 156.0
954.773254 68.0
974.946777 36.0
976.277161 88.0
977.994385 120.0
979.38916 132.0
980.037109 228.0
981.888611 164.0
982.874268 180.0
984.210083 176.0
985.796753 224.0
989.656372 152.0
989.731506 140.0
989.812927 112.0
991.441711 88.0
993.071838 128.0
995.758179 180.0
996.933044 124.0
997.68103 88.0
999.24707 148.0
1005.914917 200.0
1007.127319 188.0
1007.651672 192.0
1007.847534 84.0
1015.964539 96.0
1020.448486 136.0
1023.082458 136.0
1026.733643 192.0
1029.758911 132.0
1030.634155 224.0
1036.623657 64.0
1037.662109 144.0
1040.234741 188.0
1040.504395 88.0
1042.996948 196.0
1045.672729 216.0
1046.129761 188.0
1048.790283 68.0
1049.293091 168.0
1050.911987 188.0
1052.047974 172.0
1052.738892 140.0
1053.791748 176.0
1055.750488 176.0
1059.537109 220.0
1060.185181 152.0
1061.825439 220.0
1061.890259 216.0
1061.942139 100.0
1062.30542 156.0
1063.466919 68.0
1063.856445 200.0
1064.479736 108.0
1065.298218 136.0
1065.623047 220.0
1070.228149 212.0
1070.312744 184.0
1073.975464 160.0
1075.608276 180.0
1076.148682 208.0
1076.47522 132.0
1077.703247 120.0
1078.11499 196.0
1078.820923 200.0
1079.056274 164.0
1079.945557 140.0
1080.403564 180.0
1081.934937 204.0
1082.615967 156.0
1084.017944 76.0
1084.791382 136.0
1086.378296 224.0
1093.32373 208.0
1094.785278 160.0
1100.178955 112.0
1100.410034 140.0
1106.651733 132.0
1108.28125 156.0
1108.692139 184.0
1109.626709 172.0
1109.715088 212.0
1112.1875 200.0
1112.386597 212.0
1116.08728 140.0
1117.530762 180.0
1118.56897 220.0
1119.481079 156.0
1119.894043 216.0
1121.259888 184.0
1121.486572 148.0
1123.066895 216.0
1123.767334 160.0
1126.457886 180.0
1129.994507 172.0
1132.237061 180.0
1134.374512 124.0
1137.440186 180.0
1140.859619 132.0
1141.995972 168.0
1142.224731 48.0
1144.149414 124.0
1150.64209 176.0
1150.723022 212.0
1154.121704 168.0
1158.033447 96.0
1160.561279 260.0
1162.073853 172.0
1163.648438 120.0
1164.035522 140.0
1164.585693 76.0
1168.011475 60.0
1168.07959 204.0
1171.89209 140.0
1172.41687 72.0
1174.400879 152.0
1175.512939 192.0
1177.117188 176.0
1178.449219 200.0
1181.916016 180.0
1182.976807 188.0
1183.428711 176.0
1185.387817 196.0
1185.54541 152.0
1186.237671 172.0
1186.525635 192.0
1186.669556 212.0
1189.592285 160.0
1190.869507 188.0
1193.041016 188.0
1193.996826 180.0
1194.471436 100.0
1194.932373 136.0
1196.673706 232.0
1196.832031 204.0
1199.195068 160.0
1199.629272 164.0
1200.691162 188.0
1200.953369 164.0
1204.190552 264.0
1205.247437 152.0
1205.523926 204.0
1207.113892 216.0
1210.885742 204.0
1211.488403 160.0
1211.654663 148.0
1212.060181 196.0
1217.884277 120.0
1221.64502 204.0
1224.959473 188.0
1225.989868 164.0
1227.460815 220.0
1230.377441 176.0
1230.942993 168.0
1231.103638 208.0
1231.941772 176.0
1234.667847 180.0
1235.983032 192.0
1236.836914 40.0
1237.425049 160.0
1238.139282 284.0
1240.675903 108.0
1244.380371 52.0
1246.016846 148.0
1247.534912 184.0
1249.602661 156.0
1251.186157 128.0
1251.439697 188.0
1251.932617 52.0
1252.615845 136.0
1254.018066 160.0
1256.274536 188.0
1260.334351 236.0
1261.769165 224.0
1265.08728 176.0
1266.985229 152.0
1269.898682 184.0
1271.040894 132.0
1273.809937 204.0
1275.486938 176.0
1279.755615 224.0
1280.439331 60.0
1280.994873 32.0
1281.30127 224.0
1282.876221 136.0
1288.292847 144.0
1288.985962 172.0
1293.556274 84.0
1293.706665 140.0
1293.756714 152.0
1295.49707 116.0
1296.636353 116.0
1297.166748 140.0
1298.235107 216.0
1298.29248 112.0
1298.349854 192.0
1299.088745 188.0
1299.311035 56.0
1299.555054 164.0
1301.083862 196.0
1302.63501 152.0
1303.691284 208.0
1304.668823 220.0
1307.071167 176.0
1308.669189 156.0
1309.18042 44.0
1310.24646 136.0
1311.406738 148.0
1315.633911 112.0
1316.782104 204.0
1318.841309 236.0
1321.307373 240.0
1322.168457 184.0
1324.195679 152.0
1326.644897 184.0
1328.022705 100.0
1330.381104 156.0
1332.843384 96.0
1337.308716 160.0
1341.599365 156.0
1341.949341 168.0
1342.824463 224.0
1342.999512 56.0
1344.830933 196.0
1350.508423 84.0
1350.947266 220.0
1351.627686 220.0
1353.582275 132.0
1356.117188 224.0
1358.265625 152.0
1359.079956 180.0
1362.207642 160.0
1362.574951 304.0
1363.295044 68.0
1365.302124 124.0
1366.729248 192.0
1366.832275 152.0
1367.185547 152.0
1367.354736 144.0
1369.062866 120.0
1369.843628 256.0
1376.119873 160.0
1379.673706 120.0
1380.98999 248.0
1381.322876 180.0
1382.506714 68.0
1382.632446 156.0
1383.683594 176.0
1384.246338 152.0
1385.668579 224.0
1388.730225 136.0
1389.049194 164.0
1389.420166 224.0
1390.948975 140.0
1392.43396 168.0
1392.649414 152.0
1396.127808 212.0
1396.477295 208.0
1397.533691 288.0
1401.688721 156.0
1402.419189 220.0
1403.395752 156.0
1403.537476 44.0
1403.999756 76.0
1405.297852 124.0
1406.49939 104.0
1407.641724 188.0
1408.179443 124.0
1408.54541 156.0
1409.098267 120.0
1409.748291 168.0
1413.083374 128.0
1413.360229 188.0
1414.400513 76.0
1414.662598 104.0
1415.778198 184.0
1416.220093 192.0
1416.579712 184.0
1418.603027 184.0
1418.677979 152.0
1420.507812 180.0
1421.175537 196.0
1425.929321 136.0
1428.312866 168.0
1430.389771 92.0
1431.504028 160.0
1434.163696 132.0
1435.422729 152.0
1437.225586 76.0
1437.308594 144.0
1438.19165 188.0
1439.988647 140.0
1444.508911 164.0
1445.341187 204.0
1450.044067 120.0
1452.81189 156.0
1452.902832 196.0
1453.471924 152.0
1454.359863 140.0
1454.952026 204.0
1455.316528 176.0
1458.036133 152.0
1459.123047 192.0
1459.351196 144.0
1460.187744 124.0
1462.158325 216.0
1462.538818 224.0
1463.894043 88.0
1464.617676 204.0
1464.671021 76.0
1465.661377 160.0
1469.512085 96.0
1471.672119 152.0
1471.786621 124.0
1473.077393 160.0
1473.604614 176.0
1474.391724 180.0
1476.723633 144.0
1477.542114 152.0
1480.810791 64.0
1481.530884 156.0
1487.481934 196.0
1490.023926 176.0
1493.614136 148.0
1494.037231 152.0
1494.545044 184.0
1494.960571 220.0
1496.577148 212.0
1496.831299 108.0
1499.4198 36.0
1500.028687 72.0
1502.905518 252.0
