>compound NCGC00095321-02!CURCUMIN
>formula C21H20O6
>ionization [M+H]+
>parentmass 369.134
#inchi InChI=1S/C21H20O6/c1-26-20-11-14(5-9-18(20)24)3-7-16(22)13-17(23)8-4-15-6-10-19(25)21(12-15)27-2/h3-13,22,24-25H,1-2H3/b7-3+,8-4+,16-13-
#inchikey ZIUSSTSXXLLKKK
#Ion_Source LC-ESI
#Instrument qTOF
#Compound_Source Prestwick Phytochem Lib
#PI Dorrestein
#Data_Collector VVP/LMS
#Scan -1
#Precursor_MZ 369.134
#ExactMass 368.126
#Charge 1
#CAS_Number N/A
#Pubmed_ID N/A
#Smiles COC1=CC(=CC=C1O)/C=C/C(O)=C/C(=O)/C=C/C2=CC=C(O)C(=C2)OC
#INCHI_AUX N/A
#Library_Class 1
#SpectrumID CCMSLIB00000078714
#IonMode Positive
#UpdateWorkflowName UPDATE-SINGLE-ANNOTATED-GOLD
#LibraryQualityString Gold
#TaskID 67c915c6594c435cadc1fe2b5358144d
##Scan# 2280
#SpectrumFile p1-F02_GF2_01_17934.mzXML
#LibraryName phytochem_lib.mgf
#MQScore -1
#Organism phytochem_lib
#TIC_Query 0
#RT_Query -1
#MZErrorPPM -1
#SharedPeaks 0
#MassDiff 0
#LibMZ -1
#SpecMZ 369.134
#SpecCharge 0
#internalFilename spec-00000.mgf

>collision 10
95.373695 160.0
95.503967 196.0
95.932358 176.0
96.133247 124.0
97.166367 220.0
97.187943 160.0
97.683022 132.0
98.277992 212.0
98.773857 176.0
100.783783 148.0
101.033699 140.0
101.552505 188.0
101.791321 84.0
101.817429 204.0
102.74334 124.0
102.896721 144.0
103.052231 120.0
103.068398 188.0
103.104767 216.0
103.149239 36.0
103.537704 120.0
104.109596 208.0
104.162407 152.0
104.282288 208.0
104.42054 152.0
104.536499 156.0
104.966309 152.0
105.029526 148.0
105.070328 136.0
106.042946 148.0
106.306175 32.0
107.046204 148.0
107.130653 132.0
107.77021 140.0
108.714439 260.0
108.890907 200.0
109.036339 180.0
109.059196 196.0
109.460716 128.0
110.255508 68.0
110.485512 208.0
110.801636 204.0
111.363815 148.0
112.089607 36.0
112.970016 112.0
113.264252 180.0
113.289673 276.0
114.130119 180.0
114.843529 148.0
115.024895 132.0
115.054779 328.0
115.362404 160.0
115.571991 160.0
116.036766 120.0
116.060349 204.0
116.169724 180.0
116.26413 244.0
116.381973 196.0
116.812019 204.0
116.917442 208.0
116.970726 180.0
117.033279 5668.0
117.1026 32.0
117.149986 228.0
117.209122 116.0
117.231224 96.0
117.264183 56.0
117.294357 164.0
117.324539 120.0
117.460396 164.0
117.561798 32.0
117.648132 60.0
117.829544 60.0
118.038452 468.0
118.602081 168.0
118.723495 72.0
118.988213 192.0
119.024719 216.0
119.033218 176.0
119.047821 460.0
119.1511 128.0
119.331482 160.0
119.786316 160.0
120.091476 28.0
120.259476 176.0
120.790436 124.0
121.066208 204.0
121.256805 112.0
121.427811 184.0
121.93277 156.0
122.032669 204.0
122.731857 184.0
123.595497 172.0
124.722092 72.0
125.396484 124.0
125.623917 184.0
126.218002 168.0
126.674561 140.0
126.728333 168.0
127.035469 236.0
127.475525 92.0
128.063858 180.0
128.655746 152.0
129.072754 172.0
129.107651 220.0
130.031967 84.0
130.306732 104.0
130.82753 144.0
131.049194 268.0
132.055145 136.0
132.288544 216.0
132.318298 164.0
132.4328 152.0
132.526718 140.0
132.82933 108.0
132.882095 72.0
133.063416 304.0
133.875076 140.0
134.033676 852.0
134.296829 144.0
134.848648 68.0
135.022751 184.0
135.051559 168.0
135.53363 228.0
135.835022 168.0
135.913895 120.0
136.05127 1480.0
136.129776 80.0
136.170303 176.0
136.301666 220.0
136.524826 136.0
136.934433 52.0
137.058472 1324.0
137.729767 160.0
138.003189 196.0
138.056976 128.0
138.895447 104.0
139.057343 188.0
139.611786 152.0
139.759979 132.0
140.351181 144.0
140.709518 160.0
141.073624 220.0
141.123276 176.0
141.347977 228.0
141.761002 152.0
143.049164 284.0
143.974777 164.0
144.06076 148.0
144.199341 136.0
144.598755 136.0
144.75676 104.0
144.775909 120.0
144.852554 124.0
145.028305 11876.0
145.059525 160.0
145.185699 172.0
145.224075 68.0
145.245285 76.0
145.325134 64.0
145.440018 52.0
145.857971 92.0
145.910858 84.0
145.975769 156.0
146.031158 1352.0
146.062347 108.0
146.136932 172.0
146.343918 68.0
146.601654 64.0
146.792099 48.0
146.869263 52.0
146.928787 196.0
146.997131 32.0
147.039871 740.0
147.085083 164.0
147.138275 92.0
147.277191 100.0
148.041992 204.0
148.230377 48.0
148.271576 92.0
148.332169 128.0
149.059296 2356.0
149.189072 168.0
149.276611 60.0
149.300919 88.0
149.553955 52.0
149.770645 140.0
149.950943 36.0
150.004578 32.0
150.060745 356.0
150.109406 48.0
150.37532 200.0
150.819839 92.0
151.044083 372.0
151.075165 860.0
151.478058 168.0
151.661835 172.0
151.992905 88.0
152.074982 140.0
152.82341 48.0
153.276459 60.0
153.301102 128.0
154.219177 128.0
155.092896 192.0
157.072449 176.0
159.046494 220.0
159.528702 56.0
159.659439 76.0
160.043579 196.0
160.411209 116.0
160.722473 124.0
160.868851 108.0
160.99762 216.0
161.017822 140.0
161.058701 2860.0
161.485397 52.0
161.940964 56.0
162.01442 192.0
162.032562 152.0
162.061478 292.0
162.323166 64.0
162.74231 136.0
163.036819 132.0
163.232712 112.0
164.264191 132.0
165.069183 840.0
165.667587 120.0
166.073044 152.0
166.997223 200.0
167.047089 316.0
167.084686 152.0
168.058578 176.0
169.646515 148.0
171.046661 184.0
173.059448 184.0
174.368439 92.0
175.010284 40.0
175.077225 396.0
175.700806 68.0
176.043869 160.0
176.210342 116.0
176.284332 80.0
176.466965 84.0
176.800003 156.0
176.892639 76.0
176.950882 192.0
177.053925 11152.0
177.186584 48.0
177.266083 60.0
177.293777 80.0
177.316437 100.0
177.39859 76.0
177.500595 76.0
177.533813 92.0
178.056702 1656.0
179.062302 176.0
179.213776 64.0
179.381668 120.0
179.410995 68.0
179.434982 248.0
179.46431 52.0
179.536316 44.0
179.936554 48.0
180.056717 188.0
180.075409 156.0
180.33725 140.0
181.062286 212.0
181.963257 224.0
182.07103 300.0
182.559753 44.0
183.049515 312.0
183.178787 208.0
183.507568 168.0
184.047195 72.0
185.060043 260.0
185.332321 164.0
186.062347 152.0
187.034744 144.0
187.2117 176.0
188.051392 144.0
188.075958 132.0
188.758957 88.0
191.065628 204.0
192.058441 160.0
193.061401 504.0
193.931946 52.0
194.309082 100.0
194.450592 68.0
195.04776 192.0
195.495529 64.0
195.540054 140.0
196.077576 152.0
196.389832 72.0
197.09613 160.0
199.076569 144.0
200.057831 96.0
200.080353 200.0
200.970963 112.0
201.055481 616.0
201.0923 128.0
202.071411 176.0
202.076401 208.0
202.828964 148.0
203.067078 176.0
203.095505 152.0
204.03656 396.0
204.154861 160.0
205.043076 308.0
205.074432 216.0
206.073196 148.0
206.559204 140.0
207.074402 148.0
207.578781 212.0
209.056747 144.0
209.824356 124.0
210.067139 308.0
211.067871 256.0
211.201797 208.0
212.050385 308.0
213.054199 260.0
214.386719 212.0
215.075027 148.0
217.067352 128.0
217.216919 96.0
217.942062 96.0
219.063248 680.0
220.597443 168.0
221.057861 884.0
221.369659 48.0
221.396317 48.0
221.450607 60.0
222.062271 148.0
224.084518 176.0
225.090485 1340.0
225.121353 152.0
225.442169 108.0
225.842789 68.0
226.084885 204.0
226.093475 172.0
226.103195 352.0
227.06839 192.0
227.929337 44.0
228.053802 124.0
228.127686 136.0
229.053452 340.0
231.078598 332.0
236.576508 84.0
237.06044 216.0
238.064285 888.0
238.585892 60.0
239.068802 144.0
240.069977 144.0
241.088715 184.0
242.088058 184.0
244.092926 308.0
245.490707 196.0
245.596741 92.0
247.078934 136.0
248.095215 104.0
249.086838 148.0
251.978775 96.0
253.086075 2388.0
253.335953 52.0
253.862091 64.0
254.092438 608.0
254.258636 52.0
254.916 32.0
255.078522 172.0
255.138489 28.0
255.376968 32.0
255.882935 52.0
256.539215 20.0
259.066956 152.0
259.094849 148.0
259.659943 104.0
262.0 160.0
265.63028 136.0
267.091614 180.0
267.74295 120.0
268.104553 228.0
268.258331 616.0
268.479462 120.0
269.084961 172.0
269.255035 172.0
269.478302 80.0
270.090057 140.0
273.73584 56.0
276.072174 136.0
282.066803 152.0
283.103973 208.0
283.874725 148.0
285.10965 1848.0
285.930695 88.0
286.119751 336.0
286.840088 28.0
287.734039 88.0
290.098755 156.0
290.478546 48.0
290.817871 60.0
291.106445 112.0
292.064819 164.0
299.120575 172.0
302.905151 120.0
303.064514 148.0
303.848083 20.0
307.090088 40.0
308.112854 164.0
310.149475 232.0
314.574554 60.0
316.048309 76.0
317.419098 44.0
318.228088 68.0
319.048798 164.0
319.095398 216.0
320.11264 140.0
320.233704 108.0
324.711975 76.0
341.239014 112.0
356.152649 72.0
367.19339 160.0
369.198395 152.0
372.740448 40.0
380.74469 76.0
380.853455 116.0
406.542816 132.0
441.43988 120.0
451.31308 60.0
478.60495 52.0
544.314453 96.0
589.320984 100.0
589.668884 108.0
634.71521 92.0
641.981445 84.0
802.749451 136.0
861.286316 220.0
861.590088 52.0
889.901672 140.0
920.584229 156.0
921.151978 216.0
940.284241 168.0
961.167542 196.0
991.233032 80.0
992.060364 136.0
1004.864685 252.0
1014.198547 164.0
1029.390991 160.0
1033.449829 156.0
1038.664551 80.0
1040.20459 148.0
1058.702515 192.0
1086.522217 224.0
1090.889282 200.0
1096.879517 156.0
1097.116821 144.0
1106.868774 184.0
1117.455444 152.0
1133.661011 176.0
1136.363281 176.0
1144.758545 204.0
1145.944092 172.0
1146.402222 48.0
1163.37915 188.0
1163.833984 144.0
1164.546997 148.0
1166.300049 88.0
1175.308716 120.0
1178.546265 20.0
1181.629761 168.0
1204.204346 60.0
1211.508789 136.0
1211.695801 160.0
1214.718384 128.0
1215.141479 148.0
1215.217896 48.0
1220.586914 164.0
1225.584595 184.0
1229.189575 200.0
1229.580322 136.0
1234.498413 156.0
1236.331299 232.0
1241.010498 208.0
1243.318237 172.0
1244.813599 144.0
1245.108521 192.0
1257.182007 44.0
1268.916626 116.0
1283.592041 180.0
1283.641968 232.0
1290.153564 220.0
1291.59082 172.0
1300.088013 132.0
1300.23877 52.0
1300.518677 184.0
1308.75708 168.0
1313.297119 92.0
1318.538696 160.0
1324.022583 104.0
1324.956909 232.0
1329.067871 80.0
1329.996704 180.0
1338.648315 168.0
1342.167725 136.0
1344.764771 192.0
1351.670776 60.0
1352.153809 56.0
1352.878418 184.0
1353.493408 168.0
1360.561279 184.0
1364.513794 224.0
1367.169067 108.0
1368.074463 160.0
1369.871216 148.0
1374.434814 160.0
1378.902588 144.0
1383.503296 132.0
1386.555054 132.0
1388.5271 160.0
1392.401123 176.0
1399.070923 172.0
1403.295166 196.0
1406.308838 120.0
1411.702881 164.0
1414.231567 168.0
1417.826416 144.0
1420.953247 156.0
1421.726196 128.0
1428.916992 184.0
1430.090942 56.0
1445.826904 136.0
1452.297119 152.0
1453.806885 192.0
1478.781372 132.0
1485.777466 148.0
1487.250732 192.0
1488.755615 108.0
1493.728271 252.0
1502.078247 112.0
