>compound MLS000860001-01!(+/-)-PPHT hydrochloride
>formula C21H27NO
>ionization [M+H]+
>parentmass 310.216034
#inchi InChI=1S/C21H27NO/c1-2-14-22(15-13-17-7-4-3-5-8-17)19-11-12-20-18(16-19)9-6-10-21(20)23/h3-10,19,23H,2,11-16H2,1H3
#inchikey DEYFWGXTPWNADC
#origInchi InChI=1S/C21H27NO.ClH/c1-2-14-22(15-13-17-7-4-3-5-8-17)19-11-12-20-18(16-19)9-6-10-21(20)23;/h3-10,19,23H,2,11-16H2,1H3;1H
#Ion_Source LC-ESI
#Instrument qTof
#Compound_Source NIH Pharmacologically Active Library
#PI Dorrestein
#Data_Collector VP/LMS
#Scan -1
#Precursor_MZ 310.224
#ExactMass 309.209
#Charge 1
#CAS_Number N/A
#Pubmed_ID N/A
#Smiles CCCN(CCc1ccccc1)C2CCc3c(O)cccc3C2.Cl
#INCHI_AUX N/A
#Library_Class 1
#SpectrumID CCMSLIB00000085568
#IonMode Positive
#UpdateWorkflowName UPDATE-SINGLE-ANNOTATED-GOLD
#LibraryQualityString Gold
#TaskID d252d724072548979f1f6f1ced849daf
##Scan# 1696
#SpectrumFile p4-C09_GC9_01_18357.mzXML
#LibraryName Pharm_Active_Library.mgf
#MQScore -1
#Organism Pharm_Active_Library
#TIC_Query 0
#RT_Query -1
#MZErrorPPM -1
#SharedPeaks 0
#MassDiff 0
#LibMZ -1
#SpecMZ 310.224
#SpecCharge 0
#internalFilename spec-00000.mgf

>collision 10
44.890209 300.0
44.926876 140.0
44.938442 144.0
44.954483 168.0
45.043667 188.0
45.057709 148.0
45.086315 196.0
45.096462 224.0
45.116611 164.0
45.144588 120.0
45.187862 160.0
45.200775 212.0
45.239586 180.0
45.253239 204.0
45.27306 144.0
45.29047 208.0
45.311905 100.0
45.340042 148.0
45.393665 164.0
45.408417 124.0
45.423172 212.0
45.460739 176.0
45.526516 180.0
45.539948 192.0
45.560097 228.0
45.591 124.0
45.636703 276.0
45.669544 188.0
45.689156 188.0
45.718758 64.0
45.739929 164.0
45.804333 164.0
45.808849 92.0
45.814632 156.0
45.890778 108.0
45.926239 160.0
45.946472 80.0
45.961742 176.0
45.977982 196.0
45.996887 156.0
46.019352 196.0
46.031506 220.0
46.051277 220.0
46.065239 184.0
46.094994 156.0
46.132835 156.0
46.161148 200.0
46.172047 108.0
46.21804 124.0
46.241047 148.0
46.27895 212.0
46.315514 132.0
46.330414 172.0
46.342262 172.0
46.385975 172.0
46.4375 468.0
46.483624 128.0
46.502625 152.0
46.528416 188.0
46.556931 96.0
46.579353 212.0
46.598999 148.0
46.613983 204.0
46.635696 164.0
46.671074 152.0
46.690113 156.0
46.707394 144.0
46.72456 196.0
46.751331 192.0
46.770664 156.0
46.787685 152.0
46.831654 144.0
46.843914 132.0
46.861626 176.0
46.879337 332.0
46.899059 136.0
46.907959 212.0
46.922955 352.0
46.932499 232.0
46.966595 152.0
46.989784 132.0
47.000698 128.0
47.014347 192.0
47.088066 124.0
47.101124 272.0
47.112938 192.0
47.127682 60.0
47.156559 152.0
47.178249 156.0
47.229187 80.0
47.239559 120.0
47.252392 132.0
47.281399 204.0
47.299995 152.0
47.313686 176.0
47.32563 232.0
47.336964 156.0
47.353046 172.0
47.378967 168.0
47.389179 196.0
47.409565 100.0
47.42445 256.0
47.452057 128.0
47.480217 156.0
47.493198 116.0
47.509659 152.0
47.51926 152.0
47.533272 176.0
47.557774 180.0
47.58926 128.0
47.615349 88.0
47.632427 176.0
47.649693 140.0
47.666725 212.0
47.707413 236.0
47.728573 184.0
47.734268 120.0
47.754162 132.0
47.787178 272.0
47.829643 168.0
47.890423 256.0
47.913841 196.0
47.936192 184.0
47.960693 72.0
47.981369 88.0
48.001541 184.0
48.029636 44.0
48.053085 152.0
48.06921 228.0
48.113811 148.0
48.130379 92.0
48.153687 164.0
48.191154 120.0
48.2257 172.0
48.272404 164.0
48.27491 128.0
48.283924 144.0
48.289604 128.0
48.293804 172.0
48.341873 112.0
48.355709 120.0
48.385818 144.0
48.401394 52.0
48.428398 200.0
48.443981 148.0
48.46389 64.0
48.539276 144.0
48.557987 128.0
48.578518 200.0
48.596287 204.0
48.610706 172.0
48.621807 128.0
48.6404 192.0
48.653732 164.0
48.667614 120.0
48.68758 180.0
48.703724 132.0
48.717613 192.0
48.740578 272.0
48.770252 204.0
48.786568 800.0
48.819077 192.0
48.832985 152.0
48.852459 180.0
48.864979 144.0
48.884457 372.0
48.926212 220.0
48.947098 248.0
48.96172 152.0
48.983311 48.0
48.998634 156.0
49.010529 140.0
49.031071 172.0
49.050892 240.0
49.071106 68.0
49.083652 132.0
49.096298 180.0
49.126205 96.0
49.147816 192.0
49.163166 104.0
49.177124 188.0
49.206436 116.0
49.22459 156.0
49.256371 132.0
49.274872 172.0
49.287445 188.0
49.308887 140.0
49.341957 84.0
49.382507 60.0
49.397892 156.0
49.431473 148.0
49.444424 172.0
49.465061 124.0
49.482147 196.0
49.526672 140.0
49.544167 184.0
49.581314 116.0
49.610947 224.0
49.665436 208.0
49.679462 132.0
49.730164 180.0
49.744938 164.0
49.757626 184.0
49.777061 156.0
49.78157 224.0
49.786697 240.0
49.815632 152.0
49.856483 104.0
49.873241 140.0
49.905575 124.0
49.916824 160.0
49.930885 148.0
49.94495 88.0
49.97168 192.0
49.986122 196.0
50.004601 172.0
50.018604 284.0
50.053318 136.0
50.06599 168.0
50.087116 172.0
50.102612 116.0
50.144039 180.0
50.21859 188.0
50.233715 156.0
50.278866 188.0
50.326862 36.0
50.348042 272.0
50.366348 404.0
50.403133 144.0
50.421505 148.0
50.442707 184.0
50.469566 164.0
50.486088 192.0
50.521896 180.0
50.545948 128.0
50.572838 84.0
50.582745 156.0
50.599319 292.0
50.6408 124.0
50.677631 104.0
50.713058 176.0
50.781258 196.0
50.78529 144.0
50.789955 188.0
50.857731 176.0
50.891697 148.0
50.954292 128.0
50.984901 192.0
51.000694 300.0
51.068016 136.0
51.086506 204.0
51.117805 128.0
51.154839 216.0
51.233997 172.0
51.239601 372.0
51.29726 100.0
51.314369 204.0
51.341259 176.0
51.357151 136.0
51.378548 164.0
51.394241 116.0
51.421352 180.0
51.458775 112.0
51.472748 160.0
51.495598 140.0
51.511871 184.0
51.522736 136.0
51.613438 156.0
51.641151 100.0
51.684219 148.0
51.710056 164.0
51.747272 168.0
51.757298 148.0
51.790234 52.0
51.888348 120.0
51.914742 192.0
51.926395 184.0
51.989517 240.0
52.02433 204.0
52.036888 160.0
52.067039 188.0
52.088585 116.0
52.121628 168.0
52.131687 144.0
52.148933 180.0
52.167618 184.0
52.202126 156.0
52.216507 80.0
52.271172 60.0
52.282391 156.0
52.356106 152.0
52.371723 128.0
52.393555 128.0
52.461174 200.0
52.516083 248.0
52.536793 200.0
52.557384 240.0
52.614296 192.0
52.632393 356.0
52.642628 216.0
52.67197 208.0
52.696526 124.0
52.714226 144.0
52.71991 176.0
52.7341 168.0
52.758671 192.0
52.774574 148.0
52.796265 108.0
52.810043 208.0
52.832985 176.0
52.839108 220.0
52.862812 48.0
52.90044 136.0
52.954014 72.0
52.98867 52.0
53.03791 208.0
53.061245 148.0
53.087666 144.0
53.123112 200.0
53.140865 196.0
53.159878 160.0
53.171246 216.0
53.184551 108.0
53.199066 128.0
53.212132 88.0
53.255695 360.0
53.289108 84.0
53.299278 152.0
53.310944 144.0
53.363232 188.0
53.396675 244.0
53.422768 192.0
53.437405 132.0
53.469418 340.0
53.529106 156.0
53.540756 144.0
53.582996 104.0
53.599026 280.0
53.651493 128.0
53.673363 264.0
53.706627 188.0
53.727325 208.0
53.746296 112.0
53.777645 232.0
53.799923 172.0
53.81778 172.0
53.821812 168.0
53.872108 160.0
53.921532 84.0
53.933224 140.0
53.971233 152.0
53.994629 80.0
54.007793 136.0
54.02597 200.0
54.035587 200.0
54.053879 200.0
54.068573 184.0
54.112583 92.0
54.129265 92.0
54.158009 188.0
54.202473 224.0
54.221554 128.0
54.275791 200.0
54.301876 168.0
54.312283 168.0
54.352066 180.0
54.371143 220.0
54.388073 172.0
54.404903 92.0
54.445026 184.0
54.463642 188.0
54.49155 176.0
54.532696 164.0
54.574814 172.0
54.601799 160.0
54.619446 116.0
54.651814 172.0
54.673885 152.0
54.716572 152.0
54.75647 168.0
54.818203 144.0
54.838833 132.0
54.856522 208.0
54.875687 140.0
54.902111 152.0
54.928776 160.0
54.964184 176.0
54.977467 168.0
54.998127 156.0
55.02375 348.0
55.0331 180.0
55.04311 128.0
55.151741 208.0
55.169815 176.0
55.19479 168.0
55.215317 184.0
55.24194 144.0
55.26857 88.0
55.281887 184.0
55.304089 196.0
55.352943 176.0
55.381626 184.0
55.435104 120.0
55.451759 312.0
55.47295 152.0
55.504082 100.0
55.519028 156.0
55.598289 152.0
55.609409 52.0
55.626621 176.0
55.640987 132.0
55.707413 200.0
55.729694 212.0
55.804012 184.0
55.816086 200.0
55.866474 100.0
55.878906 212.0
55.905159 176.0
55.931946 148.0
55.960232 232.0
56.004906 180.0
56.037682 112.0
56.083878 184.0
56.109653 164.0
56.131584 92.0
56.218639 100.0
56.264374 168.0
56.293877 164.0
56.310665 204.0
56.336414 184.0
56.355476 224.0
56.389847 52.0
56.4646 188.0
56.499004 176.0
56.521446 52.0
56.562092 176.0
56.621483 240.0
56.641216 176.0
56.686161 180.0
56.699814 72.0
56.729626 260.0
56.764111 164.0
56.778831 176.0
56.833256 164.0
56.851116 176.0
56.867622 156.0
56.884911 192.0
56.905151 152.0
56.915661 248.0
56.936886 216.0
56.950203 292.0
56.96907 164.0
57.054253 96.0
57.070423 200.0
57.107857 148.0
57.114834 136.0
57.120628 220.0
57.149986 116.0
57.175724 540.0
57.199131 128.0
57.208836 156.0
57.222385 120.0
57.239658 212.0
57.252033 160.0
57.282623 100.0
57.299194 248.0
57.311249 180.0
57.321796 152.0
57.371532 204.0
57.386608 56.0
57.497662 168.0
57.542011 192.0
57.55677 188.0
57.611664 204.0
57.646114 204.0
57.674946 64.0
57.69762 136.0
57.716534 216.0
57.74147 136.0
57.753338 180.0
57.770695 200.0
57.789532 192.0
57.839817 240.0
57.859077 168.0
57.871609 172.0
57.883999 220.0
57.971581 172.0
57.988251 52.0
58.088406 148.0
58.115635 80.0
58.132324 136.0
58.182411 164.0
58.225739 172.0
58.244671 120.0
58.294979 212.0
58.353745 160.0
58.408836 132.0
58.44928 308.0
58.46513 76.0
58.506226 124.0
58.521168 280.0
58.562565 184.0
58.581497 128.0
58.625031 184.0
58.647892 436.0
58.661976 216.0
58.702278 160.0
58.719551 100.0
58.773945 152.0
58.811092 172.0
58.849258 168.0
58.870636 188.0
58.887703 160.0
58.945488 196.0
58.965351 144.0
59.005032 224.0
59.019562 160.0
59.035675 128.0
59.049442 48.0
59.061676 188.0
59.11441 172.0
59.132885 160.0
59.151886 180.0
59.174919 72.0
59.194824 192.0
59.240772 156.0
59.257381 152.0
59.298996 164.0
59.329655 96.0
59.369518 208.0
59.402592 124.0
59.447113 124.0
59.566612 164.0
59.585587 188.0
59.601349 176.0
59.668777 228.0
59.781696 208.0
59.804306 152.0
59.829418 220.0
59.884369 152.0
59.935207 168.0
59.998749 176.0
60.028107 164.0
60.050827 116.0
60.080997 136.0
60.108948 172.0
60.111897 116.0
60.144943 152.0
60.158836 160.0
60.176159 164.0
60.189716 64.0
60.209789 208.0
60.277763 192.0
60.294762 208.0
60.307125 112.0
60.344227 136.0
60.356594 176.0
60.393711 156.0
60.413231 168.0
60.440121 44.0
60.457222 152.0
60.481907 148.0
60.493858 172.0
60.511318 120.0
60.56472 140.0
60.598049 144.0
60.610447 164.0
60.639889 168.0
60.661591 92.0
60.691044 168.0
60.722061 380.0
60.746876 172.0
60.765495 128.0
60.855675 116.0
60.869293 160.0
60.87561 140.0
60.898319 200.0
60.913578 196.0
60.958027 176.0
60.972015 188.0
61.012428 144.0
61.025772 144.0
61.062187 204.0
61.076183 216.0
61.098045 152.0
61.116634 144.0
61.130638 252.0
61.156502 124.0
61.180443 48.0
61.192898 104.0
61.219368 156.0
61.246006 156.0
61.270767 108.0
61.283234 180.0
61.331543 152.0
61.361637 336.0
61.379032 172.0
61.395466 188.0
61.4095 140.0
61.428219 168.0
61.446323 80.0
61.469437 188.0
61.496876 140.0
61.532776 212.0
61.545269 72.0
61.571659 444.0
61.582203 184.0
61.632736 280.0
61.664413 148.0
61.685875 156.0
61.753109 212.0
61.812557 132.0
61.836029 172.0
61.854557 148.0
61.86478 304.0
61.904915 172.0
61.949612 224.0
61.994205 40.0
62.01458 164.0
62.059704 168.0
62.068825 332.0
62.099243 80.0
62.110222 180.0
62.164593 244.0
62.168823 160.0
62.194267 128.0
62.293877 116.0
62.306446 92.0
62.317444 136.0
62.342587 68.0
62.353584 156.0
62.38345 196.0
62.410175 92.0
62.447102 228.0
62.480438 208.0
62.510845 136.0
62.531563 268.0
62.542572 176.0
62.567856 208.0
62.592701 212.0
62.62022 160.0
62.732922 88.0
62.758778 100.0
62.763813 148.0
62.797878 164.0
62.815483 224.0
62.837006 128.0
62.854362 124.0
62.882767 56.0
62.930122 120.0
62.964863 200.0
62.999615 200.0
63.016048 188.0
63.104313 128.0
63.119732 124.0
63.141869 180.0
63.159267 128.0
63.176666 108.0
63.2029 172.0
63.22097 212.0
63.258957 164.0
63.293926 180.0
63.309132 168.0
63.329292 144.0
63.361893 168.0
63.403091 128.0
63.436596 144.0
63.461742 168.0
63.480392 220.0
63.491787 156.0
63.509315 124.0
63.549629 184.0
63.588646 148.0
63.612453 192.0
63.629917 156.0
63.652145 144.0
63.675968 140.0
63.714088 180.0
63.734745 212.0
63.792576 236.0
63.814213 136.0
63.850914 252.0
63.871464 160.0
63.920784 200.0
63.935104 64.0
63.981266 136.0
63.992409 184.0
64.036995 120.0
64.089455 232.0
64.111877 188.0
64.124626 156.0
64.139511 176.0
64.15403 152.0
64.199554 188.0
64.217094 160.0
64.253723 192.0
64.269745 176.0
64.294319 120.0
64.327194 116.0
64.371902 156.0
64.440582 128.0
64.461357 76.0
64.488663 364.0
64.508339 120.0
64.549271 80.0
64.568459 44.0
64.584457 56.0
64.600449 144.0
64.630852 216.0
64.650124 176.0
64.685265 188.0
64.704475 48.0
64.719612 132.0
64.741302 180.0
64.779739 120.0
64.795761 76.0
64.837418 164.0
64.858253 212.0
64.900978 148.0
64.925598 244.0
64.954468 176.0
64.970505 92.0
64.994537 180.0
65.029877 116.0
65.092484 148.0
65.105537 128.0
65.126564 200.0
65.142273 116.0
65.196899 308.0
65.251556 248.0
65.26442 200.0
65.283531 108.0
65.327141 116.0
65.340012 100.0
65.357704 152.0
65.380234 184.0
65.411751 220.0
65.47039 156.0
65.494545 124.0
65.521645 136.0
65.545952 200.0
65.581551 108.0
65.594452 116.0
65.633141 208.0
65.650879 136.0
65.671669 148.0
65.700882 148.0
65.712173 156.0
65.762787 220.0
65.791664 204.0
65.844536 140.0
65.89946 196.0
65.9133 156.0
65.964104 188.0
65.995209 148.0
66.030396 184.0
66.074066 152.0
66.093483 184.0
66.1315 160.0
66.153366 148.0
66.16465 144.0
66.17025 140.0
66.192223 276.0
66.206207 216.0
66.239189 132.0
66.272308 216.0
66.289413 132.0
66.304314 228.0
66.385986 184.0
66.425606 148.0
66.451561 164.0
66.472656 152.0
66.531334 168.0
66.548943 220.0
66.576546 132.0
66.648018 200.0
66.722786 96.0
66.775314 336.0
66.813858 156.0
66.840576 160.0
66.862671 176.0
66.914757 188.0
66.932671 204.0
66.966988 220.0
66.997581 140.0
67.032829 172.0
67.078552 172.0
67.124947 248.0
67.149368 168.0
67.177139 196.0
67.188553 160.0
67.210579 240.0
67.257095 200.0
67.278313 164.0
67.307167 184.0
67.334526 196.0
67.389374 152.0
67.409264 204.0
67.422592 156.0
67.443298 192.0
67.454742 176.0
67.471458 124.0
67.504028 188.0
67.516869 132.0
67.540268 208.0
67.59539 144.0
67.642853 144.0
67.687057 140.0
67.718422 184.0
67.736191 92.0
67.749298 160.0
67.803604 108.0
67.845505 164.0
67.887276 196.0
67.900574 124.0
67.929619 104.0
67.98101 124.0
68.003403 132.0
68.052704 172.0
68.116486 148.0
68.138107 144.0
68.174255 140.0
68.203835 200.0
68.261299 164.0
68.290985 156.0
68.309074 200.0
68.340332 96.0
68.386414 144.0
68.400452 132.0
68.422531 208.0
68.478607 128.0
68.500023 260.0
68.517059 200.0
68.529678 152.0
68.562637 104.0
68.5923 156.0
68.628571 72.0
68.643021 152.0
68.681343 168.0
68.701134 172.0
68.723648 156.0
68.752121 148.0
68.757561 184.0
68.789345 132.0
68.805107 72.0
68.829201 304.0
68.87352 148.0
68.889328 160.0
68.902542 72.0
68.930634 184.0
68.950462 108.0
68.966988 68.0
69.011627 140.0
69.024849 204.0
69.039734 140.0
69.051315 156.0
69.064545 164.0
69.07943 164.0
69.091011 192.0
69.176987 204.0
69.198586 144.0
69.215141 168.0
69.235817 124.0
69.258202 144.0
69.269798 148.0
69.328804 224.0
69.344978 224.0
69.37088 136.0
69.415642 152.0
69.444313 196.0
69.500237 144.0
69.543686 332.0
69.569878 192.0
69.59153 180.0
69.624733 192.0
69.665543 204.0
69.737343 216.0
69.807533 120.0
69.839134 152.0
69.881104 212.0
69.919861 216.0
69.970688 140.0
69.988907 176.0
70.005363 180.0
70.088852 108.0
70.135513 152.0
70.152184 132.0
70.170517 148.0
70.195534 188.0
70.206963 168.0
70.223885 76.0
70.240562 176.0
70.253059 168.0
70.295616 44.0
70.312302 56.0
70.342941 180.0
70.37574 132.0
70.406425 196.0
70.423401 96.0
70.527756 104.0
70.543816 204.0
70.615135 216.0
70.677635 200.0
70.695801 88.0
70.723457 116.0
70.751465 136.0
70.757195 176.0
70.817513 180.0
70.840157 196.0
70.859093 172.0
70.892609 176.0
70.906013 204.0
70.928558 196.0
70.942886 120.0
70.955521 156.0
70.991508 188.0
71.00325 188.0
71.041832 236.0
71.058609 128.0
71.09185 128.0
71.145874 196.0
71.159691 228.0
71.189529 176.0
71.317307 148.0
71.336357 120.0
71.38446 196.0
71.433235 192.0
71.454239 164.0
71.480339 96.0
71.493805 196.0
71.505585 192.0
71.519051 148.0
71.550308 196.0
71.599861 160.0
71.621758 176.0
71.647026 152.0
71.671669 160.0
71.694206 96.0
71.71106 176.0
71.758965 172.0
71.771744 124.0
71.808975 160.0
71.830772 88.0
71.849846 156.0
71.883072 120.0
71.899948 140.0
71.949913 180.0
71.974228 240.0
71.986046 212.0
72.008003 132.0
72.029961 56.0
72.053146 220.0
72.092674 228.0
72.107094 212.0
72.143059 112.0
72.15654 208.0
72.180374 124.0
72.214195 124.0
72.244835 176.0
72.276787 48.0
72.32756 268.0
72.409523 144.0
72.493561 192.0
72.509361 176.0
72.542686 116.0
72.578285 80.0
72.60881 160.0
72.692299 204.0
72.710602 144.0
72.820961 148.0
72.880417 196.0
72.924599 112.0
72.946693 208.0
72.964378 268.0
73.004501 136.0
73.026863 136.0
73.094658 136.0
73.184868 156.0
73.20871 172.0
73.278236 180.0
73.297287 168.0
73.320854 116.0
73.35183 152.0
73.36483 204.0
73.382515 212.0
73.401268 172.0
73.46096 124.0
73.483139 112.0
73.525269 140.0
73.54734 200.0
73.561638 140.0
73.602432 176.0
73.674347 48.0
73.732445 140.0
73.813812 96.0
73.829887 132.0
73.855545 60.0
73.869225 196.0
73.910286 196.0
73.944511 188.0
73.994156 136.0
74.035248 128.0
74.072876 136.0
74.077545 132.0
74.090401 284.0
74.104713 180.0
74.174026 140.0
74.211929 148.0
74.225464 316.0
74.273232 140.0
74.27903 120.0
74.284264 168.0
74.318085 132.0
74.335243 384.0
74.349632 372.0
74.392136 176.0
74.416565 148.0
74.431366 32.0
74.45369 124.0
74.482887 208.0
74.544739 116.0
74.567078 76.0
74.589424 44.0
74.606613 152.0
74.638573 136.0
74.677116 96.0
74.692596 168.0
74.70636 104.0
74.723007 136.0
74.751091 136.0
74.783791 148.0
74.804443 92.0
74.831985 84.0
74.84404 64.0
74.859535 132.0
74.873314 208.0
74.91465 132.0
74.989265 160.0
75.004257 132.0
75.02494 80.0
75.042183 232.0
75.105988 160.0
75.139603 148.0
75.165207 172.0
75.216423 112.0
75.23291 152.0
75.248505 164.0
75.262573 320.0
75.276848 144.0
75.307495 236.0
75.371857 164.0
75.390862 208.0
75.408142 148.0
75.491127 168.0
75.525719 192.0
75.568962 168.0
75.586266 148.0
75.598381 116.0
75.632996 116.0
75.650299 100.0
75.688393 116.0
75.714729 208.0
75.757668 120.0
75.790588 156.0
75.819916 160.0
75.837379 160.0
75.886757 132.0
75.908455 128.0
76.017815 176.0
76.047241 128.0
76.088394 204.0
76.128838 128.0
76.146393 184.0
76.183212 300.0
76.194839 232.0
76.21048 148.0
76.243492 168.0
76.262611 144.0
76.313454 180.0
76.340317 196.0
76.354309 136.0
76.381607 212.0
76.396149 236.0
76.453918 144.0
76.490753 176.0
76.509621 100.0
76.533997 136.0
76.587166 180.0
76.631531 144.0
76.651451 204.0
76.663284 232.0
76.699738 144.0
76.715012 164.0
76.729134 156.0
76.746567 172.0
76.776207 184.0
76.818069 120.0
76.835518 220.0
76.847725 132.0
76.871216 160.0
76.895668 136.0
76.910553 108.0
76.940544 188.0
76.96656 144.0
77.024048 120.0
77.038025 108.0
77.058189 132.0
77.079956 136.0
77.100922 100.0
77.120148 180.0
77.165596 120.0
77.18483 104.0
77.200569 132.0
77.239044 132.0
77.253044 88.0
77.281075 172.0
77.330032 88.0
77.351036 116.0
77.392242 168.0
77.44149 200.0
77.480621 44.0
77.53669 76.0
77.552467 120.0
77.587524 140.0
77.601547 100.0
77.623466 140.0
77.672867 48.0
77.720818 208.0
77.771912 176.0
77.805061 160.0
77.829643 196.0
77.86248 172.0
77.875305 192.0
77.903618 100.0
77.920975 160.0
77.952599 148.0
77.998062 180.0
78.034302 172.0
78.08445 160.0
78.110832 136.0
78.149536 164.0
78.18293 176.0
78.210228 156.0
78.251122 156.0
78.293625 284.0
78.327347 168.0
78.373146 200.0
78.411919 172.0
78.424446 164.0
78.461273 136.0
78.501823 128.0
78.527283 188.0
78.540627 48.0
78.558266 180.0
78.575073 224.0
78.597076 136.0
78.631943 180.0
78.656784 164.0
78.70298 172.0
78.868134 148.0
78.891228 320.0
78.942841 340.0
78.962753 216.0
78.983978 136.0
79.049438 212.0
79.061821 104.0
79.095451 168.0
79.16066 168.0
79.184372 180.0
79.207344 168.0
79.244209 152.0
79.28421 132.0
79.306229 128.0
79.318634 108.0
79.343452 256.0
79.440399 180.0
79.480026 188.0
79.492447 160.0
79.511963 180.0
79.528038 212.0
79.568764 184.0
79.5867 120.0
79.643349 168.0
79.666443 152.0
79.725075 172.0
79.746971 188.0
79.780174 60.0
79.816582 128.0
79.832924 192.0
79.846832 164.0
79.890434 148.0
79.924431 256.0
79.981186 160.0
80.016144 100.0
80.036369 152.0
80.054527 144.0
80.098701 276.0
80.212746 260.0
80.285843 132.0
80.307243 124.0
80.351845 104.0
80.376823 152.0
80.400017 184.0
80.412514 140.0
80.446693 240.0
80.467041 184.0
80.488998 156.0
80.552689 308.0
80.565994 152.0
80.673294 136.0
80.685814 28.0
80.71357 152.0
80.753708 140.0
80.782379 164.0
80.796692 52.0
80.821846 132.0
80.841423 76.0
80.887093 356.0
80.898697 396.0
80.958382 156.0
80.966599 52.0
80.969864 204.0
80.997345 136.0
81.040176 156.0
81.059891 216.0
81.099319 124.0
81.119034 152.0
81.135017 192.0
81.185646 184.0
81.226624 144.0
81.246353 96.0
81.260712 128.0
81.293007 124.0
81.305565 124.0
81.319977 144.0
81.345055 144.0
81.364639 180.0
81.393532 160.0
81.459976 44.0
81.482018 120.0
81.51593 228.0
81.552368 184.0
81.573189 160.0
81.627121 196.0
81.643311 208.0
81.681076 160.0
81.72641 184.0
81.751244 176.0
81.76384 152.0
81.778244 168.0
81.796242 164.0
81.808838 232.0
81.823242 180.0
81.902481 116.0
81.927696 64.0
81.949318 144.0
81.961929 140.0
81.999268 172.0
82.0214 124.0
82.050972 168.0
82.090096 192.0
82.112022 152.0
82.136803 128.0
82.160255 160.0
82.207161 196.0
82.227013 148.0
82.292 172.0
82.306442 176.0
82.388641 204.0
82.409668 200.0
82.425117 160.0
82.459999 168.0
82.474457 140.0
82.505188 200.0
82.535919 176.0
82.565956 224.0
82.61731 60.0
82.646255 80.0
82.66185 284.0
82.679787 176.0
82.716835 188.0
82.78183 160.0
82.804756 172.0
82.833725 232.0
82.882591 180.0
82.899765 168.0
82.920822 180.0
82.93782 184.0
82.964729 104.0
82.9692 128.0
83.010338 164.0
83.039223 224.0
83.07019 96.0
83.097404 92.0
83.115547 108.0
83.128593 168.0
83.143303 208.0
83.184509 68.0
83.221588 208.0
83.240791 192.0
83.257141 324.0
83.269386 172.0
83.290321 172.0
83.307991 176.0
83.351601 132.0
83.375221 172.0
83.393394 172.0
83.409752 296.0
83.42395 216.0
83.451569 188.0
83.479095 256.0
83.504303 212.0
83.546135 200.0
83.586166 80.0
83.642586 164.0
83.667038 184.0
83.720718 236.0
83.746368 160.0
83.790085 76.0
83.837463 144.0
83.856285 220.0
83.888741 148.0
83.91584 152.0
83.934006 108.0
83.972374 140.0
83.987267 148.0
84.034393 92.0
84.081841 164.0
84.251648 152.0
84.268089 72.0
84.288193 204.0
84.311943 132.0
84.363121 192.0
84.375923 112.0
84.388718 200.0
84.406776 316.0
84.46064 164.0
84.481987 156.0
84.546997 364.0
84.577141 100.0
84.628403 164.0
84.670723 188.0
84.699455 140.0
84.716309 192.0
84.74379 152.0
84.768707 156.0
84.793945 140.0
84.817093 128.0
84.829926 36.0
84.866844 172.0
84.881256 160.0
84.894096 188.0
84.919479 176.0
84.92572 148.0
84.929779 140.0
84.963791 40.0
84.980309 132.0
85.017006 104.0
85.053711 208.0
85.073906 80.0
85.146858 180.0
85.167549 144.0
85.185921 148.0
85.245422 416.0
85.303528 176.0
85.367874 140.0
85.386269 172.0
85.421211 160.0
85.441452 120.0
85.48365 148.0
85.50769 140.0
85.529106 120.0
85.55426 188.0
85.567719 144.0
85.609711 208.0
85.666039 188.0
85.688148 92.0
85.757355 120.0
85.78582 56.0
85.798729 128.0
85.815315 128.0
85.872482 152.0
85.918602 244.0
85.9506 220.0
86.010979 188.0
86.058861 168.0
86.143814 148.0
86.190002 132.0
86.235847 124.0
86.286118 148.0
86.328125 144.0
86.373909 168.0
86.454437 168.0
86.474792 176.0
86.502686 176.0
86.546989 184.0
86.558784 164.0
86.584023 48.0
86.650299 156.0
86.719795 212.0
86.763504 172.0
86.79528 104.0
86.830513 160.0
86.888016 184.0
86.925201 188.0
86.973373 160.0
87.003075 180.0
87.051353 112.0
87.067276 168.0
87.084778 136.0
87.145805 160.0
87.192535 84.0
87.217079 176.0
87.2892 232.0
87.304077 164.0
87.356155 216.0
87.376625 56.0
87.40757 196.0
87.469666 144.0
87.500679 164.0
87.541245 252.0
87.606171 224.0
87.631683 224.0
87.672684 212.0
87.713684 100.0
87.727379 248.0
87.775208 364.0
87.808777 88.0
87.829109 124.0
87.847946 168.0
87.880127 176.0
87.946548 196.0
87.977715 188.0
87.999107 140.0
88.030853 156.0
88.083145 56.0
88.134033 372.0
88.273369 220.0
88.312096 156.0
88.319153 76.0
88.323463 176.0
88.369171 152.0
88.406212 136.0
88.41983 164.0
88.470421 160.0
88.505272 156.0
88.536049 160.0
88.563858 96.0
88.588783 156.0
88.65004 128.0
88.780815 168.0
88.796532 172.0
88.870506 200.0
88.890068 216.0
88.918213 160.0
88.931526 172.0
88.980156 44.0
89.004471 168.0
89.040924 228.0
89.117767 148.0
89.160484 92.0
89.202728 160.0
89.24131 56.0
89.282677 196.0
89.323357 140.0
89.340988 160.0
89.391823 244.0
89.442604 164.0
89.526779 124.0
89.561226 156.0
89.595131 228.0
89.678047 140.0
89.764763 156.0
89.834549 108.0
89.860962 152.0
89.890938 140.0
89.918983 48.0
89.934555 384.0
90.021851 212.0
90.054436 244.0
90.070503 68.0
90.115005 136.0
90.158455 284.0
90.181381 252.0
90.216011 116.0
90.271255 348.0
90.327576 120.0
90.362473 144.0
90.377014 336.0
90.446785 84.0
90.488434 160.0
90.501686 144.0
90.52494 412.0
90.552818 140.0
90.571754 168.0
90.588806 188.0
90.605858 140.0
90.634277 188.0
90.656731 384.0
90.700607 164.0
90.720261 260.0
90.76506 144.0
90.816261 164.0
90.839027 84.0
90.852303 184.0
90.878868 160.0
90.905434 212.0
90.921806 216.0
90.927032 144.0
90.952881 164.0
90.98291 156.0
90.995483 368.0
91.016632 164.0
91.055038 19208.0
91.147881 196.0
91.178894 72.0
91.200546 356.0
91.234016 248.0
91.264435 44.0
91.292961 260.0
91.322281 156.0
91.355721 124.0
91.370613 276.0
91.398712 192.0
91.451836 212.0
91.465988 152.0
91.483223 192.0
91.496552 140.0
91.536438 164.0
91.60891 116.0
91.635582 176.0
91.65654 44.0
91.677498 180.0
91.75074 124.0
91.784599 152.0
91.79747 304.0
91.833832 104.0
91.854813 132.0
91.887245 140.0
91.909599 132.0
91.927307 96.0
91.959496 148.0
91.986473 124.0
92.005569 140.0
92.032188 212.0
92.058884 2244.0
92.112396 144.0
92.210968 180.0
92.248177 208.0
92.29406 180.0
92.309189 180.0
92.319298 204.0
92.343781 140.0
92.376251 176.0
92.381592 172.0
92.408821 148.0
92.431274 212.0
92.506958 172.0
92.521736 232.0
92.537056 228.0
92.563858 164.0
92.598328 176.0
92.636635 96.0
92.66346 168.0
92.695854 240.0
92.735756 176.0
92.757912 140.0
92.788033 132.0
92.826378 172.0
92.888313 164.0
92.920044 192.0
93.014519 188.0
93.06871 504.0
93.096954 200.0
93.120003 108.0
93.146118 180.0
93.162216 216.0
93.225662 108.0
93.296661 148.0
93.324432 136.0
93.381386 144.0
93.40062 88.0
93.41745 160.0
93.437408 256.0
93.452187 164.0
93.471802 188.0
93.502594 180.0
93.535309 156.0
93.571884 156.0
93.594994 188.0
93.668175 88.0
93.735603 148.0
93.774147 128.0
93.806274 252.0
93.825798 196.0
93.843544 168.0
93.862823 176.0
93.889679 164.0
93.92823 140.0
93.974701 108.0
94.015221 156.0
94.051888 148.0
94.078911 156.0
94.096291 156.0
94.115593 152.0
94.144562 200.0
94.172478 252.0
94.283653 140.0
94.376442 224.0
94.417046 132.0
94.442291 156.0
94.479156 216.0
94.494423 204.0
94.542793 96.0
94.558182 80.0
94.576431 232.0
94.602745 148.0
94.614319 232.0
94.658943 100.0
94.68412 172.0
94.701546 144.0
94.717041 60.0
94.751915 152.0
94.806168 144.0
94.85688 168.0
94.953506 160.0
94.978363 132.0
95.011543 152.0
95.075729 128.0
95.12619 156.0
95.178551 124.0
95.180992 160.0
95.198029 140.0
95.219887 188.0
95.249077 84.0
95.281075 180.0
95.330124 96.0
95.37677 164.0
95.411758 144.0
95.446754 224.0
95.512947 116.0
95.567352 96.0
95.58564 220.0
95.610161 108.0
95.623779 156.0
95.678284 148.0
95.705795 152.0
95.721031 176.0
95.798851 92.0
95.834091 156.0
95.861374 172.0
95.883507 100.0
95.906197 96.0
95.977348 152.0
96.01059 132.0
96.036835 296.0
96.074448 168.0
96.109558 200.0
96.173409 72.0
96.208549 180.0
96.224167 168.0
96.237831 176.0
96.347198 164.0
96.378952 176.0
96.398003 64.0
96.427521 228.0
96.458588 124.0
96.515282 128.0
96.575905 136.0
96.591919 160.0
96.607208 208.0
96.632637 148.0
96.65715 204.0
96.681038 180.0
96.703087 212.0
96.724617 144.0
96.775894 124.0
96.79705 176.0
96.814674 116.0
96.855804 272.0
96.912621 236.0
96.959709 132.0
97.008965 124.0
97.032494 148.0
97.049942 188.0
97.085114 144.0
97.138069 100.0
97.200264 252.0
97.207184 176.0
97.230286 160.0
97.283279 256.0
97.311668 132.0
97.412888 36.0
97.44236 216.0
97.465652 196.0
97.481651 172.0
97.498138 216.0
97.534714 120.0
97.583412 228.0
97.634361 88.0
97.66449 108.0
97.751053 216.0
97.827812 220.0
97.859238 108.0
97.892433 204.0
97.97551 128.0
98.001122 56.0
98.048416 144.0
98.096489 304.0
98.118614 228.0
98.137115 128.0
98.150917 160.0
98.16877 152.0
98.210083 228.0
98.225861 152.0
98.241646 224.0
98.279129 108.0
98.298347 416.0
98.322342 240.0
98.350174 140.0
98.402519 308.0
98.448883 176.0
98.464684 132.0
98.49144 264.0
98.529869 176.0
98.579262 152.0
98.616447 192.0
98.624062 156.0
98.680069 180.0
98.707756 184.0
98.724152 164.0
98.741371 232.0
98.776978 80.0
98.792801 52.0
98.840889 156.0
98.854134 212.0
98.89135 164.0
98.936562 180.0
98.941521 212.0
98.959862 212.0
99.03492 228.0
99.06749 168.0
99.101997 280.0
99.127403 116.0
99.184875 296.0
99.240387 188.0
99.285995 156.0
99.330536 204.0
99.410973 128.0
99.47448 60.0
99.524117 128.0
99.540001 196.0
99.553902 152.0
99.617455 192.0
99.659363 132.0
99.679047 236.0
99.716301 172.0
99.766502 172.0
99.794334 176.0
99.844048 136.0
99.857964 184.0
99.921623 196.0
99.959427 180.0
100.011169 168.0
100.037048 120.0
100.0597 232.0
100.092819 160.0
100.113297 228.0
100.144569 204.0
100.162361 176.0
100.196358 132.0
100.239426 176.0
100.247871 108.0
100.250809 160.0
100.315933 124.0
100.457512 88.0
100.497414 152.0
100.547302 44.0
100.561272 88.0
100.57724 132.0
100.593208 124.0
100.637863 184.0
100.666 208.0
100.688316 272.0
100.808907 256.0
100.850876 168.0
100.865883 204.0
100.897804 340.0
100.918411 164.0
100.97084 188.0
101.076546 204.0
101.118378 200.0
101.202011 168.0
101.249016 88.0
101.281067 68.0
101.303139 220.0
101.38324 164.0
101.415306 152.0
101.439362 184.0
101.481461 172.0
101.506523 140.0
101.531593 76.0
101.547638 124.0
101.61116 112.0
101.633896 324.0
101.659981 76.0
101.718185 120.0
101.840668 180.0
101.873222 196.0
101.953606 168.0
101.959564 204.0
101.979301 144.0
101.995384 164.0
102.014145 288.0
102.045387 616.0
102.094017 156.0
102.118034 180.0
102.132111 188.0
102.164833 136.0
102.186424 120.0
102.255768 164.0
102.293533 180.0
102.320869 20.0
102.343414 308.0
102.384834 240.0
102.413902 88.0
102.456619 180.0
102.484848 164.0
102.520683 164.0
102.581146 148.0
102.629532 112.0
102.661079 168.0
102.675911 108.0
102.704147 152.0
102.738441 128.0
102.782822 156.0
102.858719 112.0
102.889793 44.0
102.91806 140.0
102.932198 84.0
102.968002 120.0
103.011993 188.0
103.054413 12616.0
103.114006 188.0
103.136238 88.0
103.159698 192.0
103.20726 152.0
103.234848 228.0
103.250267 140.0
103.287888 124.0
103.317406 108.0
103.329681 188.0
103.353477 248.0
103.383537 188.0
103.426003 172.0
103.441673 216.0
103.45787 204.0
103.487381 160.0
103.522568 172.0
103.527603 164.0
103.557091 172.0
103.62394 148.0
103.660507 124.0
103.677498 184.0
103.737427 68.0
103.764656 120.0
103.856285 116.0
103.891548 92.0
103.916603 216.0
103.944412 68.0
103.980827 140.0
104.030457 168.0
104.062042 2656.0
104.137901 76.0
104.151375 176.0
104.173714 144.0
104.222473 152.0
104.244522 160.0
104.382797 188.0
104.409492 184.0
104.432487 260.0
104.454239 196.0
104.488823 32.0
104.507568 188.0
104.527481 152.0
104.558006 100.0
104.574287 168.0
104.607178 176.0
104.633316 164.0
104.651642 304.0
104.668594 196.0
104.696442 152.0
104.724449 228.0
104.730118 172.0
104.765694 132.0
104.798286 132.0
104.834167 296.0
104.865265 280.0
104.893562 176.0
104.919518 188.0
104.941109 176.0
104.960587 204.0
104.979752 156.0
105.001778 336.0
105.041664 244.0
105.070824 74420.0
105.12265 140.0
105.153152 172.0
105.180458 72.0
105.211304 148.0
105.235466 256.0
105.264809 252.0
105.312599 160.0
105.330742 64.0
105.352402 208.0
105.406631 176.0
105.429977 176.0
105.448761 168.0
105.479561 140.0
105.496262 88.0
105.511063 204.0
105.535866 204.0
105.550941 140.0
105.576004 268.0
105.599327 128.0
105.617683 152.0
105.648148 88.0
105.672142 148.0
105.697655 136.0
105.722321 44.0
105.747856 212.0
105.783958 188.0
105.801758 156.0
105.842781 108.0
105.857697 116.0
105.878464 168.0
105.892349 236.0
105.930817 192.0
105.990746 112.0
106.031799 216.0
106.073792 6816.0
106.111153 124.0
106.124985 160.0
106.147331 232.0
106.176041 124.0
106.223839 264.0
106.2789 56.0
106.30323 264.0
106.32872 124.0
106.366859 108.0
106.395866 212.0
106.424919 156.0
106.430496 44.0
106.438133 156.0
106.463356 164.0
106.502373 212.0
106.525925 172.0
106.540825 128.0
106.552383 140.0
106.603043 84.0
106.641319 192.0
106.656479 56.0
106.673218 84.0
106.69278 200.0
106.718567 276.0
106.737129 204.0
106.756966 228.0
106.792412 144.0
106.812408 96.0
106.817276 80.0
106.823624 112.0
106.842934 148.0
106.877831 244.0
106.914314 44.0
106.934723 208.0
106.955368 180.0
106.992645 260.0
107.010262 168.0
107.05027 66100.0
107.125381 64.0
107.15654 92.0
107.175079 168.0
107.192322 304.0
107.227509 76.0
107.246582 144.0
107.271942 44.0
107.30368 204.0
107.345673 240.0
107.38765 408.0
107.41272 76.0
107.44268 188.0
107.463737 56.0
107.471008 84.0
107.49469 88.0
107.515327 44.0
107.5355 196.0
107.543297 152.0
107.577072 48.0
107.594963 96.0
107.601257 108.0
107.60955 204.0
107.65416 48.0
107.691437 280.0
107.715599 176.0
107.74659 172.0
107.76725 96.0
107.789803 84.0
107.823036 104.0
107.849907 96.0
107.892372 140.0
107.908051 92.0
107.962807 132.0
107.985619 232.0
107.999863 168.0
108.053535 6332.0
108.105736 120.0
108.120842 36.0
108.152359 140.0
108.193291 84.0
108.209854 132.0
108.236771 28.0
108.256256 200.0
108.284401 60.0
108.30925 84.0
108.338257 184.0
108.36306 156.0
108.405792 124.0
108.440567 184.0
108.49575 68.0
108.543442 48.0
108.562233 316.0
108.579208 112.0
108.622246 136.0
108.640038 244.0
108.666847 168.0
108.696938 92.0
108.757919 52.0
108.761803 188.0
108.78054 212.0
108.800987 152.0
108.846512 176.0
108.881493 264.0
108.897369 124.0
108.919075 144.0
108.940338 156.0
109.007561 136.0
109.055275 436.0
109.10553 204.0
109.113968 148.0
109.147682 56.0
109.195511 84.0
109.215553 132.0
109.322418 64.0
109.345306 112.0
109.407234 96.0
109.552307 192.0
109.579758 176.0
109.604088 60.0
109.632706 176.0
109.676468 168.0
109.698387 132.0
109.710953 148.0
109.730087 200.0
109.797874 104.0
109.841194 136.0
109.855797 144.0
109.922562 128.0
109.955956 144.0
110.008133 148.0
110.049889 208.0
110.078743 44.0
110.102089 188.0
110.139587 168.0
110.170311 132.0
110.195831 172.0
110.260864 156.0
110.315208 232.0
110.357025 172.0
110.375839 136.0
110.396751 36.0
110.417664 96.0
110.454475 180.0
110.49826 196.0
110.518074 128.0
110.543182 76.0
110.576668 120.0
110.593407 160.0
110.633179 96.0
110.666679 124.0
110.69809 328.0
110.732162 132.0
110.75882 120.0
110.790245 212.0
110.830048 140.0
110.844719 56.0
110.865677 144.0
110.911781 76.0
110.934067 216.0
111.018707 108.0
111.073235 60.0
111.10051 124.0
111.121803 196.0
111.24321 96.0
111.30619 120.0
111.345543 184.0
111.369194 172.0
111.390198 100.0
111.411209 44.0
111.436417 132.0
111.481873 152.0
111.490433 96.0
111.494339 220.0
111.516991 300.0
111.564613 204.0
111.608765 280.0
111.640305 192.0
111.667648 144.0
111.712494 100.0
111.751793 180.0
111.772446 132.0
111.793877 220.0
111.867012 48.0
111.903328 128.0
111.958351 212.0
111.985458 36.0
112.065697 88.0
112.112984 1524.0
112.134544 168.0
112.170876 108.0
112.19828 104.0
112.220718 56.0
112.26757 144.0
112.310043 100.0
112.33535 204.0
112.390205 156.0
112.417526 156.0
112.428299 156.0
112.479736 236.0
112.507576 268.0
112.525284 200.0
112.554848 208.0
112.572563 164.0
112.663719 160.0
112.740738 112.0
112.76535 136.0
112.783005 68.0
112.803841 196.0
112.845612 208.0
112.871796 200.0
112.90065 192.0
112.935944 180.0
113.03875 112.0
113.074883 132.0
113.117554 292.0
113.155319 136.0
113.191673 192.0
113.217216 224.0
113.267555 144.0
113.365013 112.0
113.413116 172.0
113.449791 120.0
113.466751 128.0
113.490074 72.0
113.602478 168.0
113.642784 176.0
113.667068 180.0
113.695839 156.0
113.738281 176.0
113.780739 144.0
113.855057 128.0
113.895409 144.0
113.910278 136.0
113.971886 176.0
114.00238 172.0
114.018639 136.0
114.046272 116.0
114.069649 104.0
114.121872 208.0
114.148315 68.0
114.164581 160.0
114.224876 72.0
114.239769 188.0
114.26104 184.0
114.34285 152.0
114.363182 68.0
114.390854 168.0
114.424919 204.0
114.448845 200.0
114.471756 132.0
114.502869 112.0
114.516479 152.0
114.642174 180.0
114.659225 172.0
114.699722 112.0
114.725304 208.0
114.829781 132.0
114.851112 156.0
114.923645 216.0
114.947807 172.0
114.987663 460.0
115.003311 132.0
115.054581 2124.0
115.080139 312.0
115.14138 116.0
115.263237 184.0
115.301254 144.0
115.337944 216.0
115.39785 172.0
115.44912 40.0
115.471138 216.0
115.49189 132.0
115.515419 124.0
115.541092 152.0
115.562485 116.0
115.592972 272.0
115.625671 144.0
115.652367 136.0
115.690842 168.0
115.695335 164.0
115.718727 80.0
115.782967 52.0
115.815086 100.0
115.849365 112.0
115.870789 156.0
115.910156 120.0
115.935066 136.0
115.977928 152.0
115.999367 128.0
116.060921 584.0
116.128014 84.0
116.156761 132.0
116.263176 168.0
116.28035 76.0
116.30825 192.0
116.351181 192.0
116.383385 216.0
116.411301 144.0
116.426331 184.0
116.491348 268.0
116.512253 208.0
116.550926 132.0
116.587456 92.0
116.639038 44.0
116.690628 204.0
116.723297 248.0
116.867607 240.0
117.00444 144.0
117.032722 192.0
117.070305 11720.0
117.110252 48.0
117.173828 68.0
117.229576 124.0
117.319946 152.0
117.383949 128.0
117.400909 140.0
117.418449 192.0
117.461586 224.0
117.496101 64.0
117.586731 172.0
117.636955 104.0
117.668755 156.0
117.698982 56.0
117.745552 208.0
117.78537 140.0
117.818398 176.0
117.86747 84.0
117.891235 184.0
117.936623 56.0
117.973366 248.0
118.010124 144.0
118.041435 316.0
118.072594 1364.0
118.132812 60.0
118.180984 48.0
118.209114 176.0
118.228592 72.0
118.256729 152.0
118.332489 188.0
118.371468 60.0
118.386627 128.0
118.490593 148.0
118.597603 200.0
118.630417 152.0
118.683487 200.0
118.737701 164.0
118.754112 184.0
118.777512 180.0
118.812874 216.0
118.837395 196.0
118.898514 280.0
118.946701 208.0
118.964005 228.0
118.982895 184.0
119.013451 168.0
119.049744 2520.0
119.086487 55432.0
119.1399 68.0
119.180016 332.0
119.217476 112.0
119.234863 56.0
119.275398 80.0
119.296974 144.0
119.325577 60.0
119.345543 48.0
119.362816 56.0
119.399445 108.0
119.439026 280.0
119.473068 156.0
119.512772 60.0
119.557663 140.0
119.576836 168.0
119.593727 52.0
119.612907 148.0
119.653633 200.0
119.693871 140.0
119.741776 32.0
119.768089 148.0
119.794052 72.0
119.834084 96.0
119.862808 176.0
119.894279 56.0
119.913895 112.0
119.98732 76.0
120.001747 236.0
120.035973 204.0
120.055862 184.0
120.089767 6772.0
120.134117 124.0
120.176262 88.0
120.194252 256.0
120.19812 144.0
120.223579 104.0
120.247581 60.0
120.279739 144.0
120.302155 168.0
120.343628 80.0
120.382935 152.0
120.398224 172.0
120.411919 132.0
120.427567 148.0
120.47467 80.0
120.509621 72.0
120.547447 168.0
120.601326 108.0
120.621078 76.0
120.647308 100.0
120.695412 216.0
120.723381 96.0
120.732239 76.0
120.740402 160.0
120.765388 40.0
120.781754 56.0
120.808144 88.0
120.886581 168.0
120.913071 96.0
120.931671 336.0
120.97142 100.0
121.014313 208.0
121.046211 88.0
121.064087 496.0
121.09111 628.0
121.181313 128.0
121.196648 44.0
121.219284 376.0
121.312805 128.0
121.336922 60.0
121.387352 100.0
121.43779 156.0
121.466301 208.0
121.530914 180.0
121.56942 60.0
121.595757 204.0
121.620956 108.0
121.645683 200.0
121.712105 132.0
121.777985 116.0
121.819717 168.0
121.847023 224.0
121.879036 192.0
121.929581 52.0
121.950325 136.0
121.992371 148.0
122.046082 136.0
122.063675 64.0
122.123787 204.0
122.167046 152.0
122.191246 116.0
122.235252 208.0
122.338692 60.0
122.387131 140.0
122.625038 84.0
122.684235 136.0
122.78598 144.0
122.838921 164.0
122.886131 40.0
122.927528 148.0
122.969101 216.0
122.98455 80.0
123.022072 192.0
123.073639 168.0
123.094666 200.0
123.119225 80.0
123.134682 40.0
123.195244 180.0
123.236298 152.0
123.267235 200.0
123.296715 176.0
123.339279 140.0
123.435226 76.0
123.452919 128.0
123.484261 280.0
123.598915 160.0
123.658661 280.0
123.706116 196.0
123.754921 180.0
123.784851 276.0
123.810844 244.0
123.864578 204.0
123.91996 172.0
123.948441 188.0
123.989014 172.0
124.112793 108.0
124.166016 168.0
124.209396 172.0
124.24427 156.0
124.272491 148.0
124.299118 128.0
124.339058 192.0
124.532211 156.0
124.54998 156.0
124.569977 72.0
124.608536 156.0
124.627739 176.0
124.66996 64.0
124.694405 220.0
124.729965 180.0
124.878937 152.0
124.941223 128.0
125.076965 156.0
125.126846 140.0
125.188278 184.0
125.319702 128.0
125.422211 136.0
125.484634 232.0
125.503784 248.0
125.716606 112.0
125.789703 160.0
125.877991 108.0
125.896935 144.0
125.962204 156.0
125.980072 136.0
126.009117 136.0
126.046356 340.0
126.111847 148.0
126.138725 92.0
126.170029 152.0
126.212502 88.0
126.275124 168.0
126.312416 208.0
126.337753 208.0
126.411362 160.0
126.463715 172.0
126.487679 40.0
126.618401 188.0
126.648895 140.0
126.727303 188.0
126.74971 140.0
126.80706 128.0
126.935753 168.0
126.964256 152.0
127.00399 132.0
127.054504 1268.0
127.079308 152.0
127.1017 212.0
127.119698 208.0
127.294785 184.0
127.310509 108.0
127.391365 108.0
127.426598 164.0
127.463257 132.0
127.530785 188.0
127.550911 192.0
127.566643 160.0
127.586876 116.0
127.644073 184.0
127.692558 152.0
127.778038 148.0
127.798286 172.0
127.825874 168.0
127.883797 168.0
127.951332 216.0
127.991859 136.0
128.062286 10256.0
128.103531 136.0
128.138596 132.0
128.231476 172.0
128.284744 68.0
128.325317 144.0
128.349442 132.0
128.412582 128.0
128.431305 212.0
128.480942 132.0
128.501236 176.0
128.557648 176.0
128.597931 184.0
128.716248 92.0
128.738251 108.0
128.767609 196.0
128.787933 100.0
128.84079 40.0
128.869263 172.0
128.913651 136.0
128.956879 180.0
128.96553 140.0
129.007462 264.0
129.04657 164.0
129.069748 11068.0
129.130157 220.0
129.156601 100.0
129.210648 152.0
129.228745 84.0
129.261185 96.0
129.307953 48.0
129.503265 60.0
129.551178 104.0
129.611404 76.0
129.683914 172.0
129.765518 68.0
129.853958 152.0
129.890244 108.0
129.937881 152.0
130.074646 1808.0
130.226181 60.0
130.25116 116.0
130.267059 116.0
130.303406 140.0
130.319321 224.0
130.378387 52.0
130.398849 128.0
130.414764 392.0
130.442032 180.0
130.521606 208.0
130.586472 160.0
130.614853 52.0
130.644424 116.0
130.678604 156.0
130.69902 236.0
130.746811 156.0
130.780945 156.0
130.837006 332.0
130.867081 204.0
130.942795 92.0
130.966721 108.0
130.981873 232.0
131.049988 15316.0
131.079529 452.0
131.102081 192.0
131.140823 348.0
131.178284 140.0
131.21524 204.0
131.300415 132.0
131.338928 140.0
131.382523 164.0
131.417709 104.0
131.446411 92.0
131.473785 200.0
131.496613 212.0
131.551392 112.0
131.599335 164.0
131.615326 116.0
131.663269 48.0
131.67926 180.0
131.701035 168.0
131.720367 124.0
131.745499 164.0
131.771896 192.0
131.795609 168.0
131.81015 176.0
131.866608 88.0
131.914307 340.0
131.941422 208.0
131.956818 208.0
131.98114 164.0
132.057678 59748.0
132.093002 416.0
132.129562 52.0
132.149246 60.0
132.176468 64.0
132.19339 228.0
132.213577 196.0
132.230255 48.0
132.273392 52.0
132.290573 68.0
132.324097 328.0
132.352692 88.0
132.384918 228.0
132.416992 92.0
132.433716 208.0
132.452347 212.0
132.473526 128.0
132.493576 72.0
132.538162 112.0
132.56575 72.0
132.603561 108.0
132.689499 140.0
132.727448 168.0
132.800735 184.0
132.821533 64.0
132.929214 72.0
132.962952 148.0
132.979706 104.0
133.024292 160.0
133.061462 6624.0
133.184052 72.0
133.209305 176.0
133.231293 252.0
133.303238 200.0
133.326492 200.0
133.351776 100.0
133.407852 60.0
133.459808 152.0
133.505798 64.0
133.553009 84.0
133.588608 140.0
133.623108 184.0
133.682938 232.0
133.720184 176.0
133.765793 72.0
133.791107 176.0
133.812332 128.0
133.83255 104.0
133.871704 204.0
133.897034 112.0
133.951996 148.0
134.012207 80.0
134.03064 176.0
134.065033 428.0
134.095505 136.0
134.129745 64.0
134.15509 108.0
134.181305 164.0
134.224258 152.0
134.26947 212.0
134.306458 100.0
134.361694 204.0
134.388031 124.0
134.51265 36.0
134.567856 188.0
134.628235 200.0
134.681213 236.0
134.706619 156.0
134.745895 76.0
134.783539 188.0
134.914597 116.0
134.951584 116.0
135.002457 156.0
135.066254 192.0
135.118103 96.0
135.143555 128.0
135.169006 132.0
135.185867 152.0
135.270844 196.0
135.354187 252.0
135.615295 168.0
135.665466 216.0
135.701736 196.0
135.738846 112.0
135.782898 164.0
135.802704 208.0
135.836243 96.0
135.926727 168.0
135.946609 96.0
135.989395 140.0
136.021881 156.0
136.047424 172.0
136.068588 204.0
136.093857 56.0
136.130997 104.0
136.161194 164.0
136.179779 188.0
136.205322 140.0
136.298248 180.0
136.388885 252.0
136.430725 184.0
136.502808 80.0
136.563263 176.0
136.658646 120.0
136.686569 160.0
136.706055 160.0
136.735428 272.0
136.765686 104.0
136.847168 200.0
136.914703 176.0
137.021317 244.0
137.073105 140.0
137.105728 92.0
137.124374 60.0
137.211563 128.0
137.257248 124.0
137.306229 100.0
137.338867 152.0
137.366867 164.0
137.508057 176.0
137.542404 124.0
137.567551 192.0
137.609573 44.0
137.693634 136.0
137.74736 96.0
137.770721 152.0
137.804596 184.0
137.84314 184.0
137.866516 124.0
137.924942 32.0
137.945984 212.0
137.991486 160.0
138.00676 212.0
138.130707 192.0
138.174011 112.0
138.21727 48.0
138.233658 152.0
138.250031 156.0
138.30806 236.0
138.353012 88.0
138.384354 188.0
138.488831 136.0
138.598938 72.0
138.67627 188.0
138.734879 76.0
138.758316 236.0
138.812241 104.0
138.850052 160.0
138.915436 44.0
139.077347 148.0
139.133682 28.0
139.187683 96.0
139.204117 140.0
139.2323 144.0
139.288666 124.0
139.323914 168.0
139.345047 128.0
139.422592 144.0
139.493103 156.0
139.523666 144.0
139.624771 84.0
139.75885 84.0
139.794144 88.0
139.843567 132.0
139.970703 172.0
140.00325 204.0
140.039978 216.0
140.102585 156.0
140.121445 64.0
140.192123 160.0
140.246338 128.0
140.269897 156.0
140.371277 148.0
140.390152 92.0
140.423157 148.0
140.492676 68.0
140.517517 156.0
140.574142 128.0
140.597748 84.0
140.62442 160.0
140.682709 76.0
140.706329 176.0
140.73938 92.0
140.878723 152.0
140.907074 40.0
140.994492 108.0
141.032318 148.0
141.05278 176.0
141.07959 160.0
141.117416 108.0
141.197815 340.0
141.226807 140.0
141.351578 180.0
141.416306 80.0
141.519638 104.0
141.659363 92.0
141.706863 148.0
141.777832 212.0
141.836533 156.0
141.858414 188.0
141.913925 172.0
141.991196 192.0
142.116913 92.0
142.134323 196.0
142.190475 344.0
142.240662 196.0
142.278305 200.0
142.294922 108.0
142.344788 128.0
142.411285 192.0
142.463531 156.0
142.517639 156.0
142.560959 192.0
142.591843 168.0
142.660782 84.0
142.715454 204.0
142.747055 180.0
142.77623 224.0
142.841507 164.0
142.920013 280.0
142.948563 152.0
142.969986 156.0
142.989014 128.0
143.04924 172.0
143.079468 260.0
143.141373 176.0
143.258087 180.0
143.27713 64.0
143.372452 108.0
143.396286 228.0
143.430527 248.0
143.6371 144.0
143.677643 148.0
143.822754 232.0
143.830063 188.0
143.949188 204.0
144.05397 160.0
144.097839 128.0
144.128891 156.0
144.243607 144.0
144.318787 116.0
144.327988 164.0
144.372711 160.0
144.506668 228.0
144.5952 88.0
144.628708 168.0
144.683762 136.0
144.753204 120.0
144.772354 156.0
144.840607 300.0
144.868164 160.0
144.909378 256.0
145.007141 152.0
145.064484 8520.0
145.12001 92.0
145.147781 48.0
145.208405 76.0
145.236481 152.0
145.290085 80.0
145.359665 64.0
145.383667 68.0
145.408646 68.0
145.44606 180.0
145.51088 152.0
145.532486 152.0
145.558075 160.0
145.582916 56.0
145.623734 156.0
145.686188 156.0
145.705414 208.0
145.735291 164.0
145.753464 176.0
145.770279 64.0
145.854401 84.0
145.938538 44.0
146.015488 140.0
146.06987 1240.0
146.106888 108.0
146.174255 176.0
146.200729 164.0
146.263474 284.0
146.28154 104.0
146.287842 168.0
146.345703 88.0
146.400894 164.0
146.455933 132.0
146.487244 96.0
146.53949 244.0
146.595947 152.0
146.626602 120.0
146.655975 224.0
146.679581 152.0
146.703201 76.0
146.72757 160.0
146.749939 276.0
146.798462 160.0
146.837799 492.0
146.876389 264.0
146.935425 176.0
146.95787 152.0
146.9879 404.0
147.046188 1000.0
147.051193 888.0
147.08165 239628.0
147.162506 96.0
147.173508 76.0
147.197693 212.0
147.224976 112.0
147.248947 100.0
147.28476 444.0
147.310547 228.0
147.333023 268.0
147.359467 256.0
147.385849 112.0
147.414108 232.0
147.4478 288.0
147.478287 3504.0
147.513397 396.0
147.55632 120.0
147.579529 148.0
147.609512 140.0
147.640259 208.0
147.660202 104.0
147.698395 104.0
147.717636 144.0
147.734985 128.0
147.743683 204.0
147.762161 144.0
147.80069 132.0
147.818176 164.0
147.850281 80.0
147.889832 216.0
147.931625 60.0
147.950363 92.0
147.988052 144.0
148.014893 152.0
148.04953 264.0
148.085007 38832.0
148.154236 80.0
148.180328 156.0
148.210022 220.0
148.229202 204.0
148.246155 164.0
148.2836 204.0
148.320984 312.0
148.352798 88.0
148.394012 112.0
148.410614 52.0
148.428711 64.0
148.449783 48.0
148.468582 96.0
148.53331 84.0
148.550995 88.0
148.573486 60.0
148.599518 104.0
148.62735 80.0
148.663254 44.0
148.681458 168.0
148.703384 60.0
148.750626 128.0
148.792511 100.0
148.83075 120.0
148.86441 176.0
148.872482 148.0
148.900009 100.0
148.922073 92.0
148.957031 132.0
148.992615 148.0
149.03241 112.0
149.08931 3212.0
149.144348 92.0
149.179001 128.0
149.208145 132.0
149.245148 212.0
149.284256 88.0
149.30336 264.0
149.346237 160.0
149.3694 124.0
149.416489 48.0
149.437973 120.0
149.447632 100.0
149.451767 200.0
149.4953 68.0
149.525986 40.0
149.549942 104.0
149.572708 60.0
149.596573 48.0
149.65303 84.0
149.672043 48.0
149.708572 48.0
149.740234 212.0
149.823929 64.0
149.850922 144.0
149.869705 236.0
149.922943 60.0
149.942444 52.0
149.988754 68.0
150.091354 348.0
150.130157 148.0
150.210648 100.0
150.264313 72.0
150.30336 40.0
150.371689 148.0
150.443893 164.0
150.493744 84.0
150.518021 76.0
150.591751 224.0
150.609543 72.0
150.632935 52.0
150.652481 52.0
150.694016 44.0
150.855316 68.0
150.926208 76.0
151.055313 132.0
151.092529 104.0
151.136566 76.0
151.311859 112.0
151.388687 52.0
151.53566 36.0
151.636124 132.0
151.702301 84.0
151.935272 56.0
152.03833 160.0
152.063049 144.0
152.305939 76.0
152.465637 72.0
152.487762 56.0
152.643539 76.0
152.854172 176.0
153.069672 200.0
153.354095 64.0
153.919037 80.0
153.978302 92.0
154.055878 176.0
154.086533 44.0
154.297058 32.0
154.353928 88.0
154.415741 40.0
154.519638 80.0
154.638412 168.0
154.78447 60.0
154.858765 84.0
154.915741 76.0
154.975204 52.0
155.060959 1312.0
155.141251 124.0
155.210663 164.0
155.337143 40.0
155.361954 112.0
155.423981 72.0
155.684631 104.0
155.793915 72.0
155.818375 212.0
155.856018 216.0
155.91069 104.0
155.940506 112.0
155.995193 180.0
156.046341 108.0
156.064102 372.0
156.087189 104.0
156.171738 52.0
156.228958 92.0
156.263779 168.0
156.407547 104.0
156.632217 56.0
156.724396 48.0
156.789185 76.0
156.814102 92.0
156.858963 172.0
156.911316 168.0
156.971161 80.0
157.031006 148.0
157.074585 1148.0
157.143265 88.0
157.205643 48.0
157.230606 60.0
157.450287 128.0
157.467773 84.0
157.562698 96.0
157.585175 44.0
157.617661 44.0
157.668198 140.0
157.81012 72.0
157.836014 80.0
157.995193 84.0
158.077301 340.0
158.172867 116.0
158.300552 76.0
158.647003 160.0
158.831863 72.0
158.947281 68.0
158.967346 84.0
159.003006 136.0
159.040131 40.0
159.077377 252.0
159.509842 80.0
159.555084 96.0
159.839294 60.0
159.899689 72.0
159.933456 116.0
160.020523 108.0
160.088501 164.0
160.143906 44.0
160.337906 108.0
160.448822 36.0
160.562286 228.0
160.764099 60.0
161.021606 56.0
161.039291 56.0
161.089798 140.0
161.365265 160.0
161.99794 56.0
162.094223 60.0
162.12851 904.0
162.347717 76.0
162.583633 68.0
162.682632 148.0
162.76387 172.0
162.862915 72.0
162.995026 96.0
163.125885 192.0
163.437454 140.0
163.605423 116.0
163.625793 120.0
163.658157 108.0
163.686905 136.0
163.722549 184.0
163.926346 96.0
164.041031 144.0
164.143814 24796.0
164.202393 112.0
164.297867 140.0
164.337646 128.0
164.35643 192.0
164.707031 28.0
164.760681 76.0
164.957443 84.0
164.980453 256.0
165.052048 76.0
165.145905 2116.0
165.201859 88.0
165.417892 56.0
165.451172 48.0
165.548462 60.0
165.602249 56.0
165.625305 88.0
165.814896 60.0
166.058456 112.0
166.084747 112.0
166.150574 320.0
166.222641 88.0
166.330429 88.0
166.378067 108.0
166.456238 96.0
166.510162 64.0
166.641159 48.0
166.769653 48.0
166.962479 96.0
167.071136 336.0
167.106522 140.0
167.278946 140.0
167.389648 68.0
167.53389 196.0
167.886993 136.0
168.081528 488.0
168.157883 52.0
168.302444 160.0
168.533234 216.0
168.666718 48.0
169.067596 180.0
169.287628 148.0
169.60112 88.0
169.792984 136.0
169.956406 76.0
170.096542 144.0
170.402985 76.0
170.587494 216.0
170.94902 148.0
171.363022 76.0
171.519379 64.0
171.76709 28.0
172.127243 88.0
172.330978 56.0
172.351883 160.0
172.966461 128.0
173.018814 136.0
173.095932 160.0
173.532318 76.0
173.574265 196.0
173.797226 112.0
174.030823 144.0
174.398605 92.0
174.566849 192.0
174.935196 120.0
175.09581 144.0
175.517441 72.0
175.728455 100.0
175.77594 108.0
175.810242 192.0
175.836639 64.0
176.018784 60.0
176.143295 976.0
176.26973 156.0
176.298798 88.0
176.401871 144.0
176.766861 80.0
176.933609 140.0
177.020981 88.0
177.056213 144.0
177.144272 360.0
177.710144 140.0
178.065598 868.0
178.182724 84.0
178.20929 52.0
178.334198 140.0
179.073059 3256.0
179.220352 52.0
179.286972 176.0
179.470901 76.0
179.524231 148.0
179.745636 188.0
179.868408 104.0
179.927124 76.0
179.972519 120.0
179.991211 96.0
180.039124 204.0
180.080811 11612.0
180.132751 156.0
180.271683 132.0
180.339752 68.0
180.394638 184.0
180.544357 124.0
180.579575 96.0
180.624603 64.0
180.769073 80.0
181.08313 2820.0
181.186752 56.0
181.347534 48.0
181.377014 36.0
181.567383 76.0
182.084412 140.0
182.216965 60.0
182.399704 128.0
182.437332 140.0
182.463821 108.0
182.536819 172.0
182.593292 88.0
182.961929 60.0
183.071091 132.0
183.487259 44.0
183.805527 40.0
184.113266 172.0
184.832321 48.0
185.042557 392.0
185.124664 168.0
185.354126 176.0
186.041092 108.0
186.228455 80.0
186.33168 52.0
186.464828 100.0
187.044159 156.0
187.204788 132.0
187.460861 152.0
187.722549 108.0
187.89711 56.0
189.033752 192.0
189.233566 136.0
189.260941 136.0
189.441696 148.0
189.787018 68.0
189.946075 60.0
190.085999 88.0
190.272644 244.0
191.405426 68.0
191.466003 84.0
191.617508 128.0
191.658829 120.0
191.884842 156.0
192.086151 164.0
192.251694 52.0
192.646515 64.0
192.76532 44.0
192.942215 52.0
193.667206 104.0
194.008041 152.0
194.062683 172.0
194.338074 164.0
194.376923 120.0
194.879486 76.0
194.898941 36.0
196.017517 116.0
196.084396 52.0
197.030334 92.0
197.276245 104.0
198.03479 136.0
198.121384 176.0
198.362381 40.0
198.769043 164.0
199.044891 1136.0
199.853638 128.0
200.042358 368.0
200.318146 120.0
200.922913 244.0
201.038132 300.0
201.353302 56.0
201.553864 128.0
202.162949 120.0
202.855728 92.0
203.147812 120.0
203.712723 196.0
204.082611 164.0
204.110611 176.0
204.134644 112.0
204.981628 48.0
205.036774 80.0
205.089966 496.0
205.377914 76.0
205.397873 112.0
206.073853 152.0
206.097961 480.0
206.795074 112.0
206.85231 32.0
207.104294 144.0
207.978806 112.0
208.251572 120.0
209.093964 196.0
209.304108 72.0
210.056305 152.0
210.544083 56.0
210.691391 140.0
210.890778 72.0
211.042953 284.0
211.246429 132.0
211.396881 92.0
211.420029 48.0
211.538696 128.0
211.582123 172.0
211.900696 140.0
212.002106 156.0
212.051682 9972.0
212.121063 100.0
212.187622 28.0
212.289108 72.0
212.309402 48.0
212.405121 176.0
212.55307 40.0
212.651733 52.0
212.748474 100.0
212.866562 196.0
213.05751 1828.0
213.125092 48.0
213.252945 80.0
214.049332 436.0
214.072739 316.0
214.216064 76.0
214.618256 112.0
214.667816 48.0
214.691147 108.0
214.781555 124.0
215.657501 96.0
216.066238 144.0
216.242462 88.0
216.6026 144.0
216.749084 132.0
217.089111 164.0
217.397125 36.0
218.060852 132.0
218.096436 764.0
218.160065 444.0
219.098007 124.0
219.243927 120.0
220.111206 32.0
221.542679 52.0
221.883484 96.0
222.111832 108.0
222.803482 48.0
222.937195 40.0
223.044464 1788.0
223.633118 40.0
223.904037 44.0
224.051987 984.0
224.428497 76.0
224.449371 64.0
225.055313 264.0
225.736359 112.0
227.012024 160.0
227.513092 196.0
228.234146 48.0
228.754623 40.0
230.099152 120.0
230.661041 140.0
230.691269 72.0
231.078369 156.0
231.711121 52.0
232.115219 124.0
232.329575 64.0
232.869888 112.0
233.663269 76.0
233.821487 68.0
234.135071 200.0
234.839081 96.0
235.214386 80.0
235.354813 100.0
236.00563 60.0
236.051956 3356.0
236.105606 144.0
236.204407 124.0
236.287003 32.0
236.951355 100.0
237.061737 2564.0
237.938065 228.0
238.062393 836.0
238.166138 224.0
238.747009 104.0
239.070023 208.0
239.750595 28.0
240.061951 136.0
240.083542 160.0
240.716141 124.0
242.281174 40.0
244.121735 84.0
244.924698 124.0
244.996338 68.0
245.54805 148.0
245.875626 160.0
246.128525 312.0
246.194061 132.0
247.128677 148.0
248.145065 140.0
249.046707 100.0
249.150864 144.0
249.204285 36.0
250.067047 820.0
250.623291 64.0
251.073944 600.0
251.09906 56.0
251.141632 156.0
251.292801 128.0
251.525238 164.0
252.080048 332.0
252.147446 132.0
253.08696 228.0
253.257965 148.0
256.868866 116.0
257.149628 192.0
258.607056 156.0
259.398224 172.0
259.690002 252.0
261.309021 96.0
263.023407 80.0
263.905365 96.0
264.024994 136.0
264.060577 32.0
264.086456 136.0
264.416443 84.0
265.084869 120.0
266.995636 44.0
267.109467 168.0
267.776703 148.0
268.109009 192.0
268.196991 100.0
268.937408 52.0
269.551361 112.0
269.819397 48.0
270.660248 168.0
272.07663 64.0
272.519989 32.0
273.707764 104.0
274.897339 96.0
275.326508 72.0
276.00061 144.0
276.546448 36.0
277.440826 52.0
277.828827 88.0
279.105103 208.0
280.114105 1004.0
280.285828 84.0
280.375793 64.0
280.662476 32.0
280.739166 80.0
280.835876 76.0
281.104645 156.0
281.136139 64.0
282.114777 104.0
283.061615 112.0
283.145325 72.0
283.19223 120.0
283.67807 56.0
284.677917 44.0
285.292755 32.0
286.959229 68.0
287.461823 180.0
290.06601 52.0
291.093994 36.0
291.341949 148.0
292.515137 72.0
294.817352 192.0
296.136353 140.0
296.278381 40.0
297.142181 244.0
298.013153 80.0
298.144958 204.0
298.633148 64.0
301.356445 80.0
301.698608 80.0
301.785034 140.0
305.068176 172.0
306.48465 40.0
306.641479 160.0
307.091217 124.0
307.981262 84.0
308.218811 148.0
308.372559 108.0
308.893555 44.0
309.162964 120.0
309.681091 96.0
309.754669 28.0
309.90332 164.0
310.136597 136.0
310.216034 6884.0
310.287323 64.0
310.448608 68.0
310.532776 64.0
310.718689 60.0
310.802887 112.0
310.915192 80.0
310.939758 56.0
310.985382 68.0
311.034515 56.0
311.158142 424.0
311.219208 884.0
311.278595 52.0
311.38913 48.0
311.649078 60.0
311.736938 112.0
312.025146 32.0
312.141174 76.0
312.165802 172.0
312.223175 476.0
312.503479 104.0
312.844849 84.0
312.95047 136.0
313.16391 300.0
313.222687 188.0
313.299133 56.0
313.373108 92.0
313.408356 128.0
314.025238 48.0
314.381561 100.0
314.702789 48.0
314.865234 100.0
315.225555 64.0
317.778473 88.0
317.803314 60.0
318.197266 80.0
318.254059 112.0
318.616333 44.0
319.167236 52.0
324.587585 56.0
324.892426 44.0
326.185211 64.0
329.374146 108.0
329.807739 36.0
331.573975 44.0
331.80957 80.0
333.072418 64.0
334.945679 80.0
335.033112 32.0
335.65271 92.0
335.973663 128.0
336.440796 92.0
337.953857 92.0
339.925171 80.0
340.608032 64.0
341.696167 104.0
344.571838 44.0
344.76767 100.0
345.917938 80.0
346.391907 64.0
346.510468 120.0
346.810638 72.0
350.392853 60.0
350.642517 80.0
355.590546 68.0
356.28894 100.0
362.090302 88.0
363.151489 40.0
365.172058 80.0
366.131134 116.0
366.416809 52.0
366.904633 68.0
368.591614 44.0
368.916473 48.0
373.433441 48.0
374.110657 60.0
374.195374 92.0
375.015869 68.0
376.423981 112.0
377.533051 132.0
380.835052 48.0
384.584564 80.0
384.61969 52.0
392.268738 92.0
393.886597 88.0
394.49118 36.0
397.179871 96.0
403.551636 128.0
405.140472 52.0
406.82074 88.0
412.027863 72.0
414.816101 96.0
415.907257 48.0
425.952179 52.0
426.515106 108.0
429.681824 100.0
430.135773 36.0
430.494965 88.0
431.610657 64.0
433.601807 36.0
434.663422 80.0
434.958099 96.0
435.344208 40.0
436.025513 88.0
437.485474 64.0
440.46283 84.0
440.654999 40.0
441.520264 88.0
443.705994 64.0
449.160187 72.0
453.862946 48.0
461.433167 84.0
462.750885 84.0
468.824615 92.0
500.53064 128.0
500.78891 68.0
502.589905 60.0
503.16568 48.0
505.807617 172.0
507.563812 92.0
513.346558 44.0
513.874268 136.0
515.124817 84.0
518.908081 60.0
522.009277 64.0
525.872498 68.0
531.547241 72.0
532.006165 68.0
533.623352 48.0
534.281006 84.0
534.515625 40.0
536.749695 72.0
541.194641 80.0
546.285828 68.0
550.989624 76.0
552.186218 48.0
561.702271 56.0
583.884216 60.0
588.959351 60.0
589.935425 72.0
593.668396 140.0
595.959534 48.0
600.53064 104.0
616.476685 84.0
621.760681 96.0
626.564026 52.0
630.485901 32.0
633.397827 32.0
636.431885 188.0
655.348999 52.0
662.332458 172.0
662.475891 60.0
688.671265 160.0
690.584229 108.0
692.489319 144.0
693.02887 92.0
699.146362 48.0
699.262146 92.0
699.935974 32.0
704.387146 72.0
707.216003 152.0
710.305115 92.0
719.393921 116.0
720.905457 84.0
724.76355 168.0
726.33429 48.0
727.971252 72.0
728.374023 40.0
740.147095 148.0
742.325439 176.0
743.540588 192.0
744.653564 168.0
748.716187 60.0
750.519836 44.0
753.21582 72.0
756.173828 88.0
757.991943 176.0
763.64093 128.0
766.051819 168.0
766.426453 144.0
766.729492 144.0
768.152039 156.0
771.426636 136.0
773.589539 140.0
774.08783 112.0
779.207336 124.0
780.163208 64.0
780.491272 208.0
780.847168 180.0
785.799194 112.0
785.882935 188.0
786.731201 108.0
787.9375 140.0
788.5354 80.0
788.602478 148.0
789.049683 172.0
792.261963 64.0
793.999573 128.0
794.229553 116.0
799.218201 148.0
799.780945 220.0
801.194336 124.0
802.834534 240.0
803.031921 164.0
803.816101 128.0
805.492859 152.0
805.566284 180.0
805.944824 188.0
809.434814 56.0
810.125793 120.0
811.622009 96.0
812.368286 184.0
812.501099 56.0
812.892578 260.0
813.834839 124.0
815.340149 180.0
816.983398 44.0
818.110168 172.0
818.309448 104.0
819.653625 68.0
820.514282 116.0
821.152954 220.0
823.298767 200.0
823.782043 196.0
824.269897 68.0
825.956421 120.0
827.793579 196.0
829.254395 196.0
830.246216 216.0
830.859985 108.0
833.937805 156.0
835.801025 260.0
838.507629 80.0
839.706787 132.0
844.136169 200.0
844.263428 144.0
844.564148 80.0
847.076294 120.0
847.18634 104.0
847.933838 136.0
848.333801 56.0
849.116516 112.0
850.009888 164.0
850.358093 96.0
851.763245 204.0
852.303528 148.0
853.041626 176.0
853.10553 140.0
855.123901 204.0
856.002991 68.0
856.742676 60.0
856.899963 144.0
857.570129 144.0
861.520508 196.0
861.935974 144.0
862.180725 184.0
862.543091 144.0
863.923157 156.0
864.794983 128.0
870.91626 180.0
871.004333 180.0
871.574219 96.0
871.744629 104.0
872.191284 180.0
873.731934 188.0
874.355652 56.0
874.856018 224.0
875.639099 124.0
875.927734 48.0
877.005981 204.0
877.31842 132.0
878.432983 180.0
879.06427 204.0
879.471497 196.0
879.843384 176.0
879.979736 124.0
880.427917 132.0
880.51062 160.0
880.658264 68.0
880.782288 144.0
881.14856 136.0
882.40741 136.0
883.03418 188.0
883.531067 100.0
884.625854 84.0
884.726501 188.0
884.880432 176.0
885.240295 212.0
885.294922 132.0
885.525879 104.0
886.610046 136.0
886.906372 220.0
887.74231 124.0
888.483765 92.0
889.177979 144.0
889.670654 72.0
890.341614 144.0
891.292053 48.0
891.636719 180.0
894.43811 208.0
894.866699 128.0
896.552429 168.0
896.874268 216.0
897.89978 204.0
898.126404 160.0
900.077881 240.0
900.860291 88.0
901.21875 204.0
901.374084 188.0
901.971741 48.0
902.163025 80.0
903.484619 160.0
903.999207 148.0
904.29248 168.0
904.484009 120.0
906.32251 148.0
906.6521 136.0
906.945801 212.0
908.042969 116.0
909.158875 100.0
909.518982 60.0
910.077271 68.0
911.302551 156.0
911.753235 112.0
911.92749 136.0
912.077759 140.0
912.354309 148.0
912.528625 188.0
912.817261 212.0
913.605164 68.0
914.116577 144.0
915.489075 184.0
916.61554 164.0
916.784241 140.0
916.971069 44.0
917.013245 116.0
917.495483 180.0
917.815063 128.0
917.929626 160.0
918.59906 140.0
919.757629 180.0
920.361328 164.0
921.279358 128.0
921.72644 164.0
922.639038 32.0
923.769897 136.0
924.272095 156.0
926.106384 148.0
926.330505 208.0
926.675781 132.0
926.778809 240.0
926.954529 188.0
928.100159 236.0
928.876404 176.0
929.877563 40.0
930.259949 184.0
930.375305 152.0
930.575623 140.0
930.684937 204.0
934.362 136.0
935.804382 176.0
936.047974 196.0
936.267212 36.0
936.425537 172.0
936.656982 180.0
936.699646 164.0
937.028564 136.0
937.942688 88.0
938.314514 104.0
938.412109 96.0
938.625488 184.0
939.192627 184.0
939.65625 184.0
940.217651 156.0
940.535034 152.0
940.944031 180.0
941.023376 172.0
941.695129 152.0
942.208191 124.0
942.336487 132.0
942.568665 120.0
942.635925 164.0
942.788696 224.0
943.283752 140.0
943.47937 240.0
943.907349 200.0
943.956299 160.0
944.084717 208.0
944.439392 140.0
944.604553 136.0
945.31427 136.0
945.534607 140.0
945.981384 96.0
946.238525 100.0
947.26123 88.0
947.445007 168.0
948.805481 160.0
949.087524 212.0
949.139282 228.0
949.228577 136.0
949.394165 180.0
949.82959 196.0
950.197693 204.0
950.351074 184.0
950.786743 180.0
950.909485 272.0
951.889954 220.0
951.940857 152.0
952.456726 156.0
953.366028 108.0
953.452087 192.0
954.066711 100.0
954.312622 236.0
954.620056 128.0
955.382751 140.0
955.764221 172.0
955.868835 124.0
956.145752 164.0
956.34967 116.0
956.428833 108.0
957.161438 144.0
957.247681 172.0
957.290771 172.0
958.134583 184.0
960.057678 120.0
960.544922 180.0
961.211914 184.0
961.279114 144.0
962.093811 32.0
962.346985 184.0
962.760681 220.0
962.834778 236.0
963.267151 92.0
964.064148 192.0
964.750244 244.0
964.824402 204.0
965.714844 220.0
965.789062 192.0
965.987 172.0
966.085999 216.0
966.228271 140.0
966.636658 140.0
967.527893 168.0
967.577454 100.0
968.846985 140.0
969.076233 120.0
969.262085 104.0
969.778625 112.0
970.51416 168.0
971.295593 172.0
971.847717 140.0
971.928345 60.0
972.983459 136.0
973.424316 108.0
974.281433 204.0
974.958679 164.0
975.033264 128.0
975.076782 124.0
975.344055 68.0
975.511902 176.0
975.663818 216.0
975.828918 164.0
976.102539 168.0
976.767944 128.0
977.321655 144.0
977.856812 156.0
978.018677 124.0
978.087097 196.0
978.292542 164.0
978.628723 160.0
978.753235 164.0
979.690735 212.0
980.721863 228.0
981.008606 176.0
981.457458 224.0
981.625854 196.0
981.844116 176.0
982.405457 192.0
982.935791 420.0
983.466248 152.0
983.665955 32.0
984.227844 192.0
984.365234 128.0
985.183411 148.0
985.43335 228.0
985.608276 48.0
985.690186 180.0
985.945679 68.0
986.433228 168.0
986.529602 240.0
987.306641 180.0
987.322266 124.0
987.342285 204.0
987.652527 132.0
987.733887 192.0
988.803772 164.0
989.223145 80.0
989.278442 124.0
990.162354 144.0
990.381531 184.0
991.528076 160.0
991.866577 164.0
992.531067 144.0
992.675293 56.0
993.208374 136.0
993.465576 148.0
993.553406 252.0
994.30011 196.0
994.381714 160.0
994.770874 164.0
995.794312 152.0
996.045532 152.0
996.114685 84.0
996.215149 172.0
996.347107 132.0
996.604675 192.0
996.654968 188.0
997.295959 172.0
997.603943 112.0
997.885254 156.0
998.025208 160.0
998.213806 208.0
998.477966 116.0
998.804993 52.0
998.848999 44.0
999.467468 212.0
999.755005 164.0
999.799072 148.0
999.862 204.0
1000.11377 160.0
1000.875488 152.0
1001.058105 124.0
1001.196655 88.0
1001.946228 268.0
1002.399841 168.0
1002.500671 104.0
1002.853638 136.0
1003.326355 44.0
1003.408325 88.0
1004.228088 184.0
1004.316772 208.0
1005.440308 140.0
1006.051697 148.0
1006.361023 164.0
1006.891479 188.0
1008.53418 172.0
1008.609985 168.0
1009.153687 204.0
1009.273804 184.0
1009.444519 176.0
1010.178223 124.0
1010.431213 184.0
1010.61084 164.0
1010.658997 144.0
1011.089294 176.0
1011.234863 160.0
1011.29187 156.0
1011.48175 144.0
1011.526062 160.0
1011.608337 212.0
1011.734924 152.0
1011.943848 116.0
1012.019836 156.0
1012.71936 120.0
1012.786072 208.0
1013.463928 156.0
1013.527283 48.0
1013.584351 140.0
1013.742737 92.0
1014.002563 64.0
1014.287781 188.0
1014.522339 108.0
1014.668152 132.0
1014.985168 60.0
1015.479797 128.0
1015.676453 244.0
1016.869263 156.0
1016.932739 100.0
1017.260254 168.0
1017.961182 176.0
1018.196167 120.0
1018.91394 136.0
1019.123596 216.0
1019.263367 144.0
1019.631958 192.0
1019.994263 144.0
1020.394714 176.0
1020.610901 196.0
1020.852539 172.0
1021.005188 152.0
1022.41748 176.0
1022.621155 168.0
1022.856628 180.0
1023.155823 168.0
1023.442322 132.0
1024.563232 152.0
1024.792603 156.0
1024.875488 176.0
1024.926392 124.0
1025.053833 184.0
1025.927002 244.0
1026.043457 224.0
1026.271362 116.0
1026.360596 140.0
1027.655396 132.0
1027.7323 188.0
1027.846802 132.0
1027.985962 176.0
1028.242432 148.0
1028.382812 144.0
1028.855225 60.0
1029.225586 152.0
1030.4646 128.0
1030.97583 84.0
1032.0177 176.0
1032.682739 144.0
1033.175293 260.0
1033.36731 60.0
1033.763916 220.0
1033.904785 172.0
1034.096802 48.0
1034.167114 140.0
1034.404053 188.0
1034.877686 220.0
1035.220093 212.0
1035.652588 252.0
1035.831909 112.0
1036.3573 152.0
1036.799438 136.0
1037.562134 196.0
1038.14563 236.0
1038.427856 28.0
1038.504761 44.0
1038.735718 160.0
1038.838379 128.0
1039.062866 108.0
1039.334229 204.0
1039.473511 172.0
1039.884277 168.0
1039.948486 212.0
1040.378174 140.0
1041.046265 204.0
1041.393066 48.0
1041.714233 292.0
1042.04187 184.0
1042.241089 164.0
1042.562378 60.0
1043.25647 176.0
1043.436523 56.0
1043.777222 164.0
1043.99585 212.0
1044.458984 188.0
1046.362183 200.0
1046.634155 44.0
1047.355469 152.0
1048.49585 148.0
1049.088867 192.0
1049.456299 144.0
1049.527222 180.0
1049.824829 196.0
1049.914185 208.0
1050.185059 160.0
1050.881714 168.0
1051.255981 172.0
1053.483521 124.0
1053.871094 132.0
1054.258789 136.0
1054.401001 72.0
1055.125 152.0
1055.402954 124.0
1055.629272 220.0
1055.700439 120.0
1055.965576 124.0
1056.153198 216.0
1056.398926 184.0
1056.502441 180.0
1056.625366 128.0
1056.864746 176.0
1057.110596 132.0
1057.434204 116.0
1057.511841 112.0
1059.020508 140.0
1059.117676 152.0
1059.784912 132.0
1060.17981 188.0
1060.672729 168.0
1061.126465 172.0
1062.397583 148.0
1062.579346 64.0
1063.825317 172.0
1063.922729 188.0
1064.084961 132.0
1064.377197 216.0
1064.701904 112.0
1064.903198 100.0
1065.136963 132.0
1065.188965 192.0
1065.377319 148.0
1065.486084 180.0
1065.728149 160.0
1065.858154 68.0
1065.903687 232.0
1065.981567 80.0
1066.170044 80.0
1066.272705 216.0
1067.126221 152.0
1067.320679 104.0
1067.372681 212.0
1067.684814 140.0
1067.760254 212.0
1067.990479 184.0
1068.153076 164.0
1068.341797 152.0
1068.4198 80.0
1068.680054 68.0
1068.838379 192.0
1069.044434 144.0
1069.103027 104.0
1069.168091 196.0
1069.220093 144.0
1069.526001 120.0
1069.66272 164.0
1069.773438 200.0
1069.916626 196.0
1070.420044 152.0
1070.724365 168.0
1070.815186 196.0
1071.245117 176.0
1071.704102 116.0
1071.870605 168.0
1072.111694 148.0
1072.248535 88.0
1073.069824 312.0
1073.213257 152.0
1073.441528 164.0
1074.061035 92.0
1074.230713 172.0
1074.485107 136.0
1074.530762 76.0
1074.680786 224.0
1074.765625 120.0
1075.072388 76.0
1075.450806 48.0
1075.561768 148.0
1075.640137 96.0
1076.044922 176.0
1076.136353 172.0
1076.312622 180.0
1076.94458 176.0
1077.017944 156.0
1077.456177 184.0
1077.795288 220.0
1078.775635 96.0
1078.912964 116.0
1079.004517 132.0
1079.154785 192.0
1079.717163 160.0
1080.384399 140.0
1082.040161 44.0
1082.721069 112.0
1082.858643 108.0
1083.035522 164.0
1083.68396 120.0
1083.906982 136.0
1083.991943 152.0
1084.096802 160.0
1084.634277 132.0
1084.732544 144.0
1084.785034 180.0
1085.171753 192.0
1085.401245 140.0
1085.532471 176.0
1085.7948 164.0
1085.899658 176.0
1086.057129 276.0
1086.411255 228.0
1086.877075 132.0
1086.949341 128.0
1087.172363 212.0
1087.231445 164.0
1087.553101 100.0
1087.723755 200.0
1088.170166 124.0
1088.610107 160.0
1088.981934 96.0
1089.082886 68.0
1089.266846 160.0
1089.555908 200.0
1089.680664 68.0
1089.864624 208.0
1090.193237 220.0
1090.265503 64.0
1090.65332 148.0
1090.804443 184.0
1090.863647 208.0
1091.507935 168.0
1091.751221 176.0
1091.895874 180.0
1091.955078 172.0
1092.060303 156.0
1092.567139 76.0
1092.955078 212.0
1093.277466 88.0
1093.428833 180.0
1093.813965 272.0
1093.922485 160.0
1094.238525 156.0
1094.598511 156.0
1094.85083 212.0
1095.746704 216.0
1095.8125 68.0
1095.99707 144.0
1096.155151 144.0
1096.899902 140.0
1097.091064 72.0
1097.192871 148.0
1097.565796 164.0
1097.670288 164.0
1097.99353 156.0
1098.139526 192.0
1098.792603 84.0
1099.359985 140.0
1099.755981 168.0
1100.363281 120.0
1100.713257 160.0
1100.970825 128.0
1101.050049 188.0
1101.116089 72.0
1101.248169 144.0
1101.466309 208.0
1101.598267 176.0
1102.126831 144.0
1102.187866 192.0
1102.44397 176.0
1102.827271 200.0
1102.979248 208.0
1103.250366 176.0
1103.364624 176.0
1103.488281 108.0
1103.94458 168.0
1104.748169 252.0
1105.00293 112.0
1105.135254 108.0
1105.254272 80.0
1105.386597 124.0
1105.558716 168.0
1105.638062 192.0
1106.167603 112.0
1106.266846 176.0
1106.319824 92.0
1106.491943 104.0
1107.081299 168.0
1107.154175 184.0
1107.272339 156.0
1107.307739 164.0
1107.432251 80.0
1107.500488 276.0
1107.935669 124.0
1108.054932 208.0
1108.399536 92.0
1108.571777 212.0
1109.353882 224.0
1109.599121 72.0
1109.64563 132.0
1109.715454 124.0
1109.791382 204.0
1109.91748 148.0
1110.16272 184.0
1110.235718 104.0
1110.693359 88.0
1110.879028 156.0
1111.350098 32.0
1111.496094 100.0
1111.708496 124.0
1112.212891 196.0
1112.52478 100.0
1112.790405 128.0
1112.876709 148.0
1113.102417 216.0
1113.241943 164.0
1113.28833 120.0
1113.51416 180.0
1114.158447 92.0
1114.21167 352.0
1114.321533 324.0
1114.743164 152.0
1114.962524 168.0
1115.095459 160.0
1115.354614 196.0
1115.648071 144.0
1115.946289 136.0
1116.006104 108.0
1116.385132 188.0
1116.52832 152.0
1116.651123 60.0
1116.724365 112.0
1117.495972 144.0
1118.653931 176.0
1118.807007 148.0
1118.900269 160.0
1119.392944 152.0
1119.639404 168.0
1120.265503 148.0
1120.72522 188.0
1120.864136 196.0
1121.164917 164.0
1121.87146 160.0
1121.95813 116.0
1122.011475 144.0
1122.137817 168.0
1122.264771 144.0
1122.644897 156.0
1122.724976 188.0
1123.071777 152.0
1123.131714 192.0
1123.465332 180.0
1123.711426 144.0
1124.085815 204.0
1124.185913 132.0
1124.502808 196.0
1124.753174 228.0
1124.997803 236.0
1125.141968 172.0
1125.868164 212.0
1126.028442 140.0
1126.239502 140.0
1126.30896 56.0
1126.531128 212.0
1126.796631 128.0
1126.890137 172.0
1127.14209 108.0
1127.779541 180.0
1127.852417 108.0
1127.899292 192.0
1127.979492 180.0
1128.62793 148.0
1128.723877 152.0
1129.122803 108.0
1129.323486 144.0
1129.751587 148.0
1129.945557 124.0
1130.300171 120.0
1130.393799 144.0
1130.474121 196.0
1130.842285 48.0
1131.250488 160.0
1131.344238 120.0
1131.504883 128.0
1131.839722 164.0
1132.028931 164.0
1132.281616 40.0
1132.643311 168.0
1132.931396 232.0
1133.011841 136.0
1133.058716 104.0
1133.136963 208.0
1133.80249 152.0
1135.384644 204.0
1135.471802 108.0
1135.565674 160.0
1135.76001 136.0
1136.095581 136.0
1136.182739 148.0
1136.23645 140.0
1137.122192 124.0
1137.827026 76.0
1137.927734 156.0
1138.102295 180.0
1138.310669 164.0
1138.478394 228.0
1138.814087 60.0
1139.113647 172.0
1139.36499 112.0
1139.438843 196.0
1139.58667 188.0
1139.983154 36.0
1140.130981 184.0
1141.233398 184.0
1141.88562 208.0
1141.946167 172.0
1142.503418 160.0
1142.612061 188.0
1142.813965 124.0
1143.056152 156.0
1143.251343 168.0
1143.400269 128.0
1143.857056 120.0
1143.937866 84.0
1144.120728 212.0
1144.900635 324.0
1145.08252 144.0
1145.149902 104.0
1145.303467 64.0
1145.446167 148.0
1145.74939 212.0
1145.823486 220.0
1146.018799 204.0
1146.272461 164.0
1146.584839 188.0
1146.874756 228.0
1146.969116 148.0
1147.130859 196.0
1147.292603 164.0
1147.458008 164.0
1147.825317 184.0
1148.012207 140.0
1148.486206 172.0
1148.546875 192.0
1148.627808 160.0
1148.876831 92.0
1149.039307 144.0
1149.100098 96.0
1149.275513 176.0
1149.396973 132.0
1149.977295 176.0
1150.125732 156.0
1150.501709 140.0
1150.794067 132.0
1151.057495 208.0
1151.168701 216.0
1151.327515 76.0
1151.705811 132.0
1151.92041 148.0
1152.361084 68.0
1152.417847 196.0
1152.509644 120.0
1152.763306 192.0
1153.503174 128.0
1153.739746 140.0
1153.793823 156.0
1153.868164 124.0
1153.935791 168.0
1154.233276 128.0
1154.422607 172.0
1154.524048 148.0
1154.726929 180.0
1154.936646 240.0
1155.091187 208.0
1155.410156 168.0
1155.471069 208.0
1155.82959 124.0
1156.323608 160.0
1156.587646 136.0
1156.756836 116.0
1157.027588 136.0
1157.393188 132.0
1157.731812 208.0
1158.395508 128.0
1158.605591 108.0
1158.693604 124.0
1158.9375 128.0
1159.197876 140.0
1160.22522 236.0
1160.340454 148.0
1160.401489 160.0
1160.815186 224.0
1160.95752 176.0
1161.140625 236.0
1161.20166 208.0
1161.32373 140.0
1161.567993 184.0
1161.866455 168.0
1162.259888 252.0
1162.475464 228.0
1162.707764 56.0
1162.999878 152.0
1163.223633 180.0
1163.413696 48.0
1163.497803 84.0
1163.726074 176.0
1163.785889 168.0
1164.337158 132.0
1164.731079 172.0
1164.799072 72.0
1165.11145 112.0
1165.179443 160.0
1165.566772 176.0
1165.763794 212.0
1166.05603 228.0
1166.110352 116.0
1166.661011 108.0
1166.817383 56.0
1167.096069 128.0
1167.245728 204.0
1167.419434 152.0
1167.558472 156.0
1167.986938 144.0
1168.38147 88.0
1168.463135 232.0
1168.606079 136.0
1168.694458 160.0
1168.810181 164.0
1168.939453 172.0
1169.375 152.0
1169.507935 180.0
1169.525879 96.0
1169.552979 196.0
1169.713257 172.0
1169.967163 192.0
1170.232666 152.0
1170.934082 168.0
1171.015869 208.0
1171.131592 212.0
1171.270874 232.0
1171.424438 152.0
1171.540283 136.0
1171.690186 164.0
1171.744629 180.0
1171.86731 212.0
1172.030884 104.0
1172.385132 140.0
1172.705444 144.0
1172.821411 168.0
1172.93042 112.0
1173.032715 188.0
1173.189453 152.0
1173.291748 268.0
1173.550781 180.0
1173.775757 224.0
1174.116821 144.0
1174.280396 164.0
1174.362305 28.0
1174.526001 104.0
1174.764771 152.0
1175.453857 48.0
1175.522095 64.0
1175.829102 228.0
1175.952026 96.0
1176.156738 240.0
1176.365723 124.0
1176.450439 160.0
1176.532227 120.0
1176.579956 164.0
1176.694458 164.0
1177.167236 216.0
1177.37207 160.0
1177.419922 88.0
1177.590576 196.0
1177.752441 196.0
1178.28479 316.0
1178.403564 116.0
1178.499146 192.0
1178.663086 156.0
1178.710938 172.0
1179.585815 152.0
1179.701294 212.0
1179.886597 140.0
1180.257812 172.0
1180.823364 340.0
1180.912231 192.0
1181.267944 92.0
1181.575806 160.0
1181.712646 140.0
1181.828979 140.0
1182.047852 212.0
1182.095825 60.0
1182.26001 124.0
1182.313965 204.0
1182.800781 200.0
1182.845947 196.0
1183.293579 144.0
1183.423706 128.0
1183.492188 72.0
1183.540039 112.0
1183.656494 172.0
1183.707764 192.0
1184.149536 220.0
1184.40979 132.0
1184.4646 300.0
1184.560547 192.0
1184.71167 148.0
1184.89624 164.0
1185.033203 252.0
1185.512939 128.0
1185.96521 256.0
1186.129761 160.0
1186.205078 384.0
1186.368774 224.0
1186.609619 140.0
1187.01416 224.0
1187.06897 156.0
1187.147583 144.0
1187.425537 156.0
1187.555908 116.0
1187.699951 88.0
1188.027466 156.0
1188.538818 148.0
1188.713013 192.0
1189.429077 164.0
1189.662476 168.0
1189.937134 136.0
1190.493286 124.0
1190.843506 180.0
1190.919067 48.0
1191.8396 136.0
1192.150269 152.0
1192.327515 108.0
1192.39624 176.0
1193.537354 180.0
1194.225098 192.0
1194.517822 156.0
1194.56897 40.0
1194.796875 176.0
1195.105591 184.0
1195.174438 124.0
1195.265747 148.0
1195.373901 120.0
1195.60791 124.0
1195.976318 124.0
1196.034668 92.0
1196.117188 108.0
1196.272217 192.0
1196.32373 160.0
1196.406372 140.0
1196.530273 92.0
1196.72998 140.0
1196.908936 184.0
1197.453003 108.0
1197.570068 152.0
1197.687134 188.0
1198.162476 128.0
1198.389893 264.0
1198.527588 128.0
1198.644775 200.0
1198.741211 76.0
1199.037598 216.0
1199.540771 64.0
1200.016357 72.0
1200.133667 160.0
1200.32666 168.0
1200.563477 368.0
1200.657715 168.0
1200.830078 164.0
1200.885254 140.0
1200.98877 396.0
1201.168091 176.0
1201.822266 216.0
1201.849731 168.0
1202.196045 176.0
1202.251343 192.0
1202.44458 84.0
1203.169312 144.0
1203.47937 96.0
1204.046265 124.0
1204.122192 224.0
1204.647217 140.0
1204.799194 224.0
1205.095825 196.0
1205.260498 168.0
1205.421021 44.0
1205.752686 156.0
1205.841309 116.0
1206.112061 120.0
1206.423096 144.0
1206.727295 172.0
1206.824097 140.0
1207.041992 156.0
1207.245972 164.0
1207.427856 152.0
1207.640137 140.0
1207.902954 180.0
1208.027466 112.0
1208.119751 192.0
1208.370728 124.0
1208.466553 164.0
1208.587891 212.0
1208.69165 168.0
1208.788574 60.0
1209.25708 192.0
1209.494507 168.0
1210.20752 136.0
1210.809937 180.0
1211.170166 108.0
1211.329468 216.0
1211.516479 132.0
1211.758911 128.0
1211.811157 144.0
1211.88562 208.0
1212.57666 52.0
1212.639038 52.0
1212.694458 120.0
1212.874634 60.0
1212.97168 172.0
1213.082642 136.0
1213.228149 196.0
1213.491577 176.0
1213.547119 132.0
1213.644165 172.0
1213.86377 220.0
1213.997803 148.0
1214.088013 172.0
1214.157349 128.0
1214.719116 120.0
1214.857788 164.0
1214.996582 220.0
1215.516968 184.0
1215.737061 168.0
1216.079102 192.0
1216.141602 196.0
1216.294312 136.0
1216.636597 160.0
1216.752441 164.0
1217.287109 152.0
1217.391235 56.0
1217.974609 64.0
1218.037109 100.0
1218.120483 264.0
1218.277466 128.0
1218.391357 220.0
1218.440063 160.0
1218.516479 132.0
1218.634521 204.0
1218.99585 204.0
1219.114014 204.0
1219.204346 192.0
1219.621338 148.0
1219.94812 140.0
1220.233154 104.0
1220.288696 208.0
1220.53479 228.0
1220.705933 88.0
1220.841553 184.0
1221.081421 260.0
1221.290161 164.0
1221.394409 152.0
1221.575317 148.0
1221.732178 116.0
1222.020508 172.0
1222.270996 124.0
1222.36145 148.0
1222.542358 104.0
1222.690918 288.0
1223.037354 200.0
1223.384644 108.0
1223.781372 200.0
1223.86499 136.0
1224.408081 168.0
1224.582275 204.0
1224.670776 240.0
1225.230103 204.0
1225.278809 132.0
1225.439087 156.0
1225.859009 160.0
1225.916382 180.0
1226.42334 128.0
1226.526245 152.0
1226.574951 192.0
1227.278931 160.0
1227.439453 176.0
1227.676636 124.0
1227.885742 152.0
1228.004395 164.0
1228.095093 144.0
1228.307617 164.0
1229.040039 120.0
1229.106567 120.0
1229.176392 204.0
1229.378784 164.0
1229.710205 216.0
1229.839355 140.0
1229.982422 192.0
1230.216309 232.0
1230.265137 160.0
1230.432739 212.0
1230.628174 152.0
1230.958984 204.0
1231.047119 112.0
1231.144897 44.0
1231.536011 172.0
1231.626831 224.0
1231.674927 180.0
1231.8573 88.0
1231.983765 252.0
1232.130859 148.0
1232.213623 184.0
1232.739746 164.0
1233.129028 136.0
1233.602905 184.0
1233.897949 140.0
1234.282471 112.0
1234.587646 192.0
1234.737061 124.0
1234.953857 136.0
1235.107666 128.0
1235.464478 132.0
1235.772339 132.0
1236.07312 144.0
1236.157104 104.0
1236.675049 60.0
1236.878052 180.0
1237.186035 128.0
1237.511353 236.0
1237.760132 152.0
1238.040283 48.0
1238.27832 144.0
1238.530518 188.0
1238.68457 180.0
1238.817627 84.0
1238.964844 172.0
1239.04187 136.0
1239.266113 92.0
1239.392212 156.0
1239.76355 140.0
1239.931763 204.0
1240.674316 140.0
1240.899048 116.0
1241.144531 44.0
1241.405518 128.0
1241.558228 176.0
1241.684448 104.0
1241.796631 168.0
1241.915894 132.0
1241.964966 192.0
1242.200806 156.0
1243.017334 144.0
1243.129639 156.0
1243.241943 84.0
1243.501587 148.0
1243.585815 196.0
1243.741455 188.0
1243.852539 160.0
1243.99292 196.0
1244.147339 236.0
1244.36499 180.0
1244.428223 192.0
1244.484497 184.0
1244.66687 140.0
1244.884521 76.0
1245.147949 184.0
1245.495605 144.0
1245.600952 184.0
1245.769531 332.0
1245.881958 148.0
1246.233276 80.0
1246.296509 224.0
1246.465088 164.0
1246.570557 140.0
1246.668945 120.0
1247.097534 236.0
1247.491211 184.0
1247.543823 188.0
1247.59668 188.0
1247.68811 168.0
1247.751343 188.0
1248.011475 128.0
1248.166138 112.0
1248.489624 176.0
1248.545898 120.0
1248.595093 128.0
1248.939697 164.0
1249.02417 196.0
1249.147217 168.0
1249.16626 156.0
1249.404053 160.0
1249.453247 176.0
1249.586914 168.0
1249.650269 52.0
1249.875366 120.0
1249.988037 172.0
1250.171021 192.0
1250.297607 180.0
1250.447144 196.0
1250.61438 352.0
1250.682007 176.0
1250.947998 200.0
1250.974365 236.0
1251.107056 72.0
1251.684448 120.0
1251.818237 160.0
1252.67041 188.0
1252.860596 136.0
1253.522949 84.0
1253.966919 220.0
1254.023315 132.0
1254.368652 72.0
1254.897339 144.0
1255.06665 184.0
1255.115967 32.0
1255.553955 148.0
1255.673096 168.0
1255.758301 184.0
1255.877563 180.0
1256.244385 124.0
1256.382812 188.0
1256.530518 152.0
1256.543091 84.0
1256.632446 140.0
1256.935791 64.0
1257.067017 176.0
1257.302246 176.0
1257.514526 224.0
1257.563843 112.0
1257.613281 148.0
1257.66272 144.0
1257.740356 64.0
1257.945068 176.0
1258.177979 48.0
1258.520508 180.0
1258.7146 48.0
1258.877075 92.0
1259.046509 148.0
1259.449097 148.0
1259.512695 268.0
1259.562134 148.0
1259.795166 76.0
1259.922363 140.0
1260.04248 40.0
1260.176758 136.0
1260.360474 52.0
1260.43103 184.0
1260.491699 220.0
1260.572876 252.0
1261.099121 176.0
1261.236694 204.0
1261.434692 112.0
1261.56189 176.0
1261.613281 220.0
1261.887085 156.0
1262.141602 184.0
1262.38208 140.0
1262.717651 192.0
1262.813477 88.0
1262.884155 112.0
1263.061035 96.0
1263.279663 220.0
1263.390381 188.0
1263.577393 184.0
1263.725952 132.0
1263.931152 164.0
1264.171753 108.0
1264.228394 172.0
1264.320435 184.0
1264.513062 224.0
1264.738892 232.0
1265.305908 220.0
1265.351685 168.0
1265.516724 264.0
1266.026489 184.0
1266.161987 192.0
1266.281494 140.0
1266.345215 132.0
1266.426758 168.0
1266.748901 160.0
1266.961426 152.0
1267.15271 104.0
1267.471558 136.0
1267.555908 176.0
1267.705444 140.0
1267.755005 188.0
1267.981812 172.0
1268.123779 128.0
1268.442505 132.0
1268.619751 60.0
1268.988403 144.0
1269.165649 72.0
1269.264893 200.0
1269.335815 76.0
1269.456299 40.0
1269.796753 152.0
1270.050049 216.0
1270.399658 184.0
1270.761475 108.0
1271.059448 36.0
1271.350464 168.0
1271.435547 212.0
1271.620117 140.0
1271.6698 136.0
1271.918213 248.0
1272.216309 124.0
1272.280273 216.0
1272.507446 160.0
1272.869507 124.0
1273.047119 212.0
1273.245972 172.0
1273.409302 168.0
1273.806519 164.0
1273.963379 184.0
1274.133789 128.0
1274.226196 96.0
1274.282959 104.0
1274.361206 212.0
1274.446411 224.0
1274.631226 176.0
1275.100586 144.0
1275.327637 184.0
1275.392456 168.0
1275.512451 60.0
1275.640381 152.0
1275.739868 160.0
1275.86792 120.0
1275.949463 240.0
1276.138062 212.0
1276.322876 100.0
1276.507812 96.0
1276.606812 176.0
1276.706909 160.0
1276.786987 140.0
1277.098022 52.0
1277.147827 140.0
1277.254517 184.0
1277.460815 156.0
1277.546143 80.0
1277.667114 168.0
1277.738281 144.0
1277.9021 144.0
1278.015747 188.0
1278.791382 220.0
1278.855469 236.0
1279.06897 148.0
1279.190674 192.0
1279.254028 208.0
1279.538818 148.0
1279.595825 176.0
1279.803833 200.0
1279.946045 164.0
1280.058594 140.0
1280.179688 172.0
1280.606934 176.0
1280.692383 76.0
1281.027222 160.0
1281.176758 84.0
1281.604248 108.0
1281.946289 184.0
1282.067505 168.0
1282.252808 72.0
1282.416626 164.0
1282.509399 140.0
1282.602051 176.0
1283.07959 176.0
1283.286377 64.0
1283.366821 124.0
1283.528809 164.0
1283.830933 172.0
1284.184937 160.0
1284.28479 256.0
1284.448853 148.0
1285.147949 188.0
1285.369141 132.0
1285.590942 148.0
1285.862427 152.0
1285.947144 120.0
1286.004272 120.0
1286.061401 124.0
1286.361206 148.0
1286.632446 220.0
1286.789551 216.0
1287.217896 100.0
1287.339355 44.0
1287.396484 200.0
1287.695923 144.0
1287.880371 152.0
1288.167847 180.0
1288.324951 140.0
1288.732178 148.0
1288.803589 140.0
1289.282349 220.0
1289.386719 184.0
1289.854126 148.0
1289.954834 200.0
1290.240234 116.0
1290.331909 200.0
1290.497559 168.0
1290.690674 112.0
1290.869385 164.0
1291.041016 196.0
1291.1698 216.0
1291.291382 204.0
1291.391479 144.0
1291.487549 192.0
1291.617676 228.0
1291.77771 200.0
1292.006592 136.0
1292.285645 96.0
1292.485352 144.0
1292.564697 148.0
1292.858154 148.0
1293.05127 160.0
1293.130005 148.0
1293.66687 148.0
1293.738525 104.0
1294.024902 172.0
1294.125122 132.0
1294.203857 176.0
1294.275391 176.0
1294.346802 124.0
1294.447266 160.0
1294.683594 156.0
1295.05603 152.0
1295.578979 156.0
1295.686401 184.0
1295.743652 124.0
1295.808228 180.0
1295.95752 248.0
1296.109131 220.0
1296.933228 148.0
1297.040771 76.0
1297.247559 164.0
1297.549805 168.0
1297.599976 100.0
1297.846313 176.0
1298.137695 164.0
1298.238037 108.0
1298.496216 152.0
1298.553711 144.0
1298.611084 64.0
1299.012695 192.0
1299.543579 236.0
1299.723022 176.0
1299.909546 148.0
1300.059448 140.0
1300.146362 100.0
1300.246826 140.0
1300.698975 156.0
1300.749268 136.0
1300.893555 164.0
1301.237427 180.0
1301.388184 80.0
1301.534668 100.0
1301.777832 168.0
1301.998535 136.0
1302.235596 192.0
1302.371948 120.0
1302.666504 148.0
1302.810181 156.0
1302.860474 128.0
1302.917969 124.0
1303.334473 188.0
1303.463989 172.0
1303.695435 212.0
1303.859253 164.0
1304.297607 164.0
1304.52417 180.0
1304.578003 180.0
1304.815308 200.0
1304.880005 204.0
1304.951904 192.0
1305.023804 28.0
1305.225098 136.0
1305.275391 112.0
1305.572388 300.0
1305.771606 140.0
1305.915405 132.0
1306.109619 204.0
1306.332642 196.0
1306.483765 160.0
1306.721069 148.0
1306.821899 52.0
1306.9729 132.0
1307.095215 156.0
1307.491089 152.0
1307.541382 72.0
1307.598999 196.0
1307.685425 48.0
1307.915649 128.0
1308.009277 144.0
1308.12439 72.0
1308.282837 380.0
1308.333252 220.0
1308.588135 116.0
1308.978394 208.0
1309.175659 136.0
1309.226074 180.0
1309.334106 124.0
1309.926147 152.0
1309.9823 112.0
1310.173828 224.0
1310.241699 136.0
1310.356934 176.0
1310.846924 96.0
1311.331909 200.0
1311.445068 96.0
1311.495483 56.0
1311.560425 208.0
1311.618042 180.0
1311.70459 136.0
1311.834351 136.0
1311.941528 136.0
1312.1875 68.0
1312.302856 136.0
1312.605713 128.0
1312.84375 176.0
1312.998779 240.0
1313.067261 204.0
1313.132202 164.0
1313.321777 308.0
1313.529663 148.0
1313.615479 180.0
1313.824585 156.0
1314.050659 168.0
1314.560547 120.0
1315.311157 200.0
1315.484375 116.0
1315.758789 132.0
1315.924805 176.0
1316.293091 208.0
1316.530884 176.0
1316.603516 168.0
1316.696533 164.0
1316.784058 140.0
1316.964722 136.0
1317.022461 124.0
1317.072998 124.0
1317.130737 144.0
1317.347534 32.0
1317.520874 212.0
1318.005005 176.0
1318.322876 124.0
1318.41687 180.0
1318.619507 204.0
1318.7854 88.0
1318.86499 164.0
1319.009521 132.0
1319.124634 160.0
1319.219116 216.0
1319.35083 168.0
1319.414307 164.0
1319.696289 192.0
1319.855347 152.0
1319.949341 208.0
1320.065063 156.0
1320.159058 84.0
1320.527954 208.0
1320.665527 148.0
1320.990845 156.0
1321.081909 196.0
1321.095581 116.0
1321.244019 176.0
1321.294678 44.0
1321.514893 152.0
1321.656372 212.0
1321.768921 208.0
1321.818115 180.0
1321.909668 140.0
1322.032715 132.0
1322.362671 148.0
1322.810059 148.0
1323.09668 328.0
1323.462646 140.0
1323.552856 68.0
1323.60498 152.0
1323.733887 192.0
1323.807983 204.0
1323.90918 148.0
1324.259277 240.0
1324.35083 184.0
1324.45813 160.0
1324.505127 128.0
1324.957886 228.0
1325.088257 196.0
1325.160767 176.0
1325.458008 160.0
1325.530273 164.0
1325.682495 160.0
1326.008545 300.0
1326.095581 72.0
1326.32019 204.0
1326.378296 160.0
1326.46521 172.0
1326.825562 220.0
1326.936401 196.0
1327.415039 200.0
1327.792114 156.0
1327.8573 156.0
1327.963501 176.0
1328.031372 44.0
1328.140259 144.0
1328.241821 124.0
1328.491089 228.0
1328.589966 184.0
1328.822144 144.0
1328.887451 96.0
1329.053467 212.0
1329.134155 108.0
1329.279175 116.0
1329.447998 108.0
1329.576782 140.0
1329.671143 140.0
1329.789429 104.0
1329.990479 240.0
1330.113892 180.0
1330.164673 164.0
1330.607544 140.0
1330.701538 168.0
1330.94873 128.0
1331.137573 180.0
1331.210205 204.0
1331.302856 184.0
1331.529663 224.0
1332.084595 152.0
1332.764648 148.0
1333.207886 160.0
1333.262695 172.0
1333.316895 136.0
1333.404053 192.0
1333.593018 172.0
1333.716675 176.0
1333.963745 156.0
1334.15271 152.0
1334.216064 160.0
1334.639893 156.0
1334.858032 148.0
1334.967896 192.0
1335.090698 164.0
1335.197876 200.0
1335.33374 200.0
1335.46167 128.0
1335.54895 180.0
1335.703857 164.0
1335.970825 172.0
1336.021729 76.0
1336.254517 140.0
1336.305542 148.0
1336.429199 152.0
1336.523804 152.0
1336.63147 180.0
1336.727539 156.0
1336.800293 208.0
1337.491699 232.0
1337.557129 212.0
1337.733154 216.0
1337.855591 168.0
1338.074097 308.0
1338.234253 136.0
1338.372559 140.0
1338.467163 112.0
1338.627197 188.0
1338.831299 152.0
1339.041748 156.0
1339.159058 100.0
1339.229736 164.0
1339.297485 108.0
1339.47229 144.0
1339.581543 132.0
1339.792725 148.0
1339.851074 152.0
1340.120605 168.0
1340.455811 168.0
1340.630737 344.0
1340.73999 208.0
1340.829956 240.0
1340.929443 148.0
1341.454224 164.0
1341.602417 148.0
1341.796875 176.0
1342.209351 140.0
1342.379639 152.0
1342.526489 132.0
1342.657349 132.0
1342.784668 148.0
1342.85022 124.0
1343.087646 48.0
1343.411377 188.0
1343.595947 176.0
1343.941162 212.0
1344.349854 148.0
1344.459229 188.0
1344.619873 180.0
1344.714722 168.0
1345.414673 248.0
1345.689453 204.0
1345.890015 176.0
1346.01416 100.0
1346.079834 192.0
1346.218628 160.0
1346.627563 140.0
1347.000122 196.0
1347.116943 172.0
1347.168091 212.0
1347.474976 156.0
1347.679565 164.0
1348.052124 176.0
1349.280151 188.0
1349.331299 164.0
1349.543335 192.0
1349.835815 128.0
1350.098999 196.0
1350.172241 204.0
1350.252686 120.0
1350.35498 108.0
1350.717285 128.0
1350.838867 156.0
1350.954224 224.0
1351.027954 172.0
1351.386475 152.0
1351.444946 224.0
1351.496216 56.0
1351.884033 192.0
1352.579346 192.0
1352.894043 208.0
1353.018555 100.0
1353.106445 160.0
1353.208862 160.0
1353.304077 152.0
1353.626221 112.0
1353.81665 208.0
1353.933838 184.0
1354.109619 172.0
1354.424561 232.0
1354.636963 36.0
1354.843506 160.0
1354.97229 196.0
1355.543335 220.0
1355.596802 200.0
1355.729248 216.0
1355.941162 156.0
1356.131714 156.0
1356.366333 196.0
1356.490845 164.0
1356.549561 144.0
1357.128662 40.0
1357.333984 140.0
1357.397827 196.0
1357.57605 76.0
1357.774048 180.0
1357.91333 184.0
1358.015991 212.0
1358.786255 156.0
1359.006348 124.0
1359.065063 196.0
1359.417236 124.0
1359.483276 124.0
1359.705688 164.0
1359.923462 188.0
1360.099854 132.0
1360.28833 164.0
1360.620972 152.0
1360.672363 156.0
1360.848633 32.0
1360.936768 148.0
1361.156982 140.0
1361.296509 192.0
1361.487427 140.0
1361.696167 240.0
1361.759155 164.0
1362.060303 196.0
1362.383545 204.0
1362.442383 160.0
1362.515747 104.0
1362.598877 232.0
1362.809692 164.0
1362.912598 204.0
1363.0448 188.0
1363.140381 152.0
1363.199097 184.0
1363.287354 136.0
1363.370605 140.0
1363.573853 84.0
1363.684204 164.0
1364.066406 200.0
1364.588379 168.0
1364.756836 156.0
1364.914551 192.0
1365.242798 196.0
1365.470703 140.0
1365.963501 132.0
1366.127075 220.0
1366.464966 148.0
1366.522583 88.0
1366.574097 132.0
1366.85376 80.0
1367.206909 212.0
1367.293213 140.0
1367.425659 208.0
1367.456055 148.0
1367.465942 184.0
1367.53772 128.0
1367.700073 180.0
1367.810547 124.0
1367.906128 156.0
1368.001831 148.0
1368.163818 128.0
1368.268066 180.0
1368.377319 192.0
1368.524536 236.0
1368.612915 160.0
1368.848511 212.0
1368.973755 128.0
1369.386108 92.0
1369.540894 164.0
1369.60376 140.0
1369.668945 152.0
1369.997559 180.0
1370.119385 156.0
1370.631104 196.0
1370.712158 180.0
1370.800659 180.0
1371.486084 124.0
1371.898804 160.0
1372.002075 140.0
1372.209717 168.0
1372.352051 188.0
1372.752441 220.0
1372.901611 164.0
1372.953247 168.0
1373.063843 120.0
1373.139648 184.0
1373.425171 68.0
1373.528442 264.0
1373.615723 200.0
1373.845703 88.0
1373.963745 208.0
1374.605591 132.0
1374.708984 52.0
1374.857178 140.0
1374.911133 208.0
1375.144409 128.0
1375.306763 172.0
1375.457031 164.0
1375.547363 172.0
1375.653687 168.0
1375.872437 216.0
1376.229492 116.0
1376.288574 140.0
1376.554443 120.0
1376.654297 176.0
1376.916016 128.0
1376.975342 212.0
1377.056641 164.0
1377.17041 204.0
1377.383911 144.0
1377.521973 44.0
1377.914062 188.0
1378.039062 176.0
1378.171997 104.0
1378.460205 148.0
1378.578491 136.0
1378.64502 192.0
1378.745728 132.0
1378.804565 136.0
1378.996094 172.0
1379.210449 152.0
1379.597046 300.0
1379.738892 188.0
1379.82019 192.0
1380.293457 168.0
1380.441284 160.0
1380.604004 152.0
1381.045776 176.0
1381.099487 184.0
1381.314087 36.0
1381.770996 168.0
1381.84668 100.0
1381.935425 144.0
1382.228516 120.0
1382.342407 72.0
1382.423828 168.0
1382.53479 56.0
1382.627563 216.0
1382.689575 164.0
1382.756836 128.0
1383.119507 180.0
1383.352661 176.0
1383.489624 140.0
1383.8302 136.0
1383.985718 172.0
1384.081909 188.0
1384.437622 160.0
1384.637329 180.0
1385.022461 204.0
1385.089111 176.0
1385.186523 308.0
1385.318726 136.0
1385.389648 240.0
1385.615112 144.0
1385.718872 188.0
1385.785522 152.0
1385.9104 144.0
1386.118896 176.0
1386.207886 92.0
1386.645142 36.0
1386.719238 144.0
1386.793335 140.0
1386.867432 132.0
1387.000854 160.0
1387.06897 156.0
1387.221558 212.0
1387.564209 212.0
1387.630981 72.0
1387.82373 164.0
1387.979492 84.0
1388.038818 220.0
1388.105469 132.0
1388.357666 80.0
1388.565308 140.0
1388.669189 56.0
1388.762085 84.0
1388.846313 152.0
1388.894897 244.0
1389.040039 148.0
1389.28479 88.0
1389.403442 176.0
1389.477661 156.0
1389.581543 164.0
1389.840942 108.0
1389.952515 124.0
1390.04895 164.0
1390.338379 112.0
1390.533447 204.0
1390.613037 164.0
1390.739136 140.0
1391.140015 72.0
1391.199463 120.0
1391.279907 188.0
1391.466675 248.0
1391.613647 176.0
1391.689453 164.0
1391.851685 132.0
1392.042847 136.0
1392.105957 284.0
1392.31311 108.0
1392.365112 140.0
1392.431519 168.0
1392.640015 92.0
1392.862793 220.0
1393.018799 116.0
1393.082153 208.0
1393.338257 228.0
1393.457031 128.0
1393.574829 188.0
1393.665161 132.0
1393.730591 148.0
1393.760498 120.0
1394.033081 192.0
1394.17041 160.0
1394.69812 200.0
1394.794678 152.0
1395.047485 192.0
1395.11438 100.0
1395.181274 152.0
1395.248169 156.0
1395.411743 160.0
1395.486084 216.0
1395.552368 172.0
1395.624634 204.0
1395.813232 144.0
1396.028931 108.0
1396.095825 68.0
1396.258545 156.0
1396.460205 120.0
1396.623901 204.0
1396.797485 184.0
1396.891602 192.0
1396.966064 136.0
1397.531494 144.0
1397.63562 168.0
1397.933228 180.0
1398.10437 120.0
1398.178833 144.0
1398.238403 208.0
1398.4021 156.0
1398.573364 184.0
1398.826416 164.0
1398.881714 200.0
1398.967773 64.0
1399.712402 164.0
1399.891113 128.0
1400.096069 156.0
1400.369629 196.0
1400.494263 164.0
1400.912109 184.0
1401.082764 116.0
1401.388306 180.0
1401.738403 152.0
1401.887451 172.0
1402.57312 92.0
1402.766968 76.0
1402.975708 140.0
1403.065186 148.0
1403.139648 92.0
1403.259033 220.0
1403.415527 164.0
1403.47522 136.0
1403.648193 136.0
1403.743652 312.0
1403.795898 208.0
1404.109009 192.0
1404.203491 176.0
1404.325317 164.0
1404.455322 184.0
1404.698242 192.0
1404.825073 184.0
1404.880371 148.0
1405.012939 196.0
1405.06897 64.0
1405.123535 152.0
1405.235474 180.0
1405.342896 332.0
1405.449829 140.0
1405.601074 160.0
1405.795044 216.0
1405.862183 32.0
1405.939453 184.0
1406.093628 204.0
1406.205566 172.0
1406.331177 164.0
1406.569702 148.0
1406.705566 200.0
1406.847412 84.0
1407.108765 124.0
1407.213257 124.0
1407.377563 160.0
1407.581543 160.0
1407.653809 172.0
1407.713501 92.0
1407.930054 148.0
1408.045898 104.0
1408.13916 176.0
1408.710815 192.0
1408.781616 92.0
1409.312012 180.0
1409.36792 276.0
1409.715576 352.0
1409.879883 160.0
1409.999512 220.0
1410.081665 132.0
1410.231201 116.0
1410.738403 228.0
1411.113281 72.0
1411.182861 192.0
1411.285278 64.0
1411.823608 180.0
1412.122803 164.0
1412.190063 132.0
1412.25 204.0
1412.751099 84.0
1412.816895 192.0
1412.975586 108.0
1413.147583 160.0
1413.439453 148.0
1413.551636 112.0
1413.66394 176.0
1413.858521 164.0
1414.015625 164.0
1414.126099 164.0
1414.329956 132.0
1414.834473 112.0
1415.303223 224.0
1415.437988 148.0
1415.490479 128.0
1415.550293 172.0
1415.939697 148.0
1416.104492 160.0
1416.344238 136.0
1416.428833 324.0
1416.778687 52.0
1416.86853 152.0
1417.069946 172.0
1417.318115 164.0
1417.436279 192.0
1417.677734 144.0
1417.730225 204.0
1418.127441 132.0
1418.209839 152.0
1418.277344 148.0
1418.4198 32.0
1418.75708 180.0
1418.832031 184.0
1419.008789 256.0
1419.079468 200.0
1419.43103 180.0
1419.448608 160.0
1419.475586 216.0
1419.651489 184.0
1419.92688 164.0
1420.099365 180.0
1420.151855 200.0
1420.227783 172.0
1420.376831 56.0
1420.62439 156.0
1420.744385 156.0
1421.00293 192.0
1421.074585 240.0
1421.302612 132.0
1421.389648 76.0
1421.532227 184.0
1421.674805 136.0
1421.781128 196.0
1421.884888 216.0
1422.080078 148.0
1422.132568 208.0
1422.275513 116.0
1422.41394 212.0
1422.474609 144.0
1422.530396 180.0
1422.823242 224.0
1422.890747 180.0
1423.65332 132.0
1423.716797 224.0
1423.949585 184.0
1424.242432 132.0
1424.467773 96.0
1424.537842 136.0
1424.591919 240.0
1424.820923 164.0
1425.057129 232.0
1425.128906 164.0
1425.550659 172.0
1425.70752 56.0
1425.812744 136.0
1425.970581 128.0
1426.068237 180.0
1426.293823 156.0
1426.474121 192.0
1426.886963 136.0
1426.977905 96.0
1427.090698 136.0
1427.496704 148.0
1427.595459 196.0
1427.714722 144.0
1427.8125 132.0
1427.917847 380.0
1428.098267 196.0
1428.466919 140.0
1428.835449 40.0
1429.106323 148.0
1429.22168 160.0
1429.472656 204.0
1429.50061 140.0
1429.53125 260.0
1429.587891 84.0
1429.723389 148.0
1429.776123 208.0
1429.911499 208.0
1429.979248 28.0
1430.212646 160.0
1430.272827 156.0
1430.35437 216.0
1430.506104 192.0
1430.64917 140.0
1430.890137 128.0
1431.092285 196.0
1431.153564 120.0
1431.213867 168.0
1431.316772 296.0
1431.379517 144.0
1431.439697 180.0
1431.793701 192.0
1431.962769 188.0
1432.238037 180.0
1432.366089 244.0
1432.418823 64.0
1432.568848 180.0
1432.63623 192.0
1432.735229 204.0
1432.83313 116.0
1432.925049 204.0
1433.066772 156.0
1433.16394 180.0
1433.295532 132.0
1433.572144 300.0
1434.182007 164.0
1434.656982 176.0
1434.827515 148.0
1435.026978 184.0
1435.108398 172.0
1435.619141 176.0
1435.697388 252.0
1435.953857 136.0
1436.235474 164.0
1436.338501 112.0
1436.403198 224.0
1436.50354 156.0
1436.594971 44.0
1436.67041 116.0
1436.776001 320.0
1436.957153 172.0
1437.123047 188.0
1437.264771 220.0
1437.498169 108.0
1437.583374 136.0
1437.779541 156.0
1437.928589 192.0
1438.196777 204.0
1438.39856 48.0
1438.593506 200.0
1438.659302 192.0
1439.047729 60.0
1439.372437 180.0
1439.493286 172.0
1439.561157 196.0
1439.660645 164.0
1439.765137 168.0
1439.815186 236.0
1439.87085 140.0
1439.923706 216.0
1439.999268 160.0
1440.067139 176.0
1440.1427 188.0
1440.354248 172.0
1440.626099 172.0
1440.679077 180.0
1440.74707 172.0
1440.807495 120.0
1440.935913 80.0
1441.011475 156.0
1441.102051 136.0
1441.162598 148.0
1441.291016 160.0
1441.359009 196.0
1441.438599 144.0
1441.578125 144.0
1442.409546 176.0
1442.530396 184.0
1442.923584 148.0
1443.003418 212.0
1443.094727 272.0
1443.260376 168.0
1443.483032 124.0
1443.602051 192.0
1443.692505 180.0
1443.849731 148.0
1443.921631 144.0
1444.118286 216.0
1444.204956 192.0
1444.572144 176.0
1444.640259 184.0
1444.753662 108.0
1444.920166 168.0
1445.018555 224.0
1445.30603 188.0
1445.427124 152.0
1445.495239 192.0
1445.797852 348.0
1445.873535 152.0
1445.949219 168.0
1446.039673 168.0
1446.303711 164.0
1446.516968 128.0
1446.630493 192.0
1446.69104 132.0
1446.751587 176.0
1447.016602 184.0
1447.084717 164.0
1447.155884 256.0
1447.387573 104.0
1447.48877 200.0
1447.694702 144.0
1447.849487 200.0
1447.902466 96.0
1448.369507 116.0
1448.467407 280.0
1448.546265 136.0
1448.622681 144.0
1448.743286 188.0
1448.881958 184.0
1449.008179 232.0
1449.205444 156.0
1449.288696 148.0
1449.629761 216.0
1449.720703 96.0
1450.06665 196.0
1450.149048 172.0
1450.387573 136.0
1450.577148 128.0
1450.701538 188.0
1450.948608 52.0
1451.024414 124.0
1451.388672 152.0
1451.653687 128.0
1452.063232 136.0
1452.404541 176.0
1452.46521 128.0
1452.670044 148.0
1452.761108 104.0
1453.0177 232.0
1453.041748 192.0
1453.058228 232.0
1453.451538 160.0
1453.603271 156.0
1453.743774 48.0
1453.853638 128.0
1453.948242 164.0
1454.005493 128.0
1454.19165 240.0
1454.339355 144.0
1454.468384 160.0
1454.729736 152.0
1455.189575 108.0
1455.411499 272.0
1455.508545 176.0
1455.607422 164.0
1455.933716 128.0
1456.032471 188.0
1456.090454 172.0
1456.169189 260.0
1456.298462 176.0
1456.518555 188.0
1456.629395 144.0
1456.743896 152.0
1456.898438 168.0
1457.057983 220.0
1457.263062 92.0
1457.377075 156.0
1457.513794 116.0
1457.741699 196.0
1457.859131 184.0
1457.95459 192.0
1458.214722 156.0
1458.304077 156.0
1458.615723 128.0
1458.678223 188.0
1458.833008 160.0
1458.912231 152.0
1459.062988 168.0
1459.223877 116.0
1459.292358 228.0
1459.801758 92.0
1459.915894 108.0
1460.121216 224.0
1460.273315 168.0
1460.364624 176.0
1460.455811 196.0
1460.813354 140.0
1460.995972 84.0
1461.092651 152.0
1461.161377 192.0
1461.199097 160.0
1461.498047 96.0
1461.688354 144.0
1461.741577 176.0
1461.810059 196.0
1461.886108 144.0
1462.091675 160.0
1462.274292 120.0
1462.409546 188.0
1462.571167 180.0
1462.631958 284.0
1462.726807 272.0
1462.784302 56.0
1462.860352 88.0
1462.932861 168.0
1463.217285 208.0
1463.591187 132.0
1463.812012 144.0
1464.032959 108.0
1464.086182 196.0
1464.238525 120.0
1464.413696 180.0
1464.527954 208.0
1464.672607 156.0
1465.255249 176.0
1465.835327 236.0
1465.929688 200.0
1466.120239 80.0
1466.287964 196.0
1466.348877 140.0
1466.661377 64.0
1466.798584 136.0
1466.897705 204.0
1467.04248 192.0
1467.149292 128.0
1467.27124 228.0
1467.438965 48.0
1467.61438 108.0
1467.865845 164.0
1467.972656 124.0
1468.033691 140.0
1468.296631 300.0
1468.384521 156.0
1468.476074 148.0
1468.590454 252.0
1468.643799 404.0
1468.857422 256.0
1469.01001 148.0
1469.103516 172.0
1469.196289 224.0
1469.266602 112.0
1469.354126 188.0
1469.414307 172.0
1469.475342 116.0
1469.543945 104.0
1469.734741 140.0
1469.813354 196.0
1469.933105 204.0
1470.01709 132.0
1470.101074 184.0
1470.238403 172.0
1470.514893 156.0
1470.810791 164.0
1470.871826 36.0
1471.184814 104.0
1471.368042 192.0
1471.457764 196.0
1471.563843 180.0
1471.856689 88.0
1472.093384 152.0
1472.505859 172.0
1472.719727 172.0
1472.796021 112.0
1472.872192 148.0
1473.063354 136.0
1473.116821 144.0
1473.18811 220.0
1473.3125 184.0
1473.445312 120.0
1473.507568 256.0
1473.804443 168.0
1473.880859 136.0
1474.118042 204.0
1474.446411 160.0
1474.797974 120.0
1474.87439 60.0
1475.119019 124.0
1475.271851 192.0
1475.321655 172.0
1475.401855 164.0
1475.707642 176.0
1475.807007 288.0
1475.865112 160.0
1476.166382 132.0
1476.405273 204.0
1476.617554 208.0
1476.770508 140.0
1476.854736 128.0
1476.961792 140.0
1477.076538 84.0
1477.198853 148.0
1477.275391 136.0
1477.572388 160.0
1477.690552 216.0
1477.895142 172.0
1478.116943 96.0
1478.185913 32.0
1478.529175 184.0
1478.951172 152.0
1479.050659 136.0
1479.184937 164.0
1479.219238 204.0
1479.295654 160.0
1479.777954 176.0
1479.885132 200.0
1480.168457 188.0
1480.244995 144.0
1480.55127 160.0
1480.827026 144.0
1481.010864 124.0
1481.110352 232.0
1481.194702 64.0
1481.35437 132.0
1481.624634 160.0
1481.869263 144.0
1482.114014 164.0
1482.727051 60.0
1482.89563 128.0
1483.37085 80.0
1483.44751 200.0
1483.71582 124.0
1483.777222 240.0
1483.980347 184.0
1484.063232 156.0
1484.436523 192.0
1484.616211 148.0
1484.835327 176.0
1485.06543 188.0
1485.379883 148.0
1485.487305 120.0
1485.617676 196.0
1485.735229 112.0
1486.016602 200.0
1486.23584 168.0
1486.395752 272.0
1486.684204 160.0
1487.175415 48.0
1487.275146 152.0
1487.47644 132.0
1487.582275 144.0
1487.712769 128.0
1487.78186 128.0
1487.835571 200.0
1487.901489 168.0
1487.93335 208.0
1488.019775 108.0
1488.081177 284.0
1488.165649 176.0
1488.265503 232.0
1488.411377 76.0
1488.472778 112.0
1488.570312 156.0
1488.661743 208.0
1488.856812 208.0
1488.980469 156.0
1489.12561 216.0
1489.276489 136.0
1489.35022 128.0
1489.457642 184.0
1489.586426 204.0
1489.686279 164.0
1489.793823 144.0
1490.170288 120.0
1490.439209 144.0
1490.585205 28.0
1490.70813 136.0
1490.834961 176.0
1490.938721 144.0
1491.046265 216.0
1491.169312 120.0
1491.445923 28.0
1491.507446 160.0
1491.561279 132.0
1491.756836 228.0
1491.884155 216.0
1491.937866 116.0
1492.03418 124.0
1492.107056 84.0
1492.265259 140.0
1492.329956 144.0
1492.506836 188.0
1492.637573 176.0
1492.768311 152.0
1492.982788 360.0
1493.12207 96.0
1493.445068 220.0
1493.837402 68.0
1494.006592 116.0
1494.129639 132.0
1494.203369 168.0
1494.429688 52.0
1494.496094 108.0
1494.605591 576.0
1494.90686 168.0
1495.145386 148.0
1495.330078 172.0
1495.468628 168.0
1495.553955 196.0
1495.822632 156.0
1496.122925 104.0
1496.420166 112.0
1496.591064 164.0
1496.823608 84.0
1497.162354 172.0
1497.285645 168.0
1497.339478 148.0
1497.401123 184.0
1497.454834 136.0
1497.716919 128.0
1497.789917 160.0
1497.98645 180.0
1498.048706 120.0
1498.200439 172.0
1498.44873 132.0
1498.641357 80.0
1499.00354 180.0
1499.226929 208.0
1499.319458 140.0
1499.509399 244.0
1500.031738 200.0
1500.295166 136.0
1500.41272 176.0
1500.628296 268.0
1500.880615 244.0
1500.909546 128.0
1501.246704 176.0
1501.373657 200.0
1501.509766 144.0
1501.542725 96.0
1501.655518 140.0
1501.940796 180.0
1502.041138 168.0
1502.195679 128.0
1502.465454 176.0
1502.5271 260.0
1502.588867 140.0
1502.70459 120.0
1502.863525 160.0
1502.951416 60.0
1503.098022 156.0
1503.175293 160.0
1503.229248 108.0
1503.445312 136.0
1503.522461 112.0
1503.591919 92.0
1504.014282 204.0
1504.183594 204.0
1504.363403 176.0
1504.464111 156.0
1504.672607 232.0
1504.940063 172.0
