>compound MLS001141044-01!1-[(2S)-2-amino-3-methylbutanoyl]-N-[(2S)-1-[(2-methoxyphenyl)methylamino]-1-oxopropan-2-yl]piperidine-4-carboxamide
>formula C22H34N4O4
>ionization [M+H]+
>parentmass 419.2652820200905
#inchi InChI=1S/C22H34N4O4/c1-14(2)19(23)22(29)26-11-9-16(10-12-26)21(28)25-15(3)20(27)24-13-17-7-5-6-8-18(17)30-4/h5-8,14-16,19H,9-13,23H2,1-4H3,(H,24,27)(H,25,28)/t15-,19-/m0/s1
#inchikey FWAYSZFKUFWCRV
#Ion_Source LC-ESI
#Instrument qTof
#Compound_Source NIH Natural Product Library
#PI Dorrestein
#Data_Collector VVP/LMS
#Scan -1
#Precursor_MZ 419.266
#ExactMass 418.258
#Charge 1
#CAS_Number N/A
#Pubmed_ID N/A
#Smiles COc1ccccc1CNC(=O)[C@H](C)NC(=O)C2CCN(CC2)C(=O)[C@@H](N)C(C)C
#INCHI_AUX N/A
#Library_Class 1
#SpectrumID CCMSLIB00000080423
#IonMode Positive
#UpdateWorkflowName UPDATE-SINGLE-ANNOTATED-GOLD
#LibraryQualityString Gold
#TaskID b1d8e8f6646f4e71acdff9ca3d919d08
##Scan# 1451
#SpectrumFile p2-F08_GF8_01_18044.mzXML
#LibraryName NIH_Natural_Products_Library.mgf
#MQScore -1
#Organism NIH_Natural_Products_Library
#TIC_Query 0
#RT_Query -1
#MZErrorPPM -1
#SharedPeaks 0
#MassDiff 0
#LibMZ -1
#SpecMZ 419.266
#SpecCharge 0
#internalFilename spec-00000.mgf

>collision 10
95.047676 372.0
95.072586 160.0
95.089455 204.0
95.523125 148.0
95.567505 156.0
95.631721 80.0
95.758278 196.0
95.779709 140.0
95.794044 220.0
95.866714 140.0
96.482231 132.0
96.548935 176.0
96.660217 80.0
96.693489 108.0
96.854042 152.0
97.038254 104.0
97.226562 144.0
97.242264 44.0
97.498718 368.0
97.725693 188.0
98.102608 232.0
98.530113 108.0
98.753487 264.0
98.862297 168.0
98.971176 44.0
98.987015 184.0
99.042473 120.0
99.074165 188.0
99.099922 144.0
99.220818 36.0
99.468796 172.0
99.574036 156.0
99.603828 88.0
99.64753 116.0
99.683296 188.0
100.12693 148.0
100.316544 224.0
100.407944 172.0
100.427887 212.0
100.49971 140.0
100.881172 120.0
100.905167 48.0
101.003151 124.0
101.072304 192.0
101.089188 40.0
101.153229 168.0
101.283386 140.0
101.315445 204.0
101.369537 180.0
101.395592 204.0
101.66433 156.0
101.937447 136.0
101.969597 76.0
102.142517 180.0
102.200859 132.0
102.237083 128.0
102.259224 176.0
102.327667 188.0
102.343773 120.0
102.494843 144.0
102.537163 132.0
103.065887 168.0
103.08609 156.0
103.261978 160.0
103.328735 144.0
103.387413 160.0
103.403603 136.0
103.433968 172.0
103.618248 132.0
103.695251 168.0
103.796616 80.0
103.920349 128.0
103.944695 72.0
104.074608 156.0
105.161713 208.0
105.17804 148.0
105.216827 156.0
105.586678 88.0
105.648041 88.0
105.752403 220.0
105.787201 92.0
105.842484 144.0
105.975983 160.0
106.010452 188.0
106.037949 200.0
106.170357 148.0
106.21138 176.0
106.338593 48.0
106.45356 188.0
106.467941 176.0
106.48642 72.0
106.502853 112.0
106.570648 184.0
106.619965 208.0
106.774162 76.0
106.922287 164.0
107.148796 268.0
107.178764 184.0
107.439491 188.0
107.489006 204.0
107.596336 188.0
107.718178 132.0
107.761566 56.0
107.858696 148.0
108.423744 136.0
108.599976 136.0
108.707855 180.0
108.747292 156.0
108.938324 204.0
109.071274 172.0
109.150322 184.0
109.233513 148.0
109.427055 140.0
109.491608 124.0
109.583267 208.0
109.921059 124.0
110.029594 228.0
110.044212 392.0
110.059776 412.0
110.087982 244.0
110.125656 176.0
110.171608 184.0
110.347168 152.0
110.363892 112.0
110.518677 112.0
110.533325 56.0
110.63588 64.0
110.767807 164.0
110.843231 204.0
110.929169 152.0
111.31942 148.0
111.350922 196.0
111.500084 192.0
111.571556 136.0
111.60099 152.0
111.647255 92.0
111.695625 56.0
111.712456 236.0
111.744011 172.0
111.767159 344.0
111.78183 152.0
111.86187 204.0
111.884438 172.0
111.910286 120.0
111.929237 208.0
111.961136 136.0
112.015587 180.0
112.047813 436.0
112.076141 44640.0
112.117035 164.0
112.15818 80.0
112.204163 52.0
112.23056 68.0
112.271942 96.0
112.348671 108.0
112.423134 136.0
112.463676 80.0
112.496712 80.0
112.528236 48.0
112.542152 172.0
112.578735 96.0
112.620979 44.0
112.644211 92.0
112.68013 148.0
112.726616 152.0
112.757286 140.0
112.815384 120.0
112.937607 60.0
112.951653 148.0
112.973991 112.0
113.006821 124.0
113.038185 204.0
113.077858 4868.0
113.109581 148.0
113.149651 124.0
113.17717 156.0
113.342392 140.0
113.41021 36.0
113.637115 100.0
113.792053 100.0
113.811165 204.0
113.842354 124.0
113.94677 128.0
113.972595 72.0
113.991722 48.0
114.00872 48.0
114.046982 80.0
114.081398 232.0
114.357521 156.0
114.434151 188.0
114.600288 176.0
114.738823 96.0
114.879578 60.0
114.911575 200.0
115.129311 136.0
115.230186 204.0
115.321327 160.0
115.360069 152.0
115.398552 212.0
115.41993 60.0
115.507622 188.0
115.614601 176.0
115.640282 188.0
115.785866 128.0
115.826569 188.0
115.927261 56.0
116.058022 148.0
116.489403 48.0
117.007805 156.0
117.067986 196.0
117.143364 96.0
117.322235 100.0
117.535759 148.0
117.714134 196.0
117.788361 136.0
117.905029 160.0
117.99366 128.0
118.062851 216.0
118.222939 84.0
118.331169 56.0
118.510941 228.0
118.80146 164.0
118.86438 208.0
118.910248 208.0
119.059761 144.0
119.274857 52.0
119.407494 176.0
119.884277 196.0
120.102303 136.0
120.143219 148.0
120.165565 88.0
120.32489 156.0
120.650414 88.0
120.720383 332.0
120.790367 164.0
120.807869 88.0
120.837013 188.0
120.911194 164.0
120.945732 184.0
120.982948 152.0
121.006447 316.0
121.06514 55708.0
121.114021 56.0
121.16124 108.0
121.186523 84.0
121.203743 64.0
121.236343 64.0
121.276756 212.0
121.316162 76.0
121.339317 80.0
121.355804 140.0
121.389267 36.0
121.424286 208.0
121.447502 152.0
121.487869 100.0
121.512161 76.0
121.533943 80.0
121.561043 164.0
121.591217 64.0
121.655968 44.0
121.746429 120.0
121.770149 48.0
121.801529 56.0
121.875595 56.0
121.974495 56.0
122.036049 80.0
122.068077 5456.0
122.12516 92.0
122.146988 36.0
122.196609 44.0
122.236214 80.0
122.252548 148.0
122.35067 64.0
122.403511 84.0
122.559906 88.0
122.608391 56.0
122.654671 56.0
122.696556 96.0
122.817848 92.0
122.845787 120.0
122.908302 132.0
122.991646 136.0
123.009354 152.0
123.071266 704.0
123.122223 128.0
123.17765 68.0
123.383171 56.0
123.816872 36.0
123.909904 88.0
124.014061 88.0
124.073914 180.0
124.091644 92.0
124.417786 36.0
124.848854 108.0
125.688675 116.0
125.715454 172.0
125.827057 88.0
125.876183 52.0
125.987862 56.0
127.083138 136.0
127.711693 128.0
128.184479 120.0
128.231796 104.0
128.328735 156.0
128.504669 108.0
128.637817 132.0
128.752975 232.0
128.945007 60.0
129.14624 120.0
129.195999 104.0
129.238983 48.0
129.451767 36.0
129.478943 112.0
129.673782 144.0
130.000366 64.0
130.032135 52.0
130.061646 148.0
130.089661 188.0
130.156998 104.0
130.504654 112.0
130.978012 140.0
131.101044 172.0
131.153473 116.0
131.171707 104.0
131.435287 196.0
132.753891 200.0
132.907578 160.0
132.939697 216.0
132.958054 252.0
133.022324 88.0
133.380676 220.0
133.488739 140.0
133.734909 164.0
134.49324 108.0
135.081558 372.0
136.074371 148.0
136.227646 148.0
136.283401 144.0
136.487946 152.0
137.013977 172.0
137.109512 176.0
137.237717 48.0
137.307678 132.0
137.709106 136.0
138.09024 2132.0
138.169617 64.0
138.370895 64.0
138.660461 52.0
138.858307 72.0
139.070694 92.0
139.096115 356.0
139.859238 172.0
139.911026 100.0
140.067825 240.0
140.125336 108.0
140.19368 112.0
140.342178 120.0
140.434158 176.0
140.469528 40.0
140.965347 116.0
141.059891 68.0
141.563843 164.0
142.101913 144.0
142.446152 164.0
143.212082 188.0
144.489212 120.0
145.018433 156.0
145.186264 72.0
145.277405 124.0
145.553421 84.0
145.94989 192.0
146.11586 216.0
147.338181 44.0
148.771881 140.0
149.148407 52.0
149.318604 176.0
149.985748 212.0
150.349167 76.0
151.93721 96.0
152.190002 128.0
152.344742 100.0
152.428268 64.0
152.738052 228.0
152.96936 188.0
153.102814 528.0
153.186066 124.0
153.378265 164.0
153.708755 200.0
153.849442 116.0
154.113708 152.0
154.360886 200.0
154.709747 88.0
154.845947 168.0
154.927689 104.0
154.94751 144.0
155.009445 84.0
155.085083 232.0
155.118851 7568.0
155.195358 60.0
155.454849 72.0
155.555099 52.0
155.589844 44.0
155.781067 112.0
155.800949 132.0
156.122147 1460.0
156.360428 84.0
156.464966 76.0
156.562088 136.0
157.120499 132.0
157.275146 124.0
157.424942 136.0
158.009842 124.0
158.578293 124.0
159.263275 164.0
159.353699 128.0
159.426575 68.0
160.556946 44.0
160.741104 84.0
160.988495 196.0
162.040756 124.0
163.045609 168.0
163.271881 176.0
163.844116 168.0
164.063782 116.0
164.107742 200.0
164.862701 72.0
165.115799 120.0
165.134872 196.0
166.286652 116.0
166.327728 84.0
167.11615 132.0
167.304581 56.0
167.680649 180.0
169.054581 156.0
169.095566 168.0
169.505173 64.0
169.945984 196.0
170.096497 232.0
170.182175 76.0
173.285995 104.0
174.658981 28.0
174.874741 64.0
175.377823 240.0
175.406815 92.0
175.90274 224.0
176.859619 128.0
177.070053 176.0
178.066025 232.0
178.185562 180.0
178.371582 140.0
178.863693 64.0
179.079361 176.0
179.817902 152.0
179.876633 156.0
180.221146 160.0
181.097443 572.0
181.122726 176.0
181.141464 156.0
181.440948 80.0
182.545166 168.0
182.647369 100.0
182.706558 176.0
182.768433 176.0
182.819565 136.0
182.865326 160.0
182.886856 160.0
182.967606 204.0
182.997223 220.0
183.113419 13588.0
183.207291 52.0
183.228851 32.0
183.352798 80.0
183.435272 88.0
183.622406 68.0
183.657471 52.0
183.786957 48.0
183.913803 60.0
184.116287 2340.0
184.164917 40.0
184.205429 60.0
184.310791 96.0
184.367554 56.0
184.486481 180.0
185.003189 68.0
185.113892 144.0
185.341736 156.0
185.600021 168.0
185.756546 68.0
186.928833 160.0
188.115875 48.0
189.291534 180.0
191.98465 260.0
192.094971 64.0
192.138275 1020.0
192.890259 80.0
192.937256 120.0
193.145096 152.0
193.176636 176.0
193.521027 228.0
193.631805 68.0
193.770309 224.0
194.072418 136.0
194.118134 196.0
194.344238 100.0
194.527405 44.0
195.113586 368.0
196.085068 128.0
196.631714 116.0
197.098068 152.0
198.131393 416.0
198.351883 40.0
199.232086 84.0
199.466293 176.0
199.800934 128.0
200.003555 92.0
200.082382 168.0
200.138885 232.0
200.245697 196.0
201.14798 152.0
201.831696 104.0
201.930664 84.0
202.004211 180.0
204.048935 112.0
205.284714 64.0
206.776001 180.0
206.9048 140.0
207.887955 36.0
208.040085 160.0
208.404831 96.0
208.824615 152.0
208.978287 180.0
209.028793 128.0
209.073807 356.0
209.128937 12520.0
209.230286 48.0
209.277237 180.0
209.355591 108.0
209.379654 64.0
209.460587 84.0
209.509628 64.0
209.536743 132.0
209.587418 108.0
209.609039 112.0
209.62883 140.0
209.691162 92.0
210.034286 76.0
210.132477 1532.0
210.553818 72.0
210.880295 176.0
210.940994 88.0
211.125641 144.0
211.148636 140.0
211.730896 100.0
211.846756 100.0
211.988724 52.0
212.136322 364.0
212.348221 52.0
212.539688 44.0
212.824142 40.0
212.864792 52.0
213.152374 148.0
214.103638 164.0
214.126938 44.0
215.460342 172.0
216.10907 72.0
218.803406 124.0
220.14502 164.0
221.017044 104.0
221.194626 164.0
221.45816 108.0
225.606293 180.0
226.746735 104.0
229.155151 340.0
229.457291 172.0
230.188339 116.0
230.974136 136.0
231.194992 132.0
231.558304 240.0
231.688553 92.0
232.134445 160.0
233.129822 148.0
234.450592 128.0
237.155426 144.0
237.854782 104.0
238.155701 164.0
238.210983 164.0
238.724274 208.0
241.230957 172.0
242.915543 212.0
243.272415 160.0
243.325195 72.0
243.384186 164.0
243.716537 116.0
245.568832 152.0
246.452286 164.0
246.727325 44.0
248.870361 224.0
250.666458 240.0
253.444 112.0
254.186066 2124.0
254.232834 184.0
255.193863 384.0
255.600037 120.0
255.966095 40.0
256.032959 44.0
256.801056 108.0
257.206299 84.0
257.429779 64.0
258.030487 80.0
259.0578 80.0
259.147491 368.0
259.933075 96.0
260.199493 140.0
264.577667 88.0
264.982483 124.0
265.154236 116.0
265.572479 76.0
265.887207 204.0
266.189117 220.0
267.216248 84.0
267.919464 128.0
269.181732 128.0
269.652161 76.0
270.889008 144.0
271.912018 164.0
272.575409 196.0
275.091675 128.0
275.630035 160.0
276.176788 164.0
276.357483 176.0
280.158936 172.0
281.079163 44.0
281.159241 120.0
281.893951 36.0
282.18219 1640.0
282.251617 52.0
282.338562 48.0
283.051361 72.0
283.179901 376.0
283.396362 148.0
283.684601 64.0
284.023285 48.0
284.10379 48.0
284.150757 156.0
284.187653 128.0
284.467041 176.0
284.556854 88.0
284.681091 100.0
284.765045 48.0
288.508759 184.0
288.721771 168.0
288.833405 148.0
289.459503 124.0
291.450653 88.0
301.947784 20.0
302.184631 136.0
303.183746 144.0
303.655243 52.0
304.481262 220.0
304.908569 208.0
306.596497 92.0
309.625458 44.0
315.788208 184.0
318.25824 56.0
318.691559 76.0
318.872803 88.0
319.644501 104.0
319.751282 192.0
319.858063 160.0
319.918579 44.0
320.075226 144.0
320.136841 276.0
320.198669 12228.0
320.263306 84.0
320.324524 48.0
320.353027 28.0
320.467041 60.0
320.534729 60.0
320.559692 48.0
320.602448 56.0
320.884033 64.0
321.08017 164.0
321.201324 2340.0
321.390503 56.0
321.77243 68.0
321.922394 120.0
322.205231 544.0
322.429688 36.0
322.872986 76.0
322.94809 76.0
323.016052 108.0
323.180634 124.0
323.270081 148.0
323.459778 120.0
324.179688 84.0
324.312286 112.0
324.724609 60.0
325.399231 128.0
325.585968 92.0
326.577942 92.0
326.930511 48.0
327.045685 96.0
331.107513 116.0
331.825012 52.0
333.35675 88.0
336.514832 112.0
337.278351 48.0
347.145569 40.0
358.224091 132.0
360.990662 32.0
361.89502 128.0
377.078857 64.0
377.326233 84.0
402.88678 40.0
405.47168 136.0
406.927795 132.0
411.586395 80.0
418.837769 144.0
419.268433 824.0
420.255402 240.0
420.705414 112.0
421.246765 156.0
434.80368 48.0
489.857147 80.0
496.061462 36.0
499.663055 64.0
519.525574 92.0
534.157776 64.0
545.714966 100.0
546.366089 104.0
567.141479 60.0
568.64978 156.0
587.74469 112.0
623.446716 52.0
631.483459 96.0
679.523254 76.0
725.619873 156.0
740.714722 164.0
790.458618 148.0
841.951843 196.0
853.094055 188.0
857.83844 132.0
865.374817 76.0
866.223999 144.0
870.235352 204.0
871.274048 144.0
877.203857 20.0
877.590027 196.0
880.068115 168.0
895.272156 160.0
910.864685 208.0
915.032166 116.0
915.911377 136.0
917.942444 168.0
920.772766 160.0
922.942139 144.0
925.768066 160.0
931.821594 144.0
936.006226 196.0
936.828491 76.0
938.150879 88.0
968.619019 152.0
969.250916 148.0
969.734314 164.0
977.036743 244.0
979.028503 112.0
981.764343 180.0
982.051208 216.0
985.77832 140.0
988.223145 140.0
990.990601 56.0
995.086121 188.0
997.441956 88.0
997.932312 196.0
1000.310364 160.0
1000.549561 172.0
1002.628174 144.0
1007.720459 176.0
1008.042725 132.0
1008.763245 160.0
1010.053223 136.0
1010.704834 232.0
1012.116333 144.0
1012.249329 180.0
1014.828186 212.0
1017.90564 160.0
1019.786072 120.0
1022.590942 72.0
1024.583984 168.0
1027.503906 184.0
1031.968262 44.0
1036.999878 216.0
1039.449585 168.0
1044.441406 104.0
1045.953613 160.0
1047.054565 160.0
1049.722534 156.0
1050.470703 156.0
1050.748047 136.0
1053.517578 128.0
1053.827759 144.0
1054.583862 212.0
1055.618164 164.0
1055.954468 108.0
1058.98999 56.0
1059.113037 168.0
1059.229614 196.0
1062.406006 128.0
1064.957031 100.0
1066.067993 176.0
1066.269409 152.0
1071.533691 140.0
1074.989502 136.0
1075.322266 52.0
1078.235107 148.0
1081.184692 96.0
1081.682129 196.0
1086.82019 144.0
1087.115356 160.0
1091.654663 108.0
1092.911011 32.0
1093.19397 220.0
1094.062866 148.0
1097.152588 156.0
1098.656128 140.0
1099.817505 240.0
1100.576782 96.0
1101.217285 132.0
1103.840942 236.0
1105.084473 152.0
1109.197021 80.0
1110.735352 208.0
1111.372192 164.0
1111.869873 136.0
1112.5802 204.0
1114.964722 84.0
1116.061523 172.0
1118.516357 212.0
1118.72937 188.0
1119.275391 212.0
1119.901367 172.0
1120.900635 80.0
1120.947266 96.0
1121.20105 160.0
1123.267456 160.0
1123.707764 124.0
1125.115967 140.0
1125.703491 208.0
1126.19104 180.0
1126.464966 196.0
1127.380249 152.0
1127.921631 152.0
1128.302612 160.0
1130.068359 136.0
1136.245483 148.0
1137.03064 180.0
1137.534058 32.0
1137.883057 212.0
1138.400146 184.0
1138.581421 168.0
1140.650879 96.0
1141.417236 244.0
1144.357666 80.0
1144.519287 132.0
1146.122314 200.0
1146.35144 108.0
1148.057007 152.0
1148.994507 204.0
1151.97168 128.0
1152.991943 152.0
1153.059448 168.0
1156.380249 144.0
1156.813477 160.0
1157.26709 200.0
1158.357422 128.0
1159.393188 156.0
1160.017578 144.0
1160.797241 184.0
1161.72644 208.0
1162.730713 212.0
1163.626709 96.0
1165.005371 164.0
1166.187622 196.0
1167.268555 220.0
1167.894287 168.0
1168.261597 184.0
1168.969238 192.0
1169.091675 80.0
1170.092285 208.0
1170.242065 204.0
1171.440674 196.0
1174.869629 180.0
1175.715698 212.0
1178.310425 184.0
1178.863892 212.0
1181.530518 132.0
1182.714355 156.0
1183.042969 224.0
1183.268799 116.0
1184.234375 236.0
1187.935791 196.0
1189.363037 192.0
1190.928589 180.0
1192.35144 220.0
1193.168701 272.0
1193.821899 208.0
1195.989136 168.0
1196.106079 104.0
1196.629272 48.0
1196.705078 152.0
1196.973633 144.0
1197.414307 224.0
1197.937866 188.0
1198.695679 160.0
1199.102295 244.0
1200.281128 208.0
1201.764038 188.0
1202.440308 64.0
1203.040894 124.0
1203.855591 152.0
1204.490967 200.0
1204.974609 156.0
1205.244019 192.0
1207.62207 192.0
1207.96106 132.0
1210.092529 60.0
1210.76416 196.0
1212.447632 108.0
1213.106079 208.0
1215.179688 196.0
1215.367065 180.0
1215.679321 48.0
1216.630249 120.0
1217.046753 156.0
1222.538208 172.0
1223.89563 160.0
1226.278076 168.0
1226.556885 48.0
1226.891479 144.0
1227.776978 80.0
1228.09082 156.0
1229.165161 224.0
1229.290771 180.0
1231.885132 288.0
1232.307251 136.0
1232.649658 252.0
1233.215698 64.0
1235.180542 132.0
1236.516846 156.0
1236.831787 132.0
1237.132812 112.0
1237.762939 104.0
1238.316162 140.0
1240.579468 168.0
1240.649536 196.0
1242.964111 32.0
1243.349976 180.0
1245.05603 172.0
1245.379028 32.0
1248.260498 48.0
1249.610962 212.0
1250.71582 156.0
1252.138062 156.0
1254.695801 244.0
1255.407959 176.0
1255.598389 204.0
1256.952881 212.0
1259.098877 208.0
1260.094849 108.0
1260.477051 212.0
1262.102173 212.0
1262.724487 136.0
1263.042725 104.0
1263.672363 352.0
1266.12854 100.0
1266.815674 212.0
1266.893555 88.0
1267.779175 196.0
1269.416748 172.0
1270.246582 208.0
1270.86377 120.0
1271.339233 180.0
1271.601807 188.0
1272.03479 168.0
1272.446533 216.0
1272.616943 132.0
1272.822876 116.0
1273.305664 200.0
1273.447754 184.0
1277.108154 108.0
1279.136108 204.0
1283.032715 168.0
1283.339233 116.0
1283.738647 112.0
1284.038086 212.0
1284.879761 152.0
1284.979736 192.0
1285.065308 180.0
1285.143799 96.0
1286.314209 224.0
1287.006714 192.0
1287.949341 48.0
1289.106812 180.0
1289.678467 156.0
1289.735718 220.0
1290.007324 196.0
1293.899048 180.0
1294.135254 148.0
1295.037598 156.0
1295.137817 156.0
1295.897217 168.0
1295.997559 216.0
1296.671143 132.0
1298.004517 296.0
1298.205322 48.0
1298.463501 172.0
1298.578247 148.0
1298.807739 148.0
1300.848022 216.0
1301.664062 136.0
1301.771851 160.0
1301.994385 72.0
1302.152466 172.0
1302.849121 44.0
1303.646729 144.0
1303.739136 144.0
1305.400757 200.0
1307.87561 176.0
1308.523438 164.0
1308.775513 188.0
1309.776489 128.0
1310.287964 216.0
1310.756348 156.0
1311.188721 104.0
1312.111328 108.0
1312.190674 184.0
1313.560791 140.0
1314.455444 172.0
1315.617432 184.0
1315.725708 188.0
1315.963989 172.0
1316.606689 208.0
1316.714966 148.0
1317.206177 216.0
1317.682983 188.0
1318.636719 64.0
1318.737915 240.0
1319.012573 92.0
1319.496948 112.0
1320.668457 176.0
1320.791382 60.0
1323.382202 180.0
1323.63562 164.0
1323.700806 64.0
1323.78772 124.0
1324.417725 92.0
1324.656738 136.0
1324.725098 224.0
1325.432007 168.0
1325.939209 140.0
1329.130005 132.0
1332.656616 192.0
1333.065674 112.0
1333.886963 192.0
1334.519409 152.0
1334.853882 220.0
1334.961182 144.0
1335.850342 188.0
1336.323242 192.0
1337.050903 200.0
1337.676758 244.0
1337.771484 160.0
1338.980103 128.0
1340.050903 164.0
1340.73584 148.0
1343.200195 176.0
1343.774536 164.0
1344.258179 132.0
1344.382202 160.0
1345.112061 76.0
1345.360229 164.0
1346.703857 96.0
1347.383179 180.0
1348.194214 168.0
1348.63269 200.0
1348.830078 192.0
1349.10791 196.0
1349.787842 180.0
1351.097046 40.0
1354.449707 56.0
1355.585938 180.0
1357.043945 176.0
1357.755249 148.0
1358.767456 196.0
1358.899536 192.0
1359.912231 176.0
1361.968018 240.0
1366.540527 64.0
1368.351074 144.0
1368.682373 148.0
1368.807617 168.0
1369.26416 148.0
1370.148071 248.0
1371.378662 32.0
1371.644043 164.0
1371.703003 208.0
1371.828369 200.0
1372.572998 140.0
1374.483398 140.0
1374.58667 96.0
1375.981689 104.0
1376.262329 212.0
1376.313965 80.0
1377.281372 280.0
1377.3479 208.0
1377.554688 256.0
1377.768921 148.0
1377.924072 48.0
1378.847778 184.0
1379.483398 164.0
1382.345703 56.0
1382.952515 176.0
1385.255371 52.0
1387.011597 108.0
1387.389648 160.0
1387.700928 196.0
1387.997559 180.0
1388.071655 196.0
1388.175537 100.0
1388.279297 172.0
1388.338623 160.0
1388.583374 144.0
1388.739136 144.0
1389.347412 204.0
1393.80957 144.0
1395.400146 52.0
1396.448608 208.0
1396.81311 152.0
1396.932129 132.0
1397.936523 180.0
1398.680786 104.0
1400.586914 116.0
1401.391479 144.0
1401.458618 80.0
1403.53064 96.0
1405.678955 68.0
1406.328247 88.0
1407.306152 172.0
1407.694458 168.0
1407.75415 168.0
1407.993164 196.0
1408.082764 176.0
1408.359131 240.0
1408.441284 176.0
1408.49353 156.0
1408.934326 152.0
1409.345215 136.0
1409.614258 200.0
1410.331665 148.0
1411.550293 184.0
1412.230835 232.0
1412.754395 176.0
1413.816895 148.0
1417.01416 172.0
1418.063232 192.0
1419.870117 128.0
1420.410156 216.0
1420.882812 196.0
1421.895752 268.0
1422.098389 148.0
1422.676392 152.0
1423.479736 112.0
1425.515503 240.0
1425.808594 248.0
1426.687988 132.0
1427.875977 164.0
1428.17688 192.0
1429.202881 204.0
1429.564331 200.0
1430.727783 184.0
1431.405396 184.0
1431.947632 224.0
1432.113281 148.0
1432.700928 128.0
1434.185303 192.0
1435.904419 232.0
1436.145752 52.0
1438.447144 160.0
1438.749023 164.0
1440.281982 128.0
1440.591675 220.0
1442.511108 192.0
1442.858887 156.0
1443.074219 228.0
1443.493896 192.0
1443.781372 212.0
1444.257812 208.0
1444.522583 184.0
1444.862915 136.0
1448.254272 124.0
1449.223877 160.0
1449.716431 156.0
1449.890747 144.0
1450.792725 104.0
1451.156616 148.0
1451.740845 164.0
1452.134766 140.0
1452.218262 168.0
1452.536865 168.0
1453.108398 240.0
1453.204468 136.0
1453.803833 232.0
1455.967407 132.0
1456.119385 188.0
1456.301636 172.0
1456.476318 208.0
1457.046021 184.0
1457.919922 168.0
1458.003418 160.0
1458.20105 192.0
1458.4823 164.0
1459.021973 176.0
1459.904053 116.0
1460.063721 124.0
1461.098145 164.0
1461.486206 92.0
1461.653564 88.0
1463.952515 152.0
1464.028564 172.0
1465.056885 180.0
1465.20166 136.0
1466.954346 212.0
1467.022949 188.0
1467.297485 244.0
1467.885376 176.0
1469.028564 184.0
1469.654175 184.0
1470.127197 140.0
1471.310303 36.0
1471.615723 208.0
1472.59314 128.0
1474.869995 144.0
1475.0 116.0
1475.206421 88.0
1476.070312 184.0
1477.630615 160.0
1477.783691 136.0
1478.908569 144.0
1481.12146 68.0
1481.389526 196.0
1481.473755 176.0
1481.925781 380.0
1483.289917 148.0
1483.443237 100.0
1484.056519 224.0
1485.030396 176.0
1487.101929 224.0
1489.728027 148.0
1490.090942 188.0
1490.734497 172.0
1491.164917 168.0
1492.687012 208.0
1493.279175 120.0
1493.432983 168.0
1494.579224 68.0
1494.710083 188.0
1495.933838 112.0
1495.987671 224.0
1499.769775 152.0
1502.345337 84.0
