>compound MLS001141246-01!3-(4-chlorophenyl)-2-[[2-(6-oxobenzo[c]chromen-3-yl)oxyacetyl]amino]propanoic acid
>formula C24H18ClNO6
>ionization [M+H]+
>parentmass 452.09
#inchi InChI=1S/C24H18ClNO6/c25-15-7-5-14(6-8-15)11-20(23(28)29)26-22(27)13-31-16-9-10-18-17-3-1-2-4-19(17)24(30)32-21(18)12-16/h1-10,12,20H,11,13H2,(H,26,27)(H,28,29)
#inchikey RNKSTJPKXBWOCP
#Ion_Source LC-ESI
#Instrument qTof
#Compound_Source NIH Natural Product Library
#PI Dorrestein
#Data_Collector VVP/LMS
#Scan -1
#Precursor_MZ 452.09
#ExactMass 451.082
#Charge 1
#CAS_Number N/A
#Pubmed_ID N/A
#Smiles OC(=O)C(Cc1ccc(Cl)cc1)NC(=O)COc2ccc3c(c2)oc(=O)c4ccccc43
#INCHI_AUX N/A
#Library_Class 1
#SpectrumID CCMSLIB00000079531
#IonMode Positive
#UpdateWorkflowName UPDATE-SINGLE-ANNOTATED-GOLD
#LibraryQualityString Gold
#TaskID b1d8e8f6646f4e71acdff9ca3d919d08
##Scan# 2263
#SpectrumFile p1-G07_GG7_01_17951.mzXML
#LibraryName NIH_Natural_Products_Library.mgf
#MQScore -1
#Organism NIH_Natural_Products_Library
#TIC_Query 0
#RT_Query -1
#MZErrorPPM -1
#SharedPeaks 0
#MassDiff 0
#LibMZ -1
#SpecMZ 452.09
#SpecCharge 0
#internalFilename spec-00000.mgf

>collision 10
95.028343 84.0
95.063271 48.0
95.358467 112.0
95.665794 152.0
95.685265 160.0
95.772957 128.0
95.831337 208.0
95.895645 316.0
96.037979 116.0
96.233124 156.0
96.55555 208.0
96.637711 216.0
96.845215 152.0
96.858925 220.0
96.884392 112.0
97.025497 252.0
97.1157 172.0
97.449425 164.0
97.471039 164.0
97.571281 112.0
97.618469 120.0
97.644035 136.0
97.683372 116.0
97.821121 112.0
97.854584 112.0
97.88018 228.0
97.907753 160.0
98.100845 136.0
98.114647 156.0
98.321762 160.0
98.373077 136.0
98.677315 172.0
98.793999 164.0
98.932526 160.0
99.001831 140.0
99.122665 76.0
99.199966 72.0
99.263405 80.0
99.364563 172.0
99.612717 144.0
99.771698 128.0
100.076096 172.0
100.153763 144.0
100.167709 120.0
100.301216 148.0
100.508629 212.0
100.566498 152.0
100.976082 140.0
100.994087 200.0
101.058098 112.0
101.126137 164.0
101.148155 176.0
101.292336 132.0
101.458656 124.0
101.486732 200.0
101.516808 100.0
101.540871 104.0
101.936356 160.0
102.043594 136.0
102.473595 144.0
102.596535 160.0
102.824471 124.0
102.84465 156.0
102.868874 200.0
102.91127 220.0
103.008553 212.0
103.05397 3132.0
103.238617 44.0
103.29525 216.0
103.493584 324.0
103.522835 144.0
103.567253 212.0
103.627266 252.0
103.661713 148.0
103.856339 64.0
103.969955 172.0
104.004456 216.0
104.056091 680.0
104.114098 164.0
104.301018 260.0
104.327438 60.0
104.447418 48.0
104.740532 184.0
104.858711 64.0
104.954521 224.0
105.032021 112.0
105.069534 220.0
105.185059 72.0
105.327995 136.0
105.468979 164.0
105.585106 216.0
105.695992 148.0
106.061447 196.0
106.183548 128.0
106.253288 160.0
106.401054 92.0
106.452393 160.0
106.489357 236.0
106.538658 128.0
106.686623 124.0
106.803833 68.0
106.840805 152.0
106.951981 252.0
106.980797 136.0
107.112587 156.0
107.176453 188.0
107.232094 212.0
107.339294 112.0
107.444489 152.0
107.458931 56.0
107.638504 236.0
107.758301 184.0
107.807312 128.0
107.871384 256.0
107.971214 64.0
108.006371 164.0
108.080849 180.0
108.61731 212.0
108.80835 240.0
109.10128 100.0
109.305107 180.0
109.357132 148.0
109.557037 172.0
109.587967 184.0
109.734184 220.0
109.784225 128.0
109.81134 180.0
109.86557 96.0
109.949036 220.0
110.042969 216.0
110.09726 100.0
110.295746 124.0
110.423286 136.0
110.509056 204.0
110.544624 192.0
110.626251 152.0
110.66394 92.0
110.722572 192.0
110.749794 112.0
110.82312 192.0
110.86084 120.0
111.419502 204.0
111.917435 40.0
112.286209 100.0
112.556328 100.0
112.805634 156.0
112.921928 72.0
113.011292 160.0
113.205513 208.0
113.264816 112.0
113.531868 140.0
113.669754 192.0
113.688858 236.0
113.860817 200.0
114.018028 124.0
114.098801 148.0
114.13282 164.0
114.156212 192.0
114.174286 208.0
114.300171 132.0
114.703384 132.0
114.767342 168.0
114.859047 156.0
115.007751 220.0
115.054306 1488.0
115.134377 192.0
115.25827 56.0
115.296738 60.0
115.497719 184.0
115.572594 160.0
115.664619 172.0
115.72242 196.0
115.787979 184.0
115.865913 148.0
115.937927 112.0
116.059113 352.0
116.140305 184.0
116.258301 128.0
116.389244 136.0
116.442932 132.0
116.460693 164.0
116.65136 204.0
116.773918 60.0
116.823387 136.0
117.070122 904.0
117.200157 204.0
117.385536 148.0
117.484749 112.0
117.53437 124.0
117.579689 92.0
117.627174 52.0
117.676826 56.0
117.758827 148.0
117.786964 184.0
117.819374 180.0
117.951187 160.0
118.00956 180.0
118.029022 120.0
118.064117 1912.0
118.134995 140.0
118.160957 136.0
118.468376 64.0
118.52037 44.0
118.633072 116.0
118.680771 72.0
118.717636 128.0
118.74366 128.0
118.793549 136.0
118.995377 216.0
119.030113 188.0
119.072655 2980.0
119.193031 44.0
119.21981 136.0
119.275612 64.0
119.3778 160.0
119.404938 196.0
119.59536 148.0
119.658493 192.0
119.826195 164.0
119.900276 104.0
119.974388 72.0
120.074982 180.0
120.161949 128.0
120.18251 160.0
120.209946 84.0
120.231773 64.0
120.473 184.0
120.603065 160.0
120.618362 52.0
120.76049 76.0
120.876434 200.0
120.98806 200.0
121.033173 152.0
121.088791 156.0
121.42411 100.0
121.632553 152.0
121.722809 184.0
121.843369 204.0
122.014793 204.0
122.111549 48.0
122.258949 160.0
122.28756 144.0
122.617928 76.0
122.635559 212.0
122.708305 244.0
122.82518 168.0
122.917847 264.0
122.981842 216.0
123.010536 100.0
123.125351 164.0
123.279999 132.0
123.328621 168.0
123.357353 152.0
123.837517 144.0
123.888458 216.0
124.500641 148.0
124.558388 136.0
124.698372 216.0
124.898483 152.0
124.914055 140.0
124.94194 164.0
125.015778 2704.0
125.037453 148.0
125.072037 68.0
125.149956 60.0
125.222717 196.0
125.30809 128.0
125.392769 88.0
125.650223 140.0
125.850075 76.0
126.018883 256.0
126.060043 188.0
126.127762 188.0
126.182983 132.0
126.447983 188.0
126.491699 200.0
126.832176 164.0
126.856834 80.0
126.917374 168.0
126.946159 172.0
127.013527 1508.0
127.052528 152.0
127.305573 248.0
127.471809 104.0
127.530235 176.0
127.579689 192.0
128.026382 160.0
128.049683 344.0
128.442154 140.0
128.645248 276.0
128.698471 140.0
128.841721 104.0
128.918549 200.0
129.011215 140.0
129.031876 384.0
129.071899 304.0
129.140106 132.0
129.314316 180.0
129.339218 120.0
129.615524 180.0
129.640442 104.0
129.667633 200.0
129.701645 168.0
129.735641 216.0
130.005554 200.0
130.023712 140.0
130.065292 8764.0
130.189438 140.0
130.218964 64.0
130.284836 64.0
130.316635 248.0
130.366623 52.0
130.389359 144.0
130.464371 216.0
130.484833 100.0
130.507568 52.0
130.534851 76.0
130.566681 64.0
130.632645 164.0
130.715271 176.0
130.740219 72.0
130.964981 188.0
130.994598 56.0
131.021927 248.0
131.072372 9960.0
131.100128 100.0
131.277222 84.0
131.313705 80.0
131.391266 144.0
131.525894 52.0
131.598953 256.0
131.75882 140.0
131.80452 188.0
131.847946 156.0
131.870789 124.0
131.910965 188.0
131.953094 60.0
131.996536 48.0
132.074631 1028.0
132.184097 32.0
132.245895 76.0
132.264206 116.0
132.415985 208.0
132.669662 28.0
132.864594 132.0
132.886841 184.0
132.910492 168.0
132.954086 196.0
133.091812 84.0
133.126266 48.0
133.232498 176.0
133.395081 120.0
133.503143 140.0
133.622757 176.0
133.998032 184.0
134.018005 132.0
134.067154 92.0
134.274643 100.0
134.780197 156.0
134.918884 152.0
134.995178 144.0
135.145538 128.0
135.203384 140.0
135.31218 196.0
135.511353 172.0
135.710678 140.0
136.00676 160.0
136.151581 164.0
136.19339 204.0
136.453659 112.0
136.628082 140.0
136.714172 208.0
136.90274 208.0
137.01532 1336.0
137.140381 104.0
137.522888 164.0
137.646622 144.0
137.68399 132.0
137.835831 144.0
138.019943 668.0
138.046066 120.0
138.14679 128.0
138.308243 172.0
138.678329 100.0
138.919846 164.0
138.950348 224.0
138.966766 168.0
139.030899 6820.0
139.053986 5148.0
139.114365 68.0
139.134247 100.0
139.189758 32.0
139.224976 104.0
139.270325 208.0
139.30719 136.0
139.325974 44.0
139.431717 116.0
139.551605 80.0
139.61113 76.0
139.714157 68.0
139.836243 144.0
139.958649 60.0
140.034561 660.0
140.055054 772.0
140.196564 44.0
140.366302 144.0
140.387527 60.0
140.413467 164.0
140.448837 208.0
140.571518 176.0
140.602203 180.0
140.71315 76.0
140.847916 176.0
140.864288 212.0
140.979507 208.0
141.027206 2100.0
141.069595 2132.0
141.152634 56.0
141.19046 68.0
141.242493 108.0
141.580002 60.0
141.730194 60.0
141.775208 124.0
141.80365 64.0
141.934036 212.0
141.990952 152.0
142.031509 360.0
142.070908 348.0
142.138031 188.0
142.247208 112.0
142.306549 52.0
142.411041 88.0
142.491806 152.0
142.651031 96.0
142.876953 148.0
142.895981 200.0
143.004608 476.0
143.047455 328.0
143.129242 192.0
143.1483 40.0
143.565323 196.0
143.65596 152.0
143.733292 212.0
143.811066 152.0
143.868347 124.0
144.054611 120.0
144.109573 232.0
144.177429 152.0
144.494492 172.0
144.53038 104.0
144.705109 184.0
145.01413 168.0
145.06926 212.0
145.191544 124.0
145.30188 172.0
145.532288 112.0
145.582718 200.0
145.794128 112.0
145.834976 164.0
145.907104 168.0
146.393143 28.0
146.487076 60.0
146.621994 236.0
147.075439 52.0
147.307251 100.0
147.616608 128.0
148.066727 212.0
148.837891 160.0
148.930176 160.0
149.017624 156.0
149.068649 52.0
149.141556 200.0
149.445541 180.0
149.550186 236.0
149.740097 184.0
149.973999 156.0
150.00325 64.0
150.432587 184.0
150.561996 260.0
150.791641 236.0
150.818527 180.0
150.845413 124.0
150.945663 60.0
150.992126 100.0
151.028763 1780.0
151.058945 352.0
151.14624 56.0
151.334717 88.0
151.479202 196.0
151.506149 128.0
151.582108 120.0
151.680145 172.0
151.764404 204.0
151.841965 196.0
152.03746 1388.0
152.059723 772.0
152.106949 172.0
152.767975 148.0
152.812256 156.0
153.027786 1000.0
153.06926 5528.0
153.129822 140.0
153.460022 84.0
153.482208 108.0
153.620331 56.0
153.728897 104.0
153.859711 132.0
153.993057 264.0
154.041183 6976.0
154.072021 652.0
154.133865 52.0
154.180817 132.0
154.252502 64.0
154.284637 36.0
154.334076 112.0
154.373642 100.0
154.400848 148.0
154.418152 96.0
154.675491 92.0
154.81311 212.0
154.903305 48.0
155.04628 828.0
155.150055 112.0
155.180862 148.0
155.205658 44.0
155.529953 156.0
155.851013 88.0
155.930527 144.0
156.037445 2448.0
156.124451 88.0
156.171707 76.0
156.209015 72.0
156.226425 116.0
156.281158 52.0
156.413071 128.0
156.465347 96.0
156.510162 172.0
157.038589 188.0
157.063049 604.0
157.210617 68.0
157.290482 44.0
157.570175 148.0
158.02771 168.0
158.068924 500.0
158.142899 144.0
158.310562 144.0
158.638794 152.0
159.072769 232.0
159.281189 92.0
159.693405 84.0
159.768875 120.0
160.065872 204.0
160.198669 192.0
160.26738 208.0
160.285019 96.0
160.413559 92.0
160.774231 44.0
161.049423 100.0
161.11763 160.0
161.145416 224.0
161.173813 268.0
161.32486 120.0
161.395645 228.0
161.565109 68.0
161.67897 192.0
161.742249 168.0
161.901749 132.0
162.003067 108.0
162.378204 164.0
162.413712 208.0
162.502502 56.0
163.061157 164.0
163.119629 136.0
163.338303 160.0
163.409546 164.0
163.587692 184.0
163.855087 124.0
163.908585 152.0
163.995239 36.0
164.024826 1216.0
164.158401 140.0
164.195206 140.0
164.298691 212.0
164.742889 92.0
164.898758 100.0
165.008987 268.0
165.025925 772.0
165.064926 84.0
165.121185 40.0
165.213272 184.0
165.238861 72.0
165.374481 44.0
165.58699 148.0
165.676636 36.0
165.790985 160.0
165.93605 128.0
165.966263 188.0
166.014862 436.0
166.041458 21440.0
166.090027 136.0
166.174728 72.0
166.21138 64.0
166.245865 104.0
166.316437 144.0
166.379333 32.0
166.453781 72.0
166.479462 68.0
166.520554 52.0
166.592484 80.0
166.633591 52.0
166.758331 204.0
166.78006 180.0
166.836609 44.0
166.867462 64.0
166.89061 100.0
166.95726 104.0
167.011642 504.0
167.048325 23384.0
167.095505 48.0
167.105255 88.0
167.144043 36.0
167.243042 64.0
167.263641 32.0
167.289383 88.0
167.333145 152.0
167.459656 124.0
167.493576 128.0
167.521149 192.0
167.552063 72.0
167.572083 120.0
167.598434 36.0
167.655121 88.0
167.70018 148.0
167.744568 240.0
167.765961 88.0
167.805359 144.0
167.856201 84.0
168.040237 6792.0
168.101715 68.0
168.125137 156.0
168.170944 112.0
168.232895 172.0
168.269043 108.0
168.289688 48.0
168.312927 156.0
168.368454 64.0
168.387817 84.0
168.49115 80.0
168.522141 132.0
168.563492 68.0
168.582062 156.0
168.630676 36.0
168.793549 76.0
168.811646 68.0
168.852829 52.0
168.951324 36.0
168.990128 48.0
169.062012 4052.0
169.114349 152.0
169.150116 88.0
169.179062 128.0
169.309814 64.0
169.463943 36.0
169.88913 76.0
170.035522 180.0
170.066818 964.0
170.146042 128.0
170.205765 48.0
170.358994 36.0
170.397964 64.0
170.462921 188.0
170.512299 32.0
171.001251 240.0
171.043869 1812.0
171.071533 184.0
171.209534 56.0
171.373642 48.0
171.402298 144.0
171.459641 124.0
171.566498 48.0
171.725571 152.0
171.793381 208.0
171.83252 200.0
172.043152 344.0
172.582123 120.0
172.629181 72.0
173.176163 168.0
173.254745 116.0
173.409348 140.0
173.571884 120.0
173.668915 172.0
174.12822 72.0
174.480331 208.0
174.774918 92.0
175.385895 128.0
175.580994 80.0
176.012787 180.0
176.267365 160.0
176.320221 80.0
176.547577 92.0
176.571381 60.0
177.002731 148.0
177.082184 128.0
178.018677 348.0
178.135223 104.0
178.480713 116.0
179.025024 140.0
179.361923 116.0
179.473892 96.0
179.668594 196.0
180.015579 152.0
180.06366 180.0
180.226608 64.0
180.336166 148.0
180.814911 132.0
181.010803 184.0
181.067535 372.0
181.128174 184.0
181.401505 96.0
182.065598 116.0
182.370514 180.0
182.59343 92.0
182.881561 132.0
183.017899 248.0
183.042694 444.0
183.409485 172.0
183.598206 148.0
184.008362 208.0
184.051987 912.0
184.359512 100.0
184.873322 152.0
185.017746 168.0
185.058868 332.0
185.290314 56.0
185.385147 108.0
185.404114 60.0
185.715912 176.0
186.036102 152.0
186.065964 112.0
186.280502 176.0
186.495163 88.0
186.845963 160.0
187.051712 224.0
187.074554 232.0
187.491302 136.0
187.616684 144.0
188.713867 136.0
188.982254 52.0
189.179306 148.0
189.340851 68.0
190.528564 264.0
190.855621 204.0
190.962875 100.0
191.44725 100.0
191.659363 156.0
191.926727 124.0
192.014969 152.0
193.407501 124.0
193.908829 88.0
193.978119 128.0
194.03511 136.0
194.366394 80.0
194.628647 192.0
194.766174 220.0
194.857956 208.0
194.968994 140.0
195.013458 164.0
195.043457 10696.0
195.210846 92.0
195.230316 116.0
195.349915 40.0
195.383301 72.0
195.52243 68.0
195.55304 68.0
195.59201 72.0
195.739563 148.0
196.047272 1028.0
196.330338 64.0
196.397278 88.0
196.584198 80.0
196.617691 176.0
196.751678 156.0
197.059616 10524.0
197.114777 140.0
197.13623 76.0
197.183701 96.0
197.234268 164.0
197.319855 96.0
197.360748 156.0
197.419479 84.0
197.461426 92.0
197.534149 100.0
197.623672 92.0
197.917572 80.0
197.953964 124.0
197.995972 56.0
198.064148 1932.0
198.145233 140.0
198.208878 160.0
198.2341 72.0
198.433105 68.0
198.730408 44.0
198.856689 32.0
198.885452 96.0
199.040573 144.0
199.084091 244.0
199.159927 116.0
199.334106 216.0
199.491104 140.0
199.547729 104.0
200.047775 164.0
200.408981 92.0
201.108353 64.0
201.351166 120.0
201.690216 84.0
203.1996 192.0
203.804367 148.0
204.919708 40.0
205.176208 160.0
206.032379 48.0
207.044937 168.0
207.684082 88.0
208.048508 116.0
208.554077 52.0
208.697815 84.0
209.060181 136.0
209.541122 60.0
210.553604 216.0
211.007263 156.0
211.037781 736.0
211.377502 116.0
211.803085 200.0
212.044189 1788.0
212.690369 44.0
212.844238 64.0
212.919739 68.0
213.054535 2788.0
213.224792 48.0
213.330124 64.0
213.384659 52.0
213.489349 60.0
213.835541 76.0
214.010208 156.0
214.059799 380.0
214.756241 80.0
215.060898 192.0
215.085953 160.0
216.26683 112.0
217.043427 204.0
217.459732 168.0
218.385254 72.0
218.544113 112.0
219.946899 56.0
220.047272 60.0
220.821487 76.0
222.06543 144.0
222.460068 216.0
222.60556 116.0
222.783768 160.0
222.917465 172.0
223.049072 7696.0
223.134445 72.0
223.187973 72.0
223.292053 48.0
223.589554 40.0
223.622299 100.0
223.646103 76.0
223.702667 36.0
223.818771 76.0
223.887268 40.0
223.914078 200.0
224.000443 32.0
224.053436 1124.0
224.08165 140.0
224.28949 180.0
224.47731 28.0
224.519058 92.0
224.724884 48.0
224.862152 224.0
224.976166 144.0
225.014389 80.0
225.053467 15712.0
225.117065 100.0
225.138184 96.0
225.208496 72.0
225.299667 92.0
225.348907 76.0
225.408661 52.0
225.451645 52.0
225.49234 44.0
225.579025 60.0
225.650467 160.0
225.752426 112.0
225.843155 72.0
225.904968 80.0
225.973785 72.0
226.057785 2564.0
226.111435 48.0
226.150345 32.0
226.764343 120.0
227.062958 140.0
227.199127 68.0
227.25914 72.0
227.4422 100.0
227.538254 88.0
227.619324 40.0
227.691406 88.0
227.784515 104.0
227.865631 84.0
227.994827 60.0
228.057953 156.0
228.193222 60.0
228.503006 68.0
229.174423 60.0
229.334137 80.0
229.47583 56.0
230.05809 136.0
232.136703 80.0
235.041718 168.0
235.066132 64.0
235.478271 92.0
236.995575 60.0
237.04512 300.0
238.06015 156.0
239.597916 108.0
240.054077 116.0
242.096756 108.0
243.054611 180.0
245.674301 28.0
245.764786 112.0
249.051895 156.0
250.080063 60.0
251.741516 84.0
251.867859 164.0
252.065536 144.0
253.046906 484.0
254.055466 172.0
256.420959 60.0
262.048065 180.0
267.524628 72.0
268.071808 248.0
268.094604 108.0
271.06839 176.0
271.747101 44.0
272.06546 88.0
275.054504 124.0
279.272583 28.0
280.052826 124.0
281.685852 84.0
282.103577 92.0
283.07193 184.0
284.029022 108.0
285.096252 192.0
286.097748 192.0
289.614288 128.0
291.109924 84.0
292.585602 44.0
293.566895 112.0
293.925079 44.0
296.369904 76.0
297.083008 176.0
298.339905 84.0
308.078339 144.0
313.485107 164.0
314.090057 76.0
315.111755 172.0
315.175354 68.0
316.317688 64.0
316.799286 104.0
319.058411 364.0
320.056122 64.0
321.810364 96.0
334.086151 68.0
336.531647 44.0
341.63327 156.0
345.784393 52.0
347.040192 188.0
348.053162 160.0
349.065094 688.0
350.056305 320.0
351.041138 228.0
352.426056 60.0
354.109436 112.0
356.976654 28.0
361.0513 160.0
362.488037 80.0
367.198273 176.0
367.965271 56.0
370.271057 116.0
371.04892 124.0
378.080078 212.0
389.086578 144.0
392.979034 68.0
398.752655 124.0
404.440308 44.0
405.377472 56.0
406.079437 432.0
406.608643 68.0
407.095917 224.0
408.080872 128.0
409.088654 192.0
409.176086 112.0
410.180328 136.0
414.075378 104.0
417.024994 92.0
417.07782 20.0
435.079559 176.0
441.333252 56.0
447.063293 100.0
468.994324 36.0
470.711395 20.0
473.245209 100.0
480.726074 92.0
483.820648 76.0
484.644043 88.0
497.127686 92.0
513.479675 92.0
533.676575 64.0
557.256592 72.0
562.479309 56.0
600.749023 100.0
603.15155 48.0
647.915588 76.0
673.457886 104.0
674.160522 132.0
680.178833 172.0
697.116638 32.0
703.405273 40.0
719.346375 100.0
729.637451 84.0
735.714417 60.0
741.805725 20.0
745.148682 156.0
749.054749 96.0
761.020691 240.0
761.624817 76.0
825.723816 116.0
840.764648 76.0
849.484192 48.0
852.677673 52.0
880.542786 80.0
887.134399 156.0
902.859558 236.0
924.329773 20.0
924.450806 124.0
935.606873 184.0
935.765198 184.0
960.480835 164.0
974.154907 160.0
979.454773 172.0
982.465637 188.0
992.234314 56.0
997.149353 156.0
1024.994751 196.0
1030.577881 140.0
1031.191406 32.0
1033.749512 208.0
1034.357544 204.0
1036.323608 176.0
1038.84314 212.0
1041.841187 172.0
1043.441406 180.0
1047.753418 208.0
1049.016479 152.0
1055.983521 212.0
1060.016724 116.0
1063.161865 160.0
1063.908325 80.0
1070.625122 48.0
1073.818481 168.0
1076.461548 112.0
1082.575928 120.0
1086.47583 180.0
1087.007324 132.0
1091.092651 72.0
1091.973755 432.0
1104.995361 144.0
1106.405029 176.0
1108.299194 140.0
1109.015015 156.0
1109.863525 180.0
1113.486816 156.0
1114.117798 164.0
1115.234253 120.0
1118.014282 124.0
1118.147339 140.0
1118.986084 80.0
1121.584106 160.0
1126.796021 52.0
1127.370605 92.0
1128.440063 40.0
1129.637207 192.0
1132.314575 224.0
1132.542236 132.0
1139.586182 128.0
1144.267212 148.0
1144.516357 176.0
1156.052612 148.0
1161.608398 36.0
1163.922607 172.0
1164.93457 140.0
1165.423828 156.0
1169.830811 188.0
1170.525269 228.0
1172.780273 112.0
1176.661743 208.0
1181.77417 156.0
1184.745483 36.0
1188.166382 212.0
1188.475098 216.0
1189.90271 208.0
1196.874634 144.0
1199.044556 168.0
1201.49939 168.0
1205.504028 160.0
1205.918701 188.0
1215.745361 128.0
1216.120972 232.0
1216.287598 60.0
1216.912354 180.0
1218.544556 112.0
1219.17688 192.0
1220.101318 184.0
1225.230469 164.0
1227.558472 180.0
1229.016357 200.0
1230.433105 216.0
1232.36084 152.0
1233.989258 36.0
1237.102539 236.0
1239.189575 196.0
1241.173096 288.0
1242.758301 116.0
1243.811035 168.0
1247.562134 172.0
1254.503296 196.0
1254.714844 64.0
1255.010864 156.0
1255.060303 212.0
1257.416382 116.0
1259.115845 196.0
1262.078735 168.0
1263.174927 200.0
1264.250366 216.0
1271.138428 184.0
1271.244873 148.0
1273.928711 184.0
1275.6698 208.0
1281.662231 220.0
1282.816895 200.0
1284.899292 188.0
1288.461792 100.0
1290.870483 176.0
1291.385376 132.0
1291.684692 156.0
1300.283936 188.0
1301.985352 224.0
1302.595947 212.0
1302.96228 156.0
1307.348389 180.0
1307.564331 196.0
1312.80896 64.0
1312.931519 160.0
1313.55188 140.0
1315.593994 120.0
1317.363281 76.0
1320.927124 44.0
1321.173096 112.0
1321.838745 232.0
1322.453857 100.0
1323.105347 188.0
1323.496338 120.0
1324.337524 128.0
1325.481079 212.0
1332.301147 136.0
1332.562744 200.0
1332.758911 44.0
1333.245728 176.0
1333.892578 224.0
1335.841431 200.0
1337.362183 168.0
1338.061035 108.0
1338.141113 164.0
1341.885986 136.0
1342.265137 268.0
1342.833984 152.0
1345.227295 208.0
1346.424805 164.0
1347.009033 148.0
1349.362305 64.0
1351.790649 180.0
1354.792603 168.0
1356.133545 80.0
1356.624634 44.0
1356.785889 172.0
1357.130493 204.0
1358.215942 156.0
1358.267212 52.0
1358.501953 148.0
1360.211792 140.0
1362.172363 208.0
1362.708618 128.0
1364.685791 204.0
1366.958618 156.0
1367.75354 128.0
1367.878662 164.0
1372.689697 176.0
1374.157471 88.0
1377.405762 164.0
1380.221558 156.0
1380.28064 228.0
1381.279053 220.0
1381.856079 172.0
1382.196533 188.0
1383.847046 84.0
1384.928223 224.0
1385.646851 140.0
1386.224731 124.0
1386.543457 200.0
1386.914062 164.0
1387.566406 196.0
1388.189209 132.0
1391.728638 128.0
1392.523315 88.0
1393.71936 152.0
1399.468872 148.0
1400.869019 52.0
1401.479858 196.0
1403.171753 96.0
1403.812988 136.0
1405.319824 136.0
1405.655518 152.0
1406.006348 40.0
1406.379517 36.0
1407.349976 140.0
1407.469482 104.0
1409.24707 84.0
1410.487671 120.0
1412.020508 192.0
1414.863892 204.0
1417.905029 192.0
1419.554321 176.0
1420.848877 220.0
1423.163574 148.0
1423.726807 172.0
1425.086304 128.0
1425.672485 136.0
1426.529297 180.0
1427.176514 140.0
1437.880371 148.0
1438.41626 148.0
1438.508179 136.0
1438.80127 68.0
1440.115112 128.0
1443.410156 136.0
1447.087402 100.0
1451.042358 212.0
1451.876465 72.0
1452.035645 212.0
1452.278442 100.0
1454.038574 68.0
1454.372559 156.0
1454.562378 56.0
1455.154419 132.0
1455.222778 168.0
1455.921387 220.0
1456.263184 112.0
1457.364624 132.0
1457.425415 88.0
1458.314575 184.0
1458.77063 220.0
1460.496826 184.0
1461.371582 260.0
1461.843384 128.0
1462.193481 136.0
1462.573975 204.0
1464.02063 156.0
1464.249023 88.0
1465.475464 108.0
1465.803101 156.0
1466.046997 40.0
1468.398682 152.0
1468.562866 208.0
1470.645874 36.0
1474.869751 136.0
1474.999634 156.0
1475.053223 216.0
1475.198486 212.0
1480.294067 152.0
1480.393555 124.0
1480.738159 180.0
1481.381592 144.0
1481.864258 128.0
1482.415894 200.0
1486.831543 96.0
1487.846436 112.0
1488.852295 204.0
1488.990479 160.0
1490.649902 136.0
1491.333862 228.0
1493.471313 124.0
1495.287109 172.0
1495.687378 168.0
1495.810547 180.0
1496.980835 128.0
1499.014526 144.0
1499.993286 188.0
1500.293945 156.0
1501.273193 168.0
1501.766724 80.0
1502.785034 128.0
1503.278931 172.0
