>compound MLS001074890-01!NU6027
>formula C11H17N5O2
>ionization [M+H]+
>parentmass 252.146
#inchi InChI=1S/C11H17N5O2/c12-9-8(16-17)10(15-11(13)14-9)18-6-7-4-2-1-3-5-7/h7H,1-6H2,(H4,12,13,14,15)
#inchikey DGWXOLHKVGDQLN
#Ion_Source LC-ESI
#Instrument qTof
#Compound_Source NIH Pharmacologically Active Library
#PI Dorrestein
#Data_Collector VP/LMS
#Scan -1
#Precursor_MZ 252.146
#ExactMass 251.138
#Charge 1
#CAS_Number N/A
#Pubmed_ID N/A
#Smiles Nc1nc(N)c(N=O)c(OCC2CCCCC2)n1
#INCHI_AUX N/A
#Library_Class 1
#SpectrumID CCMSLIB00000084990
#IonMode Positive
#UpdateWorkflowName UPDATE-SINGLE-ANNOTATED-GOLD
#LibraryQualityString Gold
#TaskID d252d724072548979f1f6f1ced849daf
##Scan# 1816
#SpectrumFile p3-D06_GD6_01_18263.mzXML
#LibraryName Pharm_Active_Library.mgf
#MQScore -1
#Organism Pharm_Active_Library
#TIC_Query 0
#RT_Query -1
#MZErrorPPM -1
#SharedPeaks 0
#MassDiff 0
#LibMZ -1
#SpecMZ 252.146
#SpecCharge 0
#internalFilename spec-00000.mgf

>collision 10
45.095383 204.0
45.410038 164.0
45.494576 168.0
45.780983 192.0
45.833523 220.0
46.184547 192.0
46.271156 152.0
46.641518 180.0
47.252491 168.0
47.355164 180.0
47.488117 160.0
47.57869 148.0
47.628128 240.0
47.68034 136.0
47.757336 164.0
47.972157 204.0
48.008007 128.0
48.201275 148.0
48.521019 200.0
48.54459 180.0
48.618118 172.0
48.720875 212.0
48.731991 156.0
48.787582 64.0
49.000526 204.0
49.081371 172.0
49.411919 160.0
49.455791 172.0
49.499191 156.0
49.796265 180.0
50.183517 152.0
50.282269 68.0
50.424236 124.0
51.332123 144.0
51.354942 148.0
51.367065 200.0
51.409454 192.0
51.499104 140.0
51.594849 196.0
51.854645 288.0
52.004555 204.0
52.141003 100.0
52.16544 76.0
52.251728 196.0
52.290581 156.0
52.508141 104.0
52.581726 148.0
52.619804 276.0
52.799889 168.0
52.915657 180.0
53.046047 152.0
53.164986 212.0
53.241932 224.0
53.289867 224.0
53.374176 164.0
53.605049 220.0
53.637699 156.0
53.78503 184.0
53.801086 252.0
53.879951 204.0
53.9618 176.0
54.267815 184.0
54.376373 136.0
54.4072 116.0
54.48357 168.0
54.696808 124.0
54.735088 188.0
54.99604 116.0
55.287209 220.0
55.328655 180.0
55.666729 164.0
55.677124 112.0
55.798977 100.0
55.883755 104.0
56.075863 220.0
56.368378 116.0
56.532879 156.0
56.696117 188.0
57.309238 144.0
57.360481 160.0
57.600414 148.0
57.946865 76.0
58.049938 192.0
58.857986 160.0
59.000084 188.0
59.24955 152.0
59.358376 96.0
59.422802 72.0
59.72237 136.0
59.843945 224.0
60.096588 176.0
60.498577 120.0
60.521801 156.0
60.876911 156.0
60.977898 148.0
61.136536 128.0
61.262657 44.0
61.39827 60.0
61.463791 180.0
61.690262 164.0
61.705898 144.0
61.784096 128.0
62.279469 140.0
62.482262 172.0
62.660172 32.0
62.929882 164.0
63.026234 168.0
63.05468 144.0
63.26981 224.0
63.41555 200.0
63.426643 96.0
63.585258 168.0
63.774269 184.0
63.785397 140.0
64.23127 112.0
64.279137 168.0
64.301476 312.0
64.410057 168.0
64.613083 156.0
64.747543 156.0
65.616364 168.0
66.112808 228.0
66.600838 268.0
67.315826 148.0
67.359924 200.0
67.605186 164.0
67.62973 156.0
67.798431 228.0
67.901718 168.0
67.968979 132.0
68.241653 184.0
68.261383 192.0
68.330467 172.0
68.355148 112.0
68.41111 212.0
68.702812 208.0
68.744057 164.0
68.863945 188.0
68.894318 244.0
68.922401 156.0
69.031502 104.0
69.152275 144.0
69.193665 236.0
69.268188 164.0
69.279785 172.0
69.521873 168.0
69.576645 140.0
69.882462 172.0
69.98233 176.0
70.047287 32.0
70.319077 180.0
70.606445 168.0
70.775467 144.0
70.948044 224.0
71.243416 204.0
71.319038 152.0
71.340889 168.0
71.507416 148.0
71.524254 196.0
71.564659 40.0
71.743248 60.0
71.773598 84.0
71.906868 60.0
71.944008 176.0
71.967644 60.0
71.999733 164.0
72.033508 36.0
72.11631 116.0
72.59375 160.0
72.614098 92.0
72.88063 204.0
72.992821 36.0
73.140839 168.0
73.389572 200.0
73.437553 148.0
73.667763 172.0
73.753204 204.0
73.854095 128.0
73.898575 200.0
74.249748 208.0
74.574249 200.0
74.759995 116.0
74.804749 160.0
74.825409 144.0
75.266808 180.0
75.2789 156.0
75.308258 168.0
75.372185 224.0
75.586601 196.0
75.773605 76.0
75.839462 132.0
75.91748 196.0
75.93309 108.0
75.969513 32.0
76.179008 208.0
76.190323 172.0
76.224747 268.0
76.360352 204.0
76.506516 164.0
76.66851 152.0
77.139786 152.0
77.698448 164.0
77.74231 128.0
77.884529 104.0
78.019844 196.0
78.354233 144.0
78.449402 196.0
79.365242 44.0
79.429085 252.0
79.569283 168.0
79.609779 224.0
79.917656 164.0
80.02623 176.0
80.588081 152.0
80.843788 168.0
81.046143 156.0
81.23439 152.0
81.537849 168.0
81.618744 196.0
81.823868 196.0
82.525726 48.0
82.574554 168.0
82.873253 244.0
83.192459 208.0
83.310501 144.0
83.452263 64.0
83.525009 152.0
83.84182 196.0
84.053291 196.0
84.162888 92.0
84.25238 176.0
84.36203 168.0
84.671272 36.0
84.775696 164.0
84.916862 72.0
85.136391 216.0
85.747917 168.0
86.019066 180.0
86.046753 88.0
86.250923 128.0
86.335014 136.0
86.373856 168.0
86.405304 180.0
86.734947 176.0
86.775726 232.0
86.827652 160.0
87.007645 124.0
87.054741 276.0
87.11113 172.0
87.787285 176.0
87.945877 116.0
88.009346 132.0
88.467415 116.0
88.690331 172.0
88.93605 160.0
89.249794 164.0
89.32502 128.0
89.882706 160.0
89.946869 44.0
90.005402 244.0
90.126289 184.0
90.279411 204.0
90.654243 128.0
90.756607 200.0
91.117233 180.0
91.217957 140.0
91.271187 164.0
91.321785 152.0
91.86161 72.0
92.467331 88.0
92.51136 176.0
92.733559 132.0
92.977135 144.0
93.124977 164.0
93.440239 208.0
93.811935 52.0
94.002686 316.0
94.03183 152.0
94.054993 96.0
94.126427 156.0
94.223007 164.0
94.466599 168.0
95.010979 148.0
95.037071 196.0
95.184242 164.0
95.389664 80.0
95.418831 164.0
95.50634 68.0
96.01664 184.0
96.510704 44.0
96.814018 176.0
96.937439 48.0
97.084465 204.0
97.102745 488.0
97.145271 104.0
97.278236 212.0
97.400467 112.0
97.465302 64.0
97.569473 44.0
97.711075 208.0
97.876411 200.0
98.058372 7040.0
98.106934 32.0
98.132561 44.0
98.211449 48.0
98.501419 244.0
98.844193 44.0
98.910942 152.0
99.015884 188.0
99.042763 804.0
99.061569 396.0
99.079269 184.0
99.412392 164.0
99.467964 44.0
99.531494 248.0
99.664581 60.0
99.680481 108.0
99.712273 72.0
100.02655 84.0
100.046455 128.0
100.18586 180.0
100.231689 180.0
100.253609 192.0
100.946327 248.0
100.994331 96.0
101.158417 160.0
101.476959 168.0
101.549149 216.0
101.591278 112.0
101.892418 52.0
101.968781 224.0
102.004959 116.0
102.393295 140.0
102.419479 248.0
102.46582 44.0
102.766235 88.0
102.937813 216.0
103.314766 120.0
103.706604 156.0
104.053497 136.0
104.518951 40.0
104.559654 196.0
104.992165 164.0
105.046638 184.0
105.207855 212.0
105.473427 120.0
106.101898 132.0
106.802162 184.0
106.929726 156.0
107.131523 80.0
107.440758 160.0
107.71946 172.0
108.039886 200.0
108.342148 204.0
108.40638 184.0
108.729904 160.0
108.792175 188.0
109.024948 160.0
109.334686 128.0
109.615822 92.0
109.6325 64.0
109.663757 192.0
109.740891 132.0
109.784683 164.0
110.031372 308.0
110.049698 180.0
110.126961 92.0
110.333839 160.0
110.656044 104.0
110.684731 188.0
110.796364 100.0
110.859222 148.0
110.951454 144.0
110.981918 200.0
111.030212 18152.0
111.053207 784.0
111.07589 272.0
111.123428 156.0
111.144417 80.0
111.212051 88.0
111.247253 32.0
111.413162 128.0
111.448883 44.0
111.469894 64.0
111.587601 144.0
111.612831 100.0
111.791641 48.0
111.872643 116.0
112.034645 656.0
112.080132 52.0
112.109634 208.0
112.168648 236.0
112.288841 44.0
112.820961 104.0
112.882278 116.0
112.937263 148.0
112.956306 80.0
112.979576 84.0
113.002846 160.0
113.044319 1088.0
113.180641 48.0
113.297134 40.0
113.342255 108.0
113.390373 216.0
113.61647 168.0
113.733978 148.0
113.759453 168.0
114.028877 1356.0
114.397202 204.0
115.023933 176.0
115.370003 136.0
116.501549 84.0
116.985413 228.0
117.028473 124.0
117.073692 188.0
117.798416 164.0
118.027512 220.0
118.724808 160.0
119.073738 180.0
119.54599 204.0
119.866104 148.0
119.944565 288.0
119.992531 160.0
120.077576 148.0
120.724022 64.0
120.85965 124.0
121.010674 136.0
121.155228 112.0
121.247253 156.0
121.685974 156.0
121.705734 88.0
122.090141 168.0
122.138687 88.0
122.67379 144.0
122.748756 112.0
122.89875 184.0
123.031174 136.0
123.053253 204.0
123.104042 196.0
123.966797 132.0
124.03875 2160.0
124.153015 196.0
124.494781 140.0
124.745857 116.0
124.799217 172.0
124.977158 196.0
125.046143 204.0
125.137413 96.0
125.476074 116.0
126.053551 3888.0
126.183823 240.0
126.322479 56.0
126.656013 44.0
126.793938 108.0
127.056908 280.0
127.270508 192.0
127.376068 68.0
127.506386 184.0
127.551338 180.0
127.717735 60.0
127.758232 80.0
127.98555 128.0
128.055145 796.0
128.077881 112.0
128.102661 80.0
128.217575 148.0
128.298721 144.0
130.01329 188.0
130.56308 192.0
133.612259 160.0
133.653671 212.0
134.068176 112.0
134.991592 160.0
135.029541 156.0
135.036331 208.0
135.199799 136.0
135.579605 156.0
135.686234 168.0
135.718704 180.0
136.050476 168.0
136.538437 80.0
136.750168 168.0
136.959717 132.0
137.101837 200.0
137.603363 148.0
137.907043 200.0
137.935104 180.0
138.040573 13440.0
138.115845 80.0
138.133194 84.0
138.213409 100.0
138.243835 36.0
138.271912 48.0
138.341553 80.0
138.508392 88.0
138.648987 84.0
138.693512 76.0
138.742737 216.0
138.81543 68.0
139.044785 1380.0
139.104019 44.0
139.183838 32.0
139.282486 68.0
139.406998 72.0
139.945679 64.0
140.055038 236.0
140.08934 72.0
140.129395 76.0
140.249573 88.0
140.428772 164.0
140.924515 156.0
140.965927 184.0
141.040039 8316.0
141.06694 200.0
141.101791 100.0
141.144348 48.0
141.175079 44.0
141.345413 48.0
141.38327 40.0
141.563187 56.0
141.604721 60.0
141.762177 48.0
141.783508 64.0
141.885437 76.0
142.025345 180.0
142.045593 624.0
142.462128 52.0
142.704544 52.0
142.747345 48.0
142.811569 104.0
143.044678 260.0
143.11618 80.0
143.292435 136.0
144.048691 220.0
144.077362 128.0
144.098862 80.0
144.452682 148.0
147.5336 192.0
148.077744 248.0
148.300659 64.0
149.082153 196.0
149.592926 104.0
149.753647 172.0
150.111893 152.0
150.976395 204.0
151.076675 128.0
151.845825 204.0
152.01265 176.0
152.044601 204.0
152.575134 148.0
152.843216 92.0
152.902283 164.0
152.983505 256.0
153.013062 116.0
153.038925 180.0
154.231705 124.0
155.046005 116.0
155.601089 88.0
155.646347 72.0
155.730789 200.0
155.748169 120.0
155.810272 176.0
155.845062 100.0
155.887299 168.0
155.928238 204.0
155.949432 148.0
155.966827 196.0
156.051651 32084.0
156.089752 180.0
156.116013 32.0
156.150833 60.0
156.170731 68.0
156.206696 28.0
156.248627 88.0
156.31424 140.0
156.344879 76.0
156.417068 44.0
156.434494 116.0
156.459137 40.0
156.534073 36.0
156.571442 72.0
156.671066 76.0
156.76416 100.0
156.814316 132.0
156.860458 68.0
156.94455 88.0
157.051834 700.0
157.0849 160.0
157.104858 48.0
157.179703 48.0
157.277039 104.0
157.591705 120.0
157.939194 52.0
158.055374 492.0
158.179169 160.0
158.234497 144.0
158.299591 52.0
158.327148 84.0
158.367218 128.0
160.917191 116.0
162.093369 124.0
163.291641 60.0
163.395935 84.0
165.064072 144.0
165.724472 56.0
166.771515 68.0
167.069809 148.0
167.556381 56.0
167.664612 104.0
169.20932 96.0
170.390091 44.0
170.602493 60.0
171.349762 132.0
171.560516 164.0
171.646561 64.0
175.058472 204.0
175.090836 140.0
177.073532 112.0
178.065475 28.0
182.015259 96.0
191.082184 332.0
191.130173 192.0
193.393188 32.0
205.061859 188.0
205.098923 172.0
212.101303 160.0
218.808868 56.0
237.148926 144.0
238.149185 224.0
251.148499 160.0
253.434174 40.0
264.240814 60.0
283.523499 76.0
288.792633 140.0
304.363068 116.0
308.561615 80.0
340.664368 32.0
345.8638 48.0
359.144043 100.0
375.816406 52.0
376.507385 40.0
401.494263 64.0
422.65564 100.0
437.73114 84.0
499.67337 84.0
538.349182 48.0
555.782654 44.0
561.875732 116.0
647.724792 84.0
673.630432 172.0
674.462402 56.0
689.337158 288.0
728.092957 80.0
751.675049 76.0
805.753052 148.0
826.97583 72.0
838.935364 196.0
850.162354 208.0
851.149231 208.0
858.790527 248.0
875.040771 228.0
922.963257 152.0
923.132568 204.0
927.509888 120.0
928.819641 252.0
929.899719 108.0
940.594238 144.0
944.064575 204.0
945.967468 176.0
947.235046 184.0
947.590393 52.0
947.817078 56.0
963.753967 132.0
965.249878 208.0
967.025391 196.0
975.12561 216.0
977.899597 224.0
981.40686 148.0
985.557678 128.0
989.05365 68.0
999.924744 184.0
1000.346497 168.0
1002.355652 204.0
1005.369995 160.0
1007.39679 108.0
1008.584778 188.0
1012.235291 164.0
1012.805298 160.0
1013.223389 160.0
1013.356445 172.0
1017.167908 216.0
1022.564331 144.0
1023.44281 132.0
1027.362549 132.0
1031.391968 200.0
1031.78833 148.0
1036.806641 248.0
1038.409546 188.0
1039.378174 224.0
1046.912231 136.0
1052.096436 192.0
1064.268433 156.0
1064.567139 148.0
1066.711304 40.0
1067.237915 180.0
1068.206909 44.0
1072.40686 164.0
1077.60791 104.0
1079.143921 184.0
1079.595093 164.0
1080.739868 224.0
1082.697144 256.0
1083.391479 200.0
1086.636719 140.0
1088.947388 176.0
1091.221069 204.0
1091.411743 176.0
1091.556396 152.0
1091.845825 164.0
1095.360596 200.0
1101.693481 168.0
1102.182495 112.0
1105.746948 132.0
1114.480591 136.0
1116.474854 136.0
1118.510742 40.0
1125.210571 140.0
1125.86499 132.0
1127.321411 136.0
1129.889038 176.0
1130.129883 208.0
1132.754272 76.0
1132.975342 64.0
1134.959229 204.0
1140.396973 68.0
1142.602661 180.0
1145.766968 216.0
1146.831665 72.0
1149.232422 132.0
1149.488892 188.0
1153.095825 140.0
1153.206787 224.0
1153.29126 188.0
1154.886963 184.0
1155.08313 160.0
1157.187866 192.0
1157.953003 112.0
1158.555908 244.0
1166.155884 160.0
1168.59729 184.0
1170.687012 220.0
1172.465088 140.0
1174.838013 184.0
1176.230103 136.0
1178.388184 200.0
1179.686646 188.0
1183.908325 184.0
1184.702881 200.0
1185.765015 172.0
1186.902954 180.0
1193.288574 160.0
1194.42334 156.0
1195.475952 176.0
1203.396118 184.0
1204.977783 200.0
1205.053833 140.0
1206.809448 64.0
1207.224365 136.0
1211.702759 164.0
1218.724365 148.0
1221.602661 216.0
1223.648804 168.0
1225.773193 160.0
1226.107666 132.0
1227.341553 140.0
1229.518066 196.0
1231.026001 128.0
1231.556763 184.0
1234.611084 196.0
1235.044678 160.0
1241.453125 140.0
1242.631592 152.0
1246.887085 184.0
1247.379028 160.0
1249.045654 108.0
1249.953247 164.0
1250.002441 128.0
1250.34729 164.0
1255.680664 224.0
1256.259033 76.0
1256.872925 144.0
1264.222168 96.0
1264.455688 176.0
1265.375854 280.0
1266.9552 204.0
1267.848022 156.0
1270.883057 112.0
1272.572388 216.0
1273.765503 200.0
1279.44751 172.0
1282.360962 148.0
1283.031128 160.0
1283.772583 228.0
1288.362183 128.0
1292.788208 200.0
1293.174683 128.0
1294.95752 148.0
1297.730835 216.0
1303.286377 200.0
1304.702271 200.0
1309.05542 168.0
1313.870239 128.0
1315.717773 136.0
1318.954102 52.0
1319.901245 148.0
1321.724121 112.0
1321.796387 44.0
1325.047485 152.0
1328.170044 176.0
1333.77771 148.0
1334.446533 236.0
1336.803223 156.0
1342.937622 196.0
1343.119995 168.0
1344.199829 204.0
1348.691406 180.0
1352.231445 196.0
1352.699951 132.0
1353.344238 136.0
1355.966797 200.0
1357.330322 120.0
1361.469238 220.0
1363.937866 152.0
1366.004272 192.0
1367.343384 160.0
1369.736328 200.0
1370.09729 160.0
1372.86145 164.0
1380.105591 176.0
1383.679199 172.0
1387.902466 188.0
1389.779175 108.0
1390.513794 156.0
1390.602905 168.0
1390.810669 112.0
1390.877441 132.0
1392.681885 124.0
1396.978394 96.0
1397.744751 88.0
1398.518677 136.0
1398.801514 268.0
1400.946289 208.0
1401.087769 88.0
1401.393311 48.0
1401.728638 176.0
1406.203247 132.0
1406.815308 168.0
1407.87561 172.0
1408.05481 148.0
1417.181274 136.0
1417.755859 244.0
1418.231445 156.0
1419.032593 52.0
1421.417847 156.0
1423.21936 236.0
1423.805054 204.0
1425.006958 236.0
1425.405273 128.0
1425.833618 108.0
1428.773682 140.0
1430.775635 136.0
1431.453247 148.0
1432.213989 248.0
1432.620728 224.0
1434.097656 416.0
1434.414185 116.0
1436.887817 176.0
1437.182129 164.0
1437.899048 96.0
1438.11792 132.0
1438.374512 172.0
1439.665649 184.0
1440.723022 160.0
1440.93457 204.0
1442.294922 128.0
1445.233521 216.0
1445.494019 216.0
1446.281128 160.0
1447.189575 104.0
1447.954468 244.0
1449.878784 172.0
1451.387329 76.0
1451.645142 56.0
1452.001587 52.0
1453.078735 72.0
1453.230591 188.0
1455.62915 116.0
1456.684937 144.0
1457.353394 128.0
1458.257812 152.0
1458.356567 180.0
1459.147217 148.0
1459.968384 128.0
1461.914429 176.0
1462.273682 184.0
1462.532471 48.0
1463.065308 156.0
1465.990234 128.0
1466.310303 188.0
1466.561768 168.0
1468.056152 120.0
1469.925049 220.0
1472.329834 160.0
1472.497803 144.0
1474.400269 124.0
1475.156982 120.0
1475.309814 204.0
1475.447388 184.0
1479.104126 72.0
1479.341431 136.0
1479.540527 44.0
1480.191284 112.0
1483.19458 172.0
1485.479736 168.0
1486.599854 144.0
1491.569214 40.0
1492.530151 164.0
1494.645508 164.0
1494.714844 168.0
1497.108887 176.0
1497.27832 152.0
1498.718872 168.0
1498.780518 188.0
1501.702271 140.0
1505.182861 236.0
