>compound MLS002222205-01!24526-64-5
>formula C16H18N2
>ionization [M+H]+
>parentmass 239.153015
#inchi InChI=1S/C16H18N2/c1-18-10-14(12-6-3-2-4-7-12)13-8-5-9-16(17)15(13)11-18/h2-9,14H,10-11,17H2,1H3
#inchikey XXPANQJNYNUNES
#origInchi InChI=1S/C16H18N2.C4H4O4/c1-18-10-14(12-6-3-2-4-7-12)13-8-5-9-16(17)15(13)11-18;5-3(6)1-2-4(7)8/h2-9,14H,10-11,17H2,1H3;1-2H,(H,5,6)(H,7,8)/p-2/b;2-1-
#Ion_Source LC-ESI
#Instrument qTof
#Compound_Source NIH Pharmacologically Active Library
#PI Dorrestein
#Data_Collector VP/LMS
#Scan -1
#Precursor_MZ 239.153
#ExactMass 238.147
#Charge 1
#CAS_Number N/A
#Pubmed_ID N/A
#Smiles CN1CC(c2ccccc2)c3cccc(N)c3C1.[O-]C(=O)/C=C\C(=O)[O-]
#INCHI_AUX N/A
#Library_Class 1
#SpectrumID CCMSLIB00000085964
#IonMode Positive
#UpdateWorkflowName UPDATE-SINGLE-ANNOTATED-GOLD
#LibraryQualityString Gold
#TaskID d252d724072548979f1f6f1ced849daf
##Scan# 1410
#SpectrumFile p4-H08_GH8_01_18416.mzXML
#LibraryName Pharm_Active_Library.mgf
#MQScore -1
#Organism Pharm_Active_Library
#TIC_Query 0
#RT_Query -1
#MZErrorPPM -1
#SharedPeaks 0
#MassDiff 0
#LibMZ -1
#SpecMZ 239.153
#SpecCharge 0
#internalFilename spec-00000.mgf

>collision 10
44.977859 108.0
45.015244 140.0
45.045963 188.0
45.063332 160.0
45.107433 184.0
45.11813 380.0
45.134174 196.0
45.214439 128.0
45.310852 108.0
45.365799 144.0
45.396637 152.0
45.414074 44.0
45.474449 160.0
45.48653 224.0
45.521439 156.0
45.608768 176.0
45.706192 200.0
45.7379 180.0
45.868565 116.0
45.976467 132.0
46.170654 136.0
46.233246 124.0
46.276562 148.0
46.299583 192.0
46.452747 188.0
46.464424 160.0
46.492096 136.0
46.626549 160.0
46.825188 152.0
47.205952 184.0
47.314045 156.0
47.326366 164.0
47.404446 52.0
47.419521 188.0
47.434601 104.0
47.466133 208.0
47.535603 168.0
47.574528 116.0
47.584137 52.0
47.619839 168.0
47.667923 168.0
47.772419 208.0
47.819206 220.0
47.839851 172.0
47.893559 184.0
47.970726 96.0
48.018986 268.0
48.035538 176.0
48.078312 72.0
48.285545 204.0
48.344006 220.0
48.376869 116.0
48.396255 76.0
48.42395 176.0
48.555618 224.0
48.648094 160.0
48.783886 160.0
48.79446 116.0
48.806976 260.0
48.971191 204.0
49.116154 176.0
49.293468 344.0
49.310238 124.0
49.373154 136.0
49.430508 92.0
49.4851 44.0
49.677101 104.0
49.713585 144.0
49.747269 212.0
49.77816 204.0
49.859638 144.0
49.929459 184.0
49.973545 192.0
49.983395 180.0
50.034065 140.0
50.35416 148.0
50.429047 164.0
50.560577 156.0
50.659695 68.0
50.754658 140.0
50.812172 196.0
50.894905 224.0
50.93774 136.0
50.963314 184.0
50.983208 208.0
51.001682 172.0
51.067089 132.0
51.088428 300.0
51.112614 160.0
51.122578 68.0
51.175243 164.0
51.239338 188.0
51.294918 200.0
51.323433 112.0
51.341969 32.0
51.447559 32.0
51.467548 200.0
51.601856 112.0
51.669079 88.0
51.742184 100.0
51.977135 116.0
52.035984 136.0
52.066139 184.0
52.131119 192.0
52.539715 144.0
52.55703 204.0
52.659527 152.0
52.689861 144.0
52.708645 160.0
52.744778 140.0
52.801167 172.0
52.814732 184.0
52.83733 204.0
52.941551 148.0
53.003841 136.0
53.053776 124.0
53.157551 188.0
53.179321 180.0
53.328926 420.0
53.360909 32.0
53.483109 56.0
53.522415 216.0
53.633137 160.0
53.673958 96.0
53.78484 176.0
53.815498 144.0
53.846165 160.0
53.882683 220.0
53.914829 228.0
53.965992 128.0
53.98354 160.0
53.998165 156.0
54.100594 148.0
54.143963 136.0
54.220707 188.0
54.433426 72.0
54.555378 164.0
54.66753 192.0
54.84832 136.0
54.970734 156.0
55.051926 88.0
55.074081 200.0
55.201183 244.0
55.214493 148.0
55.26479 92.0
55.513649 128.0
55.575951 140.0
55.624928 68.0
55.684319 200.0
55.88501 48.0
55.928165 100.0
56.068172 176.0
56.084568 168.0
56.123329 176.0
56.197906 180.0
56.256111 68.0
56.317337 164.0
56.445866 136.0
56.598495 132.0
56.608978 172.0
56.638931 172.0
56.664398 172.0
56.691372 180.0
56.794823 176.0
56.949425 260.0
57.017036 132.0
57.137333 172.0
57.149273 188.0
57.294601 156.0
57.360214 172.0
57.434101 164.0
57.467289 136.0
57.517094 104.0
57.585041 216.0
57.656048 176.0
57.757351 168.0
57.916286 304.0
58.072407 160.0
58.108814 212.0
58.222664 160.0
58.27219 212.0
58.327503 176.0
58.382236 44.0
58.409615 168.0
58.437 168.0
58.577885 160.0
58.628868 140.0
58.755428 196.0
58.793575 184.0
58.810844 216.0
58.900452 40.0
58.926426 116.0
58.938648 176.0
59.050247 148.0
59.200542 196.0
59.31514 176.0
59.381073 124.0
59.413288 168.0
59.424026 196.0
59.487011 200.0
60.017746 180.0
60.053215 136.0
60.084064 120.0
60.113384 52.0
60.150425 124.0
60.393024 144.0
60.467289 64.0
60.564835 120.0
60.681065 116.0
60.890553 192.0
60.909191 96.0
61.00243 152.0
61.263874 116.0
61.318413 80.0
61.330879 132.0
61.366737 156.0
61.498646 160.0
61.557102 236.0
61.625832 92.0
61.648865 184.0
61.764973 180.0
61.89957 232.0
61.97319 212.0
61.988861 44.0
62.17548 132.0
62.231991 160.0
62.247696 160.0
62.47403 156.0
62.687885 180.0
62.793793 132.0
62.872677 108.0
62.916874 156.0
62.935822 96.0
63.047981 76.0
63.101727 208.0
63.119118 164.0
63.198208 56.0
63.218777 192.0
63.242519 148.0
63.302681 132.0
63.326435 192.0
63.339108 168.0
63.389809 128.0
63.453209 220.0
63.543613 200.0
63.60392 168.0
63.661076 156.0
63.688076 152.0
63.713493 112.0
63.819981 144.0
63.854969 140.0
63.897919 100.0
63.958389 140.0
63.975903 132.0
64.096947 156.0
64.141571 132.0
64.256393 204.0
64.269157 168.0
64.340981 32.0
64.36174 172.0
64.3815 172.0
64.398468 180.0
64.475159 120.0
64.524712 232.0
64.583885 120.0
64.595078 116.0
64.606277 100.0
64.689499 144.0
64.759949 140.0
64.774368 132.0
64.798401 140.0
64.817627 168.0
64.880135 144.0
65.032532 68.0
65.09996 80.0
65.205994 120.0
65.41993 200.0
65.437637 120.0
65.521385 152.0
65.639046 192.0
65.892464 276.0
65.99752 184.0
66.042801 200.0
66.097809 132.0
66.164169 160.0
66.26297 64.0
66.279167 136.0
66.318062 204.0
66.407562 204.0
66.43644 120.0
66.524071 96.0
66.757324 216.0
66.777565 84.0
66.841011 180.0
66.8703 204.0
66.987541 216.0
66.998947 164.0
67.036423 188.0
67.186432 132.0
67.261497 148.0
67.281082 164.0
67.334969 160.0
67.48204 168.0
67.513115 232.0
67.527832 172.0
67.59491 284.0
67.670204 180.0
67.686577 192.0
67.888138 124.0
67.906296 164.0
67.94883 224.0
67.984352 80.0
68.190224 176.0
68.326706 148.0
68.338226 56.0
68.438629 208.0
68.473213 232.0
68.618225 240.0
68.639656 148.0
68.76339 80.0
68.847588 228.0
68.865799 152.0
68.97168 192.0
69.060791 88.0
69.178284 132.0
69.194832 156.0
69.214706 112.0
69.30912 160.0
69.3489 136.0
69.385635 220.0
69.428482 68.0
69.567856 172.0
69.619331 144.0
69.699066 188.0
69.835388 212.0
70.000153 144.0
70.042953 200.0
70.047409 140.0
70.052528 252.0
70.121765 104.0
70.141769 168.0
70.26017 148.0
70.278526 140.0
70.455505 116.0
70.500618 128.0
70.524017 144.0
70.6026 136.0
70.766586 160.0
70.778313 48.0
70.853683 224.0
71.012932 212.0
71.051514 160.0
71.090103 164.0
71.263062 120.0
71.38913 176.0
71.4338 180.0
71.525414 220.0
71.759583 80.0
71.780624 184.0
71.919846 208.0
72.031296 188.0
72.085358 176.0
72.115784 176.0
72.234146 240.0
72.289978 176.0
72.320442 156.0
72.340752 212.0
72.352608 212.0
72.401711 204.0
72.453873 176.0
72.544044 192.0
72.564384 140.0
72.640701 144.0
72.657379 212.0
72.730637 168.0
72.769684 332.0
72.829124 144.0
72.851204 116.0
72.965073 220.0
73.022888 132.0
73.189659 188.0
73.223724 108.0
73.28334 148.0
73.303902 248.0
73.328506 168.0
73.389023 144.0
73.464066 176.0
73.544266 160.0
73.556213 172.0
73.586945 168.0
73.615974 164.0
73.634758 56.0
73.646713 196.0
73.670631 216.0
73.709923 192.0
73.80394 144.0
73.925392 116.0
73.940796 208.0
73.988724 184.0
74.235466 128.0
74.256042 188.0
74.362419 192.0
74.419067 112.0
74.432808 140.0
74.463142 168.0
74.48645 172.0
74.547897 204.0
74.597061 188.0
74.609779 148.0
74.668243 168.0
74.740494 48.0
74.985039 52.0
75.029854 176.0
75.193726 136.0
75.478821 156.0
75.540573 208.0
75.608521 172.0
75.751549 228.0
75.823273 120.0
75.856209 140.0
75.88221 140.0
75.988014 36.0
76.076523 156.0
76.224159 40.0
76.243271 184.0
76.326714 176.0
76.373482 184.0
76.378593 164.0
76.434563 48.0
76.619125 164.0
76.699287 164.0
76.755074 108.0
76.984459 168.0
77.25985 60.0
77.297485 204.0
77.324593 188.0
77.412949 128.0
77.440147 172.0
77.476936 164.0
77.547028 200.0
77.59436 124.0
77.629601 120.0
77.659241 188.0
77.68029 136.0
77.708359 184.0
77.794357 192.0
78.033287 196.0
78.063179 156.0
78.191605 100.0
78.27787 100.0
78.332474 124.0
78.362419 68.0
78.42939 148.0
78.484039 140.0
78.496384 220.0
78.529892 180.0
78.595161 88.0
78.621635 176.0
78.63575 76.0
78.754051 64.0
78.785851 88.0
78.904259 200.0
78.918404 144.0
78.999756 152.0
79.072311 196.0
79.091774 148.0
79.121872 152.0
79.14666 84.0
79.187393 116.0
79.206879 104.0
79.362831 172.0
79.453285 60.0
79.485222 88.0
79.547348 164.0
79.61837 176.0
79.696533 116.0
79.764061 164.0
79.828072 200.0
79.865639 128.0
79.893883 180.0
79.925911 96.0
79.988518 224.0
80.0149 60.0
80.116417 68.0
80.378517 160.0
80.393814 188.0
80.471329 36.0
80.607048 188.0
80.664276 64.0
80.717911 140.0
80.751892 148.0
80.769775 120.0
80.797615 164.0
80.96666 40.0
81.007858 192.0
81.0634 92.0
81.077736 196.0
81.110001 500.0
81.262978 240.0
81.379105 52.0
81.479683 120.0
81.510231 148.0
81.592911 160.0
81.648651 220.0
81.673836 184.0
81.760193 192.0
81.801598 120.0
81.850204 160.0
81.897034 180.0
81.956482 184.0
82.017754 116.0
82.071838 164.0
82.095398 184.0
82.281136 172.0
82.358788 228.0
82.615479 196.0
82.635384 112.0
82.662521 72.0
82.829094 236.0
82.883438 164.0
82.923309 176.0
82.946877 188.0
83.006706 192.0
83.153656 112.0
83.200851 116.0
83.219002 40.0
83.429756 180.0
83.524323 60.0
83.654335 176.0
83.68811 172.0
83.826546 84.0
83.841125 124.0
83.89946 212.0
83.992462 164.0
84.045364 168.0
84.078217 144.0
84.095871 208.0
84.18045 228.0
84.194847 172.0
84.222458 104.0
84.370094 252.0
84.533264 156.0
84.558884 188.0
84.573524 152.0
84.586342 100.0
84.602814 148.0
84.632111 144.0
84.731277 168.0
84.745674 192.0
84.842812 196.0
84.869469 196.0
84.89048 180.0
84.915939 268.0
84.951736 152.0
85.189659 124.0
85.272346 32.0
85.323814 156.0
85.415771 136.0
85.45256 204.0
85.550102 140.0
85.623756 136.0
85.708496 240.0
85.796448 156.0
85.835686 104.0
85.92791 244.0
85.975891 180.0
86.145477 156.0
86.250053 200.0
86.33551 164.0
86.360184 168.0
86.384956 164.0
86.404579 148.0
86.567467 144.0
86.736824 176.0
86.841759 124.0
87.005058 172.0
87.413391 128.0
87.460503 164.0
87.65419 120.0
87.687737 140.0
87.739929 208.0
87.814522 192.0
87.840637 44.0
88.141228 156.0
88.219727 232.0
88.279854 252.0
88.384315 220.0
88.438583 244.0
88.698685 240.0
88.760818 148.0
88.869614 196.0
89.044197 276.0
89.181564 216.0
89.296051 88.0
89.344955 96.0
89.360008 144.0
89.373177 204.0
89.487991 112.0
89.527534 84.0
89.578392 148.0
89.617958 192.0
89.861618 192.0
89.914017 140.0
89.929115 212.0
89.981972 180.0
90.097183 180.0
90.131187 72.0
90.191666 200.0
90.23893 68.0
90.452705 88.0
90.471634 112.0
90.596626 176.0
90.619362 168.0
90.643684 220.0
90.73877 216.0
90.766937 140.0
90.873428 276.0
90.911118 144.0
90.93795 116.0
90.951241 196.0
90.994904 44.0
91.054512 5296.0
91.146858 60.0
91.369316 112.0
91.502541 156.0
91.561569 168.0
91.603477 100.0
91.639671 188.0
91.864639 112.0
91.89798 236.0
91.931419 164.0
92.019226 244.0
92.034157 200.0
92.056686 556.0
92.187317 124.0
92.44931 84.0
92.627373 56.0
92.69635 196.0
92.851143 140.0
92.903427 140.0
92.947556 212.0
93.057884 488.0
93.101128 156.0
93.141464 172.0
93.477921 192.0
93.522186 100.0
93.567085 136.0
93.631927 148.0
93.704079 132.0
93.922974 208.0
94.038742 148.0
94.065674 416.0
94.170036 180.0
94.284027 112.0
94.523827 52.0
94.545113 136.0
94.667076 64.0
94.707748 188.0
94.897667 136.0
95.021797 196.0
95.082504 112.0
95.447166 144.0
95.519173 192.0
95.538582 176.0
95.702072 148.0
95.719597 188.0
95.778023 132.0
95.79361 200.0
95.813087 156.0
95.859848 140.0
95.90078 140.0
96.029465 220.0
96.062622 128.0
96.093842 104.0
96.132866 172.0
96.153625 204.0
96.271469 136.0
96.291 152.0
96.316391 136.0
96.359367 168.0
96.431671 44.0
96.486252 148.0
96.493828 136.0
96.640923 180.0
96.824928 208.0
96.907402 160.0
97.116966 112.0
97.209175 160.0
97.252357 44.0
97.344627 84.0
97.366234 208.0
97.450699 112.0
97.682686 144.0
97.699104 104.0
97.741707 188.0
97.828308 92.0
97.853905 52.0
97.887375 208.0
97.997681 176.0
98.064682 196.0
98.112938 188.0
98.244125 136.0
98.34082 44.0
98.365875 248.0
98.411888 180.0
98.459282 60.0
98.521576 104.0
98.546196 108.0
98.605484 188.0
98.659523 176.0
98.674667 124.0
98.797287 112.0
98.81707 208.0
98.896233 176.0
98.981361 72.0
99.017006 244.0
99.112091 124.0
99.518715 256.0
99.623978 164.0
99.782967 128.0
99.98587 136.0
100.103325 48.0
100.206902 156.0
100.332466 224.0
100.420204 40.0
100.619629 124.0
100.829498 176.0
100.891464 152.0
101.060287 144.0
101.123505 200.0
101.137512 84.0
101.255333 108.0
101.279678 232.0
101.309731 176.0
101.361824 184.0
101.405914 164.0
101.472557 164.0
101.536232 152.0
101.558296 116.0
101.656601 108.0
101.672661 164.0
101.732872 184.0
101.762993 184.0
101.895546 176.0
101.965881 140.0
102.048065 136.0
102.053123 140.0
102.06102 208.0
102.132767 208.0
102.277641 92.0
102.301796 104.0
102.329979 168.0
102.412544 188.0
102.426651 140.0
102.577782 72.0
102.616081 160.0
102.670532 168.0
102.84404 148.0
102.888451 52.0
102.932877 208.0
102.985382 136.0
103.019035 144.0
103.054352 2748.0
103.090439 120.0
103.155121 60.0
103.185448 224.0
103.282516 84.0
103.476791 164.0
103.492989 192.0
103.561844 168.0
103.859802 188.0
103.938927 144.0
104.047462 412.0
104.056534 144.0
104.064674 448.0
104.174438 228.0
104.194756 152.0
104.267906 56.0
104.422424 124.0
104.499733 164.0
104.518044 152.0
104.597412 212.0
104.847939 148.0
104.882591 152.0
104.91317 156.0
105.000847 176.0
105.028671 144.0
105.056946 396.0
105.071312 764.0
105.34581 172.0
105.403015 188.0
105.423454 164.0
105.499077 124.0
105.521568 380.0
105.566551 116.0
105.670876 104.0
105.754776 200.0
105.822334 164.0
105.967751 48.0
105.988243 140.0
106.014885 156.0
106.030502 180.0
106.065346 5156.0
106.128609 152.0
106.220596 168.0
106.246582 156.0
106.29583 120.0
106.431305 116.0
106.564926 144.0
106.590775 228.0
106.610023 148.0
106.667572 192.0
106.790947 144.0
106.854713 184.0
106.871178 68.0
106.914391 168.0
106.943207 164.0
106.961731 108.0
107.071686 808.0
107.151192 172.0
107.221252 152.0
107.243927 160.0
107.272781 80.0
107.344948 132.0
107.474899 128.0
107.501724 144.0
107.809433 240.0
107.95414 160.0
107.989296 144.0
108.051361 116.0
108.079819 344.0
108.107224 168.0
108.126343 128.0
108.18174 140.0
108.34742 120.0
108.380722 200.0
108.469688 44.0
108.540176 220.0
108.641808 132.0
108.809914 196.0
108.980225 244.0
109.023079 152.0
109.040489 136.0
109.088135 156.0
109.161064 160.0
109.217697 140.0
109.394096 260.0
109.419075 140.0
109.544029 188.0
109.587784 156.0
109.650497 168.0
109.706581 184.0
109.771217 80.0
109.802498 124.0
110.002808 240.0
110.113472 172.0
110.46463 212.0
110.542046 204.0
110.57972 132.0
110.625771 156.0
110.666168 124.0
110.738846 156.0
110.95887 124.0
111.007103 96.0
111.046944 160.0
111.132957 80.0
111.227394 140.0
111.294579 132.0
111.313477 72.0
111.361778 172.0
111.424797 220.0
111.45842 400.0
111.586632 148.0
111.665894 116.0
111.685471 184.0
111.704407 136.0
111.904335 200.0
112.228813 40.0
112.343575 280.0
112.422882 32.0
112.462715 252.0
112.720406 180.0
112.854408 232.0
112.940521 240.0
112.970131 152.0
113.016678 124.0
113.097099 140.0
113.154259 140.0
113.209312 152.0
113.260139 172.0
113.285561 92.0
113.404221 128.0
113.539917 88.0
113.633644 216.0
114.011223 184.0
114.174927 184.0
114.321716 40.0
114.383438 132.0
114.613457 164.0
114.628372 156.0
114.668861 204.0
114.888496 132.0
115.019409 288.0
115.05455 5092.0
115.098549 192.0
115.113724 268.0
115.20018 180.0
115.281372 160.0
115.332664 188.0
115.366867 196.0
115.407486 156.0
115.439568 160.0
115.454536 76.0
115.484474 96.0
115.571396 184.0
115.803391 152.0
115.940514 160.0
115.957657 136.0
115.989807 64.0
116.026253 68.0
116.054741 536.0
116.112022 76.0
116.146339 112.0
116.176376 320.0
116.20903 180.0
116.249329 168.0
116.355705 172.0
116.449181 176.0
116.597237 220.0
116.68322 168.0
116.713318 184.0
116.874641 148.0
116.913376 156.0
116.93705 196.0
116.991119 172.0
117.021004 120.0
117.057556 8720.0
117.132996 28.0
117.225639 132.0
117.32048 200.0
117.391632 84.0
117.406723 412.0
117.43261 100.0
117.518898 236.0
117.534004 44.0
117.568527 120.0
117.688622 196.0
117.773636 144.0
117.83197 216.0
117.922729 228.0
117.957314 152.0
117.983253 144.0
118.001633 224.0
118.022758 148.0
118.065689 32816.0
118.135475 72.0
118.152809 60.0
118.173576 108.0
118.190887 152.0
118.238495 52.0
118.253647 56.0
118.287445 212.0
118.305756 56.0
118.415733 88.0
118.437691 96.0
118.452858 104.0
118.515686 120.0
118.535843 92.0
118.554688 48.0
118.582863 84.0
118.626213 184.0
118.663071 48.0
118.775841 84.0
118.814888 104.0
118.870216 128.0
118.900154 136.0
118.923393 32.0
118.940758 80.0
118.977661 100.0
119.001541 196.0
119.037346 212.0
119.068542 3400.0
119.10144 56.0
119.131851 136.0
119.162399 196.0
119.214417 140.0
119.250221 152.0
119.292664 180.0
119.397034 188.0
119.573257 116.0
119.690811 52.0
119.736549 120.0
119.767036 188.0
119.810608 100.0
119.844604 116.0
119.884689 68.0
119.899948 100.0
119.964279 140.0
119.980598 36.0
120.004578 104.0
120.02475 140.0
120.046936 188.0
120.081032 4936.0
120.163803 80.0
120.216171 240.0
120.253273 112.0
120.48037 120.0
120.519699 124.0
120.623474 116.0
120.733925 32.0
120.775482 272.0
120.795166 252.0
120.832359 100.0
120.900192 232.0
120.9571 116.0
121.022781 132.0
121.083168 320.0
121.198006 116.0
121.222115 100.0
121.303207 56.0
121.412842 192.0
121.704697 80.0
121.762863 140.0
121.950745 76.0
122.085892 168.0
122.199242 112.0
122.241051 48.0
122.304878 208.0
122.397339 76.0
122.518478 136.0
122.544922 136.0
122.624252 156.0
122.65731 88.0
122.789612 176.0
122.866814 124.0
123.153786 160.0
123.339394 140.0
123.480904 208.0
124.021149 192.0
124.10318 148.0
124.129784 112.0
124.167488 208.0
124.183014 156.0
124.384933 184.0
124.535927 156.0
124.702568 148.0
124.795837 92.0
124.819366 156.0
124.931786 144.0
124.948578 108.0
124.964233 204.0
125.390305 100.0
125.41259 108.0
125.597664 168.0
125.637817 168.0
125.756081 200.0
125.809654 132.0
125.999489 84.0
126.247604 140.0
126.267731 128.0
126.42881 244.0
126.489243 180.0
126.659424 160.0
126.678444 244.0
126.820755 124.0
126.865631 220.0
126.875999 224.0
126.953033 132.0
127.0084 228.0
127.054527 420.0
127.103333 124.0
127.296387 136.0
127.312103 140.0
127.377235 60.0
127.401947 152.0
127.419922 68.0
127.464859 184.0
127.599724 128.0
127.894417 160.0
127.92672 160.0
128.063416 840.0
128.112854 176.0
128.160156 148.0
128.428436 48.0
128.489349 292.0
128.538986 172.0
128.622498 240.0
128.728607 112.0
128.745285 188.0
128.816696 216.0
128.977478 212.0
129.069946 516.0
129.11731 396.0
129.167068 196.0
129.48848 188.0
129.524719 116.0
129.641327 164.0
129.814835 44.0
129.8806 44.0
129.939301 124.0
129.996307 172.0
130.014465 136.0
130.065262 11216.0
130.109802 32.0
130.166565 164.0
130.200638 60.0
130.224396 56.0
130.264236 60.0
130.296036 244.0
130.328476 144.0
130.357391 64.0
130.48468 112.0
130.593826 96.0
130.630219 148.0
130.666626 152.0
130.787231 68.0
130.84642 176.0
130.928391 108.0
130.964844 152.0
130.992172 148.0
131.069321 2104.0
131.147125 128.0
131.270233 152.0
131.35463 192.0
131.40007 156.0
131.553162 76.0
131.804398 120.0
131.968964 48.0
132.005554 56.0
132.039246 180.0
132.080841 6208.0
132.110001 200.0
132.192322 56.0
132.236618 168.0
132.270767 48.0
132.289261 132.0
132.466644 184.0
132.612244 36.0
132.645248 172.0
132.901657 200.0
132.933319 128.0
133.076965 1996.0
133.156006 80.0
133.183578 52.0
133.371994 60.0
133.394974 148.0
133.463959 56.0
133.516846 136.0
133.539841 112.0
133.756134 144.0
133.880463 156.0
133.974899 224.0
134.014069 108.0
134.069489 236.0
134.094727 312.0
134.219208 176.0
134.309158 240.0
134.417587 60.0
134.643829 128.0
134.733917 100.0
134.796295 164.0
134.851761 132.0
134.899872 244.0
134.967361 180.0
135.020538 120.0
135.052933 188.0
135.094559 228.0
135.201004 84.0
135.270432 128.0
135.312103 44.0
135.363052 196.0
135.411682 116.0
135.434845 152.0
135.458008 140.0
135.508011 116.0
135.569229 164.0
135.613251 236.0
135.664261 216.0
135.699036 192.0
135.791794 52.0
135.866013 36.0
135.958832 132.0
136.030792 204.0
136.102753 184.0
136.285767 228.0
136.400131 128.0
136.523361 64.0
136.541977 168.0
136.572205 76.0
136.609421 180.0
136.637344 188.0
136.816544 84.0
136.856125 124.0
137.037796 60.0
137.084412 184.0
137.133347 192.0
137.177689 164.0
137.246689 200.0
137.833466 116.0
137.852173 136.0
137.945663 108.0
138.047455 188.0
138.06958 120.0
138.261429 168.0
138.280151 164.0
138.359741 100.0
138.462769 272.0
138.551773 136.0
138.748703 152.0
138.919846 112.0
138.959717 208.0
139.05365 172.0
139.121658 64.0
139.408218 200.0
139.499878 208.0
139.756241 176.0
139.784302 188.0
139.928055 248.0
139.944534 56.0
140.012833 164.0
140.045639 124.0
140.05864 204.0
140.109406 176.0
140.371033 132.0
140.411133 204.0
140.559753 164.0
140.720261 120.0
140.919403 164.0
140.987183 76.0
141.010818 188.0
141.06958 944.0
141.161331 240.0
141.315872 224.0
141.502853 144.0
141.720749 168.0
141.938629 148.0
142.032013 152.0
142.063614 160.0
142.093002 108.0
142.126221 136.0
142.21402 80.0
142.263214 200.0
142.430099 168.0
142.491867 136.0
142.70816 184.0
142.765228 64.0
142.834671 164.0
142.886536 236.0
143.083298 364.0
143.131699 140.0
143.189819 216.0
143.334167 148.0
143.360382 192.0
143.388977 60.0
143.422348 212.0
144.016479 128.0
144.07309 472.0
144.138321 108.0
144.253052 124.0
144.53598 108.0
144.712387 40.0
145.074722 608.0
145.158081 84.0
145.182053 100.0
145.505997 128.0
145.63327 164.0
145.726959 68.0
145.743774 160.0
145.767807 200.0
145.904816 128.0
145.936066 56.0
145.972137 144.0
146.05632 232.0
146.082977 1560.0
146.116455 184.0
146.145325 204.0
146.301773 204.0
146.441437 244.0
146.692032 148.0
146.86235 76.0
146.906662 144.0
147.022476 32.0
147.058685 92.0
147.091782 3912.0
147.174561 36.0
147.218018 156.0
147.28302 180.0
147.314636 152.0
147.341217 228.0
147.442703 48.0
147.703827 96.0
147.769272 160.0
147.873199 192.0
147.955505 168.0
148.097153 264.0
148.129868 48.0
148.272827 144.0
148.357666 196.0
148.537109 184.0
148.648727 208.0
148.714249 128.0
148.813782 100.0
148.840485 232.0
148.903625 176.0
149.212234 124.0
149.324097 208.0
149.416534 116.0
149.562546 124.0
149.642883 136.0
149.757339 228.0
150.052246 212.0
150.1595 104.0
150.205841 140.0
150.295624 160.0
150.349792 36.0
150.398605 48.0
150.555695 212.0
150.865189 132.0
150.964615 72.0
151.054153 424.0
151.287018 172.0
151.315338 144.0
151.415741 116.0
151.562729 152.0
151.793137 136.0
151.925903 188.0
152.063248 1496.0
152.482346 184.0
152.529694 88.0
152.600983 200.0
152.624542 216.0
152.672302 172.0
152.732864 160.0
152.977722 156.0
153.036484 152.0
153.069443 1008.0
153.130066 92.0
153.18425 76.0
153.359207 132.0
153.38385 132.0
153.581116 96.0
153.637863 164.0
153.664993 60.0
153.682266 48.0
153.76123 156.0
153.800674 176.0
154.068787 696.0
154.126724 104.0
154.167786 104.0
154.257706 52.0
154.398651 172.0
154.742615 108.0
155.051315 212.0
155.089676 264.0
155.267944 128.0
155.329956 76.0
155.556992 188.0
155.794174 140.0
155.843857 140.0
155.928345 156.0
156.007629 188.0
156.030273 48.0
156.083984 908.0
156.179474 160.0
156.261566 104.0
156.503006 204.0
156.530396 176.0
156.694778 160.0
156.804428 56.0
156.839325 184.0
156.871735 84.0
156.902847 56.0
156.973953 112.0
157.098663 192.0
157.128342 152.0
157.370697 136.0
157.450607 84.0
157.570511 220.0
157.593002 108.0
157.627975 80.0
157.892975 236.0
157.932983 160.0
158.000534 52.0
158.155685 152.0
158.220764 124.0
158.240799 224.0
158.305908 112.0
158.5439 200.0
158.581497 120.0
158.694305 196.0
158.741943 108.0
158.945129 136.0
159.045517 188.0
159.09108 1740.0
159.131805 260.0
159.213943 96.0
159.299133 64.0
159.316727 200.0
159.377029 124.0
159.510223 172.0
159.618332 192.0
159.867371 148.0
159.952408 148.0
160.09668 140.0
160.260895 160.0
160.709015 148.0
160.741074 192.0
160.767471 140.0
160.794495 160.0
160.855392 48.0
160.883163 60.0
161.077606 204.0
161.107254 764.0
161.143295 100.0
161.164093 104.0
161.506653 208.0
161.52504 152.0
161.6642 120.0
161.735062 176.0
161.937622 184.0
162.044022 180.0
162.120041 224.0
162.203674 156.0
162.495316 40.0
162.563828 148.0
162.647583 100.0
162.693283 196.0
162.756744 88.0
162.952332 196.0
163.054688 168.0
163.079391 84.0
163.148026 160.0
163.168365 128.0
163.224304 164.0
163.292969 108.0
163.460876 112.0
163.588135 208.0
163.654327 92.0
163.707794 208.0
163.751099 144.0
163.802032 56.0
164.060455 604.0
164.084915 184.0
164.417282 236.0
164.48288 152.0
164.508408 32.0
164.546707 92.0
164.638626 76.0
164.705048 124.0
164.748474 200.0
164.794449 160.0
164.863449 180.0
164.992386 136.0
165.013733 176.0
165.07016 4720.0
165.107178 192.0
165.505524 132.0
165.638702 152.0
165.923157 136.0
165.959061 264.0
166.076569 1660.0
166.161682 204.0
166.282288 200.0
166.302811 52.0
166.364426 108.0
166.384964 48.0
166.616104 136.0
166.662354 252.0
166.893692 148.0
167.004272 52.0
167.07872 1888.0
167.125183 228.0
167.156052 144.0
167.207535 148.0
167.282181 132.0
167.380005 60.0
167.665955 132.0
167.702042 44.0
167.936676 60.0
167.962463 88.0
168.080627 460.0
168.135345 60.0
168.243759 108.0
168.432266 168.0
168.73204 168.0
168.804443 200.0
169.057709 192.0
169.091705 336.0
169.2547 144.0
169.272827 88.0
169.443771 56.0
169.500778 116.0
169.53447 136.0
169.708145 144.0
169.772964 148.0
169.798904 192.0
169.928604 120.0
170.10112 328.0
170.186386 188.0
170.234894 212.0
170.279221 184.0
170.653259 160.0
170.853516 216.0
171.038284 164.0
171.486298 160.0
171.548859 208.0
171.856598 164.0
171.895752 60.0
172.167236 112.0
172.742264 256.0
172.802444 72.0
172.844299 204.0
172.928055 64.0
173.019669 120.0
173.134888 116.0
173.166306 120.0
173.213455 216.0
173.247513 164.0
173.45192 216.0
173.93457 148.0
173.954147 88.0
174.22081 108.0
174.360077 128.0
174.670334 172.0
174.817673 68.0
175.007202 136.0
175.14415 132.0
175.175751 76.0
175.249527 208.0
175.428741 68.0
175.510468 220.0
175.53157 188.0
175.555298 156.0
175.594666 168.0
175.639694 100.0
175.689819 80.0
175.73204 148.0
175.803284 136.0
175.842865 144.0
175.908859 148.0
176.062698 960.0
176.109543 196.0
176.244278 92.0
176.307693 176.0
176.529755 148.0
176.553558 164.0
176.627625 204.0
176.648788 176.0
176.884293 132.0
176.990204 132.0
177.014023 144.0
177.070343 1752.0
177.119965 164.0
177.163803 88.0
177.382309 68.0
177.522827 160.0
177.591782 44.0
177.620956 260.0
177.696365 260.0
177.84201 144.0
177.886322 124.0
177.971283 192.0
178.003143 132.0
178.077621 24496.0
178.116211 280.0
178.125916 300.0
178.176086 144.0
178.20929 72.0
178.242676 164.0
178.295227 76.0
178.302155 72.0
178.351059 88.0
178.401688 48.0
178.471252 24.0
178.518295 48.0
178.651672 116.0
178.747452 72.0
178.875198 108.0
178.912476 168.0
179.018204 68.0
179.037628 72.0
179.085297 17740.0
179.177658 188.0
179.222427 64.0
179.29071 36.0
179.320023 56.0
179.404221 96.0
179.471985 52.0
179.517502 68.0
179.573318 96.0
179.623856 140.0
179.658676 32.0
179.704041 40.0
179.736053 148.0
179.786438 136.0
179.845474 48.0
179.866821 156.0
179.933563 132.0
179.977051 280.0
179.99498 232.0
180.013809 156.0
180.048004 168.0
180.081482 35160.0
180.173935 176.0
180.21936 48.0
180.25943 164.0
180.278137 80.0
180.31871 112.0
180.360611 248.0
180.39682 60.0
180.431686 220.0
180.467926 80.0
180.494675 28.0
180.553497 64.0
180.574905 88.0
180.61235 68.0
180.722031 56.0
180.750824 416.0
180.773865 76.0
180.802307 56.0
180.860336 176.0
180.871277 120.0
180.880432 148.0
180.929779 148.0
180.957626 188.0
180.988312 200.0
181.021118 136.0
181.053116 164.0
181.088425 41464.0
181.142136 100.0
181.174927 76.0
181.21373 212.0
181.282578 104.0
181.321182 92.0
181.339752 96.0
181.380844 96.0
181.41301 52.0
181.453903 48.0
181.524185 112.0
181.560486 92.0
181.595352 84.0
181.618149 128.0
181.729492 44.0
181.777786 44.0
181.801941 148.0
181.831635 64.0
181.854614 96.0
181.916367 108.0
182.016693 84.0
182.09227 3056.0
182.13295 236.0
182.210083 56.0
182.238831 80.0
182.28801 32.0
182.332504 100.0
182.40184 116.0
182.443893 104.0
182.470779 92.0
182.51918 104.0
182.566742 76.0
182.573761 108.0
182.612976 160.0
182.635635 136.0
182.667099 184.0
182.685928 64.0
182.726288 44.0
182.780106 44.0
182.868912 88.0
182.909286 36.0
183.097427 428.0
183.189346 44.0
183.244431 36.0
183.310593 60.0
183.395966 176.0
183.423782 152.0
183.453445 156.0
183.492126 148.0
183.561295 28.0
183.593643 60.0
183.669174 88.0
183.879623 60.0
183.944412 68.0
184.109634 224.0
184.23877 28.0
184.306305 76.0
184.390411 100.0
184.91748 40.0
185.03389 56.0
185.432083 152.0
185.567627 64.0
185.901276 188.0
186.13472 200.0
186.183609 92.0
186.523239 52.0
186.806046 160.0
187.116302 172.0
187.644852 256.0
187.917603 76.0
188.135941 212.0
188.357132 44.0
188.477341 152.0
188.562057 44.0
188.722229 224.0
188.756165 124.0
188.816315 88.0
188.871017 152.0
188.917526 52.0
189.067902 604.0
189.098129 232.0
189.155609 84.0
189.207626 44.0
189.333572 224.0
189.374664 132.0
189.610291 140.0
189.670593 80.0
189.719925 28.0
190.075821 1488.0
190.125885 180.0
190.145096 120.0
190.180786 212.0
190.268616 60.0
190.331772 52.0
190.389435 196.0
190.44986 56.0
190.628448 56.0
190.7164 32.0
191.084625 1592.0
191.186707 112.0
191.214233 140.0
191.61351 92.0
191.759567 56.0
191.880859 180.0
191.991074 136.0
192.081741 1480.0
192.134583 120.0
192.187012 72.0
192.3526 104.0
192.537598 88.0
192.565216 96.0
192.590073 168.0
192.802811 208.0
192.835983 68.0
192.910614 144.0
192.963135 152.0
193.001846 72.0
193.021912 172.0
193.088257 11492.0
193.132736 176.0
193.157883 124.0
193.192963 40.0
193.319962 88.0
193.397461 112.0
193.468491 188.0
193.502655 96.0
193.546951 184.0
193.571869 68.0
193.738068 104.0
193.948669 124.0
193.998566 136.0
194.095749 11332.0
194.199432 100.0
194.27034 52.0
194.450699 120.0
194.490631 88.0
194.561905 132.0
194.616379 76.0
194.781113 40.0
194.806122 48.0
194.899673 172.0
195.036758 32.0
195.06601 192.0
195.102249 5128.0
195.209137 72.0
195.228592 104.0
195.364899 112.0
195.406616 96.0
195.428879 88.0
195.573593 32.0
195.604218 144.0
195.629272 96.0
195.650558 192.0
195.687729 136.0
195.722305 192.0
195.768402 124.0
195.813049 200.0
195.842987 128.0
196.003677 176.0
196.049606 240.0
196.11171 16700.0
196.239914 44.0
196.268417 108.0
196.303543 52.0
196.392792 156.0
196.45694 76.0
196.490417 72.0
196.523895 44.0
196.554596 40.0
196.629944 88.0
196.702515 56.0
196.755554 52.0
196.94429 124.0
197.012497 108.0
197.114853 1804.0
197.222076 88.0
197.273865 76.0
197.381424 48.0
197.470917 164.0
197.518234 48.0
197.546448 116.0
197.588409 116.0
197.760651 64.0
198.025101 80.0
198.074173 144.0
198.126221 772.0
198.159561 92.0
198.204391 224.0
198.271652 76.0
198.380966 196.0
198.417404 60.0
198.446762 128.0
198.470688 76.0
198.568893 128.0
198.650177 92.0
198.717514 248.0
198.801697 80.0
198.88028 40.0
198.944839 56.0
199.127365 168.0
199.28186 64.0
199.768234 128.0
199.813248 44.0
199.900482 36.0
200.179169 40.0
202.124115 152.0
202.172226 112.0
203.087357 152.0
203.183807 128.0
204.072784 296.0
204.331604 72.0
205.006454 140.0
205.029251 152.0
205.078598 356.0
205.103775 216.0
205.620224 148.0
206.095413 1788.0
206.13652 80.0
206.539642 52.0
206.639771 28.0
206.665512 48.0
206.685547 200.0
206.831512 56.0
206.988968 168.0
207.102173 936.0
207.169418 180.0
207.414398 236.0
207.694 184.0
208.111572 5688.0
208.170425 156.0
208.296799 64.0
208.380112 64.0
208.529541 108.0
208.561005 72.0
208.664642 116.0
209.055847 72.0
209.109787 1812.0
209.217041 116.0
209.349487 48.0
209.637558 40.0
209.817032 212.0
210.064285 72.0
210.125488 2740.0
210.166336 108.0
210.240295 48.0
210.540543 104.0
210.586746 96.0
210.652878 112.0
211.095398 88.0
211.129227 688.0
212.131927 156.0
214.052414 164.0
215.499207 64.0
215.610245 128.0
215.692078 188.0
216.309296 40.0
216.824814 220.0
217.220642 128.0
217.898804 136.0
219.972076 124.0
220.051788 156.0
220.211258 120.0
221.113022 180.0
221.633789 112.0
222.119202 336.0
223.123276 968.0
223.159866 148.0
224.019974 156.0
224.12973 1148.0
224.231537 100.0
224.473007 184.0
224.499847 132.0
225.087723 84.0
225.126556 440.0
225.586685 64.0
227.654099 112.0
230.138367 40.0
230.794052 136.0
230.966431 144.0
232.708984 68.0
233.313599 72.0
233.42305 136.0
235.040558 108.0
235.119904 184.0
235.391602 80.0
236.590164 116.0
237.137894 1524.0
237.764145 60.0
237.886932 120.0
238.145599 496.0
238.194016 156.0
238.485916 168.0
238.771866 108.0
238.996429 120.0
239.153015 9500.0
239.260818 120.0
239.30423 44.0
239.338089 76.0
239.37027 152.0
239.427399 36.0
239.45636 148.0
239.525955 68.0
239.612213 44.0
239.639954 108.0
239.673843 48.0
239.817657 72.0
239.829727 48.0
239.917328 84.0
239.988235 36.0
240.031403 216.0
240.155746 1580.0
240.296677 64.0
240.543564 48.0
241.013 60.0
241.16185 196.0
241.31282 60.0
241.34993 52.0
241.46434 120.0
241.501465 108.0
241.714935 152.0
241.885147 36.0
242.672058 32.0
243.043015 96.0
244.887772 92.0
245.3022 52.0
246.041565 80.0
248.915894 88.0
251.030579 76.0
251.28923 96.0
253.322067 92.0
253.895767 136.0
258.300812 84.0
261.293945 76.0
268.064636 60.0
269.941681 68.0
270.020172 120.0
276.951965 60.0
279.455078 44.0
280.890961 36.0
291.140228 88.0
293.048553 52.0
298.728363 36.0
305.839508 108.0
311.746796 80.0
318.630096 92.0
325.243866 112.0
326.332367 64.0
331.160889 68.0
342.421631 64.0
346.696198 96.0
350.643097 76.0
363.125977 28.0
372.059113 104.0
375.063538 88.0
380.390137 44.0
382.201233 48.0
383.899658 128.0
385.297028 64.0
404.082001 76.0
405.05481 80.0
405.335266 68.0
408.189362 48.0
409.960632 64.0
416.823914 100.0
423.465607 56.0
425.778778 76.0
434.463684 40.0
441.139374 80.0
452.198059 124.0
456.385162 100.0
459.221405 140.0
466.328918 72.0
467.150208 92.0
472.313751 100.0
484.262085 100.0
494.481293 120.0
504.158997 80.0
508.157715 44.0
535.936646 40.0
538.27533 60.0
553.82782 100.0
558.978088 36.0
579.956482 88.0
604.659485 144.0
610.069824 156.0
625.862854 100.0
627.716553 212.0
631.157043 92.0
640.290466 60.0
649.339111 56.0
652.638184 60.0
653.853943 40.0
656.742859 104.0
657.732727 124.0
704.111084 88.0
717.205933 112.0
718.517761 192.0
728.034973 76.0
729.093323 212.0
735.011658 160.0
742.520447 180.0
745.799866 112.0
754.937622 136.0
759.571228 216.0
760.11438 172.0
770.780701 132.0
776.610352 140.0
782.111206 64.0
795.190491 180.0
803.755859 132.0
804.760559 128.0
813.643982 128.0
821.782837 140.0
824.621033 184.0
853.60907 160.0
862.289795 88.0
867.962524 124.0
871.002625 156.0
871.889832 136.0
873.524414 32.0
874.548279 224.0
879.40509 176.0
883.991272 112.0
886.567322 124.0
890.863159 148.0
894.722839 84.0
897.845215 164.0
898.346252 232.0
906.39386 172.0
907.490723 80.0
915.789917 112.0
916.621277 136.0
917.579651 176.0
920.300781 240.0
925.058838 148.0
926.566833 188.0
927.384888 132.0
929.246643 120.0
932.732544 276.0
935.549072 216.0
938.534485 68.0
941.023926 132.0
948.53656 108.0
949.26001 108.0
958.721069 56.0
958.801208 36.0
961.829651 204.0
964.139648 212.0
971.613525 124.0
976.19751 200.0
984.148682 248.0
985.804016 96.0
985.929016 184.0
989.513245 196.0
996.311768 68.0
996.713928 204.0
997.078369 172.0
1001.199219 204.0
1006.389038 204.0
1008.164062 120.0
1008.890991 240.0
1009.795227 176.0
1010.339233 232.0
1012.979065 160.0
1013.967529 128.0
1015.584351 200.0
1020.938416 164.0
1022.115295 128.0
1024.420044 196.0
1028.622559 120.0
1030.774902 184.0
1032.142822 160.0
1032.980713 204.0
1033.857178 244.0
1038.412476 204.0
1039.041138 156.0
1041.352051 228.0
1041.782349 168.0
1044.334351 184.0
1048.667603 168.0
1049.518555 136.0
1051.092529 152.0
1056.151123 196.0
1061.027344 124.0
1065.213257 156.0
1065.927856 216.0
1066.779297 164.0
1067.501099 112.0
1068.574341 232.0
1068.873657 128.0
1072.670654 136.0
1072.872803 116.0
1073.06189 152.0
1073.52478 160.0
1073.759644 148.0
1076.84668 180.0
1080.389648 216.0
1081.390869 248.0
1081.456299 156.0
1082.471069 164.0
1082.765747 152.0
1083.26355 128.0
1084.239868 244.0
1084.626587 136.0
1085.498535 140.0
1086.200317 176.0
1087.466675 180.0
1089.17395 164.0
1090.264648 44.0
1093.375366 224.0
1094.185059 128.0
1094.685425 188.0
1096.365356 208.0
1097.070557 160.0
1100.263672 112.0
1100.890991 172.0
1104.413696 152.0
1104.797363 100.0
1107.675293 220.0
1110.076294 80.0
1111.787842 176.0
1112.053345 148.0
1113.414429 164.0
1114.297852 136.0
1117.150024 148.0
1121.69165 48.0
1121.764893 192.0
1123.445435 76.0
1124.800049 164.0
1129.598022 148.0
1129.972656 268.0
1132.85144 184.0
1133.286987 172.0
1136.46521 236.0
1136.646362 64.0
1141.30127 184.0
1141.893066 176.0
1142.781128 72.0
1152.186523 128.0
1153.55835 244.0
1154.795776 176.0
1155.776733 48.0
1156.703979 144.0
1158.728882 208.0
1160.362183 256.0
1162.655029 212.0
1165.153809 156.0
1166.003174 144.0
1166.49939 164.0
1167.730103 132.0
1168.458008 32.0
1170.077759 188.0
1171.705566 236.0
1171.869019 60.0
1171.957642 144.0
1172.570923 80.0
1174.220947 188.0
1174.957642 196.0
1176.383911 172.0
1177.012085 172.0
1177.175903 140.0
1180.052734 160.0
1180.784424 148.0
1184.740845 176.0
1185.432861 148.0
1185.576782 180.0
1188.854858 172.0
1189.15686 176.0
1190.530029 32.0
1192.522339 108.0
1193.40918 128.0
1195.569214 176.0
1195.713745 160.0
1198.261597 32.0
1200.625977 48.0
1202.143677 180.0
1202.79248 156.0
1203.116943 140.0
1203.261841 204.0
1203.917847 208.0
1205.216553 184.0
1205.347778 156.0
1206.31543 200.0
1206.903076 184.0
1207.954346 120.0
1208.002808 168.0
1210.016724 124.0
1210.175903 100.0
1210.702271 72.0
1212.487671 148.0
1212.947144 188.0
1213.092651 176.0
1214.361572 180.0
1215.374512 144.0
1216.054565 132.0
1216.936157 220.0
1217.325073 128.0
1217.852905 228.0
1218.262695 208.0
1218.339111 184.0
1218.408569 88.0
1218.471191 132.0
1218.888062 200.0
1219.179932 132.0
1219.694214 184.0
1219.749878 116.0
1222.963501 100.0
1223.234985 116.0
1223.562134 212.0
1223.847656 188.0
1225.0177 168.0
1225.359009 180.0
1228.461426 144.0
1228.593994 188.0
1229.710449 208.0
1230.506226 148.0
1231.239502 128.0
1233.132812 164.0
1233.240234 132.0
1235.230591 180.0
1236.888916 88.0
1240.706909 56.0
1241.702637 180.0
1242.775879 188.0
1243.253052 152.0
1243.737427 48.0
1244.383301 104.0
1244.720337 128.0
1247.481445 212.0
1247.643188 128.0
1248.339233 144.0
1248.522095 192.0
1248.613525 256.0
1250.00647 144.0
1250.076904 224.0
1250.963745 208.0
1251.259399 140.0
1252.541138 68.0
1254.746826 212.0
1255.028931 152.0
1255.416748 36.0
1256.051514 140.0
1258.154419 140.0
1260.068481 204.0
1261.09314 216.0
1262.712158 188.0
1263.143677 232.0
1264.325317 176.0
1265.026001 160.0
1265.394165 176.0
1266.527222 140.0
1267.809692 124.0
1268.412109 212.0
1270.050049 184.0
1270.30542 72.0
1271.227905 132.0
1272.633301 160.0
1272.960571 188.0
1273.279541 104.0
1275.63147 188.0
1276.043823 244.0
1276.228638 148.0
1276.701416 168.0
1277.231445 212.0
1278.263062 228.0
1280.357788 144.0
1282.379395 140.0
1283.377441 168.0
1284.696899 208.0
1284.861084 152.0
1285.531738 84.0
1286.095581 40.0
1286.930786 112.0
1287.894897 112.0
1289.038086 236.0
1290.474854 160.0
1291.826538 140.0
1296.151001 184.0
1297.161499 56.0
1298.488037 204.0
1298.782104 200.0
1298.860962 104.0
1299.736328 184.0
1302.600952 152.0
1303.470215 40.0
1303.657104 48.0
1304.153076 164.0
1305.202637 168.0
1306.173584 192.0
1306.26709 120.0
1307.490234 180.0
1307.742188 200.0
1307.950928 100.0
1309.045288 176.0
1309.772705 176.0
1309.830322 92.0
1310.327393 200.0
1311.228149 180.0
1312.922363 176.0
1314.076538 120.0
1316.061523 200.0
1317.029175 164.0
1317.404785 228.0
1317.708252 140.0
1318.105713 140.0
1318.214111 200.0
1318.669312 176.0
1319.042236 184.0
1319.131958 196.0
1319.898315 140.0
1321.352173 116.0
1322.560669 172.0
1322.618652 48.0
1323.11084 92.0
1324.008789 96.0
1324.117432 164.0
1324.284058 180.0
1324.660645 232.0
1324.848999 112.0
1325.740234 112.0
1325.921387 180.0
1326.892822 120.0
1327.001587 164.0
1327.567139 244.0
1328.901855 204.0
1329.01062 168.0
1331.137573 144.0
1331.849243 236.0
1333.033569 188.0
1333.251587 136.0
1335.054443 140.0
1336.23291 204.0
1338.008667 184.0
1338.591187 100.0
1339.406982 140.0
1340.813232 120.0
1341.644165 120.0
1341.979492 192.0
1344.839233 108.0
1345.802856 40.0
1346.116821 128.0
1347.41626 164.0
1347.694702 148.0
1351.811523 104.0
1352.052979 128.0
1353.092407 136.0
1353.436646 176.0
1354.000488 164.0
1355.231201 260.0
1356.396484 240.0
1356.667603 252.0
1356.858276 136.0
1357.496216 224.0
1357.701538 164.0
1358.904541 180.0
1359.843872 152.0
1360.790894 132.0
1360.989136 152.0
1361.069824 196.0
1361.987915 208.0
1362.230347 144.0
1362.546143 124.0
1362.796021 156.0
1363.832275 164.0
1363.935181 220.0
1364.310059 224.0
1365.222656 96.0
1365.67041 136.0
1366.700317 100.0
1368.017822 116.0
1368.93811 180.0
1369.637817 200.0
1372.428711 148.0
1373.603638 152.0
1373.979858 128.0
1374.245483 208.0
1374.666138 160.0
1374.873169 144.0
1374.931763 196.0
1375.389404 180.0
1375.470581 248.0
1376.112793 148.0
1376.275269 116.0
1376.880859 36.0
1377.922363 60.0
1378.173584 128.0
1378.572632 76.0
1379.85144 148.0
1380.657349 116.0
1382.035522 248.0
1384.076294 128.0
1385.446533 148.0
1386.13562 144.0
1386.691406 196.0
1388.359497 164.0
1388.478149 204.0
1388.65625 172.0
1389.546875 232.0
1391.371094 116.0
1392.485962 140.0
1393.273438 176.0
1393.526001 220.0
1393.578003 192.0
1395.800537 116.0
1396.469849 204.0
1397.154175 148.0
1397.399658 172.0
1397.846191 228.0
1398.664795 220.0
1398.928345 208.0
1399.126343 164.0
1399.193359 164.0
1400.60083 156.0
1401.629028 196.0
1402.366821 116.0
1403.179321 224.0
1403.403076 180.0
1403.5 196.0
1403.820557 152.0
1404.439697 144.0
1405.275146 160.0
1406.78479 188.0
1407.036621 108.0
1407.633911 172.0
1408.134277 144.0
1408.604858 288.0
1408.903687 160.0
1408.978394 44.0
1409.157715 188.0
1409.351929 164.0
1409.949829 184.0
1410.712158 160.0
1411.684204 168.0
1412.207764 160.0
1413.045532 216.0
1413.734009 120.0
1414.287842 68.0
1414.392578 200.0
1414.572266 176.0
1414.870239 204.0
1415.40332 148.0
1416.009888 52.0
1416.369507 156.0
1417.088623 80.0
1417.163574 104.0
1417.650635 60.0
1418.122803 160.0
1419.2323 56.0
1419.397339 124.0
1420.324463 248.0
1420.697876 164.0
1420.987427 184.0
1421.329834 184.0
1421.400146 144.0
1421.820435 124.0
1423.126587 152.0
1423.42688 204.0
1424.095337 224.0
1424.177979 208.0
1424.929199 116.0
1426.808105 160.0
1427.071289 104.0
1427.266724 160.0
1427.484863 156.0
1428.13916 160.0
1429.498291 204.0
1433.066284 164.0
1433.635254 196.0
1435.22583 124.0
1435.38208 244.0
1435.753662 112.0
1436.734253 140.0
1436.794678 168.0
1436.922852 148.0
1437.798218 152.0
1438.069946 64.0
1439.255249 152.0
1439.460571 100.0
1439.685669 148.0
1440.380493 180.0
1441.324829 152.0
1441.710327 144.0
1442.503906 100.0
1443.668335 212.0
1444.243164 184.0
1444.560791 128.0
1445.067749 160.0
1445.203857 172.0
1445.51416 176.0
1445.574707 164.0
1445.824463 160.0
1446.263428 208.0
1446.747925 64.0
1447.073364 176.0
1448.527466 148.0
1449.277588 160.0
1449.845825 192.0
1450.103516 52.0
1450.179321 152.0
1450.388916 248.0
1450.641724 56.0
1450.854004 160.0
1451.073853 64.0
1451.657715 148.0
1451.771484 136.0
1452.059692 148.0
1452.165894 36.0
1452.393433 224.0
1452.91687 212.0
1453.03064 184.0
1453.106567 188.0
1453.258301 128.0
1453.485962 156.0
1453.614868 164.0
1453.85022 168.0
1454.427002 80.0
1454.783813 188.0
1455.634155 188.0
1456.006226 156.0
1456.203735 124.0
1456.507568 100.0
1456.735474 212.0
1457.168457 68.0
1457.42688 60.0
1458.873047 140.0
1459.167358 128.0
1459.403076 196.0
1459.950562 192.0
1460.300415 92.0
1460.619873 232.0
1460.749268 160.0
1462.522217 56.0
1462.644043 88.0
1462.963745 148.0
1463.207397 56.0
1465.842773 100.0
1465.903809 144.0
1466.864136 52.0
1466.986084 176.0
1467.207153 60.0
1467.763794 148.0
1468.480591 100.0
1468.587402 200.0
1469.708862 108.0
1470.235352 200.0
1470.357544 140.0
1470.685669 172.0
1471.013916 152.0
1471.617065 140.0
1471.785034 180.0
1473.69458 136.0
1475.528931 136.0
1476.591919 168.0
1477.219116 144.0
1478.160156 124.0
1478.328491 104.0
1479.675659 140.0
1480.127441 236.0
1480.479736 180.0
1480.747803 144.0
1482.831787 136.0
1483.130737 48.0
1483.521606 176.0
1485.070557 220.0
1485.216309 160.0
1485.27002 68.0
1485.561523 184.0
1486.121582 224.0
1486.881348 160.0
1489.153931 60.0
1489.415039 144.0
1489.69165 124.0
1490.421509 160.0
1490.598267 164.0
1491.620483 176.0
1492.381592 96.0
1492.543091 128.0
1492.681396 168.0
1493.296753 136.0
1494.681519 96.0
1494.950806 168.0
1495.712769 152.0
1495.928345 136.0
1496.875366 172.0
1497.160278 136.0
1497.322021 132.0
1497.78418 120.0
1497.845703 200.0
1499.964844 212.0
1500.180664 212.0
1501.090454 152.0
1501.267822 212.0
1502.216553 112.0
1504.709351 152.0
1504.809692 112.0
1505.373413 160.0
