>compound MLS001401422-01!3(2H)-Pyridazinone, 6-[4-(difluoromethoxy)-3-methoxyphenyl]- [CAS]
>formula C12H10F2N2O3
>ionization [M+H]+
>parentmass 269.073303
#inchi InChI=1S/C12H10F2N2O3/c1-18-10-6-7(2-4-9(10)19-12(13)14)8-3-5-11(17)16-15-8/h2-6,12H,1H3,(H,16,17)
#inchikey HJMQDJPMQIHLPB
#Ion_Source LC-ESI
#Instrument qTof
#Compound_Source NIH Pharmacologically Active Library
#PI Dorrestein
#Data_Collector VP/LMS
#Scan -1
#Precursor_MZ 269.079
#ExactMass 268.066
#Charge 1
#CAS_Number N/A
#Pubmed_ID N/A
#Smiles COc1cc(ccc1OC(F)F)c2ccc(O)nn2
#INCHI_AUX N/A
#Library_Class 1
#SpectrumID CCMSLIB00000085530
#IonMode Positive
#UpdateWorkflowName UPDATE-SINGLE-ANNOTATED-GOLD
#LibraryQualityString Gold
#TaskID d252d724072548979f1f6f1ced849daf
##Scan# 1725
#SpectrumFile p4-C03_GC3_01_18351.mzXML
#LibraryName Pharm_Active_Library.mgf
#MQScore -1
#Organism Pharm_Active_Library
#TIC_Query 0
#RT_Query -1
#MZErrorPPM -1
#SharedPeaks 0
#MassDiff 0
#LibMZ -1
#SpecMZ 269.079
#SpecCharge 0
#internalFilename spec-00000.mgf

>collision 10
44.98912 164.0
45.215012 68.0
45.315441 208.0
45.703468 136.0
45.737114 200.0
45.883945 156.0
45.925751 132.0
46.333988 120.0
46.474991 208.0
46.606693 180.0
46.712738 196.0
46.742668 104.0
47.220627 144.0
47.272121 120.0
47.314552 176.0
47.346046 180.0
47.528362 132.0
47.647812 72.0
47.691784 88.0
47.968452 140.0
48.377342 132.0
48.686539 148.0
48.78936 292.0
48.842201 128.0
48.947971 168.0
49.335838 168.0
49.390377 164.0
49.507938 200.0
49.705723 216.0
49.857254 124.0
49.988033 56.0
50.196514 192.0
50.648762 180.0
50.807526 148.0
51.091656 132.0
51.191284 156.0
51.350899 156.0
51.420807 132.0
51.52076 180.0
51.670872 140.0
52.032028 208.0
52.159878 136.0
52.68441 184.0
52.83765 272.0
52.87672 232.0
52.954903 140.0
53.024445 160.0
53.464703 240.0
53.728214 360.0
54.223907 192.0
54.245895 176.0
54.270817 128.0
54.333885 72.0
54.436626 100.0
54.470406 192.0
54.513012 184.0
54.713047 248.0
54.739548 172.0
54.857414 180.0
55.074322 208.0
55.795982 120.0
55.992397 152.0
56.059437 204.0
56.08477 128.0
56.262283 172.0
56.277214 88.0
56.341434 108.0
56.552273 224.0
56.754509 160.0
56.925568 148.0
56.97213 88.0
56.993164 264.0
57.051777 204.0
57.349819 160.0
57.363388 192.0
57.497623 156.0
57.660732 128.0
57.867966 176.0
58.335224 96.0
58.418861 180.0
58.596981 160.0
58.659462 192.0
58.857792 220.0
58.897499 104.0
59.399563 216.0
59.436382 124.0
59.539234 68.0
59.668304 96.0
59.682144 152.0
59.980804 132.0
60.065613 228.0
60.314213 108.0
60.51532 180.0
60.997791 172.0
61.440044 220.0
61.500904 160.0
61.766529 228.0
61.912086 196.0
62.483433 76.0
62.510181 60.0
62.590462 184.0
62.718067 204.0
62.75275 112.0
62.871052 128.0
62.935772 64.0
63.013161 208.0
63.223465 168.0
63.840569 160.0
64.10482 132.0
64.214821 168.0
64.559776 180.0
64.80629 208.0
65.064499 196.0
65.090187 160.0
65.16729 152.0
65.192993 52.0
65.210678 208.0
65.274979 192.0
65.307144 152.0
65.414948 164.0
65.716316 256.0
65.740517 212.0
66.403809 164.0
66.998734 156.0
67.010139 140.0
67.062286 112.0
67.178055 196.0
67.195999 32.0
67.442581 124.0
67.472008 204.0
67.522697 188.0
67.658508 144.0
67.709267 72.0
67.810844 140.0
68.028999 64.0
68.051979 136.0
68.074966 160.0
68.282036 84.0
68.405434 456.0
68.446594 52.0
68.504234 188.0
68.548721 120.0
69.037346 188.0
69.077042 120.0
69.35025 128.0
69.511116 132.0
69.604073 44.0
70.076073 200.0
70.168968 232.0
70.351616 184.0
70.371651 196.0
70.513641 152.0
70.694252 116.0
70.75618 192.0
70.866722 148.0
71.079666 192.0
71.161911 76.0
71.177017 148.0
71.313095 224.0
71.387062 180.0
71.491684 148.0
71.53849 132.0
71.669853 204.0
71.830009 164.0
71.902565 216.0
72.364029 200.0
72.480904 108.0
72.602951 172.0
72.759056 124.0
72.891533 240.0
73.039444 236.0
73.260735 144.0
73.531845 160.0
73.835945 148.0
73.858177 152.0
73.945442 128.0
74.012199 152.0
74.085846 228.0
74.312149 64.0
75.070702 192.0
75.205269 132.0
75.852173 160.0
76.162766 28.0
76.430489 188.0
76.520996 232.0
76.681252 108.0
77.058167 104.0
77.161285 132.0
77.267967 72.0
77.558655 28.0
77.886772 180.0
77.90609 176.0
78.106483 136.0
78.155746 92.0
78.203728 196.0
78.43576 252.0
78.564484 56.0
78.847 228.0
79.091072 236.0
79.107002 276.0
79.259308 160.0
79.330437 180.0
79.608757 152.0
79.656715 108.0
80.023056 216.0
80.170898 116.0
80.186943 180.0
80.575935 156.0
80.878151 260.0
80.983788 128.0
81.249084 196.0
81.272408 188.0
81.917816 140.0
81.948448 200.0
82.188248 192.0
82.213509 256.0
82.869888 120.0
82.996765 132.0
83.045731 228.0
83.169106 124.0
83.328911 128.0
84.035324 112.0
84.700752 220.0
86.03949 136.0
86.673874 224.0
86.716499 148.0
87.024429 152.0
87.21949 136.0
87.798515 136.0
87.924362 236.0
88.069138 104.0
88.087814 100.0
88.149467 124.0
88.293411 56.0
88.355141 100.0
88.396301 108.0
88.748444 148.0
88.936035 228.0
88.962318 104.0
89.005501 52.0
89.076866 120.0
89.355087 180.0
89.695938 236.0
89.939262 144.0
90.285011 132.0
90.927238 232.0
91.043045 208.0
91.825226 128.0
91.895805 172.0
92.004585 144.0
92.027313 172.0
92.0494 148.0
92.161194 212.0
92.285431 196.0
93.288101 184.0
93.441948 144.0
93.991066 176.0
94.043167 212.0
94.067345 176.0
94.390907 84.0
94.607597 132.0
94.632767 128.0
94.843918 88.0
94.935043 212.0
95.029739 420.0
95.048386 224.0
95.072777 184.0
95.152359 76.0
95.401024 152.0
96.042244 400.0
96.059219 180.0
96.102135 64.0
96.506439 144.0
97.044868 324.0
97.223366 184.0
97.519135 180.0
97.720497 116.0
97.968994 180.0
98.037521 124.0
98.256378 164.0
98.479439 140.0
98.578217 180.0
98.73439 132.0
98.845169 160.0
98.924332 216.0
99.049088 168.0
99.805199 172.0
99.998161 192.0
100.446472 148.0
100.801842 116.0
101.113808 140.0
101.642853 184.0
101.733162 144.0
102.046753 404.0
102.100861 108.0
102.660706 240.0
103.019966 168.0
103.056839 1264.0
103.084618 132.0
103.311066 204.0
103.327248 160.0
103.985809 208.0
104.025131 228.0
104.050156 1804.0
104.457199 188.0
104.748283 168.0
104.941887 200.0
105.054985 1068.0
105.084656 156.0
105.105057 232.0
105.178528 52.0
105.225479 164.0
105.264275 80.0
105.343925 172.0
105.409302 100.0
105.60965 132.0
105.699661 276.0
106.027847 1156.0
106.05072 360.0
106.470436 56.0
107.014214 176.0
107.037094 388.0
107.178062 52.0
107.299667 104.0
107.320282 64.0
107.347092 156.0
107.419273 124.0
107.468788 196.0
107.483231 160.0
107.710327 164.0
107.857033 132.0
108.018799 328.0
108.044258 524.0
108.084518 68.0
108.494598 160.0
108.563019 184.0
108.84523 136.0
108.944923 204.0
108.994789 180.0
109.031586 124.0
109.050209 664.0
109.144447 124.0
109.190193 116.0
109.360794 220.0
109.594032 172.0
109.68573 244.0
109.706573 64.0
109.721169 124.0
109.737846 60.0
110.016525 2000.0
110.060905 292.0
110.165672 96.0
110.847733 88.0
110.942047 244.0
111.017944 180.0
111.237823 164.0
111.557121 112.0
111.647537 72.0
111.674873 136.0
111.689598 184.0
111.822151 56.0
112.709953 144.0
112.75222 116.0
112.874825 100.0
113.158348 128.0
114.916023 140.0
115.054199 312.0
115.165787 200.0
115.208504 168.0
115.792442 144.0
115.865273 172.0
115.89312 192.0
116.048264 680.0
116.208298 132.0
116.388588 176.0
116.682938 144.0
116.790459 176.0
116.938919 192.0
117.031822 176.0
117.056503 400.0
117.473282 160.0
117.507797 176.0
117.585152 104.0
117.624336 184.0
117.959145 168.0
118.000221 116.0
118.042168 160.0
118.063873 456.0
118.136467 156.0
118.279282 160.0
118.515335 184.0
119.03463 288.0
119.05899 556.0
119.259682 60.0
119.777534 180.0
119.882111 92.0
119.901726 212.0
120.039482 124.0
120.067139 384.0
120.0914 224.0
120.119759 60.0
120.223679 76.0
120.44281 196.0
120.582642 52.0
120.678825 120.0
120.91288 124.0
121.022141 304.0
121.029366 264.0
121.034218 376.0
121.055176 216.0
121.105545 196.0
121.153732 96.0
121.226036 100.0
121.258911 36.0
121.414566 68.0
121.543991 144.0
121.677879 136.0
121.996422 204.0
122.035721 164.0
122.057343 536.0
122.29557 164.0
122.357208 36.0
122.47612 184.0
123.04715 244.0
123.067444 440.0
123.181969 60.0
123.325592 136.0
123.444977 60.0
123.714897 208.0
123.92308 144.0
124.041084 192.0
124.055359 184.0
124.20018 148.0
124.264511 76.0
124.297798 100.0
124.364372 176.0
124.875694 200.0
124.964363 140.0
125.013321 76.0
125.048119 144.0
125.068954 160.0
125.255997 40.0
125.391907 148.0
125.659492 140.0
126.036819 136.0
126.211166 168.0
126.761803 156.0
127.035332 68.0
127.082443 96.0
127.378777 164.0
127.53157 204.0
127.594513 172.0
127.612495 124.0
127.774429 252.0
127.940964 168.0
128.054092 244.0
128.089584 120.0
128.184204 148.0
128.290146 36.0
128.35553 180.0
128.834 196.0
128.987656 68.0
129.040894 388.0
129.061661 208.0
129.33374 196.0
129.501282 204.0
129.634949 152.0
129.820831 96.0
129.947845 220.0
130.049973 1068.0
130.093094 68.0
130.181641 240.0
130.263412 296.0
130.304306 124.0
130.486115 36.0
130.529312 136.0
130.615738 48.0
130.672607 32.0
130.713562 184.0
130.734039 48.0
130.825089 136.0
130.991318 32.0
131.060165 3288.0
131.137146 100.0
131.191849 40.0
131.627625 44.0
131.858353 120.0
131.949783 124.0
132.004654 124.0
132.043869 364.0
132.068634 1136.0
132.201385 76.0
132.244873 44.0
132.264816 100.0
132.409714 160.0
132.891083 100.0
133.005356 116.0
133.055115 908.0
133.380234 108.0
133.550385 204.0
133.721527 52.0
133.939377 128.0
134.019806 188.0
134.048767 436.0
134.07991 212.0
134.119629 104.0
134.342773 44.0
134.384293 168.0
134.506607 56.0
135.042603 192.0
135.052292 192.0
135.406006 212.0
135.841766 144.0
135.93689 152.0
136.043655 172.0
136.097046 88.0
136.903931 144.0
137.02272 360.0
137.041992 252.0
137.566086 84.0
137.755234 128.0
138.009979 200.0
138.033356 164.0
138.057068 576.0
138.485016 112.0
138.827179 156.0
138.965576 156.0
139.058762 364.0
139.491623 164.0
139.599777 200.0
139.715027 128.0
139.849152 148.0
140.026398 224.0
140.071152 212.0
140.148224 164.0
140.181213 100.0
140.235413 124.0
140.386292 76.0
140.435822 140.0
141.023727 168.0
141.053284 172.0
141.209274 108.0
141.333511 192.0
141.520493 196.0
142.051132 520.0
142.132019 48.0
142.371765 204.0
142.500031 56.0
142.557068 172.0
142.954178 96.0
143.059784 372.0
143.085098 140.0
143.227966 124.0
143.385223 108.0
143.809753 212.0
144.048386 704.0
144.161377 204.0
144.533844 192.0
145.041336 1056.0
145.075699 464.0
145.300537 200.0
145.444519 88.0
145.768738 76.0
145.968246 156.0
146.027359 392.0
146.057938 324.0
146.912369 124.0
146.961578 220.0
147.056503 4724.0
147.084244 160.0
147.214066 136.0
147.293762 64.0
147.76033 88.0
147.883743 72.0
148.062714 988.0
148.169464 104.0
148.47731 152.0
148.610718 172.0
148.681091 84.0
148.88826 132.0
149.042206 400.0
149.059814 152.0
149.086655 132.0
149.149841 136.0
149.239792 40.0
149.531693 180.0
149.736206 64.0
149.884796 52.0
149.916473 164.0
149.955475 164.0
149.974976 136.0
150.030182 204.0
150.058609 516.0
150.348114 136.0
150.990631 148.0
151.039474 292.0
151.058807 212.0
151.766876 184.0
151.887054 148.0
152.23555 256.0
152.365738 112.0
152.405045 284.0
152.518082 168.0
152.9953 88.0
153.040878 144.0
154.453674 144.0
154.61203 60.0
155.035492 496.0
155.057693 152.0
155.08754 128.0
155.692902 172.0
156.039703 232.0
156.065643 168.0
156.82988 132.0
157.021866 160.0
157.041611 228.0
157.431137 204.0
157.468597 104.0
157.753448 156.0
157.973511 188.0
157.993515 48.0
158.021378 224.0
158.047165 1040.0
158.163681 68.0
158.394043 132.0
158.912964 284.0
158.985733 128.0
159.055359 3692.0
159.110992 168.0
159.186554 72.0
159.223785 184.0
159.694214 36.0
159.993652 80.0
160.063293 8364.0
160.225342 40.0
160.318054 40.0
160.333206 168.0
160.568146 132.0
160.843155 124.0
160.96434 120.0
161.047058 328.0
161.066864 1192.0
161.153778 132.0
161.271683 156.0
161.712631 160.0
161.849335 136.0
161.922775 40.0
161.943024 84.0
161.962067 68.0
162.018326 204.0
162.044754 324.0
162.053329 392.0
162.424606 64.0
162.515945 220.0
162.762146 144.0
163.02124 212.0
163.048019 320.0
163.052109 188.0
163.150864 168.0
163.267822 96.0
163.361938 76.0
163.410278 172.0
163.53241 68.0
163.728455 76.0
163.901672 92.0
164.049881 184.0
164.253494 248.0
164.643982 40.0
165.042618 140.0
165.065628 136.0
165.393097 168.0
165.495499 48.0
166.431351 140.0
166.575165 120.0
166.945267 144.0
167.027573 132.0
167.983231 80.0
168.122543 156.0
168.223206 120.0
168.383301 216.0
168.789017 168.0
168.931259 228.0
169.042511 184.0
169.241821 148.0
170.057098 160.0
170.128479 40.0
170.206375 100.0
170.879547 180.0
171.055298 1964.0
171.163895 64.0
171.679199 124.0
172.061356 1116.0
172.107147 120.0
172.26123 176.0
172.305634 76.0
172.499023 156.0
172.802383 72.0
173.073181 2004.0
173.475418 176.0
173.653717 300.0
173.818985 140.0
174.047791 372.0
174.079453 216.0
174.359955 120.0
175.050247 2076.0
175.101852 64.0
175.283615 36.0
175.452301 128.0
175.694931 120.0
175.722397 180.0
176.057938 2508.0
176.357712 88.0
176.413223 92.0
176.479309 188.0
176.966141 168.0
177.005859 204.0
177.046005 196.0
177.070236 320.0
177.445023 176.0
178.050385 420.0
178.281799 48.0
178.568924 188.0
179.050522 184.0
179.060532 128.0
180.357971 144.0
180.419449 164.0
180.496979 104.0
180.879562 132.0
181.056259 184.0
181.200912 56.0
181.831039 88.0
183.050552 300.0
183.31012 204.0
183.514969 108.0
184.13562 128.0
184.276077 136.0
185.030319 168.0
185.037811 148.0
185.155197 164.0
185.187698 276.0
185.694519 128.0
186.011475 220.0
186.044067 2096.0
186.305252 48.0
186.348724 128.0
186.451981 112.0
186.568848 148.0
186.590607 120.0
186.617783 124.0
186.674896 168.0
186.79184 160.0
186.960526 40.0
187.006592 160.0
187.050964 5392.0
187.140182 76.0
187.194641 36.0
187.379852 108.0
187.428894 52.0
187.488846 144.0
187.567886 160.0
187.616943 32.0
187.676926 228.0
187.728745 36.0
188.00972 80.0
188.057327 6736.0
188.263596 164.0
188.376266 48.0
188.487595 76.0
188.564117 128.0
188.588715 56.0
188.766403 148.0
188.84845 180.0
189.06459 2544.0
189.149429 76.0
189.206909 92.0
189.242508 44.0
189.291794 124.0
189.313705 148.0
189.33287 64.0
189.886459 232.0
190.063492 428.0
190.460098 140.0
190.765106 88.0
190.957581 28.0
191.042847 184.0
191.08223 300.0
191.458466 48.0
191.898102 152.0
192.06572 400.0
192.117203 36.0
192.211014 96.0
192.257919 176.0
193.310791 148.0
194.064194 88.0
195.266586 204.0
195.38063 176.0
195.628311 156.0
198.12207 132.0
198.946548 200.0
199.061722 188.0
199.289185 248.0
199.964066 80.0
200.056473 188.0
200.465347 188.0
200.51326 32.0
200.82338 148.0
201.065613 2564.0
201.47261 40.0
201.743912 96.0
201.856995 88.0
201.995575 192.0
202.065155 524.0
202.61554 100.0
202.646698 160.0
202.924454 48.0
202.998169 220.0
203.045105 8400.0
203.077576 128.0
203.176865 76.0
203.273331 96.0
203.298859 108.0
203.321564 104.0
203.42659 80.0
203.707718 196.0
203.764526 60.0
203.79863 96.0
203.872498 44.0
203.903763 88.0
203.926498 132.0
203.983353 140.0
204.00325 180.0
204.052048 7476.0
204.098785 244.0
204.125504 40.0
204.205124 56.0
204.343048 132.0
204.378647 112.0
204.415649 80.0
204.543716 72.0
204.660431 48.0
204.686066 56.0
204.802826 44.0
205.051926 1204.0
205.253174 156.0
205.427063 92.0
205.455597 84.0
205.494492 76.0
205.517258 124.0
205.545197 148.0
205.60968 68.0
205.655334 32.0
206.048096 2160.0
206.137985 32.0
206.395233 112.0
207.056595 1260.0
207.099228 204.0
207.285446 100.0
207.643784 96.0
208.062714 348.0
208.562546 44.0
209.051453 120.0
210.065613 148.0
211.047729 120.0
212.03511 172.0
212.870117 212.0
213.056 180.0
214.040924 112.0
214.079819 96.0
214.103119 216.0
214.397354 168.0
214.887222 52.0
215.046585 288.0
215.088577 40.0
216.038269 160.0
216.433365 44.0
217.060013 3340.0
217.312668 56.0
217.644333 136.0
217.741241 40.0
218.02327 108.0
218.06337 452.0
218.820389 180.0
218.891052 124.0
218.911667 44.0
218.994125 124.0
219.02948 184.0
219.076157 3004.0
220.079544 644.0
220.111816 120.0
220.735306 56.0
221.048843 124.0
221.079956 436.0
221.173141 108.0
221.335968 76.0
221.72403 104.0
222.133194 132.0
223.728973 144.0
224.028641 140.0
224.050354 148.0
225.043732 204.0
225.148239 216.0
226.053391 168.0
227.061401 196.0
227.792953 68.0
229.062607 276.0
231.124329 212.0
232.045074 184.0
234.001648 144.0
234.041458 868.0
234.205673 48.0
235.043869 148.0
236.048981 124.0
236.486465 76.0
238.042542 148.0
238.673752 36.0
238.741394 48.0
240.055115 268.0
240.374039 100.0
240.460449 152.0
241.079529 144.0
242.058578 136.0
243.125061 84.0
244.091156 128.0
247.057236 100.0
249.068771 380.0
250.067154 272.0
251.064102 180.0
252.068924 124.0
253.04628 156.0
254.048615 272.0
254.174637 184.0
255.086121 72.0
256.703461 180.0
265.625427 144.0
266.349274 128.0
266.921234 104.0
267.051331 120.0
268.618042 52.0
269.009613 152.0
269.073303 6208.0
269.183624 220.0
269.633484 60.0
270.077362 1064.0
270.202423 88.0
270.585327 72.0
270.749054 44.0
271.076721 148.0
271.155304 44.0
271.201172 76.0
271.827576 56.0
271.939148 52.0
272.129547 64.0
272.290436 104.0
275.508545 88.0
276.100189 40.0
288.086731 152.0
300.500458 108.0
306.296753 84.0
314.05014 108.0
315.15155 48.0
316.867493 48.0
319.4021 68.0
325.412964 48.0
329.88739 112.0
331.613922 44.0
332.368225 104.0
333.864838 72.0
337.19696 56.0
339.620728 80.0
344.010529 116.0
371.823547 96.0
377.134705 44.0
379.600769 76.0
382.234406 48.0
386.683197 80.0
393.736267 80.0
393.902161 28.0
397.207367 52.0
418.683746 76.0
421.233978 76.0
423.105804 72.0
435.464172 116.0
475.852875 72.0
480.056091 52.0
485.825104 92.0
562.432373 28.0
606.66571 44.0
659.618591 64.0
692.649597 72.0
740.361267 112.0
779.999268 172.0
800.588806 120.0
843.225403 112.0
911.521179 80.0
913.36084 188.0
931.397705 128.0
941.764526 168.0
949.788818 220.0
957.428406 236.0
963.843811 112.0
965.846863 96.0
969.022583 176.0
972.731018 188.0
978.549866 148.0
987.029175 124.0
989.068665 144.0
1011.388672 224.0
1024.851807 168.0
1042.146484 168.0
1059.002808 184.0
1062.172241 208.0
1065.054199 96.0
1089.196167 140.0
1097.712402 176.0
1098.075073 228.0
1109.514404 208.0
1117.610474 164.0
1120.833252 140.0
1120.979736 168.0
1124.487671 168.0
1126.236938 44.0
1128.094482 128.0
1129.465332 76.0
1133.703247 184.0
1134.795898 220.0
1140.038208 160.0
1145.386963 200.0
1154.640259 184.0
1157.164307 176.0
1157.719482 184.0
1158.471313 112.0
1158.579712 136.0
1163.353882 124.0
1168.348755 140.0
1168.954224 100.0
1174.800049 196.0
1180.4552 152.0
1192.789062 192.0
1202.458496 156.0
1203.840088 60.0
1220.213135 48.0
1227.60083 192.0
1237.775024 176.0
1238.993652 188.0
1243.453247 172.0
1243.705933 192.0
1249.151611 184.0
1266.275146 128.0
1268.670044 184.0
1268.83313 212.0
1269.613037 212.0
1270.982178 152.0
1272.209961 140.0
1275.072388 180.0
1277.482788 140.0
1280.671753 188.0
1283.757568 100.0
1285.726562 72.0
1286.832886 200.0
1291.656738 144.0
1295.414795 200.0
1298.747803 164.0
1304.434814 64.0
1306.131714 140.0
1316.632935 68.0
1323.705322 164.0
1326.197388 224.0
1330.259399 72.0
1335.309326 156.0
1337.936035 192.0
1345.247925 124.0
1351.211182 148.0
1354.007324 152.0
1355.846191 184.0
1364.294434 164.0
1367.177734 152.0
1371.405151 176.0
1379.480347 156.0
1379.561646 164.0
1380.337891 204.0
1383.497192 204.0
1387.883179 144.0
1389.396118 204.0
1390.924805 212.0
1391.800903 160.0
1395.463867 80.0
1397.591064 160.0
1401.023193 152.0
1401.477661 212.0
1406.280151 172.0
1406.735474 188.0
1411.02356 172.0
1413.551636 176.0
1415.572754 136.0
1416.621338 116.0
1416.853516 144.0
1422.305176 180.0
1424.971069 200.0
1430.867432 156.0
1431.334229 132.0
1434.355225 196.0
1435.900879 268.0
1436.300659 168.0
1437.160645 132.0
1438.579468 144.0
1440.686401 96.0
1441.502319 236.0
1442.341309 112.0
1444.791382 160.0
1445.684204 172.0
1446.592407 172.0
1447.357056 48.0
1447.516113 48.0
1450.690552 108.0
1452.146362 68.0
1453.754761 84.0
1454.323975 116.0
1454.953979 180.0
1456.579102 172.0
1457.787109 144.0
1457.84021 116.0
1459.809082 160.0
1460.273071 160.0
1461.703247 220.0
1462.136963 192.0
1463.057983 152.0
1463.933594 200.0
1464.565674 172.0
1480.673462 148.0
1482.672974 80.0
1483.822754 68.0
1484.152466 164.0
1491.799072 168.0
1495.47583 212.0
1495.591309 224.0
1496.676758 128.0
1503.961914 160.0
1504.648926 144.0
1505.050415 128.0
