>compound Articaine HCl
>formula C13H20N2O3S
>ionization [M+H]+
>parentmass 285.127289
#inchi InChI=1S/C13H20N2O3S/c1-5-6-14-9(3)12(16)15-10-8(2)7-19-11(10)13(17)18-4/h7,9,14H,5-6H2,1-4H3,(H,15,16)
#inchikey QTGIAADRBBLJGA
#origInchi InChI=1S/C13H20N2O3S.ClH/c1-5-6-14-9(3)12(16)15-10-8(2)7-19-11(10)13(17)18-4;/h7,9,14H,5-6H2,1-4H3,(H,15,16);1H
#Ion_Source LC-ESI
#Instrument qTof
#Compound_Source Commercial
#PI Dorrestein
#Data_Collector Garg_Neha
#Scan -1
#Precursor_MZ 285.127
#ExactMass 284.119
#Charge 1
#CAS_Number 23964-57-0 ,23964-58-1(free base)
#Pubmed_ID N/A
#Smiles C1(=C(C(=CS1)C)NC(C(C)NCCC)=O)C(=O)OC.Cl
#INCHI_AUX N/A
#Library_Class 1
#SpectrumID CCMSLIB00000078587
#IonMode Positive
#UpdateWorkflowName UPDATE-SINGLE-ANNOTATED-GOLD
#LibraryQualityString Gold
#TaskID 77f51c88eb8b467eb4a01dd2d0cb90d2
##Scan# 1031
#SpectrumFile Plate9_41_60_GC6_01_15755.mzXML
#LibraryName FDALibrary_2_04302014.mgf
#MQScore -1
#Organism FDALibrary_2_04302014
#TIC_Query 0
#RT_Query -1
#MZErrorPPM -1
#SharedPeaks 0
#MassDiff 0
#LibMZ -1
#SpecMZ 285.127
#SpecCharge 0
#internalFilename spec-00000.mgf

>collision 10
51.704762 164.0
51.82362 160.0
63.448196 176.0
72.279427 188.0
73.658249 148.0
86.097977 812.0
87.109314 188.0
89.888763 144.0
104.291283 224.0
105.473503 172.0
107.051247 148.0
114.087349 164.0
119.774399 196.0
124.021919 164.0
140.017136 1256.0
140.053391 168.0
140.732574 168.0
141.025772 212.0
142.019958 308.0
147.080826 148.0
150.037933 376.0
155.759659 164.0
165.26503 140.0
166.035889 164.0
168.010132 1324.0
169.013885 176.0
169.120117 160.0
170.016434 124.0
172.0401 424.0
174.036911 168.0
177.077484 192.0
181.268097 164.0
181.855423 180.0
183.050522 260.0
183.930679 212.0
193.040146 144.0
195.075226 240.0
201.97641 140.0
213.545212 160.0
216.372818 180.0
225.319641 228.0
230.72937 252.0
237.953125 228.0
245.035812 180.0
246.814896 144.0
253.09903 1492.0
253.944824 184.0
254.102371 264.0
255.096588 284.0
256.903046 160.0
257.132782 140.0
266.43576 184.0
269.207642 156.0
283.161499 116.0
283.230347 216.0
283.98172 296.0
284.293549 112.0
285.006531 152.0
285.03006 184.0
285.127289 40336.0
285.284149 276.0
285.447479 112.0
285.472961 148.0
285.694153 156.0
286.130463 3964.0
287.058441 860.0
287.124512 1980.0
287.927155 164.0
288.065643 256.0
288.12796 404.0
288.304779 128.0
289.134094 184.0
321.029449 140.0
1582.814575 204.0
