>compound Trimethoprim
>formula C14H18N4O3
>ionization [M+H]+
>parentmass 291.146362
#inchi InChI=1S/C14H18N4O3/c1-19-10-5-8(6-11(20-2)12(10)21-3)4-9-7-17-14(16)18-13(9)15/h5-7H,4H2,1-3H3,(H4,15,16,17,18)
#inchikey IEDVJHCEMCRBQM
#Ion_Source LC-ESI
#Instrument qTof
#Compound_Source Commercial
#PI Dorrestein
#Data_Collector Garg_Neha
#Scan -1
#Precursor_MZ 291.145
#ExactMass 290.138
#Charge 1
#CAS_Number 738-70-5, 56585-33-2 (1/2H2O4S)
#Pubmed_ID N/A
#Smiles C1(N=C(C(=CN=1)CC2C=C(C(=C(C=2)OC)OC)OC)N)N
#INCHI_AUX N/A
#Library_Class 1
#SpectrumID CCMSLIB00000078580
#IonMode Positive
#UpdateWorkflowName UPDATE-SINGLE-ANNOTATED-GOLD
#LibraryQualityString Gold
#TaskID 77f51c88eb8b467eb4a01dd2d0cb90d2
##Scan# 997
#SpectrumFile Plate9_41_60_GC6_01_15755.mzXML
#LibraryName FDALibrary_2_04302014.mgf
#MQScore -1
#Organism FDALibrary_2_04302014
#TIC_Query 0
#RT_Query -1
#MZErrorPPM -1
#SharedPeaks 0
#MassDiff 0
#LibMZ -1
#SpecMZ 291.145
#SpecCharge 0
#internalFilename spec-00000.mgf

>collision 10
45.110035 156.0
46.164165 160.0
47.282463 208.0
48.872231 172.0
49.413589 184.0
49.472767 184.0
53.119648 236.0
53.148666 208.0
53.921947 140.0
54.534595 156.0
56.243946 156.0
56.784088 200.0
57.896175 176.0
60.694721 152.0
60.735043 140.0
62.40136 196.0
62.937069 168.0
63.049225 156.0
65.85331 160.0
67.864761 204.0
69.308678 164.0
69.386581 156.0
71.156769 148.0
74.827736 148.0
76.220108 208.0
76.261818 152.0
76.587189 164.0
84.364258 156.0
86.019424 164.0
88.900688 144.0
90.525688 180.0
94.23114 172.0
94.628769 176.0
94.848251 156.0
95.265457 164.0
98.418755 212.0
99.835854 156.0
104.914032 156.0
106.633469 164.0
107.263313 148.0
107.789597 196.0
108.308876 176.0
108.968567 148.0
109.049614 192.0
110.061066 604.0
110.183205 144.0
110.720779 172.0
111.065109 516.0
114.371407 140.0
115.406075 228.0
115.984093 172.0
116.832314 160.0
117.724655 168.0
118.031235 160.0
118.47303 160.0
118.950111 196.0
119.056496 144.0
120.057571 236.0
121.067215 176.0
121.422249 220.0
121.681175 164.0
121.865669 228.0
121.892036 204.0
123.045662 156.0
123.066147 4500.0
124.071129 324.0
124.740936 196.0
124.929474 144.0
125.056793 216.0
126.052086 200.0
126.069321 140.0
127.050034 156.0
127.930969 144.0
131.601578 172.0
132.065491 188.0
133.035233 156.0
133.390823 212.0
134.291138 164.0
134.704315 224.0
135.068085 172.0
135.217621 180.0
135.69017 156.0
136.314545 168.0
137.061691 184.0
138.746658 156.0
139.528442 148.0
140.470428 204.0
140.857559 172.0
141.044235 208.0
143.463303 124.0
143.51799 188.0
144.203125 168.0
145.078186 244.0
145.674347 168.0
146.063477 164.0
147.04924 172.0
147.092682 168.0
147.198914 140.0
147.266541 156.0
148.062256 160.0
148.246368 168.0
149.022842 164.0
149.063416 160.0
149.462936 176.0
150.077972 196.0
150.889786 200.0
151.037918 380.0
152.131531 148.0
154.193542 152.0
155.573212 232.0
155.712265 140.0
156.244202 256.0
158.060608 168.0
158.373535 144.0
158.686783 192.0
159.080658 180.0
160.056152 160.0
160.076309 144.0
161.080093 140.0
161.86412 144.0
162.09137 368.0
162.825241 144.0
163.102188 216.0
165.053131 228.0
165.356934 140.0
166.060837 184.0
166.939819 164.0
167.122452 160.0
169.954346 152.0
170.068527 148.0
171.065536 172.0
171.587723 140.0
171.819839 140.0
172.075851 168.0
172.796951 144.0
172.862366 140.0
173.080261 132.0
173.6483 188.0
174.064392 764.0
174.099701 184.0
174.241547 164.0
175.006897 164.0
175.066208 176.0
175.098068 264.0
176.074875 164.0
178.661926 204.0
178.944275 228.0
179.765015 208.0
181.086197 1156.0
182.088165 200.0
182.728516 164.0
182.820007 148.0
183.07576 320.0
183.175415 192.0
184.088776 276.0
185.092636 176.0
185.51561 144.0
186.05632 176.0
187.097229 1716.0
187.456223 236.0
188.072586 204.0
188.098389 120.0
188.149017 140.0
188.170853 172.0
189.10849 276.0
189.133118 148.0
190.082611 168.0
190.490448 184.0
190.965973 208.0
191.0923 716.0
193.045425 140.0
195.097198 184.0
197.151443 144.0
198.059357 204.0
198.739166 164.0
199.095627 508.0
199.486221 140.0
200.068283 176.0
200.102356 760.0
201.075333 560.0
201.11174 2036.0
201.787903 128.0
202.04686 152.0
202.097504 116.0
202.120575 1204.0
202.188339 224.0
203.026917 164.0
203.055725 176.0
203.088211 424.0
203.12616 304.0
204.425873 168.0
205.106445 264.0
205.319107 184.0
205.612961 140.0
206.40712 172.0
208.813171 160.0
209.806595 212.0
210.779266 140.0
211.030731 144.0
211.100372 136.0
211.345993 160.0
211.977234 144.0
212.078125 128.0
212.188828 188.0
212.554291 140.0
212.679077 168.0
213.084229 152.0
213.114426 132.0
213.704926 160.0
214.083328 144.0
215.054169 156.0
215.091049 748.0
215.647079 192.0
216.100464 620.0
217.073318 140.0
217.106445 816.0
217.410172 228.0
217.556931 152.0
217.662628 176.0
218.079788 144.0
218.110123 336.0
218.603271 172.0
218.65625 220.0
219.079376 160.0
222.070831 112.0
222.303085 264.0
224.582001 140.0
226.080276 188.0
226.240448 232.0
227.08934 272.0
227.52356 180.0
227.880951 140.0
228.076294 184.0
228.100204 156.0
228.975906 168.0
229.108704 5640.0
229.153625 168.0
229.509293 212.0
229.89238 140.0
229.99678 132.0
230.116119 11964.0
230.817932 112.0
231.085281 500.0
231.118225 1660.0
231.48851 212.0
232.012695 184.0
232.094681 1896.0
232.851624 148.0
232.929138 184.0
233.033539 176.0
233.103149 5080.0
233.153976 176.0
233.822281 156.0
234.106003 456.0
234.154907 160.0
235.203766 236.0
237.173615 160.0
237.599869 176.0
238.613358 140.0
239.091553 164.0
239.41954 168.0
239.545822 148.0
239.644409 184.0
240.098053 164.0
242.053574 472.0
242.109421 172.0
242.773819 224.0
242.927689 172.0
243.085297 224.0
243.971115 144.0
244.078796 380.0
244.151459 140.0
245.072052 300.0
245.103409 10400.0
245.641418 108.0
245.791809 112.0
246.106216 2160.0
246.147339 264.0
246.339508 156.0
247.083084 652.0
247.117416 2336.0
247.327621 144.0
248.087738 324.0
248.119415 652.0
248.888855 144.0
249.130692 180.0
250.000381 120.0
250.07457 212.0
250.7827 152.0
252.860916 168.0
252.908401 140.0
255.085632 284.0
256.685822 156.0
257.103638 11068.0
257.892578 168.0
258.1073 1652.0
258.682648 216.0
259.083069 808.0
259.113495 984.0
259.656708 172.0
259.802765 136.0
259.86203 148.0
260.08432 204.0
260.121033 460.0
260.870911 220.0
260.898682 152.0
261.098083 24640.0
261.154388 128.0
261.328064 148.0
261.993561 388.0
262.101898 2720.0
263.103607 284.0
263.635895 212.0
263.777313 100.0
263.978638 128.0
264.162903 144.0
264.612732 196.0
265.091034 156.0
266.620636 140.0
267.144104 144.0
267.303528 152.0
267.772308 144.0
270.908051 140.0
271.006348 152.0
271.57019 192.0
272.663483 216.0
272.929779 148.0
273.098694 192.0
273.393585 212.0
274.095001 160.0
274.638947 184.0
274.71814 180.0
275.113617 14368.0
275.276001 148.0
275.915741 124.0
276.117523 2744.0
276.71756 184.0
277.121857 464.0
278.878082 176.0
279.231384 108.0
279.948395 180.0
280.291473 196.0
280.598145 220.0
280.810303 152.0
285.369141 216.0
285.456573 152.0
285.850159 176.0
288.835968 192.0
288.930664 168.0
289.12326 288.0
289.174133 216.0
289.228455 168.0
289.451904 304.0
289.817719 148.0
290.003265 160.0
290.102295 400.0
290.227875 324.0
290.358276 180.0
290.401672 224.0
290.472321 148.0
290.537354 152.0
290.58316 132.0
290.617676 316.0
290.665436 164.0
290.72406 188.0
290.802551 208.0
290.839905 196.0
290.979462 176.0
291.052612 136.0
291.146362 155436.0
291.393799 176.0
291.422485 156.0
291.468903 116.0
291.52179 216.0
291.605865 124.0
291.703796 1880.0
291.912079 148.0
291.951996 192.0
292.020111 172.0
292.080841 324.0
292.148163 24264.0
292.266602 264.0
292.733185 96.0
292.826843 96.0
292.989563 100.0
293.150177 3348.0
293.207794 224.0
293.644684 132.0
293.699524 132.0
293.714752 128.0
293.782928 172.0
293.85141 140.0
293.955078 140.0
294.033173 164.0
294.075592 316.0
294.109833 96.0
294.157898 324.0
294.23703 140.0
294.315521 128.0
294.348236 144.0
294.898529 140.0
295.061768 192.0
295.263611 160.0
303.370178 104.0
303.858643 104.0
370.615784 192.0
465.663788 152.0
475.520721 148.0
569.32019 168.0
1117.799072 164.0
1252.936401 172.0
1319.883179 148.0
1604.814331 144.0
1609.481934 192.0
1623.774414 148.0
1681.698364 192.0
1690.140259 156.0
1742.888428 192.0
1852.263794 204.0
1886.020142 140.0
1932.538086 176.0
1972.915894 160.0
1979.286133 220.0
