>compound MLS001157769-01!(2S)-N-(2,4-difluorophenyl)-1-(4,5-dimethoxy-3-oxo-1H-2-benzofuran-1-yl)-5-oxopyrrolidine-2-carboxamide
>formula C21H18F2N2O6
>ionization [M+H]+
>parentmass 433.121
#inchi InChI=1S/C21H18F2N2O6/c1-29-15-7-4-11-17(18(15)30-2)21(28)31-20(11)25-14(6-8-16(25)26)19(27)24-13-5-3-10(22)9-12(13)23/h3-5,7,9,14,20H,6,8H2,1-2H3,(H,24,27)/t14-,20?/m0/s1
#inchikey SUHJYAOFQCJYHR
#Ion_Source LC-ESI
#Instrument qTof
#Compound_Source NIH Natural Product Library
#PI Dorrestein
#Data_Collector VVP/LMS
#Scan -1
#Precursor_MZ 433.121
#ExactMass 432.113
#Charge 1
#CAS_Number N/A
#Pubmed_ID N/A
#Smiles COc1ccc2C(OC(=O)c2c1OC)N3[C@@H](CCC3=O)C(=O)Nc4ccc(F)cc4F
#INCHI_AUX N/A
#Library_Class 1
#SpectrumID CCMSLIB00000080569
#IonMode Positive
#UpdateWorkflowName UPDATE-SINGLE-ANNOTATED-GOLD
#LibraryQualityString Gold
#TaskID b1d8e8f6646f4e71acdff9ca3d919d08
##Scan# 1811
#SpectrumFile p2-G10_GG10_01_18058.mzXML
#LibraryName NIH_Natural_Products_Library.mgf
#MQScore -1
#Organism NIH_Natural_Products_Library
#TIC_Query 0
#RT_Query -1
#MZErrorPPM -1
#SharedPeaks 0
#MassDiff 0
#LibMZ -1
#SpecMZ 433.121
#SpecCharge 0
#internalFilename spec-00000.mgf

>collision 10
95.003181 164.0
95.166214 116.0
95.222527 160.0
95.66198 196.0
95.848953 120.0
96.028305 120.0
96.563469 152.0
96.608459 152.0
96.69651 160.0
96.743484 160.0
97.002075 160.0
97.388634 164.0
97.48687 168.0
97.579254 176.0
97.888176 128.0
97.917717 248.0
98.083229 140.0
98.248398 148.0
98.402817 144.0
98.523293 172.0
98.554909 144.0
98.691292 188.0
98.821838 164.0
99.440117 128.0
99.541367 176.0
100.498817 228.0
100.988266 128.0
101.36264 140.0
101.50898 112.0
102.272423 168.0
102.324768 48.0
102.354965 188.0
102.810562 128.0
102.99025 212.0
103.020554 356.0
103.392601 156.0
103.558624 208.0
103.593056 96.0
103.666 136.0
103.795738 84.0
103.852524 144.0
104.029518 232.0
104.48632 80.0
104.622681 152.0
104.69191 100.0
104.787643 92.0
104.897697 124.0
105.032593 132.0
105.222069 200.0
105.277199 160.0
105.487656 160.0
105.634888 192.0
106.040314 172.0
106.265892 152.0
106.504028 176.0
106.643753 124.0
106.933807 176.0
107.01329 244.0
107.047676 1256.0
107.172646 124.0
107.286003 156.0
107.345795 108.0
107.444801 136.0
107.587845 256.0
107.814415 92.0
107.835083 120.0
107.97567 176.0
108.02092 288.0
108.050346 200.0
108.364845 200.0
108.406288 120.0
108.688309 124.0
108.727196 108.0
108.94368 176.0
109.027733 1928.0
109.063477 528.0
109.081551 140.0
109.359566 264.0
110.032219 176.0
110.237595 144.0
110.436211 200.0
110.507339 200.0
110.611679 120.0
110.678978 104.0
110.905235 168.0
110.947159 128.0
111.112839 100.0
111.251358 132.0
111.589607 120.0
111.711586 68.0
111.802063 228.0
112.082138 92.0
112.101105 96.0
112.356239 136.0
112.586693 200.0
112.628555 136.0
112.736313 160.0
112.867371 204.0
113.02813 164.0
113.214424 208.0
113.292061 128.0
113.646858 124.0
113.719009 172.0
113.914368 56.0
113.948357 176.0
113.978104 64.0
114.09288 152.0
114.171555 152.0
114.495041 252.0
114.612206 184.0
114.810455 132.0
114.953392 72.0
115.011017 200.0
115.282257 120.0
115.333549 196.0
115.613731 164.0
115.630852 128.0
115.793571 180.0
115.919968 48.0
116.346809 188.0
116.993912 208.0
117.035019 304.0
117.51548 104.0
117.595322 108.0
117.657921 64.0
117.871758 176.0
117.986313 72.0
118.159332 140.0
118.761559 196.0
118.781082 144.0
118.874374 80.0
119.013298 132.0
119.037033 168.0
119.601128 144.0
119.656883 148.0
119.955345 104.0
120.016388 368.0
120.134163 136.0
120.37207 124.0
120.680168 176.0
120.78775 208.0
120.828896 128.0
120.90329 212.0
120.999603 168.0
121.028053 2256.0
121.061073 168.0
121.17263 160.0
121.501495 228.0
121.639748 156.0
121.712509 168.0
121.835197 176.0
122.037415 2696.0
122.358627 124.0
122.554649 148.0
122.759651 36.0
123.007843 256.0
123.041756 636.0
123.121574 108.0
123.282852 164.0
123.472977 188.0
123.798302 120.0
124.014343 200.0
124.048676 176.0
124.09523 128.0
124.112968 204.0
124.639046 176.0
124.876915 252.0
124.908058 204.0
124.997055 148.0
125.023758 44.0
125.119469 208.0
125.411293 104.0
125.440269 148.0
125.797195 64.0
125.877571 132.0
126.221703 208.0
126.248535 200.0
126.443176 92.0
126.922577 196.0
126.962944 168.0
126.994339 152.0
127.04818 180.0
127.250168 164.0
127.391655 180.0
127.591667 72.0
127.697357 168.0
128.298584 180.0
128.368484 244.0
128.801819 72.0
128.892197 156.0
128.928345 192.0
129.068512 124.0
129.165756 160.0
129.530197 208.0
129.70015 224.0
129.779495 164.0
130.054001 164.0
130.779083 168.0
131.093384 40.0
132.023163 148.0
132.338303 132.0
132.409286 176.0
132.631546 184.0
132.670517 116.0
132.743881 136.0
133.0336 280.0
133.120224 148.0
133.395935 128.0
133.566101 60.0
133.977554 164.0
134.03685 180.0
134.314743 160.0
134.543777 164.0
134.559357 168.0
134.6194 184.0
134.878159 140.0
134.898972 248.0
134.935959 84.0
134.952133 96.0
134.970642 176.0
135.007309 244.0
135.043869 3404.0
135.192719 68.0
135.257523 56.0
135.445084 132.0
135.671814 124.0
135.695358 128.0
135.785034 120.0
135.885544 92.0
136.009903 184.0
136.043488 204.0
136.219864 168.0
136.303497 148.0
136.452255 76.0
136.652283 52.0
136.703476 92.0
137.000748 160.0
137.023453 1100.0
137.055603 396.0
137.107407 124.0
137.178619 84.0
137.383835 164.0
137.500504 156.0
137.542511 28.0
137.75502 72.0
137.941147 184.0
138.051849 176.0
138.206238 104.0
138.405197 176.0
139.125 116.0
139.228302 60.0
139.50087 128.0
139.582382 168.0
139.897827 220.0
139.990616 136.0
140.039719 184.0
140.115112 128.0
140.53479 124.0
140.612656 144.0
140.801529 192.0
141.118179 172.0
141.492004 124.0
141.636459 84.0
141.762039 132.0
142.063156 200.0
142.359848 144.0
142.504745 244.0
142.528503 132.0
143.151123 76.0
144.524307 184.0
144.574554 116.0
145.082352 92.0
145.264618 184.0
147.036209 164.0
147.057281 212.0
147.120041 200.0
147.731461 160.0
148.103882 136.0
148.453247 164.0
148.790512 224.0
149.022949 3060.0
149.048645 180.0
149.072281 108.0
149.731567 108.0
149.841187 108.0
149.860672 300.0
150.031769 4280.0
150.228821 240.0
150.26297 116.0
150.343506 56.0
150.607178 92.0
150.63649 136.0
150.70491 28.0
150.756226 184.0
150.81488 176.0
150.907776 68.0
150.946899 84.0
150.998245 168.0
151.035751 460.0
151.130356 68.0
151.384933 192.0
151.578461 120.0
151.956055 88.0
151.992859 112.0
152.037033 196.0
152.088577 192.0
152.117828 144.0
152.307114 136.0
152.675781 120.0
153.017242 204.0
154.024963 284.0
154.159882 92.0
154.33786 160.0
154.486252 156.0
154.743652 108.0
155.028427 184.0
155.251617 164.0
155.487305 192.0
155.695862 204.0
156.451767 96.0
156.518982 200.0
156.922638 52.0
157.354263 144.0
157.436676 52.0
157.464142 184.0
158.627655 132.0
158.725433 272.0
158.788132 200.0
159.230377 236.0
159.521332 168.0
159.692322 168.0
159.868439 144.0
159.959045 144.0
160.017181 300.0
160.142853 132.0
160.409958 60.0
160.674744 152.0
161.02774 316.0
161.064148 200.0
161.189835 172.0
161.435043 204.0
161.89563 64.0
161.958939 176.0
162.002014 132.0
162.275726 220.0
162.594482 164.0
162.694336 156.0
162.745117 92.0
162.762894 148.0
162.783203 212.0
162.806061 180.0
162.99913 108.0
163.039032 10628.0
163.123672 56.0
163.210876 92.0
163.546097 56.0
163.622299 36.0
163.76445 276.0
163.938141 188.0
164.00441 88.0
164.043091 1292.0
164.399734 72.0
164.598846 72.0
164.624374 228.0
164.706116 144.0
164.75209 128.0
164.821075 184.0
164.879852 44.0
164.902847 64.0
164.969315 40.0
165.017654 596.0
165.053833 920.0
165.138077 48.0
165.318863 188.0
165.556595 76.0
165.960129 100.0
165.995102 156.0
166.02037 172.0
166.055008 112.0
167.005341 84.0
167.028488 152.0
167.061935 128.0
167.349838 148.0
167.455765 40.0
167.545929 52.0
167.695389 172.0
168.523773 224.0
168.77449 232.0
168.795181 260.0
169.28685 112.0
169.360809 204.0
169.758499 256.0
169.844086 116.0
170.316498 84.0
170.493179 148.0
171.013336 120.0
171.039368 172.0
171.179962 188.0
171.497803 56.0
171.685532 120.0
171.865524 272.0
172.116104 180.0
172.719818 92.0
173.964539 116.0
174.06694 172.0
174.137848 60.0
174.624084 192.0
174.808243 68.0
175.039154 228.0
175.219009 164.0
175.793823 236.0
176.097427 180.0
176.364304 172.0
176.570526 148.0
176.763657 168.0
177.019104 328.0
177.073395 268.0
177.113129 196.0
177.168747 104.0
177.688385 156.0
178.025803 2820.0
178.118454 36.0
179.026825 564.0
179.182571 144.0
179.497086 176.0
179.553085 216.0
179.571762 136.0
179.854584 144.0
179.881287 80.0
180.038818 184.0
180.386169 152.0
180.699066 232.0
180.873016 116.0
181.956055 104.0
182.095688 184.0
182.531052 152.0
182.676285 52.0
183.309006 172.0
183.861847 136.0
183.956329 180.0
184.27771 144.0
184.496628 192.0
184.592804 216.0
184.661575 128.0
184.702148 144.0
184.915894 232.0
185.146027 116.0
185.175812 168.0
185.221863 140.0
185.514526 144.0
185.826416 168.0
185.915955 204.0
185.994675 168.0
186.069672 228.0
187.493332 52.0
188.25174 132.0
188.341873 144.0
188.582321 140.0
188.77916 104.0
188.846405 160.0
188.904984 104.0
189.111237 200.0
189.542908 172.0
189.569351 200.0
189.652527 148.0
189.773148 236.0
190.0392 212.0
190.121521 124.0
190.239548 216.0
190.26152 132.0
190.723022 100.0
190.742264 164.0
191.039413 460.0
191.289673 80.0
191.328217 248.0
191.427338 108.0
191.562302 136.0
191.650467 112.0
191.727615 172.0
191.879227 72.0
192.035263 356.0
192.061386 76.0
192.174347 152.0
192.370285 128.0
192.466171 140.0
192.477097 140.0
192.527679 128.0
192.602249 188.0
192.638153 64.0
192.681473 112.0
192.745911 144.0
192.770782 212.0
192.831589 200.0
192.895157 152.0
192.928528 112.0
192.961502 156.0
192.989716 196.0
193.050247 90940.0
193.123428 144.0
193.182816 180.0
193.19278 40.0
193.201233 200.0
193.229919 84.0
193.24292 80.0
193.265305 148.0
193.297577 136.0
193.358658 48.0
193.378799 56.0
193.433807 140.0
193.46434 76.0
193.504913 192.0
193.561569 92.0
193.624237 120.0
193.66011 132.0
193.680618 68.0
193.708282 76.0
193.78064 96.0
193.838943 68.0
193.874969 36.0
193.98645 144.0
194.053284 8108.0
194.167908 72.0
194.309967 96.0
194.344391 56.0
194.468491 60.0
194.487915 84.0
194.524002 52.0
194.648941 60.0
194.738632 104.0
194.760025 72.0
194.801697 44.0
194.833801 72.0
194.87532 60.0
195.054413 1092.0
195.115738 88.0
195.143539 64.0
195.196365 52.0
195.224167 116.0
195.259308 120.0
195.329559 148.0
195.393265 96.0
195.436905 84.0
195.476883 308.0
195.52742 96.0
195.56282 100.0
195.584671 84.0
195.666138 132.0
195.705582 68.0
195.747345 56.0
195.954483 88.0
196.058624 200.0
196.187576 52.0
196.207092 100.0
196.393921 112.0
196.464432 72.0
196.566895 96.0
196.605972 52.0
196.806961 60.0
197.047165 44.0
197.371384 116.0
197.494431 92.0
197.516815 52.0
198.522293 104.0
199.57251 44.0
201.50322 104.0
201.941376 64.0
202.13092 56.0
202.358307 60.0
202.541443 60.0
203.062973 104.0
203.125381 68.0
204.378281 92.0
204.890778 84.0
205.033249 140.0
205.150116 96.0
206.42067 52.0
207.010162 80.0
207.096085 100.0
208.122772 60.0
208.493332 64.0
208.815338 64.0
209.808777 84.0
210.691895 140.0
213.119858 60.0
213.308762 44.0
220.357178 36.0
221.549469 84.0
226.374756 112.0
227.559174 148.0
241.78418 72.0
242.062805 132.0
244.048706 140.0
251.299866 76.0
253.640106 44.0
261.066711 188.0
292.191681 116.0
300.655548 104.0
304.075134 292.0
305.0849 228.0
325.212555 64.0
328.01825 80.0
332.9245 64.0
349.355682 80.0
350.972076 120.0
357.700836 104.0
358.996948 124.0
361.391815 112.0
374.991119 168.0
378.030518 136.0
391.235413 68.0
394.34375 68.0
403.246887 104.0
411.897858 124.0
453.18927 96.0
457.793884 92.0
501.431946 72.0
514.643311 40.0
536.212646 64.0
543.115723 68.0
545.214294 96.0
596.916016 96.0
597.976562 68.0
608.177246 76.0
628.373291 112.0
655.710876 88.0
692.353943 60.0
698.126709 92.0
742.972595 72.0
743.482666 36.0
744.405518 48.0
771.249207 20.0
787.549072 36.0
810.117432 72.0
840.402527 204.0
855.389648 160.0
855.867004 96.0
873.847839 252.0
874.312683 72.0
874.895447 112.0
878.030151 112.0
892.901489 224.0
905.967712 132.0
908.779541 132.0
917.018127 160.0
924.470642 48.0
931.643555 104.0
945.858154 128.0
947.480957 140.0
991.264648 56.0
991.364929 100.0
1001.316223 188.0
1006.834595 152.0
1012.716492 64.0
1038.094727 192.0
1048.960449 156.0
1054.505005 136.0
1064.371338 144.0
1079.044556 40.0
1079.665771 168.0
1097.177856 148.0
1100.991699 140.0
1103.939087 76.0
1108.294678 220.0
1108.785034 148.0
1116.140381 140.0
1120.473267 220.0
1125.322021 116.0
1130.897217 104.0
1139.023804 156.0
1143.051025 148.0
1146.930176 168.0
1151.241333 108.0
1155.317139 92.0
1157.293335 148.0
1165.255981 72.0
1168.791504 220.0
1174.050415 48.0
1182.166138 76.0
1183.891235 160.0
1185.254517 140.0
1187.160156 180.0
1195.665039 40.0
1204.891113 200.0
1211.671143 96.0
1219.595825 200.0
1232.383789 104.0
1233.928345 128.0
1240.291748 104.0
1240.71228 200.0
1240.964722 152.0
1247.079102 140.0
1250.44104 164.0
1261.585815 184.0
1267.467285 52.0
1268.197144 120.0
1272.829712 176.0
1272.886597 228.0
1274.655273 180.0
1277.356934 176.0
1282.355469 176.0
1284.858276 232.0
1297.029419 56.0
1298.628418 80.0
1302.468506 156.0
1308.753906 108.0
1309.646851 172.0
1310.331299 164.0
1311.837402 72.0
1315.790771 220.0
1323.440186 212.0
1330.61084 148.0
1330.973877 148.0
1332.426392 212.0
1342.886841 128.0
1346.411865 152.0
1369.831665 48.0
1372.794556 192.0
1374.225586 208.0
1375.893555 92.0
1385.137329 168.0
1386.900879 240.0
1391.28479 136.0
1393.171143 160.0
1397.222778 120.0
1398.577148 176.0
1398.755737 204.0
1398.927002 116.0
1400.803589 144.0
1403.762451 168.0
1410.257568 152.0
1413.084229 156.0
1423.923462 156.0
1429.817749 260.0
1433.055664 156.0
1434.449951 132.0
1434.879639 184.0
1438.327148 120.0
1440.592529 132.0
1441.400879 164.0
1446.142578 208.0
1449.656616 172.0
1452.659058 96.0
1475.688965 152.0
1477.287354 124.0
1477.516846 212.0
1479.154541 96.0
1481.405884 188.0
1483.114624 148.0
1483.597534 68.0
1486.71167 172.0
1487.878296 240.0
1489.59082 272.0
1496.458374 152.0
1501.05835 220.0
1501.297485 152.0
1502.130493 180.0
1502.493042 108.0
1503.434326 136.0
1504.167603 160.0
1504.298828 60.0
