>compound Cefdinir (Omnicef)
>formula C14H13N5O5S2
>ionization [M+H]+
>parentmass 396.044281
#inchi InChI=1S/C14H13N5O5S2/c1-2-5-3-25-12-8(11(21)19(12)9(5)13(22)23)17-10(20)7(18-24)6-4-26-14(15)16-6/h2,4,8,12,24H,1,3H2,(H2,15,16)(H,17,20)(H,22,23)/b18-7-/t8-,12-/m1/s1
#inchikey RTXOFQZKPXMALH
#Ion_Source LC-ESI
#Instrument qTof
#Compound_Source Commercial
#PI Dorrestein
#Data_Collector Garg_Neha
#Scan -1
#Precursor_MZ 396.043
#ExactMass 395.036
#Charge 1
#CAS_Number 91832-40-5
#Pubmed_ID N/A
#Smiles [C@]12(N(C(=C(CS1)C=C)C(O)=O)C([C@@]2([H])NC(/C(C3N=C(SC=3)N)=N\O)=O)=O)[H]
#INCHI_AUX N/A
#Library_Class 1
#SpectrumID CCMSLIB00000078196
#IonMode Positive
#UpdateWorkflowName UPDATE-SINGLE-ANNOTATED-GOLD
#LibraryQualityString Gold
#TaskID 77f51c88eb8b467eb4a01dd2d0cb90d2
##Scan# 1026
#SpectrumFile Plate3_41_60_GG11_01_16500.mzXML
#LibraryName FDALibrary_2_04302014.mgf
#MQScore -1
#Organism FDALibrary_2_04302014
#TIC_Query 0
#RT_Query -1
#MZErrorPPM -1
#SharedPeaks 0
#MassDiff 0
#LibMZ -1
#SpecMZ 396.043
#SpecCharge 0
#internalFilename spec-00000.mgf

>collision 10
44.974911 264.0
45.026539 176.0
45.188282 168.0
45.344952 180.0
45.370422 232.0
45.525906 168.0
45.633564 168.0
45.723686 188.0
45.95681 192.0
45.997299 156.0
46.048607 180.0
46.068867 152.0
46.082378 180.0
46.190529 192.0
46.273079 176.0
46.293388 172.0
46.312351 172.0
46.359768 164.0
46.443825 168.0
46.484524 196.0
46.711418 144.0
47.158268 184.0
47.170956 204.0
47.30912 144.0
47.357044 152.0
47.425552 148.0
47.468052 168.0
47.499596 156.0
47.682209 144.0
47.761421 248.0
47.804604 148.0
47.86631 172.0
47.899601 172.0
47.921646 168.0
48.256393 116.0
48.399548 180.0
48.484047 184.0
48.536724 148.0
48.667152 220.0
48.701469 180.0
48.892342 160.0
49.000954 160.0
49.030216 144.0
49.261833 188.0
49.537994 316.0
49.656551 172.0
49.730915 192.0
49.846786 220.0
49.884018 208.0
50.087296 148.0
50.207859 164.0
50.398426 164.0
50.607758 228.0
50.77639 168.0
50.805599 192.0
50.833134 220.0
51.255459 160.0
51.307152 208.0
51.649487 180.0
51.723896 152.0
51.784031 200.0
51.79549 172.0
51.979 212.0
52.004829 148.0
52.095295 156.0
52.199997 160.0
52.406048 200.0
52.545898 140.0
53.05352 352.0
53.072369 180.0
53.19133 148.0
53.690384 180.0
53.782299 208.0
53.853405 160.0
54.021942 160.0
54.372131 148.0
54.888477 160.0
54.991741 148.0
55.012409 216.0
55.04932 200.0
55.089199 168.0
55.38504 168.0
55.485809 192.0
55.58815 316.0
55.80204 212.0
56.034218 212.0
56.494034 168.0
56.597301 144.0
56.987274 220.0
57.01432 168.0
57.04739 208.0
57.115055 180.0
57.334873 152.0
57.638191 156.0
57.684212 248.0
57.700157 140.0
57.744011 148.0
57.763832 152.0
58.128803 176.0
58.143673 180.0
58.311039 168.0
58.414433 208.0
58.572742 148.0
58.591022 212.0
58.919025 160.0
58.974892 164.0
59.203526 160.0
59.333767 196.0
59.361362 160.0
59.450336 148.0
59.496384 188.0
59.676136 148.0
59.700741 184.0
59.739193 144.0
59.948586 180.0
60.062675 148.0
60.213936 180.0
60.303543 268.0
60.523216 268.0
60.611504 184.0
60.723122 244.0
61.018158 248.0
61.346642 160.0
61.613499 244.0
61.633808 148.0
61.646309 212.0
61.938877 196.0
62.202312 212.0
62.233707 176.0
62.626854 200.0
62.694603 160.0
62.85387 168.0
62.891747 220.0
63.054424 152.0
63.06707 212.0
63.343975 152.0
63.380413 208.0
63.508823 160.0
64.020576 196.0
64.235748 216.0
64.811287 176.0
64.957184 168.0
64.987663 180.0
65.072731 196.0
65.096809 140.0
65.162666 160.0
65.239807 140.0
65.260712 184.0
65.300911 180.0
65.957146 228.0
66.254898 224.0
66.269478 168.0
66.410515 212.0
66.536972 228.0
66.572807 192.0
66.775955 236.0
67.028282 176.0
67.209274 224.0
67.356209 160.0
67.452614 152.0
67.552361 192.0
67.648911 140.0
67.693115 248.0
67.965218 144.0
67.989838 144.0
68.188553 196.0
68.274048 164.0
68.74189 204.0
68.877274 160.0
69.02932 204.0
69.174919 160.0
69.464905 148.0
69.723923 144.0
70.095024 168.0
70.335182 148.0
70.435371 176.0
70.548996 228.0
70.647667 152.0
70.789932 156.0
70.903847 180.0
71.053085 168.0
71.121887 236.0
71.148743 180.0
71.299919 220.0
71.498367 180.0
71.585907 176.0
71.619583 176.0
71.978806 224.0
72.039604 148.0
72.163635 184.0
72.313423 124.0
72.720299 160.0
72.808578 168.0
72.976807 208.0
73.075455 148.0
73.320175 168.0
73.342819 192.0
73.509956 188.0
73.899536 160.0
74.043327 176.0
74.248985 176.0
74.379379 236.0
74.439468 184.0
74.702431 164.0
74.955521 144.0
75.198677 160.0
75.43013 156.0
75.506203 180.0
75.672661 164.0
75.863487 128.0
76.145721 144.0
76.627563 148.0
77.006096 192.0
77.028809 200.0
77.156372 200.0
77.376816 168.0
77.587044 148.0
77.639648 220.0
77.687004 144.0
77.73613 148.0
77.751923 164.0
77.88987 188.0
77.978485 196.0
78.24762 144.0
78.291641 204.0
78.358574 192.0
78.41748 224.0
78.55426 168.0
78.568367 236.0
78.663666 176.0
78.690147 180.0
79.350067 168.0
79.438744 164.0
80.06617 164.0
80.287155 160.0
80.393501 216.0
80.572746 184.0
80.835579 172.0
80.977005 252.0
81.009247 188.0
81.032539 152.0
81.254852 176.0
81.366127 164.0
81.42897 216.0
81.449165 180.0
81.635643 152.0
81.828171 156.0
81.889397 144.0
81.923622 176.0
82.481216 148.0
82.595131 148.0
82.669312 144.0
82.739899 152.0
82.886604 144.0
82.939163 144.0
83.222168 176.0
83.422012 224.0
83.487465 168.0
83.704018 152.0
84.201866 156.0
84.386421 200.0
84.686539 196.0
85.201988 200.0
85.288361 168.0
85.378448 208.0
85.595589 176.0
85.617691 192.0
85.713478 140.0
85.763237 220.0
85.914764 140.0
86.056557 184.0
86.552086 208.0
86.948792 156.0
87.580933 148.0
87.899727 140.0
88.355621 184.0
88.559662 188.0
89.224464 200.0
89.284111 200.0
89.338654 164.0
89.357468 168.0
89.415802 196.0
89.660629 156.0
89.777512 236.0
89.837868 228.0
89.962418 172.0
90.066277 160.0
90.257156 180.0
90.285515 172.0
90.6073 168.0
90.741859 156.0
90.872726 192.0
91.208855 144.0
91.364792 236.0
91.479073 152.0
91.549416 164.0
91.669434 156.0
91.711357 172.0
91.781898 208.0
92.071953 172.0
92.498322 156.0
92.810043 208.0
93.056076 200.0
93.084991 224.0
93.142609 180.0
93.207932 232.0
93.496376 152.0
93.775635 152.0
93.949181 220.0
94.039871 176.0
94.06723 160.0
94.27549 164.0
94.551918 128.0
94.639145 244.0
94.848373 216.0
95.079178 192.0
95.288887 172.0
95.422989 188.0
95.732368 168.0
95.896019 224.0
95.954498 156.0
96.014946 152.0
96.039795 184.0
96.056808 480.0
96.444481 168.0
96.589172 232.0
96.643951 152.0
96.665474 152.0
96.804459 236.0
96.851463 164.0
97.010704 620.0
97.257339 148.0
97.516602 240.0
97.536255 204.0
97.738823 176.0
97.784698 232.0
97.807701 184.0
97.870705 180.0
97.89827 244.0
98.00885 176.0
98.120926 188.0
98.235306 168.0
98.257004 144.0
98.814041 180.0
99.001617 560.0
99.025948 284.0
99.142746 176.0
99.195534 212.0
99.214195 208.0
99.264519 252.0
99.436356 196.0
99.478035 196.0
99.565399 180.0
99.846573 192.0
99.882996 96.0
99.986519 520.0
100.023033 188.0
100.162079 184.0
100.328865 204.0
100.433167 160.0
100.455109 296.0
100.906441 172.0
100.938759 220.0
101.018051 168.0
101.196548 148.0
101.693695 156.0
101.884453 192.0
101.980911 140.0
102.000275 1352.0
102.438644 132.0
102.822784 140.0
102.851036 152.0
103.336037 140.0
103.7127 192.0
103.876709 136.0
104.048492 164.0
104.08802 204.0
104.191605 160.0
104.333862 156.0
104.549469 184.0
104.659393 188.0
105.045685 200.0
105.138367 128.0
105.236412 140.0
105.581749 180.0
105.731094 148.0
106.029732 300.0
106.306946 176.0
106.465019 148.0
106.555397 252.0
106.623207 148.0
106.736267 212.0
107.035057 176.0
107.057999 320.0
107.261253 224.0
107.531456 204.0
107.944626 176.0
108.045647 152.0
108.092293 176.0
108.63224 164.0
108.816948 164.0
109.009026 328.0
109.045258 180.0
109.074547 344.0
109.147308 212.0
109.788681 212.0
109.951408 188.0
110.0653 172.0
110.254227 228.0
110.4403 144.0
110.49469 144.0
110.532349 144.0
110.620255 188.0
110.670502 144.0
110.804543 164.0
110.875786 160.0
110.930283 152.0
110.957535 208.0
111.004425 212.0
111.026611 156.0
111.102242 184.0
112.006157 172.0
112.022774 192.0
112.050392 140.0
112.347649 176.0
112.44471 160.0
112.478485 184.0
112.527039 176.0
112.619957 164.0
113.016396 168.0
113.326515 220.0
113.411285 144.0
113.73793 200.0
114.022537 164.0
114.286224 148.0
114.505486 208.0
114.99585 188.0
115.053482 148.0
115.083374 184.0
115.553581 196.0
115.669144 208.0
115.835503 168.0
115.883301 156.0
116.02475 228.0
116.359428 164.0
116.571159 244.0
116.593559 148.0
116.927696 208.0
116.965652 140.0
116.993637 168.0
117.04348 160.0
117.073303 192.0
117.45047 160.0
117.79673 204.0
117.832565 200.0
117.947098 216.0
118.107101 180.0
118.468597 172.0
118.817635 160.0
118.890282 180.0
118.967377 160.0
119.06031 652.0
119.158485 216.0
119.249756 168.0
119.473724 172.0
119.889595 184.0
119.937546 176.0
120.043907 616.0
120.37825 156.0
120.620758 216.0
121.075798 448.0
121.744728 212.0
121.951248 180.0
122.252548 192.0
122.430862 164.0
122.488129 220.0
122.704086 140.0
122.72393 204.0
122.937897 192.0
123.014336 488.0
123.068321 140.0
123.094627 224.0
123.346489 156.0
123.532242 148.0
123.99279 208.0
124.021568 1144.0
124.052055 2336.0
124.476395 216.0
124.91304 164.0
125.004967 2416.0
125.054413 400.0
125.274849 192.0
125.392944 176.0
125.443436 172.0
125.515556 240.0
125.560066 208.0
125.670441 164.0
125.769226 176.0
125.839661 124.0
125.874809 160.0
125.890442 140.0
125.920731 128.0
125.944046 152.0
126.012756 24296.0
126.058784 524.0
126.127266 164.0
126.169067 200.0
126.187561 144.0
126.652229 104.0
127.016426 2164.0
127.072296 152.0
127.13961 160.0
127.304573 116.0
127.393974 196.0
127.98455 356.0
128.007965 1824.0
128.219101 180.0
128.792175 140.0
129.014511 216.0
129.294098 184.0
129.586212 164.0
129.690445 156.0
129.819672 180.0
129.899063 348.0
129.926285 200.0
129.97847 204.0
130.021576 160.0
130.257706 144.0
130.273621 168.0
130.694214 156.0
130.949173 164.0
130.967392 172.0
131.019791 140.0
131.076752 148.0
131.23175 192.0
131.298691 144.0
131.382263 152.0
131.644745 164.0
131.981155 208.0
132.044678 176.0
133.043503 172.0
133.197586 200.0
133.241226 184.0
133.804688 140.0
133.977417 156.0
134.001266 204.0
134.025787 152.0
134.047867 228.0
134.583984 168.0
134.657867 220.0
134.752579 168.0
134.784927 144.0
134.895859 208.0
135.05423 208.0
135.219681 148.0
135.25209 164.0
135.404907 144.0
135.4767 248.0
135.645874 180.0
135.703827 160.0
135.852249 156.0
135.870819 200.0
135.931137 176.0
136.023331 1220.0
136.053772 228.0
136.349152 240.0
136.37471 164.0
136.600266 144.0
136.977356 156.0
137.027145 600.0
137.072433 164.0
137.628036 164.0
137.860458 116.0
137.969131 240.0
138.010376 336.0
138.036667 1112.0
138.139847 164.0
138.362167 200.0
138.708878 176.0
138.997482 392.0
139.019455 452.0
139.043716 156.0
139.290817 164.0
139.311951 196.0
139.638672 168.0
139.963425 144.0
140.005356 104.0
140.040543 144.0
140.262634 184.0
140.545624 140.0
141.014908 212.0
141.152679 192.0
141.344284 172.0
141.749191 164.0
141.851105 140.0
141.870071 264.0
141.976776 272.0
142.007477 5172.0
142.083511 180.0
142.136887 216.0
142.634445 244.0
142.975021 704.0
143.008453 332.0
143.148331 180.0
143.179291 180.0
143.581238 176.0
143.837357 212.0
143.981476 144.0
144.022369 172.0
144.437119 172.0
144.966232 160.0
145.003876 172.0
145.041016 116.0
145.078873 188.0
145.878265 228.0
145.983994 140.0
145.991562 136.0
146.001266 156.0
146.051407 188.0
146.06897 144.0
146.614792 140.0
146.720566 108.0
146.781113 180.0
146.802826 172.0
147.054535 1268.0
147.817398 148.0
147.840225 184.0
148.020538 160.0
148.041306 304.0
148.061768 496.0
148.083694 164.0
148.69223 252.0
149.005478 160.0
149.044342 204.0
149.067642 332.0
149.36525 388.0
149.696259 212.0
149.752258 152.0
149.966675 192.0
150.014053 220.0
150.054504 576.0
150.098312 216.0
150.214218 128.0
150.662125 176.0
150.698761 148.0
151.007767 328.0
151.028107 320.0
151.046707 152.0
151.427734 216.0
152.017136 15156.0
152.30336 148.0
153.020233 1576.0
153.048889 884.0
153.430405 144.0
153.502991 172.0
153.967514 136.0
154.010269 912.0
154.02887 848.0
154.13002 112.0
154.173355 168.0
154.21785 184.0
154.292007 160.0
154.831421 180.0
154.996719 148.0
155.022598 348.0
155.031326 380.0
155.06601 404.0
155.158493 176.0
155.221802 180.0
155.34201 176.0
155.476746 172.0
156.024139 948.0
156.069687 152.0
156.697983 228.0
156.97879 244.0
157.008469 148.0
157.140045 164.0
157.456741 200.0
157.507645 200.0
157.842545 160.0
157.986633 240.0
158.508377 200.0
159.07103 164.0
159.552505 204.0
159.98465 128.0
160.282394 204.0
160.529434 160.0
161.03598 1152.0
161.120056 176.0
161.749725 196.0
161.939621 196.0
162.038422 176.0
162.081497 140.0
162.474487 172.0
162.697815 220.0
162.83493 204.0
163.050507 172.0
163.977264 208.0
164.018326 1632.0
164.280701 180.0
164.888397 208.0
165.023849 500.0
165.068314 316.0
165.238724 204.0
165.443451 204.0
165.960983 196.0
166.031418 5232.0
166.066132 140.0
166.68483 160.0
166.96875 240.0
166.995895 220.0
167.034668 1012.0
167.533875 168.0
167.763229 152.0
167.928253 192.0
167.981613 264.0
168.028259 584.0
168.103683 96.0
168.434143 160.0
168.87355 164.0
168.977386 140.0
168.985214 144.0
168.995499 288.0
169.01593 640.0
169.414551 144.0
169.531082 164.0
169.712585 196.0
169.862518 168.0
170.028122 12480.0
170.595291 160.0
170.700928 256.0
170.826736 176.0
170.886566 200.0
170.959427 168.0
170.990479 176.0
170.995483 164.0
171.032608 2316.0
171.230179 172.0
171.745819 100.0
171.994125 160.0
172.024261 720.0
172.187332 192.0
172.290359 144.0
172.885345 180.0
173.035446 216.0
173.082825 180.0
173.988846 168.0
174.026657 152.0
174.756271 184.0
174.919434 156.0
175.026367 180.0
175.053787 144.0
175.290787 184.0
175.944901 180.0
175.995071 176.0
176.655594 160.0
176.80661 244.0
177.757965 148.0
177.816345 160.0
178.670074 152.0
179.030991 840.0
179.126389 148.0
179.308365 180.0
179.711029 172.0
179.967255 212.0
180.023834 4424.0
180.146194 200.0
180.229004 176.0
180.327881 228.0
180.742386 224.0
180.908325 152.0
180.948486 212.0
180.973358 96.0
181.017899 1424.0
181.04274 1548.0
181.323502 152.0
181.475937 148.0
181.714996 144.0
181.886749 152.0
182.026505 5820.0
182.961243 220.0
183.033951 6624.0
183.999161 376.0
184.021652 740.0
184.148026 120.0
184.521393 156.0
184.985641 224.0
185.006531 232.0
185.031296 296.0
185.19249 140.0
186.062943 168.0
186.951752 140.0
187.030426 484.0
187.068726 176.0
187.09874 232.0
187.205673 276.0
187.879776 216.0
187.899979 184.0
187.999649 160.0
188.029266 188.0
188.11557 176.0
188.41597 156.0
189.003799 236.0
189.027878 180.0
189.087677 104.0
189.452805 152.0
189.959946 304.0
190.046539 292.0
190.503479 164.0
190.764542 160.0
190.996811 196.0
191.044647 444.0
192.010513 132.0
192.047699 176.0
193.019714 576.0
193.059814 420.0
194.024445 244.0
194.316071 184.0
194.590836 180.0
194.890793 184.0
195.031784 656.0
195.714096 164.0
195.973969 472.0
196.030045 180.0
196.410812 208.0
197.011871 704.0
197.488968 256.0
197.697922 140.0
197.973145 164.0
198.019318 928.0
198.071793 216.0
198.665451 220.0
198.786102 180.0
198.870285 256.0
198.961639 140.0
198.986664 428.0
199.028534 6276.0
199.097046 184.0
199.432037 248.0
199.994034 1728.0
200.024139 452.0
200.095917 220.0
200.31839 212.0
200.355011 144.0
200.996872 324.0
201.023529 588.0
201.446747 168.0
201.968689 272.0
201.995148 236.0
202.040405 196.0
202.785126 168.0
203.038315 144.0
203.264389 148.0
203.488632 144.0
204.32988 176.0
204.956512 132.0
205.883347 164.0
206.037598 244.0
206.975708 156.0
207.023682 1708.0
207.23349 172.0
207.97049 180.0
208.029572 308.0
208.386887 140.0
208.513321 172.0
208.858749 140.0
208.936005 176.0
209.012955 7092.0
210.020126 3608.0
210.091232 176.0
210.428894 168.0
210.638153 200.0
210.839081 180.0
210.985489 472.0
211.027985 7904.0
211.995117 1016.0
212.027283 520.0
212.486679 156.0
212.762375 168.0
213.003189 7492.0
213.887375 204.0
214.005035 1836.0
214.295074 160.0
214.612778 216.0
214.997971 640.0
215.844971 144.0
215.994888 228.0
216.116989 160.0
216.696716 216.0
216.828568 164.0
216.992722 148.0
217.068954 140.0
217.107086 156.0
217.576553 148.0
217.647018 156.0
218.045349 208.0
219.041031 152.0
220.058456 160.0
220.386597 204.0
220.430618 172.0
221.022018 220.0
222.008438 176.0
222.02919 144.0
222.373352 152.0
222.429749 168.0
222.985168 240.0
223.779404 284.0
224.616821 160.0
224.742126 148.0
224.992981 124.0
225.027725 348.0
225.393051 184.0
225.850449 196.0
225.956314 196.0
225.998001 1544.0
226.112839 224.0
226.173599 164.0
226.197556 176.0
226.496033 228.0
226.573044 184.0
226.619217 100.0
226.648941 200.0
226.694717 176.0
226.72554 168.0
226.778641 148.0
226.881989 184.0
226.913528 256.0
226.943207 152.0
226.971909 496.0
227.024628 82048.0
227.106781 148.0
227.222992 148.0
227.25441 104.0
227.404572 100.0
227.51593 164.0
227.5755 164.0
227.677322 248.0
227.761185 156.0
227.968155 188.0
228.024902 5908.0
228.545425 140.0
228.848419 176.0
229.021439 2592.0
229.063705 204.0
229.558701 108.0
229.685181 124.0
230.019333 116.0
230.058731 132.0
230.226456 196.0
230.853119 136.0
231.000198 272.0
231.150116 160.0
231.778275 164.0
232.049042 180.0
233.042648 164.0
233.767227 188.0
234.166046 204.0
234.447906 108.0
234.974152 220.0
235.016464 176.0
235.97496 176.0
236.003632 188.0
236.046997 124.0
236.173645 172.0
236.987518 172.0
237.030457 176.0
237.930237 228.0
237.991013 136.0
239.597107 236.0
240.636444 156.0
240.707458 148.0
240.995239 264.0
241.018997 256.0
241.068878 212.0
242.043274 144.0
242.89328 164.0
243.000702 5240.0
243.289642 160.0
243.662323 160.0
244.006485 900.0
244.055161 184.0
244.109909 208.0
244.473862 220.0
245.01445 1064.0
246.014603 256.0
246.05159 140.0
247.015701 152.0
247.565552 164.0
247.896469 156.0
248.347916 160.0
248.790375 140.0
248.975616 152.0
249.031509 156.0
251.046341 164.0
252.001328 100.0
252.065964 168.0
252.983688 860.0
253.028351 584.0
253.724472 184.0
253.993469 500.0
254.977554 172.0
255.522034 164.0
255.964447 168.0
255.991989 148.0
256.302094 160.0
257.052429 140.0
258.054108 272.0
258.086365 152.0
258.303833 204.0
259.066345 140.0
259.293182 176.0
260.008362 176.0
260.281219 144.0
261.052429 152.0
261.982605 140.0
263.037292 204.0
263.072601 152.0
264.022644 140.0
265.016754 148.0
265.042236 156.0
266.52182 200.0
267.582153 236.0
268.579315 172.0
269.578339 204.0
270.049133 232.0
270.179962 176.0
270.225769 192.0
270.996185 13740.0
271.997406 1292.0
272.067627 204.0
272.097168 192.0
272.992432 1480.0
273.056305 148.0
273.144684 180.0
273.986298 184.0
274.014618 184.0
274.073853 184.0
274.733246 180.0
275.015442 160.0
275.086365 140.0
275.93869 232.0
276.022278 156.0
276.209869 176.0
278.032135 200.0
279.23999 156.0
280.030243 212.0
281.160431 156.0
283.009003 140.0
283.062561 208.0
285.044861 124.0
285.490509 192.0
286.05661 160.0
288.011322 136.0
288.041962 96.0
288.749908 140.0
289.034424 260.0
289.579132 216.0
289.999237 144.0
290.504486 140.0
291.036102 760.0
292.022369 156.0
292.048676 140.0
292.092896 192.0
293.034363 144.0
295.026917 188.0
296.652985 184.0
299.044434 200.0
299.329407 140.0
300.053009 136.0
301.274658 244.0
301.457794 248.0
302.055908 228.0
303.062134 148.0
304.030548 208.0
306.041626 212.0
306.827393 208.0
306.897125 176.0
307.032715 228.0
307.057922 144.0
309.006683 176.0
309.045441 208.0
310.032654 148.0
314.573395 156.0
316.029846 456.0
317.021393 240.0
318.019989 132.0
318.060089 288.0
318.457764 196.0
318.511047 144.0
319.031097 568.0
319.225403 140.0
319.378326 184.0
320.034485 400.0
321.037994 156.0
322.062744 692.0
323.060059 156.0
323.474701 156.0
324.057404 336.0
329.179718 144.0
332.035797 228.0
332.315796 136.0
333.00119 208.0
333.041626 156.0
334.046387 156.0
335.027618 1488.0
335.380737 160.0
336.026184 280.0
337.026581 180.0
337.498108 160.0
341.60202 272.0
342.643829 232.0
345.00946 144.0
345.05011 184.0
345.869812 180.0
346.474976 188.0
350.036865 644.0
351.024353 156.0
351.766815 140.0
352.056183 220.0
353.056427 148.0
353.111938 144.0
353.890289 220.0
360.02182 136.0
360.85083 184.0
362.052246 388.0
362.922211 132.0
363.023254 728.0
364.02597 240.0
365.01709 332.0
365.653168 208.0
366.003387 184.0
366.045288 196.0
368.044373 840.0
369.059113 168.0
371.342041 184.0
372.04425 176.0
372.666412 204.0
378.029327 208.0
380.020142 192.0
380.879639 152.0
383.170929 216.0
383.81012 164.0
385.852112 156.0
386.090637 156.0
386.668671 180.0
389.264862 148.0
393.209259 900.0
394.208282 664.0
394.554749 208.0
395.211731 172.0
395.759186 168.0
395.838379 156.0
395.922455 160.0
396.044281 40312.0
396.897369 232.0
397.046265 8084.0
397.139374 104.0
397.85788 148.0
398.042145 4084.0
399.042267 812.0
399.173553 124.0
399.294891 144.0
399.444672 116.0
399.527557 120.0
399.559052 104.0
399.717346 128.0
399.785889 124.0
400.203827 116.0
400.246002 236.0
428.150818 144.0
511.191925 164.0
554.188599 228.0
700.335876 144.0
888.407227 208.0
970.695007 152.0
1135.849243 152.0
1144.309937 180.0
1167.050415 176.0
1187.41394 160.0
1231.608032 148.0
1272.72998 200.0
1275.294434 204.0
1277.683716 176.0
1326.583862 176.0
1328.490967 152.0
1330.043945 140.0
1332.403931 164.0
1333.806519 188.0
1338.003906 140.0
1341.609985 184.0
1342.266235 168.0
1370.427612 212.0
1384.203247 188.0
1413.734253 212.0
1416.80542 156.0
1418.377686 184.0
1420.094727 204.0
1429.891968 280.0
1437.586426 144.0
1444.476929 160.0
1448.852417 180.0
1449.526733 188.0
1455.185059 176.0
1456.11145 256.0
1480.738281 216.0
1481.465942 192.0
1503.745728 172.0
1516.67395 148.0
1526.18396 196.0
1540.422607 168.0
1542.523193 168.0
1547.179199 156.0
1554.233032 176.0
1554.413452 188.0
1556.022461 184.0
1556.729126 200.0
1560.084106 180.0
1572.071899 168.0
1589.10791 144.0
1590.861816 176.0
1593.665283 204.0
1594.928955 176.0
1596.781494 200.0
1629.804932 220.0
1631.034546 152.0
1634.718018 168.0
1639.203369 224.0
1641.170166 152.0
1645.115234 180.0
1646.835205 164.0
1647.14209 176.0
1647.836914 144.0
1651.062134 168.0
1652.995483 160.0
1656.484985 220.0
1658.332397 176.0
1662.314331 212.0
1666.707275 140.0
1669.889038 152.0
1675.632812 160.0
1676.080933 216.0
1677.605103 212.0
1679.904663 176.0
1684.761963 144.0
1688.432007 348.0
1689.552612 208.0
1691.974976 164.0
1692.449829 196.0
1693.096802 176.0
1693.39978 140.0
1695.734863 160.0
1698.801514 168.0
1703.340942 140.0
1708.009766 144.0
1708.692627 200.0
1712.042725 196.0
1721.212524 144.0
1723.426147 184.0
1728.627197 160.0
1736.796021 160.0
1737.252197 204.0
1737.766602 224.0
1748.877197 204.0
1763.607056 164.0
1764.601807 204.0
1766.107056 180.0
1766.66748 176.0
1767.261475 148.0
1770.199585 212.0
1773.994995 160.0
1777.752441 184.0
1778.92749 172.0
1782.345703 144.0
1782.917114 172.0
1786.928101 184.0
1789.570801 152.0
1803.895874 140.0
1815.665039 220.0
1822.829834 152.0
1823.95166 192.0
1824.733765 152.0
1829.489502 208.0
1829.710815 156.0
1833.08374 152.0
1835.069702 192.0
1835.342529 156.0
1840.837769 188.0
1840.98291 168.0
1841.068359 204.0
1841.657715 232.0
1842.5802 172.0
1852.598145 144.0
1853.274902 160.0
1853.334961 232.0
1854.79187 140.0
1864.928711 148.0
1865.848511 148.0
1866.304199 192.0
1867.602783 208.0
1868.110229 172.0
1872.267578 156.0
1874.050659 180.0
1874.42981 148.0
1874.515991 148.0
1878.197266 164.0
1882.868042 144.0
1883.471191 160.0
1885.717651 176.0
1889.608887 144.0
1891.74646 144.0
1892.820068 140.0
1894.959473 224.0
1896.293945 200.0
1897.55957 148.0
1899.181152 160.0
1899.918457 160.0
1900.595215 188.0
1904.102295 276.0
1905.335693 144.0
1908.968872 164.0
1909.760376 180.0
1910.599731 252.0
1911.465454 196.0
1911.917969 248.0
1918.895142 160.0
1922.750732 160.0
1923.792969 196.0
1925.928711 212.0
1931.015503 236.0
1931.732788 188.0
1932.528931 172.0
1933.095459 128.0
1935.154663 144.0
1938.0625 164.0
1944.165649 156.0
1946.948486 172.0
1951.614624 228.0
1952.502686 168.0
1952.740234 144.0
1953.241577 184.0
1956.515137 220.0
1957.428223 180.0
1963.855347 200.0
1965.160889 212.0
1966.820068 212.0
1972.208008 172.0
1972.367065 156.0
1972.535034 192.0
1976.311279 192.0
1976.408691 204.0
1977.798096 144.0
1979.78125 168.0
1983.006104 172.0
1985.887573 168.0
1988.824463 148.0
1990.219238 148.0
1990.901978 160.0
1994.091431 172.0
1995.967163 200.0
1998.057251 156.0
1998.849121 156.0
1999.489868 152.0
1999.737305 180.0
2001.946899 160.0
2002.258667 216.0
