>compound MLS001048925-01!2,3,4,6-tetramethoxybenzo[7]annulen-5-one
>formula C15H16O5
>ionization [M+H]+
>parentmass 277.106079
#inchi InChI=1S/C15H16O5/c1-17-10-7-5-6-9-8-11(18-2)14(19-3)15(20-4)12(9)13(10)16/h5-8H,1-4H3
#inchikey ZEEDZJJOWWIIFH
#Ion_Source LC-ESI
#Instrument qTof
#Compound_Source NIH Natural Product Library
#PI Dorrestein
#Data_Collector VVP/LMS
#Scan -1
#Precursor_MZ 277.108
#ExactMass 276.1
#Charge 1
#CAS_Number N/A
#Pubmed_ID N/A
#Smiles COc1cc2cccc(OC)c(=O)c2c(OC)c1OC
#INCHI_AUX N/A
#Library_Class 1
#SpectrumID CCMSLIB00000080407
#IonMode Positive
#UpdateWorkflowName UPDATE-SINGLE-ANNOTATED-GOLD
#LibraryQualityString Gold
#TaskID b1d8e8f6646f4e71acdff9ca3d919d08
##Scan# 1878
#SpectrumFile p2-E08_GE8_01_18032.mzXML
#LibraryName NIH_Natural_Products_Library.mgf
#MQScore -1
#Organism NIH_Natural_Products_Library
#TIC_Query 0
#RT_Query -1
#MZErrorPPM -1
#SharedPeaks 0
#MassDiff 0
#LibMZ -1
#SpecMZ 277.108
#SpecCharge 0
#internalFilename spec-00000.mgf

>collision 10
95.012024 264.0
95.027046 188.0
95.713165 216.0
96.329468 192.0
97.566032 112.0
98.008873 216.0
98.07785 48.0
98.286896 92.0
98.644371 148.0
99.079742 200.0
99.129272 136.0
99.466438 188.0
100.009079 184.0
100.323814 144.0
100.491341 144.0
102.047302 324.0
102.190392 108.0
102.47831 120.0
102.542793 164.0
102.843315 188.0
103.054062 316.0
103.461876 100.0
104.029503 108.0
104.05793 104.0
104.309837 204.0
104.425735 120.0
105.034752 212.0
105.075447 160.0
105.116356 264.0
105.645538 160.0
106.042778 148.0
106.094025 132.0
106.520866 220.0
107.049484 228.0
108.657555 140.0
109.187248 112.0
109.918449 244.0
110.043686 188.0
111.243988 256.0
111.545784 144.0
112.090889 288.0
112.291161 144.0
112.447289 148.0
112.711258 136.0
112.747658 216.0
112.776772 136.0
113.032669 44.0
114.045235 252.0
114.242027 136.0
115.052811 1048.0
115.162888 232.0
115.763847 136.0
116.023109 108.0
116.064934 380.0
116.671455 144.0
116.985542 160.0
117.043671 168.0
117.071823 860.0
117.127663 44.0
117.164284 228.0
117.608505 112.0
117.722931 152.0
118.040588 476.0
118.371674 200.0
118.404152 112.0
118.821533 124.0
118.939697 128.0
119.048775 232.0
119.593948 120.0
119.665787 84.0
119.781212 124.0
120.11908 132.0
120.254364 208.0
120.934105 216.0
121.06205 168.0
121.196899 168.0
121.565292 280.0
121.631134 72.0
121.808998 116.0
122.189316 212.0
122.530563 136.0
122.731133 100.0
122.843613 164.0
123.904755 176.0
124.339363 224.0
124.401512 36.0
124.479225 116.0
124.57473 112.0
124.852562 136.0
125.683464 168.0
126.047539 304.0
126.449966 164.0
126.539513 212.0
126.582054 140.0
127.054504 572.0
127.477097 140.0
127.638947 92.0
127.830154 96.0
127.946922 168.0
128.062439 984.0
128.091324 144.0
128.643799 116.0
129.005234 68.0
129.06987 776.0
129.330978 220.0
129.537033 64.0
129.711517 112.0
129.750046 184.0
130.04303 188.0
130.073181 172.0
130.135742 148.0
130.172073 96.0
130.622086 80.0
130.731293 192.0
131.018188 68.0
131.04921 796.0
131.082764 148.0
131.398926 200.0
131.490189 184.0
132.027084 116.0
132.057404 344.0
132.691116 224.0
133.025574 188.0
133.061539 328.0
133.156937 124.0
133.987335 112.0
134.038025 80.0
134.083023 144.0
134.737137 144.0
134.762543 200.0
135.077805 220.0
135.255127 156.0
135.345428 160.0
136.020065 96.0
136.082748 156.0
136.438217 120.0
136.563782 168.0
136.959473 108.0
137.169189 204.0
137.334732 144.0
137.946518 184.0
139.053238 172.0
140.055969 180.0
140.662064 40.0
140.7258 128.0
140.742325 96.0
141.071014 328.0
141.134567 104.0
141.453949 88.0
141.560486 220.0
141.9254 200.0
142.039383 180.0
142.062958 128.0
142.459412 192.0
142.594849 160.0
143.006317 144.0
143.044907 608.0
143.237274 60.0
143.582886 188.0
143.702148 204.0
144.019653 192.0
144.054977 612.0
144.084152 148.0
144.390106 192.0
144.409241 196.0
145.064026 1716.0
145.125275 128.0
145.350739 132.0
145.415527 108.0
145.576385 60.0
145.756546 180.0
145.792587 168.0
146.034363 764.0
146.066971 432.0
146.138855 144.0
146.44458 236.0
146.593948 40.0
146.656616 72.0
146.832611 92.0
147.04216 1224.0
147.072769 184.0
147.496597 132.0
148.049744 1268.0
148.525696 128.0
148.666412 64.0
149.054504 284.0
149.414795 220.0
149.911514 208.0
150.279709 148.0
150.482285 136.0
150.919647 184.0
151.311111 128.0
151.629547 172.0
152.014572 144.0
152.559845 212.0
152.601639 140.0
153.145477 132.0
153.549683 160.0
153.949493 180.0
154.045883 136.0
154.134766 160.0
154.71846 168.0
154.84227 116.0
154.867035 40.0
155.053955 500.0
155.099945 228.0
155.194153 152.0
155.407471 152.0
155.429794 60.0
155.462051 168.0
155.563812 156.0
156.058563 584.0
156.100479 192.0
156.185043 128.0
156.441345 36.0
156.650528 200.0
156.802521 160.0
157.028656 360.0
157.063339 500.0
157.521118 48.0
157.658539 140.0
158.037216 1596.0
158.073257 564.0
158.351547 68.0
158.406647 152.0
158.890488 56.0
159.04248 752.0
159.085953 176.0
159.282104 104.0
159.943039 116.0
160.051224 420.0
160.481033 188.0
160.951843 64.0
161.028336 168.0
161.055923 468.0
161.292908 44.0
161.399094 132.0
161.548309 156.0
162.02861 160.0
162.059723 128.0
162.767395 64.0
163.076981 204.0
163.540237 56.0
164.544617 116.0
165.088867 196.0
165.74675 60.0
165.808243 136.0
166.318649 60.0
166.557449 168.0
167.048752 184.0
167.177063 60.0
167.772049 92.0
168.009308 120.0
168.058319 136.0
168.076385 108.0
168.970367 96.0
169.029083 328.0
169.064987 120.0
169.09198 244.0
169.239532 56.0
169.887466 136.0
170.039566 208.0
170.075409 196.0
170.45607 172.0
170.983978 192.0
171.044724 880.0
171.484024 88.0
171.666519 36.0
171.78389 44.0
172.049667 1032.0
172.185852 104.0
172.69812 48.0
172.771362 48.0
173.023575 228.0
173.060211 3988.0
173.124725 60.0
173.281891 104.0
174.020813 180.0
174.026123 132.0
174.035629 148.0
174.062881 1208.0
174.095032 64.0
174.410309 60.0
174.925873 172.0
174.983795 116.0
175.037415 280.0
175.071777 676.0
175.107559 36.0
175.83522 108.0
176.048172 2436.0
176.086029 140.0
176.276245 40.0
176.606705 72.0
176.625229 48.0
176.69136 216.0
176.818375 48.0
176.974564 40.0
177.016922 144.0
177.053467 336.0
177.363983 116.0
177.531021 136.0
178.066071 144.0
178.494965 100.0
178.641251 244.0
178.713074 172.0
178.768951 92.0
178.83815 208.0
179.09642 120.0
179.261612 92.0
179.760269 196.0
180.294373 192.0
180.462769 148.0
180.481491 112.0
181.794052 100.0
182.172623 68.0
182.360718 80.0
183.052628 200.0
183.272995 184.0
183.341721 112.0
183.469742 184.0
184.012024 168.0
184.049408 460.0
184.482101 136.0
184.590256 104.0
185.001511 64.0
185.030411 200.0
185.063385 1124.0
185.250641 184.0
185.323792 160.0
185.45929 60.0
186.027054 1028.0
186.072586 524.0
186.305923 260.0
186.501572 124.0
186.602158 148.0
186.659256 176.0
186.980255 32.0
187.033966 672.0
187.078857 804.0
187.533142 148.0
187.718536 60.0
187.937256 172.0
188.041412 328.0
188.077255 124.0
188.346252 100.0
188.855194 80.0
189.05304 1656.0
189.096802 300.0
189.306213 76.0
189.766556 60.0
189.903671 60.0
189.96402 60.0
190.060944 1756.0
190.101196 156.0
190.150604 92.0
190.881348 124.0
190.941849 84.0
191.031052 140.0
191.069427 2148.0
191.144577 104.0
191.368378 188.0
191.442719 60.0
191.825699 48.0
192.074387 176.0
192.255966 64.0
192.280807 64.0
192.443665 56.0
194.689392 252.0
194.792404 172.0
195.050583 148.0
195.181244 196.0
195.420441 116.0
195.548462 176.0
195.913223 176.0
197.06546 140.0
197.085022 144.0
198.070099 584.0
198.159424 36.0
198.599533 48.0
198.683701 156.0
198.812759 52.0
199.036819 404.0
199.075882 880.0
199.276077 68.0
199.416595 132.0
199.52507 128.0
199.956924 172.0
200.046448 400.0
200.077637 148.0
200.353622 124.0
200.770782 188.0
200.920273 108.0
201.017944 220.0
201.055359 3764.0
201.654465 36.0
202.024399 320.0
202.052887 556.0
202.095612 92.0
202.155029 156.0
202.234756 212.0
202.389969 108.0
202.585403 68.0
202.695892 184.0
203.036301 232.0
203.069321 488.0
203.981552 136.0
204.042648 1664.0
204.149307 64.0
204.191971 68.0
205.047409 476.0
205.08905 696.0
205.476654 108.0
206.067642 28.0
207.949036 204.0
209.280014 164.0
209.573807 80.0
210.872406 88.0
212.042419 384.0
212.369293 156.0
213.056458 476.0
214.025757 84.0
214.05658 364.0
214.244202 108.0
215.033188 212.0
215.070801 1460.0
215.168686 60.0
215.526382 64.0
216.049667 416.0
216.078232 1868.0
216.956207 156.0
217.048248 140.0
217.08046 360.0
217.158539 64.0
217.854202 96.0
217.989365 108.0
218.056992 2720.0
218.093369 304.0
218.189224 40.0
218.327423 88.0
218.371536 144.0
218.430374 192.0
218.468613 40.0
218.539215 120.0
218.70108 92.0
219.019073 136.0
219.065201 4732.0
219.116287 64.0
219.334366 60.0
219.458176 76.0
219.481766 56.0
219.88887 48.0
219.927231 36.0
220.071335 608.0
220.695328 96.0
221.072189 128.0
221.532883 80.0
221.84404 96.0
225.941864 116.0
226.061584 472.0
228.040909 164.0
228.094727 208.0
229.04866 640.0
230.051163 504.0
231.069397 356.0
231.12294 68.0
231.537659 124.0
232.038315 232.0
232.071121 272.0
232.271149 52.0
232.467407 128.0
232.547256 76.0
232.723328 176.0
233.033127 168.0
233.080933 2580.0
233.121246 156.0
233.413071 72.0
233.458694 96.0
233.486053 108.0
233.537766 92.0
233.571213 116.0
233.595551 116.0
233.778107 84.0
233.814621 68.0
233.951599 52.0
233.972916 60.0
234.033798 36.0
234.088684 1380.0
234.170837 52.0
234.210434 68.0
234.289627 240.0
234.448074 76.0
234.701096 52.0
234.954239 116.0
235.076721 280.0
235.931503 72.0
237.097702 152.0
241.036697 128.0
242.953217 88.0
243.062759 444.0
243.213882 204.0
244.07135 456.0
245.011261 200.0
245.048126 412.0
245.081268 492.0
245.559891 64.0
246.057526 284.0
246.087906 212.0
246.215286 228.0
246.315231 144.0
246.674591 152.0
246.784012 164.0
246.865311 80.0
247.061447 4244.0
247.281387 76.0
247.360626 64.0
247.436401 116.0
247.481735 44.0
247.547501 40.0
247.907745 76.0
248.062073 1060.0
249.030899 96.0
249.073639 160.0
250.263626 188.0
250.600647 104.0
251.420502 68.0
251.764618 72.0
255.934555 104.0
256.734375 88.0
258.088318 152.0
260.270386 116.0
260.524109 76.0
261.074738 288.0
262.041046 172.0
262.083984 1396.0
263.01004 124.0
263.083893 124.0
263.940491 68.0
264.105408 36.0
277.106079 400.0
278.112549 136.0
302.729675 76.0
303.419189 48.0
324.666718 100.0
334.916901 48.0
341.093475 148.0
347.148468 140.0
364.815308 100.0
384.952393 76.0
387.169708 128.0
399.321686 84.0
402.509796 88.0
404.244659 100.0
405.097443 76.0
406.043396 48.0
428.664673 104.0
433.773071 92.0
468.994324 68.0
556.837708 124.0
601.089294 36.0
636.04303 180.0
714.871887 76.0
750.730164 176.0
814.161682 88.0
876.260803 180.0
893.631897 132.0
922.702637 164.0
964.493591 88.0
978.251953 168.0
1008.48645 164.0
1012.69397 180.0
1023.47699 188.0
1050.097412 212.0
1059.036133 220.0
1083.66687 156.0
1092.25354 156.0
1099.13147 204.0
1111.292847 204.0
1113.005249 208.0
1114.393433 120.0
1121.240601 96.0
1152.768555 156.0
1157.896484 140.0
1159.156494 192.0
1170.391357 124.0
1179.498901 140.0
1197.385986 148.0
1216.622192 180.0
1228.110596 180.0
1230.559937 84.0
1242.45752 148.0
1248.680908 56.0
1253.932983 96.0
1254.800049 136.0
1257.826416 164.0
1271.564575 120.0
1271.642578 148.0
1298.726685 48.0
1304.018188 216.0
1318.591064 208.0
1319.740356 92.0
1321.13623 240.0
1330.731567 132.0
1335.869507 160.0
1337.645142 56.0
1339.072144 88.0
1341.746338 180.0
1345.554688 248.0
1347.39502 132.0
1347.614258 104.0
1350.691895 164.0
1351.313721 156.0
1354.410278 164.0
1355.223389 136.0
1357.598389 116.0
1360.503906 216.0
1370.992432 148.0
1375.506226 180.0
1385.259521 180.0
1386.719238 180.0
1407.093628 28.0
1407.235474 96.0
1407.653564 224.0
1409.379028 160.0
1412.294556 240.0
1418.801758 124.0
1422.575073 100.0
1423.040527 152.0
1431.73291 184.0
1435.055908 224.0
1435.531006 56.0
1435.711914 160.0
1436.028687 136.0
1442.877563 136.0
1447.606445 40.0
1459.192627 188.0
1461.702637 204.0
1462.707275 148.0
1470.649536 92.0
1471.809814 148.0
1478.728149 120.0
1480.419922 172.0
1482.94812 172.0
1487.327637 120.0
1491.306274 124.0
1493.436035 176.0
