>compound MLS002154190-01!Todralazine hydrochloride3778-76-5
>formula C11H12N4O2
>ionization [M+H]+
>parentmass 233.103775
#inchi InChI=1S/C11H12N4O2/c1-2-17-11(16)15-14-10-9-6-4-3-5-8(9)7-12-13-10/h3-7H,2H2,1H3,(H,13,14)(H,15,16)
#inchikey WGZDBVOTUVNQFP
#origInchi InChI=1S/C11H12N4O2.ClH/c1-2-17-11(16)15-14-10-9-6-4-3-5-8(9)7-12-13-10;/h3-7H,2H2,1H3,(H,13,14)(H,15,16);1H
#Ion_Source LC-ESI
#Instrument qTof
#Compound_Source NIH Pharmacologically Active Library
#PI Dorrestein
#Data_Collector VP/LMS
#Scan -1
#Precursor_MZ 233.103
#ExactMass 232.096
#Charge 1
#CAS_Number N/A
#Pubmed_ID N/A
#Smiles CCOC(=O)NNc1nncc2ccccc12.Cl
#INCHI_AUX N/A
#Library_Class 1
#SpectrumID CCMSLIB00000084999
#IonMode Positive
#UpdateWorkflowName UPDATE-SINGLE-ANNOTATED-GOLD
#LibraryQualityString Gold
#TaskID d252d724072548979f1f6f1ced849daf
##Scan# 1113
#SpectrumFile p3-D07_GD7_01_18264.mzXML
#LibraryName Pharm_Active_Library.mgf
#MQScore -1
#Organism Pharm_Active_Library
#TIC_Query 0
#RT_Query -1
#MZErrorPPM -1
#SharedPeaks 0
#MassDiff 0
#LibMZ -1
#SpecMZ 233.103
#SpecCharge 0
#internalFilename spec-00000.mgf

>collision 10
45.104752 136.0
45.533527 176.0
45.599365 160.0
45.931953 160.0
46.129112 160.0
46.437851 188.0
46.549141 120.0
46.625221 32.0
47.169079 140.0
47.455215 176.0
48.198322 164.0
48.625072 200.0
48.834877 32.0
49.699657 180.0
49.76741 164.0
50.247002 180.0
50.434826 216.0
50.48431 128.0
50.516571 188.0
50.868294 52.0
51.098526 160.0
51.209568 164.0
51.426296 248.0
51.559128 204.0
51.66637 168.0
51.735069 72.0
52.017487 164.0
52.440388 132.0
52.558647 64.0
52.779655 56.0
52.934494 188.0
53.064907 72.0
53.124371 144.0
53.526981 204.0
53.649372 164.0
54.294224 160.0
55.392349 212.0
55.536137 124.0
55.748451 204.0
55.833191 224.0
56.317593 228.0
56.549355 144.0
57.039856 180.0
57.18576 100.0
57.295692 140.0
57.803028 168.0
57.910519 224.0
57.922638 188.0
58.358208 176.0
58.641365 216.0
59.183704 96.0
59.409008 48.0
59.541016 172.0
59.648575 204.0
59.950562 256.0
60.201714 56.0
60.746548 168.0
60.856739 200.0
61.209717 148.0
61.454445 176.0
61.495018 196.0
61.640263 132.0
62.019009 168.0
62.316639 168.0
62.356476 160.0
62.505878 136.0
62.556244 120.0
62.650734 216.0
62.674366 244.0
62.701157 224.0
62.794182 124.0
62.901478 168.0
63.241333 204.0
63.317329 68.0
63.399715 56.0
63.618607 164.0
63.72184 180.0
64.038414 132.0
64.057526 192.0
64.247238 180.0
64.779594 172.0
64.999252 188.0
65.154999 96.0
65.616913 140.0
65.999588 216.0
66.088547 88.0
66.167862 256.0
66.261795 160.0
66.299065 160.0
66.560249 68.0
66.597603 176.0
66.674675 256.0
66.854485 104.0
66.934258 188.0
67.34687 156.0
67.477608 180.0
67.937828 48.0
68.166054 148.0
68.195633 124.0
68.924072 152.0
68.957123 144.0
69.804298 100.0
69.959038 104.0
70.148956 164.0
70.320763 164.0
70.526207 148.0
70.850861 60.0
71.37117 236.0
71.421623 244.0
71.45359 76.0
71.986237 216.0
72.001434 160.0
72.089287 224.0
72.317604 164.0
72.339615 164.0
72.405647 216.0
72.463242 148.0
72.586983 176.0
73.15107 176.0
73.176605 100.0
73.219177 44.0
73.479988 232.0
74.378448 128.0
74.447128 92.0
74.815094 176.0
74.947716 184.0
75.121849 196.0
75.389481 156.0
75.411949 40.0
75.560669 232.0
75.602196 208.0
75.747635 240.0
75.966064 184.0
76.254311 148.0
76.48391 216.0
76.659821 228.0
76.89875 68.0
76.963341 136.0
77.344467 244.0
77.772171 128.0
77.7985 196.0
78.66111 164.0
79.152626 148.0
79.947922 72.0
80.00132 52.0
81.236206 48.0
81.277473 208.0
81.516304 168.0
81.817497 204.0
81.836487 140.0
82.004028 188.0
82.085152 164.0
82.233093 156.0
82.285439 132.0
82.310722 172.0
82.71933 176.0
83.067261 152.0
83.134392 240.0
83.325058 160.0
83.383202 152.0
83.583252 88.0
83.614189 96.0
83.656052 200.0
84.172035 156.0
84.607201 212.0
85.039818 112.0
85.127945 156.0
85.642914 56.0
86.373878 100.0
86.536736 108.0
86.887032 160.0
87.184128 188.0
87.204575 144.0
87.397987 144.0
87.738831 152.0
87.945892 180.0
88.140121 128.0
88.183105 176.0
88.420639 164.0
88.606026 164.0
88.667862 120.0
88.817856 168.0
88.848091 172.0
89.038467 1648.0
89.193413 68.0
89.274261 128.0
89.777084 172.0
90.04454 928.0
90.188675 160.0
91.035576 140.0
91.056465 220.0
91.360603 184.0
92.044861 204.0
92.264587 132.0
92.85054 208.0
92.888901 140.0
93.655869 160.0
93.773407 72.0
94.02607 72.0
94.209503 200.0
94.441475 144.0
94.789955 252.0
95.014877 220.0
95.315834 100.0
96.675049 208.0
97.060959 168.0
97.215927 60.0
97.691422 68.0
97.917793 176.0
98.02417 148.0
98.173996 152.0
98.266708 172.0
98.353539 152.0
98.464111 240.0
98.505592 208.0
98.742783 76.0
99.315201 92.0
99.555351 196.0
100.27356 168.0
101.466957 192.0
101.787994 176.0
101.856285 196.0
102.029106 104.0
102.045189 164.0
102.111549 188.0
102.586761 88.0
102.834869 140.0
102.968124 168.0
103.041176 2252.0
103.075195 192.0
103.242989 124.0
103.96624 96.0
104.016983 108.0
104.048615 3552.0
104.084969 172.0
104.24649 176.0
104.295265 184.0
104.400993 84.0
104.571892 156.0
104.777565 124.0
104.918182 176.0
104.975281 52.0
105.055031 216.0
105.073189 40.0
105.291603 192.0
105.563408 64.0
105.656326 188.0
105.860138 60.0
106.376823 116.0
106.47744 128.0
106.664413 204.0
107.125366 96.0
107.932358 200.0
108.389648 140.0
108.435417 140.0
108.839951 124.0
109.263962 184.0
109.365929 156.0
109.401321 100.0
110.17086 164.0
110.769157 156.0
110.844582 244.0
111.350174 144.0
111.446808 204.0
111.560303 76.0
112.417557 160.0
112.873848 100.0
112.949982 204.0
113.644875 212.0
113.687309 48.0
113.721268 172.0
113.857147 164.0
113.959114 132.0
114.031761 172.0
114.301453 168.0
114.334938 180.0
114.412132 144.0
114.661354 116.0
115.038101 168.0
115.169159 80.0
115.654541 56.0
115.896538 148.0
116.0037 204.0
116.048317 1388.0
116.368706 60.0
116.516609 148.0
116.667053 224.0
116.94239 80.0
117.006973 140.0
117.0242 172.0
117.055885 7692.0
117.153419 60.0
117.256851 56.0
117.278404 56.0
117.387611 116.0
117.513466 56.0
117.636482 148.0
117.768204 68.0
117.817886 124.0
118.057114 920.0
118.08593 88.0
118.120537 64.0
118.187607 116.0
118.297981 180.0
118.896225 136.0
118.9608 80.0
119.001526 212.0
119.052536 160.0
119.424187 172.0
119.567787 128.0
119.676628 76.0
120.055794 172.0
121.495064 104.0
121.738708 176.0
121.852928 124.0
121.898361 248.0
121.927643 36.0
121.960609 136.0
122.684845 272.0
123.574898 76.0
123.641281 36.0
125.173073 220.0
125.342369 196.0
125.420372 128.0
125.442665 216.0
126.467957 120.0
126.929466 260.0
126.951897 64.0
127.873016 216.0
128.614578 188.0
128.987289 104.0
129.04393 596.0
129.399017 260.0
129.630066 68.0
130.050705 2472.0
130.0746 76.0
130.26535 256.0
130.367599 152.0
130.776978 148.0
130.981903 172.0
131.059067 4196.0
131.107224 132.0
131.123184 96.0
131.166489 48.0
131.332947 68.0
131.524612 200.0
131.556564 96.0
131.750687 184.0
132.066925 4648.0
132.093979 48.0
132.101151 120.0
132.304138 72.0
132.354507 136.0
132.519424 72.0
133.03775 168.0
133.071747 576.0
133.849365 36.0
134.042862 140.0
134.070984 176.0
134.455658 240.0
134.661148 52.0
134.859848 144.0
134.929199 36.0
135.033798 568.0
135.132721 80.0
135.239182 112.0
135.308624 56.0
135.904297 116.0
135.990158 180.0
136.036575 112.0
136.240952 224.0
138.428802 40.0
138.897552 172.0
139.014862 168.0
140.332123 40.0
140.560928 180.0
140.995453 212.0
141.212967 88.0
141.326508 148.0
142.020645 240.0
142.103668 180.0
142.371902 156.0
142.39328 196.0
142.678436 184.0
143.759827 156.0
143.82666 108.0
144.054413 1888.0
144.245193 56.0
144.302048 40.0
144.577148 96.0
144.811768 148.0
144.981873 140.0
144.998657 92.0
145.020218 228.0
145.062912 10900.0
145.111511 144.0
145.283997 40.0
145.334381 48.0
145.850723 84.0
145.944473 68.0
146.014221 52.0
146.065994 1432.0
146.134491 84.0
146.172989 100.0
146.218719 132.0
146.440231 60.0
146.830673 116.0
147.055847 328.0
147.139542 88.0
147.545425 72.0
147.741318 40.0
147.81633 208.0
148.048721 376.0
148.385544 44.0
148.715454 180.0
150.133881 112.0
151.95871 128.0
154.902344 144.0
156.758316 388.0
157.08493 144.0
157.107391 52.0
157.859207 172.0
158.037689 216.0
158.074341 204.0
158.540131 84.0
158.878632 156.0
159.017868 204.0
159.028183 100.0
159.066467 7556.0
159.119568 164.0
159.154709 220.0
159.47377 80.0
159.594437 108.0
159.823334 124.0
160.071869 864.0
160.200989 96.0
160.407623 144.0
160.54126 56.0
160.624481 140.0
160.803635 48.0
160.826355 116.0
160.871796 40.0
160.922287 196.0
160.962677 184.0
161.018234 172.0
161.082077 8756.0
161.153458 116.0
161.254639 52.0
161.409943 80.0
161.456528 172.0
161.480759 52.0
161.733276 40.0
161.799606 36.0
161.824921 96.0
161.905945 52.0
162.04274 180.0
162.08287 1000.0
163.083191 160.0
163.108612 92.0
164.98996 40.0
169.276688 48.0
170.031082 132.0
170.659729 152.0
170.971893 40.0
171.034348 56.0
172.091614 224.0
172.16069 60.0
173.998856 116.0
174.534866 196.0
177.847794 216.0
178.052231 156.0
178.636993 60.0
180.929413 40.0
186.051865 84.0
186.233795 40.0
186.445724 140.0
187.059692 4656.0
187.114883 164.0
187.136658 64.0
187.425385 108.0
187.466263 104.0
187.948914 80.0
188.014404 112.0
188.064743 736.0
188.36937 48.0
190.322098 140.0
198.934921 156.0
202.720108 48.0
205.00206 76.0
205.069824 964.0
206.077835 156.0
208.847137 84.0
209.457367 60.0
210.64006 68.0
213.47464 56.0
218.752975 80.0
222.872864 84.0
233.103775 200.0
234.112106 148.0
234.270493 108.0
234.945404 184.0
243.877853 164.0
257.835266 136.0
265.692291 124.0
307.405548 76.0
318.155304 76.0
319.086121 84.0
321.76178 88.0
370.767395 104.0
372.897461 124.0
444.3396 56.0
522.675964 68.0
715.590881 32.0
729.963257 144.0
752.466736 124.0
763.915283 108.0
806.843994 148.0
821.981079 132.0
834.34729 216.0
841.450989 184.0
854.264648 276.0
859.8526 124.0
862.106873 116.0
874.434692 176.0
891.919067 192.0
905.122009 168.0
907.326904 176.0
908.898376 172.0
910.026794 164.0
921.059692 128.0
926.61322 180.0
928.777405 232.0
939.105591 88.0
940.979065 200.0
949.723938 196.0
951.466736 196.0
974.243469 72.0
988.352966 212.0
993.622314 204.0
994.921448 164.0
995.945007 60.0
1001.272339 192.0
1004.796021 212.0
1016.5271 176.0
1019.696106 204.0
1023.767822 188.0
1028.039062 204.0
1038.666382 180.0
1039.975342 136.0
1044.781982 180.0
1045.31604 204.0
1048.929199 44.0
1049.902832 212.0
1050.747803 148.0
1052.4646 188.0
1059.080566 192.0
1069.74292 236.0
1073.424194 152.0
1077.07251 40.0
1077.137817 152.0
1078.777954 232.0
1089.637451 152.0
1092.293335 164.0
1092.56958 164.0
1093.583008 156.0
1094.313721 184.0
1100.901123 212.0
1101.786255 40.0
1103.220337 176.0
1106.389282 152.0
1106.601074 216.0
1120.595581 192.0
1124.423218 156.0
1130.846191 232.0
1133.819824 200.0
1136.716919 192.0
1141.257812 148.0
1143.006714 220.0
1149.003296 176.0
1151.859009 212.0
1156.01709 232.0
1161.362549 224.0
1162.054565 44.0
1169.631958 72.0
1171.055054 48.0
1171.21167 88.0
1173.685669 176.0
1175.056641 196.0
1175.1521 148.0
1179.92627 144.0
1183.545654 160.0
1183.751099 120.0
1186.916992 124.0
1187.849731 56.0
1187.952637 76.0
1191.185913 212.0
1193.110107 36.0
1193.990234 72.0
1194.671265 180.0
1199.533081 184.0
1200.84314 148.0
1209.417847 160.0
1210.435547 164.0
1210.795654 124.0
1212.797974 96.0
1213.914185 272.0
1214.537476 136.0
1215.440308 184.0
1217.134033 196.0
1217.238159 152.0
1217.759033 176.0
1223.273071 76.0
1224.031982 168.0
1225.174316 172.0
1230.872681 144.0
1233.646484 208.0
1234.450562 228.0
1237.788452 120.0
1252.396484 268.0
1252.621826 44.0
1253.763306 176.0
1260.35437 124.0
1260.714722 224.0
1264.052612 144.0
1267.564941 188.0
1267.756226 164.0
1269.826416 156.0
1270.741455 96.0
1271.202759 200.0
1281.278198 184.0
1283.216797 196.0
1284.022583 232.0
1284.393433 56.0
1286.591431 160.0
1286.884155 44.0
1288.862671 156.0
1290.277832 56.0
1292.001465 172.0
1292.108765 128.0
1294.255981 160.0
1298.849854 228.0
1301.254028 168.0
1308.018921 124.0
1309.127686 168.0
1309.257324 152.0
1309.754272 148.0
1311.894531 196.0
1313.120361 204.0
1313.185303 36.0
1313.567505 204.0
1315.234375 148.0
1317.530884 124.0
1320.537964 152.0
1323.772949 212.0
1324.106079 208.0
1324.366821 212.0
1327.497803 100.0
1327.998169 168.0
1328.709106 112.0
1329.362305 168.0
1330.008057 184.0
1330.763062 192.0
1331.387573 196.0
1339.76709 216.0
1339.832642 104.0
1340.29895 160.0
1343.27356 184.0
1344.995605 52.0
1345.973999 160.0
1352.466064 156.0
1353.4104 152.0
1353.857178 176.0
1354.128052 72.0
1354.19397 160.0
1355.131714 172.0
1356.025757 120.0
1356.700073 116.0
1362.21875 236.0
1362.924072 128.0
1363.732422 208.0
1369.103271 264.0
1369.265259 32.0
1369.72937 80.0
1369.795654 244.0
1372.493042 220.0
1373.444458 80.0
1375.067749 168.0
1376.625488 164.0
1381.363159 140.0
1382.169556 144.0
1385.568115 152.0
1385.656982 76.0
1390.870361 152.0
1393.922852 180.0
1394.703247 28.0
1398.303223 200.0
1400.797607 184.0
1402.310181 136.0
1403.823608 168.0
1407.106812 136.0
1408.772217 164.0
1409.168213 48.0
1411.231079 108.0
1411.425537 100.0
1411.993896 116.0
1414.290894 160.0
1414.635254 176.0
1415.249146 136.0
1417.923462 156.0
1419.970337 76.0
1422.896851 152.0
1424.473877 136.0
1425.803833 144.0
1427.096802 148.0
1427.465332 68.0
1433.374512 220.0
1434.670898 176.0
1439.394043 84.0
1440.980347 164.0
1442.506348 164.0
1443.459595 196.0
1444.692383 176.0
1447.227783 168.0
1450.553711 40.0
1452.881836 272.0
1453.989746 148.0
1454.384399 144.0
1454.900635 148.0
1454.984131 144.0
1459.459229 204.0
1462.045654 244.0
1463.332153 40.0
1465.419067 212.0
1474.736816 132.0
1481.922729 240.0
1482.305908 140.0
1484.851074 108.0
1485.656494 216.0
1486.239624 124.0
1487.183594 156.0
1489.72522 172.0
1490.91626 216.0
1491.200562 152.0
1492.599731 120.0
1497.910278 168.0
1500.15271 120.0
1500.738647 124.0
1504.21814 228.0
1504.4198 244.0
