>compound MLS001048919-01!(E)-N-[2-(1H-imidazol-5-yl)ethyl]-3-phenylprop-2-enamide
>formula C14H15N3O
>ionization [M+H]+
>parentmass 242.129
#inchi InChI=1S/C14H15N3O/c18-14(7-6-12-4-2-1-3-5-12)16-9-8-13-10-15-11-17-13/h1-7,10-11H,8-9H2,(H,15,17)(H,16,18)/b7-6+
#inchikey HCENGXRZXKAJLN
#Ion_Source LC-ESI
#Instrument qTof
#Compound_Source NIH Natural Product Library
#PI Dorrestein
#Data_Collector VVP/LMS
#Scan -1
#Precursor_MZ 242.129
#ExactMass 241.122
#Charge 1
#CAS_Number N/A
#Pubmed_ID N/A
#Smiles O=C(NCCc1c[nH]cn1)/C=C/c2ccccc2
#INCHI_AUX N/A
#Library_Class 1
#SpectrumID CCMSLIB00000079637
#IonMode Positive
#UpdateWorkflowName UPDATE-SINGLE-ANNOTATED-GOLD
#LibraryQualityString Gold
#TaskID b1d8e8f6646f4e71acdff9ca3d919d08
##Scan# 1446
#SpectrumFile p1-B09_GB9_01_17893.mzXML
#LibraryName NIH_Natural_Products_Library.mgf
#MQScore -1
#Organism NIH_Natural_Products_Library
#TIC_Query 0
#RT_Query -1
#MZErrorPPM -1
#SharedPeaks 0
#MassDiff 0
#LibMZ -1
#SpecMZ 242.129
#SpecCharge 0
#internalFilename spec-00000.mgf

>collision 10
95.025688 216.0
95.060913 7736.0
95.307663 136.0
95.967484 200.0
96.062737 308.0
96.100105 200.0
96.465302 136.0
96.667892 192.0
96.690231 140.0
96.748955 160.0
96.801819 96.0
97.107536 156.0
97.186005 220.0
97.405876 160.0
97.435349 144.0
97.631905 164.0
97.696808 136.0
97.850311 100.0
98.057144 76.0
98.074883 112.0
98.1912 72.0
98.368782 184.0
98.422089 184.0
98.611732 148.0
98.647308 180.0
98.730347 200.0
98.7976 168.0
98.951965 192.0
99.011368 168.0
99.106445 192.0
99.393951 116.0
99.522972 188.0
99.548782 136.0
99.914497 124.0
99.994095 156.0
100.008026 196.0
100.089645 168.0
100.344681 112.0
100.715843 160.0
100.941681 212.0
100.963676 232.0
101.123726 184.0
101.177773 140.0
101.26387 176.0
101.311943 128.0
101.4422 160.0
101.725044 128.0
101.877655 132.0
101.956017 308.0
101.976112 252.0
102.047081 1776.0
102.065353 144.0
102.171165 96.0
102.237564 160.0
102.350288 64.0
102.38562 184.0
102.513451 180.0
102.599205 140.0
102.704971 124.0
102.735229 116.0
102.769531 136.0
102.828896 188.0
102.85025 216.0
102.884567 160.0
102.931 200.0
102.961296 208.0
103.027359 268.0
103.055351 56500.0
103.122261 108.0
103.167389 108.0
103.217934 64.0
103.248268 136.0
103.298477 184.0
103.316055 124.0
103.347382 108.0
103.363571 32.0
103.387154 304.0
103.410118 52.0
103.426308 80.0
103.442505 224.0
103.467857 76.0
103.54171 40.0
103.555893 184.0
103.575974 48.0
103.592346 64.0
103.629578 32.0
103.735992 104.0
103.784882 132.0
103.853828 64.0
103.904541 60.0
103.967445 56.0
103.989769 40.0
104.026306 124.0
104.057739 6248.0
104.083145 636.0
104.11158 68.0
104.142044 80.0
104.158287 36.0
104.425323 148.0
104.586578 68.0
104.607674 132.0
104.73848 84.0
104.764473 128.0
104.782814 68.0
104.890816 132.0
104.935661 60.0
104.985405 172.0
105.027428 176.0
105.059044 160.0
105.098831 40.0
105.123314 32.0
105.190666 108.0
105.223328 184.0
106.160454 188.0
106.228134 36.0
106.42926 116.0
106.867226 192.0
107.046127 140.0
107.172829 188.0
107.212982 88.0
107.324295 28.0
107.501694 136.0
107.575996 60.0
107.844521 216.0
108.268639 152.0
108.558762 196.0
108.579498 160.0
108.658325 248.0
108.928192 52.0
108.967667 44.0
110.073654 148.0
110.311829 92.0
110.479126 180.0
110.613045 152.0
110.929932 72.0
111.548592 140.0
111.847282 132.0
111.880966 68.0
112.007309 128.0
112.034698 168.0
112.087456 3184.0
112.144264 56.0
112.199074 88.0
112.222267 104.0
112.27076 84.0
112.659126 176.0
113.091019 696.0
113.223869 40.0
113.300117 148.0
113.336136 148.0
113.429382 88.0
113.711479 172.0
113.949303 148.0
114.432091 48.0
114.679192 200.0
114.728218 116.0
114.768723 76.0
114.890289 184.0
115.375061 204.0
115.544006 220.0
115.663849 148.0
115.807304 140.0
115.925133 36.0
116.274689 168.0
116.763245 180.0
116.934479 128.0
117.967651 164.0
118.597542 124.0
118.909859 128.0
119.079208 184.0
119.300835 220.0
119.786301 220.0
120.66993 68.0
121.037514 204.0
121.359604 72.0
121.767761 48.0
121.901764 176.0
122.236 120.0
122.391365 240.0
122.46936 108.0
122.603752 124.0
123.85112 184.0
124.013779 180.0
124.078064 112.0
124.343124 212.0
124.941963 208.0
126.159584 148.0
126.992554 168.0
127.142868 140.0
127.223671 176.0
128.6306 168.0
128.705109 176.0
129.06662 184.0
129.433182 200.0
129.449036 212.0
129.881897 180.0
130.229172 128.0
130.388199 120.0
130.426849 116.0
130.451843 60.0
130.531418 200.0
130.547333 172.0
130.618805 224.0
130.676987 180.0
130.900055 148.0
130.956131 236.0
130.984314 144.0
131.049866 44768.0
131.081406 120.0
131.125153 60.0
131.194748 104.0
131.208832 76.0
131.227036 252.0
131.26944 76.0
131.33078 64.0
131.364914 80.0
131.425598 252.0
131.463104 40.0
131.485916 92.0
131.540695 108.0
131.579498 68.0
131.627457 48.0
131.686829 96.0
131.849213 52.0
131.892456 128.0
131.924469 96.0
131.958755 140.0
131.986191 72.0
132.053101 4984.0
132.076141 164.0
132.107407 68.0
132.258423 60.0
132.329071 56.0
132.569901 56.0
132.741821 36.0
132.925339 28.0
132.96434 96.0
132.998764 132.0
133.056046 200.0
133.111404 144.0
133.143417 40.0
133.161789 32.0
133.311111 172.0
134.109695 104.0
135.656067 132.0
136.929367 120.0
137.038849 180.0
137.474884 108.0
137.825134 164.0
138.068802 340.0
139.801895 44.0
140.072647 140.0
140.188095 52.0
140.884125 100.0
142.454697 48.0
144.605438 36.0
144.751465 56.0
145.821396 104.0
145.907944 172.0
146.941116 72.0
148.52803 96.0
149.356308 36.0
171.493851 140.0
171.976364 188.0
174.625229 48.0
175.702576 72.0
179.090317 48.0
181.718079 20.0
196.104309 224.0
198.08815 140.0
216.327637 112.0
220.873947 132.0
224.127701 144.0
230.005783 108.0
239.313339 100.0
242.120239 140.0
244.635223 76.0
256.387451 104.0
257.143311 32.0
279.070831 112.0
280.385681 68.0
284.530029 116.0
306.951416 88.0
323.498016 88.0
332.218903 48.0
336.637421 64.0
341.419739 88.0
349.87085 68.0
351.488403 96.0
364.019836 88.0
406.783539 52.0
431.183594 80.0
443.15976 84.0
443.365082 64.0
453.560455 40.0
461.56842 80.0
481.927673 72.0
485.258362 76.0
492.939087 88.0
560.921692 68.0
610.572632 80.0
665.462158 136.0
692.721069 76.0
704.346069 164.0
705.556213 176.0
732.032166 20.0
734.899719 144.0
755.408569 88.0
758.727112 20.0
760.745911 184.0
778.563599 220.0
780.147095 84.0
794.712402 120.0
806.001648 188.0
821.483948 196.0
822.020264 188.0
827.621887 40.0
830.240601 152.0
831.353516 204.0
843.257446 220.0
843.664978 20.0
852.047791 220.0
855.828186 52.0
859.471069 124.0
861.567017 172.0
864.800659 208.0
868.163452 72.0
877.359314 168.0
880.144104 216.0
880.403931 140.0
881.981384 192.0
886.337036 168.0
892.724121 208.0
897.04657 256.0
906.897217 204.0
919.79303 136.0
921.447693 208.0
921.997559 188.0
925.251709 60.0
925.608948 100.0
934.099487 148.0
935.79126 148.0
936.040894 268.0
938.9599 144.0
941.742981 172.0
941.865112 192.0
947.407166 156.0
947.891174 152.0
949.405334 72.0
952.480164 100.0
957.936279 156.0
959.150208 136.0
965.274536 120.0
965.818726 208.0
970.240051 128.0
971.244629 136.0
973.497498 132.0
976.225525 100.0
981.106873 148.0
981.337585 180.0
991.420044 204.0
991.47644 64.0
996.414612 184.0
996.609375 128.0
1000.275757 236.0
1001.446899 132.0
1007.565613 76.0
1008.140564 200.0
1009.789368 100.0
1009.8349 156.0
1010.467468 196.0
1010.612976 168.0
1011.815491 200.0
1011.973755 152.0
1012.505676 368.0
1013.462158 184.0
1013.867676 116.0
1014.926331 212.0
1016.163086 80.0
1016.404175 184.0
1016.797607 140.0
1018.054626 72.0
1018.549988 176.0
1021.480347 184.0
1022.307434 204.0
1022.950256 164.0
1025.918701 220.0
1026.524414 240.0
1027.5896 172.0
1029.408691 164.0
1029.651367 164.0
1029.86853 232.0
1031.504272 180.0
1032.879028 172.0
1033.448364 124.0
1033.749146 232.0
1036.650024 228.0
1037.16272 156.0
1039.027588 196.0
1039.34314 160.0
1039.606201 152.0
1039.875732 208.0
1040.209473 176.0
1040.729492 168.0
1042.386719 240.0
1042.56665 244.0
1043.884399 116.0
1046.181396 248.0
1047.514282 100.0
1048.281006 188.0
1049.041504 180.0
1049.47998 176.0
1049.737915 108.0
1050.260254 144.0
1050.61499 152.0
1051.511963 200.0
1053.326172 176.0
1053.6427 160.0
1056.299683 156.0
1056.907715 196.0
1057.056641 176.0
1058.053345 112.0
1058.726685 208.0
1059.400391 172.0
1060.177856 80.0
1063.102539 144.0
1063.563354 176.0
1063.660645 100.0
1064.095581 184.0
1064.97876 188.0
1069.894653 96.0
1071.731445 196.0
1071.972412 212.0
1072.252563 184.0
1073.836792 132.0
1074.22168 220.0
1074.312988 144.0
1075.77478 128.0
1077.002319 148.0
1078.086792 208.0
1079.041138 120.0
1079.851929 160.0
1083.148926 136.0
1085.542969 216.0
1085.890503 120.0
1087.983643 228.0
1088.06897 80.0
1089.743774 60.0
1092.018188 128.0
1092.807617 212.0
1092.998413 224.0
1094.578125 228.0
1095.124756 156.0
1095.809814 160.0
1097.272949 148.0
1097.938843 196.0
1099.654175 228.0
1100.591553 72.0
1101.100098 100.0
1103.928467 168.0
1104.986816 196.0
1105.344116 208.0
1107.124756 144.0
1107.422729 200.0
1107.62146 40.0
1108.549072 212.0
1108.674927 152.0
1110.338867 184.0
1110.82312 188.0
1111.360474 224.0
1111.433472 116.0
1111.632568 88.0
1112.840576 144.0
1115.305176 176.0
1115.803711 88.0
1116.515137 144.0
1117.266724 188.0
1118.737427 204.0
1119.503174 80.0
1120.229126 192.0
1120.359497 284.0
1121.955078 204.0
1124.990356 144.0
1128.016479 188.0
1128.217041 172.0
1129.266846 108.0
1130.109619 168.0
1134.86499 216.0
1135.857544 264.0
1137.602295 176.0
1138.468384 224.0
1139.220581 156.0
1139.375122 196.0
1139.475952 188.0
1142.703003 160.0
1142.87793 180.0
1143.402832 132.0
1144.547119 200.0
1144.816528 148.0
1148.927979 192.0
1150.628662 136.0
1151.067505 204.0
1151.121582 196.0
1153.810669 212.0
1154.466553 208.0
1154.662598 212.0
1154.784424 180.0
1154.879028 192.0
1155.048706 228.0
1155.237549 172.0
1157.518433 208.0
1158.68335 144.0
1158.954346 116.0
1159.022095 164.0
1159.171143 156.0
1159.848877 132.0
1160.350586 188.0
1162.229248 188.0
1162.79248 144.0
1163.315063 128.0
1163.994019 212.0
1164.408325 180.0
1165.56311 200.0
1167.983398 140.0
1168.112549 176.0
1168.752075 200.0
1169.163452 160.0
1169.697998 176.0
1170.017944 196.0
1170.147339 144.0
1174.358643 284.0
1174.413086 60.0
1175.975586 176.0
1176.426025 156.0
1177.6073 152.0
1177.730347 52.0
1182.769531 192.0
1183.084473 164.0
1183.317139 108.0
1183.803345 212.0
1183.947144 176.0
1184.488159 148.0
1185.618652 140.0
1185.961304 84.0
1186.20813 164.0
1186.818237 156.0
1186.975952 176.0
1187.758057 128.0
1187.840088 136.0
1188.443848 184.0
1189.52124 208.0
1193.939087 152.0
1195.032837 204.0
1195.700317 180.0
1196.829224 184.0
1197.731323 132.0
1200.598511 136.0
1201.391724 160.0
1202.178223 152.0
1202.288696 176.0
1203.890259 144.0
1204.297729 176.0
1205.548096 88.0
1206.495117 180.0
1207.082764 156.0
1208.459229 68.0
1208.590698 156.0
1211.526123 64.0
1211.886353 220.0
1212.752563 164.0
1213.522095 148.0
1214.430542 136.0
1214.534546 144.0
1215.020142 88.0
1215.776367 128.0
1216.088745 60.0
1216.470459 116.0
1217.143921 160.0
1217.567505 144.0
1218.081421 72.0
1218.713623 196.0
1219.408569 132.0
1220.59729 144.0
1221.077148 112.0
1223.770142 56.0
1224.710205 236.0
1227.295654 180.0
1228.216187 36.0
1229.234741 188.0
1231.112549 128.0
1234.005371 140.0
1234.613647 68.0
1234.788452 104.0
1235.72583 128.0
1236.061646 152.0
1238.161743 224.0
1239.268555 188.0
1240.719238 156.0
1241.497559 196.0
1242.346191 212.0
1242.591797 172.0
1242.970581 144.0
1243.256836 128.0
1243.693481 220.0
1243.840942 216.0
1249.076294 204.0
1249.286743 164.0
1253.567505 172.0
1256.085327 128.0
1256.888672 60.0
1257.60144 184.0
1258.126343 244.0
1258.229736 80.0
1260.072998 208.0
1260.723022 160.0
1262.259888 124.0
1263.82019 256.0
1264.15271 204.0
1264.237671 172.0
1265.164917 160.0
1267.353271 208.0
1268.232056 96.0
1269.749268 184.0
1270.359253 140.0
1272.801514 248.0
1275.713501 180.0
1276.189819 52.0
1277.704712 152.0
1278.466064 44.0
1278.878906 196.0
1278.957153 124.0
1279.12085 200.0
1279.882568 172.0
1279.98938 160.0
1281.093384 164.0
1281.67041 212.0
1282.041016 120.0
1284.087036 224.0
1285.192749 128.0
1285.299683 176.0
1286.627197 132.0
1287.355469 60.0
1287.984009 172.0
1288.348267 160.0
1289.005615 172.0
1289.999023 188.0
1290.49231 180.0
1293.23877 256.0
1293.754639 136.0
1293.912109 160.0
1294.091187 152.0
1295.158203 192.0
1296.555298 168.0
1296.748779 136.0
1296.992432 140.0
1297.042603 156.0
1297.329346 148.0
1297.587402 124.0
1298.792114 180.0
1299.077759 196.0
1300.112305 236.0
1301.203247 48.0
1302.337891 168.0
1302.467163 128.0
1302.797607 160.0
1303.458618 192.0
1304.802612 252.0
1305.672607 196.0
1305.758911 144.0
1306.18335 180.0
1306.334351 216.0
1306.435059 196.0
1307.356079 136.0
1309.069336 160.0
1309.170166 244.0
1309.24939 160.0
1309.75354 108.0
1310.308228 184.0
1310.473877 176.0
1310.574707 196.0
1311.353027 168.0
1311.417847 144.0
1312.607422 132.0
1313.407959 160.0
1313.595459 156.0
1313.790283 192.0
1314.316895 240.0
1317.11792 224.0
1318.375122 232.0
1318.54126 104.0
1319.227905 144.0
1319.647217 120.0
1320.225708 124.0
1321.209351 120.0
1322.034302 160.0
1324.459595 188.0
1325.662231 252.0
1326.901733 48.0
1327.351196 172.0
1327.46106 208.0
1328.373779 52.0
1328.729248 192.0
1328.975952 196.0
1329.062988 152.0
1330.260498 164.0
1331.320557 144.0
1331.407715 160.0
1331.937866 104.0
1333.129395 240.0
1333.492798 160.0
1333.950684 144.0
1334.36499 160.0
1334.575928 36.0
1334.721313 144.0
1334.772217 152.0
1334.997559 188.0
1335.354004 176.0
1335.710327 80.0
1335.804932 176.0
1336.417236 100.0
1336.889038 168.0
1336.983643 48.0
1337.931152 152.0
1338.614258 128.0
1339.670288 164.0
1340.748657 152.0
1341.849243 208.0
1342.717041 224.0
1344.168701 92.0
1344.97876 152.0
1346.599609 160.0
1346.848022 84.0
1347.68811 156.0
1351.497437 176.0
1351.885254 240.0
1351.965698 132.0
1352.690308 124.0
1352.961182 136.0
1355.986328 272.0
1356.154907 176.0
1356.367432 180.0
1357.386475 216.0
1357.760498 172.0
1358.508667 168.0
1359.301025 160.0
1359.689941 136.0
1360.115601 196.0
1360.247803 188.0
1361.481201 232.0
1361.591431 156.0
1361.657471 148.0
1362.120239 208.0
1362.230347 160.0
1363.993896 192.0
1364.346802 148.0
1365.9646 152.0
1366.045532 172.0
1367.767334 192.0
1367.833618 192.0
1368.650757 220.0
1368.768555 188.0
1369.026367 104.0
1369.144165 200.0
1369.22522 172.0
1370.175415 100.0
1370.904785 144.0
1372.157104 196.0
1372.423218 188.0
1372.784546 76.0
1373.07959 192.0
1373.337646 176.0
1373.979492 124.0
1374.296631 128.0
1374.49585 224.0
1375.049316 116.0
1375.344604 188.0
1375.521729 236.0
1376.023682 268.0
1376.370728 132.0
1376.503662 200.0
1377.95874 180.0
1378.498047 152.0
1380.316528 156.0
1380.588379 140.0
1382.816895 180.0
1383.794067 136.0
1383.882935 236.0
1386.668213 104.0
1387.298218 160.0
1387.431641 172.0
1388.313965 200.0
1388.88501 208.0
1389.1521 160.0
1389.270752 128.0
1389.493286 180.0
1391.111084 148.0
1392.692749 144.0
1393.182983 136.0
1393.257202 196.0
1394.58728 156.0
1395.211792 60.0
1395.278687 164.0
1395.635498 192.0
1395.791626 188.0
1396.289917 136.0
1397.160156 64.0
1399.296021 264.0
1399.89917 56.0
1400.46521 172.0
1401.597534 160.0
1401.828491 164.0
1402.268188 140.0
1402.730347 104.0
1405.624023 60.0
1406.758423 128.0
1407.318359 176.0
1407.422852 136.0
1407.796265 176.0
1409.476929 156.0
1410.539917 156.0
1410.687744 152.0
1411.427856 104.0
1412.153198 232.0
1412.796509 164.0
1413.043335 180.0
1415.086548 136.0
1415.947754 48.0
1416.119995 144.0
1416.352173 188.0
1416.419556 48.0
1416.719238 148.0
1416.94397 144.0
1417.056274 124.0
1417.513428 180.0
1417.738159 152.0
1418.292847 196.0
1419.139893 104.0
1419.192383 256.0
1419.567261 252.0
1420.15979 228.0
1421.922852 124.0
1422.154419 156.0
1422.98877 144.0
1423.882324 160.0
1424.107666 136.0
1425.384766 236.0
1425.93335 204.0
1426.13623 216.0
1427.70752 132.0
1427.880493 144.0
1429.460327 148.0
1431.522827 84.0
1431.989746 208.0
1432.810791 100.0
1433.22522 148.0
1434.448242 276.0
1435.139648 148.0
1435.320679 128.0
1435.878662 160.0
1435.931519 56.0
1437.394897 200.0
1437.870361 112.0
1437.976074 140.0
1440.006958 160.0
1441.752075 120.0
1442.122437 128.0
1444.163818 164.0
1444.489136 104.0
1445.200195 136.0
1446.388306 200.0
1446.600342 184.0
1447.221069 80.0
1447.592163 140.0
1449.000977 48.0
1452.222534 116.0
1454.164795 208.0
1454.453247 148.0
1454.643066 220.0
1456.024902 176.0
1456.131226 176.0
1456.329468 192.0
1458.432617 200.0
1459.847412 148.0
1460.417725 104.0
1460.539429 172.0
1461.292603 192.0
1461.741455 136.0
1463.758667 144.0
1463.81958 144.0
1464.09375 280.0
1464.322388 156.0
1464.92395 164.0
1465.350586 152.0
1465.624878 60.0
1467.499756 104.0
1469.483032 148.0
1470.016846 244.0
1471.001465 176.0
1471.986328 208.0
1472.062622 140.0
1472.994385 124.0
1473.139526 176.0
1473.483276 128.0
1473.536865 192.0
1473.758423 212.0
1473.97229 216.0
1474.025757 216.0
1474.415527 124.0
1475.355713 76.0
1479.019775 156.0
1479.149902 128.0
1479.264648 152.0
1480.122192 176.0
1480.405518 120.0
1480.650513 144.0
1480.765381 88.0
1480.849609 72.0
1481.018188 168.0
1481.324585 240.0
1482.696045 168.0
1482.772705 120.0
1483.002563 184.0
1483.631104 128.0
1484.827271 200.0
1485.317505 176.0
1486.338501 184.0
1489.148193 196.0
1493.62146 140.0
1495.421997 148.0
1496.399536 176.0
1496.653687 156.0
1497.000122 240.0
1497.924316 220.0
1499.419067 244.0
1501.037964 172.0
1501.130493 36.0
1501.346436 176.0
1501.816895 80.0
1503.228638 44.0
1503.784302 144.0
