>compound Quinapril hydrochloride (Accupril)
>formula C25H30N2O5
>ionization [M+H]+
>parentmass 439.223785
#inchi InChI=1S/C25H30N2O5/c1-3-32-25(31)21(14-13-18-9-5-4-6-10-18)26-17(2)23(28)27-16-20-12-8-7-11-19(20)15-22(27)24(29)30/h4-12,17,21-22,26H,3,13-16H2,1-2H3,(H,29,30)/t17-,21-,22-/m0/s1
#inchikey JSDRRTOADPPCHY
#origInchi InChI=1S/C25H30N2O5.ClH/c1-3-32-25(31)21(14-13-18-9-5-4-6-10-18)26-17(2)23(28)27-16-20-12-8-7-11-19(20)15-22(27)24(29)30;/h4-12,17,21-22,26H,3,13-16H2,1-2H3,(H,29,30);1H/t17-,21-,22-;/m0./s1
#Ion_Source LC-ESI
#Instrument qTof
#Compound_Source Commercial
#PI Dorrestein
#Data_Collector Garg_Neha
#Scan -1
#Precursor_MZ 439.223
#ExactMass 438.215
#Charge 1
#CAS_Number 82586-55-8
#Pubmed_ID N/A
#Smiles C1(=CC=CC(=C1)CC[C@H](N[C@H](C(N2[C@@H](CC3=C(C2)C=CC=C3)C(O)=O)=O)C)C(OCC)=O).Cl
#INCHI_AUX N/A
#Library_Class 1
#SpectrumID CCMSLIB00000078518
#IonMode Positive
#UpdateWorkflowName UPDATE-SINGLE-ANNOTATED-GOLD
#LibraryQualityString Gold
#TaskID 77f51c88eb8b467eb4a01dd2d0cb90d2
##Scan# 1175
#SpectrumFile Plate8_41_60_GC11_01_15764.mzXML
#LibraryName FDALibrary_2_04302014.mgf
#MQScore -1
#Organism FDALibrary_2_04302014
#TIC_Query 0
#RT_Query -1
#MZErrorPPM -1
#SharedPeaks 0
#MassDiff 0
#LibMZ -1
#SpecMZ 439.223
#SpecCharge 0
#internalFilename spec-00000.mgf

>collision 10
47.330292 144.0
47.80526 140.0
48.745628 164.0
48.798447 180.0
50.906307 176.0
51.633133 172.0
52.157909 148.0
52.314709 208.0
52.588593 156.0
52.821232 148.0
55.198036 188.0
58.321228 160.0
63.182182 172.0
64.187607 144.0
65.389137 204.0
65.555016 204.0
66.363243 180.0
66.75946 208.0
67.142174 304.0
67.974869 144.0
68.09964 208.0
68.524063 208.0
68.763168 148.0
68.778023 276.0
69.176407 204.0
70.737907 216.0
71.924683 188.0
72.682892 184.0
74.415405 208.0
77.417137 156.0
77.808159 168.0
77.859077 168.0
78.432663 244.0
79.991508 160.0
81.086441 180.0
82.91217 172.0
85.553917 200.0
85.717438 152.0
88.769913 184.0
90.674019 192.0
91.055046 916.0
91.963562 164.0
92.059021 152.0
93.317963 164.0
96.179382 172.0
98.316803 180.0
98.567604 224.0
99.359604 224.0
99.417145 192.0
100.132858 172.0
101.993675 196.0
102.054535 1116.0
103.942627 180.0
104.564484 196.0
105.067802 172.0
106.071899 192.0
108.419556 188.0
110.720596 244.0
112.612495 144.0
113.39534 144.0
114.225563 208.0
115.055107 336.0
116.058296 316.0
117.069855 8212.0
118.07135 1016.0
118.888222 148.0
119.083649 180.0
119.23571 172.0
120.348877 204.0
122.240593 152.0
123.040703 192.0
123.449478 156.0
123.659653 172.0
123.850067 184.0
124.169235 172.0
127.210579 176.0
128.45726 176.0
129.381561 180.0
129.766708 172.0
130.064865 436.0
130.085144 5388.0
130.98938 176.0
131.08847 288.0
131.541229 184.0
131.600586 160.0
132.079422 1036.0
133.082001 236.0
133.380661 152.0
133.997406 144.0
134.071152 156.0
134.095886 4636.0
134.807327 148.0
135.099747 512.0
139.861572 160.0
141.79126 144.0
142.857407 208.0
142.938293 168.0
143.084503 288.0
143.509964 168.0
144.079391 428.0
145.810455 140.0
148.020264 172.0
149.262665 196.0
151.287766 160.0
151.976456 160.0
154.803848 148.0
155.607224 160.0
157.757263 144.0
158.904282 156.0
159.690567 180.0
159.852097 116.0
160.070099 180.0
160.110977 11172.0
160.539505 144.0
161.114426 1300.0
162.125641 904.0
162.388138 112.0
162.542801 172.0
163.128632 152.0
166.199417 176.0
168.033936 144.0
171.833542 112.0
172.950806 168.0
175.773422 184.0
176.071167 144.0
176.610916 152.0
177.707672 192.0
178.086594 972.0
179.047424 140.0
179.111343 140.0
180.673004 168.0
185.794556 144.0
186.264191 220.0
187.107224 212.0
188.064148 104.0
188.106094 256.0
190.306122 196.0
190.866653 156.0
194.141769 172.0
194.444168 148.0
195.005203 144.0
196.193817 164.0
197.676956 224.0
198.276245 144.0
200.530304 164.0
202.366516 164.0
204.3647 160.0
206.115692 1216.0
206.156815 128.0
206.309799 200.0
207.747421 152.0
208.071716 156.0
208.116547 124.0
211.4617 140.0
211.762817 148.0
212.438202 168.0
213.809662 152.0
213.891159 140.0
214.739059 140.0
217.333908 152.0
218.88298 164.0
219.49884 204.0
220.614899 184.0
220.706543 188.0
220.762726 172.0
226.725845 204.0
230.221649 140.0
230.771606 216.0
232.263748 112.0
233.336609 176.0
233.391342 148.0
233.670639 136.0
233.708786 132.0
233.861008 280.0
233.902451 236.0
234.067764 176.0
234.149185 86728.0
234.49588 116.0
234.547913 156.0
234.652756 232.0
234.691788 224.0
234.91478 96.0
235.152008 15868.0
236.115524 188.0
236.153076 1212.0
236.272766 144.0
236.533417 156.0
236.621201 124.0
236.71492 176.0
236.762177 144.0
236.820236 120.0
237.013321 108.0
237.151291 176.0
237.227936 116.0
237.50238 100.0
239.432205 140.0
243.934219 176.0
251.029114 148.0
252.709564 140.0
256.228943 96.0
258.427246 236.0
259.997437 164.0
260.906464 184.0
271.233276 148.0
276.162506 232.0
276.728394 212.0
280.152893 364.0
281.156128 268.0
282.653259 188.0
284.62088 148.0
288.372406 144.0
294.143066 116.0
295.154907 156.0
297.616364 172.0
298.695496 176.0
299.838623 176.0
302.010345 164.0
305.740082 164.0
310.372223 196.0
315.848694 164.0
319.18335 172.0
321.144226 144.0
332.852264 148.0
336.836639 180.0
341.432922 172.0
342.260925 160.0
353.482635 180.0
363.297882 144.0
364.159546 152.0
365.184296 8920.0
366.188324 2828.0
367.187073 360.0
370.867279 144.0
371.254517 180.0
371.800568 144.0
377.520233 144.0
379.026062 148.0
382.062286 256.0
382.513702 180.0
385.520844 140.0
387.951508 156.0
391.842255 168.0
395.40802 140.0
398.962128 184.0
399.785492 144.0
401.199493 164.0
403.475067 152.0
410.824432 164.0
411.195648 180.0
414.163422 152.0
422.332703 216.0
423.413239 176.0
433.556396 176.0
435.468994 140.0
435.644043 116.0
435.762939 240.0
436.1073 96.0
436.185608 136.0
436.54718 124.0
437.001404 108.0
437.253357 188.0
437.580109 192.0
437.659668 240.0
437.94281 172.0
438.067871 96.0
438.139587 152.0
438.2547 176.0
438.398376 176.0
438.439453 140.0
438.507599 236.0
438.590118 136.0
438.779968 116.0
438.892426 172.0
438.954712 132.0
438.965179 148.0
439.034698 220.0
439.076324 228.0
439.119446 344.0
439.167389 192.0
439.223785 115420.0
439.543976 144.0
439.573792 168.0
439.67395 168.0
439.705505 280.0
439.749695 156.0
439.800201 184.0
439.912048 252.0
439.953308 212.0
440.035828 96.0
440.103485 104.0
440.13205 248.0
440.226227 28100.0
440.336578 124.0
440.400085 280.0
440.439362 140.0
440.495605 96.0
440.554718 112.0
440.601044 200.0
440.742157 200.0
441.096771 160.0
441.228058 3968.0
441.288147 204.0
441.377411 180.0
441.74118 120.0
441.789734 96.0
441.890289 128.0
442.232819 552.0
442.332947 140.0
442.471313 176.0
442.566772 140.0
442.617157 140.0
442.829956 136.0
442.891052 116.0
442.935547 232.0
443.130707 128.0
443.241821 280.0
443.294769 96.0
443.6362 200.0
443.840576 236.0
444.150146 112.0
444.358978 124.0
444.882965 100.0
445.07843 160.0
450.934143 152.0
658.436401 204.0
831.761047 148.0
1241.695312 152.0
1305.776978 176.0
1356.717529 168.0
1408.505737 204.0
1490.072876 168.0
1504.096436 176.0
1518.364136 156.0
1519.915649 172.0
1565.624268 144.0
1583.132568 184.0
1727.216797 156.0
1790.67981 196.0
1798.116089 144.0
1851.474731 148.0
1884.645386 168.0
1894.456543 184.0
1909.847168 208.0
1939.018188 152.0
1953.400757 164.0
1968.277832 220.0
1969.540771 220.0
1994.715332 176.0
1997.801147 160.0
2001.770752 196.0
