>compound MLS001075525-01!
>formula C20H22N2O2
>ionization [M+H]+
>parentmass 323.177032
#inchi InChI=1S/C20H22N2O2/c23-19(10-9-15-5-2-1-3-6-15)21-12-16-11-17(14-21)18-7-4-8-20(24)22(18)13-16/h1-8,16-17H,9-14H2/t16-,17+/m1/s1
#inchikey ZPZUNRIQRXFASG
#Ion_Source LC-ESI
#Instrument qTof
#Compound_Source NIH Natural Product Library
#PI Dorrestein
#Data_Collector VVP/LMS
#Scan -1
#Precursor_MZ 323.176
#ExactMass 322.168
#Charge 1
#CAS_Number N/A
#Pubmed_ID N/A
#Smiles O=C(CCc1ccccc1)N2C[C@H]3C[C@@H](C2)c4cccc(=O)n4C3
#INCHI_AUX N/A
#Library_Class 1
#SpectrumID CCMSLIB00000080457
#IonMode Positive
#UpdateWorkflowName UPDATE-SINGLE-ANNOTATED-GOLD
#LibraryQualityString Gold
#TaskID b1d8e8f6646f4e71acdff9ca3d919d08
##Scan# 1702
#SpectrumFile p2-C09_GC9_01_18009.mzXML
#LibraryName NIH_Natural_Products_Library.mgf
#MQScore -1
#Organism NIH_Natural_Products_Library
#TIC_Query 0
#RT_Query -1
#MZErrorPPM -1
#SharedPeaks 0
#MassDiff 0
#LibMZ -1
#SpecMZ 323.176
#SpecCharge 0
#internalFilename spec-00000.mgf

>collision 10
95.340485 360.0
95.488129 124.0
95.65741 204.0
95.782028 164.0
95.90258 152.0
96.076385 184.0
96.228607 224.0
96.502136 168.0
96.813263 80.0
96.848511 220.0
96.928833 228.0
96.971947 72.0
97.130768 160.0
97.154305 224.0
97.201393 128.0
97.415398 156.0
97.49202 164.0
97.505775 204.0
97.602104 168.0
97.619797 124.0
97.653229 128.0
97.82048 104.0
97.836227 208.0
97.857887 140.0
98.013489 148.0
98.042885 148.0
98.321114 156.0
98.611427 116.0
98.662827 140.0
98.694458 124.0
98.823021 80.0
99.174561 168.0
99.296455 144.0
99.357948 220.0
99.443275 112.0
99.480988 188.0
99.711395 196.0
99.767044 100.0
100.192924 88.0
100.226791 84.0
100.476013 164.0
100.885414 168.0
100.921394 132.0
100.989586 200.0
101.007393 140.0
101.233551 64.0
101.259583 160.0
101.383087 216.0
101.536156 28.0
101.580284 160.0
101.762901 164.0
101.801056 212.0
101.999954 124.0
102.020058 136.0
102.04528 192.0
102.191002 172.0
102.245338 160.0
102.267975 80.0
102.521233 76.0
102.569603 52.0
102.594673 140.0
102.659271 152.0
102.924675 152.0
103.05571 2224.0
103.094986 256.0
103.15992 200.0
103.211594 40.0
103.654884 124.0
103.695419 28.0
103.729874 184.0
103.831253 168.0
103.906303 208.0
103.957031 92.0
103.99762 208.0
104.032127 172.0
104.054901 384.0
104.202713 116.0
104.430389 112.0
104.45359 216.0
104.593163 148.0
104.609444 132.0
104.667885 228.0
104.818222 104.0
104.891678 240.0
104.917336 176.0
104.942688 200.0
104.9925 212.0
105.008812 220.0
105.023087 180.0
105.070953 21568.0
105.137535 384.0
105.20507 88.0
105.261864 88.0
105.331306 152.0
105.362946 172.0
105.379021 212.0
105.473175 148.0
105.562248 208.0
105.680885 116.0
105.71772 72.0
105.768883 108.0
105.826202 124.0
105.848724 92.0
106.0737 1776.0
106.096642 204.0
106.270966 76.0
106.306595 132.0
106.336632 56.0
106.38179 100.0
106.416687 176.0
106.484451 68.0
106.694046 124.0
106.813316 108.0
106.848282 120.0
106.868858 96.0
106.903839 160.0
106.94088 108.0
107.058235 160.0
107.079201 44.0
107.198311 152.0
107.301369 188.0
107.499382 272.0
107.643883 204.0
107.745087 164.0
107.968323 168.0
108.044899 180.0
108.088303 48.0
108.237335 48.0
108.398903 120.0
108.49839 168.0
108.52742 184.0
108.610367 152.0
108.653931 120.0
108.668457 32.0
108.705803 196.0
108.733475 180.0
108.975739 160.0
109.063019 236.0
109.212723 32.0
109.412483 160.0
109.50827 144.0
109.614517 76.0
109.662453 100.0
109.84594 124.0
109.860542 32.0
110.061943 148.0
110.088043 124.0
110.301147 196.0
110.429375 208.0
110.663063 140.0
110.719597 184.0
110.776154 228.0
111.054932 156.0
111.161926 116.0
111.361366 160.0
111.462204 204.0
111.537857 156.0
111.567291 100.0
111.636864 204.0
111.657707 240.0
112.238914 212.0
112.530083 148.0
113.039482 92.0
113.073341 108.0
113.405853 104.0
113.588203 124.0
113.645485 76.0
113.751595 192.0
114.321198 184.0
114.553268 196.0
114.610794 84.0
114.994644 76.0
115.053375 340.0
115.15477 104.0
115.176132 44.0
115.359894 128.0
115.541672 180.0
116.053543 132.0
116.096428 132.0
116.195099 132.0
116.250885 176.0
116.422623 204.0
116.439804 208.0
116.635323 52.0
116.727768 52.0
116.743881 160.0
116.917068 188.0
117.037613 132.0
117.057747 552.0
117.074219 152.0
117.425179 160.0
117.708206 152.0
117.747078 124.0
117.770836 124.0
117.999893 140.0
118.036652 180.0
118.060356 284.0
118.259476 104.0
118.47818 108.0
118.627708 192.0
118.714432 144.0
118.831566 188.0
118.898827 200.0
119.06707 160.0
119.350662 56.0
119.559494 164.0
119.629143 72.0
120.081169 1108.0
120.12162 128.0
120.259087 128.0
120.532066 188.0
120.735359 140.0
120.820663 64.0
120.901627 52.0
120.969475 208.0
121.068001 200.0
121.085518 368.0
121.135895 164.0
121.268723 116.0
121.306816 176.0
121.356201 236.0
121.469086 180.0
121.618294 192.0
121.657806 156.0
121.691795 216.0
121.818115 192.0
122.062271 172.0
122.108246 152.0
122.125847 68.0
122.211639 180.0
122.471405 244.0
122.541901 120.0
122.605797 140.0
122.79319 208.0
122.921143 152.0
123.066826 196.0
123.10215 136.0
123.159576 228.0
123.338547 140.0
123.575172 128.0
123.714592 200.0
124.009193 176.0
124.191002 200.0
124.215408 100.0
124.428444 140.0
124.457352 212.0
124.477287 44.0
124.795029 220.0
125.226738 188.0
125.69043 76.0
125.777466 136.0
126.014183 116.0
126.029823 144.0
126.150505 152.0
126.396523 108.0
126.497231 184.0
126.555443 280.0
126.638298 144.0
127.012611 128.0
127.050743 60.0
127.142738 148.0
127.174156 48.0
127.403198 264.0
127.454872 136.0
127.551506 168.0
128.066772 168.0
128.294357 104.0
128.40239 88.0
128.634995 248.0
128.655304 60.0
128.738846 64.0
128.781754 80.0
129.021286 60.0
129.136597 164.0
129.177322 152.0
129.204468 32.0
129.316315 148.0
129.369659 140.0
129.539505 176.0
129.915802 136.0
130.066605 384.0
130.224518 52.0
130.847565 132.0
130.977371 124.0
131.051483 152.0
131.065887 320.0
131.082428 240.0
131.152817 192.0
131.291901 72.0
131.593094 196.0
131.842072 104.0
131.883209 132.0
132.044189 324.0
132.082687 368.0
132.130173 196.0
132.178223 184.0
132.33844 200.0
132.519394 148.0
132.681625 212.0
132.883026 152.0
132.978012 224.0
133.055283 948.0
133.534012 224.0
133.754898 176.0
133.996689 148.0
134.058258 800.0
134.094666 212.0
134.11882 164.0
134.183365 104.0
134.326355 120.0
134.456894 172.0
134.80426 216.0
135.019257 208.0
135.070145 140.0
135.095581 156.0
135.116409 140.0
135.190445 48.0
135.459015 32.0
135.5401 72.0
135.790466 136.0
136.054993 184.0
136.250076 44.0
136.310486 196.0
136.408096 68.0
136.466217 120.0
136.573181 164.0
136.717438 268.0
136.845459 196.0
137.421143 220.0
137.498138 156.0
137.586838 204.0
137.666229 132.0
137.796021 132.0
138.231934 112.0
138.262344 124.0
138.278732 196.0
138.367676 96.0
138.427795 232.0
138.831619 192.0
140.277588 236.0
140.341248 144.0
140.395477 188.0
140.570038 196.0
140.603088 156.0
140.624557 196.0
140.794312 148.0
140.810837 172.0
140.886429 184.0
140.983292 204.0
141.174774 100.0
141.430298 48.0
141.517883 120.0
141.549744 148.0
141.603134 140.0
142.06842 336.0
142.160248 132.0
142.22908 164.0
142.540192 188.0
142.735092 192.0
142.782654 152.0
142.806442 48.0
142.927078 192.0
143.076111 188.0
143.16777 228.0
143.381805 152.0
143.494629 68.0
143.840546 112.0
144.03157 244.0
144.081543 212.0
144.447479 148.0
144.65567 192.0
144.734665 184.0
144.760345 188.0
145.014954 240.0
145.050278 208.0
145.072388 204.0
145.127625 72.0
145.324295 136.0
145.403488 200.0
145.607544 152.0
145.679611 128.0
145.730057 120.0
146.060516 1304.0
146.098618 232.0
146.124359 124.0
146.167664 92.0
146.201355 92.0
146.314484 144.0
146.398758 160.0
146.495102 112.0
146.767441 140.0
147.013474 164.0
147.068115 1012.0
147.100372 116.0
147.143814 44.0
147.280411 312.0
147.521698 176.0
147.540024 192.0
147.612564 116.0
147.697205 128.0
147.755264 168.0
147.808487 164.0
147.847214 324.0
147.885925 124.0
147.942703 172.0
147.971512 124.0
148.004547 40.0
148.025223 276.0
148.077072 55356.0
148.139832 56.0
148.158096 188.0
148.166092 40.0
148.174271 288.0
148.196991 84.0
148.224976 124.0
148.258896 116.0
148.298981 104.0
148.339493 80.0
148.393738 108.0
148.424942 80.0
148.435455 48.0
148.477921 76.0
148.508621 72.0
148.560181 284.0
148.6008 92.0
148.632553 92.0
148.753677 108.0
148.777954 88.0
148.855652 60.0
148.890808 44.0
148.91394 76.0
148.935791 116.0
149.006241 72.0
149.079926 4524.0
149.147186 40.0
149.193192 156.0
149.217682 124.0
149.245239 156.0
149.285767 120.0
149.317383 84.0
149.565552 52.0
149.602066 40.0
149.61911 32.0
149.808044 48.0
149.960129 124.0
150.011948 124.0
150.04097 96.0
150.083206 488.0
150.1064 124.0
150.127121 216.0
150.184372 164.0
150.214478 112.0
150.242981 52.0
150.263962 80.0
150.29422 136.0
150.357666 100.0
150.401596 120.0
150.428452 68.0
150.513901 56.0
150.733734 28.0
150.846161 188.0
150.939056 68.0
150.985519 128.0
151.114883 68.0
151.161652 84.0
151.205704 180.0
151.235077 140.0
151.494629 128.0
151.646545 60.0
152.036499 44.0
152.19606 60.0
152.24025 104.0
152.257446 44.0
152.313934 140.0
152.517883 76.0
152.552292 140.0
152.63588 164.0
153.224121 132.0
153.401566 164.0
154.018448 180.0
154.418854 216.0
154.480682 152.0
154.616776 188.0
154.918839 208.0
155.077423 260.0
155.208817 60.0
155.78212 144.0
155.933685 164.0
156.625366 88.0
156.675201 152.0
157.243713 172.0
157.388489 148.0
157.413467 116.0
157.508377 160.0
157.623291 100.0
158.083405 164.0
158.128448 84.0
158.363785 200.0
158.499069 116.0
158.922806 92.0
158.967972 212.0
159.067581 152.0
159.128616 180.0
159.55069 176.0
159.691498 196.0
159.746841 132.0
159.772003 100.0
159.839935 148.0
159.995972 160.0
160.076691 2428.0
160.1521 40.0
160.177292 76.0
160.205002 48.0
160.270065 188.0
160.320892 180.0
161.081268 292.0
161.128326 172.0
161.151062 72.0
161.392593 236.0
161.651718 156.0
161.760544 112.0
162.013779 112.0
162.091888 2340.0
162.241852 140.0
162.262131 128.0
162.340744 172.0
162.388916 84.0
162.541138 76.0
162.622345 108.0
162.792435 172.0
162.899109 152.0
163.097656 440.0
163.130356 172.0
163.315979 88.0
163.361755 228.0
163.384659 56.0
163.651886 128.0
163.972855 164.0
164.097748 256.0
164.115601 144.0
164.143036 84.0
164.199753 136.0
164.705109 152.0
164.932526 80.0
165.014328 60.0
165.462036 112.0
165.741211 200.0
166.187347 172.0
166.230972 20.0
166.28743 176.0
166.587845 112.0
167.156036 140.0
167.305328 152.0
167.428909 144.0
167.578323 120.0
167.740677 76.0
168.625992 52.0
168.920746 160.0
169.708038 208.0
170.071228 140.0
170.772736 144.0
170.790939 52.0
171.444427 208.0
172.078278 168.0
172.831009 164.0
173.04039 120.0
173.071808 144.0
173.105072 360.0
173.488388 128.0
173.923828 100.0
174.095749 560.0
174.160065 152.0
174.238937 120.0
174.383469 164.0
174.6306 36.0
174.87529 56.0
175.088547 272.0
175.122787 132.0
175.275574 140.0
175.676315 216.0
175.779221 124.0
175.863663 164.0
176.097382 176.0
176.500336 52.0
176.725159 160.0
177.612625 72.0
178.055862 100.0
178.39064 96.0
179.711578 52.0
180.082642 192.0
180.104004 160.0
180.173462 164.0
180.555695 128.0
180.949036 160.0
181.380325 60.0
181.648468 48.0
182.679993 60.0
182.849503 156.0
183.070251 68.0
183.175293 72.0
184.07338 200.0
184.330002 68.0
184.505692 180.0
184.965561 156.0
185.477493 52.0
186.560593 156.0
186.601364 160.0
187.091064 160.0
187.118286 56.0
187.224487 132.0
187.265335 108.0
187.472382 176.0
187.575958 144.0
188.061462 152.0
188.569473 68.0
188.667877 164.0
188.916733 136.0
189.103683 368.0
189.4478 148.0
189.477936 64.0
189.560135 120.0
189.87265 296.0
190.0103 132.0
190.106964 180.0
190.219284 120.0
190.295227 104.0
190.384109 144.0
190.462738 180.0
190.593613 220.0
190.643387 80.0
190.847488 212.0
190.962982 124.0
190.997833 264.0
191.041901 168.0
191.119659 73748.0
191.205673 56.0
191.234314 84.0
191.244461 92.0
191.257385 112.0
191.301239 116.0
191.323441 44.0
191.357803 100.0
191.398361 164.0
191.435486 144.0
191.474594 256.0
191.503906 128.0
191.573746 264.0
191.596085 56.0
191.633011 152.0
191.68425 76.0
191.717316 72.0
191.744873 180.0
191.783249 100.0
191.794128 92.0
191.841965 88.0
191.879944 56.0
191.987488 204.0
192.010178 148.0
192.048889 224.0
192.122162 5876.0
192.196564 80.0
192.236221 60.0
192.257156 148.0
192.286697 104.0
192.331207 56.0
192.378235 64.0
192.478409 84.0
192.531128 48.0
192.567032 124.0
192.59465 56.0
192.677536 60.0
192.746597 64.0
192.846085 148.0
193.12236 796.0
193.237259 184.0
193.262985 132.0
193.30072 92.0
193.397446 128.0
193.41864 200.0
193.451859 64.0
193.490616 96.0
193.530289 72.0
193.555771 112.0
193.678909 120.0
193.717697 64.0
193.814651 68.0
194.003113 80.0
194.152847 32.0
194.255463 112.0
194.313721 92.0
194.54129 188.0
194.674561 56.0
194.760651 136.0
195.500183 52.0
196.08223 108.0
196.143555 108.0
196.989044 68.0
198.085587 68.0
199.089661 276.0
200.070953 188.0
200.905121 60.0
201.049011 164.0
201.33696 196.0
201.416046 32.0
201.820175 84.0
202.057739 176.0
202.371902 96.0
202.683472 132.0
203.520203 144.0
205.238785 248.0
207.965057 184.0
212.547867 64.0
212.666855 88.0
213.21286 140.0
215.225739 40.0
216.044083 72.0
216.06456 188.0
216.544601 176.0
217.092636 108.0
217.802872 84.0
218.117279 124.0
219.362411 60.0
219.580597 88.0
220.886093 92.0
222.056046 220.0
223.842087 152.0
227.090561 132.0
228.460281 116.0
229.619934 104.0
233.429031 104.0
234.513397 160.0
235.880829 80.0
236.052048 144.0
237.414749 68.0
237.681625 160.0
238.467773 104.0
245.135742 112.0
247.047852 100.0
247.169876 140.0
249.02887 168.0
252.52417 68.0
253.676727 76.0
254.39682 44.0
255.668182 108.0
258.857239 196.0
258.895691 100.0
260.627869 120.0
260.685699 132.0
261.01358 144.0
261.2966 48.0
262.111206 184.0
262.578613 192.0
263.928436 88.0
264.203339 220.0
264.335999 248.0
266.576721 164.0
271.742279 84.0
272.270752 132.0
272.431702 40.0
272.582855 200.0
272.605835 116.0
272.697876 168.0
276.722321 148.0
278.509705 56.0
280.131531 184.0
281.363495 112.0
283.229431 104.0
283.698578 100.0
284.188202 188.0
284.564117 100.0
288.100281 88.0
288.174622 120.0
291.515564 44.0
292.256836 48.0
293.077393 120.0
294.151672 120.0
294.575104 124.0
295.82666 36.0
298.07309 172.0
298.289612 124.0
298.66095 64.0
299.03598 128.0
300.842163 104.0
301.878693 228.0
303.214966 44.0
303.46106 140.0
305.170837 312.0
307.171722 140.0
307.953552 164.0
310.354187 200.0
310.764526 76.0
314.28653 124.0
314.392395 188.0
315.236359 172.0
318.470886 124.0
319.259888 152.0
320.078308 116.0
320.388184 128.0
320.698181 156.0
320.858612 124.0
321.126038 184.0
321.208527 156.0
321.322235 40.0
321.485046 88.0
321.711212 76.0
321.88974 144.0
322.096863 120.0
322.236206 56.0
322.539948 96.0
322.657898 32.0
322.697235 220.0
322.747284 92.0
322.783051 188.0
322.833099 44.0
322.908203 72.0
322.952911 184.0
323.177032 18596.0
323.270203 84.0
323.31604 184.0
323.380463 40.0
323.41626 48.0
323.448486 68.0
323.691742 124.0
323.742645 48.0
323.838745 152.0
323.960541 140.0
324.010681 68.0
324.098145 132.0
324.18042 2332.0
324.279449 96.0
324.397736 60.0
324.444641 48.0
324.526794 152.0
324.559052 60.0
324.650269 92.0
324.924896 48.0
324.964355 36.0
325.02536 56.0
325.184204 252.0
325.312469 96.0
325.678711 60.0
326.052368 48.0
326.162567 92.0
326.185364 288.0
326.239258 156.0
326.361511 44.0
327.235809 100.0
327.304199 52.0
328.717224 56.0
328.811035 56.0
330.053711 40.0
331.20813 52.0
331.795197 96.0
332.342834 100.0
335.539764 52.0
336.99234 108.0
341.159302 88.0
342.148895 92.0
345.089294 48.0
346.899597 84.0
347.12204 148.0
348.324524 144.0
351.436798 88.0
353.013062 84.0
357.115875 112.0
357.198608 96.0
358.128326 48.0
358.184814 72.0
376.365875 72.0
385.396545 144.0
386.878815 72.0
389.321503 64.0
408.069702 116.0
431.316437 76.0
433.054199 124.0
441.845703 68.0
443.428497 88.0
466.301636 52.0
469.258881 44.0
477.464508 56.0
481.661682 112.0
506.222443 64.0
506.715149 56.0
526.382019 80.0
535.30542 100.0
537.001343 88.0
548.966431 88.0
558.529968 56.0
571.335205 72.0
577.11554 68.0
582.281189 84.0
587.151611 96.0
610.08905 56.0
630.242676 96.0
672.168457 96.0
688.881042 168.0
689.095215 60.0
700.305237 72.0
778.978943 68.0
790.005127 184.0
795.968323 40.0
799.31842 164.0
806.71228 116.0
822.052856 48.0
831.237061 244.0
836.645386 108.0
841.297546 204.0
844.278931 60.0
850.605713 232.0
852.882629 72.0
859.305725 60.0
859.509888 200.0
859.55658 156.0
877.993958 196.0
883.652649 212.0
896.191956 168.0
900.480957 72.0
906.864746 124.0
915.274963 204.0
922.430054 48.0
925.5578 208.0
935.234497 172.0
936.470459 216.0
947.153076 108.0
951.470032 184.0
952.274475 244.0
953.288086 196.0
954.388367 64.0
957.631348 208.0
962.23761 200.0
965.394958 224.0
968.278809 176.0
973.357605 208.0
992.783081 232.0
996.762878 200.0
996.982788 216.0
998.321777 124.0
1000.423218 176.0
1008.225342 224.0
1012.565186 168.0
1013.585083 180.0
1018.031677 188.0
1020.713196 96.0
1025.678955 224.0
1026.954102 196.0
1028.344971 192.0
1029.002441 40.0
1029.321655 112.0
1032.024414 176.0
1033.277954 252.0
1033.81543 164.0
1033.943481 228.0
1037.440552 64.0
1041.084961 88.0
1045.687866 208.0
1050.210815 76.0
1056.062378 156.0
1056.230591 168.0
1057.272217 180.0
1067.443726 156.0
1069.32373 168.0
1069.850952 160.0
1075.358887 132.0
1080.148071 168.0
1085.256104 196.0
1085.518433 56.0
1088.609131 208.0
1089.134521 156.0
1093.421143 184.0
1093.717285 152.0
1095.870728 176.0
1097.209351 164.0
1098.838257 184.0
1103.480347 184.0
1105.603638 112.0
1107.132812 124.0
1112.86853 192.0
1116.423462 220.0
1117.520874 180.0
1117.647339 188.0
1117.993408 108.0
1119.950684 252.0
1124.270874 184.0
1124.858154 56.0
1127.708984 176.0
1140.659668 176.0
1141.029419 152.0
1141.61438 136.0
1142.024658 96.0
1142.650146 140.0
1144.251953 276.0
1147.640869 176.0
1148.30835 124.0
1148.773804 264.0
1149.070679 148.0
1152.243652 116.0
1152.324707 132.0
1152.480103 152.0
1152.682861 160.0
1153.020752 224.0
1157.390625 192.0
1158.257446 196.0
1164.028809 152.0
1165.550293 212.0
1169.651123 64.0
1177.293823 192.0
1179.678223 192.0
1179.80127 180.0
1182.585205 188.0
1188.494751 76.0
1188.883423 220.0
1190.510376 152.0
1192.440796 144.0
1199.585205 236.0
1203.365723 176.0
1203.648804 180.0
1204.263428 164.0
1205.886963 116.0
1207.131348 200.0
1208.210327 168.0
1211.138306 164.0
1211.290771 152.0
1213.300293 144.0
1213.383545 52.0
1215.637695 164.0
1216.539917 128.0
1218.421875 32.0
1218.873535 192.0
1224.779785 128.0
1224.953979 48.0
1225.727295 176.0
1226.110474 172.0
1228.97644 120.0
1233.487793 148.0
1235.012085 196.0
1235.690674 204.0
1236.446289 72.0
1238.161499 124.0
1239.170166 68.0
1239.576538 124.0
1240.655884 200.0
1244.47229 188.0
1244.619751 152.0
1245.483521 164.0
1245.778564 168.0
1251.172363 160.0
1252.397583 184.0
1254.278809 192.0
1254.89209 108.0
1255.999268 180.0
1256.556519 120.0
1258.596313 212.0
1259.634399 144.0
1259.754517 160.0
1260.150146 180.0
1262.277588 132.0
1262.532104 160.0
1263.373779 64.0
1263.911499 188.0
1266.233398 152.0
1267.118774 112.0
1267.246338 176.0
1267.317139 120.0
1268.833862 80.0
1269.053589 128.0
1272.288696 88.0
1274.746094 192.0
1278.443848 108.0
1279.06311 156.0
1279.112915 180.0
1279.846191 212.0
1282.332275 112.0
1282.660156 204.0
1282.93811 56.0
1283.087769 148.0
1285.206055 156.0
1285.962402 96.0
1287.518799 60.0
1287.868774 56.0
1287.932983 132.0
1289.998047 120.0
1292.078979 84.0
1293.796509 156.0
1294.039917 176.0
1296.04541 64.0
1296.417969 164.0
1297.055786 88.0
1297.321045 172.0
1298.281738 204.0
1299.687744 156.0
1300.735474 188.0
1301.855469 204.0
1303.141235 176.0
1303.442993 188.0
1303.852539 176.0
1307.167603 44.0
1307.930542 112.0
1307.980957 184.0
1314.445312 88.0
1317.810059 64.0
1318.814453 244.0
1323.958374 192.0
1327.269897 140.0
1327.632446 60.0
1327.893433 232.0
1328.053101 192.0
1328.132812 52.0
1328.662354 216.0
1328.778442 176.0
1328.887207 152.0
1329.206543 252.0
1329.917725 76.0
1330.215332 120.0
1331.442261 208.0
1332.967773 184.0
1333.105835 148.0
1334.537842 176.0
1335.8396 152.0
1336.072266 196.0
1336.603394 220.0
1337.141968 160.0
1338.088135 256.0
1339.224121 88.0
1340.499023 160.0
1345.604614 132.0
1345.998901 160.0
1346.334839 116.0
1348.387695 152.0
1348.577637 212.0
1348.709229 216.0
1350.091064 200.0
1350.975952 116.0
1351.3125 160.0
1351.561279 88.0
1351.956421 144.0
1356.138184 112.0
1356.372681 228.0
1356.797852 208.0
1357.479736 112.0
1358.176392 236.0
1358.462524 208.0
1361.890381 96.0
1362.06665 232.0
1365.999146 132.0
1366.19043 72.0
1366.381714 132.0
1366.550903 192.0
1368.53064 88.0
1369.082886 76.0
1370.865601 108.0
1371.02771 136.0
1371.890137 160.0
1372.070801 172.0
1372.848633 92.0
1373.394287 176.0
1373.755737 224.0
1375.356934 88.0
1378.384766 148.0
1379.434204 188.0
1380.106934 168.0
1380.2771 248.0
1380.424927 200.0
1380.809448 188.0
1382.177979 200.0
1382.50354 124.0
1383.858154 216.0
1387.280762 192.0
1387.332642 128.0
1388.437378 192.0
1389.15686 48.0
1389.676147 136.0
1389.898682 132.0
1392.251831 224.0
1393.13562 160.0
1397.960938 212.0
1399.817627 176.0
1401.147705 204.0
1403.815918 176.0
1406.859985 72.0
1409.705566 148.0
1410.879028 204.0
1412.344604 164.0
1413.189941 96.0
1414.649292 72.0
1415.035156 236.0
1419.39917 224.0
1423.473633 236.0
1423.78894 136.0
1423.90918 192.0
1425.47168 172.0
1430.721436 152.0
1431.895996 116.0
1431.990234 204.0
1432.430786 96.0
1434.608521 128.0
1437.519775 132.0
1438.342407 160.0
1438.742432 128.0
1439.746704 224.0
1441.997925 152.0
1442.31543 160.0
1442.602661 44.0
1444.039185 200.0
1444.546021 140.0
1447.459717 192.0
1448.338257 148.0
1449.482178 224.0
1450.020142 148.0
1452.939453 200.0
1455.368042 164.0
1457.601074 204.0
1457.905029 124.0
1458.221069 204.0
1458.467407 188.0
1458.566284 188.0
1459.402466 100.0
1459.653442 148.0
1460.010742 196.0
1461.456055 180.0
1461.828857 172.0
1463.320679 168.0
1464.127808 208.0
1464.592407 208.0
1465.681763 124.0
1469.234619 68.0
1470.554688 144.0
1471.837158 204.0
1472.356323 120.0
1474.396118 148.0
1475.764771 144.0
1476.498413 228.0
1477.622314 324.0
1478.013062 60.0
1478.319092 116.0
1478.433838 204.0
1480.669312 60.0
1482.745361 96.0
1483.795532 228.0
1484.577515 248.0
1484.661865 232.0
1486.98645 168.0
1489.247437 40.0
1489.389526 188.0
1490.457397 44.0
1490.649414 144.0
1491.794556 180.0
1492.947876 92.0
1493.101685 188.0
1494.83252 116.0
1495.840698 72.0
1496.287231 188.0
1497.696411 212.0
1501.314453 184.0
1501.634766 132.0
1501.765869 120.0
