>compound 29122-68-7
>formula C14H22N2O3 
>ionization [M+H]+
>parentmass 267.171936
#inchi InChI=1S/C14H22N2O3/c1-10(2)16-8-12(17)9-19-13-5-3-11(4-6-13)7-14(15)18/h3-6,10,12,16-17H,7-9H2,1-2H3,(H2,15,18)
#inchikey METKIMKYRPQLGS
#Ion_Source LC-ESI
#Instrument qTof
#Compound_Source Commercial
#PI Dorrestein
#Data_Collector Garg_Neha
#Scan -1
#Precursor_MZ 267.172
#ExactMass 266.163
#Charge 1
#CAS_Number N/A
#Pubmed_ID N/A
#Smiles N/A
#INCHI_AUX N/A
#Library_Class 1
#SpectrumID CCMSLIB00000077060
#IonMode Positive
#UpdateWorkflowName UPDATE-SINGLE-ANNOTATED-GOLD
#LibraryQualityString Gold
#TaskID 48f7f52fc6d249b5abbcc6e7b3df5969
##Scan# 965
#SpectrumFile NCP003017_E2_F11_BA8_01_15703.mzXML
#LibraryName NIH_Clinical_Collection_2.mgf
#MQScore -1
#Organism NIHcollection2_04212014_2_mgf
#TIC_Query 0
#RT_Query -1
#MZErrorPPM -1
#SharedPeaks 0
#MassDiff 0
#LibMZ -1
#SpecMZ 267.172
#SpecCharge 0
#internalFilename spec-00000.mgf

>collision 10
45.702805 176.0
46.678089 168.0
46.958633 156.0
47.020027 224.0
49.644684 156.0
50.46563 160.0
51.122395 184.0
54.008179 144.0
56.387299 148.0
58.023594 148.0
58.95974 268.0
59.817142 144.0
60.180977 200.0
62.008877 164.0
62.366737 144.0
63.095028 216.0
63.245308 180.0
64.764351 204.0
65.165405 232.0
65.840347 168.0
66.679573 144.0
67.776215 192.0
67.787682 180.0
68.309792 184.0
68.339401 168.0
68.682068 196.0
69.949471 140.0
74.433945 188.0
77.336205 160.0
77.483299 184.0
77.709465 160.0
79.057472 148.0
79.996407 164.0
80.254738 176.0
82.86982 192.0
83.125671 148.0
84.988747 172.0
85.001587 140.0
87.279198 216.0
87.576958 184.0
88.334801 172.0
89.043312 168.0
91.055801 180.0
93.069435 204.0
93.567406 168.0
95.05571 152.0
95.498657 160.0
98.096725 252.0
98.375267 144.0
99.105049 196.0
99.9151 164.0
100.271538 164.0
102.035065 152.0
103.055473 196.0
103.522156 180.0
105.068085 324.0
105.612343 144.0
105.818031 140.0
105.949539 204.0
106.042313 180.0
106.062866 140.0
106.888412 224.0
107.05072 296.0
108.052116 148.0
108.085709 172.0
108.613518 224.0
111.293198 148.0
112.476349 152.0
113.098907 204.0
113.154945 236.0
113.171883 196.0
113.642418 140.0
115.052414 164.0
115.761208 176.0
116.052795 312.0
116.106369 1312.0
117.035896 232.0
117.069794 612.0
117.087074 216.0
117.176712 188.0
117.772484 268.0
118.077522 192.0
119.048309 460.0
121.068245 1036.0
121.26651 180.0
122.063377 184.0
122.748253 144.0
123.404037 176.0
124.117004 204.0
126.453911 184.0
127.299103 180.0
128.449188 176.0
128.753891 148.0
129.068008 164.0
131.029037 180.0
131.050308 260.0
131.64946 184.0
132.310257 208.0
133.027954 148.0
133.064926 3148.0
133.10968 172.0
134.063065 716.0
135.041702 168.0
135.064835 172.0
135.081024 172.0
135.657623 148.0
136.074997 488.0
136.40976 200.0
136.989182 148.0
137.721634 144.0
138.399826 204.0
138.528625 164.0
139.2276 176.0
139.288666 144.0
140.692169 164.0
140.94252 220.0
142.076614 168.0
142.173904 148.0
144.016678 164.0
145.065262 9620.0
145.342941 148.0
146.068481 1932.0
146.25618 144.0
146.765411 136.0
147.045914 780.0
147.074707 304.0
147.109497 156.0
147.476654 148.0
147.665253 180.0
148.046387 176.0
148.217194 172.0
148.292328 216.0
149.085938 240.0
152.070099 456.0
152.126862 180.0
155.059662 268.0
155.359695 216.0
157.293243 220.0
160.074875 200.0
161.059387 272.0
161.090103 184.0
161.244232 152.0
162.065933 492.0
162.08992 1072.0
163.07724 564.0
164.069702 1612.0
164.097473 216.0
165.076675 172.0
165.113785 144.0
166.074234 268.0
167.243317 176.0
171.866699 236.0
172.072891 176.0
173.060913 784.0
173.105072 148.0
174.064743 256.0
175.241211 148.0
177.159256 160.0
177.559494 140.0
178.085892 2216.0
179.087006 344.0
180.101807 904.0
181.108566 136.0
182.55896 172.0
183.841248 148.0
186.093353 184.0
187.115631 300.0
190.086029 6292.0
190.568069 176.0
190.699173 156.0
191.08902 808.0
191.849762 164.0
192.117264 216.0
192.437408 148.0
196.587219 148.0
196.827286 148.0
198.851303 184.0
198.986038 160.0
199.03096 156.0
203.466599 192.0
204.138672 476.0
204.843002 196.0
207.111557 296.0
207.554871 160.0
208.098175 1280.0
208.629028 156.0
209.10022 228.0
212.130722 204.0
213.021591 148.0
213.172684 196.0
213.495361 196.0
214.565094 136.0
214.6427 152.0
216.876251 168.0
218.123749 148.0
221.161926 176.0
222.234695 184.0
225.092194 152.0
225.124527 4824.0
226.126343 912.0
232.129761 412.0
234.544769 140.0
235.032715 168.0
236.123291 244.0
236.444534 148.0
243.194397 156.0
246.667465 196.0
247.070877 208.0
249.160065 1152.0
249.281357 140.0
250.152206 180.0
251.205078 184.0
251.612183 184.0
253.269211 164.0
257.055695 244.0
260.375458 148.0
263.981628 184.0
264.489563 176.0
265.326538 180.0
265.983185 96.0
266.27594 112.0
266.524017 164.0
266.687286 136.0
266.826324 168.0
266.893524 172.0
266.92691 344.0
266.962494 172.0
267.044189 412.0
267.077332 176.0
267.171936 135456.0
267.276947 100.0
267.389038 152.0
267.522675 284.0
267.651855 300.0
267.705658 812.0
267.757111 196.0
267.803223 120.0
267.862335 204.0
268.13092 148.0
268.174316 18556.0
268.309479 116.0
268.39328 120.0
268.542175 140.0
268.812103 124.0
269.174713 1596.0
269.285492 156.0
269.387268 104.0
269.535767 120.0
269.825928 128.0
269.875885 196.0
269.992279 232.0
270.067871 96.0
270.185089 224.0
270.436371 148.0
270.702698 104.0
270.887085 132.0
271.697968 140.0
276.181305 164.0
280.388733 104.0
280.467957 212.0
1298.22168 160.0
1521.394653 212.0
1545.101929 192.0
1624.391113 176.0
1695.806152 240.0
1726.582764 128.0
1818.34436 176.0
1833.968506 196.0
1890.750122 140.0
1909.855103 156.0
1919.923218 188.0
1948.247925 144.0
1983.120972 172.0
1989.587524 176.0
1993.728149 128.0
