>compound MLS000069640-01!SULFAMETER
>formula C11H12N4O3S
>ionization [M+H]+
>parentmass 281.072
#inchi InChI=1S/C11H12N4O3S/c1-18-9-6-13-11(14-7-9)15-19(16,17)10-4-2-8(12)3-5-10/h2-7H,12H2,1H3,(H,13,14,15)
#inchikey GPTONYMQFTZPKC
#Ion_Source LC-ESI
#Instrument qTof
#Compound_Source NIH Pharmacologically Active Library
#PI Dorrestein
#Data_Collector VP/LMS
#Scan -1
#Precursor_MZ 281.072
#ExactMass 280.063
#Charge 1
#CAS_Number N/A
#Pubmed_ID N/A
#Smiles COc1cnc(NS(=O)(=O)c2ccc(N)cc2)nc1
#INCHI_AUX N/A
#Library_Class 1
#SpectrumID CCMSLIB00000084761
#IonMode Positive
#UpdateWorkflowName UPDATE-SINGLE-ANNOTATED-GOLD
#LibraryQualityString Gold
#TaskID d252d724072548979f1f6f1ced849daf
##Scan# 1364
#SpectrumFile p3-A05_GA5_01_18227.mzXML
#LibraryName Pharm_Active_Library.mgf
#MQScore -1
#Organism Pharm_Active_Library
#TIC_Query 0
#RT_Query -1
#MZErrorPPM -1
#SharedPeaks 0
#MassDiff 0
#LibMZ -1
#SpecMZ 281.072
#SpecCharge 0
#internalFilename spec-00000.mgf

>collision 10
44.996304 216.0
45.41114 128.0
45.593731 68.0
45.631371 188.0
46.262764 160.0
46.533916 144.0
46.897137 168.0
47.125034 220.0
47.587986 172.0
47.597595 84.0
47.846462 116.0
47.927723 160.0
48.989014 228.0
49.332314 180.0
50.149277 244.0
50.47398 80.0
50.541878 216.0
50.961582 188.0
52.46151 164.0
52.983219 120.0
53.062931 188.0
53.193497 208.0
53.589069 140.0
53.819351 148.0
54.320053 156.0
54.743347 128.0
55.424332 140.0
56.785423 216.0
57.555935 160.0
57.961319 148.0
58.584248 188.0
59.037571 188.0
59.609375 136.0
60.966206 136.0
62.054195 112.0
62.179688 236.0
62.870586 180.0
63.36195 80.0
64.756195 160.0
64.839508 68.0
65.26973 112.0
65.646538 132.0
66.008263 236.0
66.698914 184.0
67.035812 136.0
67.553383 136.0
67.671219 216.0
67.898994 132.0
68.855194 200.0
69.296867 216.0
70.004471 144.0
70.570137 136.0
70.683876 188.0
71.90731 48.0
71.995102 156.0
72.886139 228.0
73.490601 192.0
73.652779 68.0
74.255257 188.0
74.870529 124.0
74.935982 220.0
75.192917 228.0
75.443382 220.0
76.745506 172.0
76.771667 176.0
77.246735 164.0
77.314972 76.0
77.355232 36.0
77.490082 84.0
77.681168 184.0
78.645439 232.0
79.608559 136.0
79.747131 220.0
80.886917 76.0
81.642265 148.0
81.860016 212.0
82.007744 144.0
82.337914 152.0
83.052826 96.0
83.199814 172.0
83.377823 208.0
83.716194 220.0
83.798164 140.0
84.204948 140.0
84.301773 180.0
85.105919 132.0
85.438583 120.0
86.536705 272.0
86.590408 120.0
86.901833 200.0
86.979774 192.0
87.688431 160.0
88.428032 96.0
89.727921 188.0
89.818436 168.0
91.26152 156.0
91.369926 192.0
91.449852 252.0
91.825188 188.0
92.012184 140.0
92.049721 1008.0
92.19577 180.0
92.28157 48.0
92.312164 52.0
92.67202 148.0
93.057335 380.0
93.488106 132.0
93.719177 84.0
94.006485 184.0
94.039314 204.0
94.064293 164.0
94.278778 176.0
95.069725 196.0
95.453522 132.0
96.271973 272.0
96.696205 148.0
97.201805 140.0
97.270493 140.0
97.517982 156.0
98.248322 196.0
98.445908 168.0
98.770035 180.0
99.05468 344.0
99.090729 60.0
99.769989 56.0
100.486435 60.0
101.061852 196.0
101.131889 272.0
102.70919 128.0
103.708046 136.0
104.128029 156.0
104.436958 168.0
104.648598 200.0
104.725983 252.0
104.740242 124.0
104.772835 104.0
104.795242 168.0
105.039886 100.0
105.186798 88.0
106.13813 120.0
106.306335 196.0
106.756218 236.0
107.087555 144.0
107.501938 200.0
107.919731 168.0
107.939865 200.0
107.987434 192.0
108.007996 140.0
108.045135 12524.0
108.097076 92.0
108.167442 96.0
108.200569 68.0
108.220276 108.0
108.29789 128.0
108.37661 44.0
108.399994 112.0
108.592201 164.0
108.641991 64.0
108.79763 100.0
109.03286 168.0
109.050514 1152.0
109.254829 92.0
109.622665 108.0
109.923645 96.0
110.035271 552.0
110.598686 156.0
110.661484 152.0
110.688705 160.0
110.70546 32.0
110.780861 108.0
111.023994 244.0
111.043526 2024.0
111.153191 88.0
111.332481 92.0
112.039215 144.0
112.338562 184.0
113.028778 208.0
115.042152 112.0
115.642792 168.0
115.968346 176.0
116.786385 148.0
116.939148 136.0
117.723885 128.0
118.05452 136.0
119.568771 124.0
119.963013 252.0
120.425598 148.0
121.856049 40.0
122.965874 152.0
123.396622 168.0
124.051453 660.0
124.686714 132.0
125.054504 544.0
125.087067 160.0
125.561653 148.0
125.916504 152.0
125.97905 116.0
126.023727 80.0
126.039368 128.0
126.067856 6468.0
126.106415 48.0
126.368042 44.0
126.674751 40.0
127.046875 160.0
127.068916 552.0
127.633064 112.0
128.148499 48.0
128.951828 96.0
130.932449 180.0
133.330048 76.0
133.891388 120.0
133.965088 112.0
134.057251 172.0
134.165573 116.0
134.306244 184.0
135.218872 220.0
136.91597 88.0
137.937912 172.0
138.858093 192.0
142.16806 164.0
143.064117 304.0
143.302277 136.0
144.096756 172.0
144.512772 136.0
145.065994 180.0
146.072144 136.0
146.387421 184.0
146.543991 196.0
146.683762 136.0
146.953857 120.0
147.056198 180.0
148.073074 112.0
148.109406 112.0
149.023972 180.0
150.063232 148.0
153.259354 128.0
154.048828 140.0
155.00383 148.0
155.041 172.0
155.586685 140.0
156.011749 3056.0
156.053757 140.0
156.165649 56.0
156.352249 68.0
156.414474 32.0
156.678436 76.0
156.703339 36.0
157.018295 340.0
157.062103 364.0
157.202026 72.0
157.419205 124.0
158.007355 248.0
158.069138 176.0
158.109177 40.0
159.069122 156.0
167.496658 220.0
168.443329 152.0
171.372269 116.0
171.959 80.0
171.977264 64.0
172.042526 52.0
172.075119 3880.0
172.201797 40.0
172.329803 56.0
172.384674 112.0
172.670242 84.0
172.82135 184.0
172.855362 52.0
172.996689 128.0
173.077377 424.0
173.35289 176.0
174.084564 152.0
175.555801 124.0
177.775269 76.0
182.893402 132.0
185.057999 124.0
185.082809 312.0
185.250717 36.0
186.053421 200.0
186.072433 216.0
188.011734 860.0
188.077133 176.0
188.093491 132.0
188.155121 68.0
188.594925 112.0
189.007858 128.0
191.406906 168.0
192.319412 100.0
198.065094 192.0
200.069321 940.0
201.070969 60.0
201.230545 140.0
202.107712 332.0
206.025589 400.0
210.095322 60.0
214.471085 140.0
214.543961 56.0
215.051498 128.0
215.092361 2340.0
215.136154 168.0
215.387283 108.0
215.77594 60.0
216.096313 224.0
216.850235 56.0
217.11087 192.0
219.024475 200.0
219.056885 136.0
219.81459 124.0
220.36673 60.0
228.03125 48.0
237.139801 64.0
265.059143 164.0
281.077545 176.0
282.059418 124.0
282.644684 228.0
358.834351 88.0
404.09671 52.0
409.391113 60.0
670.099792 248.0
749.532898 192.0
780.829895 156.0
829.798218 184.0
877.918823 136.0
914.524597 172.0
919.515015 72.0
939.874634 192.0
944.597107 232.0
975.752869 48.0
984.113953 132.0
987.131958 188.0
1033.474365 132.0
1042.914062 228.0
1068.931885 116.0
1083.737915 180.0
1087.839966 216.0
1095.546997 160.0
1101.596191 156.0
1104.365845 240.0
1108.185425 144.0
1120.216797 112.0
1127.095215 152.0
1132.996216 144.0
1135.791626 244.0
1139.839844 176.0
1142.401367 204.0
1142.899292 212.0
1149.232788 184.0
1154.190552 216.0
1156.700439 240.0
1158.115601 20.0
1162.278076 172.0
1181.641846 88.0
1184.702026 168.0
1191.026611 172.0
1194.229492 128.0
1196.610474 136.0
1207.278076 240.0
1211.139893 204.0
1212.497925 248.0
1219.04895 120.0
1223.820679 188.0
1224.537964 204.0
1226.537598 60.0
1234.4198 96.0
1238.632935 152.0
1255.550537 180.0
1257.314209 100.0
1267.135864 168.0
1267.568115 168.0
1268.228394 116.0
1270.255127 140.0
1271.255493 160.0
1273.221924 144.0
1274.948242 228.0
1275.111694 200.0
1275.69458 72.0
1283.319336 144.0
1283.540283 188.0
1285.523315 208.0
1292.053955 192.0
1301.327881 168.0
1308.438354 52.0
1313.475586 160.0
1322.029785 176.0
1330.698975 140.0
1335.604248 128.0
1336.477173 156.0
1337.561523 184.0
1344.470947 204.0
1344.879639 196.0
1347.939575 176.0
1354.619263 168.0
1356.00415 168.0
1357.580322 192.0
1358.460449 164.0
1360.295044 204.0
1364.136841 136.0
1369.515747 212.0
1372.286499 168.0
1378.331543 156.0
1385.234253 116.0
1387.012573 160.0
1387.509277 200.0
1392.020386 176.0
1392.93396 128.0
1393.624878 168.0
1404.210327 96.0
1404.52356 156.0
1405.388916 32.0
1408.487061 204.0
1408.957764 136.0
1412.261719 132.0
1417.839478 208.0
1419.368652 216.0
1421.311401 120.0
1421.799194 92.0
1430.33728 176.0
1455.626709 180.0
1461.646851 176.0
1463.542236 52.0
1465.857788 164.0
1471.860962 144.0
1473.060059 112.0
1474.481201 124.0
1480.70874 188.0
1482.057007 120.0
1484.935425 20.0
1492.71106 156.0
1495.488281 180.0
1498.18335 96.0
1502.299927 152.0
