>compound MLS001049034-01!1-phenylpyrrole-2-carbaldehyde
>formula C11H9NO
>ionization [M+H]+
>parentmass 172.076
#inchi InChI=1S/C11H9NO/c13-9-11-7-4-8-12(11)10-5-2-1-3-6-10/h1-9H
#inchikey LXEQKKWJDGVPRW
#Ion_Source LC-ESI
#Instrument qTof
#Compound_Source NIH Natural Product Library
#PI Dorrestein
#Data_Collector VVP/LMS
#Scan -1
#Precursor_MZ 172.076
#ExactMass 171.068
#Charge 1
#CAS_Number N/A
#Pubmed_ID N/A
#Smiles O=Cc1cccn1c2ccccc2
#INCHI_AUX N/A
#Library_Class 1
#SpectrumID CCMSLIB00000080171
#IonMode Positive
#UpdateWorkflowName UPDATE-SINGLE-ANNOTATED-GOLD
#LibraryQualityString Gold
#TaskID b1d8e8f6646f4e71acdff9ca3d919d08
##Scan# 1970
#SpectrumFile p2-B05_GB5_01_17993.mzXML
#LibraryName NIH_Natural_Products_Library.mgf
#MQScore -1
#Organism NIH_Natural_Products_Library
#TIC_Query 0
#RT_Query -1
#MZErrorPPM -1
#SharedPeaks 0
#MassDiff 0
#LibMZ -1
#SpecMZ 172.076
#SpecCharge 0
#internalFilename spec-00000.mgf

>collision 10
95.386139 40.0
95.792839 184.0
96.471939 204.0
98.432785 160.0
101.041656 164.0
101.218712 44.0
101.50927 216.0
102.034363 128.0
102.047394 180.0
102.15197 152.0
102.486176 188.0
102.754333 72.0
103.055367 456.0
103.597366 204.0
104.051041 688.0
104.080063 64.0
104.961136 196.0
106.791992 208.0
107.713356 132.0
110.024689 172.0
110.459358 184.0
111.863213 200.0
113.000717 152.0
113.498466 204.0
113.770035 180.0
113.882584 152.0
114.569656 124.0
114.974785 156.0
115.054398 4560.0
115.151985 48.0
115.32505 56.0
115.363525 56.0
115.421257 108.0
115.830025 60.0
116.061584 964.0
116.082924 132.0
116.692734 76.0
116.937965 144.0
117.013306 72.0
117.066849 1024.0
117.114517 36.0
117.500389 100.0
117.871758 64.0
118.057907 180.0
118.075333 216.0
118.129044 48.0
118.315155 52.0
118.716003 220.0
119.826736 196.0
122.748543 204.0
122.933838 180.0
126.047356 388.0
126.749817 200.0
127.054581 1648.0
128.051834 440.0
128.145142 188.0
128.435959 176.0
129.041168 124.0
129.064407 188.0
129.084137 192.0
129.631943 44.0
131.054398 184.0
131.081741 100.0
131.53331 156.0
132.049698 60.0
132.388412 80.0
138.294785 72.0
138.948578 240.0
139.253738 168.0
139.723877 144.0
140.048721 316.0
140.168884 104.0
141.061005 320.0
142.066833 868.0
142.202698 136.0
142.894196 172.0
143.032227 172.0
143.048889 196.0
143.073898 3540.0
144.080261 3280.0
144.148392 148.0
144.248764 64.0
144.303757 40.0
144.399399 44.0
144.880539 44.0
144.962006 108.0
145.061829 324.0
145.085114 360.0
145.21373 88.0
145.230515 96.0
145.914902 180.0
153.061737 184.0
153.192001 96.0
154.06691 1576.0
154.275345 60.0
154.807312 72.0
155.05983 512.0
155.218658 56.0
156.060745 300.0
156.416153 84.0
156.760986 44.0
160.573013 108.0
167.053238 52.0
170.062851 196.0
171.06694 132.0
172.073242 176.0
174.136719 104.0
178.968262 80.0
231.382797 68.0
271.898499 56.0
277.575958 116.0
289.204956 20.0
387.686096 92.0
407.322998 80.0
556.108948 104.0
750.543335 196.0
754.200989 188.0
768.694397 200.0
770.035889 144.0
894.493103 40.0
899.321167 96.0
925.998718 112.0
928.507812 240.0
995.895874 124.0
1010.811829 132.0
1017.43512 236.0
1021.209595 184.0
1024.678833 164.0
1029.813843 136.0
1096.511475 240.0
1107.803589 112.0
1108.380005 112.0
1110.640625 224.0
1115.826904 124.0
1120.458862 188.0
1120.818726 216.0
1123.111938 148.0
1124.980347 52.0
1130.487671 176.0
1137.02832 136.0
1152.036743 144.0
1153.489136 248.0
1158.151611 44.0
1165.634521 228.0
1172.548584 156.0
1179.394165 160.0
1191.35144 116.0
1198.596069 204.0
1198.713257 228.0
1203.03772 164.0
1220.712158 132.0
1223.927002 156.0
1227.634033 108.0
1232.785767 248.0
1237.850342 144.0
1238.928955 144.0
1246.056641 240.0
1252.324341 172.0
1255.340576 120.0
1263.470215 228.0
1271.533813 156.0
1277.801025 140.0
1286.538208 200.0
1287.109375 152.0
1287.744995 56.0
1297.161133 172.0
1304.368042 180.0
1311.147949 180.0
1326.949097 124.0
1330.220825 156.0
1334.005493 180.0
1341.29187 176.0
1344.741821 216.0
1351.230713 148.0
1353.821777 212.0
1361.096069 140.0
1372.464111 80.0
1377.172241 156.0
1378.731201 44.0
1395.036255 120.0
1400.938477 140.0
1405.269897 208.0
1408.554565 128.0
1409.622925 60.0
1413.316772 140.0
1415.482544 112.0
1416.064087 208.0
1418.626587 180.0
1420.26123 184.0
1427.711548 144.0
1430.329834 176.0
1435.068359 36.0
1441.620117 224.0
1448.853394 124.0
1450.437256 176.0
1452.985107 208.0
1458.125732 100.0
1461.212891 180.0
1463.930176 220.0
1465.735596 100.0
1466.459473 192.0
1470.707764 232.0
1475.076904 224.0
1477.585205 160.0
1488.929565 164.0
1489.92041 216.0
1498.598633 36.0
1498.829712 168.0
1503.194092 184.0
