>compound MLS001304038-01!29122-68-7
>formula C14H22N2O3
>ionization [M+H]+
>parentmass 267.170502
#inchi InChI=1S/C14H22N2O3/c1-10(2)16-8-12(17)9-19-13-5-3-11(4-6-13)7-14(15)18/h3-6,10,12,16-17H,7-9H2,1-2H3,(H2,15,18)
#inchikey METKIMKYRPQLGS
#Ion_Source LC-ESI
#Instrument qTof
#Compound_Source NIH Pharmacologically Active Library
#PI Dorrestein
#Data_Collector VP/LMS
#Scan -1
#Precursor_MZ 267.173
#ExactMass 266.163
#Charge 1
#CAS_Number N/A
#Pubmed_ID N/A
#Smiles CC(C)NCC(O)COc1ccc(CC(=O)N)cc1
#INCHI_AUX N/A
#Library_Class 1
#SpectrumID CCMSLIB00000084911
#IonMode Positive
#UpdateWorkflowName UPDATE-SINGLE-ANNOTATED-GOLD
#LibraryQualityString Gold
#TaskID d252d724072548979f1f6f1ced849daf
##Scan# 1102
#SpectrumFile p3-C06_GC6_01_18251.mzXML
#LibraryName Pharm_Active_Library.mgf
#MQScore -1
#Organism Pharm_Active_Library
#TIC_Query 0
#RT_Query -1
#MZErrorPPM -1
#SharedPeaks 0
#MassDiff 0
#LibMZ -1
#SpecMZ 267.173
#SpecCharge 0
#internalFilename spec-00000.mgf

>collision 10
45.549538 176.0
46.003361 172.0
46.303547 104.0
46.371292 196.0
46.420097 152.0
46.504211 204.0
47.010506 148.0
47.32354 188.0
47.649975 180.0
47.995457 200.0
49.227734 64.0
49.868 196.0
50.33997 212.0
51.564629 168.0
51.703358 164.0
52.515133 140.0
52.717258 56.0
53.140083 184.0
54.527397 88.0
54.596497 144.0
56.020447 68.0
56.823284 136.0
57.257713 140.0
57.566875 160.0
57.767899 188.0
57.848106 164.0
57.99807 220.0
58.064785 180.0
58.386761 204.0
58.455219 200.0
59.13895 120.0
59.766632 112.0
60.182808 232.0
60.245083 212.0
60.345043 120.0
60.735302 232.0
61.196865 236.0
61.83065 160.0
62.571568 236.0
62.618809 136.0
63.033718 184.0
63.746822 188.0
64.194153 144.0
65.106346 76.0
65.156136 48.0
65.18988 232.0
65.307243 120.0
65.387695 152.0
65.424713 168.0
66.420174 176.0
66.950035 128.0
66.98098 144.0
67.114616 272.0
67.251656 96.0
67.666885 164.0
68.464928 148.0
68.821114 148.0
69.131882 208.0
69.247772 204.0
69.672432 152.0
70.178391 284.0
70.200073 184.0
71.085014 80.0
71.293251 196.0
71.352081 168.0
71.648285 128.0
71.698837 156.0
72.917404 160.0
73.158951 204.0
73.711563 216.0
74.338318 204.0
74.563293 228.0
75.124634 196.0
75.885597 168.0
76.406639 232.0
76.497131 224.0
76.537178 228.0
76.580719 56.0
76.627754 184.0
77.035988 60.0
77.221275 44.0
77.697739 164.0
77.866257 144.0
78.429291 252.0
78.768082 192.0
79.52594 132.0
79.563217 204.0
80.162636 168.0
80.474792 136.0
80.769669 64.0
80.830498 156.0
80.857338 152.0
81.682709 144.0
82.163704 184.0
82.557472 208.0
82.570129 144.0
82.867004 208.0
83.435081 124.0
83.704361 184.0
83.868332 184.0
84.48555 172.0
85.121552 164.0
85.371475 200.0
86.508057 148.0
86.734055 272.0
87.384033 188.0
87.497566 136.0
87.939362 124.0
88.28125 160.0
89.038666 208.0
89.695038 160.0
90.038429 120.0
90.998497 204.0
91.032677 52.0
91.055305 376.0
91.078255 168.0
91.563263 36.0
91.69854 160.0
92.056534 208.0
92.575447 212.0
93.06749 332.0
93.291122 116.0
93.945885 176.0
94.061668 180.0
94.264465 144.0
94.440399 216.0
94.942024 188.0
95.785561 120.0
95.879082 32.0
96.068222 196.0
96.468552 148.0
96.517426 64.0
96.705238 196.0
97.089241 128.0
97.236382 116.0
98.062431 216.0
98.095291 512.0
99.242622 144.0
99.415199 100.0
99.679314 160.0
99.776703 68.0
99.973625 120.0
100.116043 240.0
100.210579 196.0
100.260399 156.0
100.318199 72.0
101.233299 180.0
102.946671 48.0
103.057007 428.0
103.130524 56.0
103.183083 32.0
103.223518 172.0
103.440002 116.0
103.561493 188.0
104.046143 84.0
105.035156 208.0
105.068031 740.0
105.243317 228.0
106.037041 156.0
106.064758 548.0
106.954903 192.0
106.977806 56.0
107.050674 864.0
107.119896 52.0
107.183762 52.0
107.262077 160.0
108.028191 40.0
108.053764 336.0
108.191681 208.0
109.372856 124.0
110.07962 172.0
110.230026 132.0
110.7761 184.0
111.941772 192.0
112.13559 204.0
112.240997 116.0
112.680023 156.0
113.728256 252.0
114.102135 192.0
115.053268 1272.0
115.155571 136.0
115.291542 88.0
115.552414 100.0
115.892845 56.0
116.017151 48.0
116.048454 792.0
116.107727 512.0
116.229485 100.0
116.846138 40.0
117.031761 380.0
117.068588 596.0
117.535614 28.0
117.723412 180.0
118.077446 200.0
119.048599 1452.0
119.069496 352.0
119.116074 196.0
119.346436 200.0
120.049782 200.0
120.081207 216.0
120.409874 136.0
120.862389 120.0
120.932419 124.0
121.065071 1164.0
121.299469 140.0
121.35302 172.0
122.059547 352.0
122.639046 32.0
122.927963 124.0
123.794518 120.0
124.68412 152.0
124.790817 144.0
125.258163 140.0
125.976463 136.0
126.108299 128.0
126.153 156.0
127.028587 140.0
127.053009 172.0
127.226074 160.0
128.059082 344.0
128.592422 184.0
128.714325 200.0
129.062302 152.0
129.449234 56.0
129.748322 60.0
130.256653 236.0
131.048569 508.0
131.308228 140.0
131.369812 188.0
131.515854 180.0
132.056412 224.0
132.430435 68.0
133.017441 96.0
133.064484 4092.0
133.387268 144.0
133.541321 92.0
133.700073 120.0
133.909576 116.0
134.063095 1388.0
134.354462 128.0
134.509079 56.0
134.804703 48.0
134.878662 48.0
134.945709 128.0
135.033569 160.0
135.062698 344.0
135.114532 48.0
135.320526 144.0
135.336731 144.0
135.380722 144.0
135.440948 152.0
135.575317 216.0
135.91156 56.0
136.079544 308.0
136.797043 228.0
136.953064 156.0
137.053238 196.0
137.26535 68.0
139.005737 156.0
139.590652 208.0
140.162659 156.0
140.705139 140.0
141.144608 172.0
141.338577 156.0
143.071182 224.0
143.206909 148.0
143.435654 208.0
144.055313 364.0
144.079971 168.0
144.127747 152.0
144.689819 164.0
144.989227 136.0
145.034988 136.0
145.064621 13268.0
145.128952 56.0
145.220413 116.0
145.300949 40.0
145.365738 32.0
145.435333 36.0
145.668259 92.0
145.805206 104.0
146.024002 168.0
146.067291 1212.0
146.110596 64.0
146.262192 36.0
146.474091 88.0
147.043793 760.0
147.078827 136.0
147.294235 40.0
147.366714 108.0
147.725067 88.0
147.891479 104.0
148.047745 184.0
148.201462 80.0
148.819962 148.0
149.053131 216.0
149.096878 200.0
149.211121 92.0
149.921875 128.0
150.81514 92.0
151.777267 152.0
152.042191 168.0
152.067795 368.0
153.074692 160.0
155.059753 352.0
155.981781 164.0
156.051392 188.0
156.073776 104.0
156.292664 84.0
160.470581 180.0
161.060074 264.0
162.066895 680.0
162.092636 1184.0
162.166809 40.0
162.537064 56.0
163.016998 44.0
163.07666 476.0
163.828644 180.0
164.022308 220.0
164.068771 1436.0
164.133667 124.0
164.159988 124.0
164.188034 84.0
164.272049 64.0
164.7547 128.0
164.905457 80.0
165.081863 56.0
171.036713 132.0
172.076859 124.0
173.059021 1076.0
174.069458 224.0
174.234924 104.0
174.305862 92.0
174.410995 132.0
174.438446 180.0
175.008179 72.0
175.421799 140.0
176.09201 200.0
177.709442 196.0
177.799652 60.0
178.085114 1884.0
178.237823 64.0
179.083176 316.0
180.1017 588.0
180.870102 40.0
181.10878 172.0
181.698166 160.0
182.080139 196.0
183.502808 136.0
185.059067 132.0
188.068466 100.0
188.191299 116.0
188.333313 116.0
189.739868 200.0
190.085388 3072.0
190.549484 36.0
190.895813 132.0
191.089493 540.0
191.121384 128.0
192.322937 68.0
193.317871 104.0
202.87236 148.0
203.21553 84.0
204.135834 148.0
204.972733 132.0
207.118286 144.0
207.743195 124.0
208.098297 612.0
208.420761 80.0
209.097839 204.0
211.220139 52.0
217.156372 32.0
217.552505 72.0
223.100555 152.0
224.058838 48.0
225.127396 380.0
226.134171 152.0
227.609116 60.0
230.993652 164.0
231.175186 176.0
232.126373 156.0
240.728622 88.0
249.160522 348.0
250.138535 116.0
259.882843 116.0
263.650421 76.0
264.319794 48.0
264.811859 144.0
265.531372 80.0
267.12619 172.0
267.170502 1108.0
268.165985 408.0
268.647491 40.0
269.176208 92.0
269.613953 112.0
281.958344 96.0
319.84436 140.0
322.823425 136.0
328.963806 164.0
423.956726 100.0
465.090454 96.0
481.55722 96.0
486.391144 116.0
504.254944 68.0
803.943298 84.0
814.292358 200.0
817.145935 192.0
859.17749 208.0
861.968384 152.0
883.132996 136.0
886.554993 192.0
907.945557 176.0
940.277588 204.0
964.662903 216.0
967.558105 152.0
971.915283 232.0
975.57959 248.0
994.098877 88.0
998.219727 136.0
1005.805237 268.0
1007.649231 132.0
1054.459473 180.0
1056.392822 240.0
1070.639893 192.0
1074.015991 240.0
1077.247192 152.0
1112.891113 208.0
1132.718384 36.0
1133.053345 136.0
1135.446411 200.0
1136.164062 64.0
1138.244751 196.0
1147.860596 216.0
1167.852783 108.0
1170.949585 68.0
1177.128174 136.0
1179.615112 96.0
1179.943359 124.0
1181.748901 132.0
1193.560181 76.0
1195.162842 216.0
1196.098877 200.0
1197.854736 180.0
1200.984253 164.0
1201.384277 192.0
1205.775757 112.0
1206.508545 108.0
1213.140625 180.0
1216.171875 208.0
1227.184204 184.0
1228.641846 48.0
1231.070923 164.0
1234.348267 208.0
1244.718994 80.0
1245.589844 176.0
1246.819458 148.0
1249.632202 212.0
1253.12439 152.0
1261.310669 232.0
1265.151855 168.0
1267.6521 128.0
1268.559204 152.0
1270.268311 136.0
1270.317871 52.0
1277.272217 140.0
1279.706055 80.0
1285.001709 172.0
1293.641968 188.0
1303.18042 148.0
1305.818604 184.0
1307.379883 132.0
1310.483398 180.0
1314.730591 88.0
1317.698364 164.0
1319.577515 128.0
1326.215698 144.0
1327.426514 224.0
1328.093628 144.0
1328.325806 200.0
1330.640869 140.0
1332.223999 124.0
1333.066895 108.0
1333.539185 160.0
1337.590698 160.0
1343.923828 164.0
1348.502563 156.0
1356.282959 164.0
1357.888672 176.0
1359.025757 184.0
1361.941772 196.0
1364.629883 144.0
1370.849609 188.0
1374.721313 212.0
1379.943604 176.0
1381.20813 132.0
1388.459229 144.0
1389.638672 124.0
1392.660034 168.0
1392.830933 68.0
1394.718262 180.0
1395.223755 72.0
1395.803711 144.0
1400.328369 160.0
1402.228271 112.0
1407.793701 112.0
1417.151367 140.0
1431.24231 176.0
1431.317627 152.0
1438.193115 124.0
1438.276123 176.0
1438.55542 236.0
1445.251587 116.0
1445.365112 132.0
1446.099121 140.0
1447.052979 172.0
1449.582886 196.0
1456.426147 160.0
1459.230225 84.0
1466.614502 156.0
1466.698364 204.0
1467.026123 168.0
1470.8479 172.0
1475.859497 160.0
1479.409424 148.0
1479.463013 56.0
1480.519653 172.0
1482.358276 44.0
1491.237549 100.0
1493.490479 128.0
1494.6521 168.0
1495.221558 200.0
1496.645752 124.0
1498.987427 176.0
1500.390137 92.0
1504.726074 144.0
