>compound MLS002153380-01!Imiloxan hydrochloride81167-16-0
>formula C14H16N2O2
>ionization [M+H]+
>parentmass 245.128296
#inchi InChI=1S/C14H16N2O2/c1-2-16-8-7-15-14(16)9-11-10-17-12-5-3-4-6-13(12)18-11/h3-8,11H,2,9-10H2,1H3
#inchikey UXABARREKCJULM
#origInchi InChI=1S/C14H16N2O2.ClH/c1-2-16-8-7-15-14(16)9-11-10-17-12-5-3-4-6-13(12)18-11;/h3-8,11H,2,9-10H2,1H3;1H
#Ion_Source LC-ESI
#Instrument qTof
#Compound_Source NIH Pharmacologically Active Library
#PI Dorrestein
#Data_Collector VP/LMS
#Scan -1
#Precursor_MZ 245.134
#ExactMass 244.121
#Charge 1
#CAS_Number N/A
#Pubmed_ID N/A
#Smiles CCn1ccnc1CC2COc3ccccc3O2.Cl
#INCHI_AUX N/A
#Library_Class 1
#SpectrumID CCMSLIB00000085606
#IonMode Positive
#UpdateWorkflowName UPDATE-SINGLE-ANNOTATED-GOLD
#LibraryQualityString Gold
#TaskID d252d724072548979f1f6f1ced849daf
##Scan# 1405
#SpectrumFile p4-D04_GD4_01_18364.mzXML
#LibraryName Pharm_Active_Library.mgf
#MQScore -1
#Organism Pharm_Active_Library
#TIC_Query 0
#RT_Query -1
#MZErrorPPM -1
#SharedPeaks 0
#MassDiff 0
#LibMZ -1
#SpecMZ 245.134
#SpecCharge 0
#internalFilename spec-00000.mgf

>collision 10
44.901024 164.0
45.001106 220.0
45.011787 156.0
45.090054 164.0
45.109829 136.0
45.128036 136.0
45.178074 176.0
45.194912 404.0
45.214985 120.0
45.30336 168.0
45.340878 76.0
45.410591 148.0
45.543468 168.0
45.653679 116.0
45.735748 184.0
45.762672 144.0
45.830017 168.0
45.868095 220.0
45.897411 140.0
46.082363 148.0
46.167484 184.0
46.190479 140.0
46.218426 140.0
46.258137 56.0
46.305527 52.0
46.316364 80.0
46.37661 216.0
46.386826 72.0
46.41394 48.0
46.464127 240.0
46.498047 156.0
46.514336 196.0
46.544205 76.0
46.567291 184.0
46.645966 164.0
46.682808 188.0
46.771244 180.0
46.812088 212.0
46.833878 156.0
46.851585 124.0
46.895191 168.0
46.949726 76.0
47.00975 284.0
47.071178 252.0
47.091663 68.0
47.12508 216.0
47.148132 144.0
47.179832 132.0
47.261177 100.0
47.273491 144.0
47.309078 212.0
47.370483 176.0
47.510532 148.0
47.558559 152.0
47.572285 380.0
47.595627 204.0
47.605236 232.0
47.618973 176.0
47.634079 76.0
47.67255 156.0
47.728909 184.0
47.788055 248.0
47.834846 204.0
47.848614 204.0
47.859627 168.0
47.869267 252.0
47.954681 108.0
47.979492 148.0
48.001553 192.0
48.018105 152.0
48.087051 156.0
48.121597 160.0
48.139549 164.0
48.161644 164.0
48.21553 212.0
48.250088 96.0
48.27359 184.0
48.306786 192.0
48.320621 156.0
48.330307 160.0
48.374592 84.0
48.472927 36.0
48.493717 160.0
48.529514 160.0
48.724064 132.0
48.753277 168.0
48.819973 156.0
48.838055 152.0
48.920151 204.0
49.010677 152.0
49.091526 232.0
49.137558 144.0
49.187798 156.0
49.377819 180.0
49.402996 196.0
49.416988 156.0
49.42955 180.0
49.465805 172.0
49.530384 136.0
49.579422 152.0
49.622105 88.0
49.638298 32.0
49.650921 232.0
49.765987 168.0
49.82357 228.0
49.938835 168.0
49.9529 120.0
49.968376 148.0
49.990891 176.0
50.04438 212.0
50.104942 224.0
50.158489 136.0
50.21207 172.0
50.298138 48.0
50.432323 52.0
50.630398 152.0
50.641727 168.0
50.683678 236.0
50.791977 120.0
50.810417 188.0
50.861504 132.0
50.884216 140.0
50.916878 208.0
51.019184 100.0
51.138672 72.0
51.162868 152.0
51.201313 264.0
51.279324 180.0
51.293926 184.0
51.321014 172.0
51.345257 152.0
51.429436 144.0
51.497971 148.0
51.660805 192.0
51.712437 212.0
51.722847 132.0
51.73534 160.0
51.887196 184.0
51.900101 164.0
51.976124 176.0
52.121796 160.0
52.269257 132.0
52.2966 160.0
52.331146 164.0
52.351307 168.0
52.45216 172.0
52.488205 156.0
52.498299 112.0
52.512718 144.0
52.5326 204.0
52.548782 128.0
52.58197 80.0
52.592075 160.0
52.629608 64.0
52.644051 148.0
52.658493 160.0
52.70472 248.0
52.714832 104.0
52.844971 168.0
52.855099 144.0
52.865227 188.0
52.894173 188.0
52.911545 144.0
52.986294 120.0
52.999424 184.0
53.115875 116.0
53.139088 176.0
53.153599 164.0
53.227627 196.0
53.249371 152.0
53.37875 168.0
53.453587 208.0
53.55817 156.0
53.594181 92.0
53.608749 192.0
53.621868 116.0
53.684555 140.0
53.714432 136.0
53.842049 148.0
53.872841 176.0
53.9006 168.0
53.919518 148.0
53.951756 196.0
54.000008 188.0
54.011711 152.0
54.045361 168.0
54.072548 72.0
54.147831 180.0
54.260662 196.0
54.35825 180.0
54.369205 84.0
54.508713 76.0
54.639572 160.0
54.682247 176.0
54.71463 272.0
54.769115 160.0
54.786793 192.0
54.825104 208.0
54.844261 176.0
54.898811 140.0
54.913563 136.0
54.92831 140.0
54.981426 148.0
55.006519 116.0
55.059673 168.0
55.102509 196.0
55.11433 164.0
55.137974 172.0
55.204227 152.0
55.242954 168.0
55.328281 164.0
55.348034 172.0
55.358402 396.0
55.379135 168.0
55.411724 212.0
55.447289 132.0
55.471516 196.0
55.567398 104.0
55.644573 224.0
55.689125 164.0
55.71917 176.0
55.744091 128.0
55.758953 236.0
55.779762 176.0
55.791992 240.0
55.837749 72.0
55.895767 92.0
55.919579 132.0
55.934464 124.0
55.955303 172.0
56.008915 156.0
56.035728 168.0
56.05698 184.0
56.144543 152.0
56.181831 92.0
56.241524 224.0
56.325138 180.0
56.486576 188.0
56.538944 28.0
56.592834 52.0
56.627277 120.0
56.663227 164.0
56.717175 148.0
56.795048 184.0
56.825809 164.0
56.858162 188.0
56.904697 156.0
56.916706 60.0
56.951607 168.0
56.994816 212.0
57.068466 152.0
57.128624 208.0
57.154202 160.0
57.195454 184.0
57.204868 228.0
57.334904 72.0
57.362034 208.0
57.372585 204.0
57.383141 188.0
57.419331 140.0
57.496689 200.0
57.538536 188.0
57.555145 232.0
57.630669 200.0
57.680538 180.0
57.69717 160.0
57.744045 380.0
57.840881 112.0
57.898415 208.0
57.912045 180.0
57.981739 152.0
58.101528 52.0
58.12125 32.0
58.229034 152.0
58.268528 164.0
58.300438 148.0
58.3582 176.0
58.388615 144.0
58.40078 168.0
58.431206 220.0
58.521 96.0
58.588013 152.0
58.636772 208.0
58.661163 96.0
58.709953 196.0
58.729778 168.0
58.743507 200.0
58.77462 180.0
58.864082 168.0
58.882404 192.0
58.899208 204.0
58.926704 172.0
58.957264 48.0
58.97102 120.0
59.027672 144.0
59.082645 260.0
59.162228 160.0
59.23267 128.0
59.2771 188.0
59.308193 152.0
59.381157 196.0
59.401196 136.0
59.450382 232.0
59.467266 208.0
59.490288 144.0
59.588577 144.0
59.626995 152.0
59.843891 164.0
59.940929 176.0
59.985626 64.0
60.033421 148.0
60.058098 180.0
60.166119 148.0
60.290119 200.0
60.337601 156.0
60.388634 168.0
60.405647 156.0
60.431946 160.0
60.444324 60.0
60.492699 204.0
60.521717 236.0
60.535656 148.0
60.567783 236.0
60.604855 184.0
60.665802 192.0
60.676655 192.0
61.022877 132.0
61.063309 224.0
61.078861 256.0
61.128647 112.0
61.148876 140.0
61.179077 216.0
61.290588 220.0
61.315525 260.0
61.352932 140.0
61.423107 80.0
61.50737 168.0
61.575974 196.0
61.61512 236.0
61.652622 200.0
61.694824 316.0
61.715149 180.0
61.75737 68.0
61.819595 176.0
61.854382 140.0
61.88726 60.0
61.904484 192.0
61.924843 152.0
62.009449 212.0
62.040798 164.0
62.134895 172.0
62.202374 88.0
62.22517 184.0
62.323299 168.0
62.353157 176.0
62.392456 200.0
62.405033 164.0
62.564896 208.0
62.612747 136.0
62.623772 124.0
62.702549 224.0
62.779797 152.0
62.893391 148.0
62.967598 80.0
63.026558 124.0
63.054535 160.0
63.106659 112.0
63.131958 164.0
63.144611 132.0
63.185303 204.0
63.23954 72.0
63.306034 172.0
63.326622 192.0
63.337708 216.0
63.351967 96.0
63.46925 104.0
63.54538 48.0
63.559662 192.0
63.659668 52.0
63.672371 160.0
63.75975 152.0
63.821747 124.0
63.851959 144.0
63.867867 220.0
63.8965 180.0
63.929913 192.0
63.942646 168.0
64.020653 248.0
64.047729 112.0
64.106682 56.0
64.202332 160.0
64.246986 232.0
64.262939 136.0
64.360306 200.0
64.376274 216.0
64.553658 160.0
64.590439 180.0
64.689651 208.0
64.715263 108.0
64.74839 216.0
64.76651 168.0
64.78093 124.0
64.816177 164.0
64.861053 196.0
64.912354 136.0
64.934807 144.0
64.986137 188.0
65.101707 140.0
65.305817 160.0
65.365585 228.0
65.408798 92.0
65.432945 196.0
65.463539 228.0
65.553749 140.0
65.584366 192.0
65.59565 184.0
65.656921 136.0
65.695633 88.0
65.711769 128.0
65.72467 88.0
65.813446 152.0
65.830009 140.0
65.894806 212.0
65.934601 172.0
66.073662 160.0
66.084991 140.0
66.13839 204.0
66.245262 188.0
66.277672 132.0
66.316559 196.0
66.373299 180.0
66.400871 152.0
66.694748 180.0
66.724007 212.0
66.759781 228.0
66.794281 208.0
66.847626 212.0
66.988739 208.0
67.03978 204.0
67.062599 212.0
67.1035 172.0
67.242004 172.0
67.305672 196.0
67.321999 56.0
67.382439 144.0
67.428192 76.0
67.457611 60.0
67.503563 188.0
67.544281 84.0
67.578636 232.0
67.593361 180.0
67.703041 156.0
67.816086 80.0
67.858704 200.0
67.927582 136.0
67.943993 184.0
68.017838 68.0
68.076942 48.0
68.160721 184.0
68.214951 136.0
68.246346 172.0
68.303749 224.0
68.319168 148.0
68.411308 352.0
68.45681 152.0
68.481514 148.0
68.501854 240.0
68.567192 140.0
68.608398 236.0
68.679306 144.0
68.760147 152.0
68.824532 116.0
68.879028 216.0
68.956688 168.0
69.063148 164.0
69.134369 196.0
69.22966 140.0
69.300888 192.0
69.377121 112.0
69.418579 92.0
69.53968 152.0
69.627678 220.0
69.639305 176.0
69.665878 76.0
69.677505 128.0
69.735664 216.0
69.755615 128.0
69.773903 176.0
69.991104 176.0
70.008514 220.0
70.050148 168.0
70.066811 168.0
70.096802 188.0
70.136803 184.0
70.150139 180.0
70.195152 240.0
70.278549 36.0
70.326866 220.0
70.369286 176.0
70.453812 160.0
70.516647 180.0
70.532394 200.0
70.64109 100.0
70.714714 60.0
70.744843 192.0
70.7771 180.0
70.796852 188.0
71.033066 208.0
71.155579 148.0
71.210991 172.0
71.274826 176.0
71.384087 128.0
71.395859 188.0
71.416046 164.0
71.537193 212.0
71.621391 148.0
71.670242 252.0
71.764633 132.0
71.781494 196.0
71.837151 160.0
71.875954 148.0
72.011009 116.0
72.022835 40.0
72.142807 160.0
72.161407 160.0
72.349197 176.0
72.377983 184.0
72.413544 92.0
72.437256 200.0
72.513504 116.0
72.584709 140.0
72.615234 152.0
72.686485 48.0
72.710892 208.0
72.762863 184.0
72.786629 120.0
72.798515 212.0
72.834145 192.0
72.900444 152.0
72.992241 180.0
73.04496 144.0
73.05687 160.0
73.096001 212.0
73.13855 368.0
73.201729 144.0
73.232574 308.0
73.290115 180.0
73.385567 144.0
73.414055 232.0
73.44696 108.0
73.47715 132.0
73.578972 212.0
73.653496 144.0
73.807304 184.0
73.875717 44.0
73.933891 184.0
73.981819 144.0
74.074287 224.0
74.098274 112.0
74.194244 244.0
74.350334 108.0
74.384666 112.0
74.443039 60.0
74.499802 168.0
74.513458 208.0
74.526978 452.0
74.571884 168.0
74.614861 200.0
74.644089 256.0
74.67849 160.0
74.692245 180.0
74.719742 220.0
74.800652 144.0
74.92292 152.0
74.943596 32.0
75.068626 152.0
75.143593 188.0
75.188988 184.0
75.216774 188.0
75.236794 212.0
75.291862 192.0
75.454468 72.0
75.475349 208.0
75.515633 216.0
75.714027 156.0
75.725082 148.0
75.741737 180.0
75.861305 196.0
75.904648 200.0
76.065994 108.0
76.105927 140.0
76.130234 64.0
76.168449 144.0
76.184082 200.0
76.224045 232.0
76.279655 148.0
76.303993 180.0
76.370071 160.0
76.488396 56.0
76.507545 128.0
76.5354 180.0
76.591125 144.0
76.624229 148.0
76.676506 68.0
76.692192 216.0
76.920868 196.0
76.969574 124.0
77.009743 148.0
77.044678 248.0
77.128555 172.0
77.212479 208.0
77.240425 196.0
77.294701 192.0
77.396225 224.0
77.450516 180.0
77.564407 152.0
77.645058 204.0
77.680138 64.0
77.757301 180.0
77.83107 144.0
77.855659 116.0
77.95755 200.0
78.030846 120.0
78.066536 220.0
78.084129 140.0
78.131622 176.0
78.159767 180.0
78.230171 176.0
78.253052 212.0
78.267143 120.0
78.28299 136.0
78.311165 156.0
78.337013 196.0
78.362251 296.0
78.526192 200.0
78.54081 208.0
78.57029 248.0
78.715019 156.0
78.764473 164.0
78.882866 124.0
78.939445 92.0
78.974815 132.0
79.06839 252.0
79.081932 184.0
79.146477 204.0
79.169495 188.0
79.27401 152.0
79.320091 352.0
79.355553 220.0
79.586205 160.0
79.653694 140.0
79.683891 140.0
79.79837 184.0
79.950516 208.0
80.021172 188.0
80.059212 172.0
80.13224 132.0
80.17144 56.0
80.331909 164.0
80.399712 104.0
80.43541 184.0
80.465759 172.0
80.501465 148.0
80.521286 164.0
80.633667 152.0
80.778496 184.0
80.948524 208.0
80.966431 124.0
81.005836 176.0
81.057076 180.0
81.186859 160.0
81.203903 144.0
81.211769 72.0
81.218193 136.0
81.267586 200.0
81.292702 32.0
81.328598 212.0
81.450699 128.0
81.493813 192.0
81.509987 124.0
81.616035 140.0
81.765343 176.0
81.786942 144.0
81.891373 152.0
81.974243 188.0
82.012093 136.0
82.109451 108.0
82.288818 100.0
82.335144 212.0
82.374779 160.0
82.387428 184.0
82.463318 144.0
82.481392 192.0
82.497658 172.0
82.532013 160.0
82.595306 156.0
82.794434 196.0
82.808891 148.0
82.843307 224.0
82.886787 116.0
82.975601 128.0
83.07534 200.0
83.144295 252.0
83.162445 36.0
83.176964 164.0
83.258461 176.0
83.296806 80.0
83.411285 140.0
83.431282 180.0
83.454918 56.0
83.504013 176.0
83.516747 140.0
83.554947 136.0
83.605896 48.0
83.64048 144.0
83.676888 156.0
83.727875 208.0
83.888214 60.0
83.902802 196.0
83.924805 228.0
84.163162 108.0
84.275116 100.0
84.289734 208.0
84.55822 212.0
84.587845 344.0
84.615311 164.0
84.631783 124.0
84.688553 132.0
84.765404 156.0
84.807304 244.0
84.843658 224.0
84.881439 160.0
84.932335 264.0
84.959854 172.0
85.069962 140.0
85.123199 132.0
85.165443 180.0
85.193489 164.0
85.356575 268.0
85.40255 164.0
85.424622 44.0
85.551598 156.0
85.581055 124.0
85.604996 220.0
85.691566 172.0
85.7192 100.0
85.750061 156.0
85.812706 220.0
85.837173 160.0
85.86216 144.0
85.927559 180.0
85.975533 144.0
86.015572 236.0
86.243332 196.0
86.267365 188.0
86.352417 156.0
86.45417 220.0
86.479141 148.0
86.646744 132.0
86.750519 136.0
86.78389 144.0
86.947128 160.0
86.967545 144.0
87.013954 180.0
87.084518 140.0
87.125389 112.0
87.151398 204.0
87.215332 208.0
87.221024 120.0
87.242462 180.0
87.255478 176.0
87.335442 180.0
87.354042 164.0
87.368141 220.0
87.413582 148.0
87.43219 72.0
87.471275 208.0
87.514091 132.0
87.593033 176.0
87.613388 152.0
87.694794 104.0
87.754784 152.0
87.916725 220.0
88.099709 104.0
88.144547 152.0
88.305321 140.0
88.39138 148.0
88.415703 168.0
88.447929 164.0
88.473732 260.0
88.49807 164.0
88.513046 196.0
88.540604 224.0
88.616066 44.0
88.70977 204.0
88.81665 136.0
88.889824 144.0
88.902954 56.0
88.972404 220.0
89.01371 148.0
89.111382 236.0
89.154602 44.0
89.171516 128.0
89.184669 172.0
89.203468 148.0
89.31144 228.0
89.33963 256.0
89.357681 204.0
89.376884 96.0
89.432953 152.0
89.478134 320.0
89.506371 100.0
89.523323 148.0
89.570404 208.0
89.589241 148.0
89.756989 216.0
89.772072 212.0
89.809288 208.0
89.847519 56.0
89.866386 220.0
89.900719 204.0
89.94828 192.0
89.98745 84.0
90.032494 120.0
90.121231 156.0
90.359505 144.0
90.384018 192.0
90.573418 108.0
90.621994 380.0
90.681419 176.0
90.725014 168.0
90.81398 96.0
90.884331 232.0
90.990616 180.0
91.010262 188.0
91.053276 92.0
91.068474 216.0
91.127365 128.0
91.235695 148.0
91.271812 152.0
91.321259 176.0
91.412575 64.0
91.455719 216.0
91.580429 172.0
91.63726 220.0
91.654411 116.0
91.871758 168.0
91.908005 164.0
92.050896 224.0
92.085548 40.0
92.131386 160.0
92.213554 168.0
92.236488 192.0
92.312965 136.0
92.39521 172.0
92.429649 192.0
92.511948 164.0
92.557899 204.0
92.615349 188.0
92.688148 168.0
92.715767 204.0
92.739899 136.0
92.816582 176.0
92.89521 164.0
92.920151 156.0
93.034538 172.0
93.058342 124.0
93.13131 200.0
93.15052 104.0
93.183182 176.0
93.248322 160.0
93.315796 248.0
93.398483 200.0
93.461975 132.0
93.512009 212.0
93.579384 132.0
93.644852 156.0
93.689156 56.0
93.714005 192.0
93.802856 208.0
93.849121 104.0
93.866478 200.0
93.905045 188.0
93.923843 236.0
94.055504 196.0
94.080643 228.0
94.136635 196.0
94.298912 164.0
94.324043 68.0
94.342911 184.0
94.453598 192.0
94.571625 36.0
94.594765 172.0
94.618088 108.0
94.660683 196.0
94.740089 164.0
94.871872 64.0
94.912582 88.0
94.933914 188.0
94.992104 124.0
95.060974 728.0
95.104645 108.0
95.172592 224.0
95.194077 180.0
95.293015 160.0
95.444618 148.0
95.475769 212.0
95.524612 184.0
95.555481 164.0
95.62748 192.0
95.663361 204.0
95.763771 76.0
95.785202 144.0
95.837799 136.0
95.888466 180.0
95.937195 76.0
95.978142 92.0
96.038597 144.0
96.066879 564.0
96.182983 72.0
96.229836 152.0
96.356789 96.0
96.38414 168.0
96.474045 112.0
96.49762 200.0
96.563988 160.0
96.62603 152.0
96.667679 204.0
96.691162 120.0
96.714157 288.0
96.738136 100.0
96.791 140.0
96.865417 56.0
96.910477 36.0
97.077835 516.0
97.149666 188.0
97.190865 176.0
97.292923 176.0
97.320412 164.0
97.35379 128.0
97.410751 120.0
97.484879 208.0
97.510956 176.0
97.670219 144.0
97.727264 184.0
97.800079 60.0
97.815826 140.0
97.847328 96.0
97.888672 152.0
97.906395 180.0
97.975945 156.0
98.010803 160.0
98.065979 52.0
98.085693 460.0
98.247391 104.0
98.26712 212.0
98.34211 172.0
98.426994 164.0
98.47834 176.0
98.509949 180.0
98.607605 208.0
98.626305 208.0
98.645279 340.0
98.719452 184.0
98.745163 88.0
98.762962 180.0
99.054832 168.0
99.153008 224.0
99.178772 176.0
99.226349 180.0
99.285835 160.0
99.387001 176.0
99.442566 180.0
99.48822 228.0
99.506088 128.0
99.633194 240.0
99.670944 220.0
99.706711 40.0
99.720627 60.0
99.863777 112.0
99.885658 184.0
99.947334 40.0
99.985138 136.0
100.014992 304.0
100.058792 48.0
100.072723 116.0
100.16832 156.0
100.208763 132.0
100.232071 136.0
100.298897 196.0
100.461349 156.0
100.52121 160.0
100.595055 228.0
100.613022 200.0
100.688896 168.0
100.836739 260.0
100.960693 124.0
101.030701 32.0
101.072716 164.0
101.088722 168.0
101.172791 172.0
101.268906 200.0
101.300949 248.0
101.318352 152.0
101.333008 180.0
101.465279 36.0
101.486992 208.0
101.637772 188.0
101.671883 144.0
101.695969 172.0
101.82045 196.0
101.866646 132.0
101.882713 176.0
101.917374 172.0
101.928413 156.0
101.94902 164.0
101.96711 132.0
102.051537 164.0
102.198578 152.0
102.216476 196.0
102.288925 128.0
102.393417 192.0
102.445999 148.0
102.508453 68.0
102.562874 176.0
102.617302 172.0
102.63343 84.0
102.67981 168.0
102.718132 160.0
102.810944 188.0
102.851311 52.0
102.903801 64.0
102.942162 136.0
102.978516 184.0
103.004768 188.0
103.022949 56.0
103.05368 308.0
103.10659 132.0
103.123329 160.0
103.208893 292.0
103.225067 116.0
103.291809 84.0
103.354523 296.0
103.417259 152.0
103.465843 128.0
103.556969 260.0
103.632271 208.0
103.682579 248.0
103.761627 168.0
103.785957 64.0
103.828545 80.0
103.946205 140.0
103.966499 224.0
104.024651 172.0
104.039566 176.0
104.139069 108.0
104.15889 216.0
104.170715 200.0
104.230484 180.0
104.376579 188.0
104.421577 232.0
104.476501 188.0
104.576202 176.0
104.606735 172.0
104.69429 180.0
104.773727 168.0
104.794098 212.0
104.859306 92.0
104.961235 192.0
105.004059 132.0
105.038734 212.0
105.069336 160.0
105.091782 116.0
105.122383 160.0
105.306122 168.0
105.417076 168.0
105.508423 132.0
105.653625 148.0
105.678169 124.0
105.760033 212.0
105.786636 188.0
105.825539 380.0
105.884926 92.0
105.905403 164.0
105.925888 124.0
105.954567 176.0
106.01194 36.0
106.051544 588.0
106.157814 176.0
106.253891 168.0
106.307236 56.0
106.34523 144.0
106.432449 104.0
106.492004 172.0
106.515381 164.0
106.542763 192.0
106.605003 156.0
106.773575 156.0
106.804428 180.0
106.903183 172.0
106.922134 192.0
106.988777 136.0
107.027214 228.0
107.060089 8356.0
107.111252 252.0
107.218262 160.0
107.273125 220.0
107.321335 152.0
107.33577 44.0
107.370827 360.0
107.426514 116.0
107.507202 152.0
107.556519 176.0
107.614319 124.0
107.686592 216.0
107.802284 160.0
107.845741 156.0
107.920105 92.0
107.94165 216.0
107.961464 140.0
107.98008 156.0
108.033859 136.0
108.068695 4080.0
108.11869 164.0
108.151802 52.0
108.178719 172.0
108.213913 196.0
108.238754 40.0
108.256943 160.0
108.351967 212.0
108.416908 64.0
108.53299 112.0
108.597206 172.0
108.615944 404.0
108.647064 144.0
108.694778 96.0
108.732132 160.0
108.827621 228.0
108.86216 184.0
108.881615 64.0
108.90242 212.0
108.927307 176.0
108.952545 160.0
108.981323 40.0
109.014305 312.0
109.03051 188.0
109.076759 57280.0
109.140366 120.0
109.179726 48.0
109.24501 48.0
109.262291 288.0
109.28772 144.0
109.314018 148.0
109.341072 56.0
109.358482 132.0
109.385406 80.0
109.418777 376.0
109.448769 180.0
109.487862 272.0
109.531876 156.0
109.597206 72.0
109.649162 172.0
109.672234 164.0
109.697144 144.0
109.735382 68.0
109.755356 96.0
109.774384 60.0
109.803581 60.0
109.845299 108.0
109.870331 64.0
109.89537 64.0
109.941277 228.0
109.976753 76.0
110.000626 144.0
110.03907 160.0
110.082169 7436.0
110.131264 40.0
110.20742 44.0
110.333961 216.0
110.352776 136.0
110.369499 68.0
110.419693 176.0
110.446884 68.0
110.474075 164.0
110.499176 96.0
110.516434 220.0
110.560905 168.0
110.587067 80.0
110.608002 64.0
110.69384 68.0
110.758949 136.0
110.799957 200.0
110.842125 96.0
110.863655 60.0
110.886436 124.0
110.91172 132.0
110.945259 56.0
110.964134 100.0
110.989288 160.0
111.009247 188.0
111.031235 144.0
111.050423 304.0
111.087532 612.0
111.138214 72.0
111.180183 68.0
111.262047 256.0
111.340614 156.0
111.362839 140.0
111.415352 180.0
111.453171 232.0
111.47934 132.0
111.520416 112.0
111.543541 216.0
111.623428 56.0
111.644463 136.0
111.755943 156.0
111.774887 32.0
111.804344 188.0
111.819077 100.0
111.909592 168.0
111.924332 100.0
111.951706 208.0
111.974174 120.0
112.008575 136.0
112.097061 156.0
112.178093 296.0
112.196121 240.0
112.21299 100.0
112.314209 32.0
112.434471 140.0
112.449249 152.0
112.491463 216.0
112.554802 96.0
112.871758 108.0
112.907707 128.0
112.941544 124.0
112.975388 112.0
112.994431 204.0
113.026169 208.0
113.083305 188.0
113.214569 200.0
113.445518 172.0
113.562141 112.0
113.579109 132.0
113.623657 176.0
113.727638 112.0
113.810432 112.0
114.080246 40.0
114.373795 128.0
114.42276 148.0
114.463211 152.0
114.482376 184.0
114.607628 176.0
114.652809 112.0
114.98764 136.0
115.058083 128.0
115.107185 32.0
115.132812 84.0
115.22039 128.0
115.327232 144.0
115.37854 140.0
115.51326 108.0
115.576752 124.0
115.70372 124.0
115.718712 52.0
115.819359 156.0
115.866486 140.0
115.922195 188.0
116.112991 152.0
116.151596 156.0
116.276039 160.0
116.346878 172.0
116.379745 208.0
116.565956 72.0
116.619682 268.0
116.714272 160.0
116.791695 52.0
116.845474 128.0
116.972443 180.0
117.105583 220.0
117.151176 120.0
117.235207 224.0
117.319267 108.0
117.580254 208.0
117.606155 164.0
117.670921 116.0
117.709785 60.0
117.757294 180.0
117.891243 152.0
118.033913 216.0
118.074997 124.0
118.278381 160.0
118.304359 208.0
118.364975 64.0
118.382301 212.0
118.494934 208.0
118.670494 184.0
118.703018 52.0
118.761574 36.0
118.815804 44.0
118.837494 60.0
118.902596 172.0
119.060249 168.0
119.219666 168.0
119.478416 140.0
119.500168 156.0
119.656876 152.0
119.685181 220.0
119.706955 60.0
119.905197 236.0
119.920456 180.0
119.948792 156.0
119.968407 160.0
120.012009 188.0
120.042946 216.0
120.069405 952.0
120.184326 124.0
120.212692 148.0
120.260704 196.0
120.426643 204.0
120.483437 168.0
120.627419 184.0
120.824478 188.0
120.86824 196.0
120.972664 208.0
121.031006 308.0
121.076447 7416.0
121.111244 128.0
121.228897 188.0
121.264618 220.0
121.309853 188.0
121.38958 196.0
121.427055 224.0
121.525574 40.0
121.569458 100.0
121.672623 188.0
121.727509 248.0
121.925224 188.0
121.969635 192.0
122.050522 188.0
122.082687 3880.0
122.118698 180.0
122.173691 32.0
122.232056 152.0
122.248497 120.0
122.417999 64.0
122.440025 60.0
122.534744 48.0
122.633904 160.0
122.664764 56.0
122.728699 228.0
122.786034 68.0
122.909569 148.0
122.977982 80.0
123.092361 1408.0
123.178909 168.0
123.240768 188.0
123.326958 112.0
123.397034 240.0
123.530388 192.0
123.550293 52.0
123.643227 168.0
123.658722 168.0
123.880142 176.0
123.937752 136.0
124.036156 172.0
124.094948 320.0
124.112297 256.0
124.186035 224.0
124.325806 148.0
124.387955 180.0
124.541161 204.0
124.792282 172.0
125.034744 136.0
125.105972 148.0
125.228439 60.0
125.279671 116.0
125.296265 216.0
125.359886 192.0
125.585052 148.0
125.727844 220.0
125.759087 160.0
125.837219 156.0
125.980148 160.0
126.248367 176.0
126.268494 192.0
126.393768 160.0
126.429573 124.0
126.521339 88.0
126.543732 176.0
126.579552 84.0
126.655701 192.0
126.686409 116.0
126.822014 176.0
126.890068 260.0
126.915665 160.0
127.052185 188.0
127.086128 128.0
127.198341 172.0
127.292633 52.0
127.357765 64.0
127.382469 156.0
127.402687 196.0
127.476837 132.0
127.508293 164.0
127.629684 128.0
127.774704 176.0
127.980698 296.0
128.169907 104.0
128.438171 116.0
128.54422 188.0
128.733841 196.0
128.758682 164.0
129.090881 204.0
129.12706 160.0
129.199448 104.0
129.271851 64.0
129.373703 236.0
129.806458 72.0
129.879028 196.0
129.917587 156.0
129.956161 176.0
130.03331 100.0
130.083252 144.0
130.119568 196.0
130.217209 116.0
130.308075 260.0
130.36824 192.0
130.514908 200.0
131.036118 268.0
131.081696 188.0
131.134109 184.0
131.193375 252.0
131.225296 104.0
131.252655 76.0
131.421448 228.0
131.556091 184.0
131.711365 116.0
131.887314 292.0
131.976471 204.0
132.013062 232.0
132.182327 204.0
132.237686 192.0
132.294479 216.0
132.370041 184.0
132.418121 164.0
132.482956 160.0
132.67247 136.0
132.722916 160.0
132.830704 56.0
133.072784 140.0
133.280685 80.0
133.310547 168.0
133.397888 140.0
133.595657 156.0
133.731415 96.0
133.775146 224.0
133.796967 228.0
133.839615 160.0
133.913315 140.0
134.084427 220.0
134.219528 140.0
134.323593 228.0
134.433212 140.0
134.738388 200.0
134.747955 136.0
134.75351 176.0
134.847733 160.0
134.866211 164.0
134.905518 172.0
134.929077 164.0
134.971573 180.0
134.998001 52.0
135.016495 168.0
135.0439 2000.0
135.092026 33212.0
135.135483 184.0
135.162231 140.0
135.18306 144.0
135.22641 60.0
135.264069 28.0
135.294373 44.0
135.331207 160.0
135.375198 88.0
135.426147 36.0
135.444687 52.0
135.466797 168.0
135.518814 188.0
135.595276 52.0
135.657867 220.0
135.704239 44.0
135.756378 196.0
135.813232 80.0
135.829468 96.0
135.885132 48.0
135.968674 124.0
136.053635 344.0
136.073135 528.0
136.0979 5496.0
136.154266 68.0
136.18924 80.0
136.267975 184.0
136.286804 180.0
136.386734 108.0
136.408463 140.0
136.456726 148.0
136.489029 312.0
136.527802 160.0
136.60997 148.0
136.630905 184.0
136.67511 240.0
136.690109 136.0
136.711182 152.0
136.763412 328.0
136.781738 172.0
136.787888 96.0
136.811951 228.0
136.842255 128.0
136.887115 104.0
136.905563 76.0
136.923904 192.0
136.970642 228.0
137.019089 188.0
137.043121 324.0
137.050949 236.0
137.067062 248.0
137.108322 131280.0
137.189819 88.0
137.221741 52.0
137.225861 96.0
137.237686 68.0
137.259811 152.0
137.307831 240.0
137.340286 144.0
137.364792 108.0
137.405106 188.0
137.434708 88.0
137.451126 68.0
137.468246 204.0
137.491043 1644.0
137.554733 56.0
137.572021 72.0
137.581955 116.0
137.616974 92.0
137.656296 244.0
137.67514 72.0
137.740204 56.0
137.763275 60.0
137.803284 56.0
137.834763 68.0
137.856262 188.0
137.873718 44.0
137.918121 108.0
137.938248 72.0
137.960052 124.0
138.061707 224.0
138.110779 13324.0
138.17067 60.0
138.245331 84.0
138.270126 44.0
138.311081 60.0
138.347366 88.0
138.376633 48.0
138.398819 84.0
138.450455 68.0
138.512451 28.0
138.530243 92.0
138.584717 156.0
138.656296 92.0
138.725693 56.0
138.744446 104.0
138.774841 156.0
138.79921 140.0
138.813126 192.0
138.832291 104.0
138.876389 136.0
138.928711 56.0
138.950836 92.0
139.001022 268.0
139.022003 108.0
139.041275 116.0
139.053162 72.0
139.086319 1040.0
139.111679 732.0
139.137726 196.0
139.146347 148.0
139.167313 136.0
139.2034 144.0
139.229797 76.0
139.255997 156.0
139.277252 216.0
139.329865 144.0
139.347107 56.0
139.416367 76.0
139.47316 56.0
139.509766 44.0
139.570892 76.0
139.589706 76.0
139.627335 56.0
139.690842 108.0
139.806137 40.0
139.926804 60.0
139.942841 136.0
139.982681 160.0
140.06041 104.0
140.112228 132.0
140.131073 124.0
140.149933 88.0
140.173492 52.0
140.284256 144.0
140.41394 36.0
140.595612 92.0
140.749039 48.0
141.049088 52.0
141.861023 96.0
141.985138 92.0
142.207336 88.0
142.435272 148.0
142.658646 140.0
142.927399 108.0
143.484726 56.0
144.19606 80.0
144.227127 52.0
144.306015 64.0
144.576324 76.0
144.621796 80.0
144.969055 52.0
145.159134 68.0
145.403122 116.0
145.559174 108.0
145.63121 104.0
145.713013 80.0
145.734512 80.0
145.847458 72.0
145.974884 124.0
146.06665 204.0
146.090332 44.0
146.234711 32.0
146.516434 76.0
146.588715 144.0
147.02179 112.0
147.119339 40.0
147.148315 224.0
147.227997 48.0
147.329437 72.0
147.428513 56.0
147.871078 100.0
148.345825 112.0
148.560211 112.0
148.690262 72.0
148.746078 80.0
148.877823 124.0
149.258698 84.0
149.421661 60.0
149.57254 64.0
149.686966 132.0
149.837982 92.0
150.079269 116.0
150.125595 132.0
150.14267 56.0
151.085495 464.0
151.207855 64.0
151.369431 96.0
151.778641 152.0
151.925797 120.0
152.065659 168.0
152.092651 204.0
153.088379 84.0
153.640488 152.0
155.099472 140.0
155.168884 72.0
157.018936 208.0
158.168259 188.0
161.082657 124.0
162.736389 124.0
162.992935 88.0
163.081512 192.0
163.636429 40.0
163.779037 148.0
165.124115 156.0
165.472122 80.0
166.420776 200.0
167.44165 44.0
167.915878 184.0
168.047424 180.0
168.087708 824.0
169.075867 64.0
169.23378 56.0
169.933578 96.0
170.091873 148.0
170.598419 96.0
171.045853 164.0
171.225494 280.0
172.694901 128.0
172.789078 56.0
173.228882 136.0
174.785767 136.0
174.827866 104.0
175.734314 80.0
176.022018 112.0
176.68544 96.0
178.904053 60.0
179.78363 216.0
180.451416 220.0
180.750977 88.0
182.083313 240.0
184.113937 220.0
185.068497 168.0
185.103699 168.0
185.274323 56.0
185.634811 52.0
186.42749 136.0
187.091156 184.0
188.077942 196.0
188.815628 140.0
189.069077 332.0
189.105637 136.0
189.13028 100.0
189.149429 72.0
189.313705 120.0
189.820663 44.0
190.133392 136.0
190.501328 136.0
190.919113 148.0
192.749512 104.0
194.214035 192.0
195.525421 80.0
195.954239 148.0
197.867371 108.0
198.595947 96.0
199.090286 208.0
199.356781 72.0
199.412979 172.0
199.747574 192.0
201.24968 112.0
201.311813 144.0
202.505264 176.0
202.981369 36.0
203.290573 144.0
203.449509 96.0
204.139954 200.0
205.101868 132.0
206.984955 120.0
209.270523 68.0
209.864059 104.0
210.559494 116.0
211.852448 108.0
212.095856 104.0
212.272705 152.0
212.368408 128.0
213.943344 96.0
215.123016 152.0
215.383881 92.0
215.58255 72.0
215.883911 92.0
217.043243 164.0
217.094437 664.0
217.125854 168.0
218.035461 140.0
218.100586 160.0
220.620468 144.0
221.123322 224.0
222.050659 188.0
223.664017 80.0
226.509674 108.0
226.668457 60.0
226.854279 68.0
226.980209 100.0
227.106979 148.0
227.463226 40.0
227.922729 96.0
227.949768 212.0
228.130112 172.0
229.081039 132.0
229.433624 56.0
230.100357 80.0
230.239258 96.0
231.209702 156.0
231.582092 48.0
231.863861 100.0
232.907562 140.0
234.517151 192.0
235.860168 44.0
235.890732 72.0
236.025253 164.0
236.903625 204.0
237.375626 160.0
239.083633 72.0
240.165054 32.0
240.297699 44.0
240.634109 148.0
241.45607 60.0
241.579788 72.0
241.805664 148.0
242.418854 136.0
243.23764 144.0
243.532623 64.0
243.818451 92.0
243.914795 140.0
244.216415 144.0
244.30661 188.0
244.372833 184.0
244.480865 152.0
244.511978 80.0
244.539993 44.0
244.684509 168.0
244.94165 128.0
244.986282 248.0
245.04422 204.0
245.080338 272.0
245.128296 27452.0
245.23288 60.0
245.264374 132.0
245.400986 112.0
245.455887 368.0
245.491608 96.0
245.553146 144.0
245.607513 136.0
245.634338 92.0
245.692932 92.0
245.724121 68.0
245.820847 116.0
245.893677 204.0
245.923843 128.0
245.99588 104.0
246.037994 56.0
246.128876 3100.0
246.223572 48.0
246.251678 32.0
246.276657 68.0
246.370377 68.0
246.47348 144.0
246.551605 68.0
246.59848 92.0
246.620361 68.0
246.70163 68.0
247.08316 152.0
247.13559 444.0
247.183289 52.0
247.367935 52.0
247.411758 48.0
247.59024 156.0
247.746857 152.0
247.809509 56.0
247.853378 144.0
247.946014 228.0
248.044556 120.0
248.49614 52.0
248.62793 128.0
248.841385 132.0
249.061203 92.0
249.083191 64.0
249.237137 72.0
250.045319 60.0
251.741394 112.0
251.810867 128.0
252.079391 68.0
253.085281 60.0
253.665039 56.0
253.97261 72.0
256.739624 52.0
256.997986 52.0
257.304382 116.0
257.895355 112.0
258.195892 132.0
260.333435 48.0
261.748322 92.0
277.959991 92.0
282.160065 128.0
282.400818 80.0
288.507385 96.0
290.865082 36.0
301.749084 68.0
301.787109 40.0
303.601593 72.0
307.780853 128.0
309.50119 64.0
309.995087 32.0
314.602661 144.0
315.888947 64.0
316.855408 100.0
318.469452 36.0
321.924042 56.0
322.652924 104.0
327.086853 80.0
328.604034 44.0
336.31189 96.0
336.950958 100.0
348.446075 76.0
351.211945 100.0
352.160004 48.0
353.150482 52.0
356.592346 132.0
356.644958 36.0
361.169647 148.0
363.564117 96.0
365.958893 52.0
373.263397 64.0
373.982819 104.0
377.14563 44.0
377.609589 76.0
379.158203 88.0
389.242554 76.0
393.47522 88.0
395.135132 112.0
395.839661 76.0
404.695343 96.0
409.872803 72.0
411.268188 36.0
412.075836 84.0
425.409729 88.0
430.701111 52.0
451.804413 80.0
468.049225 44.0
471.82016 108.0
494.754578 124.0
500.161407 104.0
503.594666 92.0
532.456787 56.0
533.412476 84.0
539.492798 108.0
550.14978 76.0
553.164917 68.0
561.745605 128.0
571.900146 132.0
579.306274 200.0
599.932129 68.0
600.858704 72.0
609.805176 48.0
611.885925 124.0
612.713318 108.0
614.58197 96.0
625.131531 192.0
657.487427 156.0
661.602112 92.0
663.600159 56.0
699.827698 104.0
704.907288 76.0
705.515137 88.0
708.478699 220.0
714.89801 140.0
725.639771 180.0
730.742065 160.0
733.909058 248.0
735.381775 160.0
737.872009 176.0
739.787109 200.0
742.344482 152.0
756.357361 68.0
756.395691 152.0
759.305115 132.0
771.020691 176.0
771.291504 184.0
775.076965 72.0
778.860535 148.0
785.400818 112.0
788.007812 160.0
789.908569 44.0
799.193481 176.0
799.863159 212.0
800.01886 116.0
804.361389 168.0
810.435242 208.0
811.977173 176.0
814.048523 192.0
821.396179 196.0
825.319641 160.0
826.269043 116.0
827.848816 212.0
832.005798 212.0
834.516479 112.0
844.834167 236.0
845.418579 108.0
846.217346 164.0
851.099365 228.0
852.37146 148.0
854.458801 44.0
854.970825 188.0
855.046509 132.0
857.445984 192.0
867.62262 112.0
876.138184 148.0
877.389709 224.0
877.812134 52.0
882.033447 168.0
884.748657 232.0
886.513733 120.0
887.491821 208.0
888.642456 180.0
889.034058 180.0
889.223999 140.0
889.485168 132.0
889.556396 144.0
890.452942 120.0
890.708374 112.0
891.112305 204.0
895.508423 160.0
896.533142 144.0
900.052612 144.0
900.23175 152.0
901.253235 136.0
903.010742 160.0
906.039612 180.0
906.195374 168.0
907.651855 144.0
908.203613 192.0
908.683533 248.0
909.997925 120.0
910.142029 132.0
913.248962 136.0
915.541992 168.0
915.819031 148.0
919.834839 228.0
925.28772 172.0
927.377625 112.0
927.432129 168.0
928.59021 168.0
929.433411 60.0
929.979614 204.0
930.264893 176.0
931.266785 224.0
931.412598 440.0
931.710205 176.0
931.752747 220.0
940.637756 116.0
943.337769 272.0
945.772278 84.0
947.002991 204.0
947.977051 112.0
953.770752 68.0
954.176453 212.0
955.07428 152.0
955.357239 168.0
958.762207 180.0
964.421753 164.0
965.454285 208.0
967.069031 112.0
967.96051 48.0
969.156006 112.0
971.530518 40.0
972.933044 120.0
973.808594 148.0
974.423584 92.0
974.796387 160.0
978.491028 220.0
978.740112 156.0
981.525391 152.0
982.255066 272.0
982.566956 136.0
982.710449 212.0
986.695129 176.0
986.914001 208.0
987.08905 108.0
988.15863 208.0
988.302551 208.0
989.203735 140.0
990.24939 188.0
990.888367 44.0
991.05127 216.0
991.909851 176.0
992.627686 128.0
993.119995 176.0
993.690857 148.0
993.866516 204.0
994.56311 48.0
996.472168 100.0
997.779419 180.0
999.269958 116.0
999.326599 92.0
1001.133179 132.0
1001.341003 156.0
1001.416565 176.0
1001.599243 204.0
1001.756714 172.0
1002.260742 44.0
1002.374146 200.0
1003.187195 180.0
1005.009827 152.0
1005.836609 76.0
1007.794312 168.0
1009.899475 56.0
1010.519409 148.0
1010.576355 172.0
1010.968628 192.0
1012.393005 132.0
1017.5354 116.0
1017.694153 188.0
1017.78302 128.0
1018.373657 144.0
1020.12738 80.0
1021.742676 160.0
1022.188049 136.0
1022.716309 132.0
1025.193726 136.0
1025.88208 228.0
1026.519775 44.0
1028.516602 140.0
1028.701782 252.0
1029.078369 192.0
1029.538208 248.0
1029.927734 136.0
1030.579346 128.0
1031.749023 72.0
1033.364014 196.0
1035.844604 196.0
1036.126465 220.0
1037.683838 264.0
1038.094238 160.0
1038.280151 152.0
1042.819214 192.0
1043.802856 152.0
1044.677612 116.0
1045.481812 216.0
1045.546143 188.0
1045.668457 56.0
1046.054688 164.0
1047.065552 200.0
1047.645264 208.0
1047.735474 160.0
1049.307983 132.0
1049.73999 164.0
1050.436523 180.0
1051.062378 152.0
1051.275269 140.0
1051.804565 180.0
1051.869019 136.0
1052.443604 216.0
1053.044189 96.0
1055.823242 204.0
1056.224243 192.0
1057.214233 216.0
1058.282227 228.0
1060.77002 184.0
1062.702637 204.0
1063.598145 144.0
1063.747437 208.0
1063.94873 64.0
1066.098633 200.0
1066.482056 168.0
1067.619873 84.0
1067.912476 80.0
1068.140137 196.0
1069.29834 172.0
1071.408081 192.0
1072.0271 140.0
1074.400391 152.0
1074.465698 80.0
1074.752808 164.0
1075.477173 172.0
1075.836182 180.0
1075.901489 184.0
1077.076904 116.0
1077.671387 180.0
1078.318359 148.0
1078.573242 160.0
1079.226929 180.0
1079.514648 108.0
1079.782837 252.0
1080.7771 160.0
1080.888306 176.0
1081.673706 152.0
1086.103271 196.0
1087.97998 212.0
1088.426514 132.0
1088.610352 192.0
1088.682617 188.0
1088.905884 240.0
1089.041992 220.0
1089.924072 176.0
1090.397217 76.0
1091.093994 144.0
1091.416138 80.0
1091.764771 100.0
1092.080444 188.0
1094.495605 224.0
1095.325439 188.0
1096.122559 252.0
1096.195068 204.0
1096.379639 212.0
1097.525879 164.0
1097.717773 176.0
1097.763916 160.0
1097.810181 124.0
1097.915649 116.0
1098.746704 188.0
1099.472534 224.0
1099.697021 188.0
1101.506226 124.0
1101.770386 144.0
1103.680542 116.0
1103.997925 204.0
1104.189697 204.0
1104.474121 180.0
1104.553467 128.0
1105.387085 156.0
1109.294678 152.0
1110.282593 40.0
1111.184692 168.0
1112.133667 192.0
1114.105835 176.0
1114.53772 156.0
1114.743774 112.0
1114.976318 44.0
1115.262085 32.0
1116.403931 156.0
1116.531982 184.0
1118.175293 152.0
1119.24707 168.0
1119.52063 132.0
1120.286011 60.0
1121.558838 140.0
1121.852051 220.0
1121.912109 68.0
1121.985352 92.0
1122.925659 188.0
1124.633667 200.0
1127.051147 140.0
1128.601929 128.0
1129.364258 144.0
1131.432007 184.0
1131.847046 236.0
1131.980957 132.0
1132.262329 148.0
1132.844971 164.0
1133.247559 256.0
1135.848145 172.0
1135.968872 160.0
1137.592773 180.0
1139.090332 224.0
1139.238037 76.0
1139.372437 188.0
1142.431274 152.0
1142.989746 132.0
1143.184814 152.0
1143.366577 164.0
1144.261841 44.0
1144.692749 136.0
1144.948608 132.0
1145.810791 52.0
1145.884888 136.0
1146.140991 88.0
1146.787964 180.0
1147.178833 200.0
1147.880005 144.0
1148.561279 140.0
1148.675903 140.0
1150.302124 176.0
1150.687012 196.0
1151.355469 156.0
1151.862061 184.0
1152.24707 156.0
1152.692993 184.0
1153.78125 180.0
1153.957031 232.0
1154.281494 148.0
1154.775269 176.0
1154.957886 132.0
1156.757812 184.0
1157.407715 84.0
1158.023926 100.0
1158.958862 192.0
1159.758545 148.0
1160.605835 196.0
1161.752197 156.0
1162.607056 140.0
1164.141235 220.0
1165.825928 148.0
1168.607056 156.0
1168.729492 164.0
1168.923584 212.0
1169.342041 68.0
1170.546997 172.0
1170.771729 160.0
1171.234863 184.0
1171.868408 120.0
1172.427124 164.0
1172.529419 188.0
1173.136475 268.0
1173.299561 208.0
1174.629395 148.0
1175.468628 172.0
1176.055542 236.0
1176.185181 40.0
1176.594727 44.0
1177.004395 204.0
1177.639526 148.0
1178.322632 104.0
1178.513916 148.0
1178.718994 176.0
1178.971802 136.0
1180.147583 164.0
1180.421021 160.0
1181.152832 144.0
1181.244141 164.0
1181.802734 200.0
1182.247559 204.0
1183.328979 172.0
1183.424927 196.0
1184.904297 164.0
1185.123535 200.0
1185.562012 164.0
1185.644287 196.0
1185.884155 140.0
1186.226929 36.0
1186.631348 212.0
1186.775391 148.0
1187.186768 224.0
1187.680542 140.0
1188.064697 96.0
1188.55188 92.0
1189.244995 140.0
1189.766724 152.0
1189.814697 192.0
1190.123657 204.0
1190.782959 168.0
1190.831055 220.0
1191.600342 232.0
1192.782349 68.0
1192.830566 176.0
1193.091797 200.0
1193.456177 172.0
1195.175659 148.0
1195.278931 192.0
1195.609253 124.0
1195.684937 112.0
1195.884521 160.0
1197.010132 160.0
1197.268311 176.0
1197.805542 176.0
1197.888306 152.0
1198.563477 140.0
1200.217773 232.0
1200.941772 248.0
1201.059082 200.0
1201.493652 56.0
1201.555786 200.0
1201.880005 128.0
1202.328613 200.0
1203.281128 136.0
1204.786743 152.0
1205.08374 148.0
1205.705688 160.0
1207.288818 156.0
1207.696899 148.0
1208.257202 164.0
1208.374878 104.0
1210.361328 144.0
1210.81897 200.0
1211.926636 192.0
1212.363281 152.0
1213.773071 136.0
1215.039673 144.0
1215.615601 164.0
1216.795532 220.0
1217.726074 120.0
1217.934448 140.0
1218.066406 156.0
1218.56665 212.0
1218.934937 188.0
1219.365723 204.0
1219.901001 172.0
1221.526001 108.0
1222.036011 120.0
1222.418701 204.0
1223.045044 144.0
1223.142578 156.0
1223.448853 72.0
1224.51416 52.0
1224.6604 152.0
1225.384888 92.0
1225.433716 176.0
1226.104248 212.0
1227.24585 176.0
1227.315552 212.0
1227.378296 108.0
1227.56665 208.0
1227.710327 260.0
1229.938721 180.0
1230.190063 136.0
1230.294678 92.0
1232.375977 156.0
1233.151611 192.0
1234.025513 32.0
1234.263184 180.0
1235.24231 200.0
1235.34729 164.0
1236.396729 164.0
1237.020996 188.0
1237.894897 180.0
1238.287109 208.0
1238.350098 208.0
1238.476196 40.0
1238.574219 184.0
1238.868408 104.0
1239.043579 176.0
1239.505981 124.0
1240.508301 212.0
1240.585327 184.0
1241.041016 44.0
1241.14624 208.0
1241.391724 132.0
1241.461792 84.0
1243.1875 72.0
1243.264771 236.0
1243.447144 180.0
1243.819214 164.0
1243.924438 188.0
1244.865356 220.0
1245.469238 208.0
1245.637817 160.0
1246.017212 176.0
1246.305298 68.0
1246.607422 152.0
1247.675781 156.0
1247.851562 164.0
1248.55481 168.0
1248.63916 216.0
1248.730591 80.0
1248.962646 196.0
1249.187744 160.0
1250.369873 184.0
1250.813232 76.0
1251.025146 200.0
1251.468018 180.0
1252.066528 204.0
1252.221436 148.0
1252.97522 136.0
1253.031616 148.0
1253.68689 204.0
1254.018066 208.0
1254.990967 100.0
1255.195435 176.0
1255.770508 332.0
1256.450928 120.0
1256.549683 228.0
1257.227051 164.0
1257.622314 156.0
1257.707031 204.0
1257.911621 144.0
1258.250488 200.0
1258.391724 132.0
1258.843628 124.0
1259.549927 200.0
1260.12207 128.0
1260.383545 208.0
1260.729858 140.0
1261.302246 72.0
1261.436646 208.0
1261.881958 140.0
1262.546631 208.0
1262.596191 140.0
1262.65271 136.0
1263.317627 96.0
1263.785034 228.0
1264.216187 164.0
1264.541748 280.0
1264.810669 160.0
1265.030151 200.0
1265.221313 96.0
1266.325928 168.0
1266.456421 176.0
1266.899658 160.0
1267.020142 104.0
1268.269409 272.0
1268.75647 136.0
1269.373291 168.0
1270.586182 184.0
1270.912476 68.0
1270.969238 144.0
1271.317017 200.0
1272.062256 52.0
1272.225586 156.0
1272.495361 108.0
1272.712769 172.0
1272.772217 208.0
1273.070435 164.0
1273.354492 180.0
1274.327759 80.0
1275.706421 144.0
1276.154297 104.0
1276.239624 124.0
1276.6521 204.0
1276.986328 72.0
1277.1073 172.0
1277.320679 68.0
1277.512695 364.0
1277.704834 340.0
1278.921631 176.0
1279.298218 204.0
1279.804443 196.0
1280.466675 164.0
1281.463989 100.0
1281.727539 132.0
1281.81311 132.0
1282.444946 168.0
1282.532837 124.0
1282.703979 116.0
1282.939209 60.0
1283.072998 156.0
1283.481079 148.0
1284.001587 28.0
1284.251221 156.0
1284.700684 116.0
1286.256226 180.0
1286.506104 180.0
1286.777466 64.0
1286.884521 128.0
1287.148682 212.0
1287.398682 160.0
1287.580933 176.0
1287.662842 236.0
1288.219971 120.0
1288.362915 184.0
1288.720093 72.0
1289.163086 156.0
1289.562988 208.0
1289.956543 124.0
1290.056519 72.0
1290.807251 104.0
1290.921753 152.0
1291.021851 276.0
1291.393677 176.0
1291.45813 124.0
1291.930176 204.0
1292.338013 260.0
1292.846069 176.0
1293.039307 188.0
1293.11084 352.0
1293.526001 208.0
1293.775391 168.0
1294.091553 164.0
1294.814819 88.0
1295.101318 44.0
1295.674316 116.0
1295.78186 64.0
1295.960205 208.0
1296.218872 172.0
1297.200806 124.0
1297.358521 188.0
1297.934937 196.0
1298.355103 184.0
1298.763916 184.0
1298.850098 204.0
1298.914551 220.0
1298.986328 116.0
1300.564941 252.0
1300.643921 156.0
1300.780273 208.0
1301.318726 136.0
1302.288208 152.0
1303.00647 188.0
1303.365723 184.0
1304.335938 180.0
1305.134033 104.0
1305.342529 128.0
1305.486328 152.0
1305.644531 132.0
1306.946533 196.0
1307.047363 116.0
1307.860596 164.0
1307.997314 88.0
1309.062866 176.0
1309.120483 188.0
1309.783081 28.0
1311.036743 216.0
1311.822388 212.0
1312.442383 136.0
1312.521729 240.0
1312.867798 156.0
1313.161133 72.0
1314.014648 136.0
1314.137329 56.0
1314.267212 208.0
1314.483643 152.0
1315.082642 180.0
1315.219849 76.0
1315.689087 156.0
1316.606079 208.0
1316.671021 196.0
1316.93103 132.0
1317.227173 32.0
1317.335571 204.0
1317.971313 156.0
1318.361572 116.0
1318.730103 140.0
1318.874634 172.0
1319.192749 68.0
1320.371338 124.0
1320.436401 152.0
1320.769165 84.0
1321.977295 148.0
1323.164429 120.0
1323.830566 144.0
1324.475098 180.0
1325.177856 164.0
1325.228516 160.0
1326.040161 184.0
1326.322876 216.0
1327.004272 144.0
1327.272583 168.0
1328.121094 152.0
1328.314331 96.0
1328.991577 120.0
1329.1875 52.0
1329.303589 132.0
1329.906006 148.0
1330.022095 224.0
1330.21814 148.0
1330.315552 196.0
1330.610107 164.0
1330.864258 172.0
1331.024048 164.0
1331.793823 176.0
1332.011719 156.0
1332.062622 144.0
1332.821777 176.0
1333.537598 168.0
1333.784668 196.0
1334.402588 144.0
1334.562622 184.0
1335.209839 160.0
1335.86438 120.0
1336.075317 144.0
1337.348755 164.0
1337.588989 180.0
1338.943237 156.0
1339.125366 216.0
1339.4021 196.0
1340.400269 220.0
1340.735474 140.0
1340.9104 148.0
1341.376831 108.0
1341.537231 212.0
1341.989258 96.0
1342.124878 148.0
1342.215332 200.0
1343.710449 152.0
1344.285645 132.0
1344.513184 152.0
1344.600708 188.0
1345.126221 136.0
1345.272217 180.0
1346.2771 212.0
1346.374756 80.0
1346.462402 160.0
1346.66687 352.0
1346.791138 128.0
1346.944458 164.0
1348.091553 168.0
1348.369263 76.0
1349.085571 144.0
1349.136719 156.0
1349.202515 128.0
1349.502319 148.0
1349.919067 44.0
1350.065308 172.0
1350.245239 196.0
1350.306641 96.0
1350.584595 216.0
1350.789429 164.0
1350.964966 176.0
1351.078979 160.0
1351.147827 148.0
1351.250366 156.0
1352.318726 148.0
1352.391846 148.0
1352.450439 160.0
1352.516357 80.0
1353.299683 144.0
1353.856201 148.0
1354.061157 48.0
1354.288208 164.0
1354.500732 256.0
1354.669189 180.0
1355.255249 196.0
1355.489746 192.0
1355.80481 204.0
1355.907471 80.0
1355.966064 32.0
1356.633057 152.0
1357.21875 180.0
1357.388306 172.0
1358.730469 168.0
1358.811279 160.0
1359.449585 216.0
1359.567993 180.0
1360.146851 156.0
1360.902954 132.0
1362.371826 56.0
1363.040405 104.0
1363.298828 124.0
1363.591553 308.0
1364.062012 172.0
1364.187012 200.0
1364.32666 148.0
1364.444336 136.0
1364.525146 188.0
1365.738525 112.0
1365.92981 156.0
1366.356445 232.0
1366.474121 104.0
1366.783203 164.0
1367.268799 152.0
1367.953369 216.0
1368.255249 164.0
1369.020996 172.0
1369.138794 216.0
1369.25769 136.0
1370.332153 184.0
1370.457397 40.0
1371.120605 76.0
1371.62915 208.0
1372.204346 212.0
1372.646606 136.0
1372.763794 160.0
1373.074219 100.0
1373.52417 128.0
1374.158569 200.0
1374.985107 152.0
1375.295044 104.0
1375.590332 180.0
1376.261108 188.0
1376.476318 156.0
1377.842773 160.0
1377.92395 152.0
1377.975708 208.0
1378.101318 52.0
1378.374756 160.0
1379.076782 208.0
1379.354614 184.0
1379.690308 188.0
1379.867798 168.0
1380.148682 176.0
1380.296631 144.0
1380.57019 140.0
1381.028687 100.0
1381.198853 168.0
1381.361572 108.0
1381.960815 164.0
1382.649048 68.0
1383.004272 160.0
1383.759399 184.0
1384.357788 248.0
1385.427002 96.0
1385.825806 44.0
1386.196289 176.0
1386.428711 140.0
1386.529785 240.0
1386.863281 196.0
1388.375732 176.0
1390.38623 276.0
1390.460449 220.0
1390.564331 176.0
1390.772095 132.0
1391.469971 40.0
1391.581299 36.0
1391.717041 224.0
1392.84375 112.0
1392.925537 180.0
1394.196045 84.0
1394.255493 60.0
1394.716309 244.0
1395.125122 204.0
1395.519165 244.0
1395.809448 160.0
1396.02478 160.0
1396.627197 76.0
1397.073486 176.0
1397.505005 80.0
1398.089722 208.0
1399.105225 144.0
1399.283813 132.0
1399.469971 144.0
1399.715698 144.0
1399.805054 216.0
1401.242554 152.0
1401.488525 184.0
1402.570435 160.0
1402.634155 104.0
1402.939697 172.0
1403.128174 188.0
1403.650146 188.0
1403.739624 120.0
1403.881226 160.0
1404.022949 152.0
1404.201416 160.0
1405.320923 148.0
1406.007446 148.0
1406.082031 232.0
1406.80603 120.0
1407.380981 136.0
1407.530273 160.0
1407.761841 36.0
1408.209839 92.0
1408.299561 140.0
1408.852295 144.0
1409.263184 200.0
1409.56958 188.0
1409.681641 152.0
1410.608398 256.0
1411.595337 132.0
1412.290771 52.0
1412.994019 236.0
1413.218506 108.0
1413.268188 188.0
1413.861938 152.0
1414.078979 196.0
1414.18103 160.0
1414.610474 180.0
1415.246826 212.0
1415.471436 212.0
1415.538818 164.0
1415.63623 176.0
1416.227905 164.0
1416.280273 200.0
1416.767212 204.0
1417.261719 172.0
1417.381592 128.0
1417.63562 220.0
1418.348389 152.0
1418.648193 156.0
1418.903076 188.0
1420.17041 160.0
1420.2229 80.0
1420.943115 236.0
1421.213135 168.0
1421.340698 144.0
1421.401611 184.0
1421.648438 184.0
1421.993652 172.0
1422.564087 184.0
1422.917847 188.0
1423.067017 220.0
1423.449951 188.0
1423.727905 152.0
1424.494019 140.0
1425.027344 104.0
1425.237793 388.0
1425.344238 164.0
1425.623413 160.0
1426.109497 180.0
1426.162109 88.0
1426.951416 204.0
1427.402588 32.0
1427.605591 200.0
1428.019287 96.0
1428.207275 188.0
1428.557373 172.0
1428.861694 108.0
1429.057373 116.0
1429.215332 96.0
1429.418579 76.0
1430.133423 128.0
1430.231323 192.0
1430.348022 196.0
1430.999146 172.0
1431.194946 208.0
1431.488647 208.0
1431.609131 240.0
1431.842529 120.0
1431.947998 96.0
1432.008301 148.0
1432.196533 116.0
1432.264404 172.0
1432.339722 232.0
1432.595825 108.0
1432.821777 48.0
1433.070435 180.0
1433.416992 220.0
1433.620483 184.0
1434.035034 148.0
1434.328979 136.0
1434.509888 164.0
1434.690796 164.0
1435.106689 232.0
1435.241211 176.0
1435.48999 120.0
1436.070679 68.0
1436.463013 176.0
1436.674194 120.0
1437.073975 208.0
1437.353271 72.0
1437.511719 180.0
1437.572021 160.0
1437.783325 148.0
1438.115479 208.0
1438.704224 180.0
1439.030518 204.0
1439.935059 244.0
1441.158813 188.0
1441.408081 152.0
1441.529053 136.0
1441.778442 240.0
1441.884277 136.0
1442.239502 144.0
1442.887573 208.0
1442.918579 152.0
1442.936279 184.0
1443.373413 48.0
1443.570068 288.0
1443.842285 124.0
1444.742432 116.0
1445.279541 140.0
1445.756348 196.0
1446.467773 40.0
1446.90686 172.0
1447.593262 224.0
1448.125977 212.0
1448.383545 220.0
1448.739502 216.0
1448.854736 232.0
1449.178955 92.0
1449.247192 84.0
1450.141357 208.0
1450.292969 172.0
1450.429443 160.0
1450.535522 124.0
1451.164795 204.0
1451.331543 232.0
1451.423584 228.0
1451.528687 228.0
1451.953369 184.0
1452.628418 180.0
1452.727051 176.0
1452.825684 144.0
1453.127075 120.0
1453.235352 116.0
1453.341553 172.0
1453.679199 144.0
1453.758911 144.0
1454.032104 236.0
1454.407959 224.0
1454.980957 208.0
1455.322632 136.0
1455.82373 188.0
1456.575684 196.0
1456.833984 188.0
1458.376465 160.0
1458.543701 208.0
1458.596924 224.0
1458.741333 132.0
1459.250732 116.0
1459.311523 188.0
1459.4104 152.0
1460.657593 196.0
1460.885864 172.0
1461.661865 156.0
1461.86731 160.0
1462.723633 156.0
1462.871948 180.0
1462.978516 168.0
1463.496338 52.0
1464.943359 180.0
1465.552856 184.0
1465.880493 136.0
1466.199829 208.0
1466.444458 224.0
1467.168579 168.0
1467.732788 136.0
1467.941772 192.0
1468.052979 160.0
1468.16748 180.0
1468.221802 180.0
1468.464844 184.0
1468.670776 212.0
1469.448853 184.0
1469.665283 124.0
1470.55542 152.0
1470.784424 200.0
1471.25 180.0
1471.895264 172.0
1472.112793 88.0
1472.800171 140.0
1473.235596 216.0
1473.839111 140.0
1474.259399 216.0
1474.480347 172.0
1474.847656 200.0
1475.514893 252.0
1476.032959 164.0
1476.577515 188.0
1476.759399 168.0
1476.897095 152.0
1477.134277 76.0
1477.210693 76.0
1477.524414 196.0
1477.608521 132.0
1477.798218 200.0
1478.30481 48.0
1478.480835 128.0
1478.779297 216.0
1478.855835 196.0
1479.146729 128.0
1479.376343 180.0
1479.452881 228.0
1479.598389 164.0
1479.904663 196.0
1480.126709 192.0
1480.371704 184.0
1480.67041 120.0
1480.915527 56.0
1481.731445 164.0
1481.942505 192.0
1482.294434 164.0
1482.363403 152.0
1483.934692 152.0
1484.149414 212.0
1484.532837 176.0
1484.824219 136.0
1484.993042 40.0
1485.177124 172.0
1485.58728 108.0
1486.105347 108.0
1486.220459 148.0
1486.361572 132.0
1486.964722 212.0
1487.063843 208.0
1487.133667 240.0
1487.502075 148.0
1487.824463 160.0
1488.200684 184.0
1489.08374 128.0
1489.237427 204.0
1489.467896 124.0
1489.544678 200.0
1489.737183 188.0
1490.712524 192.0
1491.135132 168.0
1491.434937 152.0
1491.896118 72.0
1492.288208 164.0
1493.303223 72.0
1494.311035 152.0
1496.096436 256.0
1496.211304 224.0
1496.481445 128.0
1496.966553 112.0
1497.613403 160.0
1497.779053 176.0
1498.522461 36.0
1498.730469 152.0
1499.308472 192.0
1499.424072 48.0
1500.418457 144.0
1500.603394 44.0
1501.536499 80.0
1501.883545 160.0
1501.953003 140.0
1502.006958 140.0
1502.1073 96.0
1502.261597 32.0
1502.386353 140.0
1502.67041 200.0
1503.218262 172.0
1503.303101 184.0
1504.074951 220.0
1504.444824 204.0
1504.955078 68.0
1505.186646 200.0
