>compound N-ethyl-3-hydroxy-2-phenyl-N-(pyridin-4-ylmethyl)propanamide
>formula C17H20N2O2 
>ionization [M+H]+
>parentmass 285.16095
#inchi InChI=1S/C17H20N2O2/c1-2-19(12-14-8-10-18-11-9-14)17(21)16(13-20)15-6-4-3-5-7-15/h3-11,16,20H,2,12-13H2,1H3
#inchikey BGDKAVGWHJFAGW
#Ion_Source LC-ESI
#Instrument qTof
#Compound_Source Commercial
#PI Dorrestein
#Data_Collector Garg_Neha
#Scan -1
#Precursor_MZ 285.161
#ExactMass 284.152
#Charge 1
#CAS_Number N/A
#Pubmed_ID N/A
#Smiles N/A
#INCHI_AUX N/A
#Library_Class 1
#SpectrumID CCMSLIB00000077068
#IonMode Positive
#UpdateWorkflowName UPDATE-SINGLE-ANNOTATED-GOLD
#LibraryQualityString Gold
#TaskID 48f7f52fc6d249b5abbcc6e7b3df5969
##Scan# 1018
#SpectrumFile NCP003017_G2_H11_2_BB1_01_15712.mzXML
#LibraryName NIH_Clinical_Collection_2.mgf
#MQScore -1
#Organism NIHcollection2_04212014_2_mgf
#TIC_Query 0
#RT_Query -1
#MZErrorPPM -1
#SharedPeaks 0
#MassDiff 0
#LibMZ -1
#SpecMZ 285.161
#SpecCharge 0
#internalFilename spec-00000.mgf

>collision 10
45.259056 228.0
51.139999 156.0
54.004303 200.0
58.458504 176.0
58.709862 204.0
63.046501 164.0
64.076309 212.0
65.101616 184.0
65.87957 204.0
66.348892 264.0
66.532211 168.0
66.745049 188.0
70.828468 156.0
71.303299 144.0
73.00914 212.0
76.434341 180.0
79.312897 144.0
81.995758 180.0
82.01223 120.0
83.494804 140.0
89.732338 188.0
91.052612 244.0
92.049896 424.0
93.057861 1696.0
93.294502 140.0
94.061432 328.0
94.094208 176.0
94.827141 168.0
97.792053 144.0
99.210327 144.0
103.054535 1672.0
104.060089 384.0
104.144989 144.0
105.043648 180.0
106.063225 344.0
106.249603 156.0
107.060402 3404.0
107.224258 152.0
108.044014 160.0
108.06736 1320.0
109.05172 124.0
109.073303 340.0
109.349205 176.0
110.083031 164.0
113.697716 144.0
114.350174 164.0
115.209496 200.0
116.108482 160.0
117.067223 160.0
118.041824 280.0
118.066956 452.0
119.006561 180.0
119.06366 204.0
119.083588 168.0
120.068741 304.0
121.064819 1364.0
123.802376 172.0
127.789116 304.0
127.852119 152.0
130.739822 164.0
130.894623 180.0
131.050018 292.0
134.048126 440.0
134.094299 312.0
134.667221 168.0
134.983826 184.0
135.053558 132.0
135.092117 8200.0
136.063538 220.0
136.097427 1468.0
137.106583 3356.0
138.111557 440.0
138.467636 200.0
139.07254 180.0
139.51651 180.0
140.38533 168.0
141.065308 264.0
142.074112 188.0
144.327194 152.0
146.096024 624.0
147.053177 292.0
147.111954 140.0
148.745712 140.0
149.071167 164.0
150.110596 180.0
152.065277 140.0
152.335373 148.0
154.082016 140.0
155.059418 140.0
155.081726 156.0
156.721878 144.0
156.831528 164.0
158.045212 160.0
158.325577 156.0
158.440796 220.0
159.555084 144.0
161.077179 192.0
162.087997 272.0
163.095673 948.0
164.091858 256.0
165.069901 168.0
165.812363 208.0
167.083405 152.0
167.296997 140.0
168.080566 304.0
169.090652 348.0
172.093369 144.0
172.527054 152.0
172.812119 176.0
174.099167 208.0
175.087112 156.0
176.093994 572.0
176.317383 244.0
177.068726 196.0
177.73941 176.0
178.095154 180.0
179.090027 196.0
181.083755 172.0
182.096619 2068.0
182.76825 164.0
183.101379 272.0
184.113586 340.0
184.781036 200.0
185.528503 184.0
186.250305 144.0
188.108505 280.0
189.108368 188.0
194.094116 492.0
195.103226 636.0
196.076279 156.0
196.112183 824.0
197.017319 144.0
197.114105 852.0
198.037537 156.0
198.089035 280.0
198.113159 164.0
199.59787 164.0
200.107635 160.0
200.941376 176.0
206.097534 144.0
206.394791 176.0
206.969925 224.0
209.103256 192.0
209.180557 272.0
209.243881 184.0
210.095047 292.0
210.119431 204.0
211.082733 128.0
212.103699 172.0
212.715851 184.0
213.110474 172.0
214.40863 160.0
216.99556 180.0
218.602249 200.0
220.7202 212.0
221.107727 200.0
222.096008 156.0
222.134109 108.0
225.105972 136.0
225.136017 140.0
226.110001 1712.0
227.118286 1380.0
227.202225 236.0
227.351334 164.0
228.12796 148.0
228.162323 160.0
228.285599 164.0
229.117401 152.0
232.169174 200.0
237.132523 188.0
238.113846 612.0
239.115067 384.0
239.15332 680.0
240.119522 136.0
240.259735 156.0
241.136673 148.0
241.98735 152.0
246.988678 108.0
249.500137 148.0
250.355972 160.0
252.558914 192.0
254.994995 240.0
255.149796 10916.0
255.284073 132.0
255.459167 164.0
256.121674 296.0
256.152954 2748.0
257.126434 460.0
257.151978 492.0
260.004395 128.0
260.672852 144.0
261.068268 160.0
261.608795 232.0
267.149048 2552.0
267.624176 184.0
268.154327 128.0
269.169708 152.0
271.290833 168.0
278.862061 216.0
282.442535 132.0
284.323883 164.0
284.458557 212.0
284.619507 148.0
284.668427 164.0
284.700165 124.0
284.750793 228.0
284.847565 144.0
284.943665 152.0
284.976227 176.0
285.012024 204.0
285.077454 280.0
285.124939 340.0
285.16095 107320.0
285.276581 344.0
285.483795 304.0
285.522583 148.0
285.581055 144.0
285.713104 484.0
285.769379 268.0
285.843323 100.0
285.876892 124.0
285.972504 120.0
286.008423 132.0
286.123871 220.0
286.16333 17172.0
286.271698 284.0
286.513733 172.0
286.55481 112.0
286.59433 116.0
286.642731 144.0
286.81897 260.0
287.166962 2868.0
287.502258 224.0
287.772949 140.0
287.908875 112.0
287.952911 164.0
288.010681 140.0
288.078827 112.0
288.169373 252.0
288.199554 172.0
288.228394 268.0
288.29071 116.0
288.69577 116.0
289.316162 104.0
290.002228 156.0
1207.865112 172.0
1257.821655 176.0
1279.264893 196.0
1349.985962 148.0
1362.167114 172.0
1369.345825 236.0
1383.153076 196.0
1401.787109 164.0
1416.587891 192.0
1454.343384 172.0
1496.60437 208.0
1518.047119 232.0
1666.2854 236.0
1720.965332 140.0
1856.832764 168.0
1924.872314 140.0
1945.508789 144.0
1957.263794 144.0
1958.197266 176.0
1965.064087 148.0
1987.662109 148.0
1988.345459 184.0
2002.543823 196.0
