>compound MLS002154241-01!Scopolamin-N-oxide hydrobromide6106-81-6
>formula C17H21NO5
>ionization [M+H]+
>parentmass 320.149323
#inchi InChI=1S/C17H21NO5/c1-18(21)13-7-11(8-14(18)16-15(13)23-16)22-17(20)12(9-19)10-5-3-2-4-6-10/h2-6,11-16,19H,7-9H2,1H3/t11-,12-,13-,14+,15-,16+,18?/m1/s1
#inchikey GSYQNAMOFFWAPF
#origInchi InChI=1S/C17H21NO5.BrH/c1-18(21)13-7-11(8-14(18)16-15(13)23-16)22-17(20)12(9-19)10-5-3-2-4-6-10;/h2-6,11-16,19H,7-9H2,1H3;1H/t11-,12-,13-,14+,15-,16+,18?;/m1./s1
#Ion_Source LC-ESI
#Instrument qTof
#Compound_Source NIH Pharmacologically Active Library
#PI Dorrestein
#Data_Collector VP/LMS
#Scan -1
#Precursor_MZ 320.153
#ExactMass 319.142
#Charge 1
#CAS_Number N/A
#Pubmed_ID N/A
#Smiles C[N+]1([O-])[C@H]2C[C@@H](C[C@@H]1[C@H]3O[C@H]32)OC(=O)[C@H](CO)c4ccccc4.Br
#INCHI_AUX N/A
#Library_Class 1
#SpectrumID CCMSLIB00000084849
#IonMode Positive
#UpdateWorkflowName UPDATE-SINGLE-ANNOTATED-GOLD
#LibraryQualityString Gold
#TaskID d252d724072548979f1f6f1ced849daf
##Scan# 1177
#SpectrumFile p3-B07_GB7_01_18240.mzXML
#LibraryName Pharm_Active_Library.mgf
#MQScore -1
#Organism Pharm_Active_Library
#TIC_Query 0
#RT_Query -1
#MZErrorPPM -1
#SharedPeaks 0
#MassDiff 0
#LibMZ -1
#SpecMZ 320.153
#SpecCharge 0
#internalFilename spec-00000.mgf

>collision 10
44.890606 140.0
44.914616 204.0
45.144337 152.0
45.463177 164.0
45.494049 220.0
45.617638 176.0
46.154236 132.0
46.412865 124.0
46.723896 252.0
46.96365 64.0
47.486137 228.0
47.681095 220.0
48.260071 184.0
48.548096 168.0
48.786919 192.0
49.186722 52.0
49.40472 172.0
49.429905 44.0
49.569939 124.0
49.64003 116.0
49.651249 184.0
50.032043 204.0
50.210995 152.0
50.330948 160.0
50.442558 136.0
50.501945 236.0
50.735596 152.0
51.200241 128.0
51.327068 220.0
51.491184 160.0
51.617222 212.0
51.705635 220.0
51.858887 220.0
51.929142 40.0
51.940174 144.0
52.082722 232.0
52.196259 88.0
52.227898 200.0
52.312798 172.0
52.354553 148.0
52.439556 144.0
53.151073 168.0
53.194611 160.0
53.585819 176.0
53.682022 252.0
54.070621 136.0
54.466499 180.0
54.603191 144.0
54.946411 188.0
54.984776 152.0
55.039398 200.0
55.438797 212.0
55.793549 40.0
55.815849 132.0
56.079353 148.0
56.816566 208.0
57.323273 76.0
57.525375 220.0
57.823147 172.0
58.361675 92.0
58.44381 236.0
58.760727 168.0
58.966873 220.0
59.014263 180.0
59.481522 188.0
59.573658 116.0
59.741222 404.0
59.835102 184.0
60.038498 220.0
60.053921 80.0
60.472633 104.0
60.489658 200.0
60.58567 172.0
60.9161 204.0
61.645267 112.0
61.766632 192.0
62.418079 76.0
62.74873 152.0
63.005981 40.0
63.582355 92.0
63.917664 172.0
64.15657 208.0
64.378357 172.0
65.052422 216.0
65.229126 152.0
65.692902 176.0
66.069305 160.0
66.08548 100.0
66.190697 188.0
66.326607 184.0
66.44841 148.0
66.529556 116.0
66.657867 256.0
66.831215 144.0
67.417252 56.0
67.469559 132.0
67.587318 188.0
67.641327 108.0
67.654419 196.0
67.778893 120.0
68.034752 156.0
68.088943 136.0
68.189163 144.0
68.378296 64.0
68.409569 188.0
68.544624 132.0
68.592422 48.0
68.726006 200.0
68.869629 156.0
69.158981 124.0
69.377632 232.0
69.463867 140.0
69.62487 208.0
70.190666 204.0
70.971535 160.0
71.266945 244.0
71.633705 196.0
71.925423 196.0
72.031799 168.0
72.133186 204.0
72.155167 252.0
72.248184 196.0
72.476746 28.0
72.569969 152.0
72.632034 188.0
72.748108 180.0
72.797348 164.0
73.069305 204.0
73.37075 176.0
73.864891 44.0
73.98748 200.0
74.555229 72.0
74.599922 176.0
75.099274 164.0
75.598572 144.0
75.695511 180.0
75.898247 300.0
76.558571 176.0
77.275993 164.0
77.365242 72.0
77.412521 152.0
77.442291 144.0
78.646713 40.0
78.93998 152.0
79.203682 124.0
79.411064 184.0
79.61161 116.0
80.008118 128.0
80.246849 88.0
80.448448 160.0
80.72538 172.0
80.852196 108.0
80.983093 120.0
81.198166 156.0
82.113602 108.0
82.60128 60.0
82.702606 132.0
82.934448 136.0
83.47728 192.0
83.493645 148.0
84.052902 104.0
84.463959 144.0
84.764214 196.0
85.171494 204.0
85.195374 120.0
85.312988 188.0
85.498764 184.0
85.546616 156.0
85.640526 164.0
85.712372 128.0
87.272751 72.0
87.347145 76.0
87.723289 156.0
88.018066 236.0
88.736557 188.0
89.363861 228.0
89.982048 160.0
90.672478 156.0
90.697121 208.0
90.934204 184.0
91.051918 172.0
91.165901 156.0
91.240028 212.0
91.274254 188.0
91.639702 108.0
91.706398 204.0
92.173958 180.0
92.296288 136.0
92.568008 128.0
92.824783 184.0
92.993599 172.0
93.018555 160.0
93.034973 188.0
93.057144 976.0
93.497139 152.0
93.543335 168.0
93.826515 80.0
93.851578 128.0
93.941437 256.0
93.982742 168.0
94.044495 148.0
94.065445 6460.0
94.229874 68.0
94.440582 152.0
94.756119 288.0
94.889847 152.0
94.967407 212.0
95.048645 448.0
95.070374 556.0
95.126518 136.0
95.225548 96.0
95.505432 100.0
95.522934 68.0
95.746765 60.0
95.974762 152.0
96.06057 248.0
96.08094 696.0
96.249886 116.0
96.480431 72.0
96.672112 208.0
96.944305 96.0
97.029388 188.0
97.054863 372.0
97.087418 212.0
97.385727 144.0
97.443275 164.0
98.062134 312.0
98.08226 184.0
98.963348 212.0
99.965744 72.0
100.017494 132.0
100.035408 136.0
100.077217 168.0
100.33223 176.0
100.545662 116.0
100.639961 184.0
100.991196 164.0
101.209328 180.0
101.696465 184.0
101.928329 196.0
101.95153 156.0
102.050026 116.0
102.299492 92.0
102.446495 108.0
102.537163 168.0
102.698456 172.0
102.948715 132.0
103.021423 164.0
103.054718 4444.0
103.110329 52.0
103.231628 68.0
103.440018 224.0
103.630379 204.0
103.726822 68.0
103.747932 204.0
104.05619 292.0
104.438339 136.0
106.064896 732.0
106.13131 76.0
106.223595 124.0
106.802841 204.0
106.992157 220.0
107.045959 248.0
107.073723 564.0
107.119835 148.0
107.323868 200.0
107.490944 92.0
107.742836 160.0
107.86319 116.0
108.080978 3052.0
108.127434 92.0
108.14399 60.0
108.165955 164.0
108.226799 36.0
108.297211 120.0
108.373856 72.0
108.697319 152.0
108.954773 124.0
109.083893 268.0
109.227097 120.0
109.910431 116.0
110.059929 1112.0
110.095123 1020.0
110.115005 244.0
110.229904 248.0
110.478714 52.0
110.528923 60.0
110.6231 204.0
111.050552 220.0
111.066513 144.0
111.123978 144.0
111.205818 148.0
111.884773 120.0
112.07222 168.0
112.234512 204.0
112.304108 172.0
112.346291 184.0
113.081627 196.0
113.115494 152.0
114.054504 124.0
114.178482 168.0
115.122559 240.0
115.218674 184.0
115.597122 220.0
116.873848 176.0
117.561241 164.0
118.004036 196.0
118.038635 168.0
118.065125 136.0
119.052788 192.0
119.076675 208.0
119.272217 96.0
119.306999 196.0
119.986237 208.0
120.080742 3368.0
120.936462 144.0
121.064903 2408.0
121.30883 64.0
121.774002 52.0
122.002525 124.0
122.06176 300.0
122.533577 92.0
123.033524 156.0
123.06443 128.0
123.154976 168.0
123.245544 76.0
123.349419 160.0
123.599327 180.0
124.075539 356.0
124.861557 56.0
125.084053 400.0
125.480583 104.0
125.52964 148.0
126.027405 140.0
126.04528 116.0
126.09095 960.0
126.20845 60.0
126.606758 60.0
127.097313 392.0
128.104874 144.0
128.192749 76.0
128.309952 196.0
128.969101 220.0
129.573303 132.0
131.148071 172.0
131.234695 208.0
132.374893 268.0
132.791977 56.0
133.531525 192.0
133.777725 116.0
134.236206 168.0
134.473831 216.0
134.508453 144.0
136.075974 3524.0
136.170898 52.0
136.201096 48.0
136.56601 72.0
137.081741 932.0
137.290314 208.0
137.374283 28.0
137.392944 36.0
137.883286 136.0
137.972107 96.0
138.091232 4056.0
138.133469 160.0
138.187271 108.0
138.451782 60.0
138.620438 80.0
138.669647 44.0
138.847839 64.0
139.094162 184.0
139.582855 80.0
139.785324 216.0
139.959335 120.0
140.041763 224.0
140.079453 36.0
140.838974 52.0
140.919296 132.0
140.935837 88.0
141.082367 200.0
141.600555 192.0
141.887268 196.0
142.357071 176.0
142.739639 72.0
143.041794 236.0
144.074356 216.0
144.103027 156.0
145.662582 88.0
145.684204 60.0
146.039948 80.0
146.352783 160.0
147.295746 76.0
147.510803 128.0
147.989807 60.0
148.908859 96.0
149.497177 172.0
150.29155 176.0
152.370209 52.0
152.404602 104.0
152.458664 156.0
153.633133 196.0
153.897202 164.0
154.040436 100.0
154.086868 13600.0
154.123993 240.0
154.18692 84.0
154.218353 68.0
154.262833 80.0
154.282623 52.0
154.5522 52.0
154.599213 196.0
154.626434 124.0
154.725449 100.0
154.950821 116.0
154.992935 116.0
155.091766 2460.0
155.203613 32.0
155.282318 60.0
155.349945 64.0
155.451675 76.0
155.503784 48.0
155.59314 108.0
155.928482 72.0
156.072006 152.0
156.093048 620.0
156.127365 180.0
156.211929 96.0
156.261688 48.0
156.423447 124.0
156.682434 40.0
157.255951 36.0
157.730515 156.0
158.263382 64.0
159.03299 132.0
159.093231 136.0
160.504669 212.0
163.842636 96.0
166.569595 120.0
168.15567 104.0
168.778229 84.0
170.091705 148.0
170.359161 52.0
171.084702 256.0
171.418091 104.0
172.041443 204.0
172.097687 7280.0
172.171982 92.0
172.192886 48.0
172.216385 40.0
172.234665 52.0
172.451538 44.0
172.475052 92.0
172.817642 96.0
172.951096 60.0
173.100266 764.0
173.143204 64.0
173.296768 52.0
173.440903 36.0
173.597305 128.0
174.095627 172.0
174.46991 56.0
174.906586 48.0
178.021027 228.0
180.272003 68.0
181.085281 156.0
182.085648 216.0
184.081161 136.0
186.027817 148.0
190.662964 208.0
194.582565 164.0
198.710358 196.0
205.189911 124.0
210.371017 76.0
216.116776 124.0
219.66568 172.0
226.11937 116.0
231.611206 108.0
231.877838 52.0
239.494888 188.0
242.997314 196.0
243.863678 168.0
247.911453 228.0
248.281357 216.0
253.647614 96.0
262.055817 144.0
268.314148 88.0
268.601135 180.0
274.026764 176.0
274.148529 168.0
285.978638 128.0
286.144409 212.0
286.169281 144.0
287.917206 132.0
290.13205 172.0
300.413513 68.0
302.126953 140.0
303.145294 104.0
305.516296 136.0
313.587494 148.0
315.147247 164.0
316.664795 168.0
316.859619 192.0
318.956879 260.0
319.369324 144.0
319.618347 140.0
319.945801 132.0
320.073944 48.0
320.149323 5756.0
320.210602 152.0
320.437256 56.0
320.629669 76.0
320.718781 128.0
321.053894 52.0
321.151093 1232.0
321.296448 44.0
321.417755 56.0
321.728271 92.0
321.828217 116.0
322.155426 300.0
322.228241 84.0
322.371155 128.0
322.589172 44.0
323.161377 132.0
323.325989 148.0
323.827209 56.0
323.963318 72.0
326.475769 92.0
327.400604 68.0
338.967316 68.0
377.856812 44.0
383.791443 160.0
573.996887 116.0
601.415161 76.0
655.900391 36.0
702.434753 84.0
746.833435 200.0
753.653137 72.0
773.595215 164.0
814.465027 164.0
825.572998 156.0
829.643921 236.0
831.031799 160.0
835.547546 180.0
846.548828 204.0
850.142944 76.0
853.139954 256.0
857.004333 196.0
872.078979 180.0
874.678772 128.0
918.356812 220.0
921.598572 232.0
926.383972 128.0
930.11322 192.0
932.573181 220.0
938.71582 176.0
946.727173 228.0
948.344604 64.0
951.123108 160.0
961.092712 164.0
963.914551 124.0
966.833313 48.0
968.845642 196.0
969.384705 148.0
978.147949 160.0
981.144287 128.0
983.62085 144.0
987.713623 164.0
988.48938 244.0
989.935364 216.0
992.065613 68.0
992.197266 256.0
992.422974 152.0
993.501709 216.0
1000.754272 60.0
1007.862671 104.0
1010.790222 128.0
1015.382996 152.0
1017.051636 148.0
1018.740662 136.0
1020.61554 168.0
1024.05835 192.0
1025.475586 36.0
1026.084595 184.0
1027.596191 116.0
1030.258423 160.0
1030.667236 120.0
1033.890137 160.0
1034.734985 240.0
1037.912964 200.0
1040.254639 224.0
1042.194214 156.0
1042.264893 72.0
1042.766113 256.0
1043.447388 136.0
1046.722412 192.0
1047.308472 164.0
1049.338379 168.0
1056.358154 156.0
1056.442261 144.0
1058.202515 68.0
1063.219604 176.0
1074.352417 188.0
1085.556396 176.0
1087.130737 128.0
1089.593018 192.0
1089.790161 176.0
1095.316162 144.0
1095.757568 48.0
1096.040894 40.0
1100.123291 140.0
1103.01001 236.0
1108.072388 200.0
1111.062378 172.0
1112.456055 204.0
1112.814453 68.0
1114.16272 108.0
1114.514771 64.0
1118.12561 192.0
1126.399902 224.0
1126.901001 76.0
1131.361816 108.0
1133.0896 136.0
1142.569092 200.0
1146.757446 196.0
1148.800537 192.0
1149.029907 72.0
1150.244507 48.0
1155.021851 180.0
1156.408813 192.0
1164.911621 124.0
1166.61731 168.0
1168.140625 176.0
1171.598755 112.0
1173.759277 172.0
1177.020874 124.0
1186.243286 168.0
1188.753418 184.0
1188.828979 192.0
1191.520508 148.0
1193.293701 136.0
1194.531494 168.0
1194.958008 144.0
1195.047485 68.0
1195.77002 240.0
1197.635864 96.0
1199.854736 72.0
1201.020142 152.0
1202.510498 96.0
1204.761475 192.0
1206.724243 180.0
1209.84436 220.0
1211.187744 228.0
1215.243164 128.0
1217.290771 236.0
1220.473267 192.0
1222.949707 140.0
1230.198975 124.0
1232.685425 152.0
1234.642822 148.0
1235.069336 188.0
1237.077637 140.0
1237.763794 96.0
1243.077148 256.0
1244.775879 172.0
1247.825195 184.0
1248.240112 140.0
1249.351318 140.0
1250.603882 228.0
1255.168823 104.0
1258.118042 160.0
1262.067383 204.0
1262.286621 160.0
1262.717896 128.0
1263.297974 196.0
1264.125732 52.0
1264.387573 212.0
1264.550415 68.0
1264.720215 68.0
1265.435181 132.0
1266.384155 156.0
1266.957886 152.0
1268.906738 132.0
1269.126587 180.0
1274.222534 164.0
1276.788574 168.0
1283.767578 248.0
1285.493896 188.0
1288.799927 212.0
1288.992798 152.0
1290.23645 208.0
1293.369629 208.0
1300.350586 156.0
1300.838745 148.0
1303.453003 192.0
1305.120605 184.0
1308.408569 216.0
1313.589844 180.0
1313.993896 176.0
1314.347412 220.0
1315.191772 120.0
1316.97522 156.0
1319.735718 96.0
1320.212891 148.0
1322.745239 164.0
1325.004639 92.0
1326.48291 120.0
1327.599487 148.0
1328.672974 216.0
1329.865601 220.0
1333.182007 216.0
1335.421143 188.0
1336.119507 128.0
1340.174805 204.0
1344.002686 84.0
1344.199707 64.0
1344.754395 164.0
1346.382446 144.0
1348.523071 88.0
1348.764282 108.0
1350.643433 132.0
1351.528564 164.0
1351.704224 80.0
1353.446289 192.0
1354.384521 188.0
1356.054199 112.0
1356.266724 212.0
1358.209839 148.0
1358.591309 252.0
1360.499268 144.0
1361.013184 232.0
1361.541992 152.0
1362.276489 152.0
1369.101929 112.0
1369.330322 152.0
1369.934326 176.0
1370.236328 136.0
1370.671021 160.0
1372.381104 196.0
1377.222778 160.0
1378.670166 152.0
1379.047119 168.0
1381.280029 136.0
1383.892456 192.0
1385.11438 236.0
1385.640259 160.0
1386.114502 232.0
1387.885986 204.0
1388.560913 212.0
1388.776001 148.0
1389.148193 252.0
1389.510376 64.0
1391.803711 180.0
1392.219604 232.0
1392.278931 64.0
1392.843506 116.0
1393.066284 156.0
1396.307007 168.0
1396.842529 256.0
1398.085083 192.0
1401.428467 188.0
1404.552002 180.0
1406.969727 180.0
1407.798584 160.0
1408.54541 48.0
1414.10083 140.0
1418.400146 80.0
1420.567261 132.0
1420.78479 168.0
1421.287476 132.0
1424.998535 192.0
1426.259033 164.0
1427.928101 40.0
1428.153809 68.0
1428.409546 196.0
1430.501465 104.0
1431.314575 168.0
1432.76062 44.0
1434.802979 216.0
1435.074341 180.0
1436.265869 144.0
1438.07666 128.0
1440.568481 144.0
1441.081421 164.0
1442.54834 224.0
1450.928589 124.0
1451.163574 144.0
1453.962646 168.0
1454.030884 224.0
1455.830078 140.0
1459.135376 116.0
1460.838867 196.0
1462.307373 156.0
1463.182739 216.0
1463.289307 168.0
1464.903809 132.0
1465.315186 108.0
1467.426392 140.0
1470.813354 244.0
1471.721924 164.0
1474.225708 92.0
1475.446533 184.0
1476.123047 164.0
1477.851807 176.0
1483.442383 128.0
1484.79187 160.0
1486.072876 56.0
1488.360229 156.0
1488.429321 156.0
1488.605835 168.0
1490.095947 136.0
1490.65686 128.0
1496.718262 172.0
1498.466675 100.0
1500.06958 208.0
1501.1875 220.0
1502.838257 196.0
1504.775391 184.0
1505.092041 148.0
