>compound MLS001148441-01!
>formula C22H28NO3
>ionization [M+H]+
>parentmass 355.21419520809053
#inchi InChI=1S/C22H28NO3/c1-3-23(2)16-10-15-20(17-23)26-21(24)22(25,18-11-6-4-7-12-18)19-13-8-5-9-14-19/h4-9,11-14,20,25H,3,10,15-17H2,1-2H3/q+1
#inchikey WPUKUEMZZRVAKZ
#origInchi InChI=1S/C22H28NO3.BrH/c1-3-23(2)16-10-15-20(17-23)26-21(24)22(25,18-11-6-4-7-12-18)19-13-8-5-9-14-19;/h4-9,11-14,20,25H,3,10,15-17H2,1-2H3;1H/q+1;/p-1
#Ion_Source LC-ESI
#Instrument qTof
#Compound_Source NIH Pharmacologically Active Library
#PI Dorrestein
#Data_Collector VP/LMS
#Scan -1
#Precursor_MZ 354.208
#ExactMass 354.207
#Charge 1
#CAS_Number N/A
#Pubmed_ID N/A
#Smiles CC[N+]1(C)CCCC(C1)OC(=O)C(O)(c2ccccc2)c3ccccc3.[Br-]
#INCHI_AUX N/A
#Library_Class 1
#SpectrumID CCMSLIB00000084957
#IonMode Positive
#UpdateWorkflowName UPDATE-SINGLE-ANNOTATED-GOLD
#LibraryQualityString Gold
#TaskID d252d724072548979f1f6f1ced849daf
##Scan# 1586
#SpectrumFile p3-D02_GD2_01_18259.mzXML
#LibraryName Pharm_Active_Library.mgf
#MQScore -1
#Organism Pharm_Active_Library
#TIC_Query 0
#RT_Query -1
#MZErrorPPM -1
#SharedPeaks 0
#MassDiff 0
#LibMZ -1
#SpecMZ 354.208
#SpecCharge 0
#internalFilename spec-00000.mgf

>collision 10
44.923717 204.0
45.018787 76.0
45.029472 232.0
45.046837 208.0
45.06554 120.0
45.077568 84.0
45.098949 136.0
45.139061 144.0
45.157593 140.0
45.180523 140.0
45.21933 184.0
45.2528 76.0
45.267529 132.0
45.391911 196.0
45.440445 216.0
45.511585 48.0
45.534416 204.0
45.553135 188.0
45.584122 160.0
45.60025 176.0
45.617725 156.0
45.636547 112.0
45.726681 32.0
45.736103 84.0
45.78323 172.0
45.838463 160.0
45.868114 104.0
45.877552 156.0
45.909912 76.0
45.927448 152.0
45.944984 112.0
45.984116 176.0
46.03677 188.0
46.067837 88.0
46.090229 168.0
46.107025 188.0
46.133694 208.0
46.162453 52.0
46.174625 140.0
46.196266 160.0
46.280182 96.0
46.358044 176.0
46.38179 144.0
46.399414 72.0
46.422466 192.0
46.459091 160.0
46.522877 164.0
46.558182 208.0
46.567688 112.0
46.588062 140.0
46.715855 180.0
46.726513 192.0
46.748394 184.0
46.753922 168.0
46.801601 116.0
46.845184 188.0
46.860172 184.0
46.910099 216.0
46.928566 244.0
46.940594 144.0
46.9706 176.0
46.995819 176.0
47.066135 112.0
47.141621 140.0
47.205521 56.0
47.28624 128.0
47.309635 176.0
47.332787 172.0
47.356071 144.0
47.38073 212.0
47.46571 216.0
47.479424 164.0
47.494423 128.0
47.526066 144.0
47.541161 204.0
47.586861 220.0
47.688118 208.0
47.752743 136.0
47.773376 172.0
47.810528 148.0
47.853203 52.0
47.865593 152.0
47.891762 172.0
47.931717 228.0
47.9772 156.0
48.015812 208.0
48.04813 356.0
48.116547 172.0
48.131737 124.0
48.155212 160.0
48.18713 192.0
48.279602 56.0
48.358467 200.0
48.369537 192.0
48.405537 168.0
48.441547 164.0
48.451248 96.0
48.476189 204.0
48.491432 120.0
48.50668 180.0
48.519157 172.0
48.571857 144.0
48.723175 176.0
48.732903 176.0
48.750965 228.0
48.762085 204.0
48.785717 72.0
48.821133 416.0
48.91927 188.0
48.928284 132.0
48.944927 140.0
48.988476 200.0
49.012585 112.0
49.029308 204.0
49.136681 196.0
49.189716 168.0
49.388142 144.0
49.428715 112.0
49.490307 172.0
49.509731 188.0
49.529522 188.0
49.60519 68.0
49.616405 136.0
49.648659 160.0
49.659008 180.0
49.678116 184.0
49.696964 156.0
49.765133 172.0
49.77496 168.0
49.787601 156.0
49.822716 44.0
49.933586 156.0
49.960495 176.0
49.991138 216.0
50.022415 132.0
50.053391 148.0
50.104099 112.0
50.114815 152.0
50.156998 260.0
50.185844 128.0
50.23246 176.0
50.271896 184.0
50.300125 192.0
50.349895 144.0
50.370731 144.0
50.482391 200.0
50.499363 208.0
50.51775 132.0
50.570988 164.0
50.628948 192.0
50.639488 164.0
50.653652 220.0
50.683407 256.0
50.698994 116.0
50.727341 240.0
50.760948 216.0
50.806759 208.0
50.819565 156.0
50.891621 172.0
50.894676 136.0
50.899261 164.0
50.915447 184.0
50.927422 56.0
50.938786 164.0
50.99136 208.0
51.029743 160.0
51.052494 96.0
51.066246 144.0
51.106552 188.0
51.116512 216.0
51.157791 156.0
51.284569 184.0
51.297398 156.0
51.3237 152.0
51.328346 68.0
51.333736 132.0
51.344456 164.0
51.398663 104.0
51.421497 140.0
51.532887 192.0
51.552528 140.0
51.572903 52.0
51.590057 144.0
51.627232 188.0
51.640106 152.0
51.66156 192.0
51.784668 164.0
51.844841 156.0
51.860607 224.0
51.900749 192.0
51.927998 92.0
51.965298 224.0
52.110313 160.0
52.143364 128.0
52.174992 216.0
52.233952 176.0
52.263462 176.0
52.288631 140.0
52.300144 180.0
52.323177 152.0
52.396893 220.0
52.484554 200.0
52.494648 132.0
52.63607 192.0
52.707996 232.0
52.713352 184.0
52.804768 208.0
52.931065 72.0
53.000595 88.0
53.181408 108.0
53.197849 216.0
53.219627 164.0
53.264805 148.0
53.296612 220.0
53.312172 164.0
53.326748 168.0
53.351841 188.0
53.377621 192.0
53.383457 140.0
53.418228 216.0
53.468212 56.0
53.500237 176.0
53.586166 172.0
53.707165 180.0
53.727589 388.0
53.775745 136.0
53.788883 192.0
53.835606 204.0
53.873581 156.0
53.895496 188.0
53.907188 120.0
53.924725 140.0
53.95396 128.0
53.983204 116.0
54.024162 132.0
54.046108 364.0
54.08416 212.0
54.112785 144.0
54.232101 216.0
54.277817 152.0
54.364849 184.0
54.419922 140.0
54.577103 216.0
54.699215 64.0
54.709522 144.0
54.740067 188.0
54.768425 220.0
54.825886 152.0
54.917297 68.0
54.976315 140.0
54.991165 128.0
55.011738 192.0
55.0457 152.0
55.064899 220.0
55.140251 172.0
55.251156 204.0
55.282227 240.0
55.368095 220.0
55.415497 212.0
55.581894 184.0
55.597893 228.0
55.645397 48.0
55.724113 164.0
55.743431 120.0
55.767212 88.0
55.84304 192.0
55.886185 192.0
55.908504 196.0
55.927853 124.0
55.960606 100.0
55.982944 176.0
55.999325 212.0
56.053276 188.0
56.093201 196.0
56.111092 64.0
56.261776 168.0
56.327484 140.0
56.447056 176.0
56.502396 160.0
56.556271 132.0
56.578728 116.0
56.617657 140.0
56.707554 228.0
56.767525 144.0
56.788719 392.0
56.848209 148.0
56.874046 144.0
56.943115 232.0
57.031765 120.0
57.159603 72.0
57.177662 152.0
57.245411 132.0
57.282681 236.0
57.352173 204.0
57.376469 180.0
57.400627 120.0
57.454926 152.0
57.557564 180.0
57.584747 184.0
57.639133 116.0
57.661804 88.0
57.700867 176.0
57.781265 164.0
57.806988 164.0
57.910763 148.0
57.955387 196.0
57.973572 156.0
58.022076 84.0
58.099426 164.0
58.123703 172.0
58.178341 152.0
58.195042 248.0
58.302898 108.0
58.330257 176.0
58.433674 176.0
58.451931 100.0
58.47628 188.0
58.486935 144.0
58.502159 160.0
58.590492 88.0
58.608875 180.0
58.642303 128.0
58.762775 156.0
58.802139 176.0
58.822296 204.0
58.854355 72.0
58.877262 176.0
58.925175 164.0
58.965878 184.0
58.985748 176.0
59.062206 160.0
59.097393 248.0
59.144749 140.0
59.206078 160.0
59.247437 68.0
59.281147 140.0
59.339394 116.0
59.360863 156.0
59.373131 152.0
59.468258 144.0
59.494354 228.0
59.537346 176.0
59.621845 164.0
59.667961 176.0
59.693039 232.0
59.706402 180.0
59.716797 224.0
59.758705 172.0
59.80949 104.0
59.864918 112.0
59.920372 212.0
59.984715 160.0
60.093056 148.0
60.140896 168.0
60.207726 192.0
60.228912 156.0
60.259007 168.0
60.299988 244.0
60.313335 220.0
60.391811 124.0
60.425243 128.0
60.468895 232.0
60.498127 132.0
60.544437 44.0
60.590382 156.0
60.636681 156.0
60.702511 92.0
60.778519 68.0
60.828186 232.0
60.891846 140.0
60.922913 176.0
60.958652 168.0
60.980408 124.0
60.992844 176.0
61.003727 64.0
61.030155 180.0
61.064369 240.0
61.330624 136.0
61.403908 124.0
61.451496 148.0
61.49284 176.0
61.51001 192.0
61.583614 176.0
61.705292 224.0
61.731876 176.0
61.769413 64.0
61.789749 216.0
61.833565 164.0
61.867264 144.0
61.876495 132.0
61.907146 72.0
61.930641 104.0
61.969807 136.0
61.998013 200.0
62.010551 124.0
62.040333 152.0
62.131294 188.0
62.145416 168.0
62.175232 88.0
62.214474 244.0
62.242432 160.0
62.26387 180.0
62.292995 72.0
62.338463 192.0
62.442322 96.0
62.470634 212.0
62.48637 144.0
62.513119 184.0
62.533577 172.0
62.554043 200.0
62.56506 52.0
62.586067 164.0
62.631203 164.0
62.711563 68.0
62.755634 180.0
62.803013 228.0
62.823521 164.0
62.867702 144.0
62.886642 168.0
62.933277 192.0
62.968742 152.0
63.054131 180.0
63.112553 376.0
63.148926 140.0
63.180565 268.0
63.321445 132.0
63.34996 116.0
63.370556 184.0
63.417255 128.0
63.430779 132.0
63.449802 236.0
63.506889 176.0
63.535446 148.0
63.546551 124.0
63.570354 176.0
63.622734 64.0
63.657665 128.0
63.745037 144.0
63.764107 188.0
63.784771 152.0
63.810207 164.0
64.020248 124.0
64.077599 176.0
64.134964 124.0
64.149315 116.0
64.281693 208.0
64.312607 164.0
64.371094 84.0
64.465347 44.0
64.514893 168.0
64.543671 136.0
64.570282 132.0
64.617767 224.0
64.670059 164.0
64.727692 148.0
64.756523 140.0
64.819176 184.0
64.85907 28.0
64.934433 192.0
64.945656 148.0
65.048355 184.0
65.078857 144.0
65.106155 188.0
65.127304 48.0
65.146317 180.0
65.159683 200.0
65.188087 156.0
65.220238 168.0
65.271683 188.0
65.291885 276.0
65.344063 200.0
65.356934 184.0
65.423599 200.0
65.439026 328.0
65.479439 168.0
65.513107 228.0
65.555 196.0
65.571121 132.0
65.600136 160.0
65.61142 188.0
65.661407 116.0
65.72271 204.0
65.742073 112.0
65.785652 196.0
65.811485 244.0
65.835709 200.0
65.850243 196.0
66.091438 280.0
66.1073 124.0
66.129959 128.0
66.183388 80.0
66.225494 152.0
66.241692 96.0
66.267609 204.0
66.287056 40.0
66.303261 168.0
66.332436 276.0
66.408653 48.0
66.447586 164.0
66.462189 144.0
66.473541 360.0
66.501137 124.0
66.52224 188.0
66.559578 172.0
66.572571 136.0
66.626175 156.0
66.655418 200.0
66.675797 148.0
66.704178 152.0
66.718811 176.0
66.803375 196.0
66.832664 128.0
66.873344 68.0
66.884743 140.0
66.949867 180.0
67.006882 268.0
67.173172 100.0
67.25145 148.0
67.272713 84.0
67.321037 236.0
67.334763 152.0
67.519447 164.0
67.606155 56.0
67.692924 132.0
67.719124 184.0
67.789574 172.0
67.835464 148.0
67.866615 156.0
67.92588 180.0
67.943703 216.0
67.958473 192.0
67.981895 204.0
67.993996 160.0
68.055313 184.0
68.083229 148.0
68.12101 240.0
68.213036 64.0
68.306763 104.0
68.349541 80.0
68.443367 164.0
68.482895 216.0
68.550446 204.0
68.580109 100.0
68.644409 200.0
68.728531 68.0
68.778046 172.0
68.792587 168.0
68.86721 116.0
68.883102 200.0
68.912933 260.0
69.088722 128.0
69.136703 176.0
69.229416 116.0
69.315559 164.0
69.366936 48.0
69.418335 200.0
69.516289 176.0
69.53009 204.0
69.584267 196.0
69.672295 152.0
69.699135 152.0
69.778656 184.0
69.810692 152.0
69.881966 180.0
69.908401 160.0
69.935036 204.0
69.988304 196.0
70.025696 248.0
70.098251 116.0
70.138245 176.0
70.151581 172.0
70.163254 176.0
70.191597 180.0
70.204941 124.0
70.253311 152.0
70.278336 300.0
70.320061 228.0
70.331741 180.0
70.360374 104.0
70.520485 156.0
70.660957 164.0
70.716179 108.0
70.786499 292.0
70.813293 160.0
70.858521 244.0
70.970825 232.0
71.061394 116.0
71.098564 188.0
71.11174 100.0
71.146996 180.0
71.209122 88.0
71.222557 96.0
71.320015 204.0
71.395676 204.0
71.419228 224.0
71.444458 48.0
71.466331 156.0
71.488205 36.0
71.506721 68.0
71.585846 176.0
71.611107 68.0
71.658279 120.0
71.670074 196.0
71.702087 248.0
71.780136 172.0
71.820686 256.0
71.835297 228.0
71.897728 60.0
71.9207 328.0
71.960182 164.0
72.005783 124.0
72.078423 196.0
72.108841 160.0
72.174774 196.0
72.205215 172.0
72.244118 184.0
72.30352 192.0
72.376137 156.0
72.389679 136.0
72.437103 172.0
72.477768 156.0
72.493019 40.0
72.530304 184.0
72.591339 144.0
72.660889 184.0
72.682945 148.0
72.747437 156.0
72.766815 192.0
72.83744 204.0
72.862923 124.0
72.932602 164.0
73.022713 136.0
73.083954 180.0
73.140121 236.0
73.215034 172.0
73.312729 116.0
73.356461 188.0
73.382034 252.0
73.399086 188.0
73.416672 76.0
73.504845 308.0
73.574821 104.0
73.602142 176.0
73.665337 136.0
73.762741 188.0
73.888214 108.0
73.92009 56.0
73.956032 236.0
73.966934 184.0
74.021088 112.0
74.089607 116.0
74.101593 216.0
74.11702 156.0
74.154716 208.0
74.2696 132.0
74.334793 196.0
74.429207 172.0
74.442947 168.0
74.588989 288.0
74.734398 136.0
74.757538 124.0
74.807457 136.0
74.87719 200.0
74.919548 184.0
74.953857 156.0
74.991768 144.0
75.003838 120.0
75.031418 160.0
75.050385 104.0
75.066139 204.0
75.098671 196.0
75.140076 132.0
75.15461 160.0
75.184937 140.0
75.230652 124.0
75.291977 184.0
75.342072 156.0
75.380081 124.0
75.449219 112.0
75.492676 92.0
75.578941 184.0
75.613556 204.0
75.641251 212.0
75.689728 44.0
75.714806 140.0
75.733025 120.0
75.751953 112.0
75.914619 252.0
75.927139 176.0
76.017349 80.0
76.031235 156.0
76.078102 80.0
76.133667 216.0
76.309204 180.0
76.33004 196.0
76.366562 172.0
76.415268 64.0
76.439629 80.0
76.502289 176.0
76.594421 176.0
76.619049 176.0
76.653816 68.0
76.701836 160.0
76.718307 144.0
76.740974 172.0
76.854347 144.0
76.896233 188.0
76.932892 212.0
77.006233 188.0
77.042915 172.0
77.104073 240.0
77.11805 160.0
77.130287 140.0
77.172249 216.0
77.212471 184.0
77.29644 180.0
77.378708 104.0
77.520798 232.0
77.552132 120.0
77.590698 44.0
77.648567 196.0
77.70295 172.0
77.720085 188.0
77.75042 188.0
77.866203 184.0
77.908356 184.0
78.071831 152.0
78.145706 88.0
78.158028 100.0
78.175621 208.0
78.290054 48.0
78.390465 192.0
78.425713 76.0
78.452156 204.0
78.4645 156.0
78.556168 196.0
78.610901 180.0
78.64267 136.0
78.662086 52.0
78.722115 164.0
78.750374 152.0
78.792473 168.0
78.934174 144.0
79.006691 172.0
79.059776 248.0
79.082787 88.0
79.116295 180.0
79.36512 184.0
79.401703 56.0
79.417664 156.0
79.45475 124.0
79.483307 208.0
79.511703 60.0
79.531227 176.0
79.563721 312.0
79.639542 164.0
79.65696 208.0
79.712379 128.0
79.728378 144.0
79.756813 172.0
79.769257 140.0
79.870613 176.0
79.897484 192.0
80.020103 236.0
80.052155 204.0
80.217094 140.0
80.254501 180.0
80.412354 200.0
80.440842 108.0
80.504524 144.0
80.544998 172.0
80.569832 140.0
80.64193 216.0
80.665924 84.0
80.680229 56.0
80.708832 116.0
80.721352 84.0
80.746391 52.0
80.771431 160.0
80.787529 176.0
80.859108 144.0
80.932503 176.0
80.962334 164.0
80.980858 100.0
81.018471 164.0
81.031013 168.0
81.05925 148.0
81.072357 152.0
81.160065 172.0
81.174408 144.0
81.226425 232.0
81.244362 172.0
81.267685 164.0
81.409492 172.0
81.43644 164.0
81.488533 196.0
81.542442 176.0
81.585587 120.0
81.61615 88.0
81.637726 136.0
81.724075 176.0
81.77626 168.0
81.790657 140.0
81.826668 136.0
81.850189 120.0
81.893295 120.0
82.028442 176.0
82.210609 152.0
82.230461 48.0
82.270172 80.0
82.309891 168.0
82.333374 152.0
82.367645 160.0
82.379265 264.0
82.398399 140.0
82.441765 180.0
82.481529 220.0
82.524918 148.0
82.727554 120.0
82.74469 136.0
82.781868 184.0
82.81266 148.0
82.830513 112.0
82.848885 176.0
82.870628 120.0
82.926804 156.0
82.979378 164.0
83.017456 168.0
83.13356 184.0
83.15715 68.0
83.19281 212.0
83.217056 172.0
83.315132 176.0
83.335121 192.0
83.369644 228.0
83.387817 100.0
83.405998 220.0
83.460541 164.0
83.535103 180.0
83.555412 196.0
83.647934 212.0
83.693443 68.0
83.709137 156.0
83.729164 256.0
83.789978 160.0
83.86338 228.0
83.877457 200.0
83.955856 88.0
83.995979 200.0
84.061661 152.0
84.109116 176.0
84.133606 192.0
84.163887 188.0
84.183975 168.0
84.249733 124.0
84.293579 180.0
84.322823 164.0
84.370346 124.0
84.509346 196.0
84.58255 160.0
84.608185 212.0
84.699745 172.0
84.79319 132.0
84.823784 168.0
84.919701 204.0
84.938042 176.0
85.062828 152.0
85.115967 144.0
85.122169 212.0
85.254959 172.0
85.270386 172.0
85.406448 192.0
85.432198 140.0
85.564713 132.0
85.633705 168.0
85.697319 140.0
85.743385 200.0
85.784897 100.0
85.835564 196.0
85.892738 180.0
85.938354 160.0
86.040894 156.0
86.079147 180.0
86.173355 208.0
86.226898 160.0
86.338814 188.0
86.439613 156.0
86.463676 204.0
86.706291 132.0
86.75634 56.0
86.784149 56.0
86.828659 160.0
86.878052 184.0
86.931923 196.0
87.084267 156.0
87.118225 148.0
87.140518 196.0
87.233444 116.0
87.363617 152.0
87.415718 168.0
87.447357 160.0
87.536713 196.0
87.642891 132.0
87.81813 144.0
87.950615 188.0
88.015953 44.0
88.049568 128.0
88.109344 228.0
88.248573 204.0
88.326195 140.0
88.355057 160.0
88.401039 152.0
88.44783 160.0
88.631363 92.0
88.646355 184.0
88.807587 228.0
88.871376 120.0
88.922043 168.0
88.952072 120.0
89.002762 152.0
89.030937 176.0
89.049713 188.0
89.130493 52.0
89.143654 192.0
89.162399 160.0
89.210503 212.0
89.277122 176.0
89.348602 148.0
89.393761 140.0
89.453987 216.0
89.478462 56.0
89.497292 160.0
89.514236 148.0
89.533073 112.0
89.71019 124.0
89.7743 136.0
89.828995 220.0
89.859184 168.0
89.901657 180.0
89.942215 116.0
89.978088 128.0
90.053619 196.0
90.115959 112.0
90.216553 160.0
90.279137 160.0
90.343346 192.0
90.382568 220.0
90.412842 108.0
90.437775 208.0
90.453293 184.0
90.54158 176.0
90.562416 120.0
90.619247 180.0
90.649567 228.0
90.685577 272.0
90.71022 176.0
90.774681 68.0
90.823303 132.0
90.875214 192.0
90.941635 160.0
90.998589 176.0
91.055557 160.0
91.11824 200.0
91.198959 184.0
91.346375 160.0
91.550034 192.0
91.576691 132.0
91.603363 124.0
91.683388 220.0
91.742477 148.0
91.790146 164.0
91.828285 136.0
91.889328 188.0
91.963753 216.0
92.074493 140.0
92.12606 116.0
92.219696 140.0
92.269402 132.0
92.309555 132.0
92.365013 160.0
92.453026 48.0
92.531509 188.0
92.600449 224.0
92.736488 312.0
92.855362 104.0
92.877319 220.0
92.926338 100.0
92.939766 144.0
93.008858 184.0
93.029976 152.0
93.101013 112.0
93.114456 152.0
93.172859 196.0
93.235497 228.0
93.291237 228.0
93.327766 288.0
93.347 128.0
93.368149 136.0
93.487427 212.0
93.510529 152.0
93.55761 312.0
93.603256 168.0
93.627968 152.0
93.649155 108.0
93.768608 180.0
93.859215 136.0
93.872719 216.0
93.891998 324.0
93.953728 220.0
94.061707 176.0
94.13591 412.0
94.333229 148.0
94.355438 80.0
94.437096 208.0
94.466629 192.0
94.560486 116.0
94.612747 168.0
94.628235 228.0
94.778824 204.0
94.868477 64.0
94.953789 220.0
94.982887 148.0
95.023628 116.0
95.039146 72.0
95.110397 196.0
95.182793 156.0
95.256592 164.0
95.336258 144.0
95.373184 200.0
95.408218 164.0
95.429558 92.0
95.46067 180.0
95.480118 52.0
95.501511 84.0
95.532639 220.0
95.575439 68.0
95.649399 120.0
95.725151 180.0
95.744804 148.0
95.894821 128.0
95.918213 80.0
95.945068 160.0
95.965004 112.0
96.005539 264.0
96.012512 208.0
96.042297 172.0
96.081001 1760.0
96.119095 312.0
96.152267 144.0
96.208878 148.0
96.230354 140.0
96.286987 172.0
96.324097 164.0
96.363167 52.0
96.389038 232.0
96.417885 156.0
96.431442 128.0
96.47261 52.0
96.499985 176.0
96.58799 176.0
96.617332 276.0
96.65451 160.0
96.711639 356.0
96.759132 176.0
96.773911 164.0
96.799362 80.0
96.87291 152.0
97.088295 1912.0
97.117912 156.0
97.144318 144.0
97.16198 176.0
97.230652 128.0
97.318993 68.0
97.360229 208.0
97.476135 188.0
97.5233 92.0
97.539024 144.0
97.55397 160.0
97.574409 44.0
97.613937 196.0
97.670235 176.0
97.719955 136.0
97.808517 132.0
97.849854 156.0
97.887268 40.0
97.926659 212.0
97.969994 160.0
98.058662 72.0
98.095978 6076.0
98.13752 60.0
98.151321 28.0
98.165123 84.0
98.198647 204.0
98.265724 136.0
98.285454 68.0
98.309135 64.0
98.336761 72.0
98.350578 116.0
98.405853 184.0
98.518745 200.0
98.540161 68.0
98.591003 236.0
98.613281 188.0
98.629089 152.0
98.735863 200.0
98.809052 140.0
98.886223 232.0
99.012932 204.0
99.054962 184.0
99.074341 36.0
99.101517 552.0
99.181351 48.0
99.270569 140.0
99.310234 188.0
99.383636 200.0
99.415382 52.0
99.51265 140.0
99.532509 208.0
99.584145 212.0
99.615402 184.0
99.655655 152.0
99.739128 156.0
99.76915 196.0
99.903015 192.0
99.934021 192.0
99.959885 200.0
100.011635 140.0
100.029549 132.0
100.083305 124.0
100.127113 188.0
100.182884 116.0
100.228493 148.0
100.304443 136.0
100.349228 224.0
100.378212 48.0
100.402924 144.0
100.542381 192.0
100.599686 160.0
100.697525 204.0
100.729485 88.0
100.805405 120.0
100.882401 160.0
100.939339 68.0
100.961342 128.0
101.063362 172.0
101.149414 160.0
101.41983 164.0
101.640442 136.0
101.706665 172.0
101.722725 124.0
101.756859 148.0
101.809067 124.0
101.831154 128.0
101.907494 200.0
101.932434 136.0
102.00396 84.0
102.022865 228.0
102.046181 208.0
102.088791 188.0
102.140701 152.0
102.162827 196.0
102.178925 140.0
102.217155 172.0
102.26545 164.0
102.341949 104.0
102.356049 212.0
102.382225 140.0
102.410423 184.0
102.425346 264.0
102.476906 32.0
102.556488 204.0
102.611938 156.0
102.642189 212.0
102.72084 96.0
102.747299 176.0
102.906517 156.0
102.958176 192.0
103.035774 180.0
103.062042 224.0
103.122665 76.0
103.205551 96.0
103.225777 168.0
103.289047 168.0
103.326904 120.0
103.341072 120.0
103.357254 184.0
103.387611 136.0
103.472626 244.0
103.647675 136.0
103.665054 40.0
103.709641 156.0
103.727043 192.0
103.825211 160.0
103.865776 176.0
103.898232 120.0
104.042328 168.0
104.078873 152.0
104.164169 96.0
104.218643 148.0
104.256248 176.0
104.322678 140.0
104.347076 216.0
104.389778 172.0
104.408081 196.0
104.428413 132.0
104.452827 108.0
104.473167 112.0
104.589157 268.0
104.778549 96.0
104.839676 72.0
104.88044 196.0
104.895805 156.0
104.956772 200.0
104.996971 156.0
105.033676 22736.0
105.108856 60.0
105.152054 192.0
105.168045 124.0
105.184372 96.0
105.202744 60.0
105.227242 96.0
105.260826 188.0
105.303856 120.0
105.324318 112.0
105.339859 168.0
105.420372 160.0
105.444359 168.0
105.488747 44.0
105.53624 208.0
105.588936 104.0
105.60939 76.0
105.64212 164.0
105.693268 60.0
105.80584 108.0
105.902542 144.0
105.945099 124.0
106.035858 1000.0
106.151955 152.0
106.189034 160.0
106.205444 160.0
106.232109 164.0
106.338806 252.0
106.406548 144.0
106.420921 108.0
106.471748 204.0
106.519501 148.0
106.540047 96.0
106.566757 96.0
106.599632 72.0
106.633682 204.0
106.651009 76.0
106.695671 264.0
106.7239 264.0
106.768204 96.0
106.847 248.0
106.871063 124.0
106.936913 196.0
106.961617 192.0
106.994995 148.0
107.038582 240.0
107.078979 172.0
107.105751 56.0
107.12635 172.0
107.159317 128.0
107.206711 148.0
107.256172 124.0
107.410828 204.0
107.427284 172.0
107.447662 192.0
107.524307 240.0
107.565643 172.0
107.714272 56.0
107.738571 152.0
107.880447 164.0
107.923004 160.0
107.943687 200.0
108.080208 188.0
108.09565 168.0
108.111252 176.0
108.249901 184.0
108.260429 192.0
108.35144 64.0
108.504807 176.0
108.562866 108.0
108.766197 100.0
108.789032 192.0
108.87001 144.0
108.926086 208.0
108.967232 232.0
109.06739 144.0
109.098572 176.0
109.20462 136.0
109.287834 256.0
109.406471 164.0
109.421043 212.0
109.612671 96.0
109.662682 264.0
109.689041 252.0
109.735649 380.0
109.915031 112.0
110.015213 152.0
110.038177 64.0
110.056969 216.0
110.094559 116.0
110.13456 156.0
110.320221 184.0
110.336945 148.0
110.385033 232.0
110.487526 132.0
110.525185 112.0
110.546112 216.0
110.56076 216.0
110.59539 168.0
110.615181 172.0
110.659142 136.0
110.69474 140.0
110.807846 140.0
110.862328 208.0
110.879097 244.0
111.004883 140.0
111.081055 188.0
111.106567 392.0
111.16851 124.0
111.212578 164.0
111.22937 128.0
111.27346 148.0
111.336456 76.0
111.411156 192.0
111.437286 48.0
111.456192 156.0
111.554977 36.0
111.662216 60.0
111.773712 152.0
111.863976 108.0
111.893684 96.0
111.91053 136.0
111.956024 132.0
111.990555 148.0
112.111458 1028.0
112.359459 128.0
112.401657 160.0
112.424873 88.0
112.448082 164.0
112.477638 104.0
112.505081 52.0
112.526192 56.0
112.553642 212.0
112.600098 184.0
112.667694 144.0
112.712067 404.0
112.747986 52.0
112.849457 216.0
112.907654 176.0
112.972122 140.0
113.054718 108.0
113.105438 136.0
113.188004 192.0
113.238831 204.0
113.262131 72.0
113.296028 136.0
113.342125 264.0
113.370735 216.0
113.421051 148.0
113.45285 228.0
113.631004 156.0
113.689575 192.0
113.762581 176.0
113.870872 228.0
113.981346 168.0
114.036598 44.0
114.090675 5908.0
114.128014 192.0
114.191811 184.0
114.221588 72.0
114.253502 132.0
114.278717 164.0
114.349251 156.0
114.428017 188.0
114.498291 140.0
114.628242 172.0
114.658073 152.0
114.775322 192.0
114.869919 136.0
114.903297 148.0
114.954506 52.0
115.003593 116.0
115.053894 284.0
115.096909 2312.0
115.274826 88.0
115.298332 84.0
115.358185 132.0
115.440147 84.0
115.473648 84.0
115.659798 104.0
115.70784 172.0
115.803261 152.0
115.828964 88.0
115.861099 172.0
115.93264 132.0
116.032547 172.0
116.049706 76.0
116.085281 196.0
116.107536 1268.0
116.212715 220.0
116.329727 176.0
116.3694 176.0
116.386574 72.0
116.481293 192.0
116.685234 220.0
116.721786 40.0
116.807816 148.0
116.829323 172.0
116.875206 196.0
116.895279 184.0
116.971352 192.0
116.999344 140.0
117.014412 112.0
117.051018 264.0
117.076859 220.0
117.111313 184.0
117.193176 128.0
117.21257 76.0
117.231964 172.0
117.290161 116.0
117.337585 192.0
117.361305 160.0
117.415215 172.0
117.443253 64.0
117.495026 232.0
117.542496 104.0
117.68338 208.0
117.751846 148.0
117.837547 136.0
117.851273 188.0
117.921921 156.0
117.972305 216.0
118.029381 200.0
118.07177 148.0
118.251343 204.0
118.329269 88.0
118.428886 164.0
118.46788 140.0
118.504707 172.0
118.535042 88.0
118.639084 108.0
118.688568 68.0
118.799744 144.0
118.845123 140.0
118.953636 124.0
118.973175 96.0
119.003571 132.0
119.073059 112.0
119.162125 224.0
119.190369 156.0
119.216988 208.0
119.238182 168.0
119.267509 316.0
119.353394 156.0
119.372963 200.0
119.457794 124.0
119.501305 176.0
119.656113 156.0
119.690666 116.0
119.721153 136.0
119.834427 240.0
119.923775 28.0
119.939034 164.0
120.104752 180.0
120.218201 180.0
120.258057 184.0
120.349174 180.0
120.376595 176.0
120.395035 120.0
120.484589 100.0
120.517365 80.0
120.624451 144.0
120.760025 160.0
120.777519 164.0
120.896851 140.0
121.011681 192.0
121.121178 92.0
121.160614 140.0
121.20005 244.0
121.230461 132.0
121.259216 188.0
121.282127 156.0
121.307442 140.0
121.351288 92.0
121.421463 140.0
121.460938 152.0
121.498238 48.0
121.522369 152.0
121.542114 68.0
121.575035 200.0
121.596977 148.0
121.649658 192.0
121.686981 180.0
121.761642 100.0
121.822113 196.0
121.869286 212.0
121.884666 156.0
122.093506 160.0
122.108894 152.0
122.137489 188.0
122.18589 128.0
122.263802 176.0
122.289314 148.0
122.322334 76.0
122.374603 140.0
122.463257 132.0
122.498497 128.0
122.559578 116.0
122.618675 160.0
122.642578 156.0
122.699043 148.0
122.754166 204.0
122.778427 204.0
122.970367 112.0
123.074127 192.0
123.091789 48.0
123.135963 164.0
123.166885 204.0
123.195602 68.0
123.319344 72.0
123.359131 188.0
123.396713 136.0
123.467476 148.0
123.496231 152.0
123.533836 164.0
123.567017 156.0
123.656326 168.0
123.682091 104.0
123.752937 176.0
123.821587 44.0
123.870193 152.0
123.910042 180.0
123.961151 140.0
124.027641 224.0
124.083061 200.0
124.110542 628.0
124.178413 188.0
124.360352 56.0
124.378113 112.0
124.431389 168.0
124.472466 208.0
124.529099 228.0
124.655731 108.0
124.709068 180.0
124.809113 116.0
124.835793 108.0
124.911415 132.0
124.93811 136.0
124.978157 220.0
125.036018 64.0
125.120773 400.0
125.265541 148.0
125.298775 144.0
125.316597 108.0
125.381218 252.0
125.508286 360.0
125.541733 100.0
125.60865 172.0
125.682274 204.0
125.72467 52.0
125.795082 168.0
125.84861 168.0
125.896568 68.0
125.961342 156.0
125.992546 128.0
126.008255 188.0
126.101364 152.0
126.128212 5860.0
126.211655 164.0
126.256378 220.0
126.276794 188.0
126.341377 200.0
126.359055 204.0
126.433121 168.0
126.460617 84.0
126.486832 36.0
126.520416 172.0
126.598785 52.0
126.675964 160.0
126.733185 96.0
126.818344 164.0
126.843002 196.0
126.90715 176.0
126.966316 160.0
127.100914 176.0
127.129486 672.0
127.217628 240.0
127.246811 176.0
127.293968 160.0
127.322502 212.0
127.35685 160.0
127.377647 184.0
127.523117 160.0
127.554588 172.0
127.56916 64.0
127.584877 152.0
127.689499 156.0
127.716484 152.0
127.792976 184.0
127.833481 156.0
127.857773 136.0
127.905502 104.0
127.961777 128.0
127.987717 208.0
128.032166 200.0
128.060547 208.0
128.105743 368.0
128.142578 1940.0
128.231537 96.0
128.25238 196.0
128.479996 180.0
128.520752 128.0
128.544693 164.0
128.588455 64.0
128.710358 96.0
128.809738 96.0
128.94722 156.0
128.995026 72.0
129.017639 204.0
129.112274 108.0
129.14653 192.0
129.180466 116.0
129.234756 168.0
129.307175 116.0
129.436218 56.0
129.566055 152.0
129.601578 156.0
129.624237 152.0
129.710358 48.0
129.81012 148.0
129.835052 128.0
129.896301 48.0
130.005203 84.0
130.093735 376.0
130.186829 208.0
130.211807 204.0
130.293579 224.0
130.336746 40.0
130.534515 88.0
130.625488 244.0
130.657333 176.0
130.721039 144.0
130.750626 96.0
130.789322 288.0
130.88266 176.0
130.978317 120.0
131.05806 60.0
131.074005 84.0
131.105911 144.0
131.213043 96.0
131.229004 200.0
131.318695 260.0
131.441132 176.0
131.498398 212.0
131.701385 212.0
131.758499 200.0
131.817062 188.0
131.851791 208.0
131.936768 160.0
132.028229 172.0
132.068298 152.0
132.108276 136.0
132.270416 160.0
132.330276 152.0
132.362335 124.0
132.469604 144.0
132.506638 116.0
132.578262 92.0
132.933121 124.0
132.95607 96.0
132.992798 136.0
133.025726 460.0
133.0961 152.0
133.125961 96.0
133.206345 204.0
133.289261 220.0
133.351105 144.0
133.390182 200.0
133.449951 144.0
133.551147 112.0
133.60405 200.0
133.698212 160.0
133.726013 156.0
133.753632 168.0
133.821381 176.0
134.149841 84.0
134.200562 92.0
134.237457 148.0
134.33432 180.0
134.377518 144.0
134.449692 124.0
134.54895 108.0
134.595123 96.0
134.722153 220.0
134.74295 44.0
134.88855 188.0
134.913971 196.0
134.930161 176.0
134.999527 156.0
135.045776 116.0
135.117493 44.0
135.274857 108.0
135.291061 120.0
135.392944 88.0
135.409149 124.0
135.436951 132.0
135.545837 184.0
135.592194 196.0
135.63855 160.0
135.665115 200.0
135.76767 144.0
135.789261 164.0
135.82869 168.0
135.87973 236.0
135.944702 140.0
135.981827 128.0
136.025925 132.0
136.044495 140.0
136.062164 172.0
136.160599 80.0
136.300964 200.0
136.3302 188.0
136.476639 124.0
136.51152 236.0
136.578964 120.0
136.611542 100.0
136.648758 108.0
136.848923 128.0
136.90947 184.0
136.960709 36.0
136.989868 172.0
137.02449 304.0
137.042252 128.0
137.121475 80.0
137.191681 200.0
137.291672 108.0
137.307999 196.0
137.396637 240.0
137.412964 164.0
137.454956 132.0
137.552063 132.0
137.588013 208.0
137.606689 152.0
137.66272 216.0
137.681412 212.0
137.762711 168.0
137.81456 124.0
137.933746 180.0
137.993973 196.0
138.120819 168.0
138.160583 236.0
138.183975 188.0
138.286942 80.0
138.394623 168.0
138.426437 48.0
138.609283 188.0
138.647629 184.0
138.900848 204.0
139.001724 128.0
139.06041 220.0
139.151947 104.0
139.18248 144.0
139.203613 148.0
139.221344 156.0
139.237915 172.0
139.258224 140.0
139.365692 180.0
139.424438 156.0
139.452637 176.0
139.511414 164.0
139.546677 168.0
139.638382 180.0
139.701889 128.0
139.730118 140.0
139.774826 52.0
139.80307 160.0
139.918411 196.0
139.9702 252.0
139.989044 88.0
140.057343 200.0
140.18222 172.0
140.283569 240.0
140.359009 192.0
140.386612 148.0
140.465134 216.0
140.482758 168.0
140.679886 140.0
140.743622 64.0
140.771973 220.0
140.806976 168.0
140.833374 112.0
140.869843 164.0
140.944412 136.0
140.970398 172.0
141.046036 140.0
141.067307 116.0
141.228104 120.0
141.25412 112.0
141.270676 76.0
141.308533 132.0
141.353485 176.0
141.42923 120.0
141.459991 176.0
141.545227 196.0
141.632858 56.0
141.661285 156.0
141.715775 64.0
141.744202 128.0
141.806473 304.0
141.815659 188.0
141.865723 192.0
141.905396 100.0
142.021027 200.0
142.085938 220.0
142.120422 1312.0
142.24411 196.0
142.341705 236.0
142.368103 192.0
142.408478 68.0
142.434601 180.0
142.476242 136.0
142.541519 148.0
142.584183 164.0
142.631836 116.0
142.657974 192.0
142.714798 200.0
142.742981 80.0
142.787567 168.0
142.848221 60.0
142.898178 308.0
142.942993 248.0
143.045273 144.0
143.090973 156.0
143.127747 360.0
143.219559 100.0
143.255295 116.0
143.305817 312.0
143.326767 232.0
143.359329 252.0
143.407791 204.0
143.451431 208.0
143.456955 64.0
143.466568 184.0
143.486465 164.0
143.51152 164.0
143.559143 412.0
143.593765 140.0
143.629547 184.0
143.64682 184.0
143.674088 208.0
143.692688 128.0
143.716049 312.0
143.737045 136.0
143.754822 196.0
143.787704 140.0
143.823334 260.0
143.85704 204.0
143.882217 160.0
143.913544 168.0
143.934723 188.0
143.953232 224.0
143.972733 184.0
143.998291 200.0
144.028885 340.0
144.048172 368.0
144.138992 246812.0
144.210052 220.0
144.22052 136.0
144.230988 384.0
144.269348 180.0
144.312073 520.0
144.330185 192.0
144.346191 220.0
144.365341 212.0
144.396713 312.0
144.417328 100.0
144.44455 140.0
144.485657 136.0
144.506042 172.0
144.53157 2796.0
144.566711 88.0
144.60614 204.0
144.643341 120.0
144.651016 80.0
144.682571 92.0
144.7005 84.0
144.722092 76.0
144.779282 100.0
144.801773 212.0
144.830276 60.0
144.867401 84.0
144.881287 208.0
144.914459 160.0
144.952988 64.0
144.97934 304.0
144.996429 128.0
145.013596 204.0
145.034744 84.0
145.053619 200.0
145.062561 176.0
145.14151 29432.0
145.200058 52.0
145.206696 84.0
145.234741 108.0
145.276932 224.0
145.312866 204.0
145.336929 132.0
145.365387 136.0
145.411667 240.0
145.44072 48.0
145.445724 44.0
145.50293 48.0
145.521515 116.0
145.558563 88.0
145.604187 56.0
145.640564 84.0
145.681442 80.0
145.694855 56.0
145.722198 124.0
145.79631 144.0
145.837143 192.0
145.865631 96.0
145.900772 204.0
145.943253 124.0
145.965164 300.0
145.999252 104.0
146.044968 276.0
146.060135 120.0
146.070023 192.0
146.079681 280.0
146.112488 84.0
146.141739 2072.0
146.191757 176.0
146.213501 316.0
146.254028 308.0
146.286285 260.0
146.316177 260.0
146.343674 116.0
146.404266 136.0
146.41153 128.0
146.513428 196.0
146.538986 88.0
146.564026 96.0
146.580902 36.0
146.626022 44.0
146.667664 112.0
146.689346 60.0
146.744797 44.0
146.778564 44.0
146.825363 88.0
146.881836 112.0
146.935333 144.0
146.989471 176.0
147.029449 60.0
147.046341 136.0
147.128403 124.0
147.145767 300.0
147.176697 48.0
147.28714 164.0
147.392242 152.0
147.432755 76.0
147.461761 44.0
147.502853 40.0
147.580215 44.0
147.689041 68.0
147.881866 52.0
147.916489 60.0
147.986694 164.0
148.265274 44.0
148.282242 48.0
148.371933 88.0
148.471344 64.0
148.578079 36.0
148.741104 176.0
148.832916 112.0
149.272736 92.0
149.354736 184.0
149.45517 100.0
149.656296 128.0
149.972061 100.0
150.049469 92.0
150.52771 84.0
150.632736 120.0
150.894226 112.0
150.984695 140.0
151.016495 152.0
151.256287 164.0
151.339523 56.0
151.635941 48.0
151.832077 116.0
152.062363 564.0
152.101974 48.0
152.131424 116.0
152.158432 164.0
152.254196 108.0
152.298401 132.0
152.354904 84.0
152.426163 120.0
152.488281 116.0
152.55397 116.0
152.695358 136.0
152.713806 52.0
152.822037 144.0
153.19133 132.0
153.224854 172.0
153.371216 232.0
153.82016 148.0
153.864395 96.0
154.002884 76.0
154.025116 132.0
154.054749 44.0
154.12146 156.0
154.14386 60.0
154.329086 36.0
154.4104 108.0
154.554993 40.0
154.591293 48.0
154.677917 68.0
155.081894 180.0
155.118851 32.0
155.418945 100.0
155.692001 132.0
155.76506 68.0
156.008636 52.0
156.029938 64.0
156.047348 164.0
156.097076 152.0
156.180344 116.0
156.510132 88.0
156.699432 56.0
156.88385 144.0
157.225586 92.0
157.260513 96.0
157.732605 112.0
157.765106 88.0
157.881851 128.0
157.910141 48.0
158.062744 120.0
158.135315 184.0
158.395721 36.0
158.423279 76.0
158.448334 84.0
158.483414 48.0
158.586151 136.0
158.678909 52.0
158.912155 112.0
158.992462 80.0
159.112946 116.0
159.286224 68.0
159.736191 52.0
159.902252 144.0
160.126328 200.0
160.516953 48.0
161.400742 144.0
161.605621 176.0
161.770126 140.0
161.841019 152.0
161.995514 140.0
162.223587 120.0
162.911301 60.0
163.002762 140.0
163.020554 136.0
163.05867 128.0
163.185776 44.0
163.307846 60.0
163.351089 64.0
163.636124 96.0
164.04628 120.0
164.44931 136.0
165.069717 1332.0
165.815094 100.0
166.076477 1548.0
166.151016 40.0
166.374283 188.0
166.613129 172.0
166.903564 40.0
166.924133 100.0
167.085617 3060.0
167.515717 108.0
167.559891 52.0
167.776382 96.0
168.01622 120.0
168.089935 848.0
168.25882 80.0
168.431839 136.0
168.56102 208.0
168.788498 172.0
168.865906 60.0
169.058945 124.0
169.097946 376.0
169.269806 84.0
169.370804 88.0
169.70253 72.0
170.603424 32.0
171.561447 120.0
171.725372 148.0
171.793549 68.0
172.133224 6224.0
172.177246 28.0
172.357483 144.0
172.548294 72.0
172.672073 128.0
172.828156 116.0
172.932831 124.0
173.135788 180.0
173.181564 76.0
173.328278 148.0
174.010239 196.0
174.14679 144.0
174.280777 96.0
174.441086 100.0
174.583069 112.0
175.32283 188.0
175.728912 128.0
176.714432 112.0
177.188354 88.0
177.236053 148.0
177.315552 76.0
177.771698 204.0
178.085175 160.0
178.146072 240.0
178.310806 248.0
179.066406 196.0
179.089157 340.0
179.420822 52.0
180.013153 124.0
180.301682 88.0
180.421967 96.0
180.552979 168.0
180.673355 116.0
180.702789 52.0
181.069519 136.0
181.096298 160.0
181.538513 120.0
181.935623 44.0
182.177307 200.0
182.239105 76.0
182.290161 120.0
182.357346 152.0
182.550919 128.0
182.846848 184.0
182.900681 244.0
182.932983 84.0
182.970673 124.0
183.011047 148.0
183.043365 320.0
183.079926 10648.0
183.119812 104.0
183.186111 56.0
183.356827 56.0
183.376282 76.0
183.41246 176.0
183.458282 92.0
183.525696 76.0
183.63356 92.0
183.661575 124.0
183.857498 132.0
183.887177 84.0
184.082626 1620.0
184.416565 124.0
185.231018 80.0
185.382751 104.0
185.534531 96.0
185.577911 92.0
185.746063 132.0
185.9767 132.0
186.123306 68.0
186.272675 84.0
186.346024 44.0
186.506363 148.0
186.699402 128.0
186.756516 116.0
186.775558 60.0
186.925186 68.0
187.042221 108.0
187.810623 124.0
188.088943 120.0
188.129898 152.0
188.200882 32.0
188.424835 76.0
189.196075 180.0
189.486389 100.0
189.615173 124.0
189.639847 112.0
190.515182 132.0
190.649826 148.0
190.877991 108.0
191.083054 296.0
191.101974 260.0
191.80304 136.0
192.147766 40.0
192.238815 112.0
192.296768 312.0
192.351974 148.0
192.592209 64.0
193.067581 164.0
193.089706 140.0
193.150558 132.0
193.413437 132.0
193.49649 92.0
193.571243 240.0
193.64325 200.0
193.698639 156.0
193.889832 68.0
194.073853 400.0
194.963852 120.0
195.083282 360.0
196.579056 176.0
196.673935 148.0
197.996414 100.0
198.024429 176.0
198.666336 76.0
199.090164 108.0
199.177231 176.0
199.34581 120.0
199.83226 84.0
201.32341 164.0
202.052673 196.0
202.313034 160.0
202.512665 168.0
203.080963 140.0
204.091949 132.0
204.120392 124.0
204.458923 128.0
204.666733 44.0
204.78064 108.0
204.826218 60.0
205.05986 112.0
205.097366 188.0
205.553223 56.0
206.347275 216.0
206.395889 184.0
207.34343 84.0
208.106476 140.0
208.140945 32.0
208.390839 176.0
208.974503 156.0
209.423584 180.0
210.265472 124.0
211.07045 200.0
211.094589 168.0
211.117737 172.0
211.433075 100.0
211.531479 184.0
211.963013 164.0
212.067352 152.0
213.158554 160.0
214.946487 136.0
215.770172 116.0
216.083099 148.0
216.302597 88.0
216.431412 156.0
216.785858 196.0
216.897232 64.0
217.325394 100.0
217.868561 120.0
218.103638 48.0
218.986343 180.0
219.269196 144.0
220.251709 128.0
220.601807 132.0
221.08844 236.0
221.218674 128.0
221.639236 124.0
222.698334 120.0
223.069763 148.0
223.126236 176.0
223.82843 192.0
223.980316 112.0
224.054794 144.0
225.280914 104.0
225.490082 56.0
226.181015 100.0
227.115891 184.0
227.97757 80.0
229.615311 112.0
231.11972 124.0
232.122345 120.0
232.477264 72.0
235.262314 68.0
236.203506 92.0
236.561539 120.0
237.164993 200.0
237.431732 100.0
238.134567 144.0
238.162201 180.0
238.192917 68.0
238.872269 60.0
239.128342 144.0
239.370865 104.0
239.450928 84.0
239.601868 88.0
239.703552 120.0
240.471451 40.0
241.859253 244.0
243.294525 44.0
243.69516 100.0
245.25116 96.0
245.562958 68.0
246.433914 140.0
248.162064 148.0
248.261963 108.0
248.415665 172.0
248.610184 104.0
248.6353 164.0
249.027756 140.0
249.118851 148.0
249.174026 184.0
249.889084 68.0
250.131409 140.0
250.764526 120.0
250.896912 104.0
251.253281 92.0
251.464706 176.0
251.540466 192.0
251.710953 100.0
251.98259 88.0
252.0047 164.0
253.00412 128.0
253.095932 84.0
253.517242 64.0
253.831085 136.0
254.110199 72.0
254.856339 172.0
254.935791 40.0
255.393616 120.0
255.555847 128.0
255.861389 200.0
255.890045 104.0
256.272247 180.0
256.708954 140.0
257.059845 152.0
257.197083 92.0
257.315216 144.0
258.213135 112.0
259.224762 60.0
259.426697 188.0
260.370056 88.0
260.527435 128.0
261.028839 116.0
263.782227 116.0
264.180939 164.0
264.325562 64.0
264.895386 172.0
265.268066 104.0
266.468811 112.0
267.190582 92.0
267.813477 160.0
268.027374 84.0
268.131653 148.0
268.503296 100.0
268.74469 100.0
269.744049 44.0
270.228058 172.0
270.827148 144.0
270.879547 152.0
271.017151 180.0
271.253113 140.0
271.728638 152.0
272.207855 104.0
272.500183 172.0
272.746674 84.0
273.167572 172.0
273.964233 192.0
274.283875 132.0
274.471802 56.0
274.577332 56.0
274.93692 160.0
275.224121 168.0
275.921265 80.0
276.937164 60.0
277.046478 180.0
277.321533 120.0
277.348022 64.0
277.72934 108.0
278.064056 168.0
278.197235 44.0
278.662201 100.0
278.868225 156.0
278.957977 196.0
279.599915 212.0
279.659821 168.0
279.902863 164.0
280.029419 52.0
280.200378 124.0
280.485901 124.0
280.705933 88.0
280.992798 172.0
281.814117 120.0
282.278748 128.0
282.315521 80.0
282.931213 232.0
283.081879 108.0
284.654602 160.0
284.876282 120.0
285.333344 160.0
285.373688 188.0
285.790741 100.0
285.821045 108.0
285.969116 96.0
287.168579 64.0
287.613953 44.0
289.97821 152.0
291.991547 136.0
292.110596 216.0
292.379395 168.0
292.675537 104.0
292.787933 124.0
293.305817 152.0
293.926514 52.0
294.189331 84.0
294.752869 92.0
294.961334 192.0
295.132294 124.0
295.17218 240.0
295.37851 192.0
295.594055 184.0
295.843933 44.0
295.997986 116.0
297.135956 140.0
297.475708 56.0
297.777863 108.0
297.874023 144.0
300.293823 84.0
300.366241 92.0
301.71994 136.0
303.485718 176.0
303.68338 104.0
303.780487 132.0
304.446899 176.0
305.381805 140.0
305.677521 192.0
305.872437 148.0
305.938568 72.0
307.360596 176.0
308.775421 200.0
309.597839 56.0
309.808777 180.0
309.864044 168.0
310.470459 44.0
310.782684 68.0
312.113922 80.0
312.493774 156.0
313.934448 76.0
314.693115 132.0
314.890869 168.0
315.512787 80.0
316.514069 128.0
316.545959 144.0
317.368042 144.0
319.235809 92.0
320.296448 160.0
320.745422 128.0
320.863037 160.0
321.255341 172.0
322.605225 120.0
323.277649 156.0
323.671417 144.0
323.943604 128.0
324.151428 180.0
324.753723 68.0
325.475037 108.0
325.967163 136.0
326.192169 132.0
326.227692 216.0
326.305023 64.0
326.671875 132.0
327.553802 160.0
327.989807 48.0
328.307098 152.0
328.34314 116.0
328.883057 112.0
329.054016 124.0
330.916016 112.0
333.07016 132.0
333.193665 176.0
333.542542 120.0
334.142578 48.0
334.16803 96.0
334.204437 80.0
334.721313 72.0
335.019958 112.0
335.428101 156.0
335.490082 152.0
335.657806 80.0
336.197052 688.0
337.19696 268.0
337.37381 96.0
337.75412 72.0
338.606934 36.0
339.952393 100.0
340.433289 176.0
340.679382 100.0
341.569 156.0
341.694061 120.0
341.892761 320.0
342.025269 200.0
342.511322 140.0
343.868195 132.0
344.85434 144.0
345.04657 128.0
346.112152 124.0
346.323242 200.0
346.582581 156.0
346.938385 128.0
347.531799 140.0
347.561462 92.0
347.602295 168.0
347.999451 164.0
348.274261 84.0
350.32016 120.0
350.573517 152.0
351.203613 68.0
351.281921 100.0
351.391907 152.0
351.461029 128.0
351.651337 124.0
352.047089 96.0
352.39447 140.0
352.803894 116.0
352.830658 136.0
352.884094 132.0
352.932709 120.0
352.985046 108.0
353.026184 40.0
353.078522 92.0
353.13089 72.0
353.18161 256.0
353.258087 156.0
353.329315 176.0
353.490051 108.0
353.557404 72.0
353.636566 132.0
353.695892 108.0
353.761322 136.0
353.822083 188.0
353.860596 60.0
353.901794 128.0
353.954224 120.0
353.989532 120.0
354.022247 424.0
354.059814 276.0
354.115234 300.0
354.206665 67456.0
354.341217 100.0
354.384094 76.0
354.43634 68.0
354.479187 168.0
354.505615 60.0
354.567322 84.0
354.586639 128.0
354.621063 64.0
354.673187 124.0
354.706329 160.0
354.737823 216.0
354.775177 88.0
354.826324 256.0
354.882263 132.0
354.960327 64.0
354.985168 96.0
355.053467 84.0
355.08316 132.0
355.144775 124.0
355.208405 10556.0
355.280701 140.0
355.311554 200.0
355.393585 92.0
355.454712 136.0
355.532013 72.0
355.614716 168.0
355.669006 92.0
355.761383 52.0
355.804749 52.0
355.836639 80.0
355.874023 28.0
355.913483 68.0
355.95285 84.0
356.099335 96.0
356.126892 100.0
356.159424 52.0
356.211823 1808.0
356.306396 108.0
356.332214 144.0
356.452454 68.0
356.501312 48.0
356.531372 44.0
356.575592 68.0
356.621582 44.0
356.660828 136.0
356.802032 96.0
356.837311 52.0
356.880981 28.0
356.914825 76.0
356.994995 136.0
357.027618 60.0
357.057709 80.0
357.097687 88.0
357.167725 48.0
357.212524 204.0
357.239349 276.0
357.328552 96.0
357.352509 76.0
357.381226 48.0
357.42218 104.0
357.504639 136.0
357.569397 120.0
357.614075 124.0
357.641388 184.0
357.706848 84.0
357.719269 44.0
357.733826 76.0
357.77771 60.0
357.835266 176.0
357.892761 128.0
358.017395 72.0
358.077637 64.0
358.152985 108.0
358.216705 116.0
358.227631 44.0
358.269745 44.0
358.375244 52.0
358.42218 76.0
358.446838 136.0
358.521545 116.0
358.586273 52.0
358.627747 48.0
358.670563 100.0
358.820007 164.0
358.861481 60.0
358.910492 40.0
358.940643 68.0
358.989685 92.0
359.04248 56.0
359.087738 68.0
359.163147 52.0
359.220551 120.0
359.268799 104.0
359.63858 136.0
359.940613 92.0
360.306976 68.0
360.469452 48.0
360.798279 144.0
361.638062 108.0
363.692413 36.0
364.02652 76.0
365.143829 56.0
366.443268 164.0
366.91449 156.0
367.79895 92.0
367.883484 76.0
368.525116 112.0
369.660767 88.0
369.729645 76.0
371.699371 92.0
373.22818 84.0
375.172485 68.0
378.518463 64.0
380.103882 116.0
381.859833 104.0
383.432739 72.0
383.920074 76.0
384.501373 84.0
385.634003 68.0
388.331665 72.0
388.504272 80.0
388.877045 60.0
393.842102 116.0
393.881622 120.0
396.88147 56.0
405.572449 88.0
407.04483 128.0
410.957306 172.0
422.536926 64.0
427.872314 36.0
430.531891 52.0
431.71701 88.0
433.253571 40.0
435.468658 48.0
435.564178 92.0
439.002014 92.0
439.59021 136.0
440.041016 80.0
447.011658 124.0
447.17157 120.0
449.118164 100.0
453.502869 88.0
467.305206 104.0
474.496368 68.0
484.327698 56.0
490.025482 40.0
491.988068 104.0
504.699585 40.0
506.449402 76.0
511.421387 112.0
516.016785 108.0
523.786133 64.0
528.593689 84.0
529.133789 64.0
534.315369 96.0
536.581299 60.0
540.710938 172.0
542.888367 48.0
550.342957 84.0
550.450378 56.0
555.824158 36.0
556.429626 80.0
559.019531 96.0
561.464539 40.0
564.316711 112.0
564.491638 76.0
573.726685 96.0
579.504883 52.0
580.214233 52.0
587.562927 112.0
590.427307 36.0
602.07666 68.0
603.894775 64.0
609.100281 112.0
609.778381 40.0
614.520569 84.0
615.725037 124.0
620.723267 56.0
630.835388 76.0
631.510437 140.0
638.024292 120.0
648.726868 80.0
652.804016 100.0
656.58783 92.0
663.460144 84.0
665.322388 36.0
679.126221 68.0
679.4375 144.0
689.481995 48.0
701.238342 92.0
712.291809 72.0
715.338806 76.0
719.614441 60.0
724.749207 164.0
727.065796 128.0
732.496277 156.0
736.228699 104.0
753.485901 56.0
756.35144 44.0
759.129211 220.0
764.353271 204.0
765.93335 172.0
767.619812 40.0
768.723083 56.0
774.118469 228.0
781.768188 72.0
790.512878 52.0
795.315918 156.0
798.096802 68.0
799.807007 200.0
802.657776 84.0
806.830261 144.0
817.32312 60.0
818.615295 236.0
818.934204 48.0
822.035583 140.0
823.64563 88.0
824.045532 200.0
825.663269 188.0
827.024963 80.0
827.299683 180.0
828.135742 172.0
830.657837 192.0
832.144165 132.0
838.869507 144.0
841.511841 216.0
841.754333 80.0
841.910217 212.0
843.360413 180.0
843.458679 168.0
846.814636 176.0
852.116699 216.0
853.093018 156.0
856.555481 188.0
858.782104 168.0
861.040833 168.0
862.910767 152.0
863.238159 60.0
863.44873 36.0
863.630005 168.0
864.65979 64.0
865.309509 128.0
866.070801 268.0
868.743835 168.0
872.308411 164.0
873.16687 112.0
874.820312 76.0
877.494995 180.0
879.837158 156.0
882.28894 128.0
882.679199 108.0
883.29425 148.0
884.945374 184.0
885.02832 148.0
885.57312 140.0
886.497314 84.0
887.558411 180.0
888.483704 120.0
889.830872 232.0
891.541626 228.0
893.593079 256.0
893.694214 140.0
896.367798 84.0
900.304993 188.0
900.711182 112.0
901.452026 172.0
903.784058 180.0
905.130859 132.0
906.310913 184.0
910.047668 228.0
911.044678 236.0
911.717651 120.0
916.64624 176.0
920.404236 264.0
921.346497 160.0
924.593567 144.0
927.040222 164.0
927.840271 172.0
929.538635 176.0
930.94696 192.0
936.865173 188.0
938.894897 136.0
941.183289 148.0
941.873413 164.0
942.496582 140.0
943.780151 52.0
947.189026 48.0
948.065186 188.0
948.377747 72.0
950.137695 164.0
959.424194 144.0
959.695496 128.0
960.484863 76.0
961.533813 76.0
962.200439 176.0
962.256042 140.0
962.63269 208.0
963.794006 180.0
964.010254 184.0
964.245117 136.0
965.419739 168.0
966.347595 124.0
967.213989 168.0
967.275879 172.0
968.514343 144.0
971.111389 180.0
972.023376 120.0
973.581543 164.0
973.82373 136.0
974.705933 220.0
975.308716 164.0
976.894409 220.0
977.056152 236.0
977.137024 68.0
977.84021 124.0
978.524963 156.0
979.932556 132.0
980.418579 104.0
982.014648 176.0
982.338989 220.0
982.582336 108.0
984.729675 136.0
987.185791 152.0
987.573547 40.0
988.317993 192.0
988.643372 216.0
989.588623 200.0
993.373901 152.0
993.549561 132.0
994.026428 160.0
994.497131 208.0
995.237915 152.0
996.682617 132.0
996.864807 152.0
996.984253 144.0
997.059631 216.0
999.153564 176.0
999.329712 116.0
1000.487793 260.0
1000.557007 104.0
1001.460388 176.0
1002.005554 172.0
1002.333191 192.0
1003.114746 148.0
1003.411011 176.0
1003.984863 168.0
1005.404297 156.0
1007.007935 144.0
1010.225342 184.0
1010.484741 104.0
1014.683838 180.0
1016.973877 116.0
1017.627686 200.0
1017.957886 180.0
1019.050415 216.0
1019.717651 172.0
1020.416931 116.0
1020.499573 228.0
1020.62677 120.0
1021.269043 112.0
1021.428101 140.0
1028.130859 164.0
1029.663086 188.0
1031.209229 184.0
1032.027588 240.0
1032.487793 216.0
1033.716553 236.0
1034.458618 148.0
1034.522705 112.0
1034.932983 200.0
1035.220581 128.0
1036.899048 180.0
1038.328857 168.0
1038.681519 132.0
1039.48999 160.0
1039.913574 156.0
1040.144653 188.0
1041.300415 216.0
1043.986816 156.0
1044.263306 152.0
1045.028809 172.0
1045.601562 156.0
1047.597656 184.0
1049.157227 228.0
1049.20874 196.0
1049.769653 160.0
1050.421143 176.0
1050.475708 180.0
1051.292114 204.0
1051.543823 176.0
1052.609009 140.0
1053.280762 160.0
1053.377686 264.0
1053.584351 144.0
1053.629639 36.0
1053.997925 188.0
1054.314453 164.0
1054.560059 176.0
1054.676514 112.0
1055.135376 212.0
1055.439331 72.0
1056.571167 48.0
1056.713501 188.0
1057.075928 112.0
1058.001465 188.0
1061.130615 180.0
1061.344604 48.0
1063.011719 168.0
1063.316772 128.0
1064.400879 144.0
1066.473999 140.0
1067.702148 76.0
1067.763672 140.0
1068.326538 224.0
1068.567261 180.0
1069.087891 152.0
1073.5177 140.0
1074.704956 176.0
1075.259644 180.0
1075.331421 208.0
1075.651245 200.0
1078.087402 160.0
1078.544922 152.0
1081.023682 84.0
1081.547241 184.0
1082.837158 52.0
1084.173706 132.0
1086.553833 200.0
1086.685059 192.0
1086.776978 168.0
1086.980347 188.0
1087.118164 204.0
1088.37854 212.0
1088.647705 236.0
1089.258545 240.0
1089.593628 180.0
1090.960571 160.0
1091.240845 180.0
1091.401123 216.0
1092.532349 160.0
1093.006104 192.0
1093.071899 184.0
1093.782715 84.0
1094.302734 176.0
1095.25769 160.0
1095.811035 152.0
1095.948364 264.0
1096.041626 276.0
1096.16687 156.0
1097.142334 132.0
1097.610474 64.0
1098.138062 224.0
1101.088257 120.0
1101.828125 152.0
1103.387817 192.0
1105.947876 168.0
1106.027344 232.0
1106.159668 160.0
1106.431152 156.0
1108.040527 60.0
1108.285645 176.0
1108.365112 184.0
1109.286377 160.0
1109.37915 148.0
1110.864624 52.0
1111.415283 168.0
1112.536987 144.0
1113.134521 148.0
1114.031128 216.0
1115.406738 104.0
1115.519775 244.0
1115.57959 52.0
1115.911987 144.0
1116.530396 176.0
1116.68335 96.0
1116.743286 180.0
1116.902832 124.0
1117.08252 252.0
1119.971436 104.0
1121.963867 148.0
1122.990845 140.0
1123.851318 116.0
1124.652222 152.0
1124.89917 256.0
1127.156616 164.0
1128.928101 160.0
1130.697998 168.0
1130.854858 204.0
1131.685059 144.0
1132.321167 228.0
1132.95752 164.0
1133.011108 88.0
1133.540405 200.0
1135.035278 152.0
1135.833374 120.0
1137.994385 228.0
1138.974854 164.0
1139.391357 64.0
1140.970703 192.0
1141.468262 40.0
1142.483887 136.0
1143.735474 180.0
1144.604004 196.0
1145.122559 216.0
1146.005005 224.0
1146.166748 152.0
1147.406982 140.0
1147.609131 164.0
1147.676636 228.0
1147.77771 100.0
1147.892334 208.0
1149.484375 252.0
1149.943237 232.0
1150.267334 144.0
1150.98291 200.0
1151.118042 152.0
1152.043335 148.0
1152.408081 144.0
1152.718994 152.0
1153.219116 172.0
1153.512573 208.0
1155.193604 80.0
1155.856567 100.0
1156.147583 124.0
1156.24231 216.0
1156.533325 216.0
1158.27356 112.0
1158.469971 164.0
1158.720703 80.0
1160.720215 220.0
1161.830933 136.0
1162.097168 148.0
1163.264404 140.0
1163.780396 76.0
1163.936646 116.0
1165.308594 160.0
1165.838623 144.0
1166.661133 116.0
1167.331299 200.0
1167.510986 152.0
1167.769531 144.0
1168.272827 164.0
1168.599365 192.0
1168.721924 204.0
1169.470459 188.0
1170.314697 176.0
1171.167725 180.0
1171.329346 212.0
1172.951172 180.0
1173.53064 236.0
1173.680664 204.0
1173.864746 184.0
1174.0625 152.0
1175.242676 36.0
1177.570557 220.0
1178.444946 160.0
1178.841309 160.0
1178.895874 128.0
1178.964233 28.0
1179.066772 192.0
1180.078491 168.0
1180.67334 132.0
1180.837524 112.0
1182.691772 176.0
1184.156982 40.0
1184.362427 216.0
1184.4104 172.0
1185.068115 188.0
1185.143433 176.0
1185.342163 220.0
1185.465576 156.0
1185.856567 148.0
1186.411377 184.0
1188.949341 236.0
1189.500244 184.0
1189.663208 184.0
1189.979004 140.0
1190.171265 32.0
1190.2948 180.0
1191.682373 208.0
1191.792236 96.0
1192.520752 68.0
1193.730713 176.0
1194.046997 156.0
1194.177734 120.0
1194.26709 172.0
1194.858765 172.0
1195.512451 124.0
1195.718872 180.0
1196.448486 68.0
1196.8479 120.0
1198.631958 136.0
1198.880005 136.0
1199.128174 224.0
1199.789917 108.0
1199.844971 192.0
1200.010498 32.0
1200.141479 40.0
1200.403564 220.0
1202.832153 236.0
1203.011597 200.0
1203.446533 212.0
1203.66748 96.0
1204.095703 208.0
1204.157837 124.0
1204.46521 96.0
1204.717285 176.0
1206.099365 32.0
1206.355103 160.0
1207.489136 120.0
1208.35376 136.0
1208.478394 192.0
1209.225708 188.0
1209.578735 208.0
1209.668701 128.0
1209.834839 84.0
1212.446167 176.0
1213.14624 172.0
1213.208618 136.0
1213.26416 192.0
1213.361206 136.0
1214.137817 212.0
1214.311157 156.0
1216.573242 188.0
1216.684326 140.0
1217.42041 200.0
1218.670776 212.0
1218.81665 80.0
1219.212769 168.0
1219.365601 96.0
1220.130249 216.0
1221.333374 172.0
1221.486328 72.0
1221.667236 244.0
1221.778564 32.0
1222.063843 208.0
1222.453491 152.0
1222.641357 160.0
1222.996338 224.0
1223.337402 236.0
1223.852661 136.0
1225.259521 140.0
1225.350098 168.0
1225.649658 164.0
1225.991211 44.0
1226.102661 204.0
1227.657349 120.0
1228.480347 172.0
1229.52002 164.0
1229.72937 84.0
1229.848022 152.0
1230.050415 220.0
1230.783569 172.0
1230.853394 92.0
1231.58667 116.0
1231.838135 48.0
1232.683472 164.0
1232.774414 228.0
1233.130859 112.0
1233.773926 140.0
1233.913696 64.0
1234.186401 156.0
1234.703857 132.0
1235.151489 192.0
1235.242432 156.0
1235.767212 152.0
1235.837158 192.0
1235.957886 212.0
1236.124023 144.0
1236.19397 64.0
1236.326904 220.0
1237.495972 180.0
1237.629028 208.0
1238.280273 80.0
1238.567383 232.0
1238.658447 144.0
1238.917725 100.0
1239.464233 156.0
1239.646362 192.0
1240.354248 120.0
1240.585571 152.0
1240.978149 252.0
1241.230591 120.0
1241.588257 224.0
1241.756592 236.0
1242.072266 236.0
1242.303711 156.0
1242.7948 196.0
1243.187744 136.0
1243.349243 164.0
1243.482544 128.0
1243.608887 208.0
1244.17041 148.0
1244.317871 176.0
1244.375977 236.0
1244.535522 168.0
1245.03064 80.0
1245.518799 36.0
1246.59375 160.0
1247.078613 112.0
1247.711304 176.0
1247.830811 128.0
1247.929199 144.0
1249.439453 132.0
1250.053589 124.0
1250.94043 216.0
1251.841553 216.0
1251.926147 216.0
1252.320557 180.0
1253.165894 272.0
1253.257446 196.0
1253.327881 140.0
1253.384277 176.0
1253.454712 112.0
1253.532227 272.0
1254.208862 112.0
1254.920898 164.0
1255.393311 176.0
1255.936401 196.0
1256.211548 68.0
1256.430176 180.0
1256.846436 60.0
1257.792114 168.0
1258.046265 140.0
1258.794678 224.0
1258.907715 164.0
1259.161987 136.0
1260.150879 200.0
1260.695068 212.0
1261.168579 232.0
1261.68457 184.0
1262.073486 244.0
1262.278564 172.0
1262.659058 208.0
1263.438477 196.0
1263.537476 168.0
1263.912476 176.0
1264.67688 220.0
1264.88916 160.0
1264.974121 128.0
1266.085815 164.0
1266.291138 128.0
1266.716187 132.0
1266.942871 168.0
1267.424683 172.0
1267.530884 192.0
1267.814331 192.0
1269.104492 212.0
1269.239258 192.0
1269.487427 168.0
1269.785278 120.0
1269.884644 176.0
1270.210815 72.0
1270.85498 172.0
1271.012573 200.0
1272.879395 172.0
1273.312622 52.0
1274.285889 180.0
1274.499023 172.0
1275.00354 232.0
1275.302002 140.0
1275.835205 196.0
1275.970215 56.0
1276.034302 104.0
1276.475098 192.0
1277.150757 188.0
1277.200562 112.0
1277.321411 156.0
1277.919067 128.0
1277.997314 124.0
1278.602173 184.0
1279.157349 128.0
1279.242798 160.0
1280.296631 140.0
1281.072998 188.0
1281.635864 156.0
1282.490967 56.0
1283.227783 168.0
1283.496216 164.0
1283.560425 172.0
1283.76001 88.0
1284.701538 136.0
1285.001221 176.0
1285.293701 128.0
1285.771851 272.0
1286.064453 228.0
1286.51416 180.0
1286.978271 192.0
1287.078247 168.0
1287.456787 156.0
1288.363892 52.0
1288.642456 60.0
1289.349976 72.0
1289.628662 180.0
1289.986084 56.0
1290.465088 220.0
1291.030029 176.0
1291.795288 164.0
1291.859741 244.0
1292.847046 100.0
1293.147705 168.0
1293.892212 68.0
1294.23584 160.0
1295.575195 120.0
1295.625244 72.0
1296.248657 160.0
1296.585449 132.0
1296.822021 144.0
1297.080078 120.0
1297.646362 48.0
1297.710938 248.0
1298.079468 120.0
1298.779419 132.0
1298.937256 292.0
1299.489624 172.0
1299.912964 176.0
1300.279053 184.0
1300.458496 140.0
1301.456299 60.0
1302.210327 144.0
1302.57666 156.0
1303.115479 120.0
1303.172974 128.0
1303.252075 204.0
1303.424316 156.0
1303.841309 200.0
1303.99939 28.0
1304.41626 224.0
1305.271851 144.0
1306.14209 164.0
1306.278809 152.0
1306.92627 160.0
1307.026978 28.0
1307.537964 156.0
1307.768311 164.0
1308.495361 172.0
1308.876953 244.0
1309.1073 208.0
1309.834839 224.0
1310.644897 180.0
1310.987549 148.0
1311.15332 152.0
1311.679565 260.0
1312.45813 40.0
1313.027832 172.0
1313.366821 208.0
1313.474976 160.0
1314.047241 184.0
1314.578857 224.0
1314.824219 132.0
1314.910889 156.0
1316.174194 160.0
1316.419678 144.0
1317.165527 180.0
1317.257568 200.0
1317.784912 184.0
1317.842773 252.0
1317.936646 124.0
1318.290771 200.0
1318.449707 144.0
1319.382202 152.0
1319.497803 136.0
1320.105225 176.0
1320.560913 132.0
1320.625977 156.0
1321.061646 160.0
1321.125122 196.0
1321.530273 180.0
1321.70166 280.0
1321.953979 192.0
1322.072998 192.0
1322.782227 124.0
1322.9198 200.0
1323.383179 60.0
1323.564209 208.0
1324.013184 312.0
1324.498413 172.0
1324.744751 36.0
1325.418579 212.0
1326.128784 128.0
1326.266479 104.0
1326.382446 180.0
1326.447632 168.0
1327.636719 176.0
1328.456421 164.0
1328.591309 172.0
1329.885864 172.0
1330.109009 156.0
1330.277832 116.0
1330.350464 200.0
1330.539185 160.0
1331.178101 44.0
1331.265259 100.0
1331.621216 128.0
1333.110474 188.0
1333.219482 132.0
1333.764648 124.0
1333.982666 204.0
1334.193481 196.0
1334.775146 164.0
1334.876953 56.0
1334.949707 120.0
1335.325317 244.0
1335.989868 248.0
1336.579102 172.0
1337.554321 184.0
1337.641724 168.0
1338.646484 60.0
1338.71936 64.0
1338.792114 92.0
1339.848267 196.0
1340.365601 268.0
1341.006958 168.0
1341.118164 216.0
1341.371338 144.0
1341.546387 152.0
1341.662964 96.0
1341.823364 116.0
1342.049438 140.0
1342.537964 180.0
1342.95459 136.0
1343.048462 228.0
1343.223633 120.0
1343.340332 76.0
1343.960449 176.0
1344.493164 176.0
1344.807007 88.0
1344.923706 120.0
1345.084351 316.0
1345.734131 180.0
1345.894775 216.0
1346.091919 136.0
1346.610352 180.0
1346.719971 184.0
1347.150879 140.0
1347.223999 172.0
1347.764648 256.0
1347.910767 108.0
1348.078857 92.0
1348.276123 348.0
1349.175293 152.0
1349.467651 112.0
1349.635864 172.0
1350.359863 224.0
1351.047485 124.0
1351.12793 152.0
1351.48645 172.0
1351.61084 188.0
1351.741943 144.0
1351.903564 192.0
1352.14502 76.0
1352.547607 220.0
1352.62085 204.0
1352.884399 256.0
1353.187744 204.0
1353.433472 164.0
1353.718994 136.0
1354.847046 208.0
1355.484497 248.0
1356.407959 164.0
1356.554565 132.0
1356.752441 68.0
1356.862427 200.0
1357.236328 188.0
1357.544312 156.0
1357.786377 100.0
1358.593262 164.0
1359.407715 160.0
1359.796631 144.0
1359.980103 292.0
1360.61145 200.0
1361.140137 192.0
1361.264893 176.0
1362.829468 84.0
1363.27771 160.0
1363.586426 136.0
1363.814331 192.0
1365.586304 216.0
1366.204224 200.0
1367.756836 156.0
1367.918823 180.0
1368.264893 120.0
1368.390015 180.0
1368.853882 212.0
1369.244141 192.0
1369.376709 148.0
1369.472534 180.0
1369.531494 136.0
1370.120728 92.0
1370.901855 56.0
1371.285034 184.0
1371.891113 444.0
1372.354004 104.0
1372.486816 176.0
1372.722656 256.0
1373.342163 232.0
1373.710938 200.0
1373.895386 184.0
1374.109375 132.0
1374.4104 208.0
1374.943237 160.0
1375.363892 172.0
1376.338379 196.0
1376.759277 140.0
1376.973511 224.0
1377.106445 108.0
1377.431396 144.0
1377.778687 112.0
1378.502808 212.0
1378.731812 156.0
1379.337891 156.0
1379.493164 80.0
1381.068237 180.0
1381.156982 156.0
1381.52832 172.0
1381.741333 60.0
1382.251953 100.0
1382.584961 172.0
1383.169678 172.0
1383.391724 168.0
1383.443481 120.0
1383.635986 176.0
1384.346802 160.0
1385.005981 176.0
1385.428223 200.0
1386.080322 204.0
1386.154419 172.0
1387.080811 176.0
1387.317993 172.0
1387.570068 112.0
1387.636841 104.0
1387.733154 360.0
1387.88147 148.0
1388.289307 148.0
1388.563721 168.0
1388.764038 172.0
1391.294434 164.0
1391.387573 276.0
1391.498291 184.0
1392.348877 152.0
1392.452759 224.0
1393.009888 148.0
1393.17334 156.0
1393.998047 140.0
1394.243286 120.0
1394.488525 44.0
1394.956909 116.0
1395.222656 228.0
1395.313721 88.0
1395.856445 148.0
1396.153931 188.0
1396.310181 100.0
1396.652222 192.0
1397.74585 180.0
1397.820312 156.0
1398.013794 180.0
1398.073364 72.0
1398.59436 136.0
1398.720825 140.0
1399.018677 212.0
1399.450439 160.0
1400.187622 172.0
1401.200684 180.0
1401.305054 172.0
1401.699951 248.0
1401.998047 132.0
1402.370728 96.0
1402.470337 196.0
1402.691162 136.0
1402.893311 156.0
1402.967041 172.0
1404.055664 160.0
1404.65979 148.0
1405.271606 32.0
1405.355469 228.0
1405.465576 140.0
1405.682007 224.0
1405.905884 128.0
1406.256592 140.0
1406.428345 188.0
1406.876221 76.0
1407.421265 88.0
1407.540649 128.0
1407.734863 188.0
1407.869629 160.0
1408.170898 136.0
1408.332275 372.0
1408.578857 156.0
1409.002441 208.0
1409.191406 148.0
1409.251221 192.0
1409.532104 232.0
1409.882812 216.0
1410.686157 304.0
1410.768311 200.0
1410.902954 40.0
1411.231934 136.0
1411.807739 200.0
1413.169067 176.0
1413.490845 88.0
1414.007202 200.0
1414.171875 216.0
1414.853027 184.0
1415.175049 160.0
1415.234985 112.0
1415.317261 76.0
1415.511963 236.0
1415.6875 188.0
1415.766602 160.0
1416.12793 208.0
1416.328369 172.0
1416.425659 188.0
1416.732788 320.0
1416.88269 164.0
1417.025024 80.0
1418.276489 160.0
1418.553833 140.0
1418.806763 184.0
1419.558594 64.0
1419.61853 196.0
1419.94104 140.0
1420.26355 200.0
1420.548584 236.0
1420.631104 188.0
1420.751099 196.0
1421.1521 196.0
1421.471436 180.0
1421.929199 112.0
1422.409668 164.0
1422.687378 132.0
1422.739868 104.0
1423.272949 164.0
1423.723511 120.0
1424.178101 176.0
1424.241821 176.0
1424.653564 180.0
1425.027222 192.0
1425.453125 188.0
1425.594116 232.0
1425.812134 52.0
1426.300659 176.0
1426.533691 112.0
1426.676514 164.0
1426.804321 228.0
1426.954712 156.0
1427.172729 184.0
1427.270508 184.0
1427.69165 156.0
1427.992432 152.0
1428.436279 60.0
1428.601685 136.0
1429.203613 144.0
1429.542236 160.0
1429.683594 212.0
1429.760498 152.0
1430.046509 168.0
1430.595947 172.0
1431.250977 152.0
1431.379028 164.0
1431.778076 180.0
1431.921265 128.0
1432.192383 124.0
1432.516235 208.0
1432.968262 216.0
1433.239502 196.0
1434.437866 120.0
1434.505737 188.0
1434.670166 244.0
1435.455688 136.0
1435.644287 224.0
1436.828491 172.0
1437.152954 164.0
1437.288696 120.0
1437.424561 204.0
1437.484985 188.0
1437.620728 196.0
1437.854736 132.0
1437.907593 128.0
1438.518921 216.0
1439.198486 156.0
1439.749634 196.0
1440.225464 112.0
1440.875122 164.0
1441.101807 100.0
1441.313354 144.0
1441.384521 224.0
1441.562744 180.0
1441.751709 180.0
1441.827271 184.0
1442.280762 60.0
1442.545288 168.0
1442.779663 68.0
1443.014038 144.0
1444.239136 224.0
1444.435791 180.0
1444.677856 88.0
1444.851929 164.0
1445.268066 192.0
1445.502563 124.0
1446.07019 180.0
1446.834717 120.0
1447.531372 208.0
1448.159912 188.0
1448.281128 196.0
1448.409912 124.0
1449.046265 116.0
1449.432617 164.0
1449.697876 136.0
1449.98584 76.0
1450.319336 140.0
1450.395142 160.0
1450.531616 168.0
1450.61499 148.0
1450.669678 160.0
1451.077393 180.0
1451.494507 44.0
1451.555176 56.0
1451.775024 76.0
1451.835693 116.0
1452.093628 232.0
1452.283203 152.0
1452.434937 188.0
1452.533569 136.0
1454.096558 156.0
1454.673462 152.0
1454.810059 132.0
1455.668091 236.0
1456.207275 224.0
1456.70105 168.0
1456.792114 124.0
1457.369629 200.0
1457.741943 148.0
1458.205444 160.0
1459.140503 96.0
1459.802002 160.0
1459.88562 344.0
1460.014893 60.0
1460.129028 196.0
1460.292114 172.0
1460.448486 176.0
1460.577759 160.0
1460.676636 180.0
1461.406982 196.0
1461.559204 152.0
1462.221313 284.0
1462.372314 180.0
1462.449585 220.0
1462.723633 144.0
1463.030151 76.0
1463.375122 272.0
1463.736206 196.0
1464.040771 124.0
1464.215942 196.0
1464.612061 188.0
1464.764404 144.0
1464.939575 160.0
1465.457642 172.0
1465.651978 140.0
1466.303589 240.0
1467.248779 108.0
1467.736694 56.0
1468.14856 136.0
1468.712891 152.0
1468.873047 144.0
1469.09436 96.0
1469.445312 84.0
1469.826782 180.0
1469.98291 344.0
1470.460205 188.0
1470.574707 164.0
1470.935303 164.0
1471.925903 216.0
1472.177979 172.0
1472.231445 200.0
1472.422363 112.0
1472.743164 68.0
1473.346558 88.0
1473.86377 192.0
1474.217651 136.0
1474.385742 128.0
1474.531006 188.0
1475.09668 168.0
1475.708252 148.0
1475.899414 124.0
1476.4729 236.0
1476.586548 140.0
1476.801758 184.0
1476.878296 136.0
1477.00061 112.0
1477.237793 144.0
1477.543823 164.0
1477.754272 172.0
1478.186523 176.0
1478.377808 140.0
1479.342285 164.0
1479.965088 172.0
1480.253418 160.0
1480.368286 112.0
1480.78186 140.0
1481.042847 152.0
1481.55542 148.0
1481.79248 144.0
1482.015137 140.0
1482.459595 232.0
1483.440674 136.0
1483.773926 224.0
1483.869995 176.0
1484.184326 44.0
1485.713989 168.0
1486.324463 144.0
1486.416504 148.0
1486.485596 84.0
1486.969116 132.0
1487.030518 160.0
1487.18396 120.0
1487.414307 188.0
1487.594727 156.0
1488.112915 240.0
1488.251099 184.0
1488.396973 188.0
1488.565918 180.0
1488.711792 216.0
1488.842407 116.0
1489.011353 172.0
1489.487549 208.0
1489.825562 120.0
1490.017578 148.0
1490.194336 124.0
1490.417114 120.0
1490.55542 176.0
1491.938965 168.0
1492.069702 160.0
1492.730957 216.0
1492.938477 88.0
1493.072021 200.0
1493.192627 196.0
1493.476929 160.0
1493.776855 236.0
1493.99231 168.0
1494.330811 204.0
1494.500122 128.0
1494.592407 216.0
1494.767944 64.0
1495.115723 164.0
1495.785278 52.0
1496.447388 244.0
1497.086548 224.0
1497.694946 108.0
1497.914062 188.0
1498.134033 148.0
1498.43457 188.0
1498.68103 136.0
1498.846436 212.0
1499.171265 168.0
1499.87561 64.0
1500.608032 156.0
1500.769897 164.0
1500.908691 156.0
1501.116943 92.0
1501.20166 148.0
1501.918945 172.0
1502.212158 144.0
1502.505249 132.0
1502.744385 36.0
1502.837036 160.0
1503.32312 168.0
1503.462036 204.0
1503.932861 176.0
1504.480957 188.0
1504.573608 208.0
1504.951904 100.0
1505.245361 232.0
