>compound MLS001244126-01!4-(2-(6-chloroquinazolin-4-ylamino)ethyl)phenol
>formula C16H14ClN3O
>ionization [M+H]+
>parentmass 300.089294
#inchi InChI=1S/C16H14ClN3O/c17-12-3-6-15-14(9-12)16(20-10-19-15)18-8-7-11-1-4-13(21)5-2-11/h1-6,9-10,21H,7-8H2,(H,18,19,20)
#inchikey MZQYEXKXFXQJMD
#Ion_Source LC-ESI
#Instrument qTof
#Compound_Source NIH Pharmacologically Active Library
#PI Dorrestein
#Data_Collector VP/LMS
#Scan -1
#Precursor_MZ 300.096
#ExactMass 299.083
#Charge 1
#CAS_Number N/A
#Pubmed_ID N/A
#Smiles Oc1ccc(CCNc2ncnc3ccc(Cl)cc23)cc1
#INCHI_AUX N/A
#Library_Class 1
#SpectrumID CCMSLIB00000086064
#IonMode Positive
#UpdateWorkflowName UPDATE-SINGLE-ANNOTATED-GOLD
#LibraryQualityString Gold
#TaskID d252d724072548979f1f6f1ced849daf
##Scan# 1406
#SpectrumFile p5-D02_GD2_01_18453.mzXML
#LibraryName Pharm_Active_Library.mgf
#MQScore -1
#Organism Pharm_Active_Library
#TIC_Query 0
#RT_Query -1
#MZErrorPPM -1
#SharedPeaks 0
#MassDiff 0
#LibMZ -1
#SpecMZ 300.096
#SpecCharge 0
#internalFilename spec-00000.mgf

>collision 10
44.939182 136.0
44.987225 128.0
45.045982 216.0
45.328274 128.0
45.338993 120.0
45.365803 156.0
45.379208 256.0
45.473106 148.0
45.627579 216.0
45.727119 224.0
45.902248 152.0
45.921127 156.0
45.935963 172.0
45.988586 104.0
46.053394 176.0
46.138523 68.0
46.285999 196.0
46.490685 196.0
46.702625 168.0
46.831928 212.0
46.939587 144.0
46.958679 140.0
47.178516 188.0
47.275627 168.0
47.342705 176.0
47.367359 80.0
47.446838 160.0
47.489346 176.0
47.535992 180.0
47.645832 216.0
47.673313 156.0
47.699425 196.0
47.72142 64.0
47.747547 168.0
47.78606 164.0
47.96571 204.0
48.005066 180.0
48.025753 208.0
48.127872 112.0
48.481991 188.0
48.527733 164.0
48.631771 248.0
48.674809 176.0
48.703972 204.0
48.765106 200.0
48.845749 148.0
48.982162 176.0
49.099236 124.0
49.180157 152.0
49.220642 176.0
49.315636 172.0
49.368763 104.0
49.490021 140.0
49.573143 148.0
49.656715 204.0
49.695129 128.0
49.815262 224.0
49.84256 228.0
49.887531 168.0
49.924088 116.0
50.026798 240.0
50.131023 148.0
50.174717 56.0
50.200096 64.0
50.252285 228.0
50.35392 72.0
50.417492 132.0
50.450001 132.0
50.585804 168.0
50.779919 176.0
50.826733 160.0
50.964458 196.0
50.988617 184.0
51.058277 136.0
51.287498 196.0
51.311733 164.0
51.320644 96.0
51.615849 112.0
51.660187 100.0
51.757507 172.0
51.842018 124.0
51.87785 208.0
51.89362 144.0
52.024174 132.0
52.057194 172.0
52.221027 208.0
52.232533 120.0
52.471581 160.0
52.548019 180.0
52.608631 112.0
52.634617 68.0
52.675056 40.0
52.688057 108.0
52.822498 112.0
52.894848 152.0
53.003464 156.0
53.235554 136.0
53.286392 216.0
53.344521 80.0
53.449234 204.0
53.485619 164.0
53.647305 92.0
53.746479 76.0
53.772747 172.0
53.835522 200.0
53.948025 192.0
53.977264 140.0
54.158733 136.0
54.246651 56.0
54.544632 168.0
54.612267 192.0
54.964355 148.0
55.026344 128.0
55.270218 108.0
55.431614 208.0
55.54874 220.0
55.633324 64.0
55.697361 96.0
55.747688 192.0
55.871094 128.0
55.917221 156.0
56.002087 140.0
56.06913 124.0
56.088505 160.0
56.149635 64.0
56.174988 32.0
56.245121 164.0
56.315296 204.0
56.333221 188.0
56.548534 196.0
56.647354 172.0
56.902294 128.0
57.09613 56.0
57.20145 152.0
57.221024 140.0
57.251137 168.0
57.327965 200.0
57.430481 180.0
57.447075 116.0
57.457634 200.0
57.524033 148.0
57.581409 184.0
57.817249 228.0
57.953529 184.0
58.165844 168.0
58.390709 320.0
58.412003 124.0
58.4683 156.0
58.538326 44.0
58.617535 108.0
58.860065 104.0
58.97617 120.0
59.064854 148.0
59.177952 168.0
59.207191 204.0
59.25008 176.0
59.395706 232.0
59.412582 156.0
59.435596 208.0
59.48317 156.0
59.590668 164.0
59.635231 84.0
59.662899 64.0
59.693649 140.0
59.704414 148.0
59.841362 172.0
60.029343 144.0
60.067898 176.0
60.234608 148.0
60.330414 160.0
60.421658 184.0
60.615192 120.0
60.658588 168.0
60.748528 180.0
60.773994 356.0
60.804382 200.0
60.984543 164.0
61.074722 48.0
61.118282 172.0
61.133842 204.0
61.305138 60.0
61.42207 240.0
61.442348 100.0
61.634384 176.0
61.668766 156.0
61.690647 208.0
61.742245 112.0
61.87368 152.0
62.000553 144.0
62.049145 156.0
62.067436 160.0
62.083641 108.0
62.129128 248.0
62.24213 164.0
62.264114 140.0
62.476307 140.0
62.53138 172.0
62.721958 112.0
62.742451 188.0
62.768215 212.0
63.115654 116.0
63.496689 224.0
63.563316 136.0
63.739571 148.0
63.981323 128.0
64.059349 100.0
64.231506 120.0
64.400696 236.0
64.609657 204.0
64.686913 92.0
64.741348 176.0
64.76857 184.0
64.917336 200.0
64.946487 64.0
65.454323 116.0
65.523582 212.0
65.781601 128.0
65.805817 148.0
65.849419 172.0
65.894646 140.0
66.095848 212.0
66.133972 156.0
66.231117 204.0
66.448341 120.0
66.60743 164.0
66.622047 148.0
66.643166 196.0
66.657791 48.0
66.730934 136.0
67.328949 228.0
67.348541 132.0
67.476006 156.0
67.492355 204.0
67.608498 164.0
67.768967 156.0
67.833046 160.0
67.908302 192.0
68.000183 104.0
68.075699 144.0
68.095406 216.0
68.24987 188.0
68.498375 128.0
68.513199 200.0
68.55439 152.0
68.640114 156.0
68.661545 128.0
68.702782 92.0
68.810051 88.0
68.945496 208.0
69.082733 80.0
69.191956 212.0
69.331085 152.0
69.390411 132.0
69.43779 188.0
69.451729 172.0
69.472023 148.0
69.589851 164.0
69.60289 160.0
69.666245 136.0
69.79422 196.0
69.812508 140.0
69.880707 140.0
69.89402 200.0
69.917648 220.0
69.988892 176.0
70.20385 176.0
70.228867 148.0
70.265564 188.0
70.511017 132.0
70.542778 216.0
70.636421 144.0
70.666534 204.0
70.709671 164.0
70.907661 132.0
70.999863 172.0
71.026703 164.0
71.053543 148.0
71.130737 192.0
71.211327 176.0
71.226448 224.0
71.256683 192.0
71.381058 168.0
71.431519 128.0
71.510597 172.0
71.535843 128.0
71.727875 60.0
71.904968 204.0
71.98938 184.0
72.204002 220.0
72.228226 124.0
72.437569 96.0
72.831093 156.0
72.933037 144.0
73.021454 160.0
73.167786 128.0
73.25975 160.0
73.300636 108.0
73.319382 148.0
73.343246 180.0
73.491608 220.0
73.611092 140.0
73.694786 148.0
73.776817 204.0
73.958138 92.0
74.204811 140.0
74.40554 120.0
74.506668 176.0
74.66156 188.0
74.842239 200.0
74.918015 148.0
74.971428 160.0
75.02314 164.0
75.061066 228.0
75.085213 144.0
75.171463 144.0
75.418427 156.0
75.515671 160.0
75.59137 172.0
75.681374 108.0
75.741989 184.0
75.870216 164.0
75.892754 192.0
75.91877 204.0
75.953453 224.0
76.041939 200.0
76.255562 196.0
76.304237 128.0
76.385971 120.0
76.453819 100.0
76.499077 108.0
76.519966 76.0
76.723801 148.0
76.978531 172.0
77.040512 140.0
77.17363 104.0
77.287918 88.0
77.310669 164.0
77.398193 252.0
77.438469 136.0
77.58741 112.0
77.789146 152.0
77.845329 152.0
77.864647 136.0
77.906799 112.0
77.940186 172.0
77.963028 180.0
78.103676 180.0
78.16349 152.0
78.256775 252.0
78.269104 128.0
78.307846 176.0
78.438232 220.0
78.452332 84.0
78.777031 168.0
78.789398 192.0
78.946701 168.0
79.056381 212.0
79.378777 124.0
79.458595 232.0
79.490532 152.0
79.511826 208.0
79.573952 64.0
79.961464 64.0
80.054031 148.0
80.118149 44.0
80.169823 140.0
80.246468 196.0
80.267868 200.0
80.296394 160.0
80.308884 224.0
80.537346 156.0
80.730354 136.0
80.816216 124.0
80.878853 116.0
81.118919 160.0
81.185211 120.0
81.389778 220.0
81.522697 124.0
81.639549 156.0
81.697105 268.0
81.794273 164.0
81.891502 196.0
81.995995 188.0
82.217819 172.0
82.336967 136.0
82.407417 168.0
82.427292 128.0
82.781921 164.0
82.816246 180.0
82.988396 204.0
83.011971 128.0
83.197037 168.0
83.249687 208.0
83.289642 172.0
83.509567 136.0
83.764389 188.0
83.803688 196.0
83.953941 196.0
84.138222 208.0
84.196655 136.0
84.271545 204.0
84.316315 144.0
84.337334 108.0
84.372063 224.0
84.411591 168.0
84.467155 200.0
84.48362 200.0
84.507401 176.0
84.522041 208.0
84.641014 160.0
84.767403 112.0
84.809555 128.0
84.908562 212.0
84.961754 164.0
85.187546 180.0
85.209595 196.0
85.316185 180.0
85.330894 160.0
85.446808 140.0
85.492805 144.0
85.546127 204.0
85.577431 48.0
85.702675 176.0
85.791138 200.0
85.820633 224.0
86.356155 168.0
86.635658 148.0
86.668022 196.0
86.70607 140.0
86.833496 180.0
86.934166 224.0
86.954582 152.0
87.015839 36.0
87.080833 140.0
87.19416 132.0
87.706764 208.0
87.732086 128.0
87.815994 136.0
87.898071 76.0
88.174454 68.0
88.316544 132.0
88.527298 184.0
88.719131 208.0
88.790382 164.0
88.809143 188.0
88.878548 168.0
88.964882 180.0
88.994919 184.0
89.038109 168.0
89.16774 152.0
89.231651 132.0
89.406578 200.0
89.419754 172.0
89.461166 168.0
89.481873 156.0
89.566612 200.0
89.638206 108.0
90.060791 404.0
90.125015 156.0
90.27813 184.0
90.308388 124.0
90.482475 64.0
90.539284 160.0
90.639679 188.0
90.694633 112.0
90.713593 208.0
90.842537 116.0
90.872894 176.0
90.893761 260.0
90.935516 208.0
90.95903 236.0
91.017143 156.0
91.055267 5152.0
91.119705 196.0
91.133003 192.0
91.167206 200.0
91.180511 72.0
91.220421 220.0
91.305984 204.0
91.383972 256.0
91.414047 104.0
91.48674 132.0
91.526726 180.0
91.55719 164.0
91.661964 124.0
91.694359 232.0
91.777832 192.0
91.896484 136.0
91.932739 172.0
91.961723 216.0
92.026268 164.0
92.05719 372.0
92.43148 264.0
92.469749 164.0
92.707222 220.0
92.75322 240.0
92.918137 160.0
92.966331 168.0
93.004494 208.0
93.071259 2940.0
93.121613 36.0
93.18116 228.0
93.250336 172.0
93.496498 184.0
93.61393 168.0
93.723724 48.0
93.85479 232.0
93.972443 92.0
93.999458 204.0
94.044022 172.0
94.072449 356.0
94.091263 212.0
94.107552 152.0
94.165482 72.0
94.223427 52.0
94.312317 164.0
94.405113 40.0
94.452492 160.0
94.559883 132.0
94.776772 56.0
94.829094 128.0
95.01075 152.0
95.048546 220.0
95.220993 172.0
95.386147 140.0
95.439369 220.0
95.502808 108.0
95.890259 176.0
95.993576 200.0
96.048187 84.0
96.081345 152.0
96.340988 120.0
96.358574 104.0
96.478897 200.0
96.511017 188.0
96.567734 152.0
96.777115 184.0
96.894623 120.0
96.951447 132.0
97.037697 96.0
97.13868 188.0
97.204063 136.0
97.445923 148.0
97.534348 84.0
97.63443 204.0
97.827438 132.0
97.90226 112.0
98.130829 128.0
98.416916 184.0
98.47023 224.0
98.559128 188.0
98.820114 220.0
98.849792 112.0
98.974495 128.0
99.01297 440.0
99.56353 172.0
99.718399 220.0
99.819786 156.0
99.933159 152.0
99.949074 108.0
100.017982 632.0
100.255737 152.0
100.289612 164.0
100.666672 148.0
100.738571 144.0
100.764542 136.0
100.866463 164.0
100.886452 136.0
100.930435 128.0
101.012428 132.0
101.120476 136.0
101.16851 224.0
101.220566 128.0
101.238594 208.0
101.68766 152.0
101.735832 204.0
101.81012 176.0
101.834221 64.0
101.954765 76.0
102.046295 820.0
102.079399 156.0
102.093475 292.0
102.177956 144.0
102.20813 68.0
102.226242 140.0
102.252403 64.0
102.381248 144.0
102.419518 148.0
102.507355 180.0
102.524277 192.0
102.625069 168.0
102.657684 168.0
102.697662 232.0
102.772301 160.0
102.81871 196.0
102.939835 88.0
102.964066 56.0
102.983025 156.0
103.008507 44.0
103.054741 22972.0
103.093361 108.0
103.188362 144.0
103.224754 152.0
103.263176 152.0
103.315765 160.0
103.335999 56.0
103.362305 84.0
103.376465 196.0
103.390633 128.0
103.457428 64.0
103.497917 204.0
103.633621 164.0
103.777527 52.0
103.8769 60.0
103.947906 144.0
104.003288 96.0
104.058067 1320.0
104.181389 144.0
104.388702 96.0
104.404968 124.0
104.61454 108.0
104.733826 192.0
104.805977 144.0
104.847443 92.0
105.071022 148.0
105.313934 132.0
105.57962 128.0
105.647118 88.0
105.694176 224.0
105.708496 228.0
105.80265 188.0
105.821075 164.0
105.890694 120.0
105.911179 208.0
106.042358 160.0
106.15506 244.0
106.175568 172.0
106.286339 64.0
106.37664 164.0
106.417694 244.0
106.495728 180.0
106.604614 188.0
106.618996 120.0
106.635437 196.0
106.869865 56.0
106.88633 184.0
106.946007 108.0
107.048943 156.0
107.088074 84.0
107.121025 164.0
107.160172 196.0
107.318871 36.0
107.399292 168.0
107.797745 200.0
108.424774 152.0
108.690201 152.0
108.818886 128.0
108.847954 152.0
108.893639 68.0
108.972572 112.0
108.987587 124.0
109.186676 124.0
109.338547 76.0
109.540504 116.0
109.617592 208.0
109.738487 136.0
109.755165 136.0
109.932472 112.0
109.957512 108.0
109.99794 108.0
110.091118 156.0
110.245705 140.0
110.402489 200.0
110.827415 88.0
111.068504 56.0
111.190193 124.0
111.227966 180.0
111.272057 172.0
111.307747 164.0
111.398056 136.0
111.625038 136.0
111.816475 204.0
111.898567 136.0
111.925934 120.0
111.944885 228.0
111.974373 116.0
111.993324 140.0
112.043785 176.0
112.050201 168.0
112.153458 152.0
112.210373 128.0
112.676781 224.0
112.837402 184.0
112.964287 172.0
112.998138 148.0
113.142044 144.0
113.239449 252.0
113.28817 196.0
113.383514 132.0
113.4683 180.0
113.548874 188.0
113.678284 224.0
113.73983 100.0
113.852356 104.0
113.909698 112.0
113.988174 196.0
114.00956 56.0
114.158363 140.0
114.30088 148.0
114.362602 184.0
114.609627 196.0
114.656509 208.0
114.741768 152.0
114.769485 124.0
114.97213 140.0
115.047699 164.0
115.30101 160.0
115.416443 144.0
115.448517 144.0
115.643204 72.0
115.739532 124.0
115.964462 88.0
116.116684 188.0
116.232529 140.0
116.361305 132.0
116.4021 144.0
116.593285 164.0
116.615837 160.0
116.629822 220.0
116.692162 156.0
116.831955 132.0
116.935234 144.0
116.980438 124.0
117.045021 148.0
117.497635 128.0
117.737228 192.0
117.79554 132.0
118.051323 172.0
118.106804 44.0
118.385986 40.0
118.474792 156.0
118.632988 56.0
119.049782 388.0
119.323334 192.0
119.917595 144.0
120.002609 192.0
120.047867 180.0
120.065842 184.0
120.085472 168.0
120.124733 148.0
120.303673 196.0
120.48056 220.0
120.653198 236.0
120.760345 164.0
120.91349 144.0
120.941948 164.0
120.963898 144.0
120.985847 144.0
121.018356 216.0
121.041832 384.0
121.065971 37352.0
121.134117 68.0
121.163757 68.0
121.188339 216.0
121.233368 188.0
121.280907 204.0
121.329666 32.0
121.364746 56.0
121.384476 72.0
121.498528 84.0
121.527054 44.0
121.586296 36.0
121.603851 100.0
121.62767 80.0
121.662979 64.0
121.691658 72.0
121.709229 40.0
121.733376 232.0
121.781693 56.0
121.847595 72.0
121.865166 96.0
121.887138 36.0
121.911316 64.0
121.941078 132.0
122.068443 2584.0
122.154167 96.0
122.175156 96.0
122.247765 76.0
122.386436 116.0
122.494347 72.0
122.552696 132.0
122.600105 52.0
122.7015 148.0
122.798599 108.0
122.849251 112.0
122.871315 80.0
122.961784 140.0
123.070671 280.0
123.092026 168.0
123.118523 204.0
123.169327 64.0
123.286415 172.0
123.478752 68.0
123.547325 96.0
123.655746 208.0
123.921471 216.0
124.078827 140.0
124.189697 144.0
124.205223 76.0
124.271774 52.0
124.424911 176.0
124.558838 188.0
124.609245 56.0
124.647018 260.0
124.898232 36.0
125.15638 120.0
125.198692 104.0
125.303375 112.0
125.450462 212.0
125.512321 252.0
125.655632 64.0
125.835335 152.0
125.90786 200.0
125.986656 352.0
126.088821 208.0
126.123604 208.0
126.149162 192.0
126.193878 140.0
126.278854 216.0
126.328056 200.0
126.491409 172.0
126.935005 192.0
127.015678 144.0
127.44902 44.0
127.496208 184.0
127.727783 176.0
127.761528 120.0
127.994644 152.0
128.105957 212.0
128.148758 156.0
128.417007 128.0
128.471146 76.0
128.830078 192.0
128.857178 120.0
128.875259 196.0
128.911407 216.0
129.019897 148.0
129.060593 172.0
129.293594 156.0
129.361496 184.0
129.63327 148.0
129.807816 128.0
129.839569 124.0
129.95752 144.0
130.011978 104.0
130.350327 228.0
130.632248 140.0
130.652725 124.0
131.055695 140.0
131.087601 144.0
131.402252 116.0
131.445602 128.0
131.480881 172.0
131.507217 200.0
131.829224 176.0
131.977798 172.0
132.472137 168.0
132.8022 104.0
132.96051 60.0
132.994934 152.0
133.040848 156.0
133.206177 92.0
133.327957 144.0
133.429092 236.0
133.622269 188.0
133.866257 180.0
134.013672 148.0
134.0298 212.0
134.071854 192.0
134.211884 120.0
134.394104 208.0
134.548737 168.0
134.675735 264.0
134.969223 196.0
135.281555 232.0
135.334808 32.0
135.388062 156.0
135.578018 152.0
135.782028 184.0
135.995728 516.0
136.053513 220.0
136.200836 208.0
136.944092 92.0
137.002319 400.0
137.02562 196.0
137.088531 168.0
137.158447 176.0
137.216721 68.0
137.314667 124.0
137.758133 164.0
137.928726 188.0
138.009659 144.0
138.080688 168.0
138.228073 140.0
138.569916 60.0
138.834778 172.0
138.980225 180.0
138.998993 108.0
139.020111 156.0
139.175034 164.0
139.431076 188.0
139.480438 160.0
139.5345 208.0
139.826172 172.0
139.941513 192.0
139.981552 56.0
139.998032 76.0
140.198273 176.0
140.684143 100.0
140.762054 168.0
140.78331 180.0
141.000641 168.0
141.338806 196.0
141.40033 72.0
141.620514 176.0
141.679733 124.0
141.743698 156.0
142.106476 232.0
142.146805 196.0
142.350952 64.0
142.446991 200.0
142.559998 196.0
142.669327 100.0
142.716873 160.0
143.011856 136.0
143.028519 152.0
143.3405 56.0
143.712463 144.0
144.0634 380.0
144.092072 116.0
144.283264 160.0
144.52243 212.0
144.62294 128.0
145.034912 192.0
145.061279 148.0
145.361069 148.0
145.988037 176.0
146.334518 84.0
146.426025 152.0
146.546463 160.0
147.151825 68.0
147.65686 168.0
147.75119 232.0
147.908478 188.0
147.927841 156.0
147.949631 60.0
148.157089 72.0
148.189392 160.0
148.557892 216.0
148.614365 128.0
148.678513 240.0
148.844269 148.0
148.861267 236.0
148.900131 204.0
149.070175 196.0
149.447067 84.0
149.47139 196.0
149.5298 180.0
149.907272 192.0
150.06813 204.0
150.185196 196.0
150.216904 160.0
150.57814 144.0
150.73204 252.0
150.893356 252.0
150.922501 100.0
151.162399 192.0
151.382706 176.0
151.461075 112.0
151.502731 140.0
151.573776 296.0
151.639938 128.0
152.029877 192.0
152.101044 128.0
152.141296 444.0
152.280289 180.0
152.49649 56.0
152.693176 192.0
152.885071 164.0
152.946594 72.0
152.963821 136.0
152.993362 304.0
153.022354 1044.0
153.062302 116.0
153.146027 308.0
153.340668 92.0
153.52803 120.0
153.619293 136.0
154.005615 212.0
154.028595 280.0
154.483047 188.0
154.501205 52.0
154.553162 108.0
154.704117 128.0
154.991409 48.0
155.020615 496.0
155.045929 168.0
155.253143 96.0
155.273087 128.0
155.324051 112.0
155.475571 180.0
155.946823 148.0
156.648499 208.0
156.897705 132.0
156.945068 176.0
156.98497 72.0
157.063507 156.0
157.436646 164.0
157.686462 80.0
157.796463 52.0
157.936493 248.0
158.031555 88.0
158.069092 192.0
158.086594 180.0
158.204239 124.0
158.244293 36.0
158.437134 172.0
158.618179 128.0
158.880859 116.0
158.966171 192.0
159.069061 144.0
159.156937 144.0
159.270691 176.0
159.420685 216.0
159.853195 152.0
160.031906 76.0
160.591339 136.0
160.780563 184.0
160.921921 116.0
161.002716 132.0
161.031433 136.0
161.199753 172.0
161.381744 196.0
161.457611 184.0
161.477844 88.0
161.887817 168.0
161.978989 156.0
162.009384 116.0
162.336334 204.0
162.557037 184.0
162.605255 164.0
162.653473 124.0
162.762634 168.0
162.887085 164.0
162.930267 136.0
162.965836 160.0
163.006577 16924.0
163.042068 196.0
163.088593 68.0
163.125931 28.0
163.197113 64.0
163.217468 100.0
163.261185 264.0
163.321732 44.0
163.387192 60.0
163.438751 52.0
163.549286 156.0
163.601639 216.0
163.665283 48.0
163.695831 172.0
163.749313 68.0
163.899612 92.0
163.94548 52.0
164.00824 1612.0
164.124893 84.0
164.264175 88.0
164.338165 36.0
164.384094 92.0
164.409607 60.0
164.478516 100.0
164.552551 144.0
164.583191 68.0
164.690445 60.0
164.871841 208.0
164.922958 72.0
164.9664 160.0
165.003967 7772.0
165.050781 40.0
165.107025 76.0
165.153061 76.0
165.19194 60.0
165.209335 108.0
165.229813 48.0
165.263062 48.0
165.283539 120.0
165.424301 52.0
165.529266 152.0
165.900772 132.0
165.92897 196.0
166.006546 784.0
166.070007 180.0
166.113602 48.0
166.136688 220.0
166.72467 148.0
166.786346 120.0
166.866043 28.0
167.017761 188.0
167.095367 176.0
167.280228 104.0
167.300812 220.0
167.36261 128.0
167.4888 152.0
167.981125 168.0
168.035294 176.0
168.135925 164.0
168.372101 208.0
168.72226 100.0
168.944656 144.0
169.022278 140.0
169.147675 216.0
169.38472 124.0
169.459854 156.0
169.498718 96.0
169.555725 60.0
169.934311 176.0
170.022537 188.0
170.058868 232.0
170.105591 112.0
170.295135 104.0
170.612152 208.0
170.648544 160.0
171.239243 52.0
171.499771 200.0
171.572769 76.0
172.107605 128.0
172.441986 156.0
172.815918 60.0
173.043625 188.0
174.05043 148.0
174.704849 164.0
174.791672 192.0
174.944321 128.0
175.186584 80.0
175.479111 108.0
175.902863 128.0
176.046417 64.0
176.776016 164.0
176.79982 160.0
176.850113 40.0
176.977173 120.0
177.7883 188.0
177.814835 112.0
178.144089 132.0
178.192169 156.0
178.407166 124.0
178.444382 220.0
178.893982 108.0
178.94989 132.0
179.041077 304.0
179.192245 144.0
179.229553 64.0
179.258865 40.0
179.504089 124.0
179.579559 176.0
179.608109 104.0
179.656128 140.0
179.776184 196.0
179.820145 204.0
179.843765 212.0
179.881989 152.0
179.891602 132.0
179.929398 40.0
179.960464 196.0
179.997604 164.0
180.03363 79324.0
180.104492 96.0
180.127274 56.0
180.144913 120.0
180.184708 160.0
180.203415 116.0
180.222015 64.0
180.239166 84.0
180.27092 68.0
180.299179 76.0
180.334351 128.0
180.368515 92.0
180.404999 72.0
180.443939 204.0
180.476974 68.0
180.509995 68.0
180.538559 104.0
180.593689 56.0
180.688644 80.0
180.731812 184.0
180.81308 56.0
180.835724 108.0
180.871964 52.0
180.939682 40.0
180.977829 88.0
181.035339 6304.0
181.126617 76.0
181.175247 92.0
181.23616 76.0
181.287079 52.0
181.329956 84.0
181.364807 92.0
181.431808 44.0
181.455627 52.0
181.485428 60.0
181.563202 104.0
181.683899 40.0
181.734879 68.0
181.769974 96.0
181.804642 28.0
181.823425 64.0
181.887833 196.0
181.920044 132.0
181.951691 164.0
181.984482 200.0
182.02977 25000.0
182.113541 180.0
182.176254 176.0
182.219803 116.0
182.265076 60.0
182.289444 132.0
182.352493 84.0
182.388779 80.0
182.428375 88.0
182.451569 56.0
182.484848 220.0
182.526718 84.0
182.565781 120.0
182.597153 76.0
182.720886 36.0
182.770462 112.0
182.804291 60.0
182.839279 60.0
182.94223 64.0
183.031723 1420.0
183.078201 64.0
183.113892 52.0
183.186615 52.0
183.306351 60.0
183.399475 124.0
183.423737 40.0
183.558533 52.0
184.001022 72.0
184.074326 108.0
184.168442 44.0
184.200851 104.0
184.281143 100.0
184.308914 156.0
184.392685 68.0
184.522446 132.0
185.285629 136.0
186.5448 96.0
186.686172 124.0
186.876587 120.0
186.974548 168.0
187.159653 64.0
187.404785 76.0
188.892624 228.0
190.918091 60.0
190.935974 104.0
191.018478 60.0
191.340454 244.0
191.390015 184.0
191.505676 64.0
191.60759 80.0
192.032394 5036.0
192.164505 60.0
192.205887 68.0
192.259613 36.0
192.838272 44.0
192.982025 52.0
193.036606 532.0
193.114761 64.0
193.153473 68.0
193.266907 88.0
193.302872 80.0
194.03009 1236.0
194.322525 124.0
194.566742 64.0
195.032486 276.0
195.339279 72.0
195.392136 48.0
195.417175 100.0
196.002502 184.0
196.02417 36.0
197.76683 84.0
197.934799 188.0
202.024216 188.0
202.409134 32.0
203.259491 72.0
203.415573 64.0
203.478027 40.0
204.219696 40.0
205.105194 180.0
206.050812 240.0
206.939194 120.0
207.612564 88.0
208.060165 184.0
209.086319 280.0
212.214676 80.0
219.994003 164.0
220.07962 100.0
221.084641 144.0
221.386581 168.0
225.151489 176.0
226.880936 132.0
227.027847 128.0
230.540955 64.0
231.439346 128.0
234.830704 100.0
235.349472 136.0
236.088959 116.0
244.03537 152.0
245.935608 84.0
248.385574 168.0
251.323883 136.0
252.290298 56.0
253.157227 100.0
255.044922 52.0
255.868805 84.0
260.930054 188.0
263.327423 96.0
268.161621 92.0
270.699982 100.0
271.050476 148.0
271.086517 132.0
272.063904 132.0
273.059509 124.0
273.905396 128.0
281.466949 140.0
281.643951 72.0
282.078339 132.0
284.423065 76.0
285.121643 44.0
293.227234 72.0
294.82782 56.0
295.060242 124.0
297.547455 44.0
298.750244 160.0
299.345673 96.0
299.566101 156.0
299.676331 108.0
299.931366 164.0
299.969269 100.0
300.089294 3180.0
300.188995 180.0
300.314087 88.0
300.341675 32.0
300.93866 76.0
300.973206 52.0
301.011169 44.0
301.092102 776.0
301.132812 216.0
301.356598 60.0
301.664154 56.0
301.978821 60.0
302.086975 996.0
302.39743 68.0
302.584351 52.0
302.646698 32.0
302.809448 52.0
302.837158 44.0
302.889099 68.0
303.020752 76.0
303.09082 240.0
303.190521 96.0
305.924011 72.0
306.345367 80.0
313.845398 96.0
316.842468 44.0
319.010742 72.0
322.271667 112.0
326.271332 120.0
332.15387 28.0
341.798859 68.0
345.314484 48.0
363.761841 84.0
366.336212 120.0
389.042175 108.0
399.267975 124.0
420.354218 124.0
421.865356 52.0
423.915863 144.0
426.016541 52.0
440.298401 68.0
441.895142 68.0
448.248291 160.0
456.532104 76.0
466.68338 124.0
470.202698 84.0
472.384644 40.0
472.566345 36.0
481.665161 56.0
485.814911 88.0
497.846832 88.0
521.470154 100.0
535.295227 120.0
545.176147 104.0
586.808167 112.0
592.612732 88.0
613.11676 204.0
623.340454 40.0
626.96814 48.0
628.070007 44.0
653.775757 52.0
681.035461 76.0
681.934265 76.0
692.583313 224.0
699.124878 128.0
736.852295 176.0
741.446167 40.0
742.107483 112.0
743.550354 92.0
751.898804 80.0
789.159729 160.0
792.83728 200.0
795.428467 188.0
797.051514 40.0
798.175659 76.0
802.420959 196.0
804.858337 196.0
838.170776 132.0
840.81189 204.0
844.84491 144.0
847.264771 232.0
849.508179 76.0
849.711243 180.0
851.47583 84.0
852.509888 176.0
853.312012 204.0
870.484375 148.0
876.525452 148.0
878.411987 200.0
883.385742 224.0
894.30957 192.0
897.055481 252.0
902.374573 80.0
904.809509 192.0
905.294495 188.0
909.749268 256.0
911.136475 176.0
911.74939 196.0
912.33844 80.0
920.049438 168.0
921.015564 44.0
936.110657 76.0
937.146179 104.0
943.768433 96.0
950.493774 176.0
953.103333 116.0
955.808777 112.0
957.279968 208.0
963.911072 180.0
964.856689 52.0
967.269287 160.0
969.914124 164.0
970.124878 236.0
971.290649 108.0
975.562805 184.0
977.123779 80.0
983.579712 192.0
988.085205 196.0
989.480835 200.0
993.391235 152.0
995.983643 124.0
997.466553 140.0
1001.783203 36.0
1002.035217 228.0
1002.255737 108.0
1002.93634 72.0
1003.232605 168.0
1004.746094 84.0
1005.332886 160.0
1006.121887 164.0
1017.82843 60.0
1020.803589 212.0
1021.832581 156.0
1023.939514 92.0
1024.480957 192.0
1024.665649 136.0
1024.971436 184.0
1034.29541 240.0
1034.487549 84.0
1034.986816 180.0
1036.005127 104.0
1037.370117 124.0
1038.607666 160.0
1039.313354 88.0
1040.879517 180.0
1045.089478 48.0
1046.408936 148.0
1047.387817 136.0
1051.043091 208.0
1051.707764 232.0
1052.275879 172.0
1053.334961 116.0
1057.00061 132.0
1057.964844 192.0
1058.942627 152.0
1059.111084 120.0
1060.847656 244.0
1062.202881 164.0
1063.000854 76.0
1069.779663 176.0
1070.880005 56.0
1071.36853 204.0
1071.863647 156.0
1072.802246 220.0
1074.902344 216.0
1075.16333 260.0
1075.287354 136.0
1075.44397 148.0
1075.659302 232.0
1077.409424 192.0
1077.729492 220.0
1080.462402 148.0
1080.599731 60.0
1083.251099 212.0
1083.303467 196.0
1085.945068 60.0
1087.408081 176.0
1087.545898 156.0
1088.451904 164.0
1088.517456 176.0
1088.747314 172.0
1090.34375 236.0
1090.639526 152.0
1094.27063 92.0
1098.079346 164.0
1100.989746 208.0
1101.13501 96.0
1101.438843 132.0
1102.687622 236.0
1103.725464 188.0
1106.332153 196.0
1108.040771 72.0
1109.359497 160.0
1112.271606 228.0
1112.550293 128.0
1113.154541 168.0
1114.190674 172.0
1114.881714 176.0
1115.041138 168.0
1116.689941 128.0
1117.554688 200.0
1118.706055 180.0
1119.358521 132.0
1120.50415 136.0
1121.163818 180.0
1124.932129 152.0
1125.352783 152.0
1127.383301 172.0
1127.697388 80.0
1127.777588 128.0
1129.067993 160.0
1132.809448 120.0
1133.488525 140.0
1134.866821 212.0
1135.349609 148.0
1136.986572 208.0
1138.033691 160.0
1138.42981 192.0
1138.658203 120.0
1142.085815 144.0
1144.818237 116.0
1145.336792 192.0
1146.111572 184.0
1146.401245 40.0
1146.488892 136.0
1147.014648 160.0
1147.506714 124.0
1148.113525 124.0
1153.548706 148.0
1154.94165 76.0
1156.849731 172.0
1157.973755 216.0
1158.095703 212.0
1159.572632 152.0
1163.398193 76.0
1163.846313 216.0
1165.143555 256.0
1167.848877 216.0
1168.168579 168.0
1168.644775 200.0
1169.284424 96.0
1171.797119 148.0
1172.941895 184.0
1177.390381 172.0
1177.533813 144.0
1178.024902 200.0
1178.073364 276.0
1179.016235 148.0
1179.173462 40.0
1179.241821 108.0
1181.0177 212.0
1184.98291 184.0
1186.058838 168.0
1188.712891 132.0
1189.502197 188.0
1191.28064 192.0
1193.2323 144.0
1193.527954 120.0
1195.206299 136.0
1195.564087 116.0
1196.300537 176.0
1199.124634 68.0
1204.492432 248.0
1206.551758 156.0
1208.841064 144.0
1210.848633 92.0
1214.251465 196.0
1216.38855 196.0
1217.027222 152.0
1218.721924 40.0
1222.233154 232.0
1223.165771 112.0
1225.185181 88.0
1227.422363 116.0
1228.189575 204.0
1230.576172 184.0
1233.545166 144.0
1234.9646 140.0
1237.889893 100.0
1239.332764 152.0
1240.117554 164.0
1241.828369 152.0
1242.0177 188.0
1243.70166 172.0
1243.982422 176.0
1244.501953 184.0
1246.328125 140.0
1246.770752 176.0
1248.021973 244.0
1248.169678 160.0
1249.203491 248.0
1250.688232 132.0
1252.061035 172.0
1255.563599 132.0
1257.482544 148.0
1257.877808 144.0
1258.830933 148.0
1258.972168 180.0
1261.21875 208.0
1264.302368 236.0
1264.528809 88.0
1265.215454 184.0
1265.604858 136.0
1265.987183 168.0
1270.509155 180.0
1271.183228 176.0
1272.567383 132.0
1272.766113 188.0
1274.68396 156.0
1275.465698 184.0
1276.916138 136.0
1278.367432 184.0
1281.528809 108.0
1282.120239 128.0
1282.462402 144.0
1282.540771 112.0
1286.028564 144.0
1287.456421 148.0
1289.678223 216.0
1291.615967 176.0
1292.023682 204.0
1292.903809 136.0
1294.879639 232.0
1295.065918 168.0
1295.244995 168.0
1295.309448 204.0
1295.545776 148.0
1296.391235 80.0
1297.631226 64.0
1298.133179 184.0
1298.204956 84.0
1298.255127 164.0
1298.656738 200.0
1299.861938 148.0
1299.991089 156.0
1303.588745 112.0
1307.10498 148.0
1311.584473 264.0
1313.855835 168.0
1314.324829 156.0
1314.728882 124.0
1314.829956 160.0
1318.672119 192.0
1319.474487 60.0
1324.206787 140.0
1324.82251 140.0
1325.409302 224.0
1326.438354 216.0
1327.148804 168.0
1328.432495 112.0
1330.558716 216.0
1333.900391 180.0
1335.900024 180.0
1336.918701 124.0
1336.976929 220.0
1338.811401 128.0
1339.28479 156.0
1339.343018 212.0
1341.113647 124.0
1341.893555 136.0
1342.403931 184.0
1343.19165 180.0
1343.972168 148.0
1344.118164 80.0
1345.782349 140.0
1346.570923 140.0
1346.665894 204.0
1347.622803 28.0
1347.922485 196.0
1348.105103 136.0
1351.61499 128.0
1352.324829 196.0
1353.708496 164.0
1355.700928 172.0
1355.884155 192.0
1356.287354 196.0
1356.463257 124.0
1356.815063 148.0
1357.562988 44.0
1357.680298 224.0
1359.242798 180.0
1361.349487 168.0
1361.863525 172.0
1361.958984 48.0
1366.774292 136.0
1367.083252 192.0
1367.635254 132.0
1368.518677 76.0
1369.527466 48.0
1370.669312 148.0
1371.059937 72.0
1371.855957 128.0
1373.441284 168.0
1374.437256 156.0
1374.946411 168.0
1375.950195 156.0
1376.289795 148.0
1376.755005 84.0
1377.397583 180.0
1377.6604 204.0
1378.808838 204.0
1379.237427 60.0
1379.865845 56.0
1380.960205 212.0
1381.655518 152.0
1382.173462 172.0
1382.972656 224.0
1384.53479 184.0
1385.275391 108.0
1385.779175 124.0
1385.845825 204.0
1385.979248 148.0
1387.513428 184.0
1388.366089 108.0
1388.981689 204.0
1392.12854 168.0
1394.000488 196.0
1394.832764 172.0
1395.055786 180.0
1395.52417 160.0
1395.947998 124.0
1396.037231 128.0
1396.119019 236.0
1397.063599 100.0
1398.224365 124.0
1398.7677 96.0
1398.924072 124.0
1401.12085 148.0
1402.342896 176.0
1403.617676 44.0
1404.132202 160.0
1406.176392 144.0
1406.340576 152.0
1407.131836 56.0
1409.506958 140.0
1410.179565 72.0
1410.508423 132.0
1413.376465 256.0
1413.462402 156.0
1413.956299 128.0
1415.655762 72.0
1416.33728 196.0
1417.086304 196.0
1417.783203 224.0
1419.604858 188.0
1420.849854 168.0
1421.487671 108.0
1421.682739 212.0
1421.849976 188.0
1421.872559 108.0
1422.035522 116.0
1422.253174 180.0
1423.296631 168.0
1423.476807 168.0
1425.798096 80.0
1425.873169 124.0
1426.654907 176.0
1426.745117 144.0
1427.03833 156.0
1427.399292 136.0
1428.768066 180.0
1429.001343 164.0
1429.332397 64.0
1430.11499 236.0
1432.607422 160.0
1432.855957 172.0
1432.961792 216.0
1434.521362 212.0
1435.991699 256.0
1436.587646 88.0
1438.572266 124.0
1439.410278 88.0
1439.598999 160.0
1439.651855 152.0
1440.127686 196.0
1442.182739 188.0
1442.235718 156.0
1442.333984 136.0
1442.606079 208.0
1443.294067 200.0
1443.520874 224.0
1444.420898 172.0
1445.691895 176.0
1445.911377 216.0
1446.191406 220.0
1446.751587 164.0
1447.1604 200.0
1447.334473 220.0
1448.152344 216.0
1449.682739 208.0
1449.82666 244.0
1450.56189 132.0
1451.054565 180.0
1451.752197 116.0
1452.649292 196.0
1452.723022 56.0
1453.481689 144.0
1453.557495 140.0
1453.618286 148.0
1454.771851 148.0
1455.181763 180.0
1455.933472 152.0
1456.183228 220.0
1456.472778 64.0
1457.528687 220.0
1459.801514 136.0
1462.15979 156.0
1462.273926 72.0
1469.078125 132.0
1469.741943 176.0
1470.245483 168.0
1471.344604 156.0
1471.901978 148.0
1472.344849 188.0
1472.627441 208.0
1473.383667 108.0
1474.040771 88.0
1474.178345 164.0
1474.690308 128.0
1476.051025 180.0
1476.867676 236.0
1477.052979 204.0
1478.521851 180.0
1479.218384 100.0
1479.731323 160.0
1479.960938 168.0
1480.274902 160.0
1480.45105 116.0
1480.841675 184.0
1482.15918 160.0
1483.845459 216.0
1483.983398 136.0
1486.65271 120.0
1487.665771 196.0
1488.502686 156.0
1489.600952 224.0
1490.484375 116.0
1490.876343 332.0
1493.882568 96.0
1495.303101 104.0
1495.737061 196.0
1495.960205 52.0
1496.968872 140.0
1498.079102 152.0
1499.33374 264.0
1502.093994 104.0
1502.819214 184.0
1504.231445 120.0
1504.486206 80.0
1504.964844 188.0
1505.219604 188.0
