>compound MLS001174880-01!2,4-DIHYDROXY-6-[10-HYDROXY-6-OXO-UNDECYL]BENZOIC ACID MICRO-LACTONE
>formula C18H24O5
>ionization [M+H]+
>parentmass 321.1696503200905
#inchi InChI=1S/C18H24O5/c1-12-6-5-9-14(19)8-4-2-3-7-13-10-15(20)11-16(21)17(13)18(22)23-12/h10-12,20-21H,2-9H2,1H3/t12-/m0/s1
#inchikey APJDQUGPCJRQRJ
#Ion_Source LC-ESI
#Instrument qTof
#Compound_Source NIH Pharmacologically Active Library
#PI Dorrestein
#Data_Collector VP/LMS
#Scan -1
#Precursor_MZ 321.174
#ExactMass 320.162
#Charge 1
#CAS_Number N/A
#Pubmed_ID N/A
#Smiles C[C@H]1CCCC(=O)CCCCCc2cc(O)cc(O)c2C(=O)O1
#INCHI_AUX N/A
#Library_Class 3
#SpectrumID CCMSLIB00000086165
#IonMode Positive
#UpdateWorkflowName UPDATE-SINGLE-ANNOTATED-BRONZE
#LibraryQualityString Bronze
#TaskID d252d724072548979f1f6f1ced849daf
##Scan# 2123
#SpectrumFile p5-G04_GG4_01_18473.mzXML
#LibraryName Pharm_Active_Library.mgf
#MQScore -1
#Organism Pharm_Active_Library
#TIC_Query 0
#RT_Query -1
#MZErrorPPM -1
#SharedPeaks 0
#MassDiff 0
#LibMZ -1
#SpecMZ 321.174
#SpecCharge 0
#internalFilename spec-00000.mgf

>collision 10
45.081585 120.0
45.559925 156.0
46.177288 232.0
46.661392 156.0
47.394333 212.0
47.423111 164.0
47.506756 128.0
48.525944 184.0
49.50132 200.0
49.818298 124.0
51.01527 216.0
51.622662 108.0
51.697048 208.0
51.858883 84.0
52.006618 216.0
52.271053 192.0
52.786026 92.0
53.262844 52.0
53.386383 176.0
53.485317 132.0
53.788509 56.0
53.909733 224.0
54.110123 148.0
54.315289 232.0
54.739296 144.0
54.871166 180.0
55.333599 48.0
55.42395 152.0
55.896141 124.0
56.101677 224.0
56.228466 176.0
57.032764 192.0
58.30994 160.0
58.493984 136.0
58.711864 180.0
59.179459 188.0
59.409348 176.0
59.552101 212.0
60.34573 172.0
60.435436 152.0
60.782524 176.0
61.454708 176.0
61.621773 216.0
61.751518 256.0
62.152557 268.0
63.444294 228.0
63.981262 152.0
64.000366 216.0
64.052925 168.0
64.771736 136.0
65.596077 180.0
66.040123 160.0
66.080559 212.0
67.381241 184.0
67.806686 176.0
67.949348 92.0
68.294319 196.0
68.536324 152.0
69.129128 152.0
69.862488 180.0
70.207275 120.0
70.594711 172.0
71.472015 100.0
71.588165 116.0
71.930428 240.0
72.153419 72.0
72.843147 196.0
73.103279 180.0
73.157745 200.0
73.698387 224.0
74.162155 124.0
74.352531 48.0
74.455536 124.0
75.449768 148.0
75.484352 92.0
76.781601 52.0
77.640297 164.0
77.775391 124.0
77.880745 232.0
78.84272 140.0
79.017776 168.0
79.451828 144.0
79.499741 140.0
79.565414 184.0
79.737717 160.0
79.819489 184.0
80.73967 264.0
81.675911 136.0
81.688499 68.0
82.20018 196.0
82.256126 212.0
82.348213 188.0
83.206543 228.0
83.54821 256.0
83.79763 176.0
84.211723 128.0
84.635994 60.0
84.665291 92.0
85.942871 196.0
86.123787 220.0
86.488045 232.0
87.369492 212.0
88.221748 152.0
89.204048 120.0
90.044411 136.0
90.462288 116.0
91.056786 164.0
91.7789 208.0
91.836113 168.0
92.067047 72.0
92.093788 208.0
92.18132 176.0
92.281059 96.0
92.353729 76.0
92.413033 40.0
92.635109 76.0
93.068542 184.0
93.143448 228.0
94.589661 192.0
95.04435 224.0
95.085342 172.0
95.466637 176.0
95.488029 60.0
95.816994 88.0
96.292953 184.0
97.046356 112.0
97.06517 168.0
97.317123 80.0
97.706268 160.0
97.956284 132.0
98.615318 180.0
98.872429 128.0
98.963486 176.0
99.011017 116.0
99.500786 160.0
99.520645 184.0
99.854492 104.0
100.17894 60.0
100.310463 148.0
102.732933 120.0
102.841896 76.0
103.059288 220.0
103.132751 80.0
103.744072 152.0
104.170227 228.0
104.454819 132.0
104.52195 160.0
105.039436 224.0
105.07106 396.0
105.380363 228.0
105.760735 176.0
106.246391 144.0
106.26075 96.0
106.427002 136.0
107.049286 972.0
107.088005 376.0
107.596458 196.0
107.672859 196.0
108.055267 208.0
108.550308 208.0
108.90519 136.0
109.027771 116.0
109.06102 172.0
109.096199 152.0
109.454216 144.0
109.733421 132.0
110.105629 428.0
110.171692 124.0
110.602463 200.0
111.044563 316.0
112.066208 192.0
112.576675 160.0
112.648483 68.0
113.065018 128.0
113.700813 172.0
114.950005 176.0
115.054337 668.0
115.680954 140.0
116.061279 672.0
116.270393 180.0
116.639816 152.0
116.968933 120.0
117.071144 760.0
117.141197 208.0
117.44297 148.0
117.8834 72.0
118.044678 212.0
118.071472 196.0
119.046951 200.0
119.086182 192.0
120.042267 152.0
120.058624 160.0
120.324829 96.0
120.447121 160.0
120.865074 184.0
121.029411 172.0
121.061577 712.0
121.106987 212.0
121.293938 228.0
121.614182 124.0
122.03817 176.0
122.071152 220.0
122.458481 168.0
122.648109 192.0
122.833191 192.0
122.99427 180.0
123.01635 204.0
123.043457 3488.0
123.071541 52.0
123.11956 172.0
123.374222 192.0
124.048401 480.0
124.09597 184.0
124.488716 220.0
124.844284 212.0
124.884315 120.0
125.014656 200.0
125.075668 72.0
125.291672 80.0
125.599304 216.0
126.880669 172.0
127.011642 192.0
127.060081 164.0
128.033371 176.0
128.060303 376.0
128.461624 152.0
128.637634 152.0
128.929001 248.0
129.072662 436.0
129.42894 192.0
129.660004 164.0
129.982025 176.0
130.100037 180.0
131.04512 316.0
131.083618 356.0
131.107666 44.0
131.312851 132.0
131.710007 132.0
131.956818 56.0
131.986542 188.0
132.034561 180.0
132.090118 164.0
132.597763 68.0
132.948639 100.0
133.065918 176.0
133.223648 212.0
133.838257 84.0
134.054779 76.0
134.897217 204.0
134.952698 104.0
135.044678 692.0
135.07933 684.0
135.297424 84.0
135.55452 116.0
136.050873 340.0
136.08316 144.0
136.624893 224.0
136.678406 180.0
136.813385 196.0
136.943787 112.0
137.020721 160.0
137.061493 252.0
137.097549 144.0
138.068726 180.0
138.843918 208.0
139.038635 168.0
140.506927 224.0
141.067551 1164.0
141.142288 96.0
142.073196 316.0
142.457657 116.0
142.690552 176.0
142.730972 52.0
142.75 112.0
142.880814 72.0
143.052109 224.0
143.088547 328.0
143.788681 116.0
144.054367 364.0
144.091949 212.0
145.041992 192.0
145.063797 508.0
145.101929 148.0
146.036041 168.0
146.071487 524.0
146.216492 196.0
146.34407 212.0
147.043442 1076.0
147.082108 252.0
147.402969 188.0
147.726959 104.0
148.052383 2108.0
148.426895 124.0
149.022736 328.0
149.059326 1244.0
149.09494 188.0
149.116348 144.0
149.186829 172.0
149.296249 48.0
149.62355 116.0
149.714828 44.0
149.824432 76.0
150.027786 100.0
150.061691 240.0
150.097412 136.0
150.175446 32.0
150.754059 128.0
150.795609 148.0
150.820053 252.0
150.91539 160.0
151.038193 832.0
151.061554 236.0
151.135529 104.0
152.038223 180.0
152.90976 100.0
153.072235 152.0
154.0681 184.0
154.998978 152.0
155.027924 128.0
155.058197 348.0
155.080765 156.0
155.110504 188.0
155.470139 204.0
156.56897 64.0
156.870468 116.0
156.995132 164.0
157.0672 352.0
157.104874 200.0
158.034271 152.0
158.079315 184.0
158.617783 148.0
159.049225 172.0
159.080338 420.0
159.189575 212.0
159.868561 64.0
160.052505 188.0
161.058578 1832.0
161.096512 168.0
161.141937 52.0
161.417435 72.0
161.488251 44.0
161.584381 56.0
162.06427 808.0
162.966171 156.0
163.006821 76.0
163.038651 1244.0
163.074844 3764.0
163.113571 56.0
163.708923 132.0
163.907623 76.0
164.044525 764.0
164.078644 368.0
164.545273 52.0
164.63974 96.0
164.81601 64.0
165.025589 184.0
165.057953 348.0
165.115097 124.0
165.368378 116.0
165.406784 120.0
166.457947 124.0
167.032562 392.0
167.149414 132.0
168.035767 128.0
168.05899 116.0
169.065948 956.0
170.075241 348.0
171.051544 176.0
171.086151 164.0
171.388275 120.0
171.641113 40.0
172.051819 208.0
173.059647 1548.0
173.303513 168.0
173.437164 112.0
173.830566 100.0
174.065887 1172.0
174.234909 80.0
175.047653 60.0
175.073181 180.0
175.677582 48.0
176.045074 352.0
176.077362 172.0
176.16066 120.0
176.231995 72.0
176.906403 128.0
177.051971 160.0
177.089417 956.0
177.518433 48.0
178.096268 160.0
178.152786 60.0
178.227173 44.0
178.322845 84.0
178.641922 76.0
178.70311 48.0
179.011887 168.0
179.072495 756.0
179.110428 380.0
179.464859 108.0
179.58754 128.0
181.064575 168.0
182.974731 88.0
183.088577 200.0
183.386871 76.0
184.053207 160.0
184.912872 196.0
185.060394 128.0
185.099655 248.0
185.842361 92.0
186.062195 200.0
186.420731 104.0
186.776886 116.0
187.075882 2800.0
187.33493 60.0
187.60199 52.0
188.078751 448.0
188.123032 120.0
188.262283 64.0
188.289581 96.0
188.546402 52.0
188.774216 72.0
188.926468 96.0
189.008545 92.0
189.052505 368.0
189.090652 988.0
189.136185 144.0
189.621964 108.0
190.057999 224.0
190.089951 468.0
190.126602 180.0
190.887543 76.0
191.03331 144.0
191.072403 608.0
191.195648 168.0
191.396606 76.0
192.066254 128.0
193.10759 124.0
193.561447 56.0
195.081863 120.0
195.418381 160.0
195.471237 40.0
195.886078 120.0
196.973984 188.0
197.058914 588.0
197.089691 124.0
197.992065 92.0
198.061493 220.0
199.072693 180.0
199.7491 128.0
200.047379 188.0
200.081161 204.0
201.091217 440.0
202.04541 176.0
202.088669 136.0
203.036789 172.0
203.105927 228.0
204.275177 64.0
204.861603 128.0
205.052505 188.0
205.084869 176.0
206.083954 172.0
207.064789 172.0
207.101791 520.0
208.325928 52.0
210.071976 180.0
210.09639 168.0
210.95697 240.0
211.052368 120.0
211.074615 420.0
212.083588 172.0
212.697906 112.0
213.057999 108.0
213.084152 356.0
214.049805 144.0
214.091904 120.0
214.839661 140.0
215.069107 460.0
215.106735 208.0
215.546219 96.0
216.072357 272.0
217.08316 420.0
217.12117 248.0
217.570099 168.0
217.769775 76.0
217.9431 156.0
218.087967 192.0
219.058136 180.0
220.140564 184.0
221.077682 140.0
223.81459 104.0
224.082657 172.0
225.088882 220.0
225.858887 212.0
226.098251 268.0
227.101929 128.0
227.645142 64.0
229.088257 480.0
230.135361 132.0
234.881836 120.0
235.938431 52.0
237.089325 124.0
238.098648 168.0
239.103973 140.0
239.150131 72.0
241.119293 176.0
241.720901 40.0
243.105606 180.0
243.137115 148.0
244.112579 164.0
250.12912 132.0
251.091904 120.0
255.127304 188.0
257.154694 196.0
258.16275 192.0
258.709869 76.0
259.975952 72.0
260.926697 144.0
261.084259 204.0
261.115051 148.0
262.994812 224.0
268.393127 88.0
270.117523 132.0
277.189575 148.0
280.089966 140.0
285.141113 92.0
287.078064 124.0
287.15564 100.0
301.164032 184.0
303.15863 444.0
303.434113 100.0
303.489594 40.0
304.154358 308.0
304.190399 108.0
306.057343 152.0
308.926178 168.0
323.081116 108.0
329.993591 204.0
346.030731 160.0
353.448853 92.0
490.570526 72.0
516.960388 56.0
630.497253 72.0
665.308411 32.0
756.461304 168.0
844.487061 168.0
859.014343 120.0
928.905518 76.0
934.07489 148.0
934.798889 68.0
940.570496 176.0
944.988892 196.0
1037.888794 160.0
1081.732422 120.0
1084.299927 56.0
1102.107056 164.0
1108.340088 232.0
1112.624634 148.0
1121.025269 212.0
1131.739624 184.0
1132.563354 164.0
1134.225098 160.0
1137.901245 180.0
1139.365356 56.0
1147.481812 132.0
1161.507446 188.0
1166.042969 200.0
1199.252075 112.0
1203.860596 140.0
1206.866455 120.0
1212.258789 112.0
1218.753662 176.0
1224.694702 176.0
1224.868896 184.0
1230.112671 52.0
1231.725708 204.0
1234.073853 128.0
1239.38623 64.0
1243.664185 176.0
1250.728149 80.0
1294.155151 172.0
1297.035156 120.0
1297.723389 156.0
1299.207886 132.0
1312.989502 168.0
1314.251953 184.0
1317.37085 192.0
1323.25769 152.0
1326.322021 44.0
1337.733643 116.0
1353.796509 268.0
1363.21582 172.0
1379.30481 192.0
1384.987549 128.0
1391.320312 148.0
1391.513306 188.0
1392.91687 160.0
1394.86377 144.0
1395.057007 164.0
1395.993896 160.0
1396.112915 136.0
1405.267456 256.0
1408.178833 88.0
1412.74585 168.0
1414.549316 68.0
1417.889893 164.0
1421.662109 116.0
1423.418701 192.0
1431.758423 176.0
1436.031738 176.0
1445.565796 96.0
1448.200317 140.0
1461.6604 88.0
1463.692871 192.0
1465.879028 144.0
1479.535645 124.0
1491.594727 140.0
1495.617676 116.0
1499.453247 240.0
1502.159668 188.0
1504.806641 188.0
