>compound NCGC00160341-01!7,8-Dimethoxy-benzo[d][1,2]oxazin-1-one
>formula C10H9NO4
>ionization [M+H]+
>parentmass 208.061
#inchi InChI=1S/C10H9NO4/c1-13-7-4-3-6-5-11-15-10(12)8(6)9(7)14-2/h3-5H,1-2H3
#inchikey KPEBLJUVHUTNCC
#Ion_Source LC-ESI
#Instrument qTOF
#Compound_Source Prestwick Phytochem Lib
#PI Dorrestein
#Data_Collector VVP/LMS
#Scan -1
#Precursor_MZ 208.061
#ExactMass 207.053
#Charge 1
#CAS_Number N/A
#Pubmed_ID N/A
#Smiles COC1=C(OC)C2=C(C=C1)C=NOC2=O
#INCHI_AUX N/A
#Library_Class 3
#SpectrumID CCMSLIB00000078740
#IonMode Positive
#UpdateWorkflowName UPDATE-SINGLE-ANNOTATED-BRONZE
#LibraryQualityString Bronze
#TaskID 67c915c6594c435cadc1fe2b5358144d
##Scan# 1527
#SpectrumFile p1-A03_GA3_01_17876.mzXML
#LibraryName phytochem_lib.mgf
#MQScore -1
#Organism phytochem_lib
#TIC_Query 0
#RT_Query -1
#MZErrorPPM -1
#SharedPeaks 0
#MassDiff 0
#LibMZ -1
#SpecMZ 208.061
#SpecCharge 0
#internalFilename spec-00000.mgf

>collision 10
95.175377 88.0
96.9842 192.0
97.227386 72.0
97.451233 156.0
97.911514 208.0
98.505173 132.0
98.829384 156.0
99.225487 212.0
100.931755 228.0
101.596664 244.0
102.030426 76.0
102.279861 120.0
102.638443 100.0
103.070389 156.0
103.098679 52.0
104.013359 228.0
104.054703 144.0
104.345222 216.0
104.552689 156.0
104.947853 208.0
104.964165 68.0
105.038757 236.0
105.865295 132.0
106.055817 160.0
106.449699 148.0
107.011017 192.0
107.052193 172.0
107.728676 72.0
108.289207 152.0
108.772301 172.0
109.04438 128.0
110.292809 160.0
110.395248 188.0
111.128349 216.0
111.586189 120.0
112.83213 140.0
113.037292 84.0
113.847038 120.0
114.815292 164.0
115.053856 440.0
115.376839 188.0
115.99762 200.0
116.390213 196.0
116.951286 64.0
117.019043 300.0
117.082611 116.0
117.835388 172.0
118.027649 176.0
119.014915 228.0
119.038406 440.0
119.100449 156.0
119.454742 180.0
119.779068 144.0
119.824814 164.0
120.020966 192.0
120.075485 52.0
120.689079 128.0
121.028214 160.0
121.45993 132.0
121.628876 124.0
122.623001 48.0
124.104034 132.0
124.828842 248.0
124.925972 164.0
125.678726 144.0
126.14994 124.0
126.451889 128.0
126.62204 216.0
127.38237 172.0
127.609344 216.0
128.167511 192.0
128.429001 148.0
128.973145 172.0
129.131409 204.0
129.511627 172.0
129.541077 172.0
130.028549 196.0
130.219254 156.0
131.457657 216.0
131.87558 196.0
132.009079 756.0
132.043991 208.0
132.156845 180.0
132.294159 164.0
132.374283 100.0
132.497971 192.0
133.471085 184.0
134.020691 364.0
134.058044 224.0
134.410828 220.0
134.812622 160.0
135.009109 176.0
135.027603 156.0
136.267715 92.0
136.749039 124.0
137.11702 144.0
137.168289 172.0
137.203247 164.0
138.371338 208.0
138.931427 36.0
139.044739 68.0
140.050507 592.0
140.113892 60.0
140.521744 136.0
140.802628 144.0
140.913651 160.0
140.932541 140.0
141.056778 196.0
141.121628 188.0
141.216202 84.0
141.412582 68.0
142.064453 336.0
142.643555 64.0
142.757675 236.0
143.693726 124.0
143.996262 124.0
144.011856 192.0
144.47731 176.0
145.023544 196.0
146.02388 1420.0
146.614212 132.0
147.031845 628.0
147.10141 60.0
147.231781 92.0
148.033142 132.0
148.11763 160.0
149.10199 116.0
149.566513 192.0
149.629807 208.0
151.052475 152.0
151.353485 216.0
151.505341 132.0
152.022659 196.0
152.361481 184.0
152.688385 76.0
152.791702 252.0
152.914719 188.0
153.109207 184.0
154.05867 156.0
155.059601 288.0
155.398102 196.0
156.3423 232.0
156.835403 252.0
157.024887 240.0
158.24678 136.0
158.747894 212.0
159.798019 224.0
160.046967 248.0
160.140137 144.0
161.015259 96.0
161.776306 216.0
161.933289 216.0
162.018219 508.0
162.729767 188.0
163.033066 180.0
163.055298 136.0
163.128342 168.0
163.517487 168.0
163.548019 216.0
164.026871 140.0
164.636627 52.0
165.040359 164.0
165.495773 80.0
165.518814 84.0
166.057083 168.0
166.069717 160.0
166.575424 108.0
166.775833 100.0
167.020096 216.0
167.062943 420.0
167.439606 76.0
168.067444 1540.0
168.145981 116.0
168.324097 44.0
168.404144 152.0
168.597366 132.0
168.939194 176.0
169.076706 1312.0
169.330032 72.0
169.420685 28.0
169.752426 48.0
170.076706 156.0
171.739273 80.0
171.80188 104.0
173.462357 216.0
174.01889 160.0
174.934906 220.0
175.415375 228.0
175.797791 140.0
176.034225 268.0
176.188553 124.0
176.341812 136.0
177.387283 112.0
178.012711 184.0
178.055893 172.0
178.552856 188.0
179.597946 136.0
180.071915 180.0
180.403244 152.0
181.018585 116.0
182.090973 156.0
182.163757 64.0
182.376022 188.0
182.663727 148.0
183.054398 1472.0
183.137436 44.0
183.25058 76.0
183.286591 196.0
183.320633 112.0
183.851868 80.0
184.059723 128.0
184.548752 84.0
184.992432 104.0
186.036057 132.0
187.733795 168.0
188.667557 196.0
188.817932 168.0
189.006683 124.0
189.658432 60.0
189.979248 124.0
190.001205 168.0
190.048752 2800.0
190.775604 100.0
191.051651 336.0
192.060104 156.0
192.207718 196.0
192.588669 188.0
192.826279 184.0
193.075073 140.0
193.097198 164.0
194.082596 80.0
194.232758 148.0
194.660141 84.0
194.846222 196.0
194.976822 104.0
195.012955 176.0
195.048401 212.0
195.091476 19912.0
195.183212 112.0
195.39946 68.0
195.430069 76.0
195.541367 184.0
195.677765 40.0
195.816986 56.0
195.900543 56.0
195.947906 40.0
196.037064 56.0
196.098511 4772.0
196.204391 80.0
196.290543 64.0
196.368805 64.0
196.466431 36.0
196.54454 104.0
196.568939 92.0
196.815277 84.0
196.915802 120.0
197.027542 80.0
197.061066 48.0
197.114151 116.0
197.175629 56.0
197.34613 60.0
197.455185 72.0
197.511124 88.0
197.536301 152.0
197.603439 100.0
197.648193 148.0
198.003708 48.0
198.110138 40.0
198.196991 60.0
199.344604 96.0
200.058975 140.0
201.036972 152.0
201.310791 72.0
203.4711 96.0
204.414703 48.0
204.927216 84.0
206.525787 128.0
206.894897 136.0
210.682236 164.0
211.122299 4412.0
211.219879 56.0
211.425293 68.0
211.749542 68.0
211.975494 52.0
212.355255 44.0
212.79921 68.0
212.854385 92.0
213.67981 76.0
214.813004 68.0
215.548706 56.0
216.107147 64.0
221.491425 48.0
238.262894 120.0
283.530579 108.0
314.475677 64.0
336.43512 68.0
345.353149 124.0
351.408081 100.0
359.777039 64.0
372.00061 96.0
441.869385 60.0
462.34549 68.0
517.992798 96.0
531.233948 84.0
534.900757 88.0
560.898193 32.0
663.012329 48.0
701.550354 92.0
776.209534 168.0
778.00708 228.0
935.444153 20.0
954.605957 188.0
1055.661987 124.0
1062.443237 160.0
1066.982544 120.0
1105.431396 40.0
1128.077271 184.0
1178.979614 108.0
1186.255005 184.0
1207.087891 184.0
1233.772095 128.0
1248.467896 136.0
1265.784424 128.0
1277.41626 140.0
1278.348267 176.0
1280.961182 140.0
1283.975952 160.0
1287.087158 88.0
1290.766846 152.0
1341.289429 232.0
1343.396729 180.0
1344.972778 36.0
1361.056152 216.0
1368.555664 152.0
1388.247314 160.0
1391.311523 248.0
1399.623413 264.0
1401.910156 208.0
1418.411865 240.0
1420.721436 128.0
1431.544189 92.0
1432.493164 128.0
1435.243164 172.0
1447.643433 128.0
1448.665894 184.0
1462.911377 140.0
1463.109375 212.0
1493.741455 88.0
1498.298584 176.0
1501.93689 44.0
1503.333252 72.0
1503.888916 136.0
