>compound MLS001049128-01!2-methyl-1,3,4,9-tetrahydropyrido[3,4-b]indole
>formula C12H14N2
>ionization [M+H]+
>parentmass 187.123154
#inchi InChI=1S/C12H14N2/c1-14-7-6-10-9-4-2-3-5-11(9)13-12(10)8-14/h2-5,13H,6-8H2,1H3
#inchikey JOFKCNJIUXPJAC
#Ion_Source LC-ESI
#Instrument qTof
#Compound_Source NIH Natural Product Library
#PI Dorrestein
#Data_Collector VVP/LMS
#Scan -1
#Precursor_MZ 187.124
#ExactMass 186.116
#Charge 1
#CAS_Number N/A
#Pubmed_ID N/A
#Smiles CN1CCc2c(C1)[nH]c3ccccc23
#INCHI_AUX N/A
#Library_Class 1
#SpectrumID CCMSLIB00000080349
#IonMode Positive
#UpdateWorkflowName UPDATE-SINGLE-ANNOTATED-GOLD
#LibraryQualityString Gold
#TaskID b1d8e8f6646f4e71acdff9ca3d919d08
##Scan# 1239
#SpectrumFile p2-F07_GF7_01_18043.mzXML
#LibraryName NIH_Natural_Products_Library.mgf
#MQScore -1
#Organism NIH_Natural_Products_Library
#TIC_Query 0
#RT_Query -1
#MZErrorPPM -1
#SharedPeaks 0
#MassDiff 0
#LibMZ -1
#SpecMZ 187.124
#SpecCharge 0
#internalFilename spec-00000.mgf

>collision 10
94.990303 172.0
95.085381 184.0
95.102852 112.0
95.547852 128.0
96.18705 244.0
96.887146 128.0
97.040016 192.0
97.879028 184.0
98.763176 56.0
99.250359 144.0
99.559929 160.0
99.85009 172.0
99.99334 248.0
100.367859 180.0
100.882965 148.0
101.036957 152.0
101.692223 276.0
101.840805 40.0
102.041344 232.0
102.684135 164.0
103.054054 972.0
103.385178 164.0
104.055702 192.0
104.088615 184.0
104.462578 176.0
105.875031 168.0
106.817139 168.0
107.132103 152.0
108.21431 160.0
108.994202 116.0
109.089806 136.0
109.285309 76.0
109.633057 144.0
109.774811 120.0
109.851982 120.0
109.929184 48.0
109.958405 200.0
110.248695 168.0
111.113487 180.0
111.203728 140.0
111.275101 136.0
112.07225 232.0
113.429054 208.0
114.593666 224.0
114.84948 168.0
114.935783 212.0
115.054062 1340.0
115.582268 172.0
115.629349 200.0
116.058365 636.0
116.210075 200.0
116.268013 80.0
116.306648 136.0
116.803017 196.0
117.070198 1056.0
117.177597 36.0
117.218536 208.0
117.248711 28.0
117.425499 60.0
117.809723 56.0
118.064987 332.0
118.220543 208.0
118.705788 64.0
118.727478 128.0
119.118164 72.0
119.209419 188.0
119.237671 216.0
119.38768 176.0
121.475777 204.0
122.385651 192.0
122.910255 112.0
124.13131 192.0
125.849136 124.0
126.833488 172.0
126.87384 148.0
127.051628 648.0
127.113831 164.0
128.001755 128.0
128.049271 1564.0
128.092743 212.0
129.055359 408.0
129.956985 76.0
130.063873 176.0
130.415726 136.0
131.050644 164.0
131.538696 76.0
131.659714 140.0
132.073395 148.0
132.190079 140.0
132.59314 168.0
133.364319 188.0
133.677094 176.0
134.950378 136.0
135.454895 152.0
135.612457 184.0
135.695908 120.0
137.344711 124.0
137.912109 188.0
139.259369 180.0
139.783646 144.0
139.821289 44.0
140.054382 156.0
140.525879 172.0
141.840759 76.0
142.064545 764.0
142.203674 244.0
142.232162 136.0
142.407867 164.0
142.88092 200.0
142.904709 56.0
143.072937 5728.0
143.126068 64.0
143.261826 172.0
143.312759 148.0
143.409561 156.0
143.431015 80.0
143.507019 68.0
143.578842 92.0
143.858017 156.0
143.97023 196.0
144.021652 188.0
144.049622 344.0
144.080521 18596.0
144.166245 88.0
144.199585 36.0
144.231735 88.0
144.344788 92.0
144.370483 140.0
144.468491 96.0
144.529007 64.0
144.668411 44.0
144.977402 80.0
145.084335 1312.0
145.178772 132.0
145.41629 64.0
145.613159 92.0
145.71405 52.0
145.778931 80.0
145.822189 40.0
145.846222 68.0
145.913544 128.0
145.997696 124.0
146.062271 284.0
146.083588 164.0
146.132401 132.0
146.173309 148.0
146.213287 124.0
146.587494 52.0
146.650162 44.0
146.925049 112.0
147.333054 76.0
147.981216 76.0
148.959717 148.0
152.130783 52.0
155.057068 236.0
155.078537 252.0
155.661545 52.0
156.08046 208.0
156.92308 48.0
158.096695 120.0
159.102234 164.0
160.085358 224.0
169.063538 176.0
169.090469 144.0
170.935638 48.0
182.781525 68.0
183.371292 92.0
184.09433 144.0
185.109833 156.0
186.106262 160.0
187.123154 160.0
217.806061 72.0
235.33168 48.0
261.378571 56.0
283.080933 96.0
333.49057 52.0
467.213104 88.0
507.09259 40.0
538.059937 88.0
579.061523 108.0
595.319214 132.0
609.401917 44.0
714.275574 68.0
727.576599 216.0
762.918274 176.0
816.105713 152.0
816.833618 136.0
847.654053 184.0
855.273682 168.0
856.892578 116.0
931.752869 140.0
943.723022 40.0
967.118591 192.0
980.764832 192.0
1023.550171 184.0
1026.634399 180.0
1041.469727 228.0
1056.185181 212.0
1058.761108 180.0
1059.778198 212.0
1069.454224 176.0
1092.954956 252.0
1114.783081 216.0
1118.99353 176.0
1128.648071 208.0
1141.764648 200.0
1142.948608 112.0
1145.419434 232.0
1157.494873 160.0
1158.680176 108.0
1166.572754 88.0
1168.606201 164.0
1172.848755 152.0
1175.099243 112.0
1178.813721 68.0
1185.540527 192.0
1187.26123 180.0
1194.232178 216.0
1201.582275 140.0
1203.777222 176.0
1203.873901 140.0
1203.956787 176.0
1205.283081 184.0
1210.062378 100.0
1221.958252 200.0
1222.396606 164.0
1223.879272 168.0
1224.909912 208.0
1230.209595 44.0
1234.863281 172.0
1245.488892 192.0
1245.924438 200.0
1252.804688 64.0
1261.34314 44.0
1261.866333 176.0
1268.946289 248.0
1281.683105 112.0
1285.662109 192.0
1287.504028 184.0
1292.243164 64.0
1293.638672 256.0
1295.665283 188.0
1303.184204 136.0
1303.428467 84.0
1309.240845 156.0
1317.896973 172.0
1328.285767 196.0
1335.782104 224.0
1341.083008 108.0
1341.287109 164.0
1341.658813 76.0
1342.964111 60.0
1347.453491 172.0
1350.691895 148.0
1353.707275 180.0
1354.27124 132.0
1369.408691 188.0
1372.894653 156.0
1378.904053 172.0
1386.608521 140.0
1389.909424 136.0
1396.483032 180.0
1398.826904 164.0
1401.768677 112.0
1403.356323 40.0
1408.56543 108.0
1408.961304 172.0
1413.32019 60.0
1413.791626 140.0
1415.326172 124.0
1417.438477 176.0
1434.340698 220.0
1435.976929 156.0
1436.685913 248.0
1448.046753 244.0
1449.61499 188.0
1453.019409 224.0
1457.233032 76.0
1458.175293 124.0
1473.308228 188.0
1483.662476 160.0
1492.891724 176.0
1499.057739 196.0
