>compound MLS000728652-01!
>formula C19H24O4
>ionization [M+H]+
>parentmass 317.175
#inchi InChI=1S/C19H24O4/c20-16(8-4-9-18-10-5-11-19(22)23-18)14-17(21)13-12-15-6-2-1-3-7-15/h1-7,9,11,16-18,20-21H,8,10,12-14H2/b9-4+/t16-,17-,18+/m1/s1
#inchikey QSFJVCDVSIBMCG
#Ion_Source LC-ESI
#Instrument qTof
#Compound_Source NIH Natural Product Library
#PI Dorrestein
#Data_Collector VVP/LMS
#Scan -1
#Precursor_MZ 317.175
#ExactMass 316.167
#Charge 1
#CAS_Number N/A
#Pubmed_ID N/A
#Smiles O[C@H](CCc1ccccc1)C[C@H](O)C/C=C/[C@H]2CC=CC(=O)O2
#INCHI_AUX N/A
#Library_Class 3
#SpectrumID CCMSLIB00000080253
#IonMode Positive
#UpdateWorkflowName UPDATE-SINGLE-ANNOTATED-BRONZE
#LibraryQualityString Bronze
#TaskID b1d8e8f6646f4e71acdff9ca3d919d08
##Scan# 1904
#SpectrumFile p2-B06_GB6_01_17994.mzXML
#LibraryName NIH_Natural_Products_Library.mgf
#MQScore -1
#Organism NIH_Natural_Products_Library
#TIC_Query 0
#RT_Query -1
#MZErrorPPM -1
#SharedPeaks 0
#MassDiff 0
#LibMZ -1
#SpecMZ 317.175
#SpecCharge 0
#internalFilename spec-00000.mgf

>collision 10
95.086723 352.0
95.636765 184.0
96.943336 148.0
98.213409 196.0
99.24176 144.0
101.154327 244.0
101.452812 168.0
101.545052 136.0
103.052818 172.0
103.07505 136.0
103.73687 204.0
104.063499 192.0
105.069763 700.0
106.072517 172.0
106.795776 120.0
107.049538 184.0
107.073624 132.0
107.088043 116.0
107.760536 40.0
111.079056 152.0
111.543121 196.0
112.168304 128.0
113.271339 192.0
115.054756 656.0
116.056511 184.0
117.070358 3288.0
117.133537 48.0
117.705063 64.0
118.073967 440.0
118.414391 96.0
118.676598 108.0
119.047287 132.0
119.083542 312.0
121.065086 188.0
123.678261 136.0
128.063736 464.0
129.068832 464.0
129.285065 44.0
129.341644 180.0
129.713135 156.0
130.06926 184.0
130.123749 52.0
130.196411 80.0
131.052444 304.0
131.086258 632.0
132.090454 160.0
133.067444 152.0
133.1035 188.0
134.067307 164.0
135.080246 372.0
136.753891 140.0
137.064163 136.0
141.070282 1004.0
141.107849 56.0
142.075195 220.0
142.701096 104.0
143.084579 568.0
143.422409 48.0
144.095367 68.0
145.06221 220.0
145.103592 168.0
147.082886 144.0
148.859879 60.0
149.056641 144.0
150.960464 132.0
153.072144 612.0
154.074905 180.0
154.41333 44.0
155.05928 212.0
155.081985 468.0
157.063538 156.0
157.0952 184.0
158.395828 52.0
159.082916 232.0
160.532166 140.0
161.093246 220.0
162.107056 124.0
165.07019 428.0
166.076843 92.0
167.087601 536.0
168.08725 156.0
169.074799 268.0
169.098251 440.0
170.101486 184.0
170.106354 148.0
170.356491 92.0
170.566971 68.0
172.087601 188.0
177.07695 172.0
178.077408 168.0
179.082413 108.0
180.095932 188.0
180.8685 56.0
181.080795 236.0
181.100677 120.0
182.620605 48.0
187.107254 140.0
189.099945 36.0
193.103165 120.0
194.077927 116.0
194.10289 164.0
195.04126 136.0
195.120926 216.0
199.112167 144.0
203.560059 144.0
204.091415 124.0
205.079254 128.0
206.106613 364.0
207.110764 168.0
211.140213 64.0
211.594513 148.0
215.085876 192.0
216.091156 52.0
217.113449 196.0
219.11676 320.0
221.134384 156.0
225.044128 176.0
233.129196 160.0
235.139191 132.0
245.134674 188.0
246.92662 224.0
256.8862 140.0
260.246582 20.0
277.038147 168.0
319.101807 188.0
361.43042 20.0
441.414886 56.0
464.237 60.0
767.781738 176.0
776.908203 44.0
794.234314 184.0
901.262146 20.0
919.327637 108.0
964.89679 204.0
966.838989 80.0
984.344543 132.0
1058.467407 120.0
1065.043335 200.0
1073.327881 112.0
1121.881592 212.0
1156.21167 272.0
1187.106079 196.0
1213.376343 196.0
1282.518311 180.0
1305.62207 160.0
1343.015747 208.0
1346.526367 32.0
1385.889771 256.0
1391.155273 148.0
1396.38623 140.0
1399.02771 192.0
1401.410889 168.0
1416.834961 232.0
1417.7677 144.0
1418.75708 84.0
1422.680542 148.0
1423.423828 144.0
1423.498901 60.0
1424.948608 168.0
1425.82019 164.0
1430.603882 132.0
1430.83728 48.0
1438.217041 228.0
1439.923462 164.0
1461.474609 52.0
1471.550537 256.0
