>compound MLS000756415-01!Methergine
>formula C20H25N3O2
>ionization [M+H]+
>parentmass 340.2019534920906
#inchi InChI=1S/C20H25N3O2/c1-3-14(11-24)22-20(25)13-7-16-15-5-4-6-17-19(15)12(9-21-17)8-18(16)23(2)10-13/h4-7,9,13-14,18,21,24H,3,8,10-11H2,1-2H3,(H,22,25)
#inchikey UNBRKDKAWYKMIV
#Ion_Source LC-ESI
#Instrument qTof
#Compound_Source NIH Pharmacologically Active Library
#PI Dorrestein
#Data_Collector VP/LMS
#Scan -1
#Precursor_MZ 340.206
#ExactMass 339.195
#Charge 1
#CAS_Number N/A
#Pubmed_ID N/A
#Smiles CCC(CO)NC(=O)C1CN(C)C2Cc3c[nH]c4cccc(C2=C1)c34
#INCHI_AUX N/A
#Library_Class 1
#SpectrumID CCMSLIB00000085698
#IonMode Positive
#UpdateWorkflowName UPDATE-SINGLE-ANNOTATED-GOLD
#LibraryQualityString Gold
#TaskID d252d724072548979f1f6f1ced849daf
##Scan# 1264
#SpectrumFile p4-E05_GE5_01_18377.mzXML
#LibraryName Pharm_Active_Library.mgf
#MQScore -1
#Organism Pharm_Active_Library
#TIC_Query 0
#RT_Query -1
#MZErrorPPM -1
#SharedPeaks 0
#MassDiff 0
#LibMZ -1
#SpecMZ 340.206
#SpecCharge 0
#internalFilename spec-00000.mgf

>collision 10
45.156666 108.0
45.166027 60.0
45.182083 88.0
45.194122 228.0
45.219551 136.0
45.29855 196.0
45.400265 140.0
45.428585 188.0
45.444172 220.0
45.509109 200.0
45.530598 136.0
45.605839 124.0
45.783436 140.0
45.945187 172.0
46.180233 260.0
46.211346 156.0
46.230289 180.0
46.268192 136.0
46.376564 176.0
46.411812 208.0
46.45657 112.0
46.551579 56.0
46.683399 208.0
46.824936 200.0
46.849453 180.0
46.887608 128.0
46.903965 156.0
47.034798 140.0
47.200226 200.0
47.256615 160.0
47.400082 124.0
47.439831 188.0
47.706154 172.0
47.795555 140.0
47.82996 172.0
47.916721 188.0
48.009075 132.0
48.123608 144.0
48.158131 212.0
48.265926 100.0
48.32312 164.0
48.418152 168.0
48.547039 148.0
48.603912 76.0
48.63538 184.0
48.701096 60.0
48.731655 120.0
48.801151 168.0
48.82201 160.0
48.839355 216.0
48.952827 180.0
49.065689 120.0
49.132633 188.0
49.182869 176.0
49.258274 160.0
49.27504 188.0
49.336533 92.0
49.37149 208.0
49.386875 180.0
49.442841 88.0
49.496037 120.0
49.550663 180.0
49.591301 180.0
49.631756 168.0
49.654396 220.0
49.762447 140.0
49.782104 232.0
49.848129 80.0
49.879051 128.0
49.926857 116.0
50.392033 152.0
50.413937 144.0
50.430191 164.0
50.496643 152.0
50.527763 208.0
50.537666 136.0
50.595291 224.0
50.612686 156.0
50.672176 148.0
50.728863 200.0
50.916161 156.0
50.947411 120.0
51.038376 228.0
51.202026 180.0
51.267563 220.0
51.277538 176.0
51.301769 132.0
51.438721 116.0
51.54298 168.0
51.558697 128.0
51.693127 140.0
51.741795 204.0
51.779022 160.0
51.870728 184.0
51.8951 148.0
52.009865 140.0
52.019913 76.0
52.157818 168.0
52.183693 112.0
52.206703 116.0
52.229713 112.0
52.275753 192.0
52.379417 140.0
52.411114 196.0
52.495857 188.0
52.867435 164.0
52.881214 204.0
53.064316 148.0
53.101074 132.0
53.119545 188.0
53.155815 120.0
53.165974 156.0
53.292309 68.0
53.315559 144.0
53.414433 128.0
53.450802 160.0
53.460991 104.0
53.490101 160.0
53.543972 188.0
53.672215 228.0
53.685337 160.0
53.699924 180.0
53.81813 264.0
53.864864 36.0
54.024204 164.0
54.129707 148.0
54.480133 168.0
54.502174 72.0
54.571255 100.0
54.587433 112.0
54.603607 220.0
54.634499 164.0
54.646267 116.0
54.745541 200.0
54.794975 260.0
54.844704 220.0
54.873512 208.0
54.999958 192.0
55.342548 196.0
55.363674 160.0
55.513351 204.0
55.560818 56.0
55.621658 116.0
55.987423 132.0
56.084267 148.0
56.209545 176.0
56.236408 144.0
56.273727 128.0
56.533821 180.0
56.572739 172.0
56.646118 68.0
56.733036 84.0
56.779518 224.0
56.796017 112.0
56.87104 96.0
56.935604 168.0
56.988178 120.0
57.219803 164.0
57.233353 116.0
57.272511 160.0
57.320721 144.0
57.415695 140.0
57.43681 156.0
57.521439 196.0
57.534901 280.0
57.610413 152.0
57.622498 216.0
57.658764 220.0
57.688995 128.0
57.722256 176.0
57.766117 216.0
57.866001 76.0
57.964458 116.0
58.062328 136.0
58.099403 44.0
58.211723 132.0
58.310471 212.0
58.400177 168.0
58.457188 144.0
58.529537 284.0
58.706303 128.0
58.869591 180.0
59.078995 168.0
59.091232 148.0
59.152451 176.0
59.213696 196.0
59.293365 128.0
59.399162 220.0
59.45747 220.0
59.601822 164.0
59.61565 112.0
59.760197 188.0
59.926483 120.0
59.941891 176.0
60.079117 180.0
60.220535 176.0
60.296841 108.0
60.316933 136.0
60.337029 172.0
60.386513 96.0
60.412807 44.0
60.426731 132.0
60.474705 116.0
60.521149 136.0
60.578453 164.0
60.638065 156.0
60.677639 152.0
60.705547 172.0
60.780006 244.0
60.879356 44.0
60.963245 164.0
60.974613 140.0
60.986561 212.0
60.998993 164.0
61.05497 176.0
61.089188 148.0
61.148319 180.0
61.235508 156.0
61.335228 124.0
61.357052 64.0
61.42411 240.0
61.556774 196.0
61.567707 52.0
61.800625 128.0
61.835052 44.0
61.856964 56.0
61.971291 160.0
61.982262 108.0
62.044956 148.0
62.055931 152.0
62.112389 116.0
62.288197 124.0
62.555527 64.0
62.574417 176.0
62.690933 128.0
62.761917 136.0
62.779263 88.0
62.834473 212.0
62.991222 164.0
63.093483 168.0
63.128269 112.0
63.201035 64.0
63.250095 140.0
63.303925 60.0
63.327682 228.0
63.346691 92.0
63.386299 168.0
63.411655 68.0
63.459213 88.0
63.487755 164.0
63.516304 280.0
63.578503 140.0
63.584797 168.0
63.859398 108.0
63.875305 104.0
63.892803 152.0
63.926216 152.0
63.987675 144.0
64.00103 168.0
64.118919 116.0
64.23053 76.0
64.316696 100.0
64.382156 212.0
64.460434 232.0
64.535561 124.0
64.661942 168.0
64.693954 116.0
64.745193 124.0
64.810867 216.0
64.834908 112.0
64.863754 144.0
64.900635 88.0
64.979225 156.0
65.048233 156.0
65.183144 128.0
65.216896 168.0
65.268341 80.0
65.31337 144.0
65.332672 244.0
65.487206 152.0
65.538757 108.0
65.567764 160.0
65.592323 152.0
65.617737 140.0
65.767761 188.0
65.856567 156.0
66.133064 224.0
66.252892 116.0
66.330673 84.0
66.395531 104.0
66.434464 168.0
66.445816 156.0
66.504646 80.0
66.518845 88.0
66.544037 124.0
66.673149 176.0
66.74305 156.0
66.869003 200.0
66.928551 236.0
66.954605 148.0
66.992065 76.0
67.19912 204.0
67.225227 152.0
67.236656 144.0
67.329712 76.0
67.376862 60.0
67.624863 136.0
67.63546 192.0
67.650192 164.0
67.858261 156.0
67.902534 228.0
67.941902 180.0
68.203003 200.0
68.29673 160.0
68.382294 156.0
68.467903 208.0
68.507439 172.0
68.565109 196.0
68.687119 88.0
68.737862 148.0
68.751465 148.0
68.840614 216.0
68.873093 192.0
69.214333 220.0
69.239174 368.0
69.350807 180.0
69.36676 160.0
69.423912 128.0
69.530968 128.0
69.657158 32.0
69.668785 140.0
69.71199 200.0
69.808403 148.0
69.909882 160.0
70.324875 140.0
70.752815 220.0
70.860001 152.0
70.995781 96.0
71.014229 196.0
71.099792 196.0
71.166939 88.0
71.202202 204.0
71.230759 96.0
71.250916 32.0
71.482956 168.0
71.953224 224.0
72.318359 240.0
72.415817 252.0
72.441978 184.0
72.502975 176.0
72.640312 196.0
72.697998 176.0
72.759109 176.0
72.910286 212.0
73.09111 216.0
73.106323 192.0
73.197784 164.0
73.328964 116.0
73.383514 52.0
73.409088 192.0
73.434113 132.0
73.519974 184.0
73.555824 196.0
73.5746 276.0
73.610458 112.0
73.757385 76.0
73.837746 44.0
73.880508 212.0
73.894196 188.0
73.923286 156.0
73.942108 40.0
73.955803 124.0
74.022575 148.0
74.135635 128.0
74.154488 220.0
74.180199 192.0
74.252213 136.0
74.277946 232.0
74.324547 172.0
74.480499 144.0
74.523445 160.0
74.588753 148.0
74.722893 244.0
74.78656 132.0
74.870926 48.0
74.88298 104.0
74.953232 196.0
74.972572 176.0
75.020836 60.0
75.146736 88.0
75.256386 144.0
75.3591 112.0
75.424774 80.0
75.461082 152.0
75.499123 64.0
75.597229 208.0
75.771881 132.0
75.855804 236.0
75.932098 136.0
76.105629 156.0
76.128204 164.0
76.416756 36.0
76.474182 140.0
76.590843 60.0
76.618713 168.0
76.686676 176.0
76.707596 248.0
76.756409 148.0
76.838387 188.0
76.850601 164.0
77.056625 152.0
77.184227 184.0
77.236694 36.0
77.266434 52.0
77.292679 152.0
77.308426 132.0
77.320679 124.0
77.34343 176.0
77.401207 156.0
77.416962 136.0
77.576408 160.0
77.702682 176.0
77.721985 156.0
77.765854 104.0
77.820274 188.0
77.864174 160.0
77.897552 212.0
78.064522 156.0
78.094421 160.0
78.170074 124.0
78.182388 168.0
78.319717 152.0
78.402527 120.0
78.43602 128.0
78.498016 220.0
78.619446 36.0
78.670639 200.0
78.686523 176.0
78.720078 64.0
78.767761 152.0
78.829597 152.0
78.962189 152.0
79.063034 132.0
79.098434 252.0
79.135612 232.0
79.234795 220.0
79.286186 108.0
79.415611 216.0
79.43512 152.0
79.575325 220.0
79.7743 76.0
79.873886 160.0
79.991333 100.0
80.042961 188.0
80.07502 140.0
80.100227 132.0
80.489731 168.0
80.52269 144.0
80.55484 200.0
80.604866 140.0
80.647758 124.0
80.933998 184.0
80.96981 156.0
81.181282 76.0
81.215363 136.0
81.242271 164.0
81.308662 76.0
81.452301 192.0
81.500809 220.0
81.676994 56.0
81.752563 164.0
81.811958 156.0
81.956039 108.0
81.983772 196.0
82.224739 136.0
82.259033 128.0
82.34964 200.0
82.416161 160.0
82.42804 200.0
82.472183 128.0
82.528221 176.0
82.551735 132.0
82.771965 228.0
82.785751 76.0
82.789864 184.0
83.022583 128.0
83.067924 124.0
83.084251 144.0
83.122604 176.0
83.171356 132.0
83.204033 48.0
83.251244 224.0
83.372963 184.0
83.402046 184.0
83.502045 192.0
83.532967 128.0
83.622131 156.0
83.643967 116.0
83.771439 168.0
83.864372 176.0
83.974121 188.0
84.010254 128.0
84.043091 56.0
84.121574 340.0
84.15078 140.0
84.16539 140.0
84.181557 192.0
84.242096 160.0
84.278824 160.0
84.502495 204.0
84.560265 120.0
84.63166 112.0
84.690262 108.0
84.726898 192.0
84.747047 52.0
84.895531 168.0
85.172668 116.0
85.229622 152.0
85.259026 180.0
85.463142 60.0
85.562531 180.0
85.58831 108.0
85.665665 168.0
85.724625 220.0
85.74305 112.0
85.811256 112.0
86.021576 136.0
86.058495 216.0
86.097275 124.0
86.117592 184.0
86.185944 120.0
86.300545 72.0
86.319038 92.0
86.38192 164.0
86.437424 164.0
86.53923 184.0
86.596634 128.0
86.66703 76.0
86.694214 132.0
86.744873 192.0
86.969322 144.0
86.986031 164.0
87.171761 204.0
87.40081 112.0
87.428894 224.0
87.473061 140.0
87.495399 144.0
87.718445 116.0
87.725266 188.0
87.855438 176.0
88.079102 220.0
88.191216 144.0
88.2286 192.0
88.282822 200.0
88.376358 196.0
88.477425 52.0
88.596519 196.0
88.944206 72.0
88.959221 212.0
89.006165 156.0
89.030571 68.0
89.15081 32.0
89.16584 216.0
89.207191 188.0
89.239151 144.0
89.267357 144.0
89.376465 164.0
89.404686 160.0
89.446098 180.0
89.502579 240.0
89.6269 88.0
89.755074 192.0
89.847496 184.0
89.943741 164.0
90.091034 200.0
90.253571 144.0
90.297066 112.0
90.372734 164.0
90.412476 132.0
90.743973 84.0
90.793274 112.0
90.840691 184.0
91.030495 96.0
91.074173 160.0
91.087471 172.0
91.14637 100.0
91.195778 128.0
91.262314 84.0
91.462074 192.0
91.484222 176.0
91.558914 116.0
91.719223 80.0
91.754807 132.0
91.80883 184.0
91.825996 252.0
91.90612 144.0
92.053101 188.0
92.137146 136.0
92.236519 128.0
92.290047 124.0
92.552185 208.0
92.678604 176.0
92.716934 164.0
92.730347 156.0
92.851135 172.0
92.885658 128.0
92.995033 196.0
93.198601 104.0
93.215889 132.0
93.413925 104.0
93.475494 136.0
93.494736 252.0
93.558815 180.0
93.627579 136.0
93.72197 128.0
93.945618 152.0
93.995781 116.0
94.022797 116.0
94.063332 100.0
94.136703 92.0
94.154083 200.0
94.214157 204.0
94.235214 48.0
94.307182 200.0
94.450989 208.0
94.492363 192.0
94.50692 152.0
94.531059 180.0
95.060097 80.0
95.417496 204.0
95.431107 136.0
95.524452 60.0
95.58873 116.0
95.681114 128.0
95.705452 120.0
95.824265 104.0
95.85154 108.0
96.023102 200.0
96.138206 220.0
96.197144 244.0
96.226967 144.0
96.358856 192.0
96.450706 84.0
96.480026 104.0
96.511307 104.0
96.671715 160.0
96.701172 152.0
96.811531 236.0
96.969398 144.0
97.077225 80.0
97.393204 80.0
97.440353 180.0
97.577934 220.0
97.73922 84.0
97.843536 108.0
97.859283 180.0
98.014893 152.0
98.040512 144.0
98.273193 168.0
98.381744 112.0
98.395569 108.0
98.488091 136.0
98.512085 108.0
98.593094 100.0
98.62867 156.0
98.739395 180.0
98.761154 92.0
98.782913 44.0
99.022415 124.0
99.062035 160.0
99.075897 176.0
99.147232 120.0
99.266182 200.0
99.343536 224.0
99.530098 104.0
99.579742 212.0
99.609543 112.0
99.671127 224.0
99.752617 124.0
99.784424 120.0
99.971405 212.0
99.993294 148.0
100.017181 176.0
100.039078 64.0
100.054543 192.0
100.078896 144.0
100.104782 140.0
100.423653 132.0
100.529396 204.0
100.683113 176.0
100.739044 172.0
100.780998 84.0
100.814972 32.0
100.832954 168.0
100.850945 160.0
100.928909 212.0
101.062927 140.0
101.092522 152.0
101.128967 104.0
101.257111 32.0
101.395348 192.0
101.439445 152.0
101.461494 116.0
101.49157 144.0
101.573799 116.0
101.668098 192.0
101.728317 188.0
101.744377 192.0
101.75843 112.0
102.062302 152.0
102.096016 144.0
102.225128 156.0
102.307289 180.0
102.3395 196.0
102.409988 200.0
102.474876 132.0
102.538719 228.0
102.544151 204.0
102.597389 112.0
102.643761 224.0
102.730492 116.0
102.818085 136.0
102.935867 196.0
103.019173 156.0
103.073723 148.0
103.112122 64.0
103.166695 120.0
103.23008 252.0
103.292076 136.0
103.403358 92.0
103.441818 124.0
103.761909 164.0
103.81868 180.0
103.836937 180.0
103.871414 188.0
103.89373 204.0
103.940399 212.0
104.064217 196.0
104.100761 72.0
104.179977 76.0
104.247032 200.0
104.482895 116.0
104.588715 100.0
104.62133 164.0
104.688477 100.0
105.124733 108.0
105.14106 64.0
105.212502 160.0
105.288055 188.0
105.351372 68.0
105.484207 52.0
105.629395 144.0
105.688721 136.0
105.760353 152.0
105.838142 140.0
105.877052 148.0
105.930305 184.0
105.965134 104.0
105.985626 168.0
106.031334 224.0
106.157814 148.0
106.191635 220.0
106.291153 164.0
106.311676 156.0
106.348618 100.0
106.375305 76.0
106.39994 136.0
106.416359 172.0
106.449219 104.0
106.471809 164.0
106.551918 224.0
106.630005 164.0
106.8274 80.0
106.989975 160.0
107.062042 204.0
107.103233 72.0
107.14444 188.0
107.2248 76.0
107.245415 200.0
107.409462 172.0
107.478455 52.0
107.594032 200.0
107.668373 156.0
107.720009 152.0
107.748932 144.0
107.78244 144.0
107.843987 92.0
107.926682 72.0
107.943222 224.0
108.052849 132.0
108.220497 156.0
108.243271 256.0
108.257767 52.0
108.292976 284.0
108.384132 136.0
108.400711 160.0
108.462883 128.0
108.531303 96.0
108.62085 268.0
108.697533 200.0
108.72007 188.0
108.79895 180.0
108.884087 224.0
108.942245 196.0
108.96302 204.0
108.98172 52.0
108.998344 168.0
109.031982 192.0
109.120972 124.0
109.247841 144.0
109.335228 136.0
109.402283 192.0
109.420578 152.0
109.489288 132.0
109.574699 68.0
109.595184 72.0
109.62262 204.0
109.672638 196.0
109.797737 104.0
109.962006 136.0
110.027267 48.0
110.165108 116.0
110.196442 220.0
110.227783 104.0
110.286537 108.0
110.334381 204.0
110.388748 152.0
110.438942 188.0
110.610527 40.0
110.731964 68.0
110.840904 76.0
110.857666 272.0
111.05323 100.0
111.140755 148.0
111.220505 176.0
111.254089 288.0
111.319183 152.0
111.335983 44.0
111.388489 160.0
111.415802 44.0
111.584923 144.0
111.632294 124.0
111.72274 72.0
111.870056 172.0
112.05117 184.0
112.591377 216.0
112.67144 60.0
112.799561 160.0
112.829948 180.0
112.844749 120.0
112.890358 200.0
112.990685 164.0
113.136711 84.0
113.181175 160.0
113.206589 164.0
113.3909 164.0
113.40683 128.0
113.422691 148.0
113.448135 188.0
113.575226 60.0
113.613548 144.0
113.755737 128.0
113.825798 148.0
113.85128 172.0
113.883141 212.0
113.929871 164.0
113.993614 212.0
114.010612 156.0
114.048874 140.0
114.072502 172.0
114.223236 116.0
114.248764 44.0
114.291313 176.0
114.384956 256.0
114.408371 132.0
114.423279 92.0
114.461601 196.0
114.576622 216.0
114.621361 120.0
114.721535 48.0
114.838821 160.0
114.934822 128.0
115.013786 144.0
115.049736 152.0
115.103447 212.0
115.270073 104.0
115.293579 76.0
115.428253 72.0
115.558731 132.0
115.580132 220.0
116.171463 140.0
116.259438 188.0
116.401115 152.0
116.572968 148.0
116.654648 152.0
116.673996 156.0
116.951492 152.0
117.069328 164.0
117.072922 120.0
117.408257 128.0
117.565742 116.0
117.611069 156.0
117.647766 168.0
117.768692 120.0
117.831337 184.0
117.904808 60.0
118.153473 100.0
118.201073 236.0
118.224876 180.0
118.265999 180.0
118.311462 108.0
118.415398 172.0
118.459618 164.0
118.612572 172.0
118.627747 176.0
118.692795 72.0
118.757851 136.0
118.959656 192.0
119.013931 144.0
119.278984 132.0
119.361595 124.0
119.549034 172.0
119.629211 100.0
119.751152 156.0
119.825218 180.0
119.850189 164.0
119.997398 132.0
120.058456 176.0
120.080261 192.0
120.134796 136.0
120.202431 108.0
120.22644 128.0
120.27227 164.0
120.301552 136.0
120.383835 164.0
120.52124 68.0
120.619583 136.0
120.673691 192.0
120.755318 156.0
120.787956 212.0
120.901733 176.0
121.175934 200.0
121.377106 128.0
121.504318 132.0
121.578606 196.0
121.675507 208.0
121.892952 132.0
122.057816 96.0
122.172188 132.0
122.280006 52.0
122.297958 128.0
122.568504 248.0
122.584892 236.0
122.733818 152.0
122.771309 40.0
122.786743 172.0
122.991943 84.0
123.13546 140.0
123.184052 140.0
123.436012 224.0
123.612984 188.0
123.829941 236.0
123.997887 176.0
124.067039 168.0
124.253334 104.0
124.304367 164.0
124.362068 84.0
124.406464 152.0
124.508606 164.0
124.626343 184.0
124.866425 96.0
124.881996 284.0
125.175766 92.0
125.195808 124.0
125.470535 204.0
125.503319 148.0
125.521164 168.0
125.556839 80.0
125.646065 176.0
125.868065 104.0
125.949669 184.0
126.036797 184.0
126.09285 792.0
126.202202 92.0
126.31179 156.0
126.329681 140.0
126.394478 200.0
126.638588 124.0
126.654266 184.0
126.672188 188.0
126.723717 184.0
126.775253 228.0
126.846764 208.0
126.965813 220.0
126.990479 116.0
127.065094 200.0
127.0952 380.0
127.111626 160.0
127.129578 180.0
127.152023 172.0
127.394531 52.0
127.459686 228.0
127.486649 200.0
127.57206 176.0
127.610283 92.0
127.961273 236.0
128.015198 152.0
128.048035 188.0
128.063583 176.0
128.141449 244.0
128.233841 176.0
128.292282 104.0
128.411957 76.0
128.47287 196.0
128.572144 236.0
128.651154 96.0
128.703079 176.0
128.777603 176.0
128.797928 196.0
128.840851 84.0
129.039734 168.0
129.069595 272.0
129.118881 160.0
129.139236 56.0
129.234253 120.0
129.38739 188.0
129.558014 180.0
129.616928 220.0
129.814133 48.0
129.850418 60.0
129.934357 160.0
130.035706 108.0
130.064667 692.0
130.100021 144.0
130.174957 156.0
130.215836 188.0
130.265808 80.0
130.315781 112.0
130.342087 104.0
130.449875 172.0
130.511261 44.0
130.540817 32.0
130.574936 152.0
130.731918 168.0
130.809296 204.0
130.873047 192.0
131.037033 148.0
131.065292 184.0
131.112228 132.0
131.128189 128.0
131.146423 140.0
131.166931 136.0
131.385864 192.0
131.408676 160.0
131.630081 196.0
131.849396 184.0
131.93396 112.0
132.046005 160.0
132.062027 60.0
132.078033 120.0
132.180984 192.0
132.240494 76.0
132.538208 136.0
132.602371 44.0
132.730743 236.0
132.812592 192.0
132.856888 312.0
133.194351 180.0
133.21962 104.0
133.249481 88.0
133.306931 180.0
133.325317 120.0
133.362091 132.0
133.391968 116.0
133.550629 140.0
133.739304 192.0
133.849808 188.0
133.872833 152.0
134.084793 328.0
134.255386 188.0
134.294601 104.0
134.795578 168.0
134.821335 140.0
134.994385 156.0
135.167877 240.0
135.232681 252.0
135.348434 192.0
135.394745 196.0
135.566177 192.0
135.631073 112.0
135.65657 188.0
135.811935 156.0
135.916336 164.0
135.999878 124.0
136.037018 204.0
136.08577 168.0
136.148468 144.0
136.315735 156.0
136.345947 168.0
136.471481 188.0
136.615677 156.0
136.636261 156.0
136.844879 216.0
136.94191 160.0
136.98349 208.0
136.999786 104.0
137.202545 48.0
137.435776 140.0
137.491791 216.0
137.535736 236.0
137.79068 240.0
137.851425 132.0
137.888824 140.0
138.092224 204.0
138.134338 152.0
138.336227 116.0
138.397156 160.0
138.440948 176.0
138.581497 76.0
138.658829 148.0
138.693985 256.0
138.793304 252.0
138.867493 200.0
138.907364 216.0
139.051727 168.0
139.069275 120.0
139.116226 180.0
139.163177 88.0
139.233627 184.0
139.398071 172.0
139.560257 136.0
139.597885 132.0
139.69902 156.0
139.82373 40.0
139.859039 156.0
140.047409 144.0
140.066589 168.0
140.195297 300.0
140.29248 76.0
140.429245 140.0
140.698257 272.0
140.764359 240.0
140.804642 152.0
140.99115 288.0
141.018066 196.0
141.068558 256.0
141.277267 132.0
141.383743 144.0
141.478424 208.0
141.608658 140.0
141.656036 148.0
141.850342 148.0
141.902496 196.0
141.933319 132.0
142.072739 280.0
142.431717 156.0
142.46022 160.0
142.969055 220.0
143.021423 172.0
143.08223 188.0
143.207138 148.0
143.264313 100.0
143.345322 56.0
143.362 156.0
143.483566 156.0
143.602798 164.0
143.657654 196.0
143.719681 196.0
143.762634 152.0
143.874832 160.0
143.929733 144.0
143.963165 144.0
144.014191 200.0
144.049164 124.0
144.098755 540.0
144.185349 32.0
144.28096 124.0
144.300095 116.0
144.376358 188.0
144.47287 180.0
144.49382 156.0
144.591934 56.0
144.776276 100.0
144.800217 160.0
145.027832 164.0
145.053116 76.0
145.389999 224.0
145.550842 160.0
145.646896 36.0
145.711761 116.0
145.829514 172.0
145.9095 176.0
146.007431 148.0
146.045914 36.0
146.171021 108.0
146.21434 108.0
146.245621 116.0
146.47377 160.0
146.491501 180.0
146.524963 100.0
146.599655 140.0
146.999969 188.0
147.072372 104.0
147.193085 176.0
147.449158 160.0
147.541016 188.0
147.70787 220.0
147.790131 76.0
147.923248 172.0
148.107269 212.0
148.167831 124.0
148.199341 212.0
148.289001 160.0
148.387558 224.0
148.536224 196.0
148.594543 172.0
148.664917 144.0
148.684219 96.0
148.78627 120.0
148.859116 140.0
148.87854 180.0
148.968414 40.0
149.043732 76.0
149.119064 180.0
149.153091 196.0
149.177399 136.0
149.261749 168.0
149.279526 224.0
149.320862 144.0
149.642075 136.0
149.741058 136.0
149.785767 176.0
149.861282 184.0
150.04306 104.0
150.180649 112.0
150.231873 176.0
150.302628 184.0
150.449066 148.0
150.651764 172.0
151.003754 48.0
151.060501 384.0
151.089371 156.0
151.113831 184.0
151.258224 84.0
151.356155 104.0
151.385544 124.0
151.405136 164.0
151.483505 144.0
151.542908 180.0
151.650131 116.0
151.941956 172.0
152.023514 164.0
152.062164 1080.0
152.118652 132.0
152.241409 92.0
152.386337 176.0
152.492004 216.0
152.720673 184.0
152.860901 156.0
152.961807 168.0
153.020889 44.0
153.069366 5524.0
153.107086 116.0
153.177597 152.0
153.217926 100.0
153.243637 156.0
153.29245 196.0
153.360855 52.0
153.506317 124.0
153.681442 168.0
153.706116 144.0
153.753006 128.0
153.802368 164.0
153.863678 144.0
153.888779 228.0
153.973083 244.0
154.026718 164.0
154.064346 1660.0
154.137146 116.0
154.284073 140.0
154.370621 28.0
154.402771 132.0
154.427505 184.0
154.544754 40.0
154.702164 112.0
154.745605 132.0
154.81015 196.0
154.882935 64.0
154.929062 208.0
154.979553 44.0
155.068695 616.0
155.135696 128.0
155.234879 188.0
155.277039 168.0
155.42836 128.0
155.53508 72.0
155.634384 172.0
155.795471 116.0
155.852966 144.0
155.887756 188.0
156.077988 612.0
156.140564 196.0
156.168686 52.0
156.223419 80.0
156.405075 84.0
156.422501 176.0
156.53952 136.0
156.597107 64.0
156.845963 216.0
156.865906 144.0
156.900803 80.0
156.970627 104.0
157.032974 140.0
157.05043 36.0
157.078552 160.0
157.196259 204.0
157.260025 64.0
157.34166 96.0
157.374847 72.0
157.429794 144.0
157.704605 160.0
157.738373 132.0
157.852112 184.0
157.884628 204.0
157.937149 208.0
158.039719 48.0
158.144821 128.0
158.23996 52.0
158.278412 212.0
158.38269 152.0
158.465363 112.0
158.505463 180.0
158.625763 44.0
158.680908 32.0
158.708496 228.0
158.768677 160.0
158.841415 220.0
158.861481 152.0
158.981918 48.0
159.012039 40.0
159.064743 188.0
159.082321 124.0
159.137558 164.0
159.200333 64.0
159.403809 128.0
159.4767 148.0
159.52948 28.0
159.569702 68.0
159.675323 172.0
159.718079 36.0
159.770905 56.0
159.801102 124.0
160.125824 236.0
160.355103 156.0
160.397949 184.0
160.574448 164.0
160.627426 48.0
160.768723 136.0
160.849487 204.0
161.094437 156.0
161.177811 108.0
161.34462 216.0
161.38002 132.0
161.417953 144.0
161.716476 128.0
161.75444 132.0
161.85318 136.0
161.972214 116.0
161.992477 144.0
162.086227 148.0
162.119171 140.0
162.276321 80.0
162.329575 140.0
162.481766 156.0
162.545197 164.0
162.588333 124.0
162.689865 60.0
162.738113 124.0
162.763504 144.0
162.783813 208.0
162.84053 180.0
162.882858 136.0
162.971786 180.0
162.996033 160.0
163.052765 336.0
163.086136 356.0
163.220886 120.0
163.276825 176.0
163.29718 124.0
163.439636 44.0
163.459991 140.0
163.503265 84.0
163.541443 180.0
163.602524 128.0
163.655991 220.0
163.847015 128.0
163.915817 32.0
164.064346 428.0
164.154312 160.0
164.298264 96.0
164.377365 148.0
164.527954 84.0
164.602005 152.0
164.668396 156.0
164.780792 156.0
164.814011 180.0
164.862564 180.0
165.06842 1180.0
165.11055 136.0
165.253799 128.0
165.310089 136.0
165.330566 132.0
165.371521 148.0
165.566101 120.0
165.691605 152.0
165.784882 160.0
165.829987 60.0
165.945343 152.0
166.045349 172.0
166.069305 340.0
166.219803 96.0
166.394348 100.0
166.420013 152.0
166.461105 44.0
166.558701 136.0
166.725708 124.0
166.754044 140.0
166.789963 156.0
166.838806 172.0
166.982803 132.0
167.073547 6020.0
167.236069 212.0
167.29158 44.0
167.36882 100.0
167.393051 248.0
167.412598 72.0
167.585175 156.0
167.637039 188.0
167.675369 168.0
167.747543 84.0
167.781464 172.0
167.809418 128.0
167.879044 252.0
167.933197 40.0
167.959 64.0
168.020905 184.0
168.07869 3280.0
168.255768 152.0
168.317734 240.0
168.457199 172.0
168.535538 160.0
168.658752 204.0
168.710449 140.0
168.79837 156.0
168.894058 160.0
168.927689 160.0
168.945786 60.0
169.07782 748.0
169.10881 208.0
169.214951 124.0
169.243423 160.0
169.328888 96.0
169.573059 164.0
169.657974 192.0
169.722794 132.0
169.746124 60.0
169.810959 96.0
169.847275 108.0
169.900238 116.0
169.910187 48.0
169.91861 128.0
169.957977 184.0
170.062637 152.0
170.091904 188.0
170.127045 168.0
170.180862 192.0
170.229401 104.0
170.441544 80.0
170.543152 128.0
170.600342 84.0
170.818787 156.0
170.86821 152.0
170.930664 60.0
171.006134 160.0
171.077316 116.0
171.093872 136.0
171.14151 48.0
171.162338 108.0
171.188293 120.0
171.230042 64.0
171.31601 76.0
171.503616 156.0
171.532288 180.0
171.615723 208.0
171.936584 232.0
172.051483 180.0
172.075607 184.0
172.213333 100.0
172.249908 128.0
172.647186 176.0
172.702103 164.0
172.770126 64.0
172.797943 208.0
172.840759 176.0
173.097382 128.0
173.119064 132.0
173.209915 128.0
173.34877 160.0
173.527008 136.0
173.752563 208.0
173.946762 240.0
173.996643 132.0
174.022903 196.0
174.046539 144.0
174.093796 132.0
174.130569 152.0
174.233017 80.0
174.333984 224.0
174.437988 136.0
174.482681 184.0
174.582611 60.0
174.685181 192.0
174.819366 124.0
174.961502 112.0
175.069458 132.0
175.224869 160.0
175.288116 112.0
175.338181 180.0
175.361908 160.0
175.393539 80.0
175.435715 144.0
175.491074 156.0
175.533264 52.0
175.723175 192.0
175.797058 64.0
175.870956 180.0
176.156143 216.0
176.224838 132.0
176.312042 152.0
176.350922 176.0
176.452133 228.0
176.571136 216.0
176.732498 116.0
176.788071 116.0
176.806595 176.0
176.894012 148.0
177.026321 180.0
177.137558 104.0
177.158752 220.0
177.368103 200.0
177.413162 168.0
177.460892 104.0
177.60675 64.0
177.65715 112.0
177.68898 144.0
177.744705 128.0
178.065323 992.0
178.16687 180.0
178.227982 36.0
178.451889 200.0
178.876907 184.0
178.906189 148.0
178.924835 40.0
179.072678 1928.0
179.171646 260.0
179.343063 176.0
179.409698 48.0
179.444366 140.0
179.567688 128.0
179.703079 148.0
179.735092 176.0
179.836502 144.0
179.889893 136.0
179.936859 236.0
179.976242 152.0
180.017258 188.0
180.036499 188.0
180.080704 43096.0
180.12912 120.0
180.151596 80.0
180.169708 168.0
180.205032 204.0
180.225067 112.0
180.269165 96.0
180.321014 60.0
180.370728 72.0
180.408142 72.0
180.440231 60.0
180.519562 36.0
180.535599 132.0
180.566895 120.0
180.595337 32.0
180.631653 180.0
180.675583 60.0
180.701843 68.0
180.739792 36.0
180.769226 52.0
180.787964 76.0
180.844162 232.0
180.93251 128.0
180.983368 424.0
181.012833 168.0
181.084198 6600.0
181.144073 100.0
181.176208 108.0
181.21315 112.0
181.267319 64.0
181.326263 172.0
181.358429 52.0
181.400116 84.0
181.454941 80.0
181.556839 184.0
181.591705 80.0
181.624847 224.0
181.677536 140.0
181.792908 168.0
181.948593 168.0
181.972763 108.0
182.008331 80.0
182.08963 4364.0
182.162445 140.0
182.259521 124.0
182.283188 176.0
182.316452 76.0
182.342361 168.0
182.391846 136.0
182.418167 96.0
182.64299 140.0
182.663055 200.0
182.693024 60.0
182.746841 132.0
182.803345 84.0
182.841339 204.0
183.019348 188.0
183.092758 916.0
183.143921 104.0
183.181061 180.0
183.244934 196.0
183.279968 84.0
183.312302 136.0
183.378082 188.0
183.468628 152.0
183.546829 36.0
183.614243 48.0
183.654694 80.0
183.873245 112.0
184.055786 464.0
184.074005 272.0
184.112305 304.0
184.145935 36.0
184.191711 76.0
184.243179 104.0
184.356659 52.0
184.457779 176.0
184.524261 136.0
184.56752 80.0
184.681107 96.0
184.702744 176.0
184.870483 116.0
184.90567 124.0
184.930023 168.0
185.013947 208.0
185.048416 180.0
185.11412 36.0
185.152039 136.0
185.241425 144.0
185.303741 52.0
185.368759 136.0
185.450073 128.0
185.797165 76.0
186.177185 192.0
186.639145 116.0
186.817001 132.0
187.177917 148.0
187.246002 144.0
187.322266 192.0
187.551163 260.0
187.687469 220.0
187.979355 172.0
188.031204 48.0
188.09671 164.0
188.194992 92.0
188.429886 152.0
188.492722 92.0
188.582916 132.0
188.651245 100.0
188.675858 116.0
188.791901 192.0
188.905579 160.0
188.92598 148.0
189.065231 204.0
189.099854 160.0
189.321609 164.0
189.357208 136.0
189.49144 152.0
189.538025 168.0
189.692749 220.0
189.790207 112.0
189.9767 76.0
190.015106 68.0
190.064255 2488.0
190.1633 152.0
190.325256 52.0
190.344482 164.0
190.399414 32.0
190.495544 172.0
190.569717 148.0
190.784088 120.0
190.880325 176.0
190.946335 92.0
190.998596 180.0
191.024368 108.0
191.072449 14600.0
191.134567 132.0
191.163666 92.0
191.199448 32.0
191.248978 168.0
191.29715 96.0
191.335007 32.0
191.436203 56.0
191.521576 156.0
191.606979 128.0
191.670349 88.0
191.722702 124.0
191.841232 64.0
191.870209 180.0
191.912918 148.0
191.973068 220.0
192.018143 152.0
192.037003 212.0
192.079269 9404.0
192.144592 168.0
192.174942 340.0
192.197021 48.0
192.220978 60.0
192.268768 108.0
192.296356 92.0
192.351562 92.0
192.478561 44.0
192.60112 160.0
192.652573 124.0
192.68573 84.0
192.709442 192.0
192.754807 52.0
192.801773 144.0
192.876404 172.0
192.898514 96.0
192.942749 156.0
192.969177 108.0
193.07901 3936.0
193.150452 184.0
193.160294 108.0
193.171051 148.0
193.199356 184.0
193.224854 128.0
193.311935 160.0
193.341064 188.0
193.437943 228.0
193.487778 68.0
193.509918 36.0
193.606842 228.0
193.656693 100.0
193.685226 92.0
193.73703 68.0
193.864487 220.0
193.886658 56.0
193.908829 52.0
193.97258 96.0
194.058258 2064.0
194.094467 5068.0
194.138931 60.0
194.178345 76.0
194.20549 52.0
194.233231 112.0
194.254501 132.0
194.331696 196.0
194.452438 84.0
194.490601 32.0
194.532852 144.0
194.612106 100.0
194.641205 64.0
194.743958 132.0
194.771744 196.0
194.81897 180.0
194.921768 68.0
194.962753 64.0
195.065659 292.0
195.099442 2168.0
195.18634 144.0
195.359787 200.0
195.505753 80.0
195.592026 92.0
195.675552 48.0
195.77301 96.0
195.839844 56.0
195.876053 132.0
195.918198 128.0
195.959641 216.0
196.041168 140.0
196.071106 148.0
196.108276 1848.0
196.171448 92.0
196.213257 148.0
196.266235 76.0
196.316437 80.0
196.366638 116.0
196.402893 72.0
196.584244 72.0
196.614944 208.0
196.673553 60.0
196.701462 72.0
196.723953 68.0
196.765671 152.0
196.958679 212.0
197.106323 7184.0
197.188187 188.0
197.243546 132.0
197.325058 176.0
197.360794 208.0
197.397476 132.0
197.43631 36.0
197.483841 52.0
197.606934 44.0
197.947754 152.0
198.109177 860.0
198.166901 184.0
198.298615 156.0
198.402328 80.0
198.637894 104.0
198.688385 156.0
198.783783 236.0
198.926926 180.0
198.98027 88.0
199.030807 172.0
199.106628 320.0
199.129105 180.0
199.199326 192.0
199.328568 80.0
199.373535 108.0
199.393204 132.0
199.412872 68.0
199.522507 64.0
199.595474 176.0
199.618103 276.0
199.689957 300.0
199.789673 120.0
199.829071 104.0
199.97258 152.0
200.00354 100.0
200.083008 192.0
200.107712 100.0
200.426697 112.0
200.566895 108.0
200.820663 124.0
200.8517 60.0
201.221375 184.0
201.345627 108.0
201.436401 144.0
201.571625 120.0
201.599884 104.0
201.656418 140.0
201.928391 228.0
202.156998 168.0
202.315506 64.0
202.423096 76.0
202.533554 80.0
202.564713 84.0
202.658203 160.0
202.737549 200.0
202.954666 128.0
203.123138 136.0
203.199738 164.0
203.262161 100.0
203.46936 220.0
203.660721 196.0
203.767578 164.0
203.915344 172.0
203.940918 284.0
204.029053 188.0
204.07692 124.0
204.358963 108.0
204.384567 136.0
204.464249 244.0
204.697693 172.0
204.823013 176.0
205.045258 160.0
205.079178 272.0
205.156418 188.0
205.267609 120.0
205.573593 216.0
205.75267 140.0
205.886871 176.0
205.912582 112.0
205.946854 144.0
205.981125 152.0
206.032547 148.0
206.054092 692.0
206.082611 824.0
206.269745 44.0
206.435577 68.0
206.45845 120.0
206.498489 180.0
206.538467 168.0
206.576309 156.0
206.621948 200.0
206.692093 148.0
206.735947 204.0
206.75885 132.0
206.793182 168.0
206.823532 20.0
206.853867 200.0
206.913422 100.0
206.973541 180.0
207.012344 204.0
207.068405 24064.0
207.085968 12280.0
207.128021 200.0
207.2061 144.0
207.22905 136.0
207.268585 44.0
207.347275 176.0
207.37822 184.0
207.405762 236.0
207.424896 52.0
207.47258 136.0
207.54364 192.0
207.598236 92.0
207.633728 160.0
207.669937 84.0
207.699677 160.0
207.736557 180.0
207.772415 176.0
207.799362 172.0
207.82309 156.0
207.838699 68.0
207.844345 184.0
207.862305 392.0
207.92775 180.0
207.987289 180.0
208.006851 280.0
208.075714 69836.0
208.190994 84.0
208.229111 104.0
208.260391 240.0
208.283752 128.0
208.353455 116.0
208.393875 68.0
208.417236 52.0
208.447083 92.0
208.45784 64.0
208.4841 76.0
208.51796 92.0
208.54657 192.0
208.569366 132.0
208.598602 152.0
208.631241 128.0
208.654175 204.0
208.684814 92.0
208.753983 96.0
208.779572 124.0
208.884979 44.0
208.908707 224.0
208.929916 32.0
208.935547 76.0
208.973114 88.0
208.997803 220.0
209.028824 56.0
209.078171 11796.0
209.192627 132.0
209.247589 84.0
209.296066 100.0
209.30777 84.0
209.333389 40.0
209.338348 84.0
209.432205 84.0
209.469635 116.0
209.519913 108.0
209.534836 92.0
209.575928 68.0
209.619156 92.0
209.6772 112.0
209.7509 156.0
209.801956 132.0
209.829559 44.0
209.913193 36.0
209.955658 108.0
210.031433 72.0
210.052567 160.0
210.081802 1192.0
210.110031 292.0
210.146835 64.0
210.276688 108.0
210.310242 64.0
210.318207 104.0
210.339783 72.0
210.392151 64.0
210.430908 132.0
210.483582 180.0
210.508911 148.0
210.523727 84.0
210.57959 136.0
210.628952 184.0
210.674393 120.0
210.721237 72.0
210.753174 136.0
210.874542 104.0
210.912125 44.0
210.96022 44.0
211.036438 204.0
211.090271 324.0
211.128967 176.0
211.172348 36.0
211.253342 48.0
211.277603 156.0
211.340134 120.0
211.392227 112.0
211.450104 100.0
211.542725 64.0
211.565887 120.0
211.644058 60.0
211.713562 64.0
211.820724 48.0
211.855484 56.0
211.965591 160.0
212.049637 124.0
212.069916 204.0
212.238068 84.0
212.366333 88.0
212.443985 68.0
212.603577 32.0
212.885178 272.0
212.978104 156.0
213.066772 92.0
213.178574 48.0
213.198914 132.0
213.29483 72.0
213.39949 36.0
213.451828 112.0
213.740479 224.0
214.05127 216.0
214.692383 200.0
215.238083 40.0
215.311096 108.0
215.506805 44.0
216.053543 120.0
216.132538 44.0
216.161804 112.0
216.352051 44.0
216.44574 88.0
217.13736 36.0
217.234146 72.0
217.401398 176.0
217.509995 40.0
217.741943 88.0
217.774261 80.0
217.918198 108.0
217.985779 120.0
218.073959 64.0
218.109222 96.0
218.179779 164.0
218.235641 128.0
218.365036 40.0
218.520935 112.0
218.92421 156.0
218.953659 72.0
219.087875 184.0
219.345535 96.0
219.419235 52.0
219.46936 168.0
219.587311 68.0
219.687607 48.0
219.737762 60.0
219.796768 164.0
220.032898 104.0
220.073471 1320.0
220.097824 412.0
220.465363 88.0
220.505539 208.0
220.656296 320.0
220.771606 40.0
221.037857 164.0
221.067734 372.0
221.106308 3520.0
221.212479 88.0
221.242081 72.0
221.274643 116.0
221.318497 84.0
221.404938 76.0
221.514526 116.0
221.569214 88.0
221.671555 144.0
221.804916 48.0
221.959091 28.0
222.046921 156.0
222.112167 1296.0
222.154846 120.0
222.267593 64.0
222.386292 148.0
222.41301 76.0
222.433792 76.0
222.837677 152.0
222.864426 116.0
222.900269 60.0
222.997513 188.0
223.038071 268.0
223.086411 800.0
223.121536 34120.0
223.222488 148.0
223.28952 108.0
223.31926 44.0
223.346024 84.0
223.476929 76.0
223.519699 108.0
223.551315 84.0
223.607864 44.0
223.651703 176.0
223.69989 48.0
223.744919 92.0
223.766922 148.0
223.808838 156.0
223.935379 84.0
223.965164 52.0
224.01329 76.0
224.094818 1424.0
224.124481 4836.0
224.185638 52.0
224.218414 52.0
224.257751 60.0
224.286972 44.0
224.325714 32.0
224.58812 56.0
224.659714 56.0
224.680603 64.0
224.71994 64.0
224.755188 72.0
224.847702 48.0
224.868591 44.0
225.00293 100.0
225.035767 72.0
225.101059 4372.0
225.173126 68.0
225.205978 40.0
225.293396 200.0
225.337433 96.0
225.363785 112.0
225.445877 108.0
225.557999 84.0
225.64624 124.0
225.749924 84.0
225.794785 64.0
225.81572 172.0
225.872543 120.0
225.956314 28.0
226.031113 52.0
226.104889 332.0
226.132874 400.0
226.33345 56.0
226.567062 40.0
226.617996 92.0
226.683914 72.0
227.013672 96.0
227.057159 96.0
227.111343 180.0
227.26265 72.0
227.457718 68.0
227.499741 32.0
227.700928 68.0
228.016388 80.0
228.380188 60.0
228.638947 136.0
229.826248 128.0
229.883575 76.0
229.986191 68.0
230.355103 96.0
230.387817 80.0
231.603882 120.0
232.031158 80.0
232.088776 184.0
232.116058 100.0
232.519531 36.0
233.109009 196.0
233.248505 64.0
234.102219 256.0
235.085068 128.0
235.225464 56.0
235.872192 196.0
236.09436 480.0
236.137482 168.0
236.94722 136.0
237.102081 560.0
237.130173 308.0
237.385544 96.0
238.094452 100.0
238.186584 48.0
238.214233 52.0
239.114166 336.0
240.940659 112.0
241.172409 44.0
242.109879 184.0
243.101913 60.0
243.35025 132.0
246.89328 112.0
247.346954 76.0
249.087311 172.0
249.124817 244.0
250.132874 604.0
251.116058 1164.0
251.15181 284.0
251.184525 168.0
251.363617 100.0
252.155365 176.0
252.200531 144.0
253.092667 120.0
253.126236 172.0
253.843674 28.0
254.107025 476.0
254.564026 172.0
255.120056 148.0
255.613052 108.0
255.746719 48.0
257.749512 140.0
261.128479 128.0
261.334381 92.0
261.640137 56.0
261.727051 124.0
262.120026 112.0
265.488525 60.0
265.793457 56.0
265.903778 132.0
266.283661 128.0
267.134094 264.0
268.121857 112.0
269.127258 428.0
269.167999 180.0
270.133942 180.0
270.182281 200.0
270.231354 56.0
270.385162 60.0
271.072876 136.0
274.544373 104.0
274.613647 192.0
275.600708 120.0
275.980835 44.0
277.812347 132.0
278.117645 176.0
278.144196 132.0
279.077728 68.0
279.150787 1420.0
279.243988 172.0
280.153015 328.0
280.879456 168.0
281.160736 264.0
282.559814 76.0
285.436951 220.0
286.541687 108.0
288.698639 52.0
288.901581 64.0
289.866547 76.0
292.00531 248.0
292.99588 76.0
294.145142 164.0
295.141418 424.0
295.173523 132.0
296.107788 88.0
296.285889 124.0
296.899475 128.0
296.974915 144.0
297.157837 6320.0
297.207764 184.0
297.269958 72.0
297.321442 56.0
297.386658 80.0
297.527405 68.0
297.558289 76.0
297.709381 64.0
298.038879 152.0
298.163452 1372.0
298.245361 32.0
298.358795 36.0
298.420685 52.0
299.15448 136.0
299.18103 160.0
299.856171 120.0
299.994049 96.0
300.428558 52.0
301.023682 60.0
303.343811 76.0
304.221466 92.0
304.395081 104.0
304.909241 72.0
305.608185 88.0
305.855286 100.0
305.900543 140.0
307.165497 148.0
309.160004 524.0
310.160278 416.0
311.144501 140.0
312.772125 112.0
313.513031 88.0
317.439301 48.0
318.969543 164.0
321.498352 140.0
321.948181 100.0
322.196747 380.0
323.883118 136.0
324.169739 56.0
324.743378 124.0
325.09137 140.0
325.175568 1020.0
325.335449 56.0
325.385712 32.0
325.486237 136.0
325.884949 28.0
326.179932 256.0
326.226379 100.0
327.136505 32.0
328.632202 48.0
328.726013 112.0
330.398926 60.0
332.885406 112.0
338.845581 72.0
338.951843 56.0
338.977478 180.0
339.212036 124.0
340.063049 256.0
340.198853 2672.0
340.371429 76.0
340.555054 60.0
341.202026 1060.0
341.348877 64.0
341.687256 104.0
341.790283 92.0
342.117859 48.0
342.213806 160.0
346.38681 100.0
347.187408 60.0
351.618378 48.0
354.610474 128.0
354.666687 92.0
355.833374 72.0
361.642578 108.0
362.449219 104.0
362.475739 72.0
363.389557 28.0
370.469452 124.0
371.519867 92.0
372.448822 68.0
376.547028 64.0
377.21936 132.0
377.687225 40.0
378.991913 104.0
379.918518 100.0
380.225067 36.0
386.006348 112.0
386.651825 108.0
405.946442 68.0
409.499146 68.0
418.188141 52.0
418.497528 52.0
420.817535 100.0
425.530121 124.0
431.078552 80.0
443.393127 104.0
447.796204 76.0
450.077698 92.0
451.1297 80.0
454.645325 60.0
455.587952 52.0
456.455017 140.0
464.35141 76.0
465.557404 108.0
469.715149 96.0
470.103455 88.0
472.579437 140.0
483.637726 112.0
484.8685 56.0
489.287476 68.0
492.577332 84.0
493.363953 112.0
493.576172 84.0
493.730957 112.0
495.133881 64.0
506.85022 32.0
516.973389 44.0
527.900635 48.0
529.575684 40.0
532.345825 56.0
546.72345 72.0
547.631348 80.0
552.556213 44.0
553.216125 56.0
566.434814 84.0
567.249878 56.0
577.937195 132.0
579.986938 48.0
595.03363 52.0
605.047852 88.0
605.277954 120.0
644.645813 100.0
652.227966 132.0
672.34198 40.0
681.18042 44.0
757.341736 72.0
767.955505 84.0
769.815369 120.0
779.137512 60.0
788.219543 48.0
801.214294 84.0
803.791077 68.0
816.952881 56.0
826.446594 116.0
829.929138 84.0
835.70166 64.0
842.337402 48.0
846.33374 52.0
893.84314 108.0
894.604919 56.0
915.712708 64.0
930.54657 108.0
950.352966 60.0
954.76355 52.0
964.041748 68.0
969.276978 92.0
971.229919 96.0
976.465942 36.0
991.963806 76.0
994.071167 136.0
994.811829 84.0
1005.405212 160.0
1014.843262 172.0
1046.780762 160.0
1080.900757 112.0
1088.45874 100.0
1093.547241 96.0
1095.232788 192.0
1100.924683 172.0
1101.618164 32.0
1103.541382 48.0
1104.321777 96.0
1108.214355 132.0
1110.043823 128.0
1115.228882 108.0
1131.720215 184.0
1141.584351 216.0
1149.297363 192.0
1151.052368 212.0
1153.741455 40.0
1158.207764 244.0
1169.561035 84.0
1171.637939 156.0
1173.389526 136.0
1176.15918 144.0
1176.951172 136.0
1185.748657 48.0
1187.53125 172.0
1194.372559 132.0
1200.254028 148.0
1200.378174 136.0
1201.564575 192.0
1204.118652 108.0
1213.550659 144.0
1221.029663 76.0
1223.868896 152.0
1233.168213 68.0
1242.144897 188.0
1242.292236 156.0
1246.989746 212.0
1247.165527 44.0
1250.330566 140.0
1250.999268 140.0
1251.928711 160.0
1254.47229 144.0
1260.167603 256.0
1265.713135 48.0
1269.582275 112.0
1274.928101 152.0
1277.87915 168.0
1279.494751 152.0
1281.082886 180.0
1283.185303 176.0
1285.346436 140.0
1285.417847 232.0
1294.381836 188.0
1294.718506 52.0
1297.86438 196.0
1300.906372 132.0
1301.22229 124.0
1314.350952 156.0
1316.949951 160.0
1317.7229 72.0
1321.294434 80.0
1322.879395 168.0
1327.204712 112.0
1327.647095 96.0
1341.950439 192.0
1342.322388 68.0
1342.650513 64.0
1344.204346 128.0
1344.948853 124.0
1345.927124 140.0
1346.416382 160.0
1347.190674 92.0
1351.555542 128.0
1353.539185 200.0
1365.530762 164.0
1365.89856 208.0
1366.935913 188.0
1367.02417 184.0
1367.745483 196.0
1378.247559 164.0
1380.968018 172.0
1382.536499 176.0
1384.735352 88.0
1386.884033 120.0
1388.322388 64.0
1388.663574 152.0
1392.315186 136.0
1397.34021 68.0
1397.875854 172.0
1398.724365 160.0
1403.492432 160.0
1404.238159 156.0
1404.805054 128.0
1410.159058 48.0
1416.129639 116.0
1422.098022 168.0
1428.251831 116.0
1429.696411 204.0
1430.313599 180.0
1431.812012 192.0
1436.636108 156.0
1436.786987 164.0
1443.138794 88.0
1444.91626 96.0
1446.217773 232.0
1448.762207 144.0
1450.846191 180.0
1452.188477 192.0
1453.258057 104.0
1454.996094 108.0
1456.393433 156.0
1458.00415 160.0
1458.901123 164.0
1462.521973 128.0
1463.306152 168.0
1463.473633 132.0
1463.603027 172.0
1466.071167 176.0
1466.55896 44.0
1466.612305 172.0
1467.123047 136.0
1467.5271 148.0
1467.611084 88.0
1468.533813 156.0
1468.587158 132.0
1471.548096 204.0
1471.624512 228.0
1472.27356 156.0
1475.24585 132.0
1475.865112 100.0
1476.071533 120.0
1476.943481 152.0
1477.685547 148.0
1478.412476 184.0
1480.127197 160.0
1480.502441 152.0
1481.130493 192.0
1483.000122 76.0
1484.656128 196.0
1486.527954 132.0
1490.252197 120.0
1490.474976 136.0
1490.605591 172.0
1490.913086 128.0
1492.573486 164.0
1492.881104 148.0
1494.681152 152.0
1495.95105 156.0
1496.066528 40.0
1501.483521 164.0
1501.714844 136.0
1502.856567 176.0
1504.322998 152.0
