>compound MLS001140206-01!(2S)-N-(1,3-benzodioxol-5-yl)-5-oxo-1-(3-oxo-1H-2-benzofuran-1-yl)pyrrolidine-2-carboxamide
>formula C20H16N2O6
>ionization [M+H]+
>parentmass 381.109
#inchi InChI=1S/C20H16N2O6/c23-17-8-6-14(18(24)21-11-5-7-15-16(9-11)27-10-26-15)22(17)19-12-3-1-2-4-13(12)20(25)28-19/h1-5,7,9,14,19H,6,8,10H2,(H,21,24)/t14-,19?/m0/s1
#inchikey CBLWRCYSLTYXQV
#Ion_Source LC-ESI
#Instrument qTof
#Compound_Source NIH Natural Product Library
#PI Dorrestein
#Data_Collector VVP/LMS
#Scan -1
#Precursor_MZ 381.109
#ExactMass 380.101
#Charge 1
#CAS_Number N/A
#Pubmed_ID N/A
#Smiles O=C(Nc1ccc2OCOc2c1)[C@@H]3CCC(=O)N3C4OC(=O)c5ccccc45
#INCHI_AUX N/A
#Library_Class 1
#SpectrumID CCMSLIB00000080123
#IonMode Positive
#UpdateWorkflowName UPDATE-SINGLE-ANNOTATED-GOLD
#LibraryQualityString Gold
#TaskID b1d8e8f6646f4e71acdff9ca3d919d08
##Scan# 1732
#SpectrumFile p2-D04_GD4_01_18016.mzXML
#LibraryName NIH_Natural_Products_Library.mgf
#MQScore -1
#Organism NIH_Natural_Products_Library
#TIC_Query 0
#RT_Query -1
#MZErrorPPM -1
#SharedPeaks 0
#MassDiff 0
#LibMZ -1
#SpecMZ 381.109
#SpecCharge 0
#internalFilename spec-00000.mgf

>collision 10
94.961479 188.0
95.126404 204.0
95.169121 116.0
95.279823 208.0
95.606483 60.0
95.622047 136.0
95.694077 208.0
95.766129 168.0
95.988289 44.0
96.159966 204.0
96.897156 216.0
97.036308 156.0
97.06572 180.0
97.354179 148.0
97.389534 48.0
97.597839 140.0
97.715851 128.0
98.036804 132.0
98.08213 68.0
98.214241 196.0
98.336571 104.0
98.931534 100.0
98.949356 176.0
99.022194 204.0
99.066193 248.0
99.292152 204.0
99.61171 188.0
99.762733 132.0
100.330093 188.0
100.441765 140.0
100.499619 172.0
100.865295 184.0
101.221191 136.0
101.357399 196.0
102.005791 216.0
102.055901 108.0
102.317451 156.0
102.355705 168.0
102.446342 124.0
102.462456 184.0
102.734612 160.0
102.843575 184.0
102.881927 220.0
102.970772 124.0
103.263824 184.0
103.316414 340.0
103.352837 168.0
103.579575 132.0
103.717361 172.0
103.745743 152.0
103.964798 124.0
104.050049 172.0
104.173927 100.0
104.240967 108.0
104.385292 60.0
104.645737 184.0
104.918739 84.0
104.941162 192.0
104.994072 148.0
105.03418 13264.0
105.081894 164.0
105.115166 156.0
105.288055 176.0
105.326019 220.0
105.349335 172.0
105.366966 76.0
105.4188 56.0
105.578255 152.0
105.782852 68.0
105.915955 164.0
105.954872 112.0
106.036606 1000.0
106.076324 76.0
106.365005 88.0
106.42865 124.0
106.749199 148.0
106.798553 68.0
106.827263 92.0
106.901421 140.0
106.930229 136.0
107.037277 164.0
107.218559 64.0
107.443314 336.0
107.466003 64.0
107.705475 72.0
107.84391 204.0
107.89949 144.0
107.970024 60.0
108.046555 128.0
108.226616 108.0
108.404755 140.0
108.622452 312.0
108.641121 88.0
108.722038 124.0
108.972443 108.0
109.097984 84.0
109.318451 180.0
109.464172 196.0
109.678436 184.0
109.724617 196.0
109.805939 156.0
110.112732 132.0
110.263153 304.0
110.455513 180.0
110.516182 156.0
110.543381 228.0
111.058754 84.0
111.121681 208.0
111.421906 240.0
111.574471 148.0
111.878265 192.0
112.03199 176.0
112.053062 164.0
112.112061 168.0
112.268059 40.0
112.337662 88.0
112.436829 144.0
112.479042 164.0
112.576157 188.0
112.633179 160.0
112.677544 224.0
112.764175 164.0
112.79377 96.0
112.827591 148.0
112.939667 76.0
113.026405 144.0
113.075668 172.0
113.312233 164.0
113.494507 136.0
113.592064 128.0
113.617523 188.0
113.770317 188.0
113.817024 196.0
113.952957 176.0
114.057091 68.0
114.114487 156.0
114.608276 132.0
114.72123 156.0
114.869324 276.0
115.052521 148.0
115.361649 160.0
115.646133 160.0
115.879547 176.0
116.036003 164.0
116.052185 320.0
116.29985 72.0
116.402901 152.0
116.47377 136.0
116.880096 136.0
116.96833 256.0
117.011383 180.0
117.323769 196.0
117.437843 208.0
117.494133 232.0
117.576126 132.0
117.759636 148.0
117.938972 108.0
118.066528 176.0
118.703194 192.0
118.822487 192.0
118.980911 288.0
119.120895 108.0
119.291565 188.0
119.356781 176.0
119.524269 164.0
119.691872 144.0
119.820381 160.0
119.879211 36.0
120.536026 192.0
120.564438 136.0
120.612518 196.0
120.864014 80.0
120.907784 188.0
120.971252 116.0
121.031319 188.0
121.05883 112.0
121.111397 176.0
121.172729 128.0
121.231888 108.0
121.405075 92.0
121.447334 224.0
121.479645 104.0
121.613495 132.0
121.780357 152.0
121.986908 152.0
122.118835 176.0
122.149628 212.0
122.305855 96.0
122.515045 184.0
122.545891 140.0
122.69355 120.0
123.084076 100.0
123.145905 228.0
123.51281 124.0
124.226074 76.0
124.374748 200.0
124.579041 172.0
124.741257 196.0
125.150604 128.0
125.371124 128.0
125.444679 188.0
125.475891 180.0
125.547241 60.0
125.721245 224.0
125.743561 136.0
126.382668 188.0
126.512474 156.0
126.593079 56.0
127.012177 184.0
127.090698 36.0
127.191689 136.0
127.431976 108.0
127.488152 120.0
127.519615 172.0
128.043823 144.0
128.569107 108.0
128.623276 156.0
128.659393 48.0
129.066071 88.0
129.149734 120.0
129.171249 160.0
129.29454 180.0
129.56398 180.0
129.588913 44.0
129.665955 204.0
129.924438 124.0
130.02977 304.0
130.261185 176.0
130.2854 164.0
130.376282 204.0
130.683258 144.0
131.004761 168.0
131.257248 152.0
131.610916 64.0
131.673462 124.0
131.827911 124.0
131.882767 244.0
132.044769 712.0
132.228119 48.0
132.246429 104.0
132.326553 252.0
132.477707 156.0
132.52417 196.0
132.569351 120.0
132.615189 192.0
132.65416 100.0
132.68396 156.0
132.723236 88.0
132.748154 144.0
132.774643 188.0
132.808853 336.0
132.859329 148.0
132.878891 192.0
132.926376 92.0
132.955856 244.0
132.962784 208.0
132.971893 108.0
132.98053 180.0
133.029968 86472.0
133.113922 60.0
133.128799 32.0
133.167221 124.0
133.20488 184.0
133.220993 200.0
133.239044 96.0
133.27536 144.0
133.317459 44.0
133.351074 128.0
133.406876 512.0
133.443878 152.0
133.504242 48.0
133.531265 64.0
133.549667 48.0
133.565765 200.0
133.62767 132.0
133.634567 76.0
133.64119 56.0
133.688614 124.0
133.694153 144.0
133.70726 176.0
133.743729 140.0
133.772858 40.0
133.814301 84.0
133.843552 136.0
133.862366 64.0
133.891708 84.0
133.935242 108.0
134.032593 8060.0
134.072769 132.0
134.122986 124.0
134.174225 88.0
134.194443 52.0
134.234512 80.0
134.274628 208.0
134.342041 56.0
134.587952 80.0
134.605148 48.0
134.62825 96.0
134.646561 112.0
134.652878 60.0
134.662796 108.0
134.699844 96.0
134.724274 132.0
134.76825 112.0
134.800293 168.0
134.835052 108.0
134.87468 136.0
134.917068 160.0
134.991058 148.0
135.035019 576.0
135.052338 120.0
135.080658 252.0
135.088776 96.0
135.096558 172.0
135.129837 164.0
135.184448 116.0
135.200958 124.0
135.228928 112.0
135.331192 120.0
135.379822 36.0
135.421509 56.0
135.500259 48.0
135.54892 108.0
135.606857 64.0
135.711166 76.0
135.910645 60.0
135.991867 188.0
136.043915 136.0
136.098648 140.0
136.156708 172.0
136.22406 140.0
136.279816 36.0
136.654144 72.0
136.903198 80.0
137.021942 696.0
137.041443 336.0
137.432343 48.0
137.465012 160.0
137.537354 52.0
137.703125 48.0
138.05835 164.0
139.000046 96.0
139.05719 224.0
139.230103 44.0
139.721359 188.0
140.000992 164.0
140.050919 120.0
140.357269 120.0
141.000885 56.0
141.318588 128.0
141.680817 76.0
141.777969 120.0
142.064575 540.0
142.242828 112.0
143.04866 144.0
143.072006 184.0
143.136749 108.0
143.227249 244.0
144.011978 128.0
144.076462 160.0
144.145752 60.0
144.320251 132.0
144.360901 184.0
144.530731 32.0
144.980911 180.0
145.0672 132.0
145.184677 148.0
145.991577 212.0
146.060028 168.0
146.246597 44.0
147.073318 184.0
147.179535 48.0
147.232666 120.0
147.585464 40.0
147.732986 68.0
148.043472 228.0
148.096085 64.0
150.567108 200.0
150.774765 164.0
151.178284 136.0
152.056076 216.0
153.065979 152.0
153.280273 164.0
154.037689 172.0
154.07045 200.0
154.16864 84.0
155.508469 80.0
155.826309 144.0
156.042542 160.0
156.35347 132.0
159.530045 56.0
159.864563 96.0
160.476639 56.0
163.119629 144.0
163.195908 96.0
165.996979 188.0
166.067398 840.0
166.209885 172.0
166.407516 88.0
166.926544 40.0
166.99855 168.0
167.070572 160.0
168.083389 188.0
169.052124 64.0
170.059372 1052.0
170.117371 68.0
170.223816 196.0
171.065475 124.0
171.973282 176.0
172.043762 156.0
172.064636 120.0
172.430328 120.0
172.668243 192.0
172.997925 132.0
173.479935 96.0
173.710693 124.0
174.02562 244.0
174.055725 336.0
174.845749 188.0
175.045822 52.0
175.10376 116.0
176.04599 208.0
176.072861 156.0
176.986588 168.0
177.185226 52.0
178.066727 164.0
178.22261 60.0
178.445862 152.0
179.113815 208.0
179.737656 176.0
180.07402 176.0
181.272522 148.0
182.063873 392.0
182.862335 116.0
183.932373 160.0
185.051559 108.0
185.075928 172.0
185.224884 156.0
185.444351 84.0
185.867401 168.0
186.049026 148.0
186.410477 36.0
188.066299 184.0
188.587967 72.0
189.061111 172.0
189.825394 192.0
190.050323 212.0
191.064117 180.0
191.176926 128.0
193.872192 224.0
194.062683 340.0
195.054169 148.0
195.733353 100.0
196.07312 320.0
196.471939 164.0
197.080566 164.0
197.466339 168.0
198.056046 800.0
199.057846 460.0
199.749481 48.0
201.847763 140.0
202.006149 96.0
202.047073 208.0
202.997421 112.0
203.053726 252.0
203.386093 60.0
204.067825 888.0
205.064072 196.0
205.074753 188.0
206.05368 100.0
206.061279 96.0
206.069702 152.0
207.387863 140.0
210.06485 88.0
212.057068 32.0
212.91243 120.0
213.142395 40.0
214.023727 176.0
214.591873 32.0
215.064453 140.0
216.067688 172.0
216.957031 96.0
218.693039 48.0
219.916199 80.0
220.980026 128.0
221.027359 120.0
222.056839 484.0
222.972687 112.0
223.058594 128.0
223.094543 60.0
223.942581 48.0
224.071915 572.0
224.195816 48.0
224.320999 60.0
224.693771 40.0
225.075806 184.0
225.117599 112.0
226.250793 80.0
227.053818 168.0
228.038544 176.0
228.986267 156.0
229.157959 48.0
230.585266 204.0
231.105377 172.0
231.359604 152.0
232.029114 168.0
232.050339 168.0
232.080826 144.0
232.693527 164.0
232.734131 108.0
233.091415 124.0
234.056229 128.0
234.201828 36.0
235.05545 204.0
235.247726 200.0
236.002319 184.0
236.035965 196.0
236.073975 236.0
237.003189 156.0
237.079803 132.0
238.012329 176.0
238.694458 84.0
238.998978 160.0
239.913681 152.0
245.024078 116.0
246.062607 120.0
248.033401 40.0
249.141113 112.0
250.024658 152.0
250.087601 152.0
251.278748 140.0
251.64801 260.0
251.973312 212.0
252.020706 148.0
252.066315 9160.0
252.140778 60.0
252.320953 64.0
252.387344 68.0
252.434769 52.0
252.58342 104.0
252.60556 48.0
252.656174 68.0
252.833374 80.0
252.969467 80.0
253.067947 1932.0
253.509506 188.0
254.077774 168.0
254.802444 56.0
254.97403 100.0
255.069382 124.0
255.775528 88.0
258.008514 116.0
258.856384 64.0
259.445892 112.0
259.849213 148.0
260.057465 172.0
261.064148 176.0
264.063385 96.0
264.904938 104.0
265.055756 188.0
269.071655 88.0
270.073303 1000.0
271.039734 160.0
271.082306 276.0
277.039307 120.0
279.100311 128.0
281.035492 152.0
282.435211 92.0
286.840637 124.0
287.083405 144.0
287.292511 108.0
287.518585 88.0
287.987854 76.0
288.05542 128.0
289.069672 104.0
289.763794 64.0
290.028107 132.0
290.082336 260.0
291.993927 148.0
293.434296 40.0
295.037292 148.0
295.476593 100.0
298.099579 56.0
300.430481 76.0
305.04657 132.0
306.05545 128.0
307.078247 120.0
308.106232 92.0
309.995605 60.0
313.044708 128.0
314.55014 96.0
315.164642 32.0
317.07196 200.0
317.80954 80.0
318.089905 52.0
319.049011 168.0
321.042938 192.0
321.092865 160.0
322.6604 160.0
323.05719 172.0
324.070496 152.0
327.094299 172.0
331.0513 176.0
335.09317 132.0
341.058899 180.0
345.983429 120.0
350.060181 48.0
363.112244 112.0
364.110382 148.0
368.15094 40.0
373.055176 144.0
377.171997 68.0
384.184967 48.0
392.05426 124.0
393.087433 68.0
400.055054 68.0
415.106079 124.0
423.059143 52.0
433.520905 100.0
454.305786 60.0
454.85318 104.0
455.061188 196.0
474.154785 104.0
491.670502 108.0
565.212952 96.0
625.652222 88.0
636.386108 180.0
646.22937 96.0
647.175842 44.0
652.808105 20.0
670.438721 84.0
688.225891 80.0
697.635132 112.0
726.380371 76.0
730.322876 156.0
734.319214 212.0
735.625 40.0
745.096436 204.0
757.222168 172.0
778.609741 204.0
786.990173 168.0
799.096985 172.0
807.444641 52.0
825.591797 64.0
830.345093 84.0
833.324219 164.0
836.187866 76.0
841.31781 160.0
850.167542 120.0
853.17041 128.0
858.696167 160.0
865.211304 156.0
875.033081 128.0
877.237 164.0
877.654907 188.0
880.227478 144.0
885.48468 68.0
886.746582 120.0
904.567627 148.0
906.562012 188.0
919.026917 164.0
923.908447 76.0
929.74939 256.0
931.661987 68.0
934.397705 128.0
938.08197 160.0
940.698853 132.0
943.447754 76.0
943.875732 180.0
946.378235 96.0
956.562927 188.0
961.222168 56.0
963.68573 88.0
973.323242 56.0
983.058655 160.0
983.326965 216.0
985.118958 196.0
987.281494 116.0
990.485901 204.0
991.751587 224.0
992.271851 96.0
993.739441 152.0
996.564697 48.0
997.739929 144.0
1000.722046 140.0
1005.746216 132.0
1008.948792 124.0
1013.695679 28.0
1022.370056 184.0
1022.592773 92.0
1028.379761 156.0
1034.515991 148.0
1038.430908 36.0
1039.726929 180.0
1042.745239 168.0
1047.306152 176.0
1051.303955 200.0
1052.252808 160.0
1053.040527 200.0
1055.198853 196.0
1062.886719 88.0
1068.175049 268.0
1069.13147 152.0
1069.287598 152.0
1069.613037 152.0
1072.726685 160.0
1074.395996 136.0
1081.178223 140.0
1082.638062 196.0
1084.197144 200.0
1086.301758 160.0
1086.911865 80.0
1089.400146 160.0
1090.556641 192.0
1092.62793 192.0
1094.589233 180.0
1094.931641 136.0
1101.150757 64.0
1106.036743 200.0
1108.765381 208.0
1110.794312 200.0
1112.054932 232.0
1112.692139 128.0
1112.811646 52.0
1113.369385 120.0
1115.010254 272.0
1118.72168 152.0
1119.081177 156.0
1119.633911 116.0
1120.219971 164.0
1121.3927 168.0
1123.566406 216.0
1129.337769 236.0
1129.685547 148.0
1133.360962 192.0
1133.749634 84.0
1136.015869 44.0
1138.304443 132.0
1140.54834 180.0
1141.872803 192.0
1142.128418 240.0
1142.484863 220.0
1146.558472 128.0
1147.468384 152.0
1148.979004 232.0
1150.281494 200.0
1150.814819 120.0
1151.300903 224.0
1152.462769 244.0
1153.361572 176.0
1155.42395 188.0
1157.373169 160.0
1157.650757 176.0
1158.863159 220.0
1159.547607 200.0
1160.625366 148.0
1160.896606 160.0
1161.730835 108.0
1162.931885 216.0
1162.99292 180.0
1164.174194 200.0
1165.92688 220.0
1167.191284 132.0
1168.252197 72.0
1168.782837 140.0
1171.124634 204.0
1172.371338 128.0
1172.759888 88.0
1174.014282 220.0
1176.265747 144.0
1180.132324 136.0
1181.55481 280.0
1182.430664 108.0
1183.943604 148.0
1188.220703 204.0
1188.694092 172.0
1190.121826 168.0
1192.450562 100.0
1196.550171 136.0
1199.815552 112.0
1200.222412 136.0
1200.394775 188.0
1205.412964 104.0
1206.283813 100.0
1207.099609 192.0
1213.310059 176.0
1213.434937 208.0
1214.988403 220.0
1215.418457 124.0
1216.001343 216.0
1216.466431 60.0
1219.606079 132.0
1220.7948 204.0
1222.673096 132.0
1226.956787 172.0
1228.03064 252.0
1232.91748 112.0
1235.203735 112.0
1235.658447 144.0
1235.952271 172.0
1237.08606 84.0
1237.19104 168.0
1239.817627 228.0
1243.162598 208.0
1245.331909 172.0
1252.28064 108.0
1253.879883 140.0
1253.950439 160.0
1254.450806 192.0
1256.432373 136.0
1256.651123 96.0
1256.968628 136.0
1258.937988 144.0
1259.291138 160.0
1260.541504 88.0
1260.77478 88.0
1261.785522 100.0
1262.301636 112.0
1263.06543 100.0
1264.225708 160.0
1265.372314 172.0
1266.122925 188.0
1267.81604 152.0
1269.992432 156.0
1270.82959 224.0
1272.106934 188.0
1276.0354 60.0
1276.163452 128.0
1276.604248 264.0
1278.012573 116.0
1279.080078 124.0
1279.934326 152.0
1283.368652 188.0
1285.801147 224.0
1285.901001 156.0
1287.907227 136.0
1288.000122 52.0
1288.292969 84.0
1289.100342 80.0
1289.700562 168.0
1292.446655 232.0
1292.63269 128.0
1292.902344 228.0
1293.040649 132.0
1295.482422 148.0
1295.596802 152.0
1297.001221 144.0
1301.843872 116.0
1303.014648 192.0
1303.840942 60.0
1304.947998 200.0
1306.753174 96.0
1308.314819 180.0
1308.905151 164.0
1314.109009 196.0
1314.303833 200.0
1314.53479 168.0
1315.227539 196.0
1316.38269 252.0
1317.140991 52.0
1317.820068 120.0
1318.195801 240.0
1318.275269 172.0
1318.694336 156.0
1318.976318 168.0
1319.265381 152.0
1319.966675 228.0
1320.820068 236.0
1324.011841 164.0
1327.06958 220.0
1330.326904 192.0
1340.057373 188.0
1342.80542 104.0
1343.060669 168.0
1343.272217 156.0
1343.680786 68.0
1343.788086 192.0
1344.322876 264.0
1346.293823 56.0
1350.005981 184.0
1351.717651 76.0
1352.537354 200.0
1353.144897 172.0
1353.635498 164.0
1353.701416 92.0
1358.700073 164.0
1358.890747 204.0
1358.956787 220.0
1360.27771 144.0
1360.365845 152.0
1362.069336 196.0
1366.296143 156.0
1367.517578 100.0
1370.116821 136.0
1371.892822 116.0
1372.37207 224.0
1373.271729 184.0
1374.400391 156.0
1374.784058 252.0
1375.839478 196.0
1377.109497 200.0
1380.671753 148.0
1380.723511 92.0
1381.818237 176.0
1382.69873 152.0
1385.430908 164.0
1386.927734 180.0
1390.702881 192.0
1390.836548 212.0
1393.494995 168.0
1393.992798 184.0
1394.721069 168.0
1395.182007 136.0
1397.175049 104.0
1397.509766 136.0
1397.844604 176.0
1398.052979 260.0
1398.923828 296.0
1399.407715 68.0
1399.697998 188.0
1400.484375 212.0
1401.180176 120.0
1402.581055 156.0
1403.423462 172.0
1405.750732 132.0
1406.183472 192.0
1409.827881 128.0
1410.597656 148.0
1410.7771 412.0
1411.210693 176.0
1413.02063 180.0
1414.090698 164.0
1414.914062 112.0
1415.153564 148.0
1415.879883 136.0
1416.651367 248.0
1417.363159 192.0
1417.977539 160.0
1420.339355 184.0
1423.453735 152.0
1425.008545 168.0
1425.301514 228.0
1425.767456 212.0
1426.090576 232.0
1430.686523 144.0
1430.904785 180.0
1432.011719 180.0
1432.388306 172.0
1433.533447 112.0
1436.760376 236.0
1437.499756 200.0
1437.613037 68.0
1438.526245 32.0
1439.613403 120.0
1442.635498 172.0
1445.615479 164.0
1447.598755 136.0
1448.893921 140.0
1450.106201 140.0
1450.492798 164.0
1450.561035 164.0
1452.358032 92.0
1453.67041 128.0
1455.393433 224.0
1455.712402 144.0
1456.638916 148.0
1459.184692 140.0
1459.747314 44.0
1459.945068 136.0
1461.54248 168.0
1462.082642 108.0
1466.385498 120.0
1468.154175 156.0
1468.360107 144.0
1469.15332 132.0
1469.969727 196.0
1470.31311 204.0
1470.569824 220.0
1471.526733 152.0
1472.603394 112.0
1472.970093 172.0
1474.177124 208.0
1474.276489 140.0
1474.605103 60.0
1475.094238 128.0
1475.629395 116.0
1477.571899 144.0
1478.9646 136.0
1479.745361 104.0
1479.87561 156.0
1480.319702 140.0
1481.721313 56.0
1484.089478 140.0
1484.265869 148.0
1485.009644 164.0
1485.899536 108.0
1487.104248 176.0
1487.311401 204.0
1488.109741 204.0
1488.347778 160.0
1488.424561 184.0
1488.716431 180.0
1488.900635 160.0
1489.668701 208.0
1492.066284 132.0
1492.758301 196.0
1493.123657 184.0
1493.358154 84.0
1494.13501 196.0
1494.612061 140.0
1499.771606 48.0
1500.187866 160.0
1500.32666 172.0
1503.774536 128.0
1504.090942 64.0
