>compound MLS000876977-01!5,8-dihydroxy-2-(4-hydroxy-3-methoxyphenyl)-6,7-dimethoxychromen-4-one
>formula C18H16O8
>ionization [M+H]+
>parentmass 361.092072
#inchi InChI=1S/C18H16O8/c1-23-12-6-8(4-5-9(12)19)11-7-10(20)13-14(21)17(24-2)18(25-3)15(22)16(13)26-11/h4-7,19,21-22H,1-3H3
#inchikey CSDGLNFYKPCMSZ
#Ion_Source LC-ESI
#Instrument qTof
#Compound_Source NIH Natural Product Library
#PI Dorrestein
#Data_Collector VVP/LMS
#Scan -1
#Precursor_MZ 361.092
#ExactMass 360.085
#Charge 1
#CAS_Number N/A
#Pubmed_ID N/A
#Smiles COc1cc(ccc1O)c2cc(=O)c3c(O)c(OC)c(OC)c(O)c3o2
#INCHI_AUX N/A
#Library_Class 1
#SpectrumID CCMSLIB00000080526
#IonMode Positive
#UpdateWorkflowName UPDATE-SINGLE-ANNOTATED-GOLD
#LibraryQualityString Gold
#TaskID b1d8e8f6646f4e71acdff9ca3d919d08
##Scan# 1882
#SpectrumFile p2-C10_GC10_01_18010.mzXML
#LibraryName NIH_Natural_Products_Library.mgf
#MQScore -1
#Organism NIH_Natural_Products_Library
#TIC_Query 0
#RT_Query -1
#MZErrorPPM -1
#SharedPeaks 0
#MassDiff 0
#LibMZ -1
#SpecMZ 361.092
#SpecCharge 0
#internalFilename spec-00000.mgf

>collision 10
95.645653 172.0
96.020157 492.0
96.119232 184.0
96.376976 156.0
96.877815 164.0
97.909004 168.0
98.30722 168.0
98.603447 116.0
99.01133 164.0
99.046646 108.0
99.234909 144.0
99.488625 176.0
99.896225 232.0
100.497887 136.0
101.387955 152.0
101.457878 176.0
101.939583 120.0
101.957672 100.0
102.261353 128.0
102.400276 196.0
102.967003 164.0
103.059921 124.0
103.256004 232.0
104.054375 104.0
104.137634 168.0
104.605293 108.0
105.031166 132.0
105.584663 156.0
106.041214 160.0
107.200287 236.0
109.083717 152.0
109.227196 136.0
109.94809 108.0
110.050369 172.0
110.688103 192.0
110.828438 124.0
111.040161 128.0
111.096794 120.0
111.254189 160.0
112.099701 88.0
113.270164 156.0
113.630547 196.0
113.704811 184.0
113.774857 120.0
114.048882 144.0
115.056458 160.0
115.086349 140.0
115.547997 68.0
116.062027 232.0
116.29586 208.0
116.57505 100.0
117.034225 304.0
117.063362 168.0
118.035416 140.0
118.120903 140.0
118.378456 196.0
118.53009 80.0
119.065903 140.0
119.563751 184.0
119.955803 136.0
120.099716 212.0
120.18261 216.0
120.80088 56.0
120.993462 140.0
121.188385 184.0
122.055374 136.0
123.044647 152.0
123.289825 200.0
123.444572 148.0
123.535255 220.0
123.776489 36.0
124.053429 216.0
124.739357 128.0
125.017372 88.0
125.055206 212.0
125.440544 140.0
126.074417 176.0
126.253258 124.0
126.497131 72.0
127.042809 160.0
127.34919 180.0
127.753792 204.0
128.02388 128.0
128.064423 596.0
129.747894 60.0
129.840851 156.0
130.05867 212.0
130.197159 36.0
131.050171 172.0
132.015717 116.0
132.565109 164.0
132.998566 140.0
133.028839 568.0
133.06514 156.0
134.03688 704.0
134.068024 168.0
135.005142 132.0
135.049225 168.0
135.87619 144.0
136.057205 128.0
136.342911 144.0
137.006042 216.0
137.036331 212.0
137.059631 132.0
137.08992 132.0
138.777573 128.0
138.96991 260.0
139.002609 504.0
139.061417 232.0
139.275085 136.0
139.827606 100.0
140.064957 312.0
140.643097 156.0
140.895493 176.0
141.070633 152.0
141.361557 164.0
141.394684 80.0
141.977478 180.0
142.015411 180.0
142.043884 164.0
142.077087 184.0
142.169632 124.0
142.675552 156.0
143.332443 72.0
143.9216 204.0
144.056229 268.0
144.124619 104.0
144.141342 80.0
145.029953 208.0
145.06398 164.0
145.967896 120.0
146.825195 96.0
146.912033 172.0
147.040985 196.0
147.204071 124.0
147.839828 176.0
148.052246 996.0
148.181244 48.0
148.678329 40.0
149.035278 148.0
149.061005 2100.0
149.996567 132.0
150.063385 296.0
150.16481 152.0
150.936493 244.0
151.002533 328.0
151.039917 1508.0
151.066116 148.0
151.712616 104.0
151.948044 140.0
152.010315 1080.0
152.045074 232.0
152.22049 96.0
152.242599 84.0
152.272064 44.0
152.5448 184.0
153.019791 152.0
153.068832 168.0
154.097382 184.0
154.559738 140.0
154.822128 196.0
154.998276 2608.0
155.051666 340.0
155.521271 64.0
156.004456 480.0
156.057648 184.0
156.249359 156.0
156.299118 136.0
157.026535 164.0
157.064667 544.0
157.523239 100.0
157.55072 136.0
158.066635 296.0
158.235962 168.0
158.639297 100.0
158.712006 180.0
158.87001 116.0
159.043152 368.0
159.075775 276.0
159.99585 176.0
160.247696 68.0
161.065292 204.0
161.509689 188.0
163.003143 148.0
163.036179 168.0
165.067886 176.0
165.198318 44.0
165.33905 84.0
166.274475 172.0
166.916687 44.0
166.999496 344.0
167.043137 144.0
167.887497 156.0
168.014771 236.0
168.05896 524.0
168.858536 68.0
168.876648 84.0
169.007614 216.0
169.064941 744.0
169.280365 132.0
169.415054 132.0
169.967285 204.0
170.026505 384.0
170.076279 232.0
170.242432 176.0
170.286591 152.0
171.044479 204.0
171.076965 192.0
172.059265 328.0
172.67131 132.0
173.011459 136.0
173.065308 308.0
173.158096 80.0
174.060196 388.0
174.533173 116.0
174.864624 136.0
175.038651 304.0
175.077866 172.0
175.913391 168.0
176.814987 184.0
177.057327 596.0
177.413605 212.0
177.487839 92.0
178.127426 208.0
178.257614 200.0
178.528763 136.0
178.69101 296.0
178.997772 188.0
179.079666 188.0
180.015579 748.0
180.416504 104.0
181.002441 120.0
181.026535 124.0
181.064026 152.0
182.298065 72.0
182.725586 100.0
182.993103 5644.0
183.038635 244.0
183.220947 136.0
183.708893 176.0
183.787125 80.0
184.000916 400.0
184.051025 260.0
184.186676 144.0
184.435257 188.0
184.702942 148.0
185.002121 192.0
185.061203 1356.0
185.463806 100.0
185.569519 180.0
185.670197 140.0
185.865173 44.0
185.968292 48.0
185.99115 164.0
186.014435 152.0
186.063339 200.0
186.158325 40.0
186.228943 132.0
186.462585 60.0
186.636566 148.0
186.854156 108.0
186.941223 136.0
187.038193 144.0
187.076035 308.0
187.139923 52.0
187.50766 92.0
187.578537 104.0
188.044952 172.0
189.051758 336.0
189.546295 136.0
189.80571 168.0
190.336273 52.0
191.026093 124.0
191.089371 136.0
191.345322 128.0
191.460968 184.0
192.056274 204.0
192.630417 168.0
193.174973 100.0
194.427338 188.0
195.030014 176.0
195.747787 44.0
196.049377 120.0
196.695694 52.0
197.007111 160.0
197.062027 212.0
197.087738 84.0
197.567551 152.0
198.018173 636.0
198.071869 176.0
199.027008 340.0
199.076645 224.0
200.039841 132.0
200.084503 172.0
200.756424 236.0
200.955734 124.0
201.004898 716.0
201.055145 472.0
201.083878 172.0
201.441315 200.0
202.015152 176.0
202.054764 184.0
202.618149 52.0
202.674805 152.0
202.955414 128.0
203.036606 240.0
203.071686 116.0
203.292969 232.0
203.503006 156.0
203.735901 208.0
204.008713 160.0
204.03714 132.0
204.074097 120.0
204.549179 164.0
205.518143 168.0
205.95491 156.0
206.829865 136.0
207.027405 116.0
207.210724 136.0
207.245102 216.0
207.617752 132.0
207.71814 108.0
207.812805 76.0
208.010818 256.0
208.286484 188.0
208.404266 156.0
208.769318 132.0
208.999435 128.0
209.051239 160.0
209.094406 60.0
209.854874 196.0
210.059631 156.0
210.504089 144.0
211.009735 172.0
211.038239 272.0
211.064896 156.0
211.243973 44.0
211.875061 168.0
212.011246 116.0
212.04306 428.0
212.222839 152.0
213.006882 164.0
213.051468 1044.0
213.160385 52.0
213.183624 148.0
213.212692 136.0
213.279541 28.0
213.515045 36.0
213.948578 80.0
214.061935 344.0
214.481659 172.0
214.805328 48.0
214.96579 68.0
215.042236 172.0
215.073685 496.0
215.248932 120.0
215.61409 124.0
215.780701 96.0
216.032913 116.0
216.077515 392.0
216.430237 176.0
217.051804 252.0
217.24205 216.0
217.764526 96.0
217.958405 132.0
218.050018 184.0
218.090652 140.0
218.864349 148.0
219.055786 192.0
219.406464 148.0
219.642365 120.0
219.96991 72.0
221.057526 160.0
221.605301 180.0
221.629013 120.0
223.517456 52.0
224.255997 116.0
225.057022 200.0
225.157013 124.0
225.564117 204.0
225.844421 172.0
225.970062 40.0
226.377136 136.0
226.583801 96.0
227.037216 192.0
227.078217 348.0
227.801758 144.0
227.996918 164.0
228.053802 144.0
228.082199 600.0
228.523285 116.0
229.016968 140.0
229.051254 540.0
229.18869 36.0
229.719299 236.0
229.764542 188.0
229.969742 176.0
230.021637 144.0
230.063858 520.0
231.021942 160.0
231.05455 172.0
232.08429 196.0
233.049484 196.0
233.639297 116.0
233.733612 208.0
234.00145 172.0
234.516266 64.0
237.215271 244.0
238.956528 136.0
239.027283 132.0
239.066483 168.0
239.951294 144.0
240.041214 200.0
240.099304 64.0
240.330658 48.0
240.423233 144.0
241.048874 324.0
241.711823 124.0
242.049957 152.0
242.467422 136.0
243.023926 152.0
243.062851 516.0
244.037109 496.0
244.073685 664.0
244.710159 152.0
245.04393 420.0
245.535904 136.0
245.632599 136.0
246.053879 144.0
246.575531 204.0
247.06369 152.0
248.068527 180.0
248.438568 32.0
249.038101 140.0
250.692917 40.0
251.711807 124.0
252.261536 96.0
252.451248 164.0
253.020767 140.0
253.046097 168.0
253.8414 204.0
254.057068 144.0
255.064499 468.0
256.037262 140.0
256.073822 2580.0
256.792603 124.0
256.827667 164.0
257.047363 656.0
257.076172 536.0
257.169067 80.0
257.370178 60.0
257.625671 108.0
257.894104 172.0
258.056427 236.0
258.728973 180.0
258.850647 136.0
259.135712 120.0
259.273499 144.0
260.033569 108.0
260.897614 120.0
261.048737 224.0
261.215973 140.0
261.576385 72.0
262.63324 112.0
264.869995 84.0
265.71283 144.0
266.017883 96.0
266.319855 204.0
266.391327 256.0
267.623901 172.0
269.153107 192.0
269.976562 152.0
270.051788 308.0
271.025635 220.0
271.061188 204.0
271.138733 80.0
271.210846 136.0
272.04071 132.0
272.066864 420.0
273.069183 100.0
273.789917 72.0
274.056732 120.0
274.415985 176.0
274.669891 48.0
274.97345 192.0
275.054474 268.0
275.164917 108.0
275.349823 136.0
277.431061 188.0
277.497375 176.0
278.526093 116.0
278.899902 20.0
279.101044 140.0
280.36264 124.0
283.02536 164.0
284.06723 132.0
284.661255 192.0
284.859436 116.0
285.041107 824.0
286.050171 380.0
286.632446 152.0
286.848114 108.0
286.895325 152.0
287.053772 192.0
287.613831 124.0
288.026001 548.0
288.070831 176.0
289.026428 164.0
289.05011 200.0
289.808105 120.0
289.872955 80.0
293.135101 84.0
294.855042 100.0
296.124329 164.0
297.468414 128.0
298.03656 204.0
299.004791 92.0
299.051819 156.0
300.062042 744.0
301.024902 180.0
301.076874 276.0
301.69519 72.0
302.041138 332.0
302.067017 252.0
303.052338 2444.0
304.056274 648.0
304.415009 100.0
304.819916 220.0
304.884003 136.0
305.111511 200.0
305.179443 44.0
305.704681 128.0
306.18161 64.0
307.161011 144.0
307.433136 44.0
307.771729 56.0
308.274719 144.0
311.115265 124.0
312.777588 172.0
313.036346 1092.0
313.077209 40.0
313.122986 92.0
313.425934 104.0
313.573944 44.0
313.958221 80.0
314.040039 280.0
314.134583 172.0
314.618042 192.0
314.801636 80.0
315.042389 172.0
315.497681 100.0
315.819458 164.0
315.854828 200.0
316.026093 2068.0
316.173248 104.0
316.279419 156.0
316.41394 52.0
316.449341 52.0
316.658264 44.0
316.700775 100.0
316.973572 40.0
317.027985 604.0
317.086945 240.0
317.274811 52.0
317.423737 80.0
317.73941 56.0
317.771332 164.0
318.026825 84.0
318.075989 388.0
319.046295 64.0
319.087494 512.0
319.138733 104.0
319.177826 28.0
319.85022 84.0
320.078064 116.0
322.704132 56.0
323.709595 96.0
324.128693 68.0
324.501434 60.0
325.380432 168.0
326.695709 140.0
327.04837 124.0
327.163544 188.0
327.992065 144.0
328.060486 4776.0
328.179504 44.0
328.316528 60.0
328.675171 76.0
328.839661 40.0
329.063171 812.0
330.038055 304.0
330.079224 216.0
330.140228 44.0
330.509186 104.0
330.541748 100.0
330.596039 100.0
330.646698 32.0
330.795502 176.0
330.827667 180.0
330.932678 108.0
331.046509 9656.0
331.195374 52.0
331.262207 68.0
331.437195 108.0
331.548462 160.0
331.755066 72.0
331.854248 88.0
331.939972 216.0
332.05069 1124.0
332.146667 52.0
332.291779 128.0
332.415161 132.0
332.499451 88.0
332.894318 60.0
333.046417 244.0
333.163086 56.0
333.228485 100.0
333.275391 52.0
333.436737 128.0
333.504639 56.0
333.537354 148.0
334.080017 140.0
334.464874 152.0
334.861755 216.0
335.546814 112.0
337.196716 64.0
338.953247 108.0
341.563507 100.0
344.03241 112.0
344.689819 64.0
344.918976 92.0
345.003998 112.0
345.060883 396.0
345.118591 84.0
345.836273 76.0
345.936218 88.0
346.068451 3048.0
346.15094 204.0
346.239807 168.0
346.525024 64.0
347.07489 1036.0
348.079865 140.0
349.04895 104.0
351.029938 108.0
353.446686 88.0
359.066498 152.0
360.330109 100.0
360.59552 88.0
360.697571 44.0
361.092072 3196.0
361.158875 124.0
361.257202 104.0
361.283691 56.0
361.843811 44.0
361.904388 72.0
362.095001 680.0
362.150513 112.0
363.103485 392.0
363.978394 52.0
364.354401 104.0
365.118408 44.0
365.350433 136.0
369.535583 44.0
401.434631 44.0
404.61908 28.0
407.683502 72.0
418.956116 60.0
423.21582 104.0
437.118103 152.0
438.779968 132.0
442.167572 72.0
449.070374 104.0
453.967651 76.0
473.103485 108.0
494.982788 84.0
507.324219 124.0
538.049194 96.0
559.23999 96.0
579.891541 44.0
588.453979 84.0
606.580444 48.0
645.866821 84.0
667.727417 84.0
704.292114 120.0
739.978699 68.0
799.188416 100.0
829.097473 88.0
910.58374 160.0
921.897461 160.0
950.953735 44.0
994.413452 160.0
1019.53009 52.0
1035.562378 180.0
1038.14502 92.0
1057.484985 180.0
1068.555054 44.0
1159.801392 84.0
1166.697998 224.0
1182.098389 120.0
1182.310547 124.0
1191.759521 128.0
1199.343018 88.0
1253.692871 92.0
1261.852417 108.0
1298.108643 160.0
1307.648804 132.0
1372.663208 140.0
1396.196777 100.0
1402.212036 124.0
1435.466919 128.0
1474.647217 104.0
1475.480347 48.0
1484.783447 160.0
1489.495972 124.0
1490.102783 160.0
