>compound MLS001141253-01!(3R)-N-cyclopropyl-6,7-dimethoxy-2,2-dimethyl-5-oxo-3,9b-dihydro-[1,3]thiazolo[2,3-a]isoindole-3-carboxamide
>formula C18H22N2O4S
>ionization [M+H]+
>parentmass 363.138
#inchi InChI=1S/C18H22N2O4S/c1-18(2)14(15(21)19-9-5-6-9)20-16(22)12-10(17(20)25-18)7-8-11(23-3)13(12)24-4/h7-9,14,17H,5-6H2,1-4H3,(H,19,21)/t14-,17?/m1/s1
#inchikey AOZCEDAJYIAFAG
#Ion_Source LC-ESI
#Instrument qTof
#Compound_Source NIH Natural Product Library
#PI Dorrestein
#Data_Collector VVP/LMS
#Scan -1
#Precursor_MZ 363.138
#ExactMass 362.13
#Charge 1
#CAS_Number N/A
#Pubmed_ID N/A
#Smiles COc1ccc2C3SC(C)(C)[C@H](N3C(=O)c2c1OC)C(=O)NC4CC4
#INCHI_AUX N/A
#Library_Class 1
#SpectrumID CCMSLIB00000079732
#IonMode Positive
#UpdateWorkflowName UPDATE-SINGLE-ANNOTATED-GOLD
#LibraryQualityString Gold
#TaskID b1d8e8f6646f4e71acdff9ca3d919d08
##Scan# 1952
#SpectrumFile p1-D10_GD10_01_17918.mzXML
#LibraryName NIH_Natural_Products_Library.mgf
#MQScore -1
#Organism NIH_Natural_Products_Library
#TIC_Query 0
#RT_Query -1
#MZErrorPPM -1
#SharedPeaks 0
#MassDiff 0
#LibMZ -1
#SpecMZ 363.138
#SpecCharge 0
#internalFilename spec-00000.mgf

>collision 10
94.959503 80.0
94.973076 172.0
95.002174 132.0
95.021576 148.0
95.054558 128.0
95.091431 84.0
95.15937 212.0
95.248695 68.0
95.701813 92.0
95.945351 196.0
96.046745 188.0
96.398163 144.0
96.566292 228.0
96.650406 212.0
96.669975 116.0
96.706291 208.0
96.830498 176.0
96.99704 288.0
97.04213 176.0
97.172882 192.0
97.301102 176.0
97.416969 236.0
97.475906 216.0
97.782684 144.0
97.825989 128.0
97.873238 236.0
98.070236 180.0
98.107689 120.0
98.297028 104.0
98.383873 112.0
98.646599 252.0
99.248451 176.0
99.421021 136.0
99.561974 148.0
99.671227 180.0
99.860077 204.0
99.885941 144.0
99.943626 168.0
99.987411 60.0
100.166603 204.0
100.180542 88.0
100.328011 96.0
100.429703 240.0
100.655212 92.0
100.767067 120.0
100.801033 84.0
100.944954 244.0
101.214043 180.0
101.253136 124.0
101.471542 148.0
101.96936 216.0
101.98745 168.0
102.110092 176.0
102.178482 160.0
102.575195 112.0
102.696175 108.0
102.716339 240.0
102.847496 116.0
102.92421 108.0
102.990852 124.0
103.037315 160.0
103.612427 160.0
103.711159 32.0
103.73143 144.0
103.948433 216.0
104.04879 216.0
104.377029 164.0
104.395332 224.0
104.651718 164.0
104.771873 220.0
104.808548 100.0
105.061356 180.0
105.334892 144.0
105.381882 148.0
105.463623 180.0
105.946533 64.0
106.383331 124.0
106.432602 144.0
106.508591 148.0
106.777832 144.0
106.845711 96.0
107.050705 340.0
107.078308 200.0
107.206039 172.0
107.252792 64.0
107.280235 184.0
107.385391 108.0
107.624771 160.0
107.639229 92.0
107.657806 128.0
108.195396 136.0
108.346573 164.0
108.607758 128.0
108.935722 112.0
109.022987 144.0
109.061661 180.0
109.309952 184.0
109.355736 212.0
109.478569 216.0
109.562332 72.0
109.718178 172.0
109.824524 72.0
109.87278 152.0
110.390488 176.0
110.405128 140.0
110.560371 200.0
110.733696 176.0
110.786064 204.0
110.928558 132.0
111.371292 188.0
111.772827 116.0
111.888588 84.0
112.255196 120.0
112.440842 132.0
112.679443 136.0
112.985992 140.0
113.182823 176.0
113.458252 128.0
113.621544 252.0
113.638519 52.0
113.7043 120.0
113.950615 224.0
114.016487 196.0
114.036552 156.0
114.493019 160.0
114.601654 56.0
114.686897 196.0
114.742317 156.0
115.023705 128.0
115.051224 216.0
115.145607 96.0
115.318665 172.0
115.398354 172.0
115.633057 144.0
115.701553 112.0
115.767921 72.0
115.827896 100.0
115.86557 68.0
115.937157 140.0
116.049721 304.0
116.070061 160.0
116.153702 152.0
116.241661 144.0
116.531532 84.0
116.664772 164.0
116.780884 60.0
116.989609 176.0
117.059395 388.0
117.340759 32.0
117.641838 156.0
117.936546 128.0
117.994911 152.0
118.027344 148.0
118.063103 324.0
118.14846 68.0
118.213371 104.0
118.529518 160.0
118.998009 140.0
119.017548 180.0
119.034981 156.0
119.165245 76.0
119.450027 52.0
119.693779 196.0
120.016251 160.0
120.047546 340.0
120.077309 112.0
120.099121 124.0
120.16893 176.0
120.516075 76.0
120.601303 140.0
120.848412 220.0
120.896553 192.0
121.019127 188.0
121.056808 648.0
121.091393 176.0
121.154915 196.0
121.398201 132.0
121.725159 252.0
121.747124 60.0
121.973419 84.0
122.028374 212.0
122.054764 240.0
122.070152 164.0
122.372589 212.0
122.406822 64.0
122.565414 88.0
122.644753 148.0
122.891739 100.0
123.079346 112.0
123.147804 148.0
123.348869 120.0
123.702797 156.0
123.789139 156.0
123.970047 204.0
124.483208 192.0
124.903252 128.0
125.110199 124.0
125.477783 204.0
125.964272 88.0
126.018112 196.0
126.062576 148.0
126.444984 184.0
126.915405 188.0
127.276649 132.0
127.366478 140.0
127.526001 140.0
127.777855 116.0
128.005188 176.0
128.055161 212.0
128.345428 116.0
128.573257 156.0
128.905212 172.0
129.072479 452.0
129.233078 220.0
129.448105 56.0
129.962631 120.0
130.023911 120.0
130.067032 172.0
130.421371 156.0
130.489563 132.0
130.569153 152.0
130.885452 204.0
131.038605 764.0
131.079071 160.0
131.133759 164.0
131.432495 188.0
131.498672 164.0
131.656204 152.0
131.843521 64.0
131.870941 160.0
132.041031 440.0
132.063004 228.0
133.007004 124.0
133.051422 280.0
133.110306 144.0
133.234329 104.0
133.268799 152.0
133.328537 188.0
133.544647 160.0
133.579147 160.0
133.602158 160.0
134.055496 152.0
134.436234 120.0
134.618591 184.0
134.810318 164.0
134.972137 104.0
134.995255 128.0
135.025314 176.0
135.046127 196.0
135.070847 352.0
135.191879 108.0
135.28215 188.0
135.400238 116.0
135.55545 196.0
135.585571 188.0
135.75943 152.0
135.938049 148.0
136.023926 72.0
136.051224 180.0
136.586243 152.0
136.62114 176.0
136.730499 100.0
137.000595 152.0
137.056503 164.0
137.079803 176.0
137.333923 68.0
137.901276 104.0
138.006042 132.0
138.09201 204.0
138.469788 176.0
138.699402 48.0
138.809586 160.0
139.041824 100.0
139.840652 192.0
139.991562 148.0
140.314362 188.0
140.621017 184.0
140.719788 128.0
140.920914 176.0
141.029617 112.0
141.173828 228.0
141.40094 224.0
141.595062 164.0
142.069122 112.0
142.137924 124.0
142.24234 92.0
142.339691 112.0
142.358688 100.0
142.375305 124.0
142.486938 152.0
142.62001 204.0
142.69371 140.0
142.72699 184.0
142.742477 140.0
142.76741 188.0
142.795959 184.0
143.03389 200.0
143.09816 124.0
143.205322 148.0
143.326813 128.0
143.436432 156.0
143.472198 36.0
143.679672 156.0
143.729767 228.0
143.863419 204.0
144.046463 188.0
144.078354 44.0
144.391479 144.0
144.513474 208.0
144.585251 108.0
144.980392 192.0
145.049393 188.0
145.073868 160.0
145.440872 144.0
145.827576 176.0
145.938141 124.0
145.974213 124.0
146.03244 168.0
146.059448 308.0
146.1474 48.0
146.173874 60.0
146.217178 208.0
146.262909 80.0
146.354401 60.0
146.446777 232.0
146.513351 192.0
146.556717 232.0
147.033203 316.0
147.068604 180.0
147.123474 92.0
147.244202 36.0
147.357742 124.0
147.531738 192.0
147.732452 172.0
147.84169 216.0
148.038574 1732.0
148.100372 148.0
148.631287 48.0
148.729187 164.0
148.847321 64.0
148.908035 76.0
149.047165 1300.0
149.1194 156.0
149.321182 112.0
149.343079 52.0
149.373962 132.0
149.394989 140.0
149.593704 52.0
149.747101 244.0
150.048706 436.0
150.105331 196.0
150.373672 140.0
150.612946 136.0
150.644714 84.0
150.698456 32.0
150.766876 192.0
151.020111 288.0
151.856323 128.0
152.020691 148.0
152.565948 196.0
152.661835 208.0
152.757751 168.0
152.969376 52.0
153.053085 136.0
153.800049 120.0
154.405365 188.0
154.442459 184.0
154.48204 208.0
154.746841 160.0
155.158096 164.0
155.97728 164.0
156.039429 156.0
156.059326 160.0
156.079208 120.0
156.808594 228.0
156.933243 116.0
157.052887 196.0
157.09111 248.0
157.257523 160.0
157.562164 108.0
157.602142 136.0
157.769592 176.0
157.822098 200.0
157.849594 140.0
158.038116 152.0
158.074066 388.0
158.102249 152.0
158.194855 96.0
158.380157 160.0
158.600647 148.0
158.801224 116.0
159.030685 236.0
159.079742 116.0
159.240448 60.0
160.03627 184.0
160.078201 156.0
160.198761 140.0
160.516327 128.0
160.935181 88.0
161.045959 720.0
161.079666 208.0
161.127121 292.0
161.266098 164.0
161.513885 96.0
161.632797 144.0
161.711243 72.0
161.815033 144.0
162.019791 424.0
162.054199 1748.0
162.088562 128.0
162.251663 156.0
162.423218 56.0
162.453659 96.0
162.501862 192.0
162.616043 120.0
162.864868 172.0
162.984268 152.0
163.036209 228.0
163.06076 972.0
163.391052 132.0
163.426682 60.0
163.528458 244.0
163.676117 84.0
163.834015 180.0
163.851852 164.0
163.989258 152.0
164.070328 1868.0
164.272476 60.0
164.32312 132.0
164.425568 124.0
164.537872 68.0
164.657883 72.0
164.757507 160.0
164.890381 144.0
164.998993 440.0
165.051544 756.0
165.072189 316.0
165.192078 84.0
165.273956 172.0
165.632355 128.0
165.747635 140.0
166.007385 156.0
166.068085 164.0
166.175827 120.0
166.322098 220.0
166.409378 152.0
166.60199 196.0
166.954117 144.0
167.020996 108.0
167.229401 148.0
167.432785 124.0
167.546112 116.0
167.564148 132.0
168.056091 188.0
168.079819 136.0
168.38443 140.0
168.549759 68.0
168.627274 236.0
168.978958 132.0
169.217056 48.0
169.299911 112.0
169.351715 212.0
170.056931 116.0
170.228271 204.0
170.844254 40.0
171.302414 240.0
171.484802 144.0
171.560394 216.0
172.003845 152.0
172.02211 112.0
172.041794 236.0
172.075638 456.0
172.105652 136.0
172.259735 44.0
172.33812 180.0
172.547195 192.0
172.77211 84.0
173.033813 124.0
173.057755 360.0
173.081024 128.0
173.107559 120.0
173.201401 132.0
173.418884 84.0
173.95134 188.0
174.011719 168.0
174.055557 2352.0
174.089005 744.0
174.122009 84.0
174.161392 84.0
174.198975 104.0
174.248077 64.0
174.326904 184.0
174.403122 60.0
174.531937 68.0
174.760773 52.0
174.900238 60.0
175.025131 228.0
175.054886 328.0
175.086166 136.0
175.2742 68.0
175.326904 48.0
175.345352 120.0
175.524612 168.0
175.74353 100.0
175.995285 388.0
176.033127 448.0
176.069275 960.0
176.377335 180.0
176.427551 140.0
176.456635 40.0
176.520096 200.0
176.557114 144.0
176.816376 60.0
176.932846 132.0
176.96991 144.0
176.991089 144.0
177.041687 3352.0
177.074463 132.0
177.290421 60.0
177.354019 64.0
177.539612 100.0
177.563477 120.0
177.595306 152.0
178.045364 364.0
178.078354 144.0
178.114822 164.0
178.176636 52.0
178.197891 52.0
178.253693 160.0
178.450378 116.0
178.833435 116.0
178.876022 96.0
178.966537 156.0
179.057587 168.0
179.648788 116.0
180.03447 152.0
180.982391 172.0
181.001144 108.0
181.029953 456.0
181.37352 136.0
181.593384 156.0
181.778488 136.0
182.01738 172.0
182.049606 180.0
182.218826 248.0
182.683899 200.0
182.888412 144.0
183.029434 196.0
183.077927 192.0
183.621246 100.0
183.799286 184.0
183.939621 136.0
184.071503 324.0
184.452835 116.0
184.498795 56.0
184.555573 88.0
184.7043 164.0
184.828751 76.0
184.899109 108.0
184.961365 164.0
185.079956 472.0
185.19693 152.0
185.923508 36.0
186.055267 404.0
186.08638 144.0
186.254745 80.0
186.439484 164.0
186.488403 176.0
186.754852 204.0
187.065201 348.0
187.098114 556.0
187.122223 164.0
187.154892 92.0
187.182114 124.0
187.315567 248.0
187.451797 140.0
187.667114 96.0
187.691666 60.0
188.06868 1276.0
188.166397 164.0
188.483231 188.0
189.059616 708.0
189.229538 148.0
189.257294 224.0
189.355881 132.0
189.585999 56.0
189.627106 96.0
189.734009 128.0
190.05452 924.0
190.088699 316.0
190.115265 120.0
190.227798 160.0
190.249756 104.0
190.268967 180.0
190.400772 208.0
190.47493 56.0
190.540848 204.0
190.637024 108.0
190.735962 128.0
190.920166 160.0
191.057571 556.0
191.096375 224.0
191.233795 192.0
191.253067 92.0
191.27652 220.0
191.531158 80.0
191.56012 212.0
191.589539 168.0
191.76535 140.0
191.784653 264.0
191.814972 84.0
191.896362 228.0
191.939026 216.0
191.957275 168.0
191.985992 132.0
192.010071 520.0
192.06514 40292.0
192.136795 264.0
192.191956 40.0
192.2397 68.0
192.27005 92.0
192.289993 224.0
192.32045 108.0
192.363892 36.0
192.410339 68.0
192.481964 192.0
192.524719 64.0
192.553635 72.0
192.620697 168.0
192.653854 80.0
192.679901 120.0
192.700806 52.0
192.736725 80.0
192.817108 92.0
192.848129 116.0
192.930191 52.0
192.968903 84.0
193.069092 4900.0
193.101624 36.0
193.170776 80.0
193.231644 80.0
193.267609 56.0
193.360382 68.0
193.627472 56.0
193.666672 128.0
193.699478 192.0
193.815842 204.0
193.93222 36.0
194.003799 312.0
194.031952 172.0
194.042252 168.0
194.047546 200.0
194.079971 656.0
194.134613 56.0
194.159561 108.0
194.209488 144.0
194.256027 72.0
194.284378 84.0
194.364594 140.0
194.43042 108.0
194.459473 80.0
194.513016 184.0
194.536835 108.0
194.540497 96.0
194.631302 88.0
194.730225 72.0
194.806274 60.0
194.836823 36.0
194.959091 44.0
195.045242 116.0
195.073044 192.0
195.091278 164.0
195.256546 56.0
195.481873 72.0
195.520844 132.0
195.579285 140.0
196.281326 84.0
196.325943 80.0
196.688629 76.0
197.023361 184.0
197.289215 160.0
197.403839 60.0
197.617203 72.0
197.999908 68.0
198.055923 136.0
198.12146 192.0
198.369751 140.0
198.675415 160.0
198.83255 100.0
198.916748 236.0
199.058289 136.0
199.325119 176.0
199.869461 188.0
200.067307 228.0
200.104507 108.0
200.179092 160.0
200.635529 184.0
201.07402 132.0
201.109421 188.0
201.261871 48.0
201.343765 184.0
201.499115 240.0
201.863724 192.0
202.027771 252.0
202.084732 436.0
202.231506 220.0
202.523132 68.0
202.695938 104.0
203.01059 164.0
203.042694 148.0
203.095703 420.0
203.223328 92.0
203.288589 140.0
203.598007 28.0
203.623947 128.0
203.85083 80.0
204.021362 128.0
204.067947 424.0
204.101532 244.0
204.465088 48.0
204.926376 216.0
204.960571 60.0
205.031815 176.0
205.072342 1428.0
205.251312 96.0
205.442398 48.0
205.556519 136.0
206.077255 740.0
206.227631 72.0
206.40773 60.0
206.464935 220.0
207.013382 300.0
207.068115 188.0
207.073395 144.0
207.088577 132.0
207.318024 44.0
207.389679 124.0
208.006363 124.0
208.050156 156.0
208.063538 144.0
208.279144 160.0
208.552094 120.0
209.026169 2020.0
209.064026 176.0
209.112946 64.0
209.265503 40.0
209.325974 140.0
209.501663 76.0
209.553528 176.0
209.861908 108.0
210.031326 188.0
210.436066 40.0
210.540009 140.0
211.020294 328.0
211.077499 104.0
211.196075 144.0
211.323349 48.0
211.53891 152.0
211.595398 176.0
211.630142 128.0
212.068817 164.0
212.10524 168.0
212.696976 152.0
213.023026 248.0
213.077698 604.0
213.263351 112.0
213.393646 244.0
213.594818 48.0
213.766479 36.0
214.0168 176.0
214.045914 84.0
214.078217 260.0
214.139099 152.0
214.211929 116.0
214.66658 76.0
214.97287 180.0
215.039993 140.0
215.093246 272.0
215.253113 88.0
215.551056 112.0
215.79657 128.0
216.063431 540.0
217.05658 704.0
217.083435 336.0
217.105896 288.0
217.167023 124.0
217.448685 184.0
218.063507 236.0
218.118149 760.0
218.300629 164.0
218.800812 132.0
219.068359 324.0
219.117218 548.0
219.32811 228.0
219.4077 216.0
219.487305 192.0
219.581665 96.0
219.799957 160.0
219.968185 200.0
220.041809 2116.0
220.098328 3332.0
220.304825 68.0
220.378677 64.0
220.479141 104.0
220.694931 32.0
220.863495 44.0
220.990707 152.0
221.044815 460.0
221.098053 148.0
221.138657 60.0
221.544312 152.0
221.586533 80.0
221.65097 164.0
221.808044 48.0
222.034042 488.0
222.090347 152.0
222.217285 104.0
222.297409 192.0
222.680359 156.0
223.039871 252.0
223.167694 176.0
223.59903 168.0
223.896729 140.0
224.033279 128.0
224.683624 184.0
225.262756 164.0
225.483871 56.0
225.669189 152.0
226.171768 168.0
226.309479 208.0
226.755814 188.0
227.052612 144.0
227.079605 200.0
227.223587 164.0
227.529694 180.0
227.559723 52.0
227.899109 256.0
227.920135 100.0
228.022308 28.0
228.109482 232.0
228.831467 144.0
229.108536 112.0
229.986023 156.0
230.028015 136.0
230.076355 472.0
230.710983 56.0
230.986954 152.0
231.025284 120.0
231.084305 272.0
231.561234 204.0
231.797531 160.0
232.05896 496.0
232.098419 1268.0
232.25531 156.0
232.367554 148.0
232.482849 164.0
232.540512 80.0
233.00238 188.0
233.048187 264.0
233.100357 412.0
233.670898 132.0
233.698288 216.0
233.725677 72.0
233.929581 100.0
233.963058 136.0
234.05835 3076.0
234.112549 376.0
234.133575 204.0
234.18721 164.0
234.319382 84.0
234.404694 64.0
234.480881 80.0
234.544876 48.0
234.830276 172.0
234.935196 116.0
234.96875 84.0
235.064941 4844.0
235.194565 52.0
235.304459 132.0
235.799301 128.0
236.071045 1196.0
236.187607 128.0
236.248779 44.0
236.790558 64.0
237.05542 960.0
237.372803 60.0
238.062012 512.0
238.161514 228.0
238.428818 44.0
238.631683 100.0
238.951538 36.0
239.056152 168.0
239.336258 48.0
239.896973 108.0
240.310226 92.0
241.022568 160.0
241.437668 116.0
241.960587 180.0
242.775497 136.0
243.243973 144.0
243.352631 148.0
243.424042 156.0
243.520325 104.0
243.886948 144.0
244.09404 152.0
244.985367 132.0
245.048782 632.0
245.102783 172.0
245.799088 124.0
246.055405 576.0
246.111359 4872.0
246.193848 104.0
246.223633 204.0
246.279861 108.0
246.339905 72.0
246.372711 188.0
246.517288 48.0
246.817368 52.0
246.904922 176.0
246.979996 44.0
247.039429 180.0
247.063278 192.0
247.116745 1148.0
247.85849 52.0
248.000717 44.0
248.022644 132.0
248.080353 128.0
248.367554 160.0
248.8414 80.0
248.890518 200.0
249.031219 224.0
249.070648 112.0
249.328278 220.0
249.548309 92.0
249.787308 136.0
249.932037 116.0
249.963501 176.0
250.007553 176.0
250.088959 4200.0
250.312897 92.0
250.731873 48.0
251.092743 704.0
251.220581 52.0
251.855057 104.0
252.084595 424.0
252.131668 36.0
252.771851 96.0
253.091553 136.0
253.26889 160.0
253.53186 60.0
254.527908 68.0
255.137924 76.0
255.366867 116.0
255.618179 196.0
256.076599 172.0
257.943146 232.0
258.112579 172.0
258.355652 96.0
259.101562 124.0
259.450897 172.0
259.515015 152.0
259.636871 96.0
260.072754 152.0
260.779785 44.0
261.064453 44.0
261.236389 120.0
261.493774 112.0
261.619324 48.0
262.054871 752.0
262.105652 48.0
262.469879 100.0
262.540802 100.0
263.056244 424.0
263.134521 104.0
264.052216 120.0
264.547272 64.0
264.909943 232.0
265.101105 176.0
265.824219 104.0
266.005981 100.0
266.346924 68.0
266.39566 212.0
267.48172 88.0
267.84967 48.0
270.105194 112.0
270.497833 76.0
271.066254 160.0
271.215179 232.0
272.085632 436.0
272.301178 164.0
273.606567 160.0
274.011658 124.0
274.29837 136.0
274.618195 216.0
275.839874 236.0
275.882843 156.0
276.074738 304.0
276.127533 144.0
276.236664 116.0
276.62384 124.0
276.835724 160.0
276.928467 284.0
277.001312 160.0
277.074402 320.0
277.216675 76.0
277.300598 160.0
277.339294 124.0
277.495087 124.0
277.534882 64.0
277.640991 124.0
277.73053 56.0
277.800201 92.0
277.823425 120.0
277.889771 200.0
277.927795 148.0
277.965515 164.0
278.00592 128.0
278.038971 376.0
278.084717 55116.0
278.169556 168.0
278.209778 224.0
278.290161 152.0
278.331116 80.0
278.36441 104.0
278.421112 288.0
278.44458 96.0
278.473083 72.0
278.511108 72.0
278.580292 116.0
278.631165 76.0
278.662231 144.0
278.721497 240.0
278.774994 20.0
278.812866 124.0
278.838257 76.0
278.869385 48.0
278.966248 56.0
279.014465 184.0
279.086609 6676.0
279.158844 80.0
279.234894 68.0
279.270142 120.0
279.331543 40.0
279.354828 44.0
279.414703 44.0
279.481262 48.0
279.517853 84.0
279.607697 60.0
279.790771 76.0
279.879242 188.0
279.911224 128.0
280.018005 100.0
280.082397 3508.0
280.19516 76.0
280.277039 32.0
280.315826 108.0
280.377014 132.0
280.407013 52.0
280.606995 132.0
280.631134 152.0
280.661591 96.0
280.684967 116.0
280.733704 104.0
280.767059 68.0
280.813293 120.0
280.862305 72.0
280.930481 96.0
281.017609 172.0
281.088135 672.0
281.134796 204.0
281.1987 156.0
281.324249 76.0
281.433868 72.0
281.467834 56.0
281.49118 128.0
281.514557 108.0
281.865295 64.0
281.942169 40.0
281.965546 60.0
282.11264 116.0
282.1427 60.0
282.212921 148.0
282.319916 48.0
282.396851 48.0
282.768219 28.0
282.825104 68.0
282.882019 100.0
283.602173 60.0
284.538055 56.0
284.870514 68.0
285.166199 76.0
288.067322 140.0
289.122192 240.0
289.477661 36.0
289.914642 132.0
290.779419 96.0
290.813354 104.0
292.203186 88.0
292.410736 80.0
293.627014 60.0
293.736145 80.0
294.731781 88.0
294.893646 104.0
295.584442 80.0
297.105652 104.0
298.022308 96.0
299.794403 52.0
305.058746 200.0
306.09552 48.0
306.931793 152.0
308.181366 124.0
323.613831 88.0
329.14566 236.0
330.150818 320.0
338.430359 196.0
339.009125 116.0
345.123169 148.0
346.963226 136.0
350.676666 56.0
351.470978 124.0
359.278595 72.0
361.295898 124.0
361.651611 72.0
363.128479 164.0
367.92746 48.0
369.616791 44.0
372.81485 88.0
375.004669 156.0
380.742126 88.0
385.162689 72.0
386.546661 48.0
388.309509 80.0
392.686859 72.0
400.224121 44.0
408.480377 116.0
413.345917 64.0
416.703094 60.0
426.679352 148.0
433.386078 76.0
442.746094 96.0
452.574371 72.0
461.902985 40.0
469.500763 60.0
471.41748 92.0
484.085022 96.0
486.057556 128.0
487.96814 48.0
506.576691 48.0
519.03833 112.0
534.781067 72.0
539.194763 44.0
551.240234 36.0
554.469177 44.0
555.805664 96.0
556.392334 92.0
577.737732 116.0
595.592896 88.0
600.11377 96.0
601.020996 64.0
604.573425 72.0
610.101196 100.0
630.053467 56.0
647.720581 60.0
666.217468 80.0
667.101318 92.0
668.263611 64.0
673.454651 64.0
683.647156 72.0
693.648865 40.0
719.672852 204.0
734.074585 104.0
736.800293 48.0
762.228821 92.0
766.40509 72.0
771.289062 104.0
812.211914 120.0
824.527039 176.0
825.218689 144.0
839.671936 120.0
842.997131 160.0
848.866821 68.0
877.317688 60.0
883.09845 92.0
883.781982 44.0
910.136108 56.0
916.144287 136.0
946.32251 112.0
974.621033 140.0
995.402527 108.0
999.010071 64.0
1019.082703 180.0
1027.671631 168.0
1031.241211 148.0
1058.887573 140.0
1063.568726 52.0
1070.212524 80.0
1082.049438 180.0
1082.442261 228.0
1091.20813 120.0
1094.056763 112.0
1095.782227 76.0
1104.681152 116.0
1115.915405 152.0
1124.301514 108.0
1130.128296 116.0
1132.786133 160.0
1136.741699 88.0
1145.885986 208.0
1151.376709 164.0
1152.558838 40.0
1156.562256 160.0
1162.003784 92.0
1165.486816 96.0
1174.616211 64.0
1174.964111 132.0
1175.557739 188.0
1176.588379 120.0
1179.197632 148.0
1180.900024 116.0
1188.943115 132.0
1189.032349 212.0
1199.914185 228.0
1201.390015 192.0
1208.588867 192.0
1210.741699 96.0
1217.690796 124.0
1223.239258 120.0
1224.158203 48.0
1233.087769 148.0
1245.187012 116.0
1256.223633 124.0
1258.411255 100.0
1261.2229 156.0
1262.389404 56.0
1264.079956 36.0
1272.358398 96.0
1276.94165 208.0
1279.346558 168.0
1281.597168 108.0
1289.325073 184.0
1299.227661 168.0
1306.181152 188.0
1307.55542 104.0
1311.163452 176.0
1311.891479 92.0
1313.831299 252.0
1319.796875 140.0
1324.305298 84.0
1330.708374 148.0
1339.289185 152.0
1353.529907 112.0
1354.328125 20.0
1356.966187 56.0
1357.20813 144.0
1358.183472 128.0
1361.838745 204.0
1363.256592 152.0
1363.910645 56.0
1364.550293 172.0
1366.315308 80.0
1366.432983 104.0
1371.713135 188.0
1374.419678 148.0
1376.250122 120.0
1385.035645 176.0
1386.821289 64.0
1387.140015 148.0
1391.984619 188.0
1395.989868 148.0
1404.278687 132.0
1405.099121 156.0
1405.673706 120.0
1408.26416 244.0
1409.130615 216.0
1415.136353 192.0
1423.316528 104.0
1430.165039 220.0
1433.817749 124.0
1434.179565 180.0
1450.544067 216.0
1450.756348 192.0
1452.523193 68.0
1454.017822 128.0
1455.779053 208.0
1458.407715 244.0
1462.19519 164.0
1464.159424 148.0
1464.525024 168.0
1466.795532 80.0
1466.864136 44.0
1468.526367 92.0
1469.045044 160.0
1476.560913 216.0
1478.175659 220.0
1478.83313 196.0
1481.704712 112.0
1481.911499 216.0
1482.179688 136.0
1484.870361 160.0
1489.114502 180.0
1489.767334 260.0
1492.834106 148.0
1499.416016 140.0
1500.595459 132.0
1501.3125 48.0
1502.523438 180.0
