>compound Dipyridamole
>formula C24H40N8O4 
>ionization [M+H]+
>parentmass 505.324
#inchi InChI=1S/C24H40N8O4/c33-15-11-31(12-16-34)23-26-20-19(21(27-23)29-7-3-1-4-8-29)25-24(32(13-17-35)14-18-36)28-22(20)30-9-5-2-6-10-30/h33-36H,1-18H2
#inchikey IZEKFCXSFNUWAM
#Ion_Source LC-ESI
#Instrument qTof
#Compound_Source Isolated
#PI Sirenas
#Data_Collector Ed Esquenazi 
#Scan -1
#Precursor_MZ 505.324
#ExactMass 0.0
#Charge 1
#CAS_Number N/A
#Pubmed_ID N/A
#Smiles N/A
#INCHI_AUX N/A
#Library_Class 3
#SpectrumID CCMSLIB00000004984
#IonMode Positive
#UpdateWorkflowName UPDATE-SINGLE-ANNOTATED-BRONZE
#LibraryQualityString Bronze
#TaskID d19310cd93df49b68e9fcbec27720eb5
##Scan# 3
#SpectrumFile Dipyridamole.mgf
#LibraryName fda_library.mgf
#MQScore -1
#Organism fda_library
#TIC_Query 0
#RT_Query -1
#MZErrorPPM -1
#SharedPeaks 0
#MassDiff 0
#LibMZ -1
#SpecMZ 505.324
#SpecCharge 0
#internalFilename spec-00000.mgf

>collision 10
104.069519 15.7338
106.085999 121.580299
107.049782 23.153339
112.089096 16.429001
113.071266 57.99025
113.481613 14.74083
113.799454 8.802726
114.055084 1781.729004
114.100227 12.43918
114.188698 21.48148
114.219032 8.2
114.312164 5.078241
114.353386 7.973958
114.376404 5.336111
114.423065 10.91856
114.442635 9.380897
114.532066 11.56612
114.878235 7.243511
115.420853 7.633796
116.070145 217.756195
116.247955 3.666667
120.055519 12.73984
122.060707 22.02083
123.092545 4.834936
129.06575 9.646739
131.058899 20.173611
131.080444 99.299782
135.067444 10.70988
135.092987 33.518539
136.059479 20.453699
136.082214 7.145833
138.087921 22.7827
140.106689 14.23554
141.067841 16.19923
145.049911 27.1087
145.075424 15.38122
146.068008 14.00397
146.089142 14.3995
147.056885 65.176811
149.071442 51.93251
152.947723 16.656919
156.133026 10.6738
157.059631 26.334721
158.088348 23.852079
160.066025 30.905581
162.075043 15.53659
163.62117 11.3952
164.079773 20.185261
167.121338 15.57455
172.065796 4.855511
174.075668 29.74321
175.084 31.38731
176.082016 45.169701
176.093719 17.53583
177.07251 70.282379
177.083786 93.708344
177.108505 11.42647
179.090897 13.07715
180.079269 18.997129
182.12619 23.05389
184.060928 24.024969
184.082169 12.84752
185.05545 10.19627
186.072311 46.596169
186.615921 9.669956
187.083435 30.71841
187.097961 18.57341
188.092316 30.168921
189.085922 45.95562
189.098541 66.995392
189.471542 4.045455
190.084305 28.806459
191.45166 10.22454
192.084457 83.466423
192.095978 14.24897
196.103394 14.52035
197.648422 12.42614
198.065399 15.17083
199.117477 39.57325
199.595596 3.78125
200.071548 10.4037
200.105072 28.387871
201.051178 7.354167
201.072968 27.239651
201.091309 23.44537
201.753357 22.26177
202.080338 63.909729
202.093689 13.69284
202.108627 19.525419
202.290573 2.020833
202.321655 3.227273
202.376022 3.666667
202.435593 6.001226
203.068192 17.64002
203.108932 102.851097
204.123444 13.38301
205.090607 5.266401
205.369141 4.234722
206.1017 84.955208
208.0112 9.585874
209.106522 4.958333
209.771896 5.83908
211.536163 44.6875
212.08876 47.120892
213.085373 23.8335
213.584442 17.88983
213.888321 8.39421
214.082504 12.875
214.106079 14.1684
214.11734 7.864455
215.107788 37.3936
215.136688 10.50034
216.097198 95.149071
216.12204 37.15757
216.941696 9.501344
217.103699 69.273087
217.12384 22.53112
218.09523 70.170311
218.123016 22.17738
218.158249 24.513081
218.699448 4.387821
219.032181 1.002315
219.114563 103.0056
220.489334 6.045455
221.078064 21.32848
221.111328 19.397129
221.143372 14.50521
222.122711 48.283539
223.098175 7.47405
223.121735 27.46847
224.10141 42.141739
225.082611 16.78125
226.107147 36.29451
226.157913 16.682369
226.441895 8.483404
228.102158 116.364403
229.133942 30.27425
229.492493 15.84205
230.060791 18.701151
230.127975 73.287872
231.106277 47.22879
231.128571 49.655651
231.145584 7.467129
232.116608 78.091797
233.106369 16.965731
233.117706 56.31073
234.113556 176.005096
235.136139 27.456461
235.423096 4.869933
235.887192 3.387769
236.138596 27.582649
237.11969 49.392059
237.2883 7.793356
240.094543 15.02216
240.112473 19.41325
240.132492 9.855833
241.087662 8.166667
241.115158 7.897436
242.121216 22.85701
242.140381 9.168403
243.104645 42.413651
243.131851 39.40451
243.866257 10.35006
244.120544 66.39901
244.139191 39.891441
245.09433 14.67708
245.11377 136.270706
245.129791 32.108559
245.146866 39.241638
245.531784 7.679369
246.131058 30.697241
246.153351 142.290497
247.128098 105.024101
247.182693 8.870427
247.679108 7.763441
247.755768 10.29594
247.821472 1.547348
247.952774 3.680021
248.003632 2.796474
248.099792 2.6125
248.12529 126.134399
248.503357 13.80876
249.093872 27.502871
249.129898 70.259201
250.115997 36.524601
252.130997 90.801758
253.119431 25.10667
254.123779 15.39347
255.094604 22.82172
255.140442 54.921398
256.127502 14.17741
256.761566 8.55
257.142487 117.510201
258.088409 11.13038
258.105042 49.80954
258.1521 128.212402
258.280243 8.547242
258.352814 4.205883
258.509796 11.12004
259.125153 71.469887
259.150085 187.553497
259.305054 4.074405
259.776459 11.84593
260.124146 86.086098
260.159973 187.784897
260.533081 10.51191
260.858368 3.504808
261.142395 96.122803
262.135162 53.82243
262.281982 5.525
262.366394 7.200278
262.692078 14.52013
262.82309 5.522727
263.133453 38.505562
264.111908 15.8023
264.146118 22.368059
265.153931 27.24711
268.136871 39.253342
268.176453 32.518902
269.115387 3.490385
269.152985 15.83565
270.114685 9.373346
270.128479 26.0625
270.152985 43.944481
271.153992 94.693718
271.425323 5.905357
271.77356 4.130208
272.118591 44.746979
272.145386 44.532452
272.162689 172.569397
273.121582 24.92907
273.148529 123.943497
273.16095 98.314972
273.186829 31.434271
273.417053 4.15308
273.839325 54.673439
273.858551 24.497129
274.167511 252.543198
274.192627 56.196972
275.125702 17.35417
275.943634 9.173612
276.130585 23.530149
276.165436 80.341537
276.602539 4.017857
276.87439 9.074405
277.140198 250.873398
277.523407 4.902778
278.086426 4.778409
278.144165 186.174606
278.232208 21.73296
278.518921 2.19391
278.985962 6.346154
279.224548 15.45214
282.106628 5.408179
282.146545 31.29701
282.18689 24.0
283.129822 18.63793
283.68103 9.04
284.159729 115.726303
284.404053 7.334822
285.043884 5.885417
285.125305 28.60701
285.160461 323.314514
285.296722 13.25934
285.479797 6.778241
286.814575 10.35073
287.14917 123.520599
287.17746 113.045601
287.374756 12.50521
287.788177 9.572363
288.106537 10.16955
288.12442 11.50032
288.170654 157.909698
288.189026 7.2
288.342682 9.382974
288.398987 4.3125
289.167175 220.954803
289.300354 4.780996
290.099701 5.857073
290.134674 139.824707
290.17981 302.627106
290.702087 5.373774
291.158539 43.098171
291.618591 4.335145
291.859985 2.568056
292.117828 6.025641
293.139496 10.74192
294.141296 45.840851
294.20578 12.06464
294.811584 5.39797
294.848358 4.444444
295.152405 25.83847
296.154572 80.226967
296.600281 1.834559
297.168091 53.354172
297.577698 5.333868
297.649445 16.09836
298.172333 117.957603
298.224182 1.701389
298.755615 3.270833
298.941528 4.8
299.176636 181.070206
299.454224 16.073
300.139191 18.38028
300.154724 35.927269
300.189392 117.069298
300.996155 8.735043
301.177063 265.569702
301.219513 4.844445
301.376526 11.05521
301.408508 10.0
301.909454 10.58449
302.17218 815.297913
302.197723 24.386921
302.397797 10.01791
302.446442 4.583333
302.526001 11.39973
302.676575 10.92618
302.739929 3.020833
302.783508 1.633333
302.864044 5.556019
303.152985 39.845188
303.180267 429.995392
303.336456 4.833929
303.402985 9.50641
303.608368 2.34375
304.150635 99.663948
304.1875 389.817993
304.264252 14.55435
304.482849 6.588644
305.169983 127.610298
305.288605 1.760417
306.167877 67.580093
306.654633 22.65733
307.184875 17.72299
307.41568 4.423611
308.16272 19.927
309.179138 58.565651
310.170074 73.415009
311.171661 102.198799
311.344055 9.199219
311.442352 3.667175
312.177277 77.863052
312.34552 8.181045
312.493073 4.170656
312.616486 4.377604
312.794434 10.5947
312.834747 7.085938
313.180084 119.513496
313.197662 99.497757
314.035828 10.86427
314.17395 167.385101
314.255768 10.86102
314.507294 2.503788
314.694183 5.973536
315.180786 346.075104
315.287781 9.448718
315.402832 2.422149
315.486755 2.3
315.825226 6.05147
316.151123 77.246407
316.187592 942.674011
316.243347 2.208333
316.268097 1.667892
316.613556 3.527778
316.819458 13.42181
316.858521 3.75
317.079071 4.67937
317.184357 498.066986
317.227936 4.016667
317.280884 17.96365
317.411072 7.25926
317.71283 9.656818
317.748474 4.198412
317.935913 8.703743
317.984375 8.881579
318.164917 174.672104
318.198425 971.831299
318.358704 9.293356
318.462036 4.834821
318.662292 8.512703
319.184418 79.181412
319.804382 10.83368
320.340973 8.0
320.433044 9.500365
320.780487 5.666667
321.165283 220.239807
321.386078 3.336309
322.016907 14.19023
322.99765 8.5125
323.191528 36.00605
323.425018 8.680555
324.146362 13.17837
324.192352 107.982101
325.089264 10.67654
326.125092 4.712275
326.194519 75.449348
326.376434 4.722685
327.168976 8.530682
327.197266 63.14304
327.829834 17.941071
328.150543 6.189312
328.188019 405.942993
328.220276 22.033091
328.284149 5.273809
328.373322 7.520833
328.423645 5.407738
328.52356 7.398148
328.576141 7.840278
328.631226 9.22815
329.190063 380.270905
329.348694 10.48214
329.403839 3.734722
329.463287 8.522223
330.200256 1117.626953
330.860321 6.439525
331.167023 30.52837
331.816528 1.667763
332.025604 4.03125
332.257996 28.343229
333.102295 24.3985
333.190002 435.622314
333.55423 6.668651
334.1586 71.7164
334.199768 223.369904
334.440399 9.106692
335.144073 45.04958
335.182831 140.351807
337.160492 122.232399
337.407349 8.761905
337.429382 19.33346
337.461334 1.837963
337.742126 6.600595
338.01355 5.136111
338.186554 41.578548
338.20578 37.88924
339.150604 1.334722
339.205292 100.260002
339.605621 4.333333
339.791901 3.963735
340.222961 66.512604
341.188049 76.589737
341.219452 449.586304
341.486603 6.449275
341.66687 7.942803
342.110535 5.343137
342.198822 386.957214
342.224823 235.833298
342.389923 3.442402
342.413025 3.5
343.200714 752.45813
343.298279 2.520833
343.428436 8.527778
343.720245 3.755482
343.985748 4.6875
344.180023 96.641991
344.237274 5.508333
344.263489 9.652778
344.28949 9.102885
344.328033 5.602134
344.726196 5.25
345.24881 11.6075
345.354919 11.0049
345.478699 18.562149
345.665192 5.67824
346.198792 1492.709961
346.373291 36.13644
346.436462 2.547619
346.487854 15.0213
346.565704 10.04679
346.613403 5.625
346.635345 13.88194
346.681549 3.463735
346.753876 23.11812
346.837097 9.019261
346.953522 10.83432
347.045563 31.275999
347.153717 76.664871
347.201263 563.086914
347.342926 16.05732
347.406036 13.37615
347.608185 5.73852
347.77063 6.915213
347.926208 3.851293
348.213898 1505.305054
348.322205 8.314951
348.367615 12.74306
348.413086 8.15097
348.712158 4.714881
348.82901 13.00651
348.900269 3.852083
348.97171 12.83544
349.693481 4.006049
350.157684 15.17421
350.266571 4.509868
350.430756 4.153846
351.152313 12.27987
351.400024 7.011082
352.188385 14.45271
352.284302 16.958981
353.176086 4.528986
353.214142 15.0144
353.230499 20.85734
353.70047 8.398438
354.013428 7.000353
354.224945 150.969406
354.334229 2.170139
354.46521 6.840517
354.805878 4.947663
355.202057 334.427887
355.233643 456.304108
355.462433 3.677083
355.539032 8.191667
355.559723 9.271948
355.631958 2.168561
355.741333 6.1875
356.000336 8.889352
356.083038 18.818211
356.178284 20.02508
356.220978 203.553299
356.314667 4.680021
356.414886 13.70327
356.958496 6.903296
357.216064 843.248474
357.293793 8.334678
357.451508 21.7022
357.563782 2.860746
357.629242 4.547348
358.054657 8.574405
358.197815 459.293396
358.280518 2.194444
358.368042 4.855511
358.415009 5.136111
358.471832 6.446028
358.56424 8.388888
358.612305 10.1916
358.637543 11.60417
358.725525 2.504167
359.091248 5.894817
359.163971 1.5625
359.506714 4.460022
359.706451 8.963735
359.968811 9.095569
360.212982 2023.256958
360.292145 8.167174
360.397736 4.501894
360.468506 19.477961
360.536621 14.19114
360.628937 3.402778
360.688629 15.91158
360.827026 2.666667
360.992401 7.686683
361.112549 9.489943
361.172119 27.45163
361.331299 17.525181
361.768982 7.347222
361.860016 11.53704
362.099854 3.962963
362.461426 5.739268
362.527496 7.333333
362.79248 7.162634
363.185425 24.4576
363.635468 25.05789
363.754211 2.786706
364.20929 9.483478
364.989746 14.34729
365.194092 11.27614
365.226654 333.935303
366.006683 3.508152
366.359528 3.167339
367.01236 6.051724
367.378967 2.190476
367.500092 8.578947
367.718475 4.7675
368.173523 21.91913
368.217285 19.009199
368.240906 268.236206
368.53476 4.662725
368.760101 8.122874
368.794281 2.786706
369.134766 2.870833
369.217682 405.6474
369.244385 305.117798
369.549927 8.071428
369.588348 9.956207
369.658142 8.231482
369.743713 4.060606
370.569397 3.921875
370.68042 3.377778
371.074036 6.653567
371.205261 19.460369
371.337219 8.040064
371.882202 3.926282
372.081604 3.520833
372.191833 39.330959
372.235718 645.373474
372.286316 3.854167
372.718933 18.535919
373.211578 483.531799
373.287201 9.126737
374.188538 44.751942
374.285767 5.193452
374.555176 5.186683
374.987579 17.331141
375.190948 63.477779
375.220612 779.472473
375.243469 125.226799
375.52713 16.67017
375.970428 3.836111
376.294281 9.166667
376.913818 9.704166
377.107605 23.69626
377.564148 14.68527
377.624908 4.001812
378.01709 8.692628
378.179596 5.170139
378.22229 542.227417
378.267487 2.501894
378.376038 7.458333
378.458893 20.967661
378.553101 4.907407
378.612549 4.506667
379.018066 15.45184
379.160767 4.191468
379.204895 17.259769
379.337219 6.336407
379.587585 4.682449
380.208496 12.3125
380.24585 80.008926
380.294861 6.778409
380.510468 9.723214
380.917664 6.177083
381.237549 120.134399
381.257355 34.333328
381.848511 14.43117
381.943542 7.850428
382.233978 382.838898
382.252319 258.52301
382.700928 11.81647
382.800293 7.647467
382.82077 7.216095
382.882538 18.809641
382.909363 10.46497
382.933746 41.874359
382.974213 10.54688
383.010529 23.390659
383.046143 7.85307
383.07489 31.431589
383.10022 2.381944
383.125427 19.37343
383.164154 17.73385
383.298767 15.9898
383.355682 9.75947
383.399261 37.206421
383.718323 16.86688
383.992981 4.034091
384.064331 1.666667
384.137665 18.0037
384.230438 38.33424
384.330078 10.1672
384.374847 8.573529
384.483734 5.345446
384.593719 15.52083
385.127014 1.777778
385.201538 8.12037
385.246155 13588.830078
385.350555 3.680556
385.401489 16.75515
385.463684 13.53472
385.512451 25.95388
385.53064 8.657051
385.551117 20.2735
385.570953 12.28977
385.60022 36.698551
385.646942 22.375
385.698059 94.264374
385.733215 4.001225
385.758453 17.037279
385.782959 37.139961
385.824036 30.411329
385.869202 59.873631
385.926605 23.215719
385.957367 51.87608
385.999603 8.051577
386.045227 26.776621
386.074341 18.15686
386.135132 37.53746
386.15686 12.81199
386.177338 5.52374
386.34549 36.6278
386.395203 43.834351
386.480408 9.092803
386.526184 14.32099
386.577667 48.982731
386.769653 14.33333
387.01059 29.76506
387.054688 18.00069
387.226349 519.249084
387.374695 5.107456
387.6185 8.981547
387.654083 16.680559
387.758179 3.51282
387.818268 17.79727
387.844513 6.760031
388.092255 9.493333
388.154999 16.5375
388.19809 110.741699
388.27179 39.803791
388.415955 6.621212
388.459839 11.99344
388.615021 18.92112
389.242828 110.253197
390.118378 4.481482
390.200775 5.074912
390.22821 36.50145
390.406952 2.844445
390.503204 3.667175
391.163513 9.844048
391.224762 439.168793
391.521332 11.34265
391.793457 2.166667
392.375366 3.690104
392.637268 6.027664
392.703949 3.580044
393.256531 57.015751
394.254425 43.796421
395.239258 740.17157
395.707642 11.50833
395.967255 13.74801
396.279053 11.74914
396.555634 10.68063
396.623688 1.708333
396.785767 16.593941
396.860504 8.522988
396.909637 1.3375
397.012695 3.527412
397.082275 8.206679
397.116882 5.529167
397.312042 9.186743
397.574829 13.09781
397.741089 5.166667
397.901398 6.515152
398.004059 4.740036
398.254669 529.688293
398.351288 15.34989
398.443909 10.13889
398.6633 2.666667
398.692169 4.193452
398.76358 12.17421
399.223022 278.363403
399.260925 3121.361084
399.449951 9.354167
399.558594 32.834839
399.602203 26.055111
399.662201 19.7271
399.693146 6.692842
399.741943 10.33553
399.840485 33.06134
399.86438 8.721492
399.894043 5.621408
399.999664 7.888889
400.061218 6.88033
400.131042 12.21795
400.196625 27.39143
400.41449 11.30521
400.437653 6.833776
400.480865 10.32353
400.523438 17.408649
400.615814 23.74807
400.717743 40.621769
400.827576 4.849116
401.322235 5.725291
401.385468 13.1226
401.504028 11.18155
401.700195 4.483477
401.778137 8.747549
401.946808 10.15399
402.225586 515.361023
402.281097 9.208333
402.319519 13.03465
402.364563 6.691469
402.431061 3.607143
402.532532 15.80404
402.612061 8.758578
402.759186 6.017857
402.801086 4.083333
402.947998 10.84534
403.137787 9.037635
403.304657 22.183861
404.2388 2356.362061
404.381073 30.301979
404.513672 11.33578
404.553894 7.393383
404.584595 19.893209
404.754913 10.59302
404.784821 4.25
404.844452 15.76378
404.940125 6.781666
405.130035 10.35006
405.421539 16.38068
405.655121 3.704167
406.209808 31.69486
406.665894 5.372024
406.881927 3.5
407.242554 16.024561
408.594788 11.80556
408.752991 12.03785
408.867401 3.357143
409.24707 141.7435
409.595184 6.635
410.348846 6.864015
411.26001 617.465515
411.379913 9.41228
411.660339 7.404762
411.929504 12.34776
412.044312 9.94086
412.177094 8.224916
412.266876 900.872375
412.572754 17.49851
412.614563 12.73921
412.639038 18.24415
412.684662 18.517139
412.943542 8.263262
413.239288 86.335907
413.644165 16.107901
413.696045 27.10837
414.153961 17.719049
414.249481 998.026001
414.292145 27.711479
414.458649 9.878788
414.537842 8.342593
414.574799 4.778409
414.609528 4.15121
414.766266 12.11404
414.832703 9.5
415.127686 4.357143
415.349915 50.926991
415.468262 11.73869
415.733795 6.335417
415.753357 5.721154
415.793701 8.907739
415.869873 9.014493
416.084076 3.960938
416.263031 1499.834961
416.403595 17.57621
416.50589 15.68254
416.537354 11.73958
416.569427 4.933333
416.662231 6.689752
416.74057 22.345289
416.765869 8.0125
417.145081 9.014423
417.194427 32.95834
417.237152 2170.907959
417.440521 2.511029
417.490234 4.5075
417.553741 11.71111
417.597534 31.044821
417.630585 28.070959
417.697113 9.369238
417.727966 10.88329
417.77829 5.33716
417.838623 10.36004
417.953796 5.814881
418.041016 9.403585
418.443359 6.49359
418.906403 11.69643
419.141296 6.094203
419.219177 9.503989
419.354736 8.670732
419.454468 8.38436
419.47583 3.173132
419.512421 11.87607
419.553009 4.574405
419.589966 31.41757
419.66983 13.9125
419.730591 15.42194
419.974762 5.015783
420.046722 5.440025
420.183411 21.4902
420.234833 1533.28894
420.311951 7.520833
420.370819 25.993771
420.484192 51.307739
420.638733 5.191468
420.762238 6.446509
420.887817 8.90147
421.067352 7.340011
421.098206 16.036591
421.15506 8.467206
421.180634 14.01965
422.249969 3095.605957
422.342285 7.819746
422.423981 16.88312
422.466675 3.282051
422.511017 30.935209
422.554871 9.506465
422.58017 12.58726
422.602356 24.27924
422.645538 9.666987
422.701752 17.87993
422.765533 18.523609
422.824005 8.847712
422.900909 18.52862
422.945526 27.73731
422.989044 24.68854
423.145935 14.59516
423.579865 13.18056
423.741882 6.632267
424.267334 303.144501
424.429535 3.734722
424.671906 1.366667
424.772186 3.677083
424.901489 4.00463
426.046906 5.685307
426.467712 49.08279
426.502014 7.742284
426.5354 44.062271
426.579865 12.10528
426.620239 59.365101
426.658478 23.248819
426.708527 15.11326
426.748535 31.399349
426.8396 13.82035
426.894501 10.20833
426.927032 8.734486
427.006866 16.537661
427.187958 9.041604
427.260956 184.832504
427.309296 5.574405
427.395874 13.02618
427.706635 17.04047
427.796051 7.366667
428.087952 15.77894
428.429535 2.220395
428.667786 17.40909
429.003418 2.204167
429.027435 5.0625
429.173676 134.326599
429.231506 19.033331
429.272156 15804.0
429.381042 8.03553
429.437408 1.671296
429.472595 17.244659
429.509552 7.862145
429.562897 18.587469
429.61145 39.31295
429.640778 32.34927
429.696503 54.333649
429.726868 55.102581
429.76236 20.99087
429.808167 47.090038
429.843811 41.76585
429.878693 24.85042
429.920532 23.650841
429.942871 7.451389
429.970947 35.586109
430.012634 51.532009
430.039398 28.60104
430.0625 24.13401
430.097717 11.91919
430.388367 49.42009
430.442657 23.313311
430.477539 37.081779
430.516144 18.74151
430.575195 34.28191
430.671021 19.95302
430.773987 44.50951
431.123657 30.97842
431.252441 852.070801
431.330017 3.342262
431.373077 3.625
431.495361 9.346944
431.553162 11.16692
431.742157 17.493231
431.914581 5.349638
432.152039 31.058599
432.19577 4.286706
432.289215 54.954971
432.389191 7.926282
433.273163 49.730659
433.474396 6.628205
433.892517 16.016701
434.001495 12.85319
434.681 5.320076
436.198853 13.33731
436.260498 95.937172
438.23587 8.081897
439.605133 4.300595
439.670715 8.044225
440.257477 270.045685
440.357269 10.48594
440.429962 4.349116
440.553833 7.500508
440.583069 4.501667
441.502106 9.61989
441.538879 6.227904
441.652374 20.413691
441.793976 10.16703
441.898468 14.35064
442.199005 23.344379
442.278931 1408.395996
442.352081 4.834325
442.520844 10.38739
442.630035 4.002976
442.721497 13.18844
442.874084 4.013889
443.069641 9.053442
443.114258 9.275735
443.286041 2244.243896
443.384094 22.477711
443.413574 13.44086
443.458069 7.506465
443.54541 4.6875
443.590729 39.449612
443.626099 37.81496
443.670502 3.857143
443.706329 15.34848
443.739868 24.7204
443.809204 4.834936
443.998993 25.411989
444.348053 9.595238
444.462738 9.385417
444.649597 8.919382
445.223907 21.24914
445.26532 99.25531
445.307556 17.6777
446.392731 7.686274
447.414917 10.67143
449.260925 360.495087
449.669556 2.337963
449.728577 2.727273
450.207153 3.893382
450.276398 29.44051
451.667267 8.5625
456.563599 8.345446
457.167175 6.018518
457.257019 11.38122
457.302704 21.01182
457.322296 10.2204
457.4021 3.041667
457.481476 19.855141
457.524475 1.777778
457.620575 24.595119
457.740082 6.0
457.851196 5.844298
458.035828 8.256945
458.275299 13.71581
458.365021 11.39679
458.521851 43.67992
459.279755 320.135895
459.407867 5.820153
459.900146 8.172043
460.166809 4.75
460.196503 4.261775
460.236084 12.89474
460.289673 5731.868164
460.378387 8.388888
460.483948 5.1875
460.524628 14.94489
460.597534 79.416443
460.628357 4.486742
460.663269 13.5075
460.711182 30.766331
460.773285 18.02269
460.825684 15.94222
460.847778 11.68028
460.93042 17.04981
460.968506 34.704208
461.05014 26.24049
461.09314 7.287879
461.183014 6.061237
461.399933 6.265351
461.578461 17.65801
461.684448 13.39583
461.753235 9.706897
461.86377 10.90509
461.986847 13.26726
462.027924 9.511719
462.157288 10.54023
462.275299 21.577551
462.415192 25.852711
462.447845 4.844298
462.844299 7.20673
463.196747 11.57619
463.274231 50.37468
464.342926 3.857143
468.677948 7.501389
469.300598 122.2323
470.692383 23.4725
473.995239 7.54023
474.294281 6.1875
475.156555 20.104759
475.270416 34.580009
475.29776 18.806021
475.550934 16.894211
476.276489 78.966797
478.309845 8.881377
483.555817 1.694445
483.970612 10.525
484.224976 8.595239
484.330078 18.262449
484.433228 23.308929
484.504883 5.89797
484.535828 6.277039
484.577209 17.083469
484.654755 3.880953
484.787933 8.682292
485.299316 56.082989
485.35498 13.77083
485.515808 9.182292
485.608154 5.5
485.846161 15.86111
486.091492 16.36875
486.644287 10.95238
487.313538 4385.263184
487.408508 19.277411
487.470825 39.653099
487.494507 14.47608
487.530151 16.05094
487.576172 44.570572
487.6362 54.906609
487.704865 5.833333
487.764404 3.179167
487.832123 6.399305
487.888977 40.47216
487.921082 23.927231
487.993439 28.340321
488.228638 24.21262
488.255249 26.85302
488.356537 10.56838
488.550232 5.000631
488.77948 5.561484
488.94223 12.36102
489.049744 8.286557
489.150269 9.145076
489.610474 4.267262
490.107544 6.214285
491.861816 4.760417
492.431915 10.0217
497.897278 4.858232
498.759735 18.62277
499.134308 5.753472
499.427582 21.983801
501.552551 4.197917
501.613495 8.14685
501.727112 12.79445
501.817322 4.354167
501.868805 28.702511
501.905487 10.72024
501.935883 27.95171
502.000244 36.39394
502.050751 100.433296
502.094635 24.018641
502.132538 158.169296
502.175568 62.58387
502.215302 149.138199
502.262207 7.163915
502.291504 61.598679
502.320435 718.773376
502.3638 92.405273
502.387451 74.923103
502.420685 92.816063
502.472137 191.652298
502.526093 207.468796
502.568115 83.505943
502.609436 83.623871
502.671967 158.154999
502.698364 7.41557
502.74057 120.811897
502.951691 68.534264
502.983124 43.006409
503.087372 51.928371
503.448853 54.443371
503.773956 9.475797
503.840271 26.461901
503.889008 25.17317
504.035278 21.970461
504.058502 8.513888
504.15567 64.19783
504.19278 145.638
504.249847 24.531561
504.279083 11.27083
504.310303 121968.5
504.389496 33.906021
504.513977 44.096218
504.581085 5.615385
504.761749 40.357262
505.226044 12.91026
505.581451 10.74159
505.793213 8.130302
505.872498 36.775669
505.909271 13.79645
505.949738 18.68528
505.987793 49.7705
506.037567 9.217992
506.073944 205.529907
506.124023 68.863152
506.152893 29.744789
506.186493 205.779694
506.229675 60.082951
506.260742 49.28693
506.327393 8998.446289
506.417633 344.048615
506.505432 121.884903
506.547211 106.794502
506.595612 124.482002
506.713196 175.369598
506.760986 70.245506
506.783051 36.864071
506.822052 118.606903
506.850372 11.95741
506.906738 78.621368
506.975403 98.9841
507.002319 51.814541
507.152344 80.180077
507.280945 107.947601
507.361237 67.180817
507.727661 30.40765
507.937164 9.850135
508.048157 26.96932
508.167511 13.77964
508.328308 45.951149
508.585846 10.77778
508.636963 30.87768
508.809784 10.89196
508.933777 28.46974
509.261108 17.23579
509.370209 13.40593
509.572968 9.106826
509.601471 6.039244
509.782104 3.006466
509.821381 23.137819
510.119904 8.842054
510.18277 6.0
510.442078 8.201388
510.513763 5.041667
510.776642 22.133949
510.952698 9.486112
511.094727 6.541274
511.425049 3.169444
511.558807 1.0
511.873566 4.565104
512.468201 3.645833
512.597961 4.003788
513.464722 6.551445
514.918152 4.855511
516.591187 7.119379
516.694031 8.847222
520.337952 5.918561
533.932068 6.125
567.72937 7.06891
584.774841 6.983948
585.139771 4.948994
603.485107 2.018518
1037.100098 29.22893
1062.779907 22.537399
1394.447021 4.026786
