>compound Valsartan
>formula C24H29N5O3 
>ionization [M+H]+
>parentmass 436.235321
#inchi InChI=1S/C24H29N5O3/c1-4-5-10-21(30)29(22(16(2)3)24(31)32)15-17-11-13-18(14-12-17)19-8-6-7-9-20(19)23-25-27-28-26-23/h6-9,11-14,16,22H,4-5,10,15H2,1-3H3,(H,31,32)(H,25,26,27,28)/t22-/m0/s1
#inchikey ACWBQPMHZXGDFX
#Ion_Source LC-ESI
#Instrument qTof
#Compound_Source Isolated
#PI Sirenas
#Data_Collector Ed Esquenazi 
#Scan -1
#Precursor_MZ 436.236
#ExactMass 0.0
#Charge 1
#CAS_Number N/A
#Pubmed_ID N/A
#Smiles N/A
#INCHI_AUX N/A
#Library_Class 3
#SpectrumID CCMSLIB00000005787
#IonMode Positive
#UpdateWorkflowName UPDATE-SINGLE-ANNOTATED-BRONZE
#LibraryQualityString Bronze
#TaskID d19310cd93df49b68e9fcbec27720eb5
##Scan# 1
#SpectrumFile Valsartan.mgf
#LibraryName fda_library.mgf
#MQScore -1
#Organism fda_library
#TIC_Query 0
#RT_Query -1
#MZErrorPPM -1
#SharedPeaks 0
#MassDiff 0
#LibMZ -1
#SpecMZ 436.236
#SpecCharge 0
#internalFilename spec-00000.mgf

>collision 10
115.053589 3.729167
116.068398 38.14064
117.055946 16.060249
118.08567 33.323429
124.356361 39.082241
127.051765 3.421875
128.062653 9.827851
130.086914 48.000332
139.282608 5.0
139.625824 2.354167
140.498383 38.11882
141.35141 7.582308
151.051697 42.40797
151.152695 1.667892
152.122177 3.080044
152.2724 9.614401
153.070969 139.452805
153.105057 1.183712
153.647095 14.125
163.049454 18.310341
165.071365 35.703449
165.180084 5.454741
165.372864 2.344363
166.075562 43.479172
166.112534 2.354167
166.129913 2.083333
167.074951 48.12899
177.071198 38.83358
178.062729 54.501141
178.076279 94.040833
178.437241 5.611883
178.624008 2.720238
179.085968 61.776379
179.123642 2.893518
179.210831 2.834167
179.514099 12.36104
179.53688 3.420139
180.080063 560.905823
180.21524 2.632675
180.358322 3.195513
180.384476 4.710938
180.437653 7.389352
180.465729 3.227273
180.507874 5.104167
180.713577 2.175595
180.931244 46.797619
181.060715 17.156931
184.132019 93.800728
184.216995 4.038462
184.427032 6.26923
184.597153 3.66723
188.899567 2.845238
189.976913 2.027412
190.064316 348.827209
190.101395 2.726716
190.120148 0.888889
190.236023 7.401389
190.303101 7.525641
190.328796 16.774481
190.495132 3.686404
190.65802 1.84375
191.043427 13.57062
191.080399 9.761825
191.861435 4.011111
192.079208 241.961197
192.201324 2.416667
192.228699 2.786706
192.257034 4.527412
192.304382 13.35417
192.377167 3.539216
192.527145 7.406666
192.708191 4.006944
193.101425 59.773159
193.448029 2.446759
193.47406 6.027778
193.634201 5.684641
193.6483 1.5125
194.095169 358.485413
194.39537 4.629704
194.43808 3.867424
194.950333 4.541667
195.25647 2.375
195.584732 2.204167
200.127289 15.15202
202.142685 62.222279
202.438583 1.339286
202.77269 2.060049
204.833466 8.429762
205.076233 74.171211
205.117355 5.244907
205.623779 3.840278
205.640839 1.501389
205.870392 5.173077
205.89035 2.833965
205.913437 8.839506
205.933929 5.083333
205.945267 10.03926
205.956268 23.9048
205.97522 8.169845
206.043915 6.580128
206.055161 14.96034
206.08432 338.654205
206.146378 2.629808
206.179977 7.694331
206.359863 5.908951
206.517303 1.8125
206.541412 6.727904
206.614838 5.160714
206.66481 5.222685
206.739761 5.126689
206.805161 6.643282
207.091431 6808.530762
207.152237 50.81229
207.189499 42.57835
207.208572 2.375
207.235336 3.003788
207.258575 23.47331
207.300034 36.50256
207.315369 6.949275
207.330521 19.3848
207.345535 21.44174
207.377304 18.50622
207.401733 26.07798
207.427155 18.982121
207.475601 12.43552
207.507843 9.149692
207.524811 9.707914
207.556458 10.04353
207.585861 11.0952
207.599472 1.8
207.619064 29.5411
207.674683 6.044271
207.706375 6.33507
207.743103 12.56199
207.775909 10.69985
207.791626 3.047619
207.805328 11.04044
207.824677 10.20219
207.932053 5.833333
207.957687 7.96856
207.999863 12.00835
208.075104 198.996902
208.238739 8.034483
208.660095 3.170139
208.675171 4.205883
208.762238 1.666667
208.882385 4.083333
208.921478 4.003472
209.105469 88.983833
209.884613 4.153846
210.093842 15.7526
210.387329 6.67824
210.665283 3.621408
210.801956 16.51042
213.174347 1.5
213.613937 4.000534
215.260986 12.7934
215.617462 1.670833
219.81575 0.833333
221.07164 14.6884
229.155823 4.001894
230.754395 3.334722
231.336121 1.5625
231.61972 2.860577
231.835999 8.598958
232.506775 2.190476
233.459595 14.60272
233.564407 16.56469
233.609024 26.912121
233.628784 25.5439
233.64769 56.566971
233.666809 69.416428
233.714325 76.944817
233.733978 37.318779
233.74826 3.949074
233.766266 9.115317
233.77919 32.372189
233.799957 4.483552
233.818375 80.087219
233.846939 25.10137
233.866043 6.469444
233.886658 28.43784
233.901932 15.62344
233.925339 3.500833
233.945129 8.473413
233.983978 79.122963
234.016235 54.057991
234.050232 5.156593
234.086609 3.266667
234.160736 6.345569
234.192947 13.14334
234.207214 10.84247
234.246979 7.942402
234.262466 8.870833
234.292038 8.000267
234.330078 4.869933
234.428772 17.942381
234.539719 8.522178
234.559921 14.18336
234.676178 5.346264
234.753281 7.626984
234.862747 9.398374
234.914856 9.889735
235.056641 39.26321
235.098297 33778.058594
235.327301 29.93387
235.365128 30.448311
235.385925 73.340157
235.42984 52.198608
235.450851 17.463831
235.481323 51.462669
235.505508 42.161709
235.519165 17.31744
235.53981 61.869549
235.55957 55.824341
235.573624 3.533334
235.596695 18.994049
235.614685 30.34643
235.649155 26.50139
235.687378 50.406872
235.725693 58.184551
235.756119 59.714378
235.80307 13.79141
235.820114 63.815441
235.838837 27.107441
235.873398 9.061237
235.946518 18.335529
235.994156 8.927855
236.164368 10.50613
236.211929 16.37253
236.28096 29.088671
236.416779 7.339506
236.470108 26.26675
236.593719 13.60375
236.658142 20.02998
236.743179 3.898438
236.887741 10.11965
236.994873 7.739583
237.010635 6.116377
237.026962 4.227941
237.160889 6.205911
237.248703 5.823253
237.263382 9.272223
237.300201 3.172715
237.339935 9.521374
237.539917 2.873775
237.562866 3.835938
237.702301 2.171296
237.782761 6.34
237.820312 2.544384
237.938919 4.409274
238.131592 2.670833
238.299652 1.633333
238.403549 4.25947
238.486069 3.960938
238.550507 1.505952
239.098923 3.5
239.373322 1.52381
239.637131 5.167201
239.717911 4.166667
240.279449 3.0375
241.247345 3.440476
244.644516 4.423611
245.431427 4.333333
247.805222 1.5
248.086548 16.65144
248.425323 9.125
248.649384 3.802778
249.134247 19.21438
249.505814 4.960318
250.11087 9.836623
253.112701 11.66723
254.278122 6.020833
255.353622 6.020833
258.113983 12.06048
258.207855 12.02401
262.981873 2.816667
263.147369 25.27421
271.042786 17.60952
273.136902 25.82851
274.403564 1.677696
278.163025 187.706604
278.347229 1.168561
278.602753 5.183435
282.941986 9.336742
284.40799 3.09375
285.920441 9.246711
286.47937 8.833897
286.996429 26.6075
288.080719 6.306818
288.668335 8.804762
289.141052 5.088768
289.2164 2.408333
289.247253 3.537879
289.27121 3.342592
289.288086 9.851893
289.312622 3.522645
289.336273 30.959961
289.36618 52.148861
289.394623 40.487598
289.414642 27.443979
289.437561 77.135834
289.462463 39.94141
289.498077 34.39748
289.534943 40.50333
289.558319 68.15802
289.57962 4.877604
289.60965 77.084976
289.631897 88.981651
289.656158 6.5375
289.672119 5.0
289.701843 45.26086
289.733887 9.78086
289.756256 25.942789
289.776245 24.015989
289.813843 11.78159
289.91449 20.34083
290.018219 12.83333
290.105164 19.84355
290.133942 17.856199
290.298157 12.478
290.485443 2.685957
290.585236 7.235577
290.672302 3.833333
290.806213 11.83043
290.847504 9.401661
290.886749 2.006944
290.943329 12.67857
290.998291 8.701814
291.025238 6.952712
291.041168 3.693453
291.084564 11.16697
291.116241 75.689018
291.149994 31847.130859
291.425537 52.682369
291.45697 49.454269
291.509064 78.80928
291.554199 134.315704
291.587067 19.02807
291.676666 55.76199
291.697784 19.114889
291.714233 9.008454
291.741364 78.716019
291.775482 69.513779
291.79895 15.24192
291.823242 10.65308
291.845276 35.208359
291.875 67.371681
291.905579 35.85144
291.939606 53.442871
291.962158 74.183144
291.98877 44.55637
292.058746 26.827869
292.085144 51.870029
292.223419 17.0625
292.298401 29.227699
292.335632 27.02562
292.380554 26.76103
292.526276 26.88558
292.836487 34.189579
292.921539 3.678571
293.010864 9.708274
293.195496 1.508333
293.358856 11.25214
293.46521 5.742339
293.48761 14.9875
293.582611 13.18627
294.037415 3.556547
294.226929 10.46668
294.324799 8.078458
294.447723 4.667572
294.698547 5.041667
295.954041 2.86218
297.884277 1.667763
300.628143 6.679487
301.014801 5.705883
301.552155 5.517302
303.565948 6.075941
303.633911 4.859509
304.143402 4.040833
304.162964 3.578526
304.193726 11.01024
304.216339 9.667109
304.246521 35.33395
304.272736 8.754086
304.312836 31.546761
304.347778 54.32925
304.39621 22.58457
304.438965 112.5979
304.470703 24.068569
304.506989 76.17144
304.53833 43.310032
304.560547 121.040604
304.585693 19.41465
304.639893 29.065651
304.672028 3.673611
304.699127 12.01519
304.781189 15.05061
304.932983 1.170833
305.016113 4.394817
305.179291 10.88032
305.260681 3.000992
305.418732 4.746981
305.522125 5.039244
305.619415 5.681548
305.662018 5.621212
305.802032 2.845834
306.121094 16.94829
306.17218 19101.140625
306.336884 11.1223
306.355316 45.902382
306.374023 4.34375
306.393799 26.92614
306.477661 64.495468
306.531158 13.28472
306.57193 12.20588
306.589203 12.56847
306.613678 30.38777
306.660583 105.662201
306.715363 39.530182
306.753845 3.440476
306.775635 39.090328
306.790771 60.367359
306.827911 16.516069
306.855438 61.293659
306.89975 46.428509
306.931702 38.189999
307.005615 1.741071
307.024414 28.86458
307.046875 22.05566
307.071075 15.60254
307.094696 33.787689
307.122223 31.340389
307.23587 13.04127
307.307739 25.678789
307.327637 17.2096
307.342468 7.107456
307.641266 9.647116
307.758087 11.00944
307.97171 10.31037
307.989838 25.834471
308.215759 1.168269
308.276825 1.844363
308.50827 2.279167
308.57193 11.02907
308.615051 2.153409
309.150879 34.715141
309.170776 3.78125
309.751984 4.483477
309.781555 15.18883
309.808472 3.691468
310.184387 9.601638
310.589783 3.220395
311.240112 3.843202
312.155457 4.300595
312.548279 2.166667
313.127319 2.170139
313.540924 6.407461
314.649719 2.520833
319.002869 3.833333
319.139923 7.938889
319.17688 2.370833
319.462555 10.50278
320.111084 6.260671
320.209534 3.509868
324.169922 100.826103
324.757324 11.78216
325.064758 4.214881
325.799011 2.171296
325.918365 3.167892
327.37207 1.074405
327.799225 2.206731
333.437286 6.76875
341.405334 21.57025
345.191254 9.763158
345.73056 3.282051
347.569977 3.504808
347.758087 3.211111
348.597961 5.510417
349.394867 2.355978
349.420898 3.0
349.524963 4.344415
349.810913 3.7675
349.854218 12.27604
349.915192 5.167659
349.944122 5.1075
349.973724 9.455409
350.017761 46.84726
350.062439 10.21402
350.131195 18.288071
350.20166 10.74119
350.235077 17.94335
350.2789 7.192842
350.327637 19.43177
350.37793 10.69954
350.448517 45.687271
350.482361 20.082081
350.802948 7.306944
351.263672 8.855248
351.387848 12.62404
351.600555 13.01918
351.807098 8.888888
351.835175 8.575757
351.93338 8.172024
352.177368 10793.0
352.250977 31.564501
352.330139 32.334171
352.362 10.96601
352.412109 47.297001
352.43869 62.515949
352.477753 39.129761
352.503265 29.407221
352.530701 53.64389
352.544189 11.33869
352.567719 7.458333
352.588593 6.212275
352.625702 13.42087
352.654846 49.54018
352.67038 18.093439
352.7117 40.710602
352.758728 22.333401
352.780212 9.240131
352.804077 15.68347
352.825409 42.725719
352.848846 65.98851
352.895142 37.541519
352.957092 19.18659
353.05191 24.72538
353.081451 43.952221
353.120422 39.299381
353.397919 13.28671
353.9422 5.670139
354.301361 4.704167
354.328217 5.208333
354.374115 4.558624
354.50354 15.29391
354.728027 5.208333
354.793365 4.166667
354.852356 5.205911
355.169495 2.755208
355.193024 8.737069
355.291565 9.210469
355.448975 6.287202
355.619507 3.364268
355.686218 9.472948
356.367798 4.504808
357.162903 7.180555
358.367065 6.336742
358.989777 51.898811
359.052307 0.833333
359.1474 4.253472
359.758606 2.599265
359.847687 26.86516
359.87561 7.253592
359.906738 6.532516
359.94931 37.517792
360.014191 48.335678
360.055023 4.44079
360.085175 6.754902
360.113068 40.552311
360.141388 2.33631
360.179199 21.256399
360.217499 11.15757
360.244385 33.312618
360.299561 15.11435
360.361389 15.64854
360.411591 11.66692
360.43042 16.01157
360.537048 5.166667
360.570099 4.834936
360.880646 4.526175
360.952881 28.393379
361.068451 7.831497
361.204559 4.460022
361.317169 10.53064
361.383514 6.701024
361.508759 3.171296
361.617035 10.06806
361.700592 4.590278
361.732971 5.429924
361.760132 3.537809
361.781464 5.335526
361.880554 6.787169
362.076752 17.69672
362.154968 75.420677
362.223633 15624.700195
362.304871 35.124008
362.358704 15.74668
362.388458 10.5173
362.405792 76.174957
362.436584 31.552349
362.464081 77.737099
362.513702 42.5592
362.5354 17.979231
362.562347 30.861151
362.588043 84.904343
362.623657 57.070808
362.665741 38.845871
362.69162 10.66701
362.721558 41.120239
362.756134 21.64381
362.789673 19.93878
362.844391 58.793129
362.894073 50.104328
362.941406 48.94101
362.999176 3.854167
363.032471 24.949369
363.11087 59.717602
363.188568 50.312851
363.2724 18.83333
363.29483 23.49733
363.367615 42.69379
363.495819 5.501736
363.966888 5.520833
364.004303 5.133413
364.07019 4.479167
364.471497 8.676042
364.580627 8.929797
364.690704 1.008333
365.001282 4.868055
365.090759 17.731569
365.18869 3.502315
366.362793 10.78255
366.559937 0.836309
366.846405 1.0
367.226318 1.5
368.324829 7.360119
375.207123 5.046695
388.238525 5.695269
388.691071 2.381944
390.229004 393.250305
390.276855 9.038794
390.400787 7.431367
390.532257 4.778409
390.558929 3.946909
390.579529 3.260031
390.6586 1.125
390.876282 3.555556
390.932434 5.173611
391.143494 9.837399
391.329285 2.740036
391.42572 7.880051
391.981232 1.59375
393.148224 5.172024
396.154572 3.193453
400.668243 9.048245
402.606323 4.702571
403.821838 3.850135
405.172211 5.121212
405.43161 4.349116
405.530701 7.674934
405.623169 3.168056
405.670837 17.446131
405.71701 30.854389
405.75061 33.43726
405.775055 12.69858
405.82666 61.190979
405.865845 5.25
405.888611 5.227904
405.956757 8.386905
405.980835 22.91395
406.02301 18.504669
406.076233 18.73901
406.102692 27.60079
406.139191 7.820833
406.314453 2.683333
406.342743 7.359509
406.693359 2.942935
406.890991 25.810801
406.932526 6.528986
407.045105 9.962735
407.186493 49.462631
407.32254 3.90873
407.36734 5.235577
407.497314 2.19391
407.602295 16.9333
407.802551 7.186794
407.872711 6.925962
408.079559 5.002976
408.228912 13839.69043
408.313568 38.27113
408.37619 63.601891
408.426208 91.489258
408.470306 114.680603
408.491302 24.68187
408.51593 31.38657
408.545441 8.397727
408.58432 107.772202
408.621246 43.889099
408.655121 90.619293
408.684753 57.56789
408.73761 53.37532
408.788757 54.296021
408.83844 103.671799
408.893921 35.299412
408.991608 33.482281
409.033875 41.73135
409.064026 36.722099
409.517029 23.910879
409.926788 9.867476
410.080322 8.906703
410.187531 6.350379
410.257996 4.335784
410.462677 2.726716
410.483582 6.502604
410.762604 10.54386
410.807587 5.385985
410.850098 6.963194
411.005157 8.833817
411.11142 9.642095
411.245087 6.333333
411.403839 2.604167
411.483276 15.05278
411.541748 7.245676
411.922638 3.003788
412.092133 7.349638
413.070801 4.604167
413.244049 1.5
413.894928 1.501225
414.234711 2.355978
414.703644 2.14881
415.325867 3.960938
415.360229 5.765351
415.421997 4.527244
415.47995 7.576389
415.542755 10.44298
415.593842 36.778938
415.634796 31.495461
415.657166 24.95315
415.683777 2.708333
415.721924 23.2458
415.751312 6.16713
415.790649 43.753979
415.852753 49.705959
415.884125 7.894571
415.930206 40.72353
415.961426 17.436899
416.022949 41.309441
416.207794 49.778931
416.246826 6.011111
416.27478 26.796721
416.333191 6.393333
416.498749 16.147079
416.541382 8.29267
416.816772 2.734722
416.878784 5.354167
416.954926 67.01709
416.979401 22.341089
417.044067 11.29043
417.078857 3.551136
417.115112 7.896875
417.370605 14.87016
417.410706 2.963141
417.589569 4.927083
417.632751 3.168982
417.734314 5.033333
417.810974 3.335938
417.900391 4.047619
418.117432 17.066179
418.146118 9.374492
418.224579 18845.0
418.400177 11.72009
418.420502 18.89257
418.473877 64.956146
418.495392 9.45115
418.527252 16.950451
418.575989 52.613548
418.594208 20.259199
418.632202 64.734947
418.686432 94.812653
418.747864 75.02536
418.778198 57.910069
418.806274 49.594471
418.859467 73.448647
418.894318 44.096359
418.915985 19.914841
419.016693 40.835941
419.05011 8.780449
419.092621 77.380676
419.165833 29.99341
419.438934 25.79558
419.493469 23.189421
419.54599 43.81649
419.832855 9.230169
420.141418 35.34824
420.182281 4.838406
420.254578 14.76843
420.292847 6.5625
420.313416 34.18631
420.383301 3.583333
420.412415 3.870833
420.603424 2.920139
420.710083 2.201389
420.93219 18.029631
420.984131 7.758462
421.029816 5.958908
421.066559 7.18141
421.223755 2.25
421.359741 1.671875
421.997223 5.592672
422.280426 2.337121
422.565918 7.381548
423.311554 4.532383
423.333801 4.357143
423.606689 2.334722
424.350128 3.555556
425.117188 1.0
426.460358 3.705128
426.883545 2.0
431.004089 5.011111
433.290192 38.371521
433.319061 3.018518
433.391541 4.05819
433.420837 2.265931
433.470581 30.33186
433.509186 11.59576
433.536133 8.287202
433.577026 18.729561
433.621216 25.24811
433.667297 9.174222
433.712891 34.829601
433.764099 19.1724
433.841675 5.667201
433.90036 10.95387
433.947479 20.890921
434.09436 4.207825
434.24353 10.4086
434.435089 2.676535
434.544128 18.134371
434.646729 11.44865
434.814636 8.203947
435.21109 2.068056
435.341949 3.686404
435.414551 4.585874
435.465424 2.761364
435.610596 2.580357
435.697113 2.604167
435.828125 7.1875
436.009705 13.34177
436.05365 4.1875
436.141113 6.573333
436.188751 24.794701
436.235321 8949.912109
436.309082 117.170197
436.371216 80.384247
436.409607 53.336411
436.448181 23.692751
436.473328 77.67942
436.505249 45.184059
436.552002 33.065041
436.577576 16.303551
436.599213 73.008987
436.669647 57.163071
436.705444 35.803459
436.74884 52.621429
436.833099 47.719971
436.924744 18.445391
437.035797 24.514811
437.071625 25.05743
437.142853 4.170139
437.198303 60.406281
437.648071 28.704309
437.8862 2.204167
438.002716 12.48843
438.293945 3.006466
438.410004 2.386905
438.520111 3.490385
438.614502 1.720238
438.680054 4.668651
438.724243 15.01653
440.211548 4.83869
440.451385 5.020833
440.547363 6.047348
440.74469 6.854167
442.085754 1.0625
447.033386 5.88587
471.839813 3.666667
491.051971 10.55674
526.583984 5.908179
587.182007 5.411859
658.505615 2.0
682.481567 3.214286
735.724854 7.684576
764.469055 7.181159
890.779968 4.620192
1122.993652 4.261824
1136.088013 5.354167
1202.786621 2.667572
1210.085083 5.092803
1315.621948 9.045455
1374.403564 6.643282
