>compound MLS001074893-01!SU 9516
>formula C13H11N3O2
>ionization [M+H]+
>parentmass 242.09317
#inchi InChI=1S/C13H11N3O2/c1-18-9-2-3-12-10(5-9)11(13(17)16-12)4-8-6-14-7-15-8/h2-7H,1H3,(H,14,15)(H,16,17)/b11-4-
#inchikey QNUKRWAIZMBVCU
#Ion_Source LC-ESI
#Instrument qTof
#Compound_Source NIH Pharmacologically Active Library
#PI Dorrestein
#Data_Collector VP/LMS
#Scan -1
#Precursor_MZ 242.098
#ExactMass 241.085
#Charge 1
#CAS_Number N/A
#Pubmed_ID N/A
#Smiles COc1ccc2NC(=O)/C(=C\c3c[nH]cn3)/c2c1
#INCHI_AUX N/A
#Library_Class 1
#SpectrumID CCMSLIB00000085516
#IonMode Positive
#UpdateWorkflowName UPDATE-SINGLE-ANNOTATED-GOLD
#LibraryQualityString Gold
#TaskID d252d724072548979f1f6f1ced849daf
##Scan# 1321
#SpectrumFile p4-C02_GC2_01_18350.mzXML
#LibraryName Pharm_Active_Library.mgf
#MQScore -1
#Organism Pharm_Active_Library
#TIC_Query 0
#RT_Query -1
#MZErrorPPM -1
#SharedPeaks 0
#MassDiff 0
#LibMZ -1
#SpecMZ 242.098
#SpecCharge 0
#internalFilename spec-00000.mgf

>collision 10
44.909004 172.0
44.919678 184.0
44.966377 48.0
45.620171 156.0
45.702068 80.0
45.796303 152.0
45.877151 196.0
45.935135 192.0
45.98101 80.0
46.083637 184.0
46.097149 204.0
46.392204 156.0
47.091606 196.0
47.162655 196.0
47.281647 176.0
47.400784 196.0
47.429565 124.0
47.470692 196.0
47.568722 160.0
47.684856 64.0
47.81551 120.0
47.975288 128.0
48.027687 188.0
48.116005 132.0
48.261303 144.0
48.42852 52.0
48.840752 220.0
49.006413 204.0
49.166771 184.0
49.257526 232.0
49.279877 184.0
49.300838 68.0
49.408501 184.0
49.610161 176.0
50.319206 212.0
50.713875 164.0
50.723797 124.0
50.895458 172.0
51.157055 164.0
51.339428 220.0
51.497845 180.0
51.8326 156.0
52.049194 144.0
52.144005 164.0
52.168442 88.0
52.247536 200.0
52.263359 72.0
52.331009 128.0
52.343967 164.0
52.483734 224.0
52.571728 188.0
52.587601 164.0
52.674236 160.0
52.701683 104.0
52.857845 104.0
53.056271 172.0
53.384411 212.0
53.445175 160.0
53.690228 184.0
53.715023 156.0
53.83762 36.0
53.850765 68.0
53.907742 128.0
53.935509 152.0
54.081776 248.0
54.146194 172.0
54.20919 188.0
54.270752 216.0
54.300079 136.0
54.707092 156.0
54.754208 52.0
54.885361 128.0
54.926655 136.0
54.981243 28.0
54.997478 184.0
55.04055 136.0
55.1171 192.0
55.192482 120.0
55.211704 128.0
55.421906 244.0
55.721607 112.0
56.108555 52.0
56.289089 148.0
56.302528 176.0
56.459446 180.0
56.534245 228.0
56.616581 220.0
56.679497 132.0
56.692986 152.0
56.782932 140.0
57.048702 200.0
57.233753 76.0
57.295506 128.0
57.350513 184.0
57.431171 176.0
57.987568 172.0
58.043655 196.0
58.199944 176.0
58.21209 188.0
58.239426 156.0
58.347752 140.0
58.38533 124.0
58.692932 204.0
58.790558 132.0
59.0205 188.0
59.053329 176.0
59.067776 180.0
59.086983 228.0
59.691296 132.0
59.737434 216.0
59.843624 192.0
60.040863 48.0
60.063999 144.0
60.284775 184.0
60.355881 176.0
60.371346 184.0
60.561703 220.0
60.60973 156.0
60.918465 132.0
61.070797 184.0
61.133026 168.0
61.203072 156.0
61.243565 156.0
61.661697 212.0
61.689835 128.0
61.708595 256.0
61.91671 236.0
62.654961 128.0
62.688049 204.0
63.147449 168.0
63.473675 140.0
63.654568 32.0
63.781666 184.0
63.905708 132.0
64.029869 228.0
64.0681 200.0
64.185936 184.0
64.499794 288.0
64.766159 216.0
64.871918 108.0
65.564659 196.0
65.63559 176.0
65.819534 184.0
65.948776 172.0
66.060349 80.0
66.16877 164.0
66.201157 188.0
66.45726 184.0
66.666733 124.0
66.686234 172.0
66.739876 128.0
66.852119 160.0
67.465385 184.0
67.525887 176.0
67.669884 48.0
67.732117 36.0
68.184952 60.0
68.214539 108.0
68.481674 240.0
68.77623 188.0
69.126595 40.0
69.336906 120.0
69.348511 132.0
69.481163 92.0
69.516006 132.0
69.54422 132.0
69.675407 200.0
69.771797 144.0
69.808372 148.0
69.839973 164.0
70.145996 208.0
70.183029 160.0
70.20137 160.0
70.286446 172.0
70.419991 204.0
70.570389 96.0
70.632263 176.0
70.659027 200.0
70.99913 176.0
71.037636 56.0
71.193726 128.0
71.276039 152.0
71.338219 84.0
71.531387 192.0
71.641129 136.0
71.65966 148.0
71.69841 168.0
71.814743 104.0
71.907539 144.0
72.039238 164.0
72.138939 128.0
72.560654 172.0
72.636787 160.0
72.757271 96.0
72.831551 188.0
72.865959 160.0
72.896545 200.0
72.978134 164.0
73.105705 140.0
73.124428 120.0
73.243614 168.0
73.42598 28.0
73.635902 192.0
73.659813 196.0
73.695686 228.0
73.752083 140.0
73.839279 100.0
74.500908 116.0
75.030952 152.0
75.189644 204.0
75.301865 144.0
75.355415 36.0
75.405525 204.0
75.711739 168.0
75.931839 156.0
76.075851 180.0
76.100159 124.0
76.20784 88.0
76.35038 168.0
76.369507 248.0
76.838097 284.0
76.895676 176.0
76.907898 188.0
76.974236 116.0
77.358871 224.0
77.413147 228.0
77.481461 160.0
77.498978 140.0
77.698845 200.0
77.895462 136.0
77.99913 204.0
78.058907 176.0
78.298233 92.0
78.488556 56.0
78.580269 136.0
78.682632 164.0
78.95121 116.0
79.126381 160.0
79.20784 260.0
79.229095 188.0
79.24939 228.0
79.273392 64.0
79.374428 200.0
79.493279 128.0
79.697479 44.0
79.734795 132.0
79.832573 196.0
79.845016 160.0
79.937523 196.0
80.119133 216.0
80.50618 100.0
80.549042 112.0
80.57048 152.0
80.976524 128.0
81.286659 156.0
81.308197 60.0
81.322556 120.0
81.52729 140.0
81.556046 40.0
81.775475 164.0
81.8871 316.0
82.254921 208.0
82.513252 88.0
82.808197 180.0
82.871605 216.0
82.929588 68.0
83.279762 172.0
83.574257 144.0
83.834648 152.0
84.011505 152.0
84.073509 204.0
84.208641 212.0
84.278061 156.0
84.347504 176.0
84.460869 208.0
84.585297 144.0
84.642052 212.0
84.770271 148.0
85.668716 136.0
85.788498 164.0
86.129669 148.0
86.153885 176.0
86.418259 260.0
86.701569 184.0
86.790543 124.0
86.855453 132.0
86.914818 224.0
87.080032 140.0
87.115326 112.0
87.330948 208.0
87.392334 128.0
87.500282 192.0
87.531929 192.0
87.567314 172.0
87.710785 220.0
87.75959 132.0
87.789085 108.0
87.837578 28.0
87.858101 108.0
88.254036 100.0
88.38871 224.0
88.411163 228.0
88.428009 184.0
88.750214 212.0
88.787712 32.0
88.825226 156.0
89.0298 180.0
89.056099 52.0
89.185738 144.0
89.356865 164.0
89.392616 180.0
89.639297 92.0
89.748619 112.0
90.00901 152.0
90.046776 172.0
90.103447 84.0
90.214943 180.0
90.379478 200.0
90.544167 156.0
90.775368 172.0
90.836052 140.0
90.910049 104.0
91.088043 80.0
91.185417 168.0
91.438362 208.0
91.567825 172.0
91.638306 152.0
91.705002 144.0
91.746941 156.0
91.867081 152.0
92.033257 220.0
92.052933 380.0
92.082764 148.0
92.147713 144.0
92.472786 180.0
92.591492 132.0
92.618301 236.0
92.712181 76.0
92.833633 180.0
92.998917 156.0
93.040169 124.0
93.057449 192.0
93.116982 184.0
93.140022 136.0
93.246498 160.0
93.384125 184.0
94.048843 276.0
94.265144 124.0
94.379189 168.0
94.677185 144.0
94.830238 64.0
94.861252 124.0
95.412575 228.0
95.463127 204.0
95.675209 160.0
95.7453 160.0
96.250359 188.0
96.334343 152.0
96.529785 176.0
96.645195 136.0
96.991821 168.0
97.191856 84.0
97.633835 184.0
98.055138 140.0
98.108353 168.0
98.167503 104.0
98.246399 120.0
98.539635 180.0
98.805481 144.0
98.902443 124.0
99.050949 124.0
99.608337 144.0
99.830933 176.0
99.874687 204.0
100.105545 164.0
100.171272 52.0
100.191193 172.0
100.237015 132.0
100.256943 152.0
100.398483 140.0
100.518173 148.0
100.817711 48.0
100.945648 40.0
101.047653 284.0
101.205772 88.0
101.530396 148.0
101.610626 152.0
101.721001 136.0
101.804207 220.0
102.048454 372.0
102.181198 180.0
102.245361 144.0
102.678726 100.0
102.733192 192.0
102.771523 208.0
102.878487 136.0
102.916847 220.0
103.060249 204.0
103.082474 168.0
103.137039 108.0
103.357475 224.0
103.440453 160.0
103.709846 192.0
103.766609 192.0
103.817299 220.0
103.904518 96.0
104.050087 520.0
104.292374 152.0
104.333023 36.0
104.542526 240.0
105.019249 248.0
105.033524 136.0
105.2621 156.0
105.276398 140.0
105.912445 112.0
106.029228 180.0
106.068176 200.0
106.304527 248.0
106.614113 204.0
107.027573 180.0
107.053177 204.0
107.165573 168.0
107.266556 148.0
107.330467 136.0
107.397339 172.0
107.458344 144.0
107.514053 164.0
107.545013 148.0
107.650299 128.0
107.796967 144.0
108.06163 124.0
108.134056 184.0
108.521423 200.0
108.792938 160.0
109.054924 108.0
109.220627 176.0
109.232452 84.0
109.275345 88.0
109.342827 168.0
109.456429 128.0
109.673088 52.0
109.764816 196.0
110.056938 176.0
110.236572 136.0
110.410088 120.0
110.424721 172.0
110.843407 40.0
110.891609 72.0
110.946106 156.0
111.050949 252.0
111.132759 92.0
111.334274 136.0
111.439301 104.0
111.508644 172.0
111.605347 40.0
111.838852 128.0
112.043114 28.0
112.758423 192.0
112.919098 156.0
112.955055 120.0
113.529022 128.0
113.54599 236.0
113.656296 264.0
114.210762 208.0
114.515129 212.0
114.63443 196.0
114.69767 156.0
114.730339 160.0
114.971367 200.0
115.133606 180.0
115.273598 248.0
115.588936 288.0
115.847992 172.0
115.95298 88.0
116.048553 144.0
116.118065 208.0
116.190994 208.0
116.253296 116.0
116.313118 44.0
116.412071 172.0
116.530945 244.0
116.79892 176.0
116.876373 140.0
116.917259 136.0
116.971062 136.0
117.056877 1212.0
117.10025 104.0
117.167023 116.0
117.41275 120.0
117.43 80.0
117.572395 224.0
117.76886 168.0
118.010887 176.0
118.056984 228.0
118.061104 492.0
118.225029 60.0
118.70594 180.0
118.77317 140.0
118.998856 172.0
119.061043 2852.0
119.090065 112.0
119.18782 48.0
119.355186 212.0
119.407379 76.0
119.6119 76.0
119.757782 128.0
119.781746 88.0
119.960342 212.0
119.977867 60.0
120.044601 304.0
120.06955 164.0
120.176582 176.0
120.516937 76.0
121.019997 160.0
121.041618 200.0
121.061127 140.0
121.394684 208.0
121.456093 188.0
121.666756 60.0
121.774345 136.0
122.11721 64.0
122.315231 92.0
122.392288 60.0
122.555275 168.0
122.610367 120.0
122.707352 148.0
123.272408 108.0
123.416077 200.0
123.945084 132.0
124.047035 168.0
124.111328 232.0
124.142372 52.0
124.835205 208.0
124.897476 124.0
125.231346 156.0
125.251389 176.0
125.456398 92.0
125.496529 168.0
126.034431 196.0
126.135002 176.0
126.452606 68.0
126.468277 84.0
126.801994 128.0
126.829437 164.0
127.041016 140.0
127.392105 260.0
127.497704 220.0
127.582466 192.0
127.772026 168.0
127.830528 168.0
127.902542 64.0
127.965576 108.0
128.048538 208.0
128.14801 168.0
128.389191 40.0
128.517776 168.0
128.678009 164.0
128.958115 152.0
129.054794 220.0
129.075684 228.0
129.091507 160.0
129.295105 148.0
129.537369 124.0
129.627991 36.0
129.675583 140.0
129.75946 196.0
129.84108 128.0
130.065857 584.0
130.183762 68.0
130.457947 204.0
130.517792 204.0
130.640594 92.0
130.722504 60.0
131.000275 200.0
131.037994 172.0
131.045975 204.0
131.061493 496.0
131.136993 120.0
131.438004 208.0
131.460831 152.0
131.636597 200.0
131.693695 204.0
132.042419 316.0
132.08226 124.0
132.112 136.0
132.230972 188.0
132.258438 192.0
132.377487 108.0
132.407257 188.0
132.888626 36.0
132.96666 184.0
133.033218 136.0
133.058731 136.0
133.113571 156.0
133.253677 104.0
133.559418 216.0
133.837875 68.0
133.992188 212.0
134.148895 164.0
134.190399 256.0
134.296478 120.0
134.314926 224.0
134.351837 60.0
134.543381 184.0
134.74234 184.0
134.848282 108.0
135.056366 132.0
135.216507 132.0
135.642181 148.0
136.417496 192.0
136.496536 108.0
136.622131 128.0
136.989944 44.0
137.174026 116.0
137.327927 148.0
137.453888 196.0
137.675659 68.0
137.813477 168.0
137.944351 204.0
138.292862 176.0
138.405228 160.0
138.430984 160.0
138.620728 180.0
138.970108 164.0
139.272934 72.0
139.357498 136.0
139.390396 212.0
139.475006 76.0
139.766617 188.0
140.006714 196.0
140.289459 204.0
140.338974 32.0
141.05191 180.0
141.080276 156.0
141.907806 188.0
142.051758 180.0
142.856461 120.0
142.963531 204.0
143.023026 100.0
143.061417 2680.0
143.153976 60.0
143.292114 192.0
143.387436 52.0
143.495956 136.0
143.721725 172.0
143.766617 48.0
143.845383 160.0
144.069534 4744.0
144.198883 32.0
144.220383 64.0
144.25386 60.0
144.354263 68.0
144.411667 148.0
144.495392 124.0
144.675873 164.0
144.904785 216.0
144.952698 244.0
144.994141 152.0
145.054626 852.0
145.072891 672.0
145.106094 176.0
145.151657 136.0
145.228394 192.0
145.461151 180.0
145.521164 184.0
145.766159 56.0
145.782974 200.0
146.059555 580.0
146.081116 176.0
146.415665 140.0
146.442154 100.0
146.75061 140.0
147.059433 204.0
147.346741 168.0
147.605347 200.0
147.873871 148.0
147.94165 88.0
148.039703 160.0
148.169296 160.0
148.421356 92.0
148.729462 128.0
148.78772 76.0
149.037384 180.0
149.402557 248.0
149.492584 112.0
149.823715 180.0
150.038162 148.0
150.060104 204.0
150.136963 200.0
150.304016 68.0
150.457779 132.0
150.504166 136.0
150.670242 60.0
150.785095 120.0
150.821747 180.0
150.892639 80.0
150.982025 368.0
151.03447 40.0
151.058929 112.0
151.110306 80.0
151.210632 56.0
151.614716 72.0
151.747086 164.0
151.818802 176.0
151.857437 76.0
152.048798 168.0
152.065979 148.0
152.117523 84.0
152.137161 172.0
152.237823 132.0
152.360641 140.0
152.407318 204.0
152.478577 64.0
152.608856 160.0
152.745758 180.0
153.040955 320.0
153.167496 72.0
153.332565 100.0
153.606247 152.0
153.92215 188.0
154.053101 564.0
154.270508 44.0
154.567291 200.0
154.916382 180.0
155.059052 1416.0
155.114624 56.0
155.139404 176.0
155.161728 80.0
155.424622 76.0
155.55368 128.0
155.620712 36.0
156.066299 636.0
156.120148 84.0
156.200989 64.0
156.261932 80.0
156.319168 184.0
156.52327 180.0
156.777359 60.0
156.994247 172.0
157.021667 128.0
157.055389 132.0
157.074142 596.0
157.356049 128.0
157.388504 72.0
157.565826 168.0
157.598312 104.0
157.635788 192.0
157.888275 100.0
157.938293 172.0
158.018341 100.0
158.060272 3808.0
158.123444 152.0
158.155975 232.0
158.31871 272.0
158.34375 164.0
158.389847 140.0
158.636917 200.0
158.983032 124.0
159.023193 124.0
159.058441 992.0
159.099716 144.0
159.274277 208.0
159.322861 136.0
159.467743 112.0
159.59343 148.0
159.819794 184.0
159.842438 208.0
159.940598 236.0
159.973312 52.0
160.039337 1384.0
160.076675 628.0
160.131943 204.0
160.320892 188.0
160.490219 92.0
160.567947 204.0
160.625961 124.0
160.66127 176.0
160.813965 148.0
160.856842 88.0
161.043808 280.0
161.069305 340.0
161.110626 76.0
161.469559 208.0
161.520142 176.0
161.674469 228.0
162.051758 128.0
162.07457 160.0
162.302689 132.0
162.399048 64.0
162.525894 156.0
162.673096 140.0
162.807663 96.0
163.018509 196.0
163.148132 200.0
163.165924 108.0
163.404984 156.0
163.438065 188.0
163.942245 128.0
164.332367 128.0
164.625916 204.0
164.651443 128.0
164.728073 100.0
164.91716 212.0
164.993835 160.0
165.162613 108.0
165.2061 248.0
165.226562 176.0
165.344269 120.0
166.082138 148.0
166.307938 28.0
166.806244 200.0
166.829376 204.0
166.993942 212.0
167.065964 176.0
167.354202 148.0
167.482956 108.0
167.586014 172.0
167.665894 104.0
168.063889 244.0
168.434753 136.0
168.556168 272.0
168.659546 228.0
168.739685 44.0
169.046265 172.0
169.085831 220.0
169.195007 148.0
169.378876 192.0
169.451401 148.0
169.56282 140.0
169.606888 144.0
169.801346 132.0
169.822098 200.0
169.848022 156.0
169.868774 176.0
170.008881 160.0
170.071503 14400.0
170.124908 172.0
170.162033 56.0
170.226944 68.0
170.26178 152.0
170.28595 72.0
170.293457 52.0
170.340927 220.0
170.384018 160.0
170.491913 68.0
170.562088 52.0
170.63063 88.0
170.664459 84.0
170.723282 240.0
170.786804 140.0
170.863647 120.0
170.886932 192.0
170.926743 212.0
170.944397 144.0
170.96521 144.0
171.010117 220.0
171.07901 15928.0
171.13623 56.0
171.171036 112.0
171.191681 60.0
171.259399 116.0
171.305405 148.0
171.327133 68.0
171.374023 100.0
171.426132 60.0
171.535599 104.0
171.58252 44.0
171.624237 88.0
171.671173 56.0
171.80159 100.0
171.92421 224.0
171.950317 108.0
171.968582 60.0
171.989456 148.0
172.033829 168.0
172.064301 3308.0
172.191147 96.0
172.221848 184.0
172.242737 32.0
172.274078 104.0
172.409943 84.0
172.462219 96.0
172.485748 176.0
172.536713 72.0
172.768158 112.0
172.825714 192.0
172.878052 28.0
172.946091 256.0
172.995834 72.0
173.068466 288.0
173.184357 132.0
173.30748 64.0
173.438507 60.0
173.575958 196.0
173.624664 144.0
173.726959 76.0
173.944763 176.0
174.225739 192.0
174.24675 192.0
174.270401 124.0
174.288788 124.0
174.914703 156.0
175.022644 56.0
175.462631 84.0
175.792343 192.0
176.073212 172.0
176.235947 92.0
176.344284 256.0
176.66423 68.0
177.054764 492.0
177.090393 148.0
177.485245 148.0
177.538284 212.0
177.700089 72.0
177.930984 132.0
178.048737 196.0
178.308624 184.0
178.57402 104.0
178.87735 40.0
179.015793 160.0
179.077057 84.0
179.420792 112.0
179.447937 152.0
180.007767 68.0
180.055847 96.0
180.306976 108.0
180.413879 148.0
180.576996 68.0
181.062988 1344.0
181.248917 124.0
181.364151 220.0
181.407043 156.0
181.935516 204.0
182.018738 88.0
182.072815 144.0
182.169144 56.0
182.416367 136.0
182.453995 36.0
182.924759 168.0
183.055725 716.0
183.077988 680.0
183.107849 136.0
183.183273 76.0
183.239838 64.0
183.396133 40.0
183.7332 96.0
183.835739 56.0
184.065323 272.0
184.078262 340.0
184.207352 100.0
184.254242 48.0
184.435287 72.0
184.535324 96.0
184.613724 76.0
184.773315 140.0
184.932968 128.0
184.973572 176.0
185.006592 60.0
185.030411 128.0
185.071548 5660.0
185.114838 136.0
185.182053 84.0
185.294907 188.0
185.317505 68.0
185.45842 96.0
185.509918 36.0
185.665695 44.0
185.686157 56.0
185.718704 60.0
185.878769 56.0
186.009033 92.0
186.042099 348.0
186.073273 800.0
186.519699 200.0
186.761688 44.0
187.049011 148.0
187.084213 384.0
187.115448 36.0
187.137238 28.0
187.197128 40.0
187.216202 136.0
187.295181 160.0
187.330582 40.0
187.36055 160.0
187.575836 104.0
187.720337 92.0
187.742142 164.0
188.07196 352.0
188.096832 208.0
188.307068 76.0
188.429993 52.0
188.908401 156.0
189.075745 172.0
189.171097 56.0
189.258713 116.0
189.518906 112.0
189.735428 188.0
190.196274 176.0
190.459869 164.0
190.536789 156.0
190.965591 144.0
191.045364 224.0
191.890839 96.0
192.10318 164.0
192.368103 136.0
192.387421 188.0
192.975876 68.0
193.108612 128.0
193.305023 60.0
193.396347 200.0
193.626144 68.0
193.659378 76.0
194.078796 196.0
194.677185 160.0
194.774399 200.0
195.221863 120.0
195.502823 52.0
195.66983 196.0
196.955368 164.0
196.994476 168.0
197.072464 964.0
197.145355 160.0
197.855789 124.0
198.020996 36.0
198.067215 3228.0
198.107834 128.0
198.135849 64.0
198.259125 168.0
198.388062 92.0
198.430115 64.0
198.561905 164.0
198.615189 188.0
198.707764 136.0
198.772293 68.0
198.861343 208.0
198.909821 156.0
198.964844 232.0
199.074005 28348.0
199.144913 44.0
199.202896 108.0
199.242447 68.0
199.27771 64.0
199.300186 76.0
199.418213 64.0
199.440689 64.0
199.485672 100.0
199.564377 60.0
199.604523 72.0
199.627579 76.0
199.688736 72.0
199.730301 184.0
199.752808 72.0
199.775223 128.0
200.076294 2424.0
200.111847 268.0
200.135544 40.0
200.253815 60.0
200.312973 64.0
200.372131 96.0
200.487656 56.0
200.646667 116.0
200.696243 64.0
200.749817 36.0
200.82753 180.0
200.86264 120.0
200.882385 96.0
200.992401 80.0
201.076462 424.0
201.133514 60.0
201.3255 120.0
201.350922 116.0
201.542999 92.0
201.579742 96.0
201.613647 112.0
201.670166 104.0
201.735184 128.0
201.774765 56.0
201.819992 116.0
201.870895 36.0
201.944427 136.0
202.0802 128.0
202.20755 136.0
202.264145 200.0
202.490662 144.0
202.938385 192.0
203.064377 152.0
203.537064 116.0
204.253235 196.0
204.603256 64.0
204.791183 228.0
204.836761 28.0
205.144516 36.0
205.352661 152.0
205.415405 96.0
205.598007 116.0
205.866364 72.0
206.089157 96.0
206.286346 208.0
206.435028 144.0
206.563721 152.0
206.723938 152.0
207.001404 204.0
207.864426 64.0
208.042374 124.0
208.329544 300.0
208.412857 76.0
208.619781 52.0
209.057831 936.0
209.298752 236.0
209.339066 108.0
209.543564 220.0
209.670349 224.0
210.067337 1872.0
210.351044 32.0
210.495392 136.0
210.602249 96.0
210.732239 136.0
211.072067 320.0
211.148483 52.0
211.269974 128.0
211.449371 176.0
211.568039 156.0
211.672272 236.0
212.582474 140.0
212.695663 68.0
212.968597 140.0
213.102234 380.0
213.430664 144.0
213.578979 84.0
213.599335 184.0
213.741898 124.0
213.785538 132.0
214.027573 220.0
214.097153 3080.0
214.245575 92.0
214.493271 52.0
214.723602 76.0
214.790695 96.0
215.020508 156.0
215.077896 444.0
215.09848 880.0
215.155457 48.0
215.234283 84.0
215.947327 64.0
216.096817 156.0
216.146255 256.0
216.743591 40.0
216.810989 116.0
216.963409 136.0
217.089478 244.0
217.136398 84.0
217.450317 168.0
217.553055 152.0
217.62645 176.0
217.685181 116.0
217.705734 168.0
218.490509 176.0
219.152939 88.0
220.333069 60.0
222.382172 88.0
222.73848 200.0
223.18425 148.0
223.609634 52.0
224.081238 1864.0
224.115128 160.0
224.16951 92.0
224.258911 68.0
224.4272 80.0
224.822571 76.0
224.93898 84.0
225.022568 80.0
225.055405 144.0
225.086548 148.0
225.264465 232.0
225.464645 76.0
225.703339 212.0
225.835373 92.0
225.886215 92.0
225.913696 172.0
225.968567 152.0
226.008881 184.0
226.060837 13044.0
226.221039 36.0
226.272263 36.0
226.378906 84.0
226.442932 56.0
226.499847 108.0
226.559753 164.0
226.597122 144.0
226.74852 76.0
226.777496 48.0
226.863861 152.0
226.963043 168.0
227.02887 160.0
227.068726 25932.0
227.149139 176.0
227.175995 84.0
227.216293 80.0
227.2565 60.0
227.306305 36.0
227.347488 184.0
227.414337 84.0
227.45636 76.0
227.477371 48.0
227.501389 60.0
227.525406 48.0
227.555893 196.0
227.583847 60.0
227.616455 204.0
227.687546 40.0
227.735825 112.0
227.768646 52.0
227.84375 76.0
228.033051 72.0
228.070923 3604.0
228.129227 72.0
228.174332 72.0
228.213943 68.0
228.321655 36.0
228.419205 112.0
228.562317 64.0
228.634537 120.0
228.667633 108.0
228.745895 84.0
228.794067 120.0
228.836212 84.0
229.071503 608.0
229.248871 40.0
229.300095 112.0
229.351334 72.0
229.408615 112.0
229.465881 104.0
229.550308 148.0
229.673965 56.0
229.791611 68.0
229.818771 104.0
229.842911 128.0
229.892746 124.0
230.244385 76.0
230.407501 40.0
230.45282 112.0
230.712723 128.0
231.072617 232.0
231.453964 60.0
233.076736 100.0
233.36853 52.0
233.547943 188.0
236.798462 168.0
237.60463 48.0
238.000549 108.0
238.350708 76.0
239.13797 124.0
239.159515 104.0
240.531143 100.0
241.006744 128.0
241.185974 312.0
241.745758 196.0
241.844788 208.0
241.950043 152.0
242.021255 128.0
242.052734 120.0
242.09317 12376.0
242.176086 188.0
242.208221 32.0
242.261612 124.0
242.396042 52.0
242.470413 120.0
242.570877 164.0
242.625397 100.0
242.712204 48.0
242.892075 68.0
242.978943 328.0
243.09584 1564.0
243.320328 80.0
243.786224 56.0
244.095627 316.0
244.252579 52.0
244.336578 96.0
244.750519 100.0
244.778549 96.0
244.834595 68.0
244.889359 96.0
245.189743 32.0
245.211563 156.0
245.75415 124.0
245.779114 92.0
245.932022 132.0
246.206772 88.0
246.941193 84.0
247.141403 72.0
256.151794 76.0
256.43219 64.0
256.907288 224.0
257.737366 108.0
266.20929 72.0
279.001129 48.0
281.626923 76.0
285.158295 76.0
295.162537 44.0
297.313782 28.0
298.007416 104.0
301.059296 92.0
308.526215 124.0
308.613617 88.0
309.120819 72.0
323.573364 60.0
324.666229 112.0
327.491058 104.0
341.04126 140.0
350.247162 88.0
351.208801 88.0
358.259766 120.0
366.252502 64.0
373.22522 116.0
378.654755 40.0
378.743835 52.0
383.655548 40.0
384.373169 88.0
395.087585 40.0
406.575104 56.0
415.995697 80.0
422.012939 80.0
432.416351 64.0
433.203064 44.0
447.764008 56.0
450.243774 44.0
454.472595 64.0
477.212189 64.0
513.453186 116.0
527.309509 96.0
533.203308 36.0
535.319458 44.0
541.19751 56.0
550.431946 76.0
556.584717 128.0
559.584412 104.0
585.595459 56.0
595.758179 96.0
621.683838 48.0
626.730957 84.0
725.585693 36.0
751.640076 116.0
769.71582 116.0
791.194214 104.0
825.014587 180.0
832.979858 172.0
833.801514 116.0
834.008423 152.0
869.356018 176.0
872.463135 160.0
880.819153 136.0
913.841003 136.0
943.462097 216.0
965.635376 76.0
970.167908 48.0
990.369812 48.0
1005.894592 156.0
1011.862244 180.0
1016.013306 152.0
1023.169189 128.0
1027.088257 116.0
1028.121826 132.0
1030.77832 144.0
1037.799927 156.0
1042.967773 124.0
1045.044922 40.0
1053.264282 180.0
1053.871582 40.0
1054.369141 208.0
1069.389771 208.0
1070.060181 124.0
1080.718384 44.0
1081.523315 152.0
1087.093994 88.0
1089.286865 304.0
1097.005615 84.0
1105.519165 128.0
1124.139282 164.0
1124.873413 132.0
1125.240601 132.0
1131.190308 112.0
1132.435669 52.0
1133.815796 112.0
1138.995483 128.0
1146.921753 36.0
1158.78833 156.0
1184.991821 212.0
1186.684692 160.0
1192.911377 220.0
1194.121582 140.0
1207.646606 64.0
1213.477295 140.0
1216.321533 232.0
1225.487305 48.0
1226.379272 208.0
1226.943848 96.0
1233.205322 156.0
1241.347168 176.0
1247.307739 164.0
1249.726929 152.0
1251.937256 216.0
1254.487793 184.0
1254.875488 48.0
1260.274902 160.0
1261.575195 236.0
1266.429321 156.0
1269.157715 204.0
1269.405884 168.0
1270.299561 176.0
1270.817383 140.0
1274.353149 132.0
1276.236694 140.0
1282.743652 144.0
1284.84729 148.0
1286.959961 144.0
1287.15271 168.0
1288.052612 64.0
1288.516846 128.0
1290.625366 96.0
1293.673096 108.0
1294.031006 168.0
1296.08667 196.0
1297.670654 68.0
1297.885742 160.0
1298.301636 172.0
1299.513916 196.0
1300.863037 164.0
1302.378174 100.0
1302.67981 172.0
1304.354126 176.0
1313.765869 152.0
1314.357422 124.0
1318.834839 156.0
1320.020508 188.0
1320.194092 72.0
1320.635254 104.0
1327.943237 172.0
1328.712036 124.0
1331.731812 220.0
1332.36377 132.0
1334.078857 204.0
1338.116455 224.0
1339.86438 196.0
1345.604004 140.0
1346.224609 176.0
1347.166748 216.0
1347.612427 72.0
1350.397583 184.0
1354.569702 72.0
1356.50415 108.0
1356.724121 112.0
1358.381348 160.0
1363.844482 104.0
1368.95752 160.0
1372.730469 148.0
1374.677979 132.0
1374.943604 60.0
1375.873657 188.0
1376.368286 192.0
1377.320923 144.0
1378.140991 108.0
1382.770142 128.0
1390.359131 76.0
1393.410889 68.0
1394.027588 124.0
1398.526978 68.0
1403.697266 204.0
1405.278564 144.0
1409.033936 168.0
1409.766113 212.0
1410.745239 192.0
1411.358276 176.0
1411.642456 208.0
1415.997925 108.0
1416.334961 184.0
1417.473633 128.0
1419.032715 128.0
1420.900146 244.0
1422.295898 180.0
1422.723877 168.0
1424.420898 188.0
1426.209229 184.0
1427.826538 176.0
1429.749023 136.0
1430.331177 200.0
1430.391357 76.0
1431.347534 136.0
1434.798218 168.0
1436.532715 116.0
1437.686401 192.0
1438.547607 152.0
1439.438477 80.0
1440.133179 128.0
1442.105225 56.0
1444.668579 176.0
1448.195923 160.0
1451.158813 140.0
1452.379761 168.0
1453.836426 200.0
1455.597656 176.0
1456.296265 148.0
1462.500488 176.0
1468.252808 32.0
1468.893433 92.0
1471.449951 192.0
1474.734619 168.0
1475.8125 188.0
1477.387939 168.0
1477.785767 208.0
1480.12793 172.0
1480.342407 48.0
1480.480225 208.0
1482.678833 228.0
1483.138672 256.0
1484.526367 160.0
1484.71814 236.0
1485.454346 64.0
1487.011963 200.0
1488.7854 248.0
1490.049438 248.0
1491.858765 84.0
1492.781372 152.0
1493.642822 180.0
1494.588989 140.0
1495.809082 112.0
1496.490112 220.0
1499.54834 204.0
1500.450195 124.0
1501.0979 176.0
