>compound Manidipine (Manyper)
>formula C35H38N4O6
>ionization [M+H]+
>parentmass 611.284851
#inchi InChI=1S/C35H38N4O6/c1-24-30(34(40)44-3)32(28-15-10-16-29(23-28)39(42)43)31(25(2)36-24)35(41)45-22-21-37-17-19-38(20-18-37)33(26-11-6-4-7-12-26)27-13-8-5-9-14-27/h4-16,23,32-33,36H,17-22H2,1-3H3
#inchikey ANEBWFXPVPTEET
#Ion_Source LC-ESI
#Instrument qTof
#Compound_Source Commercial
#PI Dorrestein
#Data_Collector Garg_Neha
#Scan -1
#Precursor_MZ 611.286
#ExactMass 610.279
#Charge 1
#CAS_Number 89226-50-6
#Pubmed_ID N/A
#Smiles C1(=CC(=CC=C1)C2C(=C(NC(=C2C(OCCN3CCN(CC3)C(C4=CC=CC=C4)C5=CC=CC=C5)=O)C)C)C(=O)OC)[N+]([O-])=O
#INCHI_AUX N/A
#Library_Class 1
#SpectrumID CCMSLIB00000078484
#IonMode Positive
#UpdateWorkflowName UPDATE-SINGLE-ANNOTATED-GOLD
#LibraryQualityString Gold
#TaskID 77f51c88eb8b467eb4a01dd2d0cb90d2
##Scan# 1619
#SpectrumFile Plate7_61_80_GD5_01_15771.mzXML
#LibraryName FDALibrary_2_04302014.mgf
#MQScore -1
#Organism FDALibrary_2_04302014
#TIC_Query 0
#RT_Query -1
#MZErrorPPM -1
#SharedPeaks 0
#MassDiff 0
#LibMZ -1
#SpecMZ 611.286
#SpecCharge 0
#internalFilename spec-00000.mgf

>collision 10
50.154858 256.0
56.527847 168.0
56.557777 144.0
67.786316 148.0
69.168182 148.0
73.523659 168.0
78.36058 176.0
80.209023 156.0
82.019516 184.0
83.333405 204.0
86.569328 168.0
89.424019 248.0
93.46067 208.0
96.308678 140.0
101.917809 172.0
102.951218 224.0
109.840279 140.0
113.65686 172.0
121.064728 144.0
128.068588 164.0
129.10289 172.0
132.413361 148.0
135.210739 208.0
138.510132 252.0
141.020813 156.0
143.179886 224.0
146.998947 156.0
147.539993 184.0
149.018417 148.0
149.502319 236.0
151.05011 248.0
152.062347 1288.0
153.065338 100.0
164.935776 152.0
165.068176 1596.0
166.072952 684.0
166.100891 140.0
167.037445 244.0
167.084747 20148.0
167.326736 164.0
167.458542 152.0
167.652878 188.0
168.054169 188.0
168.087875 3348.0
168.146469 204.0
169.087952 244.0
169.219254 160.0
177.108994 176.0
254.075012 152.0
276.894165 144.0
288.921967 144.0
298.200836 144.0
315.104309 324.0
324.987701 220.0
359.11554 144.0
402.905518 140.0
443.18869 960.0
444.194183 268.0
445.200531 156.0
483.411987 152.0
499.850464 224.0
500.803192 156.0
510.807678 164.0
516.287903 168.0
518.787292 144.0
526.116333 148.0
526.280701 168.0
544.833374 144.0
577.782043 140.0
590.031738 160.0
593.808838 184.0
595.191895 140.0
608.26001 172.0
609.268372 132.0
609.622314 148.0
610.989258 140.0
611.13623 128.0
611.284851 6896.0
612.07074 116.0
612.286072 3588.0
613.291748 1224.0
614.279236 140.0
804.862732 164.0
1249.459961 156.0
1640.350464 172.0
1648.542725 236.0
1784.992798 148.0
1812.715088 168.0
1821.131226 152.0
1947.313477 172.0
