>compound MLS001140566-01!1-[2-[(4-methyl-6-oxo-7,8,9,10-tetrahydrobenzo[c]chromen-3-yl)oxy]acetyl]piperidine-4-carboxamide
>formula C22H26N2O5
>ionization [M+H]+
>parentmass 399.193085
#inchi InChI=1S/C22H26N2O5/c1-13-18(28-12-19(25)24-10-8-14(9-11-24)21(23)26)7-6-16-15-4-2-3-5-17(15)22(27)29-20(13)16/h6-7,14H,2-5,8-12H2,1H3,(H2,23,26)
#inchikey ZWCMEFQMFZUKDZ
#Ion_Source LC-ESI
#Instrument qTof
#Compound_Source NIH Natural Product Library
#PI Dorrestein
#Data_Collector VVP/LMS
#Scan -1
#Precursor_MZ 399.192
#ExactMass 398.184
#Charge 1
#CAS_Number N/A
#Pubmed_ID N/A
#Smiles Cc1c(OCC(=O)N2CCC(CC2)C(=O)N)ccc3c4CCCCc4c(=O)oc13
#INCHI_AUX N/A
#Library_Class 1
#SpectrumID CCMSLIB00000079987
#IonMode Positive
#UpdateWorkflowName UPDATE-SINGLE-ANNOTATED-GOLD
#LibraryQualityString Gold
#TaskID b1d8e8f6646f4e71acdff9ca3d919d08
##Scan# 1822
#SpectrumFile p2-F02_GF2_01_18038.mzXML
#LibraryName NIH_Natural_Products_Library.mgf
#MQScore -1
#Organism NIH_Natural_Products_Library
#TIC_Query 0
#RT_Query -1
#MZErrorPPM -1
#SharedPeaks 0
#MassDiff 0
#LibMZ -1
#SpecMZ 399.192
#SpecCharge 0
#internalFilename spec-00000.mgf

>collision 10
95.07299 204.0
95.721237 172.0
95.922958 116.0
95.979492 168.0
96.082207 604.0
96.72776 124.0
97.08886 356.0
97.385918 208.0
97.7444 104.0
98.058693 216.0
98.085121 164.0
98.418533 244.0
98.637825 136.0
98.839554 204.0
99.068886 180.0
99.281311 172.0
99.432091 144.0
99.841347 224.0
100.06443 204.0
100.602501 128.0
100.888176 160.0
100.994156 92.0
101.068176 152.0
101.220306 164.0
101.406616 148.0
101.444702 40.0
101.585075 148.0
102.344772 156.0
102.461594 136.0
103.736794 140.0
103.878746 128.0
105.034164 192.0
105.326057 128.0
105.458878 188.0
105.671555 40.0
106.452515 152.0
106.563431 48.0
106.746368 184.0
107.057106 152.0
107.234283 224.0
107.426048 152.0
107.694397 168.0
108.246582 68.0
108.408165 120.0
108.939323 96.0
109.055695 244.0
109.428062 96.0
110.057877 420.0
110.080711 156.0
110.216484 112.0
110.649445 168.0
111.064896 192.0
111.700836 196.0
111.871284 120.0
112.052406 188.0
112.074997 3412.0
112.65789 164.0
112.877701 156.0
112.90519 124.0
113.074684 312.0
113.216293 36.0
113.544785 80.0
113.962975 32.0
114.124939 80.0
114.409607 108.0
114.445801 260.0
114.616203 148.0
114.771805 160.0
115.607033 256.0
115.94326 88.0
115.988274 68.0
116.033295 160.0
116.453888 32.0
116.750481 172.0
117.070053 200.0
117.921158 216.0
118.880569 152.0
119.048851 212.0
120.051399 156.0
120.269127 148.0
121.029915 152.0
121.064308 272.0
121.957901 152.0
122.067825 108.0
122.657875 152.0
122.975494 112.0
123.024063 88.0
123.042595 172.0
123.315636 160.0
123.828934 212.0
124.048759 172.0
124.074623 532.0
124.82093 160.0
125.045624 320.0
125.084198 744.0
125.430962 156.0
125.944176 44.0
126.051407 140.0
126.090813 768.0
126.328651 128.0
126.498726 160.0
126.586044 240.0
126.664429 148.0
126.901985 76.0
127.050011 48.0
127.086884 10480.0
127.141891 80.0
127.263222 180.0
127.317116 84.0
127.391235 256.0
127.519318 120.0
127.633972 216.0
127.68119 60.0
127.793671 76.0
127.822922 144.0
127.901688 52.0
127.955719 104.0
128.052551 156.0
128.090805 952.0
128.568832 108.0
128.853348 88.0
129.067352 188.0
129.101578 948.0
129.967316 112.0
130.069443 144.0
130.401062 208.0
130.676224 120.0
130.692139 88.0
130.953949 112.0
131.042786 160.0
131.220566 244.0
132.510437 144.0
132.642517 44.0
133.101364 140.0
133.363266 144.0
133.61853 124.0
133.804947 172.0
134.102112 120.0
134.157425 148.0
134.561157 28.0
135.655441 52.0
137.019608 164.0
137.056885 160.0
137.850266 140.0
137.913361 172.0
138.402313 136.0
138.60141 72.0
138.814728 112.0
138.894455 192.0
139.054016 140.0
139.084534 196.0
139.152603 268.0
139.810776 112.0
139.999115 204.0
140.034439 164.0
140.623886 176.0
140.680527 156.0
141.01358 168.0
141.069672 404.0
141.10051 3136.0
141.132843 168.0
141.183807 112.0
141.216919 52.0
141.304443 60.0
141.321014 96.0
141.721161 168.0
141.761444 96.0
142.078522 996.0
142.103821 340.0
142.125534 140.0
142.278519 212.0
142.366364 120.0
142.658615 64.0
143.089249 356.0
143.223801 196.0
144.056763 108.0
144.141098 260.0
144.279724 140.0
144.887604 124.0
145.063614 204.0
145.290359 180.0
146.069885 164.0
146.697205 164.0
146.967331 172.0
147.044556 132.0
147.704178 68.0
147.762238 244.0
147.96553 240.0
148.309525 116.0
148.782547 208.0
148.81897 160.0
149.005981 172.0
149.059479 2008.0
150.062424 400.0
151.062836 144.0
151.085602 28.0
151.254456 160.0
151.670868 128.0
152.062302 300.0
152.783279 56.0
153.068787 160.0
153.115585 220.0
154.084961 508.0
154.347 168.0
154.945969 44.0
155.613144 220.0
156.089355 152.0
157.061508 100.0
157.100632 748.0
158.010788 76.0
158.070923 116.0
158.099838 132.0
158.333694 128.0
158.772278 128.0
158.839996 100.0
159.048264 144.0
159.083603 308.0
159.115067 272.0
159.198914 80.0
159.857544 124.0
159.97583 148.0
160.086975 168.0
160.220123 144.0
160.449463 104.0
160.802612 48.0
161.017212 136.0
161.071014 184.0
161.09613 292.0
161.302719 92.0
161.472137 152.0
162.300217 48.0
163.038925 116.0
163.830246 156.0
163.883759 240.0
164.03157 168.0
164.332504 168.0
165.078369 68.0
165.101379 260.0
165.190903 228.0
166.28244 164.0
166.323517 140.0
166.91185 112.0
167.082855 296.0
168.695984 96.0
169.060684 196.0
169.096451 468.0
169.570877 68.0
169.897598 172.0
170.074356 248.0
170.105179 376.0
170.497406 124.0
170.923889 116.0
171.074844 136.0
171.113235 176.0
172.083786 120.0
172.407684 140.0
173.053345 184.0
173.0923 484.0
173.417923 140.0
174.067978 384.0
174.767746 124.0
175.044144 144.0
175.075745 296.0
175.106094 168.0
176.071777 176.0
177.059097 160.0
177.191544 176.0
179.077591 168.0
179.56604 92.0
179.885529 184.0
180.746124 112.0
180.861206 132.0
180.904022 128.0
181.177185 104.0
182.070755 148.0
182.193954 344.0
183.159698 220.0
183.251282 144.0
183.270142 120.0
184.198212 208.0
184.541428 36.0
184.568466 204.0
185.049255 220.0
185.09761 1288.0
185.855087 84.0
186.098511 344.0
186.243301 112.0
186.28949 52.0
186.520462 52.0
187.07692 400.0
187.112244 676.0
187.18158 204.0
187.530289 104.0
187.680222 80.0
187.846588 120.0
188.079865 156.0
188.124939 192.0
188.198654 84.0
188.217758 68.0
188.529175 120.0
189.048767 64.0
189.108978 44.0
189.174683 56.0
189.341705 176.0
189.634857 140.0
190.534912 136.0
190.947235 112.0
193.82103 200.0
194.156464 156.0
194.177322 176.0
194.714294 104.0
194.836517 144.0
195.245117 48.0
195.270157 72.0
195.309097 184.0
195.334122 44.0
195.978226 224.0
196.08313 112.0
196.108215 180.0
196.3703 128.0
197.098099 172.0
197.24704 148.0
197.630188 44.0
198.187378 192.0
199.076599 144.0
199.121536 200.0
200.069138 124.0
200.09166 128.0
200.17894 200.0
200.373291 160.0
201.091583 220.0
201.270218 60.0
202.057755 576.0
202.095352 504.0
202.231415 48.0
202.305008 64.0
203.064407 124.0
203.094803 128.0
203.123474 116.0
203.254471 120.0
204.10379 112.0
204.180573 100.0
205.04892 180.0
205.09166 192.0
206.013367 104.0
207.097488 128.0
207.897125 220.0
208.480362 172.0
209.136093 180.0
209.922607 96.0
210.006256 100.0
210.069702 144.0
210.312088 60.0
211.109497 144.0
212.082275 204.0
213.031143 104.0
213.051483 68.0
213.090775 156.0
213.132843 180.0
213.347916 192.0
214.101532 204.0
214.232605 172.0
214.564835 184.0
214.824387 128.0
214.897675 128.0
215.03447 148.0
215.069138 1488.0
215.106461 8672.0
215.200867 52.0
215.2435 232.0
215.307083 64.0
215.341034 60.0
216.073517 284.0
216.079788 200.0
216.110641 1584.0
216.144974 44.0
216.308868 32.0
216.341064 124.0
216.42012 48.0
216.584122 116.0
217.082352 180.0
217.107437 464.0
217.246597 72.0
217.284744 56.0
217.369827 40.0
217.446136 148.0
218.018829 60.0
218.453979 52.0
218.898407 132.0
219.04567 96.0
219.490692 176.0
220.21077 124.0
221.802643 128.0
221.823395 136.0
222.096191 164.0
223.941986 148.0
224.299545 132.0
224.615631 192.0
225.094482 360.0
225.302231 160.0
225.873199 220.0
226.903366 128.0
227.072449 720.0
227.111084 360.0
227.800674 100.0
228.077301 236.0
228.775009 148.0
229.086151 1336.0
229.934128 124.0
229.97171 184.0
230.092651 1800.0
231.097 712.0
232.110596 168.0
232.335037 216.0
232.365372 96.0
232.392685 100.0
232.772903 136.0
233.477127 136.0
233.836121 60.0
234.116211 196.0
235.55278 160.0
236.243637 52.0
236.907944 108.0
237.346222 84.0
239.13916 192.0
239.851837 120.0
240.839218 100.0
240.934982 40.0
241.086395 156.0
241.145111 176.0
241.735809 168.0
242.107285 220.0
242.299332 296.0
242.446899 148.0
242.891434 64.0
243.007156 212.0
243.030884 152.0
243.101425 12312.0
243.246735 72.0
243.386963 72.0
243.487366 84.0
243.620926 72.0
243.671921 68.0
243.711029 108.0
243.813583 36.0
243.872635 184.0
243.897491 60.0
243.920441 64.0
243.944122 76.0
244.060623 84.0
244.10553 2084.0
244.214645 92.0
244.44487 80.0
244.631607 52.0
244.734344 44.0
245.099426 252.0
245.173569 52.0
245.360596 120.0
245.675583 104.0
246.100571 184.0
246.125015 40.0
246.19371 76.0
247.403763 88.0
249.103455 148.0
250.600967 112.0
253.137405 164.0
253.270416 104.0
254.126358 172.0
255.103241 148.0
255.142685 116.0
255.584137 80.0
256.011322 76.0
256.100525 176.0
257.079285 152.0
257.46875 132.0
258.111237 164.0
258.73819 100.0
261.132019 212.0
261.724152 192.0
262.536194 164.0
263.798645 64.0
266.308563 176.0
268.112335 200.0
268.963593 152.0
269.09967 188.0
269.32605 104.0
269.571075 88.0
270.103973 144.0
270.752045 132.0
270.994446 168.0
271.098175 4384.0
271.171417 64.0
271.345154 112.0
271.414001 80.0
271.556976 80.0
272.100128 500.0
272.362457 64.0
272.904694 156.0
273.032928 52.0
273.106232 180.0
273.931488 84.0
274.636902 108.0
274.884338 44.0
274.930542 56.0
275.095581 64.0
277.783203 112.0
279.027985 72.0
280.719452 136.0
281.119751 184.0
282.105072 72.0
282.128479 52.0
282.316193 140.0
283.129028 848.0
284.132996 700.0
284.178131 72.0
284.577545 108.0
285.125092 112.0
286.282379 28.0
289.112183 152.0
290.88739 56.0
294.203094 136.0
295.45047 144.0
296.093994 164.0
297.144806 160.0
297.644043 160.0
298.169647 128.0
300.122314 520.0
301.127106 128.0
302.128143 76.0
306.060486 172.0
306.161469 164.0
308.999329 164.0
310.147949 160.0
310.926605 196.0
311.028381 128.0
311.115021 152.0
311.477844 36.0
311.664032 64.0
312.119812 704.0
312.613464 128.0
313.123383 296.0
314.139435 228.0
315.30426 52.0
317.428314 60.0
319.136261 160.0
320.118347 168.0
322.697784 156.0
323.141663 128.0
323.750183 232.0
325.141602 184.0
326.174011 2488.0
326.610687 60.0
327.177429 500.0
327.517731 68.0
328.17511 152.0
330.561218 108.0
333.400726 112.0
336.162231 128.0
337.147278 168.0
340.161499 172.0
348.693939 96.0
351.2146 60.0
351.64743 160.0
351.942322 212.0
352.66333 84.0
352.753052 164.0
353.590881 116.0
353.976471 140.0
354.003265 104.0
354.169769 4716.0
354.276123 52.0
354.739929 120.0
354.860779 96.0
354.916992 60.0
355.063263 104.0
355.172943 1220.0
355.284576 60.0
355.611023 68.0
355.749908 44.0
356.17334 368.0
356.508606 60.0
356.651428 64.0
356.737885 48.0
356.973114 128.0
357.264374 72.0
357.411102 36.0
359.785583 60.0
360.185852 96.0
361.248077 124.0
361.634033 36.0
364.158539 188.0
368.880219 140.0
371.36145 36.0
372.962585 132.0
374.52478 120.0
378.448395 20.0
381.177338 268.0
381.886688 124.0
382.167572 888.0
383.167633 264.0
384.165405 144.0
384.559509 88.0
385.958069 64.0
393.545441 84.0
398.909698 204.0
399.193085 1824.0
400.197235 312.0
401.196716 128.0
402.199982 180.0
406.333801 60.0
408.080902 52.0
412.135681 104.0
420.109528 32.0
423.932495 64.0
436.440247 132.0
455.313507 76.0
462.626129 72.0
464.962158 60.0
475.080658 116.0
495.440582 64.0
513.599121 92.0
521.622986 72.0
533.159363 100.0
547.994812 52.0
569.06189 48.0
580.849548 108.0
587.082825 116.0
599.483521 88.0
647.188354 84.0
647.583313 40.0
649.235535 68.0
686.15802 100.0
687.712524 72.0
702.357056 136.0
707.302856 56.0
729.58551 56.0
731.339111 100.0
764.540344 60.0
785.417175 132.0
785.456177 80.0
786.192688 56.0
809.51709 180.0
818.107605 244.0
820.922241 44.0
821.287231 80.0
822.879395 236.0
835.982666 68.0
842.411377 40.0
853.969482 52.0
858.33136 164.0
885.553101 192.0
894.191711 104.0
916.221619 148.0
962.585571 184.0
964.593506 168.0
990.949463 172.0
996.194153 128.0
1002.10791 176.0
1009.442383 36.0
1035.349487 144.0
1043.132202 216.0
1047.636841 76.0
1052.687012 160.0
1055.885864 128.0
1057.671631 96.0
1117.114624 180.0
1132.540771 144.0
1139.51062 200.0
1150.164062 144.0
1158.095337 128.0
1160.460327 160.0
1166.447998 140.0
1168.971313 92.0
1169.522461 40.0
1182.093506 236.0
1198.566772 140.0
1200.44165 152.0
1200.889893 68.0
1202.380127 132.0
1204.071533 124.0
1206.593628 108.0
1211.050049 200.0
1216.208618 124.0
1217.013916 220.0
1220.585327 140.0
1221.97644 128.0
1235.476074 212.0
1238.927368 160.0
1252.083374 72.0
1271.681519 80.0
1272.916748 208.0
1278.141235 92.0
1280.405029 136.0
1287.429565 124.0
1289.029663 220.0
1289.958862 180.0
1292.726685 56.0
1293.807495 144.0
1298.357422 136.0
1302.448364 240.0
1307.092651 136.0
1307.22937 216.0
1312.848267 156.0
1317.95166 128.0
1321.2052 212.0
1321.755005 104.0
1323.716675 196.0
1339.287354 168.0
1342.479492 180.0
1344.398071 160.0
1345.580566 124.0
1349.065308 232.0
1354.714722 116.0
1356.693237 132.0
1359.553833 212.0
1364.114868 256.0
1367.513184 56.0
1387.042358 36.0
1394.947754 156.0
1398.242798 160.0
1410.997925 136.0
1413.002319 80.0
1414.394165 140.0
1415.562134 180.0
1419.616089 128.0
1426.358154 88.0
1427.61377 208.0
1430.736206 228.0
1431.624756 168.0
1436.418213 184.0
1440.199829 160.0
1443.986328 168.0
1447.785522 100.0
1448.785278 152.0
1449.376221 208.0
1449.444458 100.0
1451.688232 160.0
1455.155762 252.0
1459.304077 144.0
1460.505615 156.0
1463.207031 108.0
1465.11853 108.0
1466.078613 220.0
1470.097412 128.0
1475.757568 196.0
1478.304688 212.0
1483.137329 172.0
1491.419189 176.0
1492.764526 140.0
1496.203857 208.0
1499.80127 192.0
