>compound MLS001075321-01!1-(5-methoxy-1H-indol-3-yl)-2-piperidin-1-ylethane-1,2-dione
>formula C16H18N2O3
>ionization [M+H]+
>parentmass 287.14
#inchi InChI=1S/C16H18N2O3/c1-21-11-5-6-14-12(9-11)13(10-17-14)15(19)16(20)18-7-3-2-4-8-18/h5-6,9-10,17H,2-4,7-8H2,1H3
#inchikey VLJAIVBMTZNVSI
#Ion_Source LC-ESI
#Instrument qTof
#Compound_Source NIH Natural Product Library
#PI Dorrestein
#Data_Collector VVP/LMS
#Scan -1
#Precursor_MZ 287.14
#ExactMass 286.132
#Charge 1
#CAS_Number N/A
#Pubmed_ID N/A
#Smiles COc1ccc2[nH]cc(C(=O)C(=O)N3CCCCC3)c2c1
#INCHI_AUX N/A
#Library_Class 1
#SpectrumID CCMSLIB00000079850
#IonMode Positive
#UpdateWorkflowName UPDATE-SINGLE-ANNOTATED-GOLD
#LibraryQualityString Gold
#TaskID b1d8e8f6646f4e71acdff9ca3d919d08
##Scan# 1834
#SpectrumFile p1-H11_GH11_01_17967.mzXML
#LibraryName NIH_Natural_Products_Library.mgf
#MQScore -1
#Organism NIH_Natural_Products_Library
#TIC_Query 0
#RT_Query -1
#MZErrorPPM -1
#SharedPeaks 0
#MassDiff 0
#LibMZ -1
#SpecMZ 287.14
#SpecCharge 0
#internalFilename spec-00000.mgf

>collision 10
95.066734 132.0
95.128845 140.0
95.159912 160.0
95.1735 108.0
95.521385 48.0
95.601158 184.0
96.098045 116.0
96.113655 132.0
96.228813 204.0
96.256149 140.0
96.379211 92.0
96.394844 232.0
96.449562 168.0
97.001572 92.0
97.867973 80.0
97.995995 152.0
98.193123 180.0
98.686996 168.0
98.817352 164.0
98.989555 180.0
99.029167 196.0
99.161911 56.0
99.359268 328.0
99.42569 172.0
99.505089 160.0
99.737518 152.0
99.785225 120.0
99.991837 176.0
100.454376 148.0
100.548157 140.0
100.6959 152.0
100.7798 184.0
100.881729 152.0
100.993706 148.0
101.129768 184.0
101.447525 208.0
102.028442 240.0
102.056587 192.0
102.10083 128.0
102.565926 116.0
102.866486 228.0
102.90081 40.0
103.040466 964.0
103.131104 44.0
103.207924 64.0
103.628929 52.0
104.024399 80.0
104.040634 188.0
104.117798 84.0
104.39418 112.0
104.506058 236.0
104.758507 160.0
105.060226 228.0
105.272499 124.0
105.722244 116.0
105.767273 164.0
105.967743 168.0
106.027992 1096.0
106.131935 136.0
106.259102 132.0
106.285774 72.0
106.832291 192.0
106.984573 208.0
107.036957 1976.0
107.075172 132.0
107.407013 140.0
107.648491 212.0
108.018448 204.0
108.039963 168.0
108.212982 80.0
108.241974 48.0
108.625397 232.0
108.644066 152.0
108.918083 180.0
108.932625 184.0
109.631721 172.0
109.692162 232.0
109.957062 96.0
110.025948 200.0
110.149155 176.0
110.190933 288.0
110.420876 116.0
110.749481 184.0
110.954842 148.0
110.975807 188.0
111.042915 128.0
111.14151 116.0
111.196075 84.0
111.397652 128.0
111.506912 184.0
111.933968 36.0
112.075264 396.0
112.117241 200.0
112.344963 116.0
112.471581 148.0
113.031631 244.0
113.699173 156.0
113.815926 208.0
113.932632 232.0
114.06237 208.0
114.086342 136.0
114.529816 176.0
114.656204 96.0
114.877953 200.0
115.279358 156.0
115.525238 196.0
115.544495 144.0
115.872063 120.0
116.04998 504.0
116.116432 176.0
116.234421 60.0
116.341736 64.0
116.797302 144.0
116.827415 136.0
117.056595 548.0
117.240829 120.0
117.419769 68.0
117.698151 120.0
117.864471 140.0
118.068787 648.0
118.10228 112.0
118.182159 260.0
118.40313 172.0
119.000748 128.0
119.047699 2456.0
119.160179 36.0
119.414513 184.0
119.956696 188.0
120.009453 180.0
120.050491 604.0
120.203148 108.0
120.353767 144.0
120.515396 188.0
120.666206 40.0
121.046928 168.0
121.880478 192.0
122.056641 152.0
122.089317 36.0
122.106911 88.0
122.124504 84.0
122.624306 64.0
122.769814 172.0
122.882309 136.0
122.919815 172.0
123.045631 140.0
123.525185 220.0
124.254036 116.0
124.293968 140.0
124.353889 168.0
124.47821 160.0
124.549286 116.0
124.584824 164.0
124.6026 204.0
125.263321 136.0
125.504013 172.0
125.533005 172.0
126.010674 120.0
126.269981 92.0
126.437775 176.0
126.554176 176.0
126.639275 164.0
126.740791 216.0
128.002487 124.0
128.221008 180.0
128.821198 160.0
128.909317 72.0
129.072067 128.0
129.121826 184.0
129.200989 168.0
129.397888 192.0
129.556427 172.0
129.91008 68.0
129.971329 240.0
130.030334 164.0
130.073456 152.0
130.614273 184.0
130.673416 112.0
130.718933 172.0
130.944305 72.0
131.036011 3240.0
131.242844 84.0
131.614761 40.0
131.81488 204.0
132.038712 284.0
132.07869 80.0
132.231995 156.0
132.385391 192.0
132.490753 232.0
132.722229 48.0
132.832321 148.0
133.004425 80.0
133.206024 196.0
133.259338 160.0
133.654816 152.0
133.997879 176.0
134.017883 188.0
134.050873 148.0
134.083145 224.0
134.179947 192.0
134.969604 128.0
135.027252 192.0
135.059799 180.0
135.314346 180.0
135.397705 224.0
135.643311 172.0
135.675766 136.0
136.344269 28.0
136.439575 160.0
136.56514 208.0
136.583755 164.0
136.970154 88.0
137.597153 148.0
137.774963 220.0
137.845062 212.0
138.001663 180.0
138.092865 172.0
138.207489 144.0
138.539963 124.0
138.582123 148.0
139.083984 120.0
139.666718 148.0
139.781998 148.0
140.01506 52.0
140.576141 244.0
140.696518 192.0
140.880722 180.0
141.431702 188.0
141.497986 212.0
141.651917 160.0
141.692184 68.0
141.722992 156.0
141.801193 256.0
142.02301 108.0
142.085739 172.0
142.315964 168.0
142.558258 192.0
142.5802 128.0
142.596283 160.0
142.722275 84.0
143.469864 180.0
143.830078 48.0
144.049759 128.0
144.071259 140.0
144.611679 124.0
144.85112 128.0
144.951752 172.0
145.05481 144.0
145.248123 188.0
145.268234 176.0
145.486618 196.0
145.520218 136.0
145.794067 144.0
145.858963 164.0
145.92868 80.0
145.976151 236.0
146.012833 192.0
146.031067 180.0
146.059189 14996.0
146.149963 84.0
146.336624 60.0
146.46051 172.0
146.573746 32.0
146.759354 192.0
146.947479 216.0
147.030243 624.0
147.063843 1052.0
147.118835 60.0
147.347733 240.0
147.606888 96.0
147.989197 68.0
148.03183 276.0
148.065765 200.0
148.241119 108.0
148.488403 124.0
148.70433 132.0
148.752869 72.0
148.864563 204.0
149.066193 116.0
149.367661 168.0
149.399292 68.0
149.649963 208.0
150.044662 32.0
150.956635 408.0
151.035416 180.0
151.04277 128.0
151.271042 148.0
151.45224 88.0
151.547775 196.0
152.038132 108.0
152.077484 88.0
152.229706 144.0
152.66713 224.0
152.905762 192.0
153.195496 120.0
153.440292 128.0
153.55127 124.0
153.867111 152.0
154.141281 88.0
154.272278 188.0
154.309357 104.0
154.809189 228.0
154.928085 196.0
154.96524 60.0
155.00737 180.0
155.03215 192.0
155.136246 144.0
155.252792 60.0
155.649826 168.0
155.85849 132.0
156.01506 172.0
156.037445 148.0
156.107056 104.0
156.253815 160.0
156.557495 172.0
156.649643 52.0
156.805084 220.0
156.829056 212.0
156.961197 128.0
156.993607 248.0
157.557724 68.0
157.667664 124.0
158.182907 196.0
158.303085 132.0
158.598724 52.0
158.63382 152.0
158.731598 124.0
158.754166 188.0
158.789276 56.0
158.826904 168.0
158.869537 152.0
158.934784 240.0
158.985291 132.0
159.031082 27240.0
159.082855 120.0
159.10582 80.0
159.14595 60.0
159.247192 160.0
159.290146 80.0
159.386307 68.0
159.393387 56.0
159.426956 84.0
159.585327 80.0
159.623047 56.0
159.680878 292.0
159.701004 172.0
159.723633 76.0
159.826782 76.0
159.945068 96.0
159.995422 144.0
160.032639 2584.0
160.0634 180.0
160.219559 76.0
160.245743 56.0
160.317825 164.0
160.36319 188.0
160.380844 76.0
160.413605 72.0
160.494278 64.0
160.529587 64.0
160.590118 140.0
160.610291 76.0
160.667053 152.0
160.867294 80.0
161.043396 988.0
161.130325 84.0
161.180862 76.0
161.206131 144.0
161.233917 152.0
161.297119 140.0
161.380539 40.0
161.512039 84.0
162.028473 136.0
162.050171 368.0
162.1577 44.0
162.390961 132.0
163.033463 220.0
163.112076 104.0
163.560776 140.0
163.679428 160.0
163.771103 204.0
163.832245 216.0
163.918869 176.0
164.857956 224.0
164.924408 156.0
165.029221 96.0
165.305481 172.0
165.694672 104.0
166.217728 244.0
166.52066 120.0
166.980713 184.0
167.009018 28.0
167.078461 92.0
167.467163 152.0
167.539291 188.0
167.840851 156.0
169.806259 88.0
169.948929 220.0
170.694412 72.0
170.808853 168.0
170.842667 148.0
170.912918 52.0
171.066467 220.0
171.261765 80.0
171.420685 40.0
171.498871 148.0
171.730927 132.0
171.772675 40.0
172.224243 136.0
172.404526 204.0
172.498611 52.0
172.558746 76.0
172.663345 180.0
172.87001 156.0
173.202515 60.0
173.220856 52.0
173.309921 172.0
173.412125 108.0
173.438339 88.0
173.499619 156.0
173.572052 224.0
173.627655 176.0
173.702957 208.0
173.732559 160.0
173.763519 124.0
173.792374 116.0
173.81337 108.0
173.857986 180.0
173.886856 140.0
173.920761 196.0
173.994339 224.0
174.054169 70720.0
174.111755 216.0
174.131546 64.0
174.157288 156.0
174.199478 176.0
174.223648 76.0
174.261993 56.0
174.271469 104.0
174.302795 208.0
174.351151 168.0
174.377701 72.0
174.420044 60.0
174.483658 136.0
174.560699 112.0
174.619873 68.0
174.63829 160.0
174.672485 108.0
174.703293 28.0
174.767197 100.0
174.854034 128.0
174.92247 48.0
174.950256 172.0
174.994186 132.0
175.056168 7460.0
175.111694 60.0
175.201614 52.0
175.230591 64.0
175.255722 112.0
175.384583 100.0
175.436157 56.0
175.515259 108.0
175.578537 68.0
175.607559 40.0
175.665588 60.0
175.726257 84.0
175.771118 100.0
175.789597 64.0
175.926834 144.0
175.969086 84.0
176.000763 72.0
176.057541 576.0
176.146027 76.0
176.197281 100.0
176.227356 164.0
176.283127 76.0
176.354843 148.0
176.394409 56.0
176.413834 116.0
176.442001 128.0
176.46579 120.0
176.518677 112.0
177.034698 152.0
177.116806 116.0
177.304932 76.0
178.103546 80.0
178.467636 116.0
178.997147 32.0
180.039841 28.0
180.331055 40.0
180.577026 156.0
182.12355 160.0
182.978714 200.0
182.997559 64.0
183.151062 80.0
183.245346 72.0
184.359772 76.0
185.035995 120.0
186.055374 244.0
186.498169 104.0
186.712952 124.0
187.829666 84.0
190.147186 104.0
191.422791 92.0
193.283295 76.0
196.509232 68.0
198.997437 148.0
201.605835 64.0
211.10318 100.0
215.074814 204.0
216.044983 56.0
221.052826 132.0
222.181717 60.0
224.266266 76.0
224.952332 92.0
227.127777 112.0
230.098007 144.0
232.034302 140.0
233.123993 48.0
237.042282 160.0
243.105057 48.0
255.097565 128.0
257.094818 132.0
257.123535 124.0
258.09787 176.0
259.962219 56.0
268.940369 76.0
272.716949 156.0
272.976685 48.0
278.525848 96.0
286.268616 168.0
287.148193 160.0
288.062927 76.0
295.0159 112.0
296.549438 32.0
304.550964 96.0
316.595398 88.0
318.954834 76.0
327.859924 48.0
328.105042 72.0
334.178833 176.0
334.53186 68.0
346.93454 68.0
356.110474 156.0
356.151794 48.0
359.393158 68.0
367.749756 120.0
375.928345 72.0
388.08844 160.0
395.047638 68.0
412.132172 64.0
449.902954 96.0
472.776642 56.0
487.178925 120.0
488.198669 140.0
489.668579 76.0
491.882019 48.0
493.481293 112.0
499.188019 128.0
506.821167 152.0
531.494141 84.0
554.614075 116.0
604.956482 96.0
635.502869 100.0
642.48114 64.0
654.284485 56.0
753.693237 44.0
761.785339 108.0
772.031799 200.0
790.036865 64.0
791.47522 72.0
806.157166 80.0
824.462158 72.0
873.13092 152.0
884.222534 156.0
905.118103 232.0
932.233948 60.0
943.400208 76.0
946.924744 192.0
959.31842 156.0
963.286377 152.0
966.884949 196.0
971.04834 80.0
993.303833 168.0
1002.332031 204.0
1009.262817 124.0
1011.141602 240.0
1012.69281 124.0
1026.177734 176.0
1027.108765 188.0
1031.847168 156.0
1032.736084 176.0
1042.879517 216.0
1043.033813 192.0
1044.692871 160.0
1046.655884 152.0
1053.26001 268.0
1055.612549 68.0
1079.818359 224.0
1082.193848 200.0
1090.505371 144.0
1104.97998 48.0
1108.820679 76.0
1117.34021 204.0
1117.965576 64.0
1122.835571 160.0
1127.30188 204.0
1130.658936 120.0
1133.505127 132.0
1144.501099 128.0
1144.656006 120.0
1146.805054 148.0
1149.975098 216.0
1150.366577 84.0
1150.542114 36.0
1166.169678 272.0
1167.236938 172.0
1187.965942 192.0
1193.054688 156.0
1202.340698 144.0
1202.553711 196.0
1203.623779 200.0
1204.500854 40.0
1207.846436 220.0
1208.35144 128.0
1210.490234 176.0
1215.793579 224.0
1216.577881 180.0
1217.925049 112.0
1222.673706 116.0
1224.671997 204.0
1226.511475 272.0
1227.696655 144.0
1229.070923 268.0
1234.890259 200.0
1234.953125 72.0
1239.913696 20.0
1245.298462 244.0
1245.389771 156.0
1245.804199 108.0
1246.605225 132.0
1252.268555 148.0
1256.681519 108.0
1257.09082 144.0
1263.393311 148.0
1263.817871 200.0
1269.469971 200.0
1276.088379 152.0
1276.578979 196.0
1281.16272 132.0
1283.215332 200.0
1284.356323 152.0
1284.812866 132.0
1285.926025 148.0
1288.032349 212.0
1288.575317 136.0
1290.46936 184.0
1292.973022 104.0
1293.359497 280.0
1297.40686 216.0
1297.58606 92.0
1299.393433 148.0
1300.477051 136.0
1311.791748 180.0
1314.460327 180.0
1318.74292 164.0
1321.411377 200.0
1322.619873 136.0
1323.828979 160.0
1324.234497 132.0
1324.821289 116.0
1328.75061 60.0
1330.884521 168.0
1331.291138 232.0
1331.385498 200.0
1331.734131 240.0
1332.34436 164.0
1334.895508 140.0
1341.265991 136.0
1341.406738 184.0
1342.906616 152.0
1343.54126 180.0
1345.41687 80.0
1346.219971 108.0
1346.592407 224.0
1348.521362 96.0
1351.307495 140.0
1351.739136 276.0
1352.03186 184.0
1354.601929 204.0
1358.230347 152.0
1360.894287 208.0
1361.143921 172.0
1362.260376 184.0
1364.729736 152.0
1365.28125 168.0
1367.517822 108.0
1372.069214 180.0
1374.555908 168.0
1376.504639 140.0
1380.583862 212.0
1382.055908 52.0
1382.640503 128.0
1384.032227 180.0
1385.639404 204.0
1387.003052 200.0
1387.825928 164.0
1388.107666 184.0
1390.110596 120.0
1392.946777 284.0
1395.718872 128.0
1396.232056 192.0
1396.559204 136.0
1403.686401 148.0
1407.163574 104.0
1407.887817 148.0
1412.619019 184.0
1417.163452 120.0
1418.055176 28.0
1419.862061 264.0
1419.974609 164.0
1420.207031 160.0
1421.05481 180.0
1421.174805 156.0
1422.82605 180.0
1422.886108 140.0
1423.61438 212.0
1423.884766 120.0
1425.552612 156.0
1434.803223 132.0
1435.677856 124.0
1437.352539 212.0
1438.02417 120.0
1438.94519 180.0
1440.312012 148.0
1440.606567 180.0
1441.860962 152.0
1444.507324 148.0
1444.688843 192.0
1447.125854 216.0
1448.829834 248.0
1449.466309 72.0
1450.148438 124.0
1450.254517 32.0
1450.353027 60.0
1453.052734 160.0
1455.041138 108.0
1458.163208 188.0
1458.991699 164.0
1462.932373 56.0
1466.078125 144.0
1467.061401 152.0
1469.448486 224.0
1470.32605 160.0
1472.998413 140.0
1473.578979 176.0
1475.894897 228.0
1476.009644 132.0
1477.952515 132.0
1479.820068 68.0
1483.037598 148.0
1483.167847 172.0
1483.658447 176.0
1484.839355 224.0
1486.972168 164.0
1490.950439 212.0
1494.018433 164.0
1496.487793 184.0
1497.174316 144.0
1497.382202 116.0
1498.99231 120.0
1499.655151 128.0
1499.940308 100.0
1500.603271 140.0
1501.096802 212.0
1502.762817 128.0
