>compound Felbamate
>formula C11H14N2O4
>ionization [M+H]+
>parentmass 239.103
#inchi InChI=1S/C11H14N2O4/c12-10(14)16-6-9(7-17-11(13)15)8-4-2-1-3-5-8/h1-5,9H,6-7H2,(H2,12,14)(H2,13,15)
#inchikey WKGXYQFOCVYPAC
#Ion_Source LC-ESI
#Instrument qTof
#Compound_Source Commercial
#PI Dorrestein
#Data_Collector Garg_Neha
#Scan -1
#Precursor_MZ 239.103
#ExactMass 238.095
#Charge 1
#CAS_Number 25451-15-4, 1177501-39-1 (H2O)
#Pubmed_ID N/A
#Smiles C1=CC=CC=C1C(COC(N)=O)COC(N)=O
#INCHI_AUX N/A
#Library_Class 1
#SpectrumID CCMSLIB00000078100
#IonMode Positive
#UpdateWorkflowName UPDATE-SINGLE-ANNOTATED-GOLD
#LibraryQualityString Gold
#TaskID 77f51c88eb8b467eb4a01dd2d0cb90d2
##Scan# 1096
#SpectrumFile Plate2_21_40_GG6_01_16494.mzXML
#LibraryName FDALibrary_2_04302014.mgf
#MQScore -1
#Organism FDALibrary_2_04302014
#TIC_Query 0
#RT_Query -1
#MZErrorPPM -1
#SharedPeaks 0
#MassDiff 0
#LibMZ -1
#SpecMZ 239.103
#SpecCharge 0
#internalFilename spec-00000.mgf

>collision 10
45.026814 216.0
45.428371 152.0
45.779175 200.0
45.892365 224.0
47.004654 224.0
49.898457 172.0
50.044785 156.0
51.124859 144.0
51.58556 140.0
53.385021 140.0
54.0868 280.0
54.158546 160.0
54.30072 160.0
54.554749 244.0
57.232983 212.0
58.669319 184.0
58.72879 200.0
58.947109 172.0
59.323624 332.0
60.348988 192.0
60.605927 172.0
62.283051 200.0
68.813683 156.0
68.962357 192.0
73.398293 160.0
75.292877 148.0
75.571182 208.0
76.179718 212.0
76.456177 144.0
76.78022 148.0
79.4132 164.0
85.004906 204.0
88.525375 176.0
89.129395 144.0
91.056496 312.0
94.836258 152.0
96.174469 144.0
97.09993 176.0
99.910858 172.0
101.216187 140.0
101.38446 180.0
104.148613 164.0
105.323906 204.0
107.256851 224.0
110.147438 164.0
111.890129 140.0
112.531067 148.0
112.712715 180.0
112.824738 176.0
114.908211 208.0
115.054382 1544.0
115.711815 164.0
116.057266 140.0
117.069878 9060.0
118.073677 440.0
119.08152 184.0
124.012741 172.0
132.248459 172.0
132.991104 220.0
135.074127 160.0
137.04982 224.0
144.97142 164.0
147.450256 148.0
155.541122 148.0
156.996643 168.0
160.954071 160.0
163.786942 156.0
163.998428 192.0
164.973541 144.0
166.036163 152.0
168.928741 148.0
178.00589 204.0
178.086685 5016.0
179.087997 604.0
180.096542 176.0
180.569626 152.0
186.104889 180.0
192.024231 140.0
197.051559 216.0
200.074921 180.0
212.030319 156.0
237.22702 192.0
239.01741 140.0
239.092911 164.0
239.223358 140.0
251.108948 152.0
254.946091 172.0
284.957794 164.0
348.241974 176.0
1254.634399 188.0
1462.702637 236.0
1514.442505 188.0
1546.256104 156.0
1573.706909 144.0
1604.084473 200.0
1635.710205 196.0
1638.480469 164.0
1653.855957 184.0
1668.002319 172.0
1695.967651 160.0
1724.768799 216.0
1747.200562 140.0
1769.994873 164.0
1810.983765 196.0
1828.882446 184.0
1837.557617 200.0
1859.283936 164.0
1860.730713 200.0
1864.763428 176.0
1871.395996 164.0
1873.144165 176.0
1880.801392 180.0
1894.264893 224.0
1894.377563 224.0
1900.342163 248.0
1902.199463 172.0
1910.942261 180.0
1923.002808 160.0
1927.439209 200.0
1935.293945 164.0
1940.314331 192.0
1972.932739 156.0
2002.624268 188.0
