>compound MLS002472923-01!7-methoxy-8-(3-methyl-2-oxobutyl)chromen-2-one
>formula C15H16O4
>ionization [M+H]+
>parentmass 261.113
#inchi InChI=1S/C15H16O4/c1-9(2)12(16)8-11-13(18-3)6-4-10-5-7-14(17)19-15(10)11/h4-7,9H,8H2,1-3H3
#inchikey OMOYQLRHKFGVGN
#Ion_Source LC-ESI
#Instrument qTof
#Compound_Source NIH Natural Product Library
#PI Dorrestein
#Data_Collector VVP/LMS
#Scan -1
#Precursor_MZ 261.113
#ExactMass 260.105
#Charge 1
#CAS_Number N/A
#Pubmed_ID N/A
#Smiles COc1ccc2ccc(=O)oc2c1CC(=O)C(C)C
#INCHI_AUX N/A
#Library_Class 1
#SpectrumID CCMSLIB00000080097
#IonMode Positive
#UpdateWorkflowName UPDATE-SINGLE-ANNOTATED-GOLD
#LibraryQualityString Gold
#TaskID b1d8e8f6646f4e71acdff9ca3d919d08
##Scan# 2054
#SpectrumFile p2-A04_GA4_01_17981.mzXML
#LibraryName NIH_Natural_Products_Library.mgf
#MQScore -1
#Organism NIH_Natural_Products_Library
#TIC_Query 0
#RT_Query -1
#MZErrorPPM -1
#SharedPeaks 0
#MassDiff 0
#LibMZ -1
#SpecMZ 261.113
#SpecCharge 0
#internalFilename spec-00000.mgf

>collision 10
94.952026 160.0
94.996635 176.0
95.328651 88.0
95.639832 152.0
95.869652 164.0
96.218803 80.0
96.242233 172.0
96.363335 160.0
96.427818 176.0
96.468872 216.0
96.67424 116.0
96.731003 196.0
96.817154 148.0
96.934692 168.0
97.140564 128.0
97.207268 56.0
97.387894 100.0
97.429138 192.0
97.533295 200.0
97.572609 208.0
97.615868 40.0
98.060966 216.0
98.202759 204.0
98.506737 180.0
98.544273 140.0
98.568329 184.0
99.240982 168.0
99.479057 148.0
99.494942 104.0
99.630524 164.0
99.747238 84.0
99.765129 148.0
99.968002 176.0
100.222893 184.0
100.471207 144.0
100.543953 180.0
100.665726 132.0
100.907501 136.0
101.305763 124.0
101.387917 176.0
101.428001 144.0
101.442039 208.0
101.554329 72.0
101.624542 212.0
101.809219 104.0
101.83934 92.0
101.925728 128.0
101.994064 252.0
102.045166 1792.0
102.211266 152.0
102.374321 160.0
102.444817 216.0
102.569756 188.0
102.626205 156.0
102.769417 116.0
102.819862 124.0
102.922821 92.0
102.968269 172.0
103.007217 208.0
103.0336 236.0
103.054604 21100.0
103.098564 40.0
103.126862 72.0
103.193573 76.0
103.219856 48.0
103.276482 72.0
103.495049 88.0
103.582138 116.0
103.653046 164.0
103.949104 124.0
104.058067 1872.0
104.099327 72.0
104.135887 140.0
104.174988 112.0
104.227303 36.0
104.272011 92.0
104.302979 188.0
104.377724 252.0
104.400093 176.0
104.49366 36.0
104.538429 200.0
104.562851 144.0
104.640198 132.0
104.660561 92.0
104.711472 180.0
104.788879 156.0
104.843193 112.0
104.872437 196.0
104.890778 184.0
105.029442 156.0
105.069092 964.0
105.115128 52.0
105.21106 144.0
105.237373 180.0
105.439835 76.0
105.482758 172.0
105.531822 204.0
105.738434 68.0
105.828506 132.0
105.91452 124.0
106.084862 188.0
106.129707 212.0
106.32869 128.0
106.597717 92.0
106.626488 164.0
106.739555 144.0
106.807426 36.0
106.836227 148.0
106.904129 108.0
107.093536 200.0
107.148743 180.0
107.256317 164.0
107.850792 40.0
108.200012 192.0
108.807854 180.0
108.886765 164.0
108.903381 60.0
108.961319 180.0
109.003105 176.0
109.086235 216.0
109.252609 48.0
109.673248 120.0
109.689926 100.0
109.944382 68.0
109.99865 72.0
110.153183 60.0
110.24929 168.0
110.276459 124.0
110.303635 156.0
110.343353 180.0
110.414452 72.0
110.498123 228.0
110.625786 168.0
110.703255 172.0
110.762856 44.0
110.858276 60.0
110.925346 160.0
111.088913 188.0
111.120384 120.0
111.223213 104.0
111.513077 124.0
111.578239 192.0
111.832779 200.0
112.015968 164.0
112.045464 160.0
112.114998 148.0
112.332169 88.0
112.416565 80.0
112.608688 220.0
112.63826 216.0
112.737556 196.0
113.00399 148.0
113.266502 208.0
113.387276 200.0
113.465706 152.0
113.578102 172.0
113.807304 60.0
113.958107 128.0
114.045235 160.0
114.551674 116.0
115.054306 2060.0
115.557213 180.0
115.587166 148.0
115.659935 168.0
116.062592 212.0
116.391006 68.0
116.440399 148.0
116.461876 224.0
116.724579 64.0
116.747726 52.0
116.840218 128.0
116.861732 136.0
116.878944 52.0
116.997322 144.0
117.018852 112.0
117.03392 376.0
117.048996 244.0
117.070793 892.0
117.354973 160.0
117.391624 148.0
117.406723 164.0
117.480057 168.0
117.542633 176.0
117.572838 176.0
117.600899 192.0
117.920563 160.0
117.955147 168.0
118.039505 1036.0
118.073082 132.0
118.160591 60.0
118.234161 176.0
118.266624 192.0
118.55468 124.0
118.736794 148.0
118.895164 124.0
118.919037 172.0
119.048927 328.0
119.088394 112.0
119.266571 112.0
119.442696 208.0
119.666855 200.0
119.963142 100.0
120.002388 160.0
120.172516 144.0
120.196518 40.0
120.23143 116.0
120.683617 148.0
121.024956 180.0
121.063446 356.0
121.127884 172.0
121.156364 100.0
121.217712 160.0
121.26593 220.0
121.410629 136.0
121.428177 160.0
121.476433 164.0
121.82328 136.0
122.073845 152.0
122.390717 140.0
122.785179 272.0
122.820465 196.0
122.937401 136.0
123.140511 144.0
123.213409 128.0
123.248764 192.0
123.524826 152.0
123.643456 124.0
123.761925 212.0
123.808434 156.0
124.027779 224.0
124.289474 160.0
124.573662 156.0
124.633865 200.0
124.855942 172.0
124.953194 184.0
124.98497 48.0
125.049507 164.0
125.13855 120.0
125.84758 152.0
125.892242 56.0
126.046379 124.0
126.419823 176.0
126.480255 76.0
126.542938 180.0
126.558609 96.0
126.605637 104.0
126.670593 136.0
127.054909 336.0
127.327789 180.0
127.518761 132.0
127.577202 152.0
127.78186 112.0
127.826866 132.0
127.860939 140.0
128.062439 1636.0
128.112808 108.0
128.151108 144.0
128.248016 188.0
128.302109 184.0
128.529922 56.0
128.620193 208.0
129.042648 164.0
129.070602 700.0
129.090134 156.0
129.110489 180.0
129.194168 60.0
129.232635 156.0
129.613037 144.0
129.791122 172.0
129.847504 168.0
129.885101 168.0
129.973572 36.0
130.045197 208.0
130.076996 324.0
130.400513 236.0
130.449249 172.0
130.49144 200.0
130.514191 356.0
130.546341 84.0
130.671127 216.0
130.761627 124.0
130.816772 132.0
130.912399 132.0
130.987564 116.0
131.0103 184.0
131.018524 332.0
131.04982 74176.0
131.088791 188.0
131.117279 312.0
131.144333 80.0
131.169861 40.0
131.199509 28.0
131.217743 60.0
131.254364 192.0
131.29631 128.0
131.313522 40.0
131.329483 36.0
131.385712 68.0
131.40303 108.0
131.426041 164.0
131.464096 188.0
131.480057 144.0
131.514297 48.0
131.537125 64.0
131.589478 56.0
131.607895 64.0
131.658432 152.0
131.683258 36.0
131.73111 76.0
131.777847 88.0
131.835648 172.0
131.934616 48.0
131.952911 60.0
132.05278 5084.0
132.119858 68.0
132.145035 108.0
132.16333 40.0
132.204239 64.0
132.277771 52.0
132.351028 72.0
132.37851 60.0
132.584137 84.0
132.616776 68.0
132.724884 128.0
132.78363 108.0
132.800201 96.0
132.89151 100.0
132.960922 120.0
133.005722 120.0
133.062134 1404.0
133.116974 104.0
133.189743 96.0
133.279999 108.0
133.314468 56.0
133.342056 56.0
133.371933 40.0
133.440903 56.0
133.527405 116.0
133.636398 144.0
133.836655 128.0
134.068161 328.0
134.111923 148.0
134.149979 44.0
134.279114 96.0
134.590652 188.0
134.775436 120.0
134.814728 68.0
135.025101 188.0
135.087555 336.0
135.281952 96.0
135.33519 52.0
135.634048 44.0
136.086441 184.0
136.216492 204.0
136.444244 124.0
137.044724 100.0
137.462112 208.0
137.508789 132.0
137.690887 88.0
137.811203 144.0
137.835739 100.0
138.725113 152.0
138.793106 144.0
138.861115 112.0
139.034729 164.0
139.05452 144.0
139.805573 80.0
140.059845 144.0
140.456116 180.0
140.814621 200.0
141.073303 488.0
141.199875 128.0
141.713562 184.0
141.730148 64.0
141.907913 72.0
142.040726 204.0
142.076309 320.0
142.256668 264.0
142.848373 40.0
142.900711 128.0
143.047989 360.0
143.086365 168.0
143.164932 156.0
143.429398 172.0
143.729904 128.0
143.875504 100.0
144.055588 316.0
144.095215 144.0
144.492096 60.0
144.736237 84.0
144.755386 124.0
144.82724 132.0
145.030991 364.0
145.064407 1956.0
145.129196 32.0
145.825378 52.0
145.866241 164.0
146.010513 156.0
146.039917 332.0
146.178909 152.0
146.407608 60.0
146.518402 148.0
146.660583 92.0
147.043442 1276.0
147.075104 140.0
147.273453 64.0
148.018341 184.0
148.04834 312.0
148.527298 192.0
149.022537 168.0
149.618408 104.0
150.774612 196.0
151.050903 120.0
151.183029 204.0
151.535645 76.0
152.060455 320.0
152.087418 152.0
152.274017 88.0
152.57135 112.0
153.067383 748.0
153.941177 144.0
154.007996 136.0
154.076447 260.0
155.016312 136.0
155.060364 396.0
155.084366 1300.0
155.183487 196.0
155.446411 52.0
155.473709 152.0
156.082336 220.0
157.063141 484.0
157.100998 160.0
157.28566 84.0
157.363052 164.0
158.035202 288.0
158.06958 176.0
158.097961 180.0
159.015228 156.0
159.044357 3016.0
159.085037 124.0
159.090942 200.0
159.842041 188.0
160.049576 772.0
160.542358 188.0
160.880463 180.0
160.900665 300.0
161.029449 160.0
161.059708 2284.0
161.165863 152.0
161.186081 36.0
161.226105 172.0
161.330139 304.0
161.577988 180.0
162.032806 444.0
162.065964 316.0
162.117325 68.0
162.274475 72.0
162.348022 40.0
162.400543 248.0
163.035889 172.0
163.074127 128.0
163.329468 136.0
163.445419 92.0
163.707611 212.0
163.987854 32.0
164.100021 136.0
164.125519 72.0
164.888809 120.0
165.067017 176.0
166.074265 120.0
166.484909 144.0
166.721252 160.0
167.078491 240.0
167.639984 148.0
168.058716 124.0
168.37265 76.0
169.066223 296.0
170.069855 264.0
170.102264 132.0
170.465881 84.0
170.645233 144.0
170.819473 92.0
171.044327 692.0
171.077103 288.0
171.955536 132.0
172.051575 328.0
172.088669 100.0
173.060944 1380.0
173.097992 128.0
173.163467 60.0
173.750641 100.0
173.821487 88.0
174.057724 128.0
174.588562 148.0
175.038467 940.0
175.386322 96.0
176.040115 256.0
176.668869 128.0
176.85228 72.0
177.054672 500.0
177.127655 96.0
177.620697 156.0
178.000229 188.0
178.526398 184.0
178.70195 104.0
179.077301 56.0
179.89325 132.0
181.010849 156.0
181.493164 124.0
182.981689 92.0
183.080765 200.0
184.051193 456.0
184.087463 176.0
184.676392 116.0
184.738602 176.0
184.979446 48.0
185.006516 152.0
185.058731 1652.0
186.031464 416.0
186.065582 408.0
186.264786 96.0
186.384323 188.0
186.620804 88.0
186.906403 244.0
187.037292 836.0
187.076447 600.0
187.208572 168.0
187.268478 68.0
187.873627 68.0
187.9664 188.0
188.044601 452.0
188.089218 248.0
188.146545 28.0
188.381393 200.0
188.654678 112.0
188.746124 188.0
188.791397 212.0
188.821472 120.0
188.919174 128.0
188.950043 60.0
188.991074 176.0
189.01297 176.0
189.055222 23332.0
189.102371 216.0
189.150528 184.0
189.23468 48.0
189.271271 44.0
189.345581 96.0
189.368866 112.0
189.394485 56.0
189.415421 52.0
189.460388 68.0
189.494873 56.0
189.543274 100.0
189.618195 32.0
189.662048 44.0
189.708786 76.0
189.7388 80.0
189.815567 60.0
189.870422 48.0
189.91156 36.0
189.988373 40.0
190.019287 164.0
190.056305 2464.0
190.122818 160.0
190.163986 40.0
190.196915 56.0
190.217743 84.0
190.386368 68.0
190.427567 48.0
190.467896 88.0
190.512711 140.0
190.549805 92.0
190.570419 60.0
190.611633 80.0
190.782043 68.0
190.974518 192.0
191.060623 584.0
191.128586 124.0
191.315735 92.0
191.334274 220.0
191.401093 72.0
191.544312 92.0
191.596649 68.0
191.618683 28.0
191.770248 108.0
192.291534 124.0
192.468216 88.0
192.683655 56.0
193.073395 112.0
193.272568 32.0
193.36113 72.0
193.505081 48.0
195.336716 68.0
196.19722 88.0
196.236252 120.0
197.056351 140.0
198.053619 180.0
198.243256 272.0
199.037262 540.0
199.06601 260.0
199.902908 80.0
200.045807 156.0
200.080612 168.0
200.824173 84.0
201.054535 816.0
201.086655 132.0
201.111969 104.0
201.179718 40.0
201.327179 68.0
202.05188 308.0
203.041565 164.0
203.069138 760.0
203.30542 72.0
204.029724 264.0
204.073547 164.0
204.667053 132.0
204.826538 116.0
205.038986 156.0
205.077286 164.0
205.102936 108.0
207.59462 20.0
212.078125 304.0
212.621658 76.0
213.056396 532.0
213.115326 36.0
214.05928 144.0
215.069946 172.0
215.735443 56.0
216.156616 56.0
217.081345 200.0
218.083755 184.0
218.403931 32.0
218.836533 76.0
219.063782 640.0
220.070084 184.0
222.063538 76.0
223.031494 108.0
224.699158 176.0
227.071747 168.0
228.078171 276.0
229.112335 36.0
231.092896 160.0
231.922668 48.0
237.545654 52.0
239.18042 144.0
243.1017 300.0
244.103195 164.0
244.18367 96.0
248.456909 44.0
249.135025 60.0
251.023514 228.0
261.135468 144.0
263.298096 120.0
266.138062 176.0
266.300446 96.0
268.562561 128.0
273.981262 128.0
287.614563 72.0
291.995544 168.0
292.938416 100.0
302.973389 96.0
307.937256 56.0
311.499512 44.0
319.898285 48.0
320.079865 56.0
321.812775 96.0
332.827545 80.0
338.582031 48.0
344.027649 52.0
348.575928 64.0
368.942444 44.0
374.568237 92.0
378.302429 68.0
390.960815 64.0
398.827545 96.0
422.0224 84.0
437.806793 48.0
441.420685 112.0
458.467743 60.0
461.404449 80.0
493.212433 80.0
500.198792 96.0
502.757141 20.0
514.192505 116.0
523.049133 40.0
554.95697 32.0
563.839783 40.0
601.217773 156.0
608.157837 52.0
615.735168 160.0
651.28949 196.0
656.934692 148.0
657.307129 236.0
662.204651 40.0
668.853943 228.0
688.431702 176.0
696.01416 48.0
710.215942 124.0
718.621216 72.0
727.870483 212.0
735.666504 116.0
744.720276 96.0
762.636536 120.0
763.224731 188.0
772.457031 140.0
773.159729 136.0
775.901611 160.0
830.75946 180.0
836.972351 48.0
845.434937 144.0
846.963379 192.0
847.69342 192.0
850.947388 156.0
859.766113 176.0
859.830322 156.0
861.412659 204.0
867.486816 152.0
871.777283 196.0
877.817017 60.0
878.4776 308.0
879.852661 172.0
887.633118 80.0
888.113525 172.0
892.008728 136.0
892.0979 184.0
892.543823 180.0
897.58728 196.0
899.526306 132.0
911.126099 148.0
918.198792 176.0
925.113953 196.0
927.303955 124.0
929.541748 52.0
934.578979 224.0
939.825134 124.0
940.179077 164.0
941.619873 232.0
950.895325 152.0
953.493225 160.0
957.849426 120.0
963.166565 104.0
964.674316 36.0
966.028564 244.0
966.92572 100.0
972.894897 176.0
974.161743 128.0
978.782776 200.0
979.997314 220.0
987.482117 176.0
992.861938 100.0
997.005371 124.0
997.099609 56.0
998.180908 112.0
1000.993652 172.0
1001.541565 108.0
1002.121155 156.0
1002.209351 156.0
1004.510498 156.0
1007.464844 180.0
1009.689758 160.0
1010.379211 136.0
1019.300171 220.0
1020.012024 168.0
1021.334595 184.0
1024.581055 180.0
1030.086426 220.0
1040.325928 156.0
1040.640625 148.0
1042.233521 180.0
1044.682983 176.0
1050.18396 156.0
1052.474976 136.0
1052.914062 152.0
1053.430786 144.0
1053.637451 144.0
1057.348999 204.0
1062.143677 124.0
1063.013062 140.0
1063.590576 132.0
1065.200928 76.0
1067.007568 136.0
1072.697266 144.0
1074.575562 188.0
1079.709717 120.0
1080.01062 176.0
1085.859497 216.0
1087.480103 160.0
1093.71106 160.0
1095.271606 164.0
1096.358643 164.0
1098.547729 144.0
1099.31311 132.0
1104.115845 188.0
1110.606445 176.0
1111.62146 104.0
1113.41394 132.0
1114.144531 140.0
1116.338013 60.0
1117.537964 168.0
1120.691284 180.0
1122.010864 188.0
1122.324219 228.0
1129.610474 140.0
1130.192505 256.0
1130.359863 128.0
1133.533813 176.0
1133.661133 108.0
1137.088135 192.0
1141.797729 132.0
1141.851562 244.0
1146.510254 164.0
1146.645142 152.0
1147.905762 208.0
1148.991699 140.0
1149.841919 156.0
1153.414795 48.0
1154.327515 140.0
1154.449341 176.0
1157.98877 168.0
1160.177368 148.0
1165.11792 244.0
1165.776978 92.0
1166.096436 124.0
1167.129761 172.0
1168.47644 92.0
1170.157471 152.0
1170.334473 176.0
1173.516357 192.0
1175.235229 208.0
1177.733765 172.0
1178.690186 164.0
1182.63623 192.0
1185.964966 140.0
1187.603638 232.0
1187.795776 188.0
1187.926025 52.0
1189.051392 176.0
1191.49585 176.0
1193.296509 156.0
1193.956665 216.0
1194.183594 100.0
1198.52063 60.0
1199.581909 148.0
1200.623047 148.0
1201.423218 88.0
1201.574707 132.0
1204.301636 200.0
1204.785156 132.0
1205.669556 216.0
1205.953003 108.0
1206.395386 188.0
1208.359375 228.0
1209.508179 156.0
1214.504028 140.0
1214.99646 176.0
1216.085938 44.0
1216.134521 176.0
1216.696777 144.0
1218.280151 124.0
1218.335815 128.0
1219.537842 152.0
1220.888184 168.0
1221.109253 216.0
1221.269165 188.0
1221.401367 164.0
1221.547363 64.0
1224.408813 184.0
1225.034912 56.0
1226.093994 172.0
1229.643921 144.0
1230.781738 156.0
1230.858643 192.0
1236.661011 136.0
1239.665527 92.0
1239.798584 32.0
1242.610474 100.0
1242.884033 128.0
1243.080566 192.0
1244.042114 192.0
1244.358032 160.0
1247.125732 148.0
1250.924194 200.0
1251.381714 228.0
1252.304199 172.0
1252.83252 180.0
1254.079712 136.0
1256.131592 176.0
1257.874634 144.0
1258.245239 176.0
1259.442139 104.0
1260.975342 136.0
1262.318481 108.0
1262.516479 144.0
1263.032837 196.0
1263.888916 120.0
1264.497437 148.0
1265.531006 164.0
1266.239136 188.0
1266.614502 172.0
1267.542603 176.0
1268.279663 184.0
1268.343384 184.0
1268.51355 212.0
1268.648193 176.0
1269.513306 164.0
1272.976196 152.0
1273.544434 168.0
1273.871094 112.0
1275.83252 136.0
1276.550659 204.0
1276.721313 32.0
1277.254761 156.0
1278.371704 56.0
1278.457153 200.0
1278.506958 208.0
1280.863525 180.0
1280.941895 172.0
1285.447876 144.0
1285.497803 180.0
1287.817993 208.0
1289.168335 208.0
1290.090332 168.0
1290.369141 272.0
1291.74939 196.0
1292.271606 56.0
1292.536377 180.0
1293.173218 256.0
1293.502441 96.0
1294.78418 164.0
1295.529053 252.0
1295.61499 148.0
1296.109375 164.0
1298.317261 212.0
1298.388916 84.0
1301.259155 124.0
1301.675659 164.0
1301.912598 80.0
1303.126587 164.0
1303.996094 124.0
1304.09668 136.0
1305.649658 240.0
1305.750366 172.0
1305.83667 108.0
1306.793335 232.0
1307.174683 120.0
1307.714478 96.0
1310.803955 112.0
1310.85437 104.0
1313.363281 136.0
1314.120728 144.0
1314.221802 164.0
1314.683594 76.0
1314.914551 196.0
1315.196045 128.0
1316.741089 228.0
1317.457886 88.0
1317.658447 148.0
1317.730713 112.0
1319.725586 172.0
1320.181152 176.0
1322.307983 164.0
1323.220093 208.0
1323.669067 160.0
1323.835571 188.0
1330.557007 172.0
1331.014526 228.0
1331.32666 108.0
1331.500977 204.0
1332.648682 108.0
1332.975708 112.0
1333.331787 160.0
1334.022339 108.0
1336.196777 148.0
1337.069946 136.0
1337.244629 120.0
1337.958008 192.0
1338.322021 72.0
1338.766113 60.0
1343.184204 156.0
1343.292358 52.0
1344.751099 152.0
1344.824585 164.0
1346.628052 92.0
1346.905518 160.0
1347.044312 168.0
1347.358521 204.0
1347.671143 196.0
1350.289673 176.0
1350.677246 76.0
1352.169922 196.0
1352.630981 148.0
1352.85791 104.0
1352.982422 248.0
1354.732666 100.0
1356.132202 172.0
1356.242188 208.0
1358.962769 176.0
1359.791992 44.0
1360.261841 224.0
1361.847778 228.0
1361.928589 80.0
1362.030884 180.0
1362.942383 144.0
1364.066895 176.0
1364.868164 188.0
1365.265259 184.0
1366.125854 184.0
1368.282104 196.0
1369.009644 108.0
1369.106812 180.0
1369.307983 188.0
1370.079102 168.0
1371.221191 164.0
1371.781372 184.0
1371.906738 200.0
1374.126465 192.0
1374.421631 52.0
1374.524902 184.0
1374.80542 204.0
1375.543457 156.0
1375.750122 168.0
1378.076538 224.0
1378.948486 220.0
1379.732056 208.0
1380.907715 236.0
1381.358887 108.0
1382.498413 256.0
1383.275513 92.0
1383.675293 144.0
1384.452759 160.0
1386.119507 236.0
1387.720459 156.0
1388.521362 140.0
1391.155396 156.0
1391.868164 136.0
1392.974731 108.0
1393.205078 204.0
1393.829102 188.0
1397.308838 68.0
1397.606445 132.0
1398.313354 148.0
1398.841797 164.0
1399.080078 152.0
1401.083374 204.0
1401.724121 112.0
1402.655762 188.0
1402.819702 88.0
1402.931519 152.0
1409.081055 104.0
1413.492432 132.0
1415.498535 120.0
1415.603271 168.0
1417.708374 100.0
1418.187988 164.0
1418.2854 184.0
1420.422485 148.0
1421.150146 128.0
1422.275879 176.0
1423.702271 164.0
1424.603638 48.0
1425.602905 212.0
1426.196655 176.0
1428.775879 116.0
1433.323486 172.0
1433.662598 136.0
1437.546265 148.0
1437.780273 160.0
1438.029297 92.0
1441.7677 100.0
1442.001953 136.0
1444.519897 220.0
1446.763916 204.0
1447.236816 152.0
1447.501831 76.0
1449.168213 188.0
1452.670654 100.0
1453.216919 204.0
1453.32312 172.0
1454.970093 36.0
1455.539062 144.0
1455.926758 120.0
1457.582886 152.0
1457.894409 188.0
1458.373169 128.0
1458.487183 140.0
1460.304443 120.0
1463.310181 196.0
1466.578247 168.0
1467.83606 160.0
1471.300049 156.0
1471.468018 176.0
1472.17041 144.0
1472.231567 116.0
1473.950317 192.0
1474.126099 132.0
1476.373535 128.0
1477.000732 196.0
1477.260742 144.0
1477.413818 160.0
1477.536133 108.0
1478.30896 208.0
1478.530884 188.0
1479.755615 136.0
1479.977661 140.0
1481.019165 208.0
1481.317871 216.0
1482.344604 192.0
1482.827393 220.0
1483.563232 164.0
1483.670532 276.0
1484.391235 140.0
1486.89978 192.0
1487.659668 60.0
1488.796021 172.0
1489.348999 120.0
1490.094116 36.0
1490.16333 200.0
1491.977051 204.0
1492.307617 48.0
1492.36145 124.0
1499.289307 148.0
1502.435181 172.0
1502.612671 176.0
1503.361084 52.0
1503.530884 192.0
1504.233276 220.0
