>compound MLS002154042-01!Phthalylsulfathiazole85-73-4
>formula C17H13N3O5S2
>ionization [M+H]+
>parentmass 404.0369389680905
#inchi InChI=1S/C17H13N3O5S2/c21-15(13-3-1-2-4-14(13)16(22)23)19-11-5-7-12(8-6-11)27(24,25)20-17-18-9-10-26-17/h1-10H,(H,18,20)(H,19,21)(H,22,23)
#inchikey PBMSWVPMRUJMPE
#Ion_Source LC-ESI
#Instrument qTof
#Compound_Source NIH Pharmacologically Active Library
#PI Dorrestein
#Data_Collector VP/LMS
#Scan -1
#Precursor_MZ 404.043
#ExactMass 403.03
#Charge 1
#CAS_Number N/A
#Pubmed_ID N/A
#Smiles OC(=O)c1ccccc1C(=O)Nc2ccc(cc2)S(=O)(=O)Nc3nccs3
#INCHI_AUX N/A
#Library_Class 1
#SpectrumID CCMSLIB00000085619
#IonMode Positive
#UpdateWorkflowName UPDATE-SINGLE-ANNOTATED-GOLD
#LibraryQualityString Gold
#TaskID d252d724072548979f1f6f1ced849daf
##Scan# 1498
#SpectrumFile p4-D06_GD6_01_18366.mzXML
#LibraryName Pharm_Active_Library.mgf
#MQScore -1
#Organism Pharm_Active_Library
#TIC_Query 0
#RT_Query -1
#MZErrorPPM -1
#SharedPeaks 0
#MassDiff 0
#LibMZ -1
#SpecMZ 404.043
#SpecCharge 0
#internalFilename spec-00000.mgf

>collision 10
44.984032 88.0
45.159077 136.0
45.26614 152.0
45.296944 52.0
45.38942 184.0
45.690147 180.0
45.756226 128.0
45.78989 188.0
46.559433 144.0
46.973206 140.0
46.982754 80.0
47.04007 56.0
47.268314 204.0
47.342236 152.0
47.36689 136.0
47.505341 176.0
47.715462 124.0
47.884716 148.0
48.058411 172.0
48.16333 184.0
48.172997 264.0
48.240711 96.0
48.517586 188.0
49.001232 248.0
49.06813 196.0
49.093231 56.0
49.151817 248.0
49.34317 164.0
49.352959 208.0
49.823883 136.0
49.846363 36.0
50.482124 200.0
50.647713 132.0
50.704388 172.0
50.714306 172.0
51.140415 140.0
51.190243 196.0
51.371254 200.0
51.409775 152.0
51.592602 112.0
52.082687 136.0
52.543343 196.0
52.687714 76.0
53.011822 180.0
53.210537 164.0
53.406719 148.0
53.788483 220.0
54.111561 160.0
54.395966 80.0
54.473797 108.0
54.554619 160.0
55.012768 192.0
55.037868 60.0
55.794979 156.0
55.855949 144.0
55.9631 272.0
55.976501 316.0
56.076317 124.0
56.129982 204.0
56.270237 136.0
56.488426 200.0
56.500397 88.0
56.665081 168.0
57.059803 184.0
57.223793 224.0
57.309647 132.0
57.320194 172.0
57.338276 92.0
57.567585 156.0
57.739868 224.0
57.93816 220.0
57.956341 144.0
57.998775 96.0
58.203583 124.0
58.244587 116.0
58.3312 116.0
58.37225 196.0
58.437656 164.0
58.478745 168.0
58.901104 72.0
58.979034 168.0
59.200874 160.0
59.228443 208.0
59.288197 132.0
59.366383 148.0
59.401657 172.0
59.530582 136.0
59.725769 208.0
60.03688 192.0
60.650681 112.0
60.723557 184.0
60.841484 200.0
60.855457 168.0
61.23645 112.0
61.753067 120.0
62.361408 224.0
62.473049 200.0
63.301682 208.0
63.515636 48.0
63.561646 212.0
63.648949 152.0
64.378273 180.0
64.522079 196.0
64.638634 156.0
65.039505 164.0
65.534821 184.0
65.592842 160.0
65.665398 160.0
65.973808 188.0
66.229485 168.0
66.242439 224.0
66.63829 188.0
66.900124 188.0
67.41227 208.0
67.583969 140.0
67.608513 212.0
67.812492 160.0
67.852577 236.0
67.885368 152.0
68.133209 152.0
68.508301 200.0
68.834869 188.0
69.051361 180.0
69.075462 192.0
69.276474 184.0
69.392479 188.0
69.581619 208.0
69.729454 144.0
70.138908 132.0
70.334068 188.0
70.808914 204.0
71.211433 180.0
71.599945 144.0
72.237961 132.0
72.258263 212.0
72.510567 120.0
72.569901 152.0
72.878807 188.0
73.104965 216.0
73.297394 132.0
74.055908 156.0
74.697876 260.0
74.811447 172.0
75.054375 188.0
75.3629 220.0
75.505089 124.0
75.861778 104.0
76.036964 80.0
76.450584 36.0
76.558517 188.0
76.622963 152.0
76.741478 72.0
76.835663 268.0
77.382698 140.0
77.699921 140.0
77.757828 228.0
77.903572 192.0
77.947495 196.0
78.00901 164.0
78.197037 176.0
78.325752 168.0
78.470253 160.0
78.680206 180.0
79.104477 172.0
79.561852 164.0
79.732368 120.0
80.207588 132.0
80.493042 236.0
80.576988 132.0
80.646683 176.0
81.327316 84.0
81.93512 240.0
82.11718 64.0
82.256119 228.0
82.313889 152.0
82.736977 232.0
83.921555 212.0
83.947083 216.0
84.052887 208.0
84.343269 136.0
84.608513 212.0
84.960381 192.0
85.121902 132.0
85.382851 148.0
85.404922 224.0
86.077599 236.0
86.12355 132.0
86.338165 208.0
87.042351 116.0
87.414124 204.0
87.609627 152.0
87.747536 44.0
88.597885 180.0
89.21907 52.0
89.836761 188.0
90.186096 136.0
90.204994 152.0
90.291977 192.0
90.43576 100.0
90.467941 168.0
90.854546 156.0
91.588303 156.0
91.714066 124.0
91.77507 156.0
92.049423 868.0
92.210312 168.0
92.445541 168.0
92.585289 268.0
92.627426 188.0
92.849762 148.0
93.032043 168.0
93.056755 152.0
93.07428 124.0
93.124817 192.0
93.197212 72.0
93.331764 192.0
93.574188 128.0
93.595367 152.0
94.438713 156.0
94.55867 160.0
94.601257 164.0
94.763931 244.0
94.880219 144.0
95.037315 168.0
95.068367 176.0
95.204254 192.0
95.410217 184.0
95.505501 176.0
95.550247 136.0
95.865677 212.0
95.904655 252.0
96.171875 72.0
96.316368 152.0
96.681984 156.0
96.86142 216.0
96.991432 180.0
97.552849 188.0
97.725914 156.0
97.814476 156.0
97.847939 152.0
98.046883 52.0
98.096161 196.0
98.650871 132.0
98.702278 72.0
98.947617 172.0
98.9991 176.0
100.009605 512.0
101.015129 948.0
101.285561 132.0
101.341652 216.0
101.542114 136.0
101.598282 120.0
101.742775 52.0
101.81707 164.0
102.003929 160.0
102.404335 204.0
102.543358 164.0
102.712723 168.0
102.918579 60.0
103.023598 168.0
103.24189 140.0
104.010231 88.0
104.54837 196.0
104.743828 120.0
105.035706 280.0
105.263901 140.0
105.48455 148.0
105.938843 44.0
105.973671 224.0
106.304504 152.0
106.611877 204.0
106.739288 116.0
106.75779 172.0
106.895622 172.0
106.910027 128.0
107.565445 164.0
108.04425 6416.0
108.17318 84.0
108.22287 96.0
108.291206 204.0
108.324348 128.0
108.473549 60.0
108.546112 228.0
108.564774 52.0
109.006943 152.0
109.048439 792.0
109.112946 192.0
109.65416 100.0
109.768822 108.0
109.91066 68.0
110.052597 136.0
110.075569 144.0
110.113159 224.0
110.332558 28.0
110.723846 180.0
110.93338 100.0
111.201866 224.0
111.439163 172.0
111.847137 172.0
111.950302 156.0
112.070374 148.0
112.167313 160.0
112.477394 224.0
112.530167 168.0
112.965523 164.0
113.124229 140.0
114.063957 200.0
114.102219 180.0
114.151123 232.0
114.625748 220.0
114.841141 212.0
114.873138 100.0
114.92112 196.0
115.018242 116.0
115.055695 132.0
115.182655 76.0
115.293762 164.0
115.364296 196.0
115.38781 200.0
115.605988 144.0
116.008652 112.0
116.637611 144.0
116.777367 196.0
117.039391 264.0
117.65654 180.0
118.658226 64.0
118.796875 276.0
119.05748 144.0
119.198685 112.0
119.479164 152.0
119.879799 32.0
120.219994 232.0
120.241814 44.0
120.298561 180.0
120.318214 140.0
120.589073 200.0
120.685265 156.0
121.029388 2272.0
121.105431 164.0
121.682167 84.0
121.991928 220.0
122.029404 348.0
122.348312 100.0
122.588394 72.0
122.985374 228.0
123.053802 56.0
123.323311 136.0
123.502403 136.0
124.244492 168.0
124.275551 184.0
124.890907 120.0
125.253723 212.0
125.284912 224.0
125.407471 172.0
125.802284 208.0
126.37442 176.0
126.428123 120.0
127.051025 144.0
127.093658 140.0
127.354073 124.0
127.425957 148.0
127.657471 116.0
128.594666 92.0
128.703033 152.0
129.107513 196.0
129.687103 148.0
130.030411 152.0
130.452072 144.0
130.624893 128.0
131.084793 256.0
131.294525 160.0
131.48616 56.0
132.032181 140.0
132.641205 156.0
133.029785 180.0
133.352753 180.0
133.373444 152.0
133.407928 196.0
133.497589 276.0
133.688538 168.0
133.750671 200.0
133.895721 188.0
134.509033 124.0
135.146881 100.0
135.341309 124.0
136.503845 188.0
136.703888 192.0
136.831909 204.0
137.13707 128.0
137.624634 192.0
137.937683 40.0
138.02887 132.0
138.12709 196.0
138.386856 208.0
138.473511 40.0
138.682037 196.0
138.700775 164.0
138.724228 80.0
138.95874 196.0
139.055969 456.0
139.313248 132.0
139.884674 132.0
139.922348 100.0
140.017288 632.0
140.048843 400.0
140.556366 132.0
141.009781 172.0
141.058289 208.0
141.246231 128.0
141.288803 164.0
141.385818 152.0
141.485229 56.0
141.778946 192.0
142.405289 96.0
142.849777 184.0
143.052048 112.0
143.118713 148.0
143.163956 220.0
143.285431 196.0
143.779022 152.0
144.512619 112.0
144.586792 168.0
145.202515 156.0
146.177856 112.0
146.604095 100.0
147.274811 152.0
148.148041 180.0
148.254654 136.0
148.38797 168.0
148.443741 188.0
148.489822 176.0
148.582001 80.0
148.70993 160.0
148.732452 160.0
148.85141 220.0
148.904831 140.0
148.945526 168.0
148.969711 96.0
149.022858 33088.0
149.069366 228.0
149.102127 124.0
149.119324 100.0
149.151154 192.0
149.198853 80.0
149.224991 96.0
149.265717 80.0
149.290039 120.0
149.305206 228.0
149.359344 80.0
149.402237 76.0
149.448151 96.0
149.4664 76.0
149.496704 44.0
149.534531 84.0
149.570572 224.0
149.65625 52.0
149.729309 60.0
149.75853 100.0
149.812119 104.0
149.843796 160.0
150.025314 2652.0
150.058273 60.0
150.102158 152.0
150.148483 156.0
150.167999 88.0
150.202148 56.0
150.358307 92.0
150.404678 144.0
150.485229 104.0
150.639099 60.0
150.719711 200.0
150.856583 80.0
150.881027 84.0
150.964157 52.0
151.030579 172.0
151.079117 92.0
151.096237 80.0
151.12706 128.0
151.189224 228.0
151.216141 64.0
151.254501 140.0
151.292313 152.0
151.33609 184.0
151.409561 80.0
151.509979 60.0
151.909576 92.0
151.953735 76.0
152.027344 56.0
152.056793 212.0
152.422699 288.0
152.491516 60.0
153.063385 172.0
153.905533 40.0
154.315689 164.0
155.467514 220.0
155.636307 176.0
155.656174 152.0
155.758224 228.0
155.934418 156.0
155.957321 168.0
156.010605 8836.0
156.083572 192.0
156.128326 84.0
156.260162 88.0
156.285049 60.0
156.44931 80.0
156.576294 32.0
157.015579 684.0
157.069794 128.0
157.669022 112.0
158.007843 592.0
158.191788 144.0
158.249359 92.0
158.281906 60.0
158.309464 108.0
159.33786 56.0
159.576614 176.0
159.782852 124.0
160.28894 88.0
160.568756 116.0
161.57663 80.0
161.857574 168.0
161.979141 56.0
162.293396 188.0
162.960983 316.0
163.746964 36.0
164.953842 144.0
165.035645 108.0
165.05867 140.0
166.063965 2128.0
166.108124 172.0
166.262665 88.0
167.03801 180.0
167.070007 936.0
167.288223 64.0
167.852448 100.0
168.033005 156.0
168.071701 172.0
168.211075 68.0
168.800125 56.0
169.04071 140.0
169.10022 144.0
169.141632 52.0
169.556046 184.0
170.009888 176.0
170.054016 172.0
170.072174 132.0
171.04068 212.0
173.015228 268.0
173.455322 100.0
174.560638 128.0
175.034988 180.0
176.511978 160.0
176.535782 56.0
177.057114 132.0
178.062759 172.0
178.56192 132.0
179.069443 204.0
180.070419 192.0
180.463242 172.0
180.700333 156.0
183.059952 180.0
183.07489 184.0
183.18187 128.0
184.043991 180.0
184.072861 148.0
185.072357 148.0
187.318344 160.0
187.375549 196.0
187.58812 108.0
188.196503 172.0
188.45871 132.0
189.588852 168.0
189.964478 148.0
190.045944 248.0
190.11264 108.0
190.887299 104.0
191.048096 196.0
191.313766 56.0
191.680084 184.0
191.75174 124.0
192.035706 120.0
192.055023 204.0
192.922089 44.0
193.052551 128.0
193.707993 200.0
194.058044 1892.0
195.06839 1044.0
195.215073 48.0
195.474487 188.0
196.071518 316.0
198.058121 296.0
198.799194 180.0
198.869354 168.0
199.071487 104.0
200.137207 148.0
200.430145 184.0
200.452682 100.0
202.44989 220.0
203.527451 224.0
205.057922 40.0
205.514191 148.0
206.062378 72.0
206.122391 204.0
208.072922 80.0
210.045609 288.0
210.148026 164.0
210.171112 136.0
210.826614 92.0
211.067047 184.0
212.065796 192.0
213.063507 124.0
213.313431 172.0
214.378677 112.0
215.084473 40.0
215.782669 276.0
215.876236 72.0
215.984451 128.0
218.174973 108.0
218.301407 120.0
218.872269 156.0
219.140305 76.0
220.122528 68.0
220.488846 84.0
221.323044 196.0
221.64888 192.0
221.76445 112.0
221.87413 200.0
221.942322 56.0
222.054443 9504.0
222.09111 164.0
222.244858 108.0
222.307175 60.0
222.470428 148.0
222.615906 96.0
222.636703 96.0
223.005096 132.0
223.05954 5032.0
223.173462 132.0
223.244751 72.0
223.406525 52.0
223.626587 88.0
224.06662 1036.0
224.100204 44.0
224.380371 96.0
224.419128 224.0
224.475784 108.0
224.642792 72.0
224.708435 56.0
224.812866 120.0
224.836746 88.0
224.991959 184.0
225.076401 128.0
225.156189 72.0
225.753876 136.0
226.550034 88.0
226.942642 88.0
228.332993 88.0
229.594864 164.0
229.911636 56.0
230.696945 124.0
230.811844 60.0
231.022614 152.0
231.065903 144.0
231.365524 160.0
231.571426 76.0
231.701675 64.0
231.919861 160.0
233.079163 144.0
233.711609 136.0
233.738998 136.0
234.079926 108.0
235.464447 48.0
236.07872 164.0
236.158234 148.0
237.138 80.0
237.751373 172.0
237.812759 52.0
238.050278 812.0
238.470032 120.0
239.052094 304.0
239.189377 120.0
239.510025 124.0
239.753418 48.0
240.065186 3528.0
240.11412 116.0
240.169632 72.0
240.240585 68.0
240.305374 128.0
240.493622 40.0
240.740601 124.0
241.069046 612.0
241.166168 128.0
241.231857 80.0
241.674118 80.0
242.600143 96.0
242.640442 96.0
242.708649 112.0
242.925751 84.0
243.068466 144.0
243.440979 164.0
243.577637 60.0
245.176865 48.0
246.72818 124.0
248.805267 140.0
250.063019 416.0
250.116119 40.0
251.051865 312.0
251.196945 40.0
253.42894 152.0
254.03447 180.0
254.437515 52.0
254.56134 116.0
254.971146 272.0
255.05101 5988.0
255.231812 56.0
255.511703 72.0
256.018799 784.0
256.054565 792.0
256.352295 48.0
256.416046 128.0
256.540344 52.0
256.594543 76.0
256.83371 40.0
256.897522 88.0
257.021942 320.0
257.06015 280.0
257.264496 108.0
257.318787 44.0
257.705231 44.0
257.823456 72.0
257.868195 72.0
257.992859 96.0
258.015259 120.0
259.266785 60.0
260.325439 76.0
261.824036 104.0
262.068848 172.0
264.02179 88.0
265.355896 64.0
268.532928 64.0
269.038696 192.0
269.352173 104.0
269.75412 152.0
270.015686 164.0
271.040314 164.0
271.932312 108.0
279.091095 172.0
280.066925 228.0
280.629364 72.0
285.030914 104.0
286.018188 588.0
286.268799 80.0
287.019836 236.0
287.300201 128.0
288.029327 120.0
288.066498 92.0
290.249451 60.0
293.101318 136.0
294.069855 192.0
295.549561 36.0
296.045898 52.0
297.238831 56.0
297.48938 168.0
298.045746 124.0
302.089874 68.0
303.926086 152.0
304.027222 660.0
305.038574 148.0
305.228668 76.0
306.015015 104.0
307.018555 128.0
320.047302 160.0
322.059662 88.0
323.066223 80.0
324.065094 172.0
333.233185 132.0
333.738403 32.0
341.557434 84.0
351.710419 88.0
356.993073 48.0
367.169128 140.0
368.031555 104.0
369.931671 56.0
381.652771 96.0
385.078186 100.0
386.022797 1200.0
386.078674 140.0
386.963013 56.0
387.023834 372.0
388.024994 196.0
388.10318 76.0
389.33139 120.0
401.134277 96.0
401.166168 52.0
407.212219 48.0
408.249115 40.0
432.887512 112.0
434.321503 88.0
451.31665 36.0
455.826721 112.0
472.467499 52.0
500.266907 92.0
507.217651 88.0
561.749146 140.0
581.299622 104.0
607.550232 76.0
688.098145 56.0
735.067993 68.0
752.917603 72.0
870.473694 88.0
875.866821 160.0
897.778748 160.0
902.047729 244.0
916.397095 228.0
920.583252 72.0
922.015015 152.0
934.914368 188.0
939.032776 144.0
939.575684 160.0
946.329163 184.0
949.110901 116.0
955.46167 148.0
968.691223 196.0
970.048279 152.0
979.188354 136.0
983.733887 188.0
985.25769 164.0
1007.522644 188.0
1009.753967 164.0
1025.812012 256.0
1028.223145 100.0
1050.172241 164.0
1051.333496 56.0
1051.714355 188.0
1053.82605 256.0
1056.761353 104.0
1060.173828 108.0
1069.676025 136.0
1072.476929 200.0
1081.61499 140.0
1086.536499 172.0
1092.139893 212.0
1101.658447 92.0
1105.221924 204.0
1111.37085 136.0
1117.822876 124.0
1121.372559 184.0
1125.982666 108.0
1133.146851 48.0
1134.487305 148.0
1140.367432 112.0
1141.691772 104.0
1145.676514 116.0
1145.791016 68.0
1147.327637 200.0
1148.797729 192.0
1150.94397 204.0
1151.774658 192.0
1154.4375 164.0
1161.359131 164.0
1163.184448 196.0
1165.731323 104.0
1173.98877 252.0
1177.988403 164.0
1179.66272 184.0
1182.008545 112.0
1185.089844 76.0
1186.268555 192.0
1190.385254 180.0
1194.515869 152.0
1199.956299 204.0
1202.481079 136.0
1208.147217 200.0
1209.905029 212.0
1211.130615 184.0
1212.523315 80.0
1213.036255 132.0
1214.284302 168.0
1216.782349 44.0
1217.664307 132.0
1224.4104 196.0
1225.594727 48.0
1232.628296 212.0
1238.946289 104.0
1241.322266 208.0
1242.837402 232.0
1243.630493 236.0
1249.878052 144.0
1252.567383 64.0
1254.244507 180.0
1264.294922 104.0
1268.643921 176.0
1272.411011 220.0
1277.620361 184.0
1278.894043 148.0
1280.026001 140.0
1285.236694 56.0
1285.914551 200.0
1294.128296 144.0
1308.617432 144.0
1316.556519 148.0
1323.346436 204.0
1323.875122 60.0
1324.454468 228.0
1324.997803 116.0
1326.541382 56.0
1330.095825 52.0
1337.06604 140.0
1341.144775 148.0
1342.953003 140.0
1343.018555 44.0
1343.748047 168.0
1351.258789 272.0
1351.456299 152.0
1352.444336 92.0
1358.159546 236.0
1359.149902 188.0
1359.986572 156.0
1360.735352 128.0
1362.946045 148.0
1363.02063 148.0
1366.482666 36.0
1366.688721 228.0
1367.306885 192.0
1368.131226 152.0
1368.300537 164.0
1369.228394 160.0
1369.600586 204.0
1370.694336 176.0
1370.85144 248.0
1371.328125 64.0
1371.401855 172.0
1372.810059 156.0
1373.805786 112.0
1377.348999 160.0
1379.928101 80.0
1384.308594 136.0
1385.471436 148.0
1385.575195 220.0
1387.005371 232.0
1391.731079 244.0
1391.797974 164.0
1394.561523 184.0
1403.979614 172.0
1404.673218 216.0
1405.709473 176.0
1405.866211 164.0
1406.404297 228.0
1406.598389 172.0
1407.934937 136.0
1408.905884 192.0
1409.473755 172.0
1409.824951 232.0
1415.001099 240.0
1415.330566 152.0
1415.517822 148.0
1417.855103 148.0
1418.942017 212.0
1425.577271 96.0
1427.524292 152.0
1428.539673 128.0
1429.412476 184.0
1432.228149 184.0
1433.508911 252.0
1434.692261 156.0
1441.961304 84.0
1443.382446 176.0
1449.998901 188.0
1451.894287 36.0
1454.09436 180.0
1454.519409 192.0
1456.653198 148.0
1458.932983 76.0
1459.009033 192.0
1460.902588 172.0
1461.458008 136.0
1463.140015 176.0
1463.665405 164.0
1466.057251 140.0
1466.720337 180.0
1468.565552 88.0
1470.144897 232.0
1471.450073 184.0
1472.175537 240.0
1473.176025 264.0
1475.354004 224.0
1478.627808 108.0
1479.194214 192.0
1479.753174 212.0
1480.641357 84.0
1482.081543 160.0
1484.618774 168.0
1485.063599 188.0
1485.930542 176.0
1486.935669 104.0
1488.793579 236.0
1490.053345 156.0
1491.421143 172.0
1491.936279 140.0
1493.78186 196.0
1494.489624 152.0
1494.697388 152.0
1498.000244 176.0
1498.886353 40.0
1500.558838 88.0
1503.196777 144.0
1503.443726 124.0
