>compound MLS001048956-01!1-(6-methylsulfinylhexyl)-3-propan-2-ylurea
>formula C11H24N2O2S
>ionization [M+H]+
>parentmass 249.164
#inchi InChI=1S/C11H24N2O2S/c1-10(2)13-11(14)12-8-6-4-5-7-9-16(3)15/h10H,4-9H2,1-3H3,(H2,12,13,14)
#inchikey WUJKEABPANBOBA
#Ion_Source LC-ESI
#Instrument qTof
#Compound_Source NIH Natural Product Library
#PI Dorrestein
#Data_Collector VVP/LMS
#Scan -1
#Precursor_MZ 249.164
#ExactMass 248.156
#Charge 1
#CAS_Number N/A
#Pubmed_ID N/A
#Smiles CC(C)NC(=O)NCCCCCCS(=O)C
#INCHI_AUX N/A
#Library_Class 1
#SpectrumID CCMSLIB00000080402
#IonMode Positive
#UpdateWorkflowName UPDATE-SINGLE-ANNOTATED-GOLD
#LibraryQualityString Gold
#TaskID b1d8e8f6646f4e71acdff9ca3d919d08
##Scan# 1381
#SpectrumFile p2-D08_GD8_01_18020.mzXML
#LibraryName NIH_Natural_Products_Library.mgf
#MQScore -1
#Organism NIH_Natural_Products_Library
#TIC_Query 0
#RT_Query -1
#MZErrorPPM -1
#SharedPeaks 0
#MassDiff 0
#LibMZ -1
#SpecMZ 249.164
#SpecCharge 0
#internalFilename spec-00000.mgf

>collision 10
96.506302 148.0
97.064339 216.0
97.085907 164.0
97.7006 168.0
98.078773 76.0
98.096024 1384.0
98.319397 212.0
98.78569 44.0
99.096504 136.0
99.161896 76.0
100.077484 240.0
100.112396 1380.0
101.069672 72.0
101.112793 168.0
101.137711 228.0
102.688835 176.0
103.060371 556.0
103.397972 188.0
104.780785 96.0
108.868004 168.0
115.056847 172.0
115.088173 232.0
115.957382 176.0
126.091988 480.0
126.2425 48.0
127.094658 188.0
129.072937 172.0
129.103012 156.0
131.977966 252.0
133.058701 120.0
134.227524 80.0
134.977982 156.0
137.715622 112.0
143.117554 872.0
144.122726 208.0
144.660828 148.0
145.723236 88.0
145.898666 224.0
146.097137 144.0
147.084381 2088.0
147.112823 208.0
147.567001 128.0
148.038834 56.0
148.081909 200.0
148.099777 200.0
148.140564 64.0
149.081955 128.0
150.08728 172.0
151.081314 200.0
152.953644 112.0
157.133942 132.0
164.111313 760.0
164.718307 104.0
165.111923 100.0
166.154434 32.0
167.650894 68.0
179.602676 180.0
180.061737 152.0
181.075363 180.0
182.481461 20.0
184.06543 164.0
187.352982 56.0
188.152039 152.0
189.010239 172.0
189.064972 92.0
189.991089 56.0
190.037735 252.0
190.089325 2420.0
190.249054 36.0
191.086044 380.0
191.266144 56.0
191.654434 52.0
192.091095 196.0
192.214188 56.0
193.621246 88.0
197.475906 60.0
251.520081 60.0
260.89209 88.0
267.917908 64.0
316.878967 140.0
444.633301 20.0
461.458984 20.0
517.66626 56.0
536.550842 68.0
681.568176 124.0
765.502625 204.0
881.685913 164.0
942.671082 224.0
986.293335 180.0
987.187317 256.0
987.518799 160.0
1047.487061 160.0
1052.665894 192.0
1115.508789 160.0
1144.794189 212.0
1153.868652 164.0
1159.039551 120.0
1160.19165 48.0
1160.76123 148.0
1198.637329 100.0
1212.152954 236.0
1224.824829 160.0
1224.991943 28.0
1247.869019 168.0
1261.234619 192.0
1280.518799 116.0
1286.251221 140.0
1302.569946 40.0
1319.656494 188.0
1326.309082 244.0
1339.256836 104.0
1347.733521 224.0
1405.42334 156.0
1407.132446 188.0
1412.699951 144.0
1433.541992 112.0
1444.133789 196.0
1467.232788 64.0
1486.123169 192.0
1486.284302 176.0
1489.086182 156.0
1499.957886 176.0
1504.053589 184.0
