>compound MLS002638114-01!53-03-2
>formula C21H26O5
>ionization [M+H]+
>parentmass 359.187
#inchi InChI=1S/C21H26O5/c1-19-7-5-13(23)9-12(19)3-4-14-15-6-8-21(26,17(25)11-22)20(15,2)10-16(24)18(14)19/h5,7,9,14-15,18,22,26H,3-4,6,8,10-11H2,1-2H3
#inchikey XOFYZVNMUHMLCC
#Ion_Source LC-ESI
#Instrument qTof
#Compound_Source NIH Pharmacologically Active Library
#PI Dorrestein
#Data_Collector VP/LMS
#Scan -1
#Precursor_MZ 359.187
#ExactMass 358.178
#Charge 1
#CAS_Number N/A
#Pubmed_ID N/A
#Smiles CC12CC(=O)C3C(CCC4=CC(=O)C=CC34C)C2CCC1(O)C(=O)CO
#INCHI_AUX N/A
#Library_Class 1
#SpectrumID CCMSLIB00000085992
#IonMode Positive
#UpdateWorkflowName UPDATE-SINGLE-ANNOTATED-GOLD
#LibraryQualityString Gold
#TaskID d252d724072548979f1f6f1ced849daf
##Scan# 1648
#SpectrumFile p5-A02_GA2_01_18431.mzXML
#LibraryName Pharm_Active_Library.mgf
#MQScore -1
#Organism Pharm_Active_Library
#TIC_Query 0
#RT_Query -1
#MZErrorPPM -1
#SharedPeaks 0
#MassDiff 0
#LibMZ -1
#SpecMZ 359.187
#SpecCharge 0
#internalFilename spec-00000.mgf

>collision 10
44.939419 64.0
45.250832 144.0
46.489597 188.0
47.052502 232.0
47.066765 196.0
47.620022 140.0
47.776726 172.0
47.816631 160.0
48.601551 232.0
48.68623 236.0
48.698727 144.0
49.595898 148.0
49.998989 212.0
50.189159 184.0
50.878185 164.0
50.934986 108.0
51.070019 124.0
51.276466 148.0
51.457626 176.0
51.564758 180.0
51.756451 208.0
51.772202 60.0
52.685566 164.0
52.853203 156.0
53.034302 244.0
53.317318 92.0
53.5938 112.0
54.442223 236.0
54.976604 228.0
55.519531 152.0
55.581837 140.0
56.648994 176.0
56.760242 160.0
56.986889 204.0
57.432487 100.0
57.578888 164.0
57.894966 184.0
57.926773 180.0
58.246838 148.0
59.898895 100.0
60.023731 64.0
60.110111 180.0
60.219723 136.0
60.542953 112.0
60.901218 180.0
61.371189 188.0
61.438255 84.0
61.957283 68.0
63.16787 104.0
63.964455 40.0
64.876602 168.0
65.36808 288.0
65.683853 144.0
65.698372 200.0
65.761299 152.0
65.893715 168.0
65.919571 264.0
66.233437 172.0
66.513954 112.0
66.668243 48.0
66.791809 212.0
66.811333 60.0
68.59964 236.0
69.101692 180.0
69.214241 144.0
70.161278 148.0
70.378174 156.0
70.677368 112.0
71.027504 164.0
71.615799 200.0
71.93618 200.0
72.433327 104.0
74.284576 124.0
75.036102 120.0
75.751564 172.0
76.108833 168.0
76.395599 188.0
76.614944 152.0
77.224144 148.0
77.595383 92.0
78.569702 196.0
79.230896 192.0
79.254608 224.0
79.621124 196.0
80.254623 172.0
80.806519 132.0
80.88884 68.0
81.293892 72.0
81.908775 140.0
81.946602 188.0
82.1828 172.0
82.229713 148.0
82.523224 192.0
82.985855 188.0
83.17453 172.0
83.301636 144.0
84.011597 128.0
84.152122 204.0
84.239784 104.0
84.887688 188.0
85.041794 204.0
85.113388 212.0
85.834694 220.0
85.952751 196.0
86.484993 164.0
88.005676 180.0
88.171928 64.0
88.607918 60.0
88.667877 152.0
89.70919 176.0
90.434532 180.0
90.60495 132.0
91.056183 516.0
91.21981 140.0
91.783348 176.0
92.058128 88.0
93.069176 128.0
93.669205 52.0
94.412285 224.0
94.627068 148.0
95.050072 200.0
95.092796 140.0
95.187424 132.0
95.928696 144.0
96.401016 204.0
96.563278 92.0
96.760918 136.0
97.064613 212.0
97.450439 152.0
97.465042 180.0
98.333496 236.0
98.621857 236.0
98.976234 184.0
99.043304 196.0
99.195885 132.0
100.245285 164.0
100.536438 72.0
100.824013 152.0
101.532715 228.0
101.759468 136.0
101.94828 136.0
102.737556 256.0
103.006042 208.0
103.054527 80.0
103.485336 164.0
103.754791 140.0
104.061142 168.0
104.180969 68.0
104.98291 156.0
105.068222 784.0
105.091019 172.0
105.180809 72.0
105.7388 212.0
105.871872 64.0
106.072105 192.0
106.232605 40.0
106.871544 204.0
107.05127 556.0
107.091507 228.0
108.07032 172.0
108.134468 92.0
109.061928 484.0
109.096382 184.0
109.554749 192.0
109.604752 184.0
110.659538 188.0
110.971718 148.0
110.987587 204.0
111.043015 96.0
111.080521 200.0
111.118538 52.0
111.141617 232.0
111.202469 192.0
111.244453 52.0
111.546944 144.0
111.837219 160.0
112.049904 200.0
112.748337 136.0
113.86058 188.0
114.02417 184.0
114.688217 152.0
115.056999 384.0
115.077782 184.0
115.09996 196.0
116.060989 176.0
116.099297 172.0
116.245171 148.0
117.068352 308.0
117.16111 56.0
117.223595 140.0
117.749977 192.0
117.981186 44.0
118.067673 256.0
118.734703 72.0
119.086617 832.0
119.164505 212.0
120.054771 160.0
120.085304 192.0
120.788628 184.0
120.895836 140.0
121.065155 1468.0
121.101631 136.0
121.178299 160.0
122.068947 208.0
122.197029 180.0
122.3731 240.0
122.774139 44.0
123.04113 152.0
123.078217 296.0
124.12307 188.0
124.904694 136.0
125.096191 136.0
125.827408 80.0
126.383934 220.0
126.549561 132.0
126.807175 176.0
127.002235 172.0
127.056664 184.0
127.183983 80.0
128.06041 156.0
128.965637 208.0
128.995026 176.0
129.068909 348.0
130.116394 64.0
130.352615 84.0
130.557205 52.0
131.051727 176.0
131.088913 836.0
131.336121 160.0
131.763 148.0
131.970978 136.0
132.057709 256.0
132.082581 176.0
132.087936 204.0
132.355377 64.0
132.648636 104.0
132.884842 200.0
133.060562 436.0
133.086761 180.0
133.092667 176.0
133.101456 160.0
134.07579 192.0
134.1866 200.0
134.223495 60.0
134.691986 92.0
134.9832 136.0
135.078629 676.0
135.186752 168.0
135.587402 228.0
135.615204 188.0
136.083801 188.0
136.113983 128.0
137.064194 180.0
137.093323 172.0
137.422104 112.0
137.550461 84.0
137.566788 136.0
137.591782 108.0
138.057449 220.0
138.312469 192.0
139.069565 136.0
139.107117 88.0
139.318466 132.0
139.560532 68.0
139.70636 136.0
140.203171 104.0
141.066986 332.0
141.310623 124.0
142.078888 300.0
142.099579 40.0
142.341675 164.0
142.593491 152.0
143.08284 180.0
143.164459 52.0
144.054184 724.0
144.085541 176.0
144.142502 88.0
144.317001 88.0
144.357651 52.0
145.064713 880.0
145.100891 528.0
145.274979 144.0
145.440552 232.0
145.534164 36.0
145.767166 176.0
146.073196 524.0
146.284256 152.0
147.012146 172.0
147.081451 2896.0
147.140076 112.0
147.253571 136.0
147.369522 52.0
147.483093 52.0
147.811996 52.0
147.942703 112.0
148.084366 348.0
148.504868 36.0
148.800919 248.0
149.002487 116.0
149.065659 160.0
149.104553 208.0
150.078262 180.0
150.380753 180.0
150.422241 144.0
150.820404 68.0
151.075775 220.0
151.155441 196.0
152.062607 188.0
153.025787 188.0
153.072266 164.0
153.723358 180.0
154.073959 172.0
154.279083 164.0
154.974533 152.0
155.085068 416.0
155.326569 176.0
156.029343 184.0
156.108902 32.0
156.133774 228.0
156.208389 108.0
156.516998 40.0
157.067383 400.0
157.096832 204.0
157.972031 120.0
158.073486 1112.0
158.189743 128.0
158.773529 52.0
159.082428 2100.0
159.114792 176.0
159.155792 240.0
159.227783 96.0
159.964493 60.0
160.084808 316.0
160.322144 108.0
160.380112 108.0
161.063904 132.0
161.09758 1280.0
161.132111 148.0
161.154846 124.0
161.463242 108.0
161.908661 52.0
162.101715 264.0
162.321732 188.0
162.859756 108.0
163.079926 104.0
163.53862 184.0
164.078659 168.0
164.425568 148.0
164.737076 100.0
164.772842 128.0
165.069702 220.0
165.10257 28.0
165.698975 168.0
166.070602 148.0
167.084824 232.0
168.061813 168.0
168.101242 212.0
168.165039 60.0
169.065903 344.0
169.100433 336.0
169.470963 44.0
169.551285 128.0
169.678299 60.0
169.981766 48.0
170.108093 208.0
170.223175 48.0
171.081421 2436.0
171.128036 60.0
171.167099 72.0
171.420639 60.0
171.539658 84.0
171.607437 68.0
171.688278 120.0
172.085419 1176.0
172.12146 116.0
172.398346 40.0
172.86644 152.0
173.097458 752.0
173.243469 132.0
173.754684 56.0
173.925247 236.0
174.025009 144.0
174.067017 136.0
174.098526 128.0
174.123337 160.0
174.416443 136.0
175.032059 52.0
175.068924 132.0
175.108429 144.0
175.134766 128.0
175.226959 76.0
176.078781 168.0
176.742493 136.0
177.242935 184.0
177.473541 96.0
177.508011 148.0
178.078735 384.0
178.245956 224.0
178.620819 184.0
179.087402 788.0
179.435715 116.0
179.649063 128.0
179.793137 156.0
180.049438 200.0
180.091782 328.0
180.19902 164.0
180.59198 36.0
180.934494 172.0
181.00946 88.0
181.030884 92.0
181.066391 608.0
181.094803 208.0
181.246964 168.0
181.45961 168.0
181.836563 176.0
182.039169 152.0
182.070755 460.0
182.756866 96.0
183.080399 1008.0
183.108765 508.0
183.190323 40.0
183.214569 152.0
183.37085 108.0
183.419357 212.0
183.689011 84.0
183.732178 168.0
183.897614 124.0
183.999359 148.0
184.05336 160.0
184.087128 588.0
184.226212 52.0
185.023987 132.0
185.06189 448.0
185.095642 1272.0
185.994461 136.0
186.103256 480.0
186.418137 180.0
187.075165 464.0
187.110962 500.0
187.626633 72.0
187.667542 152.0
187.705704 168.0
188.043991 156.0
188.811691 136.0
189.00592 108.0
189.094604 200.0
190.070801 352.0
191.08606 348.0
191.625305 88.0
191.779633 220.0
191.925735 108.0
192.09346 144.0
192.237442 136.0
193.008118 192.0
193.063431 164.0
193.103165 752.0
193.284729 48.0
193.362213 72.0
193.434174 172.0
193.954926 44.0
193.996506 160.0
194.069717 380.0
194.107193 256.0
194.24054 176.0
194.773483 104.0
194.859604 56.0
195.079956 764.0
195.113708 312.0
195.426788 100.0
196.086746 964.0
196.145294 72.0
196.237289 80.0
196.86232 100.0
197.096497 1504.0
197.20874 56.0
197.614227 132.0
197.633804 96.0
197.877319 56.0
198.053741 276.0
198.100677 316.0
198.126572 36.0
198.370377 84.0
199.071426 156.0
199.114014 276.0
199.822281 156.0
200.117828 236.0
200.19101 212.0
200.70668 76.0
200.980286 128.0
201.087677 216.0
201.115417 160.0
201.420685 108.0
202.076324 216.0
202.116165 160.0
202.934723 136.0
203.080902 136.0
203.153107 92.0
204.092026 268.0
204.127289 172.0
204.864441 160.0
205.063904 172.0
205.099548 392.0
205.414627 56.0
206.070969 264.0
206.112091 280.0
207.081451 632.0
207.114136 236.0
207.138306 64.0
207.571075 68.0
207.99855 220.0
208.089859 704.0
208.121994 292.0
209.098389 1300.0
209.140915 176.0
210.104324 840.0
210.185791 132.0
210.330093 152.0
210.367615 68.0
211.032089 172.0
211.078354 144.0
211.110062 824.0
211.211395 80.0
211.251892 112.0
212.115479 448.0
212.352585 172.0
212.979507 124.0
213.074265 200.0
213.093475 224.0
213.127136 428.0
213.677185 96.0
213.872162 56.0
214.096344 144.0
214.128372 196.0
214.323547 56.0
215.089767 164.0
215.107483 608.0
215.146011 160.0
216.103592 292.0
217.030182 68.0
217.09819 300.0
217.655167 156.0
217.67865 84.0
218.031174 204.0
218.066437 148.0
218.104355 176.0
219.08287 344.0
219.113983 752.0
219.158203 156.0
220.094238 292.0
220.719635 264.0
220.971039 104.0
221.094955 992.0
221.137985 368.0
221.403214 28.0
221.468369 248.0
221.54834 212.0
221.637222 76.0
222.104416 1612.0
222.147461 200.0
222.173859 80.0
222.728973 100.0
222.889404 120.0
223.11235 1012.0
223.231247 28.0
223.490021 48.0
224.084137 140.0
224.117142 440.0
225.088806 236.0
225.122528 692.0
225.804153 176.0
226.099167 316.0
226.132568 196.0
226.822922 84.0
227.107849 280.0
227.144577 392.0
227.993454 168.0
228.143738 100.0
228.230927 192.0
229.098709 216.0
229.245346 72.0
229.742828 100.0
230.099075 96.0
230.132156 116.0
231.081696 372.0
231.115295 152.0
231.14473 60.0
231.311188 140.0
231.386871 36.0
231.553421 228.0
231.665497 232.0
231.84729 148.0
232.084076 396.0
232.11824 168.0
232.733047 80.0
233.095108 352.0
233.132858 152.0
234.100281 908.0
234.140228 324.0
234.598022 120.0
235.070419 172.0
235.110275 1032.0
235.284424 92.0
236.123108 576.0
236.7276 72.0
236.847046 124.0
236.960403 148.0
237.12738 1552.0
237.757645 140.0
238.05542 108.0
238.099228 416.0
238.130402 256.0
238.433289 48.0
238.943726 140.0
239.108185 284.0
239.142471 1020.0
239.214539 76.0
239.420822 144.0
239.985809 148.0
240.099289 160.0
240.149765 256.0
241.117966 144.0
241.163971 128.0
242.11998 156.0
243.040649 124.0
243.126846 108.0
243.729965 92.0
244.080872 152.0
245.100327 496.0
245.130051 220.0
245.800644 120.0
245.981659 40.0
246.102615 432.0
247.108017 648.0
247.153625 176.0
248.021118 40.0
248.083801 204.0
248.118896 888.0
248.187271 148.0
248.475815 136.0
248.692337 56.0
248.71431 40.0
249.065979 36.0
249.126785 720.0
250.061234 216.0
250.094162 164.0
250.138611 432.0
250.34288 60.0
251.045624 160.0
251.105621 144.0
251.138779 132.0
251.238022 152.0
251.582001 52.0
252.106247 172.0
252.142944 336.0
253.126175 652.0
253.155014 280.0
254.125595 140.0
254.618546 112.0
255.053833 224.0
255.142273 344.0
255.19371 52.0
255.915955 176.0
256.081543 216.0
256.138885 136.0
256.323669 68.0
257.060272 152.0
257.093964 208.0
257.133667 116.0
258.108734 220.0
258.69989 28.0
259.10788 324.0
259.148254 216.0
260.118225 464.0
260.817017 204.0
261.127136 312.0
262.131653 512.0
262.400818 44.0
263.110016 136.0
263.138641 880.0
263.265594 120.0
263.831024 104.0
264.109131 84.0
264.153778 424.0
264.853577 36.0
265.108887 180.0
265.156189 640.0
265.291046 36.0
265.949524 48.0
266.14975 176.0
266.168213 188.0
266.9534 132.0
267.018433 116.0
267.143463 120.0
268.124481 180.0
268.13327 132.0
268.422028 116.0
269.636414 64.0
270.038544 124.0
270.125946 172.0
271.115662 84.0
271.187744 172.0
272.11261 184.0
273.12677 200.0
274.131348 200.0
275.09549 120.0
275.133881 408.0
276.103241 144.0
276.138763 128.0
276.837921 104.0
277.11908 164.0
277.162537 556.0
277.921844 100.0
278.131256 192.0
278.175446 164.0
278.4729 112.0
279.13916 136.0
279.167511 36.0
280.146698 164.0
281.151154 200.0
282.160339 184.0
283.560944 80.0
284.829224 108.0
285.057678 120.0
285.141693 212.0
285.646027 100.0
286.070465 156.0
286.144104 132.0
287.137848 144.0
289.128052 144.0
290.147583 264.0
292.147461 164.0
293.14444 160.0
293.227264 52.0
294.107208 36.0
294.151581 524.0
295.118408 116.0
295.170074 372.0
296.172455 76.0
297.149445 188.0
305.158875 184.0
309.142303 100.0
313.180084 124.0
314.163208 96.0
320.716278 88.0
321.208344 128.0
321.290375 72.0
323.157013 168.0
323.448761 64.0
324.166992 136.0
330.419373 92.0
338.221558 152.0
341.134094 152.0
348.670685 52.0
357.146729 176.0
357.970917 56.0
360.214996 172.0
361.185486 152.0
361.224274 180.0
362.208466 64.0
366.131897 100.0
405.02536 156.0
422.739014 100.0
423.762695 132.0
438.436432 48.0
482.298096 84.0
506.360107 84.0
516.736023 56.0
605.826782 92.0
627.338989 40.0
637.59491 92.0
644.079224 88.0
738.050903 52.0
841.297241 176.0
897.55188 52.0
940.014282 96.0
984.525635 252.0
1008.968384 204.0
1010.131958 68.0
1030.871582 108.0
1087.124512 256.0
1098.196899 100.0
1109.040405 164.0
1110.439331 20.0
1119.484253 156.0
1124.904663 228.0
1139.053955 172.0
1140.061768 220.0
1143.256104 164.0
1149.62439 72.0
1156.321655 160.0
1167.604126 76.0
1173.923828 84.0
1183.812012 148.0
1233.406494 68.0
1239.270996 272.0
1251.914673 204.0
1285.838013 176.0
1300.409668 56.0
1304.633301 120.0
1307.280151 216.0
1311.659058 200.0
1323.145142 116.0
1324.24585 240.0
1327.731812 204.0
1329.226196 172.0
1331.004639 120.0
1333.459961 152.0
1335.80127 36.0
1336.594238 228.0
1340.956421 244.0
1341.524902 224.0
1343.435547 204.0
1345.347534 200.0
1354.97168 152.0
1372.936157 184.0
1373.002563 192.0
1374.027832 212.0
1381.126831 136.0
1387.547119 148.0
1394.73291 156.0
1404.822754 184.0
1408.144287 140.0
1413.901001 168.0
1416.506592 112.0
1417.765259 228.0
1417.975098 52.0
1420.419434 160.0
1423.496582 112.0
1423.609131 156.0
1424.420288 116.0
1424.690796 144.0
1426.8927 244.0
1430.142456 140.0
1430.586548 172.0
1446.204102 144.0
1451.491943 212.0
1458.316772 96.0
1475.391602 112.0
1481.130859 164.0
1481.467041 192.0
1483.276367 164.0
1487.994141 180.0
1500.118408 56.0
1504.260864 52.0
1504.870728 36.0
