>compound LOBELINE HYDROCHLORIDE
>formula C22H27NO2
>ionization [M+Na]+
>parentmass 360.194366
#inchi InChI=1S/C22H27NO2/c1-23-19(15-21(24)17-9-4-2-5-10-17)13-8-14-20(23)16-22(25)18-11-6-3-7-12-18/h2-7,9-12,19-21,24H,8,13-16H2,1H3/t19-,20+,21-/m0/s1
#inchikey MXYUKLILVYORSK
#Ion_Source LC-ESI
#Instrument qTof
#Compound_Source Commercial
#PI Dorrestein
#Data_Collector Garg_Neha
#Scan -1
#Precursor_MZ 360.193
#ExactMass 337.204
#Charge 1
#CAS_Number N/A
#Pubmed_ID N/A
#Smiles CN1[C@H](C[C@H](O)c2ccccc2)CCC[C@@H]1CC(=O)c3ccccc3
#INCHI_AUX N/A
#Library_Class 1
#SpectrumID CCMSLIB00000079166
#IonMode Positive
#UpdateWorkflowName UPDATE-SINGLE-ANNOTATED-GOLD
#LibraryQualityString Gold
#TaskID 278b19f5865741e282cec7349aa7e7a1
##Scan# 1159
#SpectrumFile NCP003592_C2_D11_BE1_01_15735.mzXML
#LibraryName NIHcollectionI_05062014.mgf
#MQScore -1
#Organism NIHcollectionI_05062014
#TIC_Query 0
#RT_Query -1
#MZErrorPPM -1
#SharedPeaks 0
#MassDiff 0
#LibMZ -1
#SpecMZ 360.193
#SpecCharge 0
#internalFilename spec-00000.mgf

>collision 10
88.639854 168.0
98.097694 316.0
98.382919 196.0
101.006027 224.0
110.904686 200.0
112.767403 140.0
114.162392 168.0
120.083145 156.0
121.829895 160.0
128.884277 144.0
134.999344 188.0
135.057159 184.0
137.973236 200.0
141.978531 156.0
143.047241 700.0
144.053268 324.0
149.021835 160.0
150.32695 180.0
153.61467 256.0
158.96405 160.0
187.152267 180.0
190.024841 176.0
192.953094 160.0
192.982895 140.0
204.067169 172.0
211.147293 152.0
216.145096 160.0
218.154846 2240.0
218.742432 156.0
219.159149 1020.0
222.918564 208.0
226.949341 256.0
228.037949 168.0
228.099655 160.0
240.06424 164.0
240.136398 10548.0
240.492554 120.0
241.139816 956.0
242.147186 184.0
243.216858 144.0
247.237396 188.0
250.083008 192.0
251.199417 152.0
252.845581 168.0
254.117569 152.0
258.144409 304.0
258.235107 192.0
259.148651 328.0
263.109772 172.0
265.073029 164.0
281.021881 164.0
281.155273 156.0
283.174652 140.0
285.107086 136.0
288.4776 188.0
288.917236 164.0
292.024353 224.0
299.027985 164.0
304.980438 200.0
305.947479 176.0
306.947418 188.0
312.156433 156.0
313.166168 140.0
319.465149 196.0
323.24884 192.0
325.282745 188.0
325.537659 156.0
326.385712 164.0
328.257507 392.0
328.294189 144.0
331.105774 160.0
332.675781 180.0
335.991058 288.0
340.190491 868.0
340.504364 176.0
340.875397 200.0
341.187561 332.0
344.973572 124.0
357.239899 148.0
358.201324 1924.0
358.372406 148.0
359.123352 128.0
359.200531 616.0
359.303619 148.0
360.122467 152.0
360.194366 8612.0
360.313354 136.0
361.198181 1512.0
361.631348 156.0
362.205017 240.0
362.25 248.0
363.109467 144.0
363.171722 108.0
363.480682 140.0
382.918884 172.0
412.677673 148.0
562.810303 148.0
1736.248779 164.0
1979.027954 140.0
