>compound MLS001146954-01!Tyzine
>formula C13H16N2
>ionization [M+H]+
>parentmass 201.139038
#inchi InChI=1S/C13H16N2/c1-2-6-11-10(4-1)5-3-7-12(11)13-14-8-9-15-13/h1-2,4,6,12H,3,5,7-9H2,(H,14,15)
#inchikey BYJAVTDNIXVSPW
#origInchi InChI=1S/C13H16N2.ClH/c1-2-6-11-10(4-1)5-3-7-12(11)13-14-8-9-15-13;/h1-2,4,6,12H,3,5,7-9H2,(H,14,15);1H
#Ion_Source LC-ESI
#Instrument qTof
#Compound_Source NIH Pharmacologically Active Library
#PI Dorrestein
#Data_Collector VP/LMS
#Scan -1
#Precursor_MZ 201.135
#ExactMass 200.131
#Charge 1
#CAS_Number N/A
#Pubmed_ID N/A
#Smiles C1CN=C(N1)C2CCCc3ccccc23.Cl
#INCHI_AUX N/A
#Library_Class 1
#SpectrumID CCMSLIB00000085376
#IonMode Positive
#UpdateWorkflowName UPDATE-SINGLE-ANNOTATED-GOLD
#LibraryQualityString Gold
#TaskID d252d724072548979f1f6f1ced849daf
##Scan# 1245
#SpectrumFile p3-H11_GH11_01_18316.mzXML
#LibraryName Pharm_Active_Library.mgf
#MQScore -1
#Organism Pharm_Active_Library
#TIC_Query 0
#RT_Query -1
#MZErrorPPM -1
#SharedPeaks 0
#MassDiff 0
#LibMZ -1
#SpecMZ 201.135
#SpecCharge 0
#internalFilename spec-00000.mgf

>collision 10
44.898815 112.0
45.063011 176.0
45.112465 160.0
45.14188 204.0
45.270355 200.0
45.291786 188.0
45.360126 144.0
45.478172 144.0
45.499149 192.0
45.660908 136.0
45.757801 152.0
45.83997 164.0
45.98428 108.0
46.165321 132.0
46.193726 144.0
46.344013 240.0
46.525761 92.0
46.561069 192.0
46.607258 180.0
46.616772 200.0
46.637157 88.0
46.695625 132.0
46.808586 288.0
46.857624 148.0
46.976234 60.0
47.189297 60.0
47.237164 164.0
47.297375 160.0
47.490585 44.0
47.829994 208.0
47.857529 44.0
47.936047 192.0
48.069817 100.0
48.169228 156.0
48.365593 136.0
48.470852 120.0
48.673382 152.0
48.804005 136.0
48.901386 116.0
48.959866 164.0
48.998978 236.0
49.11179 68.0
49.142483 192.0
49.237411 224.0
49.33802 200.0
49.381371 196.0
49.452732 200.0
49.524143 140.0
49.577385 252.0
49.62645 176.0
49.964951 248.0
49.997314 140.0
50.019836 168.0
50.029835 196.0
50.05785 152.0
50.077568 248.0
50.15366 204.0
50.231216 148.0
50.306011 208.0
50.331425 120.0
50.419014 136.0
50.515167 212.0
50.556202 132.0
50.57177 164.0
50.825455 212.0
51.04422 200.0
51.136696 144.0
51.206463 204.0
51.30336 160.0
51.316193 164.0
51.397499 172.0
51.428898 56.0
51.461731 136.0
51.626068 148.0
51.664688 112.0
51.997139 160.0
52.025848 76.0
52.078983 200.0
52.196835 164.0
52.227039 88.0
52.25869 236.0
52.396912 92.0
52.525219 148.0
52.692688 128.0
52.707138 148.0
52.734596 56.0
52.790981 176.0
52.808338 48.0
52.877789 192.0
52.971912 124.0
53.011032 168.0
53.063217 144.0
53.279472 168.0
53.31144 48.0
53.357956 64.0
53.542767 128.0
53.881195 164.0
54.04203 108.0
54.096184 172.0
54.112286 168.0
54.192848 144.0
54.62302 120.0
55.190845 68.0
55.224861 228.0
55.481052 80.0
55.517548 176.0
55.617531 200.0
55.694748 192.0
55.838928 164.0
55.867191 216.0
56.162148 152.0
56.178558 116.0
56.395084 164.0
56.598553 140.0
56.634495 76.0
56.709415 240.0
56.733402 120.0
56.784386 132.0
56.808388 152.0
56.876579 208.0
56.993061 236.0
57.053185 116.0
57.080246 164.0
57.193089 228.0
57.211151 240.0
57.245785 188.0
57.348236 132.0
57.388 212.0
57.447762 132.0
57.499065 172.0
57.518688 188.0
57.536804 120.0
57.583618 192.0
57.630451 104.0
57.687881 236.0
57.748367 148.0
58.092232 104.0
58.148376 68.0
58.235123 152.0
58.25771 144.0
58.490379 96.0
58.589367 144.0
58.779964 164.0
58.812016 180.0
58.931614 168.0
59.002972 224.0
59.246319 180.0
59.345943 212.0
59.401157 180.0
59.517803 140.0
59.553127 208.0
59.665306 204.0
59.792984 132.0
59.862823 264.0
59.930042 228.0
60.136696 156.0
60.162941 124.0
60.433418 128.0
60.591351 112.0
60.816212 148.0
60.889187 84.0
60.906273 184.0
61.011948 132.0
61.069485 64.0
61.1395 144.0
61.178417 220.0
61.204884 336.0
61.231361 192.0
61.602608 88.0
61.655735 96.0
61.738594 140.0
61.981243 164.0
62.080006 44.0
62.160416 96.0
62.403488 180.0
62.515171 200.0
62.779842 188.0
62.916573 196.0
62.937649 196.0
63.100395 148.0
63.11779 180.0
63.269688 160.0
63.367882 180.0
63.382145 188.0
63.423351 164.0
63.456642 188.0
63.543877 168.0
63.556572 40.0
63.581963 168.0
63.636623 240.0
63.758255 120.0
63.788456 200.0
64.169945 232.0
64.212013 140.0
64.314133 172.0
64.344467 216.0
64.419525 160.0
64.435501 172.0
64.486893 128.0
64.526604 160.0
64.633774 68.0
64.745834 96.0
64.809914 124.0
64.896469 184.0
65.082603 132.0
65.28508 200.0
65.368736 72.0
65.47821 68.0
65.549103 196.0
65.6297 180.0
65.87664 136.0
65.912186 104.0
65.988152 184.0
66.059319 136.0
66.081963 144.0
66.196892 264.0
66.224426 88.0
66.496826 208.0
66.665733 228.0
66.683617 212.0
66.756775 92.0
66.774666 300.0
67.005821 208.0
67.069496 168.0
67.286354 108.0
67.328812 168.0
67.354942 136.0
67.47261 268.0
67.662399 124.0
67.786888 192.0
67.855728 144.0
67.919685 116.0
67.995163 184.0
68.013222 152.0
68.1446 172.0
68.159393 68.0
68.177467 196.0
68.235001 180.0
68.269531 180.0
68.440674 176.0
68.461655 148.0
68.495026 176.0
68.524681 152.0
68.57412 196.0
68.605438 184.0
68.767097 148.0
68.823227 244.0
68.925644 176.0
69.002365 168.0
69.051292 208.0
69.12574 176.0
69.314522 180.0
69.337723 136.0
69.545052 144.0
69.657967 188.0
69.897385 104.0
69.958076 168.0
70.21225 144.0
70.300674 172.0
70.314026 180.0
70.355751 144.0
70.420883 100.0
70.455963 64.0
70.556236 236.0
70.596367 236.0
70.668297 140.0
70.688377 176.0
70.767052 248.0
70.919502 168.0
71.127502 160.0
71.335808 196.0
71.461945 116.0
71.648834 160.0
71.814041 184.0
71.950729 256.0
71.964241 96.0
72.097694 192.0
72.133186 140.0
72.339569 144.0
72.37851 52.0
72.393753 40.0
72.602203 192.0
72.702301 140.0
72.778694 156.0
72.812973 152.0
72.870415 172.0
72.958794 64.0
73.021713 124.0
73.214035 184.0
73.24469 156.0
73.304329 196.0
73.396378 228.0
73.457779 140.0
73.548218 148.0
73.591858 228.0
73.775421 52.0
73.850662 160.0
73.871193 208.0
73.925941 160.0
73.98243 84.0
74.018387 156.0
74.045784 128.0
74.217155 236.0
74.258316 140.0
74.308067 112.0
74.333809 176.0
74.407616 136.0
74.704933 204.0
74.766884 172.0
74.980446 184.0
75.171875 184.0
75.199493 192.0
75.227394 192.0
75.247826 120.0
75.306541 200.0
75.479362 180.0
75.543358 40.0
75.747635 224.0
75.792679 156.0
75.836006 232.0
75.988472 48.0
76.066711 204.0
76.221291 148.0
76.250832 128.0
76.586647 148.0
76.668533 168.0
76.813255 84.0
76.862106 164.0
76.89003 180.0
77.087379 88.0
77.393501 208.0
77.4478 240.0
77.561691 176.0
77.637085 196.0
77.738838 52.0
77.754639 128.0
77.863487 172.0
77.919701 172.0
78.426529 224.0
78.454735 164.0
78.484711 176.0
78.632896 180.0
78.738831 72.0
78.922623 104.0
78.94384 112.0
79.111938 172.0
79.165054 164.0
79.306793 112.0
79.400764 144.0
79.445114 220.0
79.485924 204.0
79.608414 156.0
79.770096 160.0
79.817192 180.0
79.839447 72.0
79.869682 172.0
79.908821 164.0
79.949745 156.0
80.022736 168.0
80.142075 144.0
80.157509 212.0
80.193756 152.0
80.266846 180.0
80.329277 100.0
80.386368 212.0
80.631042 176.0
80.852814 216.0
80.892189 56.0
81.067719 176.0
81.094604 236.0
81.232246 148.0
81.336761 184.0
81.367279 128.0
81.410378 156.0
81.453484 244.0
81.6548 88.0
81.690773 152.0
81.753746 116.0
81.782547 88.0
81.877975 208.0
82.099648 148.0
82.137527 160.0
82.306664 168.0
82.650627 184.0
82.828056 132.0
82.929527 216.0
82.969414 184.0
83.308784 192.0
83.35421 216.0
83.428734 156.0
83.647034 176.0
83.710762 120.0
83.801842 168.0
83.829178 136.0
83.882034 120.0
84.004211 156.0
84.228745 188.0
84.321938 216.0
84.405121 128.0
84.530426 200.0
84.596313 164.0
84.663353 144.0
84.679611 172.0
84.744667 84.0
85.054604 220.0
85.350403 120.0
85.429489 212.0
85.615395 192.0
85.751732 116.0
85.786552 212.0
86.004433 192.0
86.43399 188.0
86.475769 176.0
86.510941 188.0
86.536858 224.0
86.607231 156.0
87.010063 200.0
87.0765 76.0
87.113655 140.0
87.182404 324.0
87.23259 136.0
87.260475 236.0
87.37207 92.0
87.485596 148.0
87.684906 184.0
87.727783 244.0
87.975899 224.0
88.007645 128.0
88.150925 188.0
88.581818 68.0
88.864914 196.0
88.928719 128.0
88.956871 56.0
89.000053 136.0
89.445633 116.0
89.850815 144.0
90.062248 76.0
90.319321 148.0
90.762497 164.0
90.870613 136.0
90.961708 164.0
90.980934 216.0
90.99968 152.0
91.054138 9408.0
91.119331 88.0
91.183945 140.0
91.204849 164.0
91.414062 68.0
91.436905 76.0
91.494011 108.0
91.653999 124.0
91.688301 148.0
91.896164 204.0
92.010681 96.0
92.056435 1108.0
92.092796 56.0
92.276253 120.0
92.306847 180.0
92.471375 176.0
92.492432 204.0
92.651382 80.0
92.726112 48.0
92.823891 136.0
93.006157 68.0
93.057991 324.0
93.300072 140.0
93.390457 220.0
93.452019 216.0
93.829521 104.0
93.877731 196.0
93.976105 156.0
94.248367 172.0
94.354668 144.0
94.540367 60.0
94.617798 132.0
94.664268 148.0
94.729362 164.0
94.811501 148.0
94.995705 168.0
95.017044 192.0
95.319954 144.0
95.399643 124.0
95.424919 68.0
95.492981 28.0
95.529938 164.0
95.660324 40.0
95.718735 128.0
95.757683 164.0
96.024704 220.0
96.061768 52.0
96.251091 204.0
96.313583 124.0
96.831917 176.0
96.873055 124.0
96.910278 200.0
96.978874 220.0
97.006317 172.0
97.076553 508.0
97.406639 120.0
97.506851 148.0
97.994881 48.0
98.32618 108.0
98.361702 180.0
98.375526 56.0
98.403168 76.0
98.545372 212.0
98.685707 152.0
98.752945 168.0
98.924416 172.0
99.065559 108.0
99.180641 128.0
99.224258 192.0
99.708611 196.0
99.817955 144.0
99.879608 136.0
100.116463 148.0
100.156296 100.0
100.220047 236.0
100.289803 200.0
100.345619 116.0
100.513168 188.0
100.672874 172.0
100.710823 120.0
100.826706 188.0
100.92466 172.0
101.056671 148.0
101.118713 228.0
101.150337 160.0
101.316956 172.0
101.455238 56.0
101.59964 252.0
101.693954 120.0
101.808395 176.0
101.860619 140.0
101.995247 168.0
102.044731 216.0
102.210449 44.0
102.470192 136.0
102.590996 196.0
102.625397 164.0
103.053795 1304.0
103.079575 136.0
103.172546 168.0
103.316139 140.0
103.346489 148.0
103.520576 80.0
103.652252 188.0
104.057137 188.0
104.588524 88.0
104.649597 152.0
104.684219 116.0
104.71273 48.0
104.784027 208.0
104.965439 180.0
105.070892 472.0
105.085785 196.0
105.169456 164.0
105.285835 152.0
105.312386 36.0
105.418625 144.0
105.494255 192.0
105.768372 128.0
105.840027 188.0
105.891228 172.0
106.065392 156.0
106.081795 172.0
106.161758 136.0
106.19252 204.0
106.247269 64.0
106.286888 220.0
106.37925 136.0
106.553818 80.0
106.631905 188.0
106.677124 272.0
106.699745 196.0
107.014534 192.0
107.387543 128.0
107.58358 204.0
107.668236 208.0
107.699219 168.0
107.777725 144.0
107.835587 172.0
107.910011 168.0
107.953438 120.0
108.065132 132.0
108.359146 196.0
108.57888 192.0
108.599617 196.0
108.658241 200.0
108.695053 180.0
108.867355 256.0
108.942131 172.0
108.985764 140.0
109.04187 240.0
109.231087 144.0
109.293503 160.0
109.364265 160.0
109.480858 84.0
109.528763 216.0
109.560013 164.0
109.60585 96.0
109.72049 200.0
109.768448 136.0
109.828926 128.0
109.989601 184.0
110.353111 164.0
110.375488 200.0
110.399117 164.0
110.631378 204.0
111.495583 104.0
111.676399 128.0
111.714355 176.0
111.829994 64.0
111.872093 148.0
112.196533 144.0
112.223946 48.0
112.266121 244.0
112.460625 188.0
112.599571 208.0
112.637596 156.0
112.97583 208.0
113.441734 200.0
113.628372 72.0
113.668686 80.0
113.687782 180.0
113.798164 164.0
113.851257 84.0
113.874619 132.0
114.091362 208.0
114.252998 88.0
114.276398 108.0
114.295547 128.0
114.367912 236.0
114.406227 108.0
114.467972 52.0
114.531868 144.0
114.766296 172.0
114.787621 48.0
114.916092 140.0
114.981758 156.0
115.054306 10140.0
115.092766 196.0
115.186737 32.0
115.500969 88.0
115.586548 96.0
115.650757 152.0
115.676445 180.0
115.721405 204.0
115.768509 160.0
115.944183 116.0
115.981995 200.0
116.023499 88.0
116.061844 11964.0
116.212242 80.0
116.253014 68.0
116.629471 144.0
116.734222 136.0
116.764328 36.0
116.897713 112.0
116.977348 156.0
117.003181 84.0
117.065826 2076.0
117.108704 148.0
117.147476 92.0
117.324196 180.0
117.378098 132.0
117.600311 172.0
117.694344 172.0
117.850822 88.0
117.902687 120.0
117.97834 76.0
117.993477 108.0
118.028 128.0
118.063026 696.0
118.082138 96.0
118.185974 208.0
118.201973 136.0
118.300682 192.0
118.528099 180.0
118.662491 180.0
118.814308 56.0
118.851196 48.0
118.944519 92.0
119.107376 64.0
119.283394 168.0
119.363838 92.0
119.479118 188.0
119.731621 168.0
119.934258 96.0
120.204697 204.0
120.37278 148.0
120.57814 172.0
120.66777 172.0
120.702751 120.0
120.908394 180.0
120.954353 112.0
121.000328 88.0
121.315811 136.0
121.396935 136.0
121.629509 232.0
121.996368 208.0
122.317543 52.0
122.484901 212.0
122.564217 260.0
122.751587 60.0
122.811134 200.0
122.944153 124.0
123.0009 144.0
123.212906 128.0
123.228371 144.0
123.37645 40.0
123.45163 88.0
123.639679 172.0
124.058319 124.0
124.246826 164.0
124.484329 92.0
124.624275 132.0
124.790977 48.0
124.955566 188.0
125.149208 320.0
125.603851 232.0
125.764511 128.0
125.784599 156.0
125.838181 152.0
125.93644 156.0
126.048149 496.0
126.066025 164.0
126.115196 144.0
126.142021 168.0
126.173317 144.0
126.386299 144.0
126.535767 120.0
126.719421 64.0
127.052452 628.0
127.118553 124.0
127.237518 212.0
127.305603 236.0
127.334076 236.0
127.467201 188.0
127.749924 72.0
127.810677 188.0
127.939835 248.0
128.062347 2540.0
128.112381 60.0
128.146164 220.0
128.25209 216.0
128.29718 176.0
128.321976 144.0
128.513687 192.0
128.585907 196.0
128.777832 112.0
129.026398 152.0
129.069809 11464.0
129.108002 284.0
129.158951 144.0
129.294846 244.0
129.410278 204.0
129.42688 40.0
129.517471 80.0
129.868805 88.0
130.016281 176.0
130.039673 236.0
130.072861 956.0
130.379669 36.0
130.538803 132.0
130.572906 80.0
130.62355 152.0
130.645706 124.0
130.743546 32.0
130.777679 240.0
130.814606 148.0
130.843704 288.0
130.921127 96.0
130.946915 220.0
130.989365 196.0
131.019073 196.0
131.054108 276.0
131.08609 65644.0
131.135544 84.0
131.174789 80.0
131.205444 124.0
131.23024 80.0
131.279251 84.0
131.297165 52.0
131.365585 40.0
131.396027 100.0
131.4272 52.0
131.460327 236.0
131.513916 40.0
131.586838 68.0
131.656418 80.0
131.71257 52.0
131.87709 40.0
131.909546 60.0
131.982254 72.0
132.014267 60.0
132.055435 176.0
132.088623 6512.0
132.128632 32.0
132.153809 48.0
132.188126 68.0
132.222458 68.0
132.252213 48.0
132.286545 248.0
132.320892 64.0
132.336914 68.0
132.378128 60.0
132.497238 96.0
132.549942 40.0
132.627869 80.0
132.657669 52.0
132.724152 52.0
132.742493 136.0
132.788361 160.0
132.833282 124.0
132.96962 52.0
133.005661 80.0
133.064774 336.0
133.0914 316.0
133.148697 88.0
133.173965 28.0
133.199234 200.0
133.215317 112.0
133.261261 56.0
133.370377 252.0
133.394562 92.0
133.419846 36.0
133.714294 132.0
133.744217 84.0
133.836304 68.0
133.884659 64.0
134.089706 40.0
134.119675 80.0
134.149643 164.0
134.366425 84.0
135.439087 40.0
136.032715 128.0
136.232437 100.0
136.876709 168.0
136.913971 56.0
137.324158 200.0
137.753662 160.0
137.931259 156.0
138.078568 144.0
138.628738 56.0
138.788147 216.0
139.109573 172.0
139.184708 132.0
139.238708 152.0
140.172684 168.0
140.316467 52.0
140.571213 136.0
140.899414 72.0
141.070724 832.0
141.268219 192.0
141.587769 124.0
142.080811 192.0
142.246933 92.0
142.477295 108.0
142.888596 136.0
143.005203 32.0
143.071014 876.0
143.240936 176.0
143.617569 208.0
143.696289 156.0
143.779816 168.0
144.080887 1492.0
144.145203 124.0
144.534973 92.0
144.661819 44.0
144.707306 148.0
144.798309 140.0
144.891724 44.0
145.078018 624.0
145.222549 76.0
145.971863 112.0
146.062347 180.0
146.097031 724.0
147.25882 108.0
147.461578 208.0
147.955246 104.0
148.071472 68.0
148.471375 200.0
148.616928 120.0
149.114761 112.0
149.927643 116.0
150.537537 108.0
150.842957 108.0
150.921188 64.0
150.977432 68.0
151.449799 216.0
151.805176 144.0
152.819672 136.0
152.947647 180.0
153.072479 204.0
154.066849 156.0
154.346527 112.0
154.903397 56.0
155.058197 604.0
155.081406 172.0
155.409164 88.0
155.818832 220.0
155.850464 220.0
155.913254 76.0
155.953033 52.0
156.082535 388.0
156.333557 60.0
156.369324 184.0
156.978775 264.0
157.073227 148.0
157.203293 108.0
157.562851 96.0
157.585342 156.0
157.865311 124.0
157.955978 160.0
158.084427 2104.0
158.268188 56.0
158.35083 48.0
158.420959 176.0
158.764359 56.0
158.85968 64.0
158.919891 248.0
159.088608 468.0
159.178436 92.0
159.432159 196.0
159.540253 124.0
160.081223 140.0
160.098846 140.0
160.136627 180.0
160.418854 32.0
161.163376 84.0
161.272049 180.0
161.335251 68.0
161.471802 144.0
161.896973 60.0
162.853149 156.0
162.891251 132.0
163.053864 144.0
163.580399 168.0
164.475128 240.0
164.937485 144.0
165.170181 128.0
165.318573 100.0
165.584824 160.0
166.443939 144.0
167.073074 196.0
167.892776 120.0
168.082336 156.0
168.871628 84.0
168.925949 112.0
169.086319 388.0
169.226166 168.0
169.415237 144.0
169.606995 176.0
170.086868 168.0
170.105042 156.0
170.767654 136.0
171.061691 124.0
171.090683 1764.0
171.181458 40.0
171.384628 148.0
171.460205 144.0
171.608795 84.0
171.877457 204.0
172.098679 540.0
172.357925 56.0
172.687332 100.0
173.107178 2612.0
173.195114 160.0
173.438812 56.0
173.913574 116.0
174.108139 656.0
174.481003 200.0
176.101639 192.0
176.128052 176.0
176.886978 216.0
176.918747 124.0
177.045837 152.0
177.157089 92.0
178.811371 64.0
178.8302 248.0
179.197495 72.0
180.387787 132.0
181.667862 52.0
182.097336 148.0
183.092468 224.0
183.184052 220.0
183.46431 116.0
184.022797 180.0
184.070724 176.0
184.096375 536.0
184.113022 224.0
184.174026 160.0
184.717361 76.0
185.103592 204.0
185.153137 104.0
185.342773 120.0
185.51741 240.0
185.722321 192.0
186.526077 104.0
187.296158 104.0
188.849289 132.0
189.188599 80.0
189.931244 204.0
191.178619 188.0
191.718399 96.0
191.91687 100.0
192.181656 108.0
192.728378 68.0
192.899734 124.0
193.159668 116.0
193.995987 44.0
194.467545 160.0
196.144836 136.0
196.214523 152.0
196.672028 184.0
196.942871 96.0
197.459961 172.0
198.235443 172.0
198.863678 144.0
199.125031 200.0
199.147263 192.0
199.627853 148.0
199.700974 80.0
199.85289 132.0
199.928864 76.0
200.130539 176.0
200.244202 96.0
200.305008 204.0
200.43576 60.0
200.542862 44.0
200.792221 196.0
200.847382 52.0
200.971695 164.0
200.996918 228.0
201.050095 256.0
201.089249 172.0
201.139038 49156.0
201.199051 212.0
201.232941 260.0
201.296127 64.0
201.351166 92.0
201.387131 104.0
201.407761 120.0
201.444748 52.0
201.452652 108.0
201.502335 44.0
201.544281 84.0
201.563477 56.0
201.574219 100.0
201.601822 116.0
201.688843 104.0
201.722763 92.0
201.75386 92.0
201.773651 80.0
201.859497 96.0
201.926361 140.0
201.946152 148.0
201.971619 92.0
202.079941 164.0
202.141678 4548.0
202.234756 56.0
202.339508 76.0
202.438614 40.0
202.494598 88.0
202.608551 184.0
202.659561 56.0
202.691589 52.0
202.724731 40.0
202.823929 144.0
203.150452 404.0
203.226746 108.0
203.272049 96.0
203.394089 152.0
203.442337 112.0
203.479248 80.0
203.513321 56.0
203.57579 60.0
203.60704 80.0
203.637604 152.0
203.686905 144.0
203.88829 112.0
203.936615 156.0
204.010529 104.0
204.141312 184.0
204.337585 124.0
204.366043 72.0
204.639282 128.0
204.738953 68.0
205.129303 84.0
205.594223 80.0
205.635376 96.0
205.714111 48.0
206.969238 96.0
208.179367 60.0
208.343094 48.0
210.97142 68.0
211.49791 192.0
213.543503 96.0
213.563858 60.0
215.070297 44.0
218.575485 100.0
225.691803 76.0
236.648911 44.0
241.78363 76.0
254.321655 68.0
265.789215 48.0
266.250183 36.0
280.281799 40.0
280.395111 84.0
290.438721 104.0
315.378204 124.0
318.990295 40.0
321.576355 36.0
329.364563 76.0
335.519318 84.0
337.180206 44.0
342.091736 124.0
344.381622 80.0
354.362885 104.0
355.19516 56.0
359.340942 80.0
391.153931 36.0
407.745178 60.0
407.84967 92.0
410.95871 108.0
413.475525 88.0
413.674591 32.0
414.569733 52.0
421.205811 84.0
434.590424 44.0
445.571472 108.0
447.24939 108.0
460.077332 112.0
460.679474 72.0
495.622192 84.0
512.905151 100.0
530.094727 68.0
558.511902 100.0
573.09259 132.0
605.162537 60.0
606.367615 124.0
634.831665 52.0
649.356689 188.0
651.285461 228.0
667.620544 240.0
680.783447 216.0
693.644897 84.0
698.575867 48.0
702.110229 100.0
709.985107 168.0
713.516235 40.0
716.475342 184.0
716.954895 208.0
730.259583 188.0
742.60144 192.0
744.186096 252.0
746.419312 152.0
772.157043 192.0
773.036682 204.0
775.844971 168.0
781.671448 168.0
793.967407 32.0
799.506836 200.0
801.765198 156.0
811.403076 160.0
823.112976 112.0
823.392822 224.0
826.662903 192.0
833.348999 212.0
833.787292 72.0
834.487061 208.0
836.385498 176.0
838.274597 88.0
838.996094 96.0
841.516357 256.0
847.363831 200.0
851.446716 132.0
854.004944 128.0
868.267944 196.0
883.482971 108.0
886.858337 136.0
890.453979 140.0
896.546265 84.0
897.661011 188.0
898.406616 120.0
902.115173 168.0
902.605469 164.0
904.771423 172.0
906.454529 96.0
908.607117 204.0
911.711548 212.0
924.466614 128.0
925.211121 164.0
925.562256 156.0
926.961548 128.0
929.981873 140.0
934.393677 128.0
938.767212 188.0
940.347351 172.0
940.95166 216.0
942.826965 116.0
945.120178 184.0
945.346619 136.0
949.647461 160.0
953.75531 176.0
956.942017 236.0
957.366882 64.0
960.645996 192.0
972.421448 176.0
974.203613 108.0
976.273438 168.0
978.918274 188.0
982.539734 76.0
982.876648 216.0
983.026428 68.0
985.930359 228.0
986.399109 184.0
990.360046 144.0
991.788696 68.0
991.945435 144.0
995.427612 144.0
996.306946 168.0
996.809631 212.0
1000.161804 124.0
1002.277893 188.0
1003.456604 160.0
1004.333191 80.0
1005.052368 68.0
1018.080261 200.0
1018.899658 156.0
1019.554138 180.0
1021.926086 64.0
1022.339661 184.0
1024.638428 40.0
1024.810425 176.0
1032.374756 144.0
1032.924805 128.0
1033.603027 104.0
1034.960083 168.0
1035.831055 172.0
1037.766479 124.0
1038.965942 124.0
1041.340942 172.0
1043.429443 156.0
1044.548462 208.0
1046.699097 128.0
1049.771973 204.0
1050.604004 144.0
1054.161743 108.0
1055.07959 76.0
1056.30835 172.0
1060.005249 136.0
1060.828369 76.0
1063.176392 128.0
1063.384155 200.0
1063.780029 192.0
1064.020264 196.0
1064.176147 216.0
1067.45105 176.0
1069.435303 188.0
1070.02771 160.0
1072.307739 196.0
1072.770508 148.0
1074.505371 140.0
1080.705811 176.0
1081.609009 96.0
1082.447021 240.0
1083.056152 112.0
1083.907837 156.0
1089.307495 188.0
1093.009033 120.0
1095.695435 128.0
1097.600342 168.0
1097.785034 136.0
1098.649048 196.0
1099.58606 248.0
1101.950195 224.0
1102.009644 168.0
1103.688477 156.0
1104.025757 152.0
1107.772095 192.0
1109.33606 76.0
1109.561523 188.0
1112.387573 160.0
1114.054443 212.0
1118.643066 52.0
1121.280884 44.0
1121.700806 220.0
1122.567505 152.0
1123.201172 208.0
1123.821533 136.0
1124.595703 232.0
1125.610474 164.0
1126.632446 140.0
1131.119629 128.0
1131.64856 196.0
1132.130615 196.0
1133.068481 168.0
1135.039062 196.0
1135.716431 132.0
1136.440918 180.0
1137.561768 140.0
1138.817383 160.0
1140.107422 124.0
1141.404907 72.0
1142.541626 164.0
1144.931152 132.0
1145.409424 184.0
1146.076416 180.0
1146.979492 124.0
1147.093506 216.0
1148.833862 164.0
1150.318604 80.0
1151.203125 168.0
1151.898804 120.0
1152.364868 136.0
1152.641968 152.0
1155.901367 188.0
1163.662476 176.0
1164.103882 176.0
1165.448853 232.0
1165.63916 60.0
1167.277344 204.0
1167.447388 168.0
1168.501709 144.0
1169.522461 172.0
1171.081787 180.0
1172.47168 160.0
1172.696655 140.0
1177.342896 136.0
1182.799072 180.0
1183.58728 160.0
1184.05896 48.0
1184.921997 176.0
1185.113892 180.0
1185.88147 64.0
1186.327026 124.0
1186.409302 156.0
1187.273193 208.0
1188.453125 140.0
1189.139404 236.0
1190.268433 140.0
1191.597778 184.0
1194.099976 148.0
1195.297119 176.0
1195.703125 176.0
1196.095459 100.0
1196.501587 136.0
1197.327881 212.0
1197.486328 96.0
1201.305176 88.0
1203.403198 240.0
1203.776123 172.0
1204.280273 180.0
1204.839844 232.0
1206.781982 188.0
1206.878784 204.0
1208.877808 160.0
1209.189331 104.0
1209.791504 160.0
1209.888428 200.0
1210.116943 128.0
1211.529785 224.0
1212.07019 168.0
1213.581299 144.0
1213.775513 172.0
1213.893311 148.0
1214.385742 72.0
1214.642456 100.0
1215.065552 280.0
1215.474976 268.0
1216.842407 152.0
1218.689941 188.0
1219.621216 232.0
1221.790894 172.0
1222.46582 240.0
1224.408081 36.0
1224.770264 136.0
1226.066284 136.0
1226.247681 192.0
1227.244385 144.0
1228.137085 156.0
1230.300293 68.0
1230.66333 48.0
1230.942627 152.0
1231.669067 132.0
1233.828369 112.0
1234.779419 268.0
1235.919678 104.0
1239.673096 208.0
1241.096069 192.0
1243.6427 156.0
1243.783081 136.0
1244.337769 156.0
1245.398071 172.0
1248.328857 196.0
1248.603149 76.0
1249.827148 148.0
1250.843384 200.0
1250.988525 68.0
1251.115234 148.0
1252.206665 180.0
1252.601196 220.0
1253.545288 188.0
1254.715332 48.0
1254.891602 96.0
1255.561523 120.0
1258.779541 116.0
1260.27002 152.0
1260.460815 224.0
1261.128296 192.0
1262.744263 224.0
1265.044067 156.0
1266.666992 200.0
1268.040283 120.0
1269.92627 124.0
1269.990112 152.0
1270.550537 144.0
1271.898926 168.0
1272.900024 232.0
1274.434326 184.0
1274.711426 196.0
1280.260254 128.0
1280.345825 200.0
1281.058105 128.0
1281.78479 156.0
1282.048462 244.0
1283.666748 60.0
1284.558228 156.0
1284.743774 172.0
1287.92041 36.0
1288.520508 160.0
1289.563843 52.0
1290.714844 148.0
1291.229736 260.0
1292.467407 140.0
1297.043823 124.0
1297.316162 120.0
1298.614136 132.0
1298.736084 368.0
1299.173584 228.0
1299.345825 148.0
1299.62561 200.0
1304.092529 156.0
1304.559814 200.0
1306.55188 184.0
1306.83252 116.0
1308.545532 140.0
1309.812988 236.0
1310.973022 196.0
1311.246826 100.0
1312.191162 184.0
1312.27771 276.0
1313.30896 132.0
1315.112915 116.0
1315.479248 184.0
1316.838501 176.0
1318.731567 180.0
1320.727173 116.0
1320.821289 164.0
1321.544678 116.0
1322.203247 156.0
1323.93042 160.0
1325.491089 48.0
1325.599731 124.0
1325.954834 220.0
1326.049072 192.0
1327.883423 204.0
1328.296875 56.0
1328.449219 164.0
1329.755371 140.0
1330.386841 168.0
1330.568359 212.0
1330.691772 140.0
1332.0354 40.0
1333.772095 120.0
1334.084717 168.0
1335.408081 140.0
1335.829956 44.0
1336.026367 112.0
1336.58667 124.0
1336.928711 172.0
1338.027832 184.0
1338.741455 176.0
1341.440918 136.0
1342.881104 196.0
1343.40625 60.0
1343.800293 88.0
1344.011841 40.0
1344.084839 192.0
1345.223389 164.0
1345.442505 144.0
1345.676025 144.0
1347.377808 108.0
1348.707886 192.0
1349.109863 116.0
1349.292725 200.0
1350.009277 176.0
1351.325928 44.0
1351.582031 196.0
1352.650635 168.0
1352.745728 232.0
1356.371826 36.0
1356.69812 20.0
1357.126953 156.0
1357.955688 204.0
1359.525757 164.0
1361.765015 88.0
1362.353516 244.0
1362.602417 108.0
1363.44751 140.0
1363.932617 120.0
1364.608887 144.0
1364.858887 108.0
1365.697388 172.0
1366.499146 128.0
1367.271851 192.0
1369.156616 164.0
1371.728149 164.0
1372.192627 156.0
1374.493896 76.0
1375.305786 164.0
1375.977539 40.0
1376.34668 140.0
1376.789795 216.0
1376.959595 136.0
1377.026123 64.0
1378.769775 148.0
1378.976685 92.0
1379.812012 244.0
1380.078247 140.0
1380.906494 188.0
1383.215088 116.0
1383.651855 184.0
1383.859131 156.0
1384.096069 200.0
1385.07373 164.0
1385.762695 208.0
1387.274658 84.0
1387.430298 32.0
1388.201416 124.0
1389.121216 220.0
1389.447632 172.0
1389.618286 204.0
1390.545898 32.0
1391.280762 164.0
1392.595093 72.0
1393.464233 208.0
1394.147949 92.0
1394.802002 120.0
1395.121582 216.0
1396.460083 176.0
1397.077515 208.0
1398.290405 212.0
1398.670044 156.0
1398.878418 176.0
1399.95813 128.0
1400.241089 156.0
1400.442261 204.0
1401.485474 120.0
1401.619263 212.0
1402.357178 240.0
1402.97583 268.0
1403.221924 60.0
1405.675903 140.0
1407.810913 220.0
1408.027588 164.0
1410.911865 172.0
1411.11377 120.0
1412.467407 180.0
1412.542236 176.0
1412.976074 188.0
1413.911499 124.0
1414.368042 192.0
1414.622559 172.0
1416.022827 220.0
1416.741943 192.0
1416.95166 172.0
1417.378784 192.0
1420.085205 216.0
1420.610229 232.0
1420.970337 160.0
1422.328735 144.0
1422.448853 208.0
1422.906738 48.0
1423.55249 200.0
1424.040649 208.0
1424.50647 180.0
1429.423584 224.0
1430.146118 144.0
1430.981812 164.0
1431.364624 136.0
1432.864746 172.0
1434.726196 128.0
1434.922241 160.0
1436.098633 136.0
1436.596558 168.0
1437.44165 268.0
1437.501953 168.0
1437.864258 84.0
1438.868164 184.0
1438.981445 164.0
1441.753662 196.0
1443.182495 168.0
1443.636108 240.0
1445.391235 132.0
1445.610596 192.0
1447.442627 128.0
1448.078735 164.0
1451.40564 64.0
1451.489136 148.0
1452.223877 176.0
1452.323364 124.0
1452.543335 184.0
1453.233643 136.0
1453.322632 192.0
1453.749634 112.0
1454.028931 224.0
1454.317871 180.0
1455.617188 156.0
1455.776611 260.0
1455.8573 252.0
1456.348633 188.0
1456.467773 164.0
1457.957031 200.0
1458.967896 80.0
1459.781494 96.0
1460.854004 136.0
1461.135498 148.0
1461.508301 248.0
1461.901123 136.0
1462.931519 52.0
1463.868042 220.0
1464.8125 160.0
1466.351685 148.0
1466.755737 176.0
1466.900513 272.0
1467.190186 204.0
1469.150269 156.0
1469.447754 152.0
1469.791138 196.0
1470.706909 164.0
1471.500854 84.0
1473.035889 140.0
1474.549561 204.0
1474.709351 180.0
1475.684448 140.0
1476.552002 172.0
1476.643799 112.0
1477.049194 192.0
1477.508179 168.0
1477.569336 160.0
1477.898438 36.0
1478.12793 184.0
1479.33728 176.0
1480.4552 144.0
1481.106201 236.0
1481.718994 188.0
1481.987183 236.0
1483.297729 228.0
1483.474121 204.0
1483.52771 160.0
1484.447876 152.0
1484.785278 244.0
1485.03064 180.0
1486.580444 196.0
1487.747192 136.0
1488.430542 160.0
1488.898926 204.0
1489.021851 280.0
1489.209717 176.0
1490.396973 176.0
1490.473755 144.0
1490.934937 48.0
1491.45752 196.0
1492.949097 224.0
1493.302856 188.0
1494.233765 144.0
1495.118652 160.0
1495.172485 72.0
1495.680542 184.0
1496.619751 164.0
1497.790405 184.0
1499.200317 144.0
1500.364258 184.0
1500.456787 156.0
1500.996582 208.0
1501.081421 116.0
1501.837158 248.0
1502.068604 72.0
1502.315918 144.0
1504.182983 112.0
1504.290039 116.0
1505.06311 172.0
