>compound Sorafenib
>formula C21H16ClF3N4O3 
>ionization [M+H]+
>parentmass 465.095062
#inchi InChI=1S/C21H16ClF3N4O3/c1-26-19(30)18-11-15(8-9-27-18)32-14-5-2-12(3-6-14)28-20(31)29-13-4-7-17(22)16(10-13)21(23,24)25/h2-11H,1H3,(H,26,30)(H2,28,29,31)
#inchikey MLDQJTXFUGDVEO
#Ion_Source LC-ESI
#Instrument qTof
#Compound_Source Isolated
#PI Sirenas
#Data_Collector Ed Esquenazi 
#Scan -1
#Precursor_MZ 465.096
#ExactMass 0.0
#Charge 1
#CAS_Number N/A
#Pubmed_ID N/A
#Smiles N/A
#INCHI_AUX N/A
#Library_Class 3
#SpectrumID CCMSLIB00000005683
#IonMode Positive
#UpdateWorkflowName UPDATE-SINGLE-ANNOTATED-BRONZE
#LibraryQualityString Bronze
#TaskID d19310cd93df49b68e9fcbec27720eb5
##Scan# 2
#SpectrumFile Sorafenib.mgf
#LibraryName fda_library.mgf
#MQScore -1
#Organism fda_library
#TIC_Query 0
#RT_Query -1
#MZErrorPPM -1
#SharedPeaks 0
#MassDiff 0
#LibMZ -1
#SpecMZ 465.096
#SpecCharge 0
#internalFilename spec-00000.mgf

>collision 10
108.045319 99.550323
117.06086 55.25444
118.050598 12.34722
128.989914 8.031566
130.409012 19.628269
152.049438 53.32671
156.131561 7.573412
167.041214 18.68939
172.078171 54.415249
183.997284 16.670139
185.0755 30.206051
193.015762 150.690094
193.077988 4.763889
193.358276 9.858334
196.014572 178.193604
196.190262 11.31317
196.20787 2.695513
197.592407 10.22685
201.988922 359.778015
202.347183 4.761364
204.07048 14.71102
211.050156 508.924713
211.099289 4.7
211.129608 4.688725
211.29921 5.387821
211.44397 15.55864
211.498779 5.008333
211.517059 5.884804
224.807739 9.090909
225.062378 56.200581
226.096954 235.902802
226.554688 5.782407
226.881042 5.068182
229.019028 30.680189
233.55394 10.37255
239.04335 85.62854
239.48082 3.688725
242.673126 8.833333
243.010117 1.777778
243.475327 13.26786
243.774506 5.0625
244.058182 28.2924
244.107819 444.979004
244.171188 6.0
244.279266 5.802778
244.372482 15.16333
244.470261 7.721847
244.489059 11.97984
244.649796 9.204166
244.69548 33.50539
251.289276 6.422222
252.07547 1188.235962
252.118118 3.66886
252.320389 4.15
252.498505 11.75788
252.592621 14.53289
252.647812 3.802778
253.561249 8.734849
253.757782 7.653986
257.046753 12.5376
259.050659 70.388817
264.639648 2.791667
266.121063 12.10526
266.973969 22.619591
268.407928 2.00463
268.455109 11.57407
268.477509 12.1875
268.594025 4.387821
268.638275 19.884609
268.676392 4.225
268.73288 5.030303
268.761414 19.14613
268.778503 2.041667
269.289276 14.70833
269.309204 9.809524
270.048737 48.94907
270.08786 4563.229004
270.161072 16.06307
270.209198 14.66513
270.234406 34.118649
270.263458 19.704189
270.308746 25.27327
270.371765 35.413219
270.39978 21.800579
270.443176 25.71842
270.485596 43.529968
270.507141 20.41346
270.589569 13.78667
270.623901 14.76313
270.651337 38.594521
270.690033 18.01766
270.930817 25.596491
270.970062 4.169643
271.0271 8.008333
271.104828 2.005952
271.400635 26.210751
271.535339 13.675
272.543762 10.41667
371.075409 24.900459
372.907867 7.880051
386.043396 75.238998
396.383301 17.52083
403.451141 7.843137
405.038727 4.166667
405.953857 21.41346
406.055695 1004.755005
406.104675 4.341667
406.166931 11.44048
406.303284 10.88167
406.36618 18.09243
406.473969 15.67738
406.5737 11.33681
406.721008 11.70157
406.96106 22.181499
407.092957 6.399193
408.413635 4.668334
412.23349 8.388441
422.381287 18.36574
422.425629 16.6674
422.544952 10.05511
422.824677 11.35753
423.268311 15.53938
424.821899 9.708333
425.08255 1098.659058
425.159973 2.722222
425.189362 13.3836
425.303711 8.840278
425.346832 15.90278
425.382446 17.61343
425.584534 16.074209
425.626343 2.337963
425.949371 25.796539
426.052856 8.226851
426.259308 3.555556
426.775482 6.667929
427.321838 21.00046
434.04715 46.164661
444.18335 3.666667
444.337708 11.26667
444.960754 4.35
445.086243 103.547203
445.739349 8.347826
445.820435 5.573412
446.216888 3.727941
446.657928 4.703703
446.988861 15.32107
447.042267 15.5641
447.08429 2031.083008
447.202179 5.002778
447.259064 5.336111
447.290436 43.225559
447.319885 3.016667
447.344147 21.76416
447.390839 12.39009
447.493805 47.772949
447.530182 18.760059
447.5802 23.148149
447.621613 6.352941
447.687836 12.33796
447.733246 14.30968
447.86795 14.12927
448.108185 50.431641
448.41687 4.673611
448.455811 14.0947
449.006836 2.449074
457.243286 6.160088
458.305542 12.68003
461.977081 4.002778
462.037506 6.673611
462.081787 5.007408
462.141663 63.548241
462.186005 2.416667
462.2164 2.00463
462.266632 40.405151
462.303558 3.854167
462.335876 26.51914
462.411163 23.527599
462.470642 48.346489
462.605591 11.90705
462.709534 5.672619
462.796539 24.191469
463.099335 29.989281
463.503754 3.688725
463.56366 2.722222
463.653748 7.291667
463.735809 16.3375
463.773407 8.745155
463.818359 3.0
463.899384 7.815
463.930756 7.686274
464.044525 3.926282
464.208527 14.36694
464.665375 8.442204
465.001709 55.43716
465.030487 30.07419
465.095062 14910.879883
465.212585 119.781303
465.283051 7.297619
465.317657 109.263
465.374329 118.805496
465.423279 83.887604
465.471954 90.04599
465.514679 73.804024
465.573303 22.025841
465.605743 18.111839
465.628113 33.67852
465.671631 32.465179
465.695587 103.982201
465.757477 72.691757
465.791046 93.413437
465.851105 6.564103
466.053741 10.66667
466.245575 47.779591
466.355438 20.021049
466.45401 9.836111
466.492157 11.92222
466.570007 25.552271
466.722443 5.840278
466.896118 29.1553
467.316467 6.37037
467.354156 17.84009
467.543213 7.001984
468.008667 15.82273
468.279083 6.916667
468.610779 8.560185
469.487823 12.02115
469.575195 10.34069
470.387451 5.852273
471.123047 35.880009
471.824402 2.700758
491.669312 4.225
1104.353516 14.13225
1395.281982 9.727941
