>compound MLS002207176-01!3,4,5-trimethoxybenzoic acid
>formula C10H12O5
>ionization [M+H]+
>parentmass 213.076
#inchi InChI=1S/C10H12O5/c1-13-7-4-6(10(11)12)5-8(14-2)9(7)15-3/h4-5H,1-3H3,(H,11,12)
#inchikey SJSOFNCYXJUNBT
#Ion_Source LC-ESI
#Instrument qTof
#Compound_Source NIH Natural Product Library
#PI Dorrestein
#Data_Collector VVP/LMS
#Scan -1
#Precursor_MZ 213.076
#ExactMass 212.068
#Charge 1
#CAS_Number N/A
#Pubmed_ID N/A
#Smiles COc1cc(cc(OC)c1OC)C(=O)O
#INCHI_AUX N/A
#Library_Class 1
#SpectrumID CCMSLIB00000080344
#IonMode Positive
#UpdateWorkflowName UPDATE-SINGLE-ANNOTATED-GOLD
#LibraryQualityString Gold
#TaskID b1d8e8f6646f4e71acdff9ca3d919d08
##Scan# 1591
#SpectrumFile p2-E07_GE7_01_18031.mzXML
#LibraryName NIH_Natural_Products_Library.mgf
#MQScore -1
#Organism NIH_Natural_Products_Library
#TIC_Query 0
#RT_Query -1
#MZErrorPPM -1
#SharedPeaks 0
#MassDiff 0
#LibMZ -1
#SpecMZ 213.076
#SpecCharge 0
#internalFilename spec-00000.mgf

>collision 10
95.047623 328.0
95.065674 140.0
95.5242 84.0
95.753883 160.0
95.859077 136.0
96.022736 480.0
97.063217 160.0
97.098518 140.0
98.381447 188.0
104.476395 160.0
106.241486 196.0
107.013039 436.0
107.049248 196.0
108.029633 224.0
108.0578 292.0
109.030991 192.0
109.065025 920.0
109.711761 132.0
110.036942 184.0
110.974541 148.0
111.044456 1404.0
111.472015 152.0
111.823219 68.0
112.055328 196.0
112.645554 56.0
113.574814 180.0
115.875015 120.0
115.962875 136.0
116.933662 144.0
117.049911 152.0
119.456642 112.0
121.028748 204.0
122.038368 204.0
122.090096 52.0
122.512711 200.0
123.043022 964.0
123.749481 48.0
124.028618 200.0
124.050735 192.0
124.319153 160.0
124.676697 92.0
125.025856 192.0
125.059685 316.0
125.270775 64.0
126.070465 260.0
127.036797 184.0
127.146736 168.0
127.398224 60.0
127.611725 104.0
129.070557 156.0
133.025818 128.0
136.008209 128.0
136.751984 196.0
137.021118 188.0
138.07048 1176.0
138.789093 164.0
138.864136 156.0
139.039383 2516.0
139.069992 388.0
140.042389 448.0
146.367249 76.0
147.781693 160.0
151.034332 220.0
152.011841 128.0
152.043396 204.0
152.854691 80.0
152.95314 80.0
153.062515 384.0
154.062469 1396.0
154.107285 56.0
154.186356 60.0
154.277817 56.0
154.5672 68.0
155.067032 368.0
169.09166 168.0
178.061462 124.0
183.030243 220.0
189.560623 64.0
195.063202 340.0
284.878693 40.0
325.43399 20.0
330.537933 32.0
341.089142 88.0
358.746246 40.0
807.563232 104.0
924.787842 228.0
936.975037 184.0
942.215637 52.0
1008.396057 160.0
1013.452209 148.0
1017.644653 112.0
1080.581177 196.0
1145.702271 284.0
1174.402954 236.0
1200.919312 204.0
1224.302979 168.0
1262.218262 164.0
1276.214966 192.0
1298.602295 136.0
1322.197388 168.0
1322.421753 196.0
1351.025879 168.0
1372.574707 132.0
1382.191895 144.0
1384.168213 188.0
1386.338623 216.0
1485.452637 176.0
1501.998291 208.0
