>compound MLS001304028-01!
>formula C16H13Cl2NO4
>ionization [M+H]+
>parentmass 354.02943970809054
#inchi InChI=1S/C16H13Cl2NO4/c17-11-5-3-6-12(18)16(11)19-13-7-2-1-4-10(13)8-15(22)23-9-14(20)21/h1-7,19H,8-9H2,(H,20,21)
#inchikey MNIPYSSQXLZQLJ
#Ion_Source LC-ESI
#Instrument qTof
#Compound_Source NIH Pharmacologically Active Library
#PI Dorrestein
#Data_Collector VP/LMS
#Scan -1
#Precursor_MZ 354.034
#ExactMass 353.022
#Charge 1
#CAS_Number N/A
#Pubmed_ID N/A
#Smiles OC(=O)COC(=O)Cc1ccccc1Nc2c(Cl)cccc2Cl
#INCHI_AUX N/A
#Library_Class 1
#SpectrumID CCMSLIB00000085455
#IonMode Positive
#UpdateWorkflowName UPDATE-SINGLE-ANNOTATED-GOLD
#LibraryQualityString Gold
#TaskID d252d724072548979f1f6f1ced849daf
##Scan# 2280
#SpectrumFile p4-B03_GB3_01_18339.mzXML
#LibraryName Pharm_Active_Library.mgf
#MQScore -1
#Organism Pharm_Active_Library
#TIC_Query 0
#RT_Query -1
#MZErrorPPM -1
#SharedPeaks 0
#MassDiff 0
#LibMZ -1
#SpecMZ 354.034
#SpecCharge 0
#internalFilename spec-00000.mgf

>collision 10
44.991653 212.0
45.022366 188.0
45.146648 124.0
45.192127 248.0
45.437305 168.0
45.559475 140.0
45.673733 316.0
45.793526 220.0
45.964733 172.0
45.999825 196.0
46.161949 108.0
46.717167 144.0
46.840549 152.0
47.366447 124.0
47.624313 100.0
47.712944 184.0
47.797531 160.0
47.852589 172.0
47.867733 92.0
48.29694 68.0
48.494934 212.0
48.683613 140.0
48.906055 164.0
49.074615 96.0
49.24696 160.0
49.429398 196.0
49.495186 136.0
49.51059 148.0
49.56522 132.0
49.69141 108.0
49.734127 172.0
49.754566 220.0
49.949894 228.0
49.980846 132.0
50.02166 124.0
50.070938 212.0
50.192131 172.0
50.353004 160.0
50.553749 240.0
50.692524 36.0
50.730793 196.0
50.78751 36.0
50.97633 216.0
51.104301 112.0
51.11853 80.0
51.176891 216.0
51.206795 160.0
51.289433 128.0
51.3731 172.0
51.392113 128.0
51.478424 128.0
51.623512 168.0
51.703625 232.0
51.743702 172.0
51.962978 40.0
51.980198 132.0
52.175533 68.0
52.227299 128.0
52.25634 64.0
52.326591 136.0
52.580288 28.0
52.935913 116.0
53.191078 172.0
53.427948 136.0
53.443951 184.0
53.697418 60.0
53.710548 44.0
53.771828 188.0
53.836578 248.0
53.868195 80.0
53.909103 108.0
54.646652 80.0
54.668724 208.0
54.905903 80.0
55.088924 160.0
55.125862 220.0
55.279652 184.0
55.364033 112.0
55.690311 168.0
55.722992 176.0
55.75568 104.0
55.898441 172.0
55.929695 80.0
56.054794 184.0
56.171085 92.0
56.241856 232.0
56.611984 208.0
56.685387 132.0
56.742344 128.0
56.905876 60.0
57.189991 216.0
57.385826 96.0
57.414474 152.0
57.435589 200.0
57.619759 208.0
57.875362 100.0
57.898075 180.0
58.045067 180.0
58.172508 216.0
58.286415 68.0
58.35025 80.0
58.360893 192.0
58.746201 164.0
58.820972 40.0
58.956905 136.0
59.192482 140.0
59.574379 172.0
59.588207 136.0
59.703487 68.0
59.720406 176.0
59.745018 180.0
59.917439 132.0
59.952881 32.0
60.109676 212.0
60.259941 132.0
60.31403 96.0
60.395977 216.0
60.44239 124.0
60.651459 132.0
60.682465 124.0
60.693317 204.0
60.711926 152.0
60.727432 168.0
60.742943 48.0
60.896606 108.0
60.958748 136.0
60.992939 152.0
61.014702 168.0
61.045799 164.0
61.06913 160.0
61.146919 68.0
61.174938 112.0
61.293301 148.0
61.346291 56.0
61.372795 52.0
61.46014 152.0
61.474186 164.0
61.608459 168.0
61.828926 44.0
61.857098 208.0
62.007462 172.0
62.170563 152.0
62.219219 168.0
62.252193 120.0
62.327591 116.0
62.421902 176.0
62.966667 204.0
63.120449 220.0
63.166313 240.0
63.215359 152.0
63.703686 96.0
63.730694 140.0
63.762474 124.0
63.937416 84.0
64.040901 184.0
64.052048 204.0
64.147659 136.0
64.158813 108.0
64.18911 164.0
64.29599 188.0
64.415741 72.0
64.438103 160.0
64.575577 200.0
64.629967 96.0
65.033806 160.0
65.255486 168.0
65.46949 128.0
65.543594 168.0
65.577431 192.0
65.774208 188.0
66.02626 128.0
66.165413 168.0
66.256104 132.0
66.367935 168.0
66.468498 196.0
66.64386 184.0
66.679436 188.0
66.738129 184.0
66.928497 208.0
67.177849 156.0
67.228432 80.0
67.292229 204.0
67.702507 204.0
67.848335 192.0
67.93853 192.0
68.061623 108.0
68.263176 212.0
68.28511 112.0
68.327881 152.0
68.367065 108.0
68.428276 160.0
68.538628 124.0
68.550163 72.0
68.642471 200.0
68.680405 196.0
68.708122 164.0
68.837189 164.0
68.977615 116.0
69.135445 132.0
69.154602 172.0
69.197639 60.0
69.257256 164.0
69.442886 108.0
69.46611 136.0
69.505928 176.0
69.520859 212.0
69.647034 180.0
69.663651 172.0
69.846497 124.0
69.893082 168.0
70.114838 164.0
70.436569 172.0
70.744247 144.0
70.806198 164.0
70.833 196.0
71.444031 180.0
71.69828 140.0
71.779198 132.0
71.951294 88.0
72.174309 156.0
72.25042 172.0
72.279182 120.0
72.363808 164.0
72.707909 164.0
72.959297 180.0
73.044319 152.0
73.093658 188.0
73.192383 192.0
73.315033 160.0
73.349121 176.0
73.407089 184.0
73.523087 108.0
73.657188 216.0
73.714348 124.0
74.452675 224.0
74.521385 104.0
75.168793 92.0
75.18605 60.0
75.318993 124.0
75.360458 40.0
75.379463 116.0
75.408844 200.0
75.426125 136.0
75.439957 208.0
75.453781 192.0
75.529869 104.0
75.711601 196.0
75.950775 188.0
76.008026 192.0
76.047935 128.0
76.086128 72.0
76.212914 92.0
76.378067 152.0
76.531204 212.0
76.548622 140.0
76.642677 196.0
76.708908 168.0
76.747261 184.0
76.797836 140.0
77.007278 132.0
77.07016 144.0
77.120842 152.0
77.185524 52.0
77.239738 164.0
77.530373 244.0
78.07811 68.0
78.115044 156.0
78.134392 36.0
78.18718 104.0
78.356216 144.0
78.370316 228.0
78.514862 240.0
78.654243 120.0
78.823784 52.0
78.844994 72.0
79.071358 100.0
79.18998 84.0
79.248436 176.0
79.317551 168.0
79.347687 124.0
79.423943 176.0
79.548149 140.0
79.720428 136.0
79.844872 156.0
79.933815 88.0
79.949837 48.0
80.005013 168.0
80.049522 104.0
80.19561 44.0
80.379288 148.0
80.475677 180.0
80.514961 156.0
80.575691 128.0
80.606064 176.0
80.629295 192.0
80.675766 152.0
80.732986 180.0
80.747292 112.0
80.944138 120.0
81.252419 240.0
81.282921 88.0
81.308044 120.0
81.422043 88.0
81.444496 300.0
81.807724 180.0
81.829323 152.0
82.103218 120.0
82.198822 128.0
82.211456 168.0
82.276436 200.0
82.449829 148.0
82.558304 160.0
82.625221 144.0
82.657791 116.0
82.731995 184.0
82.824348 184.0
82.940315 152.0
82.998322 172.0
83.092636 176.0
83.168854 156.0
83.217499 196.0
83.419518 104.0
83.892822 116.0
83.916519 144.0
84.014999 252.0
84.067917 92.0
84.255981 136.0
84.367455 180.0
84.530235 108.0
84.671196 132.0
84.718819 208.0
84.91494 160.0
85.045204 236.0
85.221497 176.0
85.280304 196.0
85.475243 144.0
85.611458 164.0
85.716461 200.0
85.85656 56.0
85.935875 64.0
86.085388 104.0
86.177742 100.0
86.229485 188.0
86.518036 164.0
86.684731 128.0
86.749596 196.0
86.762573 164.0
86.855293 200.0
87.039017 104.0
87.072449 232.0
87.19931 196.0
87.219223 84.0
87.364265 168.0
87.455444 152.0
87.62117 192.0
87.649124 168.0
87.779602 160.0
87.792656 116.0
87.923241 168.0
88.067001 148.0
88.132668 132.0
88.250137 56.0
88.425972 168.0
88.545792 152.0
88.611351 180.0
88.703178 76.0
88.744423 180.0
89.042786 104.0
89.069084 188.0
89.095383 108.0
89.140472 196.0
89.153625 160.0
89.241974 140.0
89.313431 128.0
89.490326 148.0
89.552467 196.0
89.722061 152.0
89.782394 52.0
90.010727 152.0
90.158073 140.0
90.314995 156.0
90.392563 148.0
90.451225 156.0
90.576202 152.0
90.729691 148.0
90.890907 184.0
90.928856 96.0
91.05986 212.0
91.07505 116.0
91.170395 240.0
91.272697 60.0
91.306923 228.0
91.445808 180.0
91.626709 140.0
91.643852 164.0
91.788712 96.0
92.386513 144.0
92.493675 140.0
92.767593 196.0
92.830864 192.0
92.894157 100.0
92.965141 60.0
92.980499 180.0
93.030403 164.0
93.264748 84.0
93.303192 156.0
93.420502 96.0
93.523735 208.0
93.559059 120.0
93.767082 180.0
93.81913 88.0
93.905899 160.0
94.330681 152.0
94.379013 164.0
94.704124 176.0
94.849449 88.0
94.985176 252.0
95.136536 100.0
95.190903 176.0
95.21032 152.0
95.350197 156.0
95.432472 136.0
95.492119 172.0
95.667244 180.0
95.762657 204.0
95.963364 128.0
96.002365 196.0
96.209183 108.0
96.287285 144.0
96.414268 144.0
96.601974 132.0
96.811394 148.0
96.970078 104.0
97.024963 204.0
97.2584 116.0
97.295692 184.0
97.490143 84.0
97.81073 180.0
98.025398 124.0
98.052986 68.0
98.20874 108.0
98.293571 192.0
98.342903 164.0
98.424026 128.0
98.554207 168.0
98.664886 112.0
98.702446 188.0
98.825081 160.0
98.961647 176.0
99.082458 88.0
99.239563 148.0
99.340172 128.0
99.512268 212.0
99.586304 148.0
99.643906 128.0
99.946121 168.0
99.970001 168.0
100.105362 188.0
100.242813 192.0
100.298615 164.0
100.4701 116.0
100.581856 104.0
100.613792 180.0
100.643738 76.0
100.725616 156.0
100.831512 168.0
100.847504 68.0
100.873489 160.0
101.057472 204.0
101.235619 204.0
101.329758 124.0
101.598404 216.0
101.660599 160.0
101.895523 220.0
102.221497 224.0
102.329941 148.0
102.622078 136.0
102.684593 260.0
102.777382 44.0
102.88839 52.0
103.033356 92.0
103.207611 164.0
103.229851 240.0
103.411926 88.0
103.462532 128.0
103.492897 196.0
103.651497 212.0
103.733978 180.0
103.841446 80.0
103.873894 40.0
103.890121 180.0
104.145889 84.0
104.292175 132.0
104.375526 112.0
104.438576 244.0
104.631889 164.0
104.758148 116.0
104.811119 144.0
104.902832 136.0
105.017014 248.0
105.065971 52.0
105.133301 192.0
105.425331 208.0
105.446243 136.0
105.507088 164.0
105.633629 132.0
105.664558 164.0
105.701385 196.0
105.811913 92.0
105.836479 192.0
105.863098 204.0
106.244331 204.0
106.394142 136.0
106.574875 136.0
106.6838 92.0
106.782494 148.0
107.245743 232.0
107.508003 148.0
107.53862 168.0
107.792633 148.0
107.827766 120.0
107.8629 168.0
107.989029 196.0
108.133858 96.0
108.475609 164.0
108.523293 180.0
108.61454 44.0
108.722427 160.0
108.749405 152.0
108.830368 156.0
108.971603 152.0
109.139954 196.0
109.323006 132.0
109.724335 212.0
109.764618 184.0
109.825096 72.0
109.973236 68.0
110.065086 184.0
110.088058 72.0
110.184135 204.0
110.248474 96.0
110.271896 96.0
110.75312 156.0
110.823097 172.0
111.117874 156.0
111.174522 80.0
111.724525 204.0
111.899696 176.0
111.914429 116.0
112.072403 152.0
112.091362 136.0
112.24102 100.0
112.399223 156.0
112.487862 80.0
112.506859 356.0
112.616661 164.0
112.652573 28.0
112.904091 280.0
113.109314 208.0
113.126251 64.0
113.282951 96.0
113.444 204.0
113.486076 156.0
113.552139 196.0
113.577591 172.0
113.613655 128.0
113.791924 40.0
113.95121 148.0
113.976707 220.0
114.195992 184.0
114.338211 196.0
114.438255 176.0
114.619301 192.0
114.971153 140.0
115.097092 184.0
115.197472 216.0
115.287209 76.0
115.612259 220.0
115.685028 192.0
115.727852 132.0
115.843498 168.0
116.027794 120.0
116.085686 164.0
116.130722 36.0
116.312141 228.0
116.630997 132.0
116.655792 168.0
116.684738 216.0
116.75325 148.0
116.803009 152.0
116.966545 100.0
117.020363 228.0
117.072037 140.0
117.091423 188.0
117.196976 188.0
117.281021 188.0
117.535492 192.0
117.58297 188.0
117.781601 164.0
118.043106 160.0
118.157738 328.0
118.196686 172.0
118.287086 124.0
118.985611 224.0
119.020348 104.0
119.052925 188.0
119.463715 100.0
119.61821 232.0
119.759743 140.0
120.130295 116.0
120.230659 204.0
120.261215 164.0
120.293961 176.0
120.566978 152.0
120.72345 164.0
120.81842 132.0
120.9058 184.0
121.026337 148.0
121.041664 208.0
121.072327 156.0
121.256348 188.0
121.545815 168.0
121.561172 164.0
121.74118 192.0
121.87957 64.0
122.121384 84.0
122.244583 108.0
122.359039 200.0
122.431694 204.0
122.588104 192.0
122.768867 140.0
122.839447 144.0
122.87915 116.0
122.945351 172.0
122.993904 44.0
123.06234 196.0
123.1838 160.0
123.205643 176.0
123.314163 180.0
123.347321 184.0
123.44902 176.0
123.528641 188.0
123.575096 172.0
123.67247 196.0
123.741089 140.0
124.193146 152.0
124.295197 136.0
124.379532 160.0
124.517189 120.0
124.599373 92.0
124.62381 140.0
124.886124 180.0
125.052994 164.0
125.090836 120.0
125.213295 196.0
125.719353 244.0
125.815331 172.0
125.890266 192.0
126.040909 116.0
126.197365 216.0
126.380768 132.0
126.40538 60.0
126.501617 128.0
126.595657 188.0
126.710297 220.0
126.743492 128.0
126.786072 204.0
126.817444 300.0
127.225693 244.0
127.315102 156.0
127.411476 172.0
127.466011 132.0
127.526688 128.0
127.542419 128.0
127.697563 160.0
127.758293 132.0
127.958588 168.0
128.244675 208.0
128.287491 216.0
128.307785 112.0
128.503998 64.0
128.571686 144.0
128.650681 160.0
128.716156 180.0
128.876526 152.0
128.969193 160.0
129.082214 192.0
129.104828 156.0
129.181732 232.0
129.249603 164.0
129.485031 132.0
129.509949 132.0
129.793228 180.0
129.82724 216.0
129.99057 140.0
130.126755 144.0
130.213043 220.0
130.272095 196.0
130.310715 156.0
130.383438 152.0
130.726822 76.0
130.849731 204.0
131.03421 88.0
131.063828 228.0
131.159546 120.0
131.353348 192.0
131.414948 208.0
131.583847 220.0
131.807678 132.0
131.825958 132.0
131.871658 112.0
131.892227 148.0
132.251328 168.0
132.274216 128.0
132.33374 144.0
132.521545 164.0
132.553635 220.0
132.569672 212.0
133.363739 64.0
133.476379 120.0
133.789291 200.0
134.07489 216.0
134.093338 136.0
134.342361 64.0
134.446182 156.0
134.702469 144.0
134.861893 116.0
135.160217 112.0
135.30835 140.0
135.398651 176.0
135.790329 96.0
136.129135 148.0
136.154694 84.0
136.217392 192.0
136.30336 116.0
136.428864 176.0
136.593964 156.0
136.754517 132.0
136.975708 132.0
137.229721 140.0
137.343994 160.0
137.504974 160.0
137.696426 188.0
137.787521 112.0
138.068008 76.0
138.220062 64.0
138.540817 92.0
138.981583 96.0
139.047287 48.0
139.117691 100.0
139.331406 108.0
139.486496 176.0
139.521759 152.0
139.82283 120.0
140.012939 208.0
140.124237 140.0
140.244415 116.0
140.284485 120.0
140.348145 64.0
140.395294 180.0
140.423599 152.0
140.506165 48.0
140.57695 68.0
140.742172 168.0
141.054016 188.0
141.278671 156.0
141.311783 176.0
141.389877 152.0
141.425369 160.0
141.754562 116.0
141.856476 96.0
142.509109 216.0
142.608917 224.0
142.784851 144.0
142.85144 220.0
142.868088 120.0
142.891891 160.0
142.937088 84.0
143.153702 128.0
143.239441 160.0
143.365723 188.0
143.5755 124.0
143.706696 200.0
143.73056 328.0
143.857056 148.0
143.935516 180.0
144.056732 272.0
144.098251 112.0
144.258362 208.0
144.303787 92.0
144.728714 228.0
144.775177 124.0
144.815887 200.0
145.05069 136.0
145.129807 176.0
145.302048 192.0
145.34668 268.0
145.379272 160.0
145.492081 160.0
145.558655 160.0
145.597733 208.0
145.693802 184.0
145.732254 224.0
145.777908 220.0
145.823563 136.0
145.886063 44.0
146.07843 160.0
146.16745 200.0
146.302231 104.0
146.374466 236.0
146.634628 140.0
146.74762 160.0
146.810623 84.0
147.580902 140.0
147.645203 156.0
147.716339 84.0
147.859085 120.0
148.21814 116.0
148.244125 128.0
148.418655 184.0
148.505966 144.0
148.663651 192.0
148.70491 176.0
149.027878 140.0
149.100784 116.0
149.125076 188.0
149.195572 148.0
149.256348 180.0
149.472839 184.0
149.523941 60.0
150.006195 232.0
150.047394 356.0
150.591797 144.0
150.625992 180.0
150.689514 144.0
151.052948 308.0
151.090057 248.0
151.127151 216.0
151.149796 156.0
151.220139 180.0
151.24707 164.0
151.433151 156.0
151.648758 88.0
151.994537 192.0
152.068512 164.0
152.092697 260.0
152.271576 220.0
152.303864 56.0
152.355438 168.0
152.574158 116.0
152.849625 44.0
153.060715 180.0
153.115494 140.0
153.13765 168.0
153.514709 172.0
153.709579 48.0
154.0009 52.0
154.233154 104.0
154.319672 180.0
154.430954 124.0
154.547211 176.0
154.968124 68.0
155.005295 144.0
155.268066 268.0
155.320145 112.0
155.357559 200.0
155.545944 96.0
155.878738 152.0
155.918503 124.0
156.269104 168.0
156.996445 124.0
157.048813 64.0
157.126144 180.0
157.169785 116.0
157.305222 264.0
157.480606 136.0
157.635498 180.0
157.865479 192.0
157.948013 188.0
158.250809 204.0
158.406082 180.0
158.812134 120.0
159.499893 228.0
159.567993 144.0
159.600906 128.0
159.696243 212.0
159.974976 236.0
160.114014 184.0
160.136688 124.0
160.295395 196.0
160.539917 204.0
160.625671 204.0
160.668549 140.0
160.92598 36.0
160.958801 128.0
161.211395 108.0
161.317551 108.0
161.345367 156.0
161.75264 104.0
161.783569 164.0
161.913635 164.0
162.137619 228.0
162.18071 144.0
162.198441 212.0
162.380997 184.0
162.457092 188.0
163.079193 148.0
163.104614 124.0
163.593002 180.0
163.852768 84.0
164.038788 248.0
164.06015 128.0
164.237686 108.0
164.393311 100.0
164.630722 160.0
164.66391 76.0
164.692017 172.0
164.762619 224.0
164.881073 184.0
165.060013 176.0
165.131622 152.0
165.40239 252.0
165.512909 164.0
165.661453 200.0
165.684509 172.0
165.722946 64.0
165.954788 220.0
166.097229 136.0
166.212677 236.0
166.263306 208.0
166.304306 192.0
166.461655 132.0
166.636322 156.0
166.798218 156.0
166.862488 160.0
166.888199 144.0
167.032211 128.0
167.070267 176.0
167.258636 128.0
167.336075 244.0
167.353363 96.0
167.454315 60.0
167.521286 144.0
167.825394 148.0
168.088486 228.0
168.434296 148.0
168.705765 148.0
169.003174 196.0
169.061661 292.0
169.098923 148.0
169.274963 96.0
169.60939 184.0
169.743973 168.0
169.798431 116.0
169.837341 180.0
169.855499 116.0
170.130737 116.0
170.18248 192.0
170.260391 188.0
170.381973 212.0
170.546173 184.0
170.647552 232.0
170.850403 172.0
170.954483 180.0
170.980515 104.0
171.042969 164.0
171.141891 128.0
171.220016 176.0
171.345047 208.0
171.788223 156.0
171.93956 144.0
171.965652 160.0
172.041351 136.0
172.404404 52.0
172.506332 224.0
172.600449 148.0
172.63707 116.0
172.725983 120.0
172.909134 216.0
172.953629 176.0
173.063583 168.0
173.118561 220.0
173.205002 80.0
173.456543 144.0
173.524704 172.0
173.74762 120.0
173.834213 96.0
173.900742 180.0
173.981186 108.0
174.172882 72.0
174.207031 220.0
174.42775 60.0
174.530289 116.0
174.567093 156.0
174.769638 164.0
175.280457 160.0
175.579895 176.0
175.810486 164.0
175.887024 144.0
176.050705 164.0
176.320175 192.0
176.592484 144.0
176.629517 256.0
176.79541 192.0
176.944427 160.0
177.055466 512.0
177.119202 128.0
177.302017 168.0
177.357666 72.0
177.415985 184.0
177.482269 168.0
177.506134 136.0
177.527344 68.0
177.622818 156.0
177.705063 80.0
177.816513 136.0
177.973129 176.0
178.02623 116.0
178.063721 884.0
178.108566 160.0
178.252029 184.0
178.466171 200.0
178.476425 104.0
178.481308 160.0
178.531143 264.0
178.733307 148.0
178.765244 96.0
179.071838 1136.0
179.185928 164.0
179.53244 184.0
179.583115 204.0
179.713837 176.0
180.081177 3576.0
180.146317 104.0
180.170364 76.0
180.226471 208.0
180.354752 228.0
180.416229 232.0
180.446365 204.0
180.469696 52.0
180.595383 156.0
180.627472 56.0
180.699707 228.0
180.783386 220.0
180.846878 192.0
180.865616 108.0
180.983414 172.0
181.015549 156.0
181.084579 888.0
181.113556 168.0
181.141418 164.0
181.373108 176.0
181.513947 188.0
181.629272 184.0
182.018402 180.0
182.262833 128.0
182.348831 68.0
182.440216 268.0
182.485916 196.0
182.628448 124.0
182.776413 160.0
182.795242 56.0
182.840988 104.0
182.867905 132.0
182.932495 388.0
183.015961 60.0
183.220642 204.0
183.455322 144.0
183.921753 208.0
183.983841 36.0
184.156662 136.0
184.440353 196.0
184.491714 152.0
184.94075 140.0
185.111298 196.0
185.132126 64.0
185.184418 180.0
185.233185 204.0
185.601746 156.0
185.805161 164.0
186.334564 192.0
186.356308 132.0
186.546539 212.0
186.704239 44.0
186.818466 228.0
186.875595 120.0
187.006226 104.0
187.146439 188.0
187.322067 116.0
187.341141 224.0
187.36293 164.0
187.579422 216.0
187.965485 148.0
188.074646 128.0
188.112854 152.0
188.164734 108.0
188.198761 148.0
188.321991 136.0
188.820526 44.0
188.9272 204.0
189.220032 156.0
189.330551 188.0
189.362411 88.0
189.480209 96.0
189.611725 188.0
189.81459 80.0
189.93251 152.0
190.044983 104.0
190.105362 124.0
190.184952 96.0
190.26181 200.0
190.580399 180.0
190.753525 120.0
190.838745 108.0
190.860748 200.0
190.995499 64.0
191.083527 164.0
191.298187 96.0
191.342224 124.0
191.711319 204.0
191.993973 180.0
192.05043 164.0
192.287704 136.0
192.594162 164.0
192.798615 188.0
192.856644 108.0
192.914703 100.0
192.964462 92.0
193.034454 228.0
193.180161 176.0
193.373856 164.0
193.531647 124.0
194.060638 172.0
194.10405 212.0
194.17453 124.0
194.288254 132.0
194.801819 184.0
195.074142 56.0
195.129745 104.0
195.260422 60.0
195.343872 148.0
195.491333 96.0
195.583176 164.0
195.611008 184.0
195.637238 180.0
196.023193 148.0
196.126312 196.0
196.162552 132.0
196.374451 160.0
196.974564 96.0
197.161758 124.0
197.494446 224.0
197.561584 144.0
198.096268 68.0
198.389053 148.0
198.766327 180.0
198.785965 140.0
198.856125 88.0
198.875763 104.0
198.999283 144.0
199.331848 200.0
199.370056 104.0
199.490921 124.0
199.569641 140.0
199.729935 136.0
199.76088 136.0
199.808701 52.0
199.889938 128.0
200.008499 112.0
200.436554 140.0
200.464737 208.0
200.529556 68.0
200.594391 96.0
200.662048 192.0
200.766373 84.0
201.29689 220.0
201.418335 152.0
201.531326 104.0
201.715027 88.0
201.891907 156.0
201.902786 88.0
201.921692 212.0
202.023254 112.0
202.045883 220.0
202.35437 140.0
202.487457 144.0
202.614914 128.0
203.025909 176.0
203.613358 60.0
204.346741 156.0
204.779419 248.0
204.879105 104.0
205.198517 108.0
205.249619 348.0
205.600494 168.0
205.808868 140.0
205.834564 160.0
205.954514 172.0
205.991638 152.0
206.245956 184.0
206.443222 212.0
206.551895 112.0
206.660614 168.0
206.792252 88.0
207.084274 168.0
207.436707 256.0
208.03624 140.0
208.077728 200.0
208.317657 156.0
208.6194 172.0
208.999023 152.0
209.093979 124.0
209.134277 144.0
209.226395 224.0
209.369202 108.0
209.540298 64.0
209.63443 276.0
209.701675 168.0
209.76796 104.0
209.886169 164.0
209.935181 88.0
210.027481 220.0
210.183258 132.0
210.232315 204.0
210.295807 100.0
210.350647 128.0
210.546982 156.0
210.662521 104.0
210.752075 212.0
210.801193 116.0
210.923157 160.0
211.020874 100.0
211.197266 176.0
211.304291 224.0
211.373734 144.0
211.454773 188.0
211.509766 220.0
211.530014 136.0
211.593704 152.0
212.050446 236.0
212.326797 192.0
212.471832 84.0
212.506653 152.0
212.657547 128.0
212.736053 168.0
212.767853 196.0
212.931412 192.0
212.962402 100.0
213.031754 132.0
213.161758 192.0
213.189011 156.0
213.238403 120.0
213.296539 136.0
213.328522 156.0
213.37793 196.0
213.413635 152.0
213.436081 184.0
213.464752 140.0
213.508789 116.0
213.532043 176.0
213.569565 104.0
213.605927 208.0
213.668228 184.0
213.681595 200.0
213.70488 164.0
213.726959 232.0
213.764786 84.0
213.805527 192.0
213.828323 144.0
213.882126 112.0
213.921478 400.0
213.946487 452.0
213.996338 528.0
214.043076 116564.0
214.117508 264.0
214.149963 280.0
214.178314 176.0
214.218124 132.0
214.268188 76.0
214.281464 124.0
214.304153 116.0
214.332932 112.0
214.380905 200.0
214.407089 252.0
214.438507 52.0
214.523407 376.0
214.550156 148.0
214.563156 148.0
214.601227 72.0
214.656143 144.0
214.691635 140.0
214.734497 216.0
214.802689 80.0
214.826233 120.0
214.872421 136.0
214.898346 400.0
214.932831 328.0
214.969116 244.0
215.049881 64724.0
215.137833 176.0
215.162277 192.0
215.210022 132.0
215.244446 188.0
215.266953 112.0
215.29599 208.0
215.327454 380.0
215.353455 80.0
215.384048 96.0
215.410828 116.0
215.450012 144.0
215.48056 76.0
215.532623 136.0
215.563965 100.0
215.638351 164.0
215.686707 128.0
215.722763 144.0
215.762177 108.0
215.789215 192.0
215.821182 48.0
215.847504 60.0
215.883789 204.0
215.929855 200.0
215.978592 296.0
216.04097 22700.0
216.114944 132.0
216.173233 136.0
216.219986 160.0
216.257904 260.0
216.334137 116.0
216.37291 104.0
216.404999 56.0
216.437836 132.0
216.497742 116.0
216.520447 184.0
216.526413 120.0
216.536667 168.0
216.572754 364.0
216.598221 156.0
216.64357 96.0
216.684753 172.0
216.713791 112.0
216.750793 124.0
216.773331 236.0
216.793243 100.0
216.819382 64.0
216.877518 100.0
216.904373 28.0
216.936005 104.0
216.998184 36.0
217.04628 14664.0
217.105667 220.0
217.133072 56.0
217.179993 128.0
217.223999 64.0
217.248932 80.0
217.284546 56.0
217.323288 52.0
217.333893 96.0
217.370682 92.0
217.434052 88.0
217.461655 72.0
217.514496 64.0
217.545731 112.0
217.5961 80.0
217.641663 152.0
217.67009 64.0
217.696518 80.0
217.724258 156.0
217.749374 76.0
217.82869 28.0
217.878632 52.0
217.960892 172.0
218.01619 44.0
218.051437 1232.0
218.148987 116.0
218.198532 56.0
218.237762 140.0
218.298706 52.0
218.320099 60.0
218.348923 152.0
218.389587 148.0
218.466568 68.0
218.528351 104.0
218.604858 144.0
218.654892 140.0
218.71669 132.0
218.757904 92.0
218.781448 48.0
218.825607 96.0
218.852112 68.0
218.95517 88.0
219.031754 44.0
219.059494 124.0
219.105392 56.0
219.223251 48.0
219.296936 40.0
219.345734 108.0
219.526886 92.0
219.638962 60.0
219.703857 132.0
219.745453 80.0
220.081619 64.0
220.214508 52.0
220.276535 88.0
220.311981 64.0
221.240555 84.0
221.44487 32.0
221.779663 48.0
223.124374 128.0
223.160049 96.0
223.469376 100.0
224.499985 48.0
224.625244 96.0
224.869919 68.0
225.261063 40.0
225.794647 92.0
225.91272 88.0
225.942154 124.0
226.029404 60.0
226.274826 120.0
226.313751 156.0
226.691162 100.0
226.778076 56.0
227.26088 120.0
228.17691 40.0
228.408463 48.0
228.50473 40.0
228.631104 104.0
228.748489 148.0
229.103821 156.0
229.420242 48.0
229.673538 48.0
229.785156 80.0
230.467499 40.0
231.187164 60.0
232.056488 40.0
232.423492 96.0
232.66629 92.0
233.131012 80.0
233.854813 108.0
234.083145 96.0
234.47612 60.0
234.997559 124.0
235.162338 112.0
237.009399 128.0
238.633041 72.0
241.630829 64.0
242.039383 68.0
242.755173 96.0
243.285721 108.0
244.703369 152.0
247.989594 172.0
248.174545 204.0
248.293701 60.0
249.006119 92.0
249.125473 140.0
249.744705 216.0
250.01857 1972.0
251.02002 328.0
251.177856 60.0
251.335602 68.0
251.872284 132.0
252.016083 1072.0
253.00119 184.0
253.021469 168.0
253.146835 144.0
254.148468 156.0
257.235504 48.0
260.874512 52.0
261.797913 104.0
264.18634 152.0
264.545532 132.0
268.14444 112.0
268.336761 116.0
271.908783 88.0
271.980988 128.0
278.01944 144.0
278.924164 76.0
283.453003 72.0
283.613861 96.0
291.348145 68.0
300.065002 44.0
301.134705 180.0
303.588409 116.0
305.968475 116.0
311.304108 148.0
311.722137 48.0
314.995148 116.0
318.274567 108.0
319.049103 44.0
328.005707 60.0
330.200928 128.0
332.508728 60.0
333.416656 56.0
333.547485 44.0
334.952026 100.0
340.500549 104.0
347.580963 56.0
352.182343 68.0
352.24585 108.0
353.401001 92.0
354.280823 72.0
354.318268 116.0
354.614288 56.0
356.686157 80.0
359.54483 132.0
361.02951 108.0
362.73703 52.0
366.126129 76.0
370.26593 44.0
371.089783 56.0
372.490509 104.0
373.528351 40.0
374.298065 128.0
379.684937 40.0
380.926941 80.0
383.541779 56.0
390.51123 68.0
394.754639 56.0
408.70813 76.0
410.347382 88.0
422.028534 104.0
428.979034 84.0
429.874023 60.0
434.114075 80.0
436.767944 68.0
437.608551 48.0
439.183746 108.0
440.548706 80.0
441.434753 44.0
445.050873 96.0
454.246887 52.0
464.364349 64.0
465.61322 48.0
465.76355 80.0
466.6875 124.0
471.74884 148.0
480.42099 88.0
480.50827 96.0
490.938904 60.0
491.521179 88.0
509.927124 64.0
510.03949 52.0
510.907349 56.0
514.733887 64.0
515.045471 112.0
519.681091 44.0
528.044617 48.0
538.689941 32.0
541.409546 32.0
548.751221 60.0
550.515015 132.0
556.433411 76.0
591.233276 56.0
598.125183 36.0
613.718872 92.0
626.406006 68.0
639.957825 80.0
647.198181 104.0
679.42749 104.0
680.117676 72.0
685.71405 40.0
686.07373 76.0
689.633667 76.0
694.078186 88.0
694.434814 36.0
709.738586 52.0
722.440796 84.0
785.498413 60.0
809.542664 88.0
810.363953 84.0
814.902832 36.0
869.00238 92.0
911.758789 80.0
951.663818 52.0
992.661743 80.0
1031.792603 216.0
1038.022461 92.0
1042.066162 104.0
1044.843506 56.0
1066.655884 60.0
1092.907227 52.0
1099.800415 116.0
1118.805054 72.0
1120.856445 188.0
1122.216187 60.0
1179.890991 44.0
1181.11499 196.0
1182.613403 68.0
1189.838379 168.0
1190.53186 128.0
1211.680054 168.0
1211.804688 140.0
1226.676758 180.0
1228.566528 288.0
1229.033936 100.0
1230.667236 48.0
1231.281738 200.0
1231.651855 108.0
1237.141113 164.0
1238.408447 132.0
1243.000366 120.0
1253.710205 156.0
1255.084717 132.0
1264.600342 112.0
1265.796753 116.0
1266.356201 184.0
1270.382324 120.0
1285.458618 132.0
1285.558472 108.0
1286.671997 60.0
1289.807983 88.0
1291.052002 64.0
1297.976562 60.0
1303.553955 76.0
1305.775391 192.0
1306.652954 136.0
1316.527832 172.0
1316.795044 156.0
1317.445068 164.0
1328.383179 124.0
1329.754517 224.0
1330.001343 72.0
1330.233643 196.0
1336.00354 216.0
1339.832764 172.0
1342.077515 40.0
1343.915527 160.0
1345.718262 140.0
1346.010376 184.0
1347.646484 236.0
1348.508789 76.0
1354.259521 256.0
1356.479736 112.0
1356.772949 124.0
1364.238892 104.0
1367.416382 56.0
1371.48938 140.0
1373.841675 208.0
1374.306396 188.0
1375.332275 108.0
1375.775146 188.0
1378.08667 232.0
1378.796143 236.0
1383.219116 172.0
1391.314087 168.0
1392.30896 148.0
1392.687744 152.0
1403.560425 180.0
1404.611938 204.0
1411.236084 188.0
1412.634521 136.0
1413.973877 120.0
1424.966675 192.0
1425.177124 164.0
1427.469604 176.0
1429.297485 164.0
1429.952148 128.0
1433.205322 192.0
1433.672607 188.0
1435.572266 236.0
1436.71875 132.0
1437.699585 208.0
1439.760498 220.0
1452.126831 176.0
1454.152588 152.0
1454.319458 120.0
1454.699097 116.0
1460.169678 192.0
1460.838989 88.0
1463.213379 144.0
1466.001099 64.0
1466.405029 124.0
1474.091431 144.0
1475.259277 172.0
1480.31665 184.0
1481.457886 216.0
1486.264893 204.0
1488.805664 144.0
1491.979004 124.0
1494.678589 120.0
1503.532837 196.0
1504.945435 60.0
