>compound MLS000862182-01!Imazodan
>formula C13H12N4O
>ionization [M+H]+
>parentmass 241.106857
#inchi InChI=1S/C13H12N4O/c18-13-6-5-12(15-16-13)10-1-3-11(4-2-10)17-8-7-14-9-17/h1-4,7-9H,5-6H2,(H,16,18)
#inchikey VXMYWVMXSWJFCV
#Ion_Source LC-ESI
#Instrument qTof
#Compound_Source NIH Pharmacologically Active Library
#PI Dorrestein
#Data_Collector VP/LMS
#Scan -1
#Precursor_MZ 241.111
#ExactMass 240.101
#Charge 1
#CAS_Number N/A
#Pubmed_ID N/A
#Smiles O=C1CCC(=NN1)c2ccc(cc2)n3ccnc3
#INCHI_AUX N/A
#Library_Class 1
#SpectrumID CCMSLIB00000085802
#IonMode Positive
#UpdateWorkflowName UPDATE-SINGLE-ANNOTATED-GOLD
#LibraryQualityString Gold
#TaskID d252d724072548979f1f6f1ced849daf
##Scan# 1077
#SpectrumFile p4-F08_GF8_01_18392.mzXML
#LibraryName Pharm_Active_Library.mgf
#MQScore -1
#Organism Pharm_Active_Library
#TIC_Query 0
#RT_Query -1
#MZErrorPPM -1
#SharedPeaks 0
#MassDiff 0
#LibMZ -1
#SpecMZ 241.111
#SpecCharge 0
#internalFilename spec-00000.mgf

>collision 10
44.896271 124.0
44.923553 140.0
44.945633 192.0
45.060463 456.0
45.330757 176.0
45.349518 160.0
45.372307 104.0
45.392422 136.0
45.50782 128.0
45.725597 180.0
45.756557 192.0
45.93346 212.0
45.953339 116.0
46.007324 160.0
46.068096 156.0
46.082958 60.0
46.180389 224.0
46.21682 128.0
46.291275 176.0
46.322426 152.0
46.335972 148.0
46.359009 128.0
46.603264 80.0
46.653393 260.0
46.913578 200.0
46.93676 204.0
46.968128 172.0
46.999504 156.0
47.018612 36.0
47.040451 132.0
47.111465 172.0
47.125126 180.0
47.167492 188.0
47.219452 216.0
47.305656 224.0
47.350845 128.0
47.389202 180.0
47.529064 240.0
47.56612 192.0
47.585339 184.0
47.596325 224.0
47.682873 172.0
47.795643 192.0
47.865845 120.0
47.903034 184.0
48.094707 164.0
48.105751 128.0
48.120937 132.0
48.174217 192.0
48.324116 200.0
48.70953 228.0
48.858498 180.0
48.971039 144.0
49.025375 124.0
49.041077 144.0
49.068584 264.0
49.090805 60.0
49.109028 176.0
49.143906 172.0
49.217884 184.0
49.326859 196.0
49.336868 228.0
49.433159 152.0
49.454151 136.0
49.489151 196.0
49.544277 200.0
49.61525 196.0
49.640488 200.0
49.772396 208.0
49.797676 220.0
49.807507 232.0
49.856686 208.0
49.869335 144.0
49.976215 168.0
49.995564 144.0
50.018436 176.0
50.084618 172.0
50.118431 248.0
50.300365 176.0
50.361084 56.0
50.373798 264.0
50.642563 236.0
50.66806 160.0
50.697819 120.0
50.746014 112.0
50.774376 112.0
50.79707 108.0
50.819771 144.0
50.838219 40.0
50.936188 164.0
51.005817 208.0
51.022877 100.0
51.037094 148.0
51.05814 160.0
51.108215 156.0
51.139523 104.0
51.182236 144.0
51.276257 68.0
51.353252 176.0
51.373222 188.0
51.503124 204.0
51.791317 132.0
51.985626 176.0
52.094749 148.0
52.143604 192.0
52.191044 172.0
52.219807 176.0
52.234192 112.0
52.291748 224.0
52.345016 236.0
52.373821 192.0
52.400761 120.0
52.418484 52.0
52.430012 96.0
52.447308 196.0
52.464607 168.0
52.506691 152.0
52.587219 176.0
52.621868 132.0
52.649303 48.0
52.662304 132.0
52.696976 44.0
52.767796 136.0
52.932751 132.0
52.964615 212.0
52.986343 204.0
53.142933 60.0
53.21014 172.0
53.248909 216.0
53.301208 164.0
53.331726 244.0
53.372437 164.0
53.397156 180.0
53.414612 96.0
53.46117 156.0
53.472816 176.0
53.503384 132.0
53.862129 176.0
53.898655 60.0
53.911808 164.0
54.135639 208.0
54.232338 72.0
54.390755 144.0
54.499435 140.0
54.549404 164.0
54.575867 232.0
54.717117 208.0
54.755405 100.0
54.786339 144.0
54.828983 68.0
54.929337 140.0
54.947041 88.0
54.98098 148.0
55.03117 180.0
55.057751 208.0
55.178921 108.0
55.257309 128.0
55.278023 116.0
55.406845 244.0
55.719894 96.0
55.747787 204.0
55.878983 232.0
55.931068 196.0
55.944466 172.0
55.959354 192.0
55.981689 208.0
56.11282 160.0
56.123257 116.0
56.188885 104.0
56.200821 180.0
56.263508 188.0
56.308304 68.0
56.388985 188.0
56.469723 168.0
56.505909 192.0
56.529568 236.0
56.546032 180.0
56.57597 140.0
56.587948 208.0
56.604416 180.0
56.662834 192.0
56.692802 216.0
56.77676 204.0
56.970394 148.0
57.000443 272.0
57.021481 136.0
57.047035 200.0
57.182415 220.0
57.218544 96.0
57.387691 168.0
57.426502 136.0
57.68066 120.0
57.724026 192.0
57.92078 64.0
57.932899 212.0
58.240845 120.0
58.26059 180.0
58.405006 60.0
58.446243 116.0
58.464344 200.0
58.64864 168.0
58.723351 172.0
58.792007 184.0
58.989044 116.0
59.067036 204.0
59.102222 116.0
59.143547 152.0
59.391777 128.0
59.436272 108.0
59.602108 100.0
59.726643 56.0
59.737408 180.0
59.791264 148.0
59.846684 136.0
59.882103 160.0
59.939106 160.0
60.39455 84.0
60.502872 116.0
60.518356 120.0
60.553974 152.0
60.62989 148.0
60.774109 184.0
60.87035 28.0
60.986874 164.0
61.010189 240.0
61.128403 128.0
61.204678 132.0
61.231152 208.0
61.25919 148.0
61.36673 376.0
61.535236 232.0
61.57584 196.0
61.622704 168.0
61.746201 124.0
61.852596 176.0
61.890171 156.0
61.932457 164.0
62.026474 168.0
62.076649 140.0
62.194317 116.0
62.216293 192.0
62.367813 124.0
62.404831 192.0
62.661385 156.0
62.68502 176.0
62.807999 84.0
62.967419 132.0
63.076149 172.0
63.134945 168.0
63.187145 196.0
63.283695 168.0
63.351799 100.0
63.576958 108.0
63.597591 176.0
63.685234 204.0
63.746883 124.0
63.917034 184.0
63.977516 132.0
64.007767 196.0
64.066162 188.0
64.124069 172.0
64.24366 140.0
64.335709 272.0
64.411278 196.0
64.543938 108.0
64.80484 140.0
64.883377 184.0
64.897812 140.0
64.944313 176.0
65.037384 176.0
65.090363 188.0
65.127304 180.0
65.13855 128.0
65.189964 212.0
65.260689 180.0
65.307327 100.0
65.629417 136.0
65.727814 204.0
65.779465 184.0
65.903824 168.0
65.937408 204.0
65.996796 192.0
66.123756 100.0
66.144798 156.0
66.219589 192.0
66.352165 176.0
66.483551 136.0
66.515221 212.0
66.5355 72.0
66.568535 220.0
66.603699 104.0
66.619949 228.0
66.756477 176.0
66.826424 200.0
66.863853 204.0
66.902924 156.0
66.915947 68.0
67.100052 140.0
67.131035 180.0
67.18486 160.0
67.212601 148.0
67.594978 124.0
67.60807 352.0
67.812798 128.0
67.973518 156.0
68.187012 40.0
68.270859 208.0
68.302116 68.0
68.413292 152.0
68.478233 164.0
68.517769 164.0
68.612617 156.0
68.69252 120.0
68.837769 108.0
68.91375 168.0
68.963333 224.0
69.07412 68.0
69.228043 140.0
69.282852 180.0
69.317505 180.0
69.383804 212.0
69.518158 196.0
69.705811 220.0
69.745705 152.0
69.783981 144.0
69.831703 268.0
69.928665 160.0
69.975281 88.0
70.041893 84.0
70.191895 196.0
70.484016 148.0
70.524605 80.0
70.54586 168.0
70.599365 44.0
70.63282 144.0
70.749962 164.0
70.786797 180.0
70.868874 176.0
71.137222 172.0
71.3489 168.0
71.424576 72.0
71.520485 152.0
71.587837 136.0
71.628258 280.0
71.656898 128.0
71.774887 128.0
71.85585 176.0
71.886223 212.0
71.995956 140.0
72.119293 256.0
72.213982 176.0
72.225822 168.0
72.242882 236.0
72.256271 84.0
72.308731 160.0
72.391685 188.0
72.528923 100.0
72.540787 208.0
72.671379 136.0
72.730782 204.0
72.796997 228.0
72.86834 140.0
73.048546 76.0
73.110535 188.0
73.628082 156.0
73.687866 200.0
73.74939 180.0
73.870796 116.0
73.882774 180.0
73.911858 120.0
73.927261 132.0
74.211617 176.0
74.317963 180.0
74.329971 192.0
74.354004 188.0
74.393478 196.0
74.434685 92.0
74.491364 168.0
74.549782 144.0
74.601349 208.0
74.804344 156.0
74.986931 128.0
75.045547 120.0
75.183548 160.0
75.281952 152.0
75.53257 216.0
75.885864 124.0
75.981255 100.0
76.118378 148.0
76.140953 172.0
76.22261 128.0
76.238251 100.0
76.323425 192.0
76.347771 220.0
76.392998 156.0
76.499153 164.0
76.516563 188.0
76.529083 188.0
76.570541 136.0
76.615837 208.0
76.635002 112.0
76.720398 144.0
76.805847 172.0
76.924515 224.0
77.045013 152.0
77.085007 108.0
77.089638 96.0
77.094635 160.0
77.126419 424.0
77.167351 80.0
77.265297 76.0
77.314293 228.0
77.408829 160.0
77.426338 156.0
77.505173 160.0
77.541977 188.0
77.705711 216.0
77.766479 188.0
77.996582 176.0
78.142548 136.0
78.190063 60.0
78.218224 132.0
78.235832 76.0
78.286896 192.0
78.475441 200.0
78.505417 212.0
78.523056 136.0
78.560097 164.0
78.75074 136.0
78.773705 156.0
78.823181 152.0
78.846153 204.0
78.899185 144.0
79.043945 204.0
79.116791 80.0
79.169914 48.0
79.251472 180.0
79.270889 144.0
79.416267 188.0
79.43026 180.0
79.575989 168.0
79.616829 132.0
79.716316 188.0
79.76786 144.0
79.831863 200.0
79.858543 168.0
79.883446 140.0
80.070343 200.0
80.119278 256.0
80.321671 204.0
80.341293 240.0
80.405533 156.0
80.441231 156.0
80.505508 100.0
80.596397 132.0
80.83419 172.0
80.965126 192.0
81.147911 136.0
81.173012 168.0
81.203499 224.0
81.242966 188.0
81.404503 156.0
81.429649 184.0
81.467369 160.0
81.562614 220.0
81.602165 44.0
81.672302 192.0
81.937462 216.0
81.962158 124.0
82.059494 124.0
82.171318 216.0
82.212822 112.0
82.266968 64.0
82.31572 148.0
82.391579 120.0
82.458443 104.0
82.498428 132.0
82.615761 164.0
82.635658 156.0
82.746063 48.0
82.760551 120.0
82.807632 136.0
82.832993 176.0
82.950783 152.0
83.012428 220.0
83.130348 172.0
83.308289 128.0
83.362793 40.0
83.380966 144.0
83.517334 72.0
83.64653 88.0
83.743042 108.0
83.781296 120.0
83.803154 192.0
83.901581 104.0
83.948982 244.0
83.987289 164.0
84.0037 184.0
84.025597 200.0
84.042015 48.0
84.073036 164.0
84.1278 164.0
84.188057 128.0
84.219101 148.0
84.290352 160.0
84.573837 136.0
84.663551 96.0
84.773468 192.0
84.811958 124.0
84.879791 164.0
84.973335 64.0
85.002693 248.0
85.206512 148.0
85.291557 200.0
85.371948 140.0
85.392174 180.0
85.546745 192.0
85.754898 228.0
85.806511 176.0
85.861832 236.0
85.924553 144.0
85.957764 152.0
86.066673 180.0
86.132904 204.0
86.175652 160.0
86.223694 148.0
86.334625 144.0
86.410469 192.0
86.521515 128.0
86.658569 132.0
86.836533 160.0
86.873756 124.0
86.945999 168.0
87.036964 136.0
87.230186 96.0
87.262199 256.0
87.499947 112.0
87.550224 176.0
87.615417 168.0
87.671318 92.0
87.706726 120.0
87.729095 140.0
87.773849 88.0
87.973442 156.0
88.129112 160.0
88.173355 184.0
88.248131 152.0
88.276176 180.0
88.416489 140.0
88.570023 144.0
88.605614 184.0
88.64122 152.0
88.67495 156.0
88.689949 184.0
88.813705 48.0
88.849342 160.0
88.868103 144.0
88.91127 208.0
89.037056 148.0
89.078377 148.0
89.134743 180.0
89.214752 212.0
89.240005 184.0
89.296425 112.0
89.31147 212.0
89.431892 140.0
89.586349 176.0
89.654144 232.0
89.674873 220.0
89.688065 124.0
89.714455 72.0
89.825722 136.0
89.842697 124.0
89.968437 192.0
90.048454 256.0
90.069229 120.0
90.13176 208.0
90.273354 212.0
90.294159 156.0
90.322533 168.0
90.367935 148.0
90.454994 76.0
90.601135 188.0
90.697456 148.0
90.737267 164.0
90.919373 184.0
91.05381 380.0
91.11496 184.0
91.147255 144.0
91.194771 172.0
91.286812 224.0
91.310753 188.0
91.33548 120.0
91.41729 152.0
91.478195 188.0
91.525795 228.0
91.641769 172.0
91.710594 136.0
91.769691 128.0
91.872681 176.0
91.891762 104.0
91.916565 172.0
91.947105 128.0
91.964279 108.0
92.02346 184.0
92.050659 152.0
92.182007 144.0
92.217209 76.0
92.315819 184.0
92.417206 140.0
92.495674 112.0
92.650787 164.0
92.783028 176.0
92.901932 88.0
92.92112 180.0
93.09388 112.0
93.157265 80.0
93.467384 148.0
93.532249 36.0
93.563049 208.0
93.580376 228.0
93.668968 144.0
93.697868 172.0
93.724838 176.0
93.863632 240.0
93.969719 100.0
94.043053 152.0
94.182076 88.0
94.429932 180.0
94.462364 108.0
94.499123 184.0
94.518471 140.0
94.70739 124.0
94.808952 176.0
94.826401 100.0
94.883957 108.0
94.952423 224.0
94.985397 208.0
95.006737 160.0
95.043602 204.0
95.066887 140.0
95.104813 148.0
95.191635 216.0
95.261055 64.0
95.301849 168.0
95.476807 104.0
95.542946 160.0
95.562401 208.0
95.642189 48.0
95.698647 248.0
95.73954 152.0
95.825249 132.0
95.868118 188.0
95.883621 168.0
96.008484 204.0
96.102119 80.0
96.326637 188.0
96.371574 152.0
96.404793 168.0
96.420425 212.0
96.617928 80.0
96.74514 88.0
96.868515 164.0
96.900681 220.0
96.974731 136.0
97.07235 144.0
97.10569 208.0
97.133156 124.0
97.233269 172.0
97.418938 228.0
97.449234 180.0
97.474777 88.0
97.687119 228.0
97.820938 160.0
97.937119 164.0
97.968636 148.0
98.098701 100.0
98.211105 120.0
98.241325 212.0
98.370941 168.0
98.386734 128.0
98.420296 180.0
98.443993 164.0
98.485474 140.0
98.596115 196.0
98.655411 168.0
98.681114 144.0
98.752312 220.0
98.973335 208.0
98.996529 172.0
99.245422 132.0
99.332687 148.0
99.400146 184.0
99.632454 176.0
99.725853 144.0
99.77356 48.0
99.85907 148.0
99.876968 120.0
100.048111 180.0
100.111832 168.0
100.183533 156.0
100.203461 204.0
100.317055 216.0
100.331017 104.0
100.386841 196.0
100.440697 220.0
100.47261 188.0
100.530479 256.0
100.708168 152.0
100.90007 144.0
100.93 208.0
100.970001 148.0
101.036011 212.0
101.056015 156.0
101.076942 96.0
101.12606 124.0
101.456589 128.0
101.474632 136.0
101.524757 208.0
101.566879 136.0
101.623055 164.0
101.678596 236.0
101.739464 160.0
101.928261 168.0
101.986549 116.0
102.041107 200.0
102.086304 156.0
102.119255 80.0
102.135345 184.0
102.181618 188.0
102.201736 100.0
102.314445 192.0
102.330551 168.0
102.401039 176.0
102.509827 200.0
102.523933 148.0
102.659004 208.0
102.673126 140.0
102.717499 172.0
102.757019 204.0
102.856735 224.0
102.910797 216.0
102.963753 148.0
103.050789 720.0
103.105171 132.0
103.290726 172.0
103.351891 164.0
103.566483 176.0
103.641441 152.0
103.659683 148.0
103.769142 124.0
103.82592 212.0
103.848228 156.0
103.888802 224.0
103.965904 172.0
104.004471 180.0
104.048386 828.0
104.079582 128.0
104.122231 248.0
104.223808 284.0
104.240059 56.0
104.266479 172.0
104.323395 136.0
104.35186 124.0
104.583771 172.0
104.655029 204.0
104.799644 216.0
104.832253 52.0
104.860779 120.0
104.90155 228.0
104.930916 228.0
104.974953 136.0
105.017784 180.0
105.047836 180.0
105.06813 164.0
105.085098 152.0
105.111626 148.0
105.125916 64.0
105.236145 144.0
105.305573 180.0
105.442467 148.0
105.518105 148.0
105.761543 344.0
105.89463 48.0
105.949944 132.0
106.025757 164.0
106.061264 420.0
106.122108 188.0
106.165169 172.0
106.181572 92.0
106.241058 188.0
106.332016 196.0
106.433998 192.0
106.487389 168.0
106.742226 168.0
106.828613 168.0
106.861534 184.0
106.875931 180.0
106.917091 108.0
106.986954 136.0
107.007668 72.0
107.099152 188.0
107.17244 80.0
107.403343 192.0
107.440475 132.0
107.572556 204.0
107.741898 152.0
107.803886 144.0
107.826622 192.0
107.944458 128.0
108.054092 52.0
108.163773 132.0
108.194824 40.0
108.33358 120.0
108.842789 220.0
108.854736 152.0
108.912346 152.0
108.92688 144.0
108.941422 128.0
108.976746 152.0
109.107681 212.0
109.269913 168.0
109.300362 132.0
109.394783 184.0
109.412666 176.0
109.598885 152.0
109.613472 216.0
109.632233 200.0
109.744797 120.0
109.836563 160.0
109.867851 188.0
110.018112 272.0
110.438141 208.0
110.651596 244.0
110.717552 160.0
110.970062 144.0
111.022491 228.0
111.259598 172.0
111.295288 252.0
111.475945 112.0
111.555817 224.0
111.68409 224.0
111.774559 240.0
111.82296 48.0
111.886108 136.0
111.919479 184.0
111.936646 192.0
112.090424 80.0
112.151543 132.0
112.229546 148.0
112.252739 188.0
112.537605 104.0
112.562943 136.0
112.613632 196.0
112.753082 212.0
112.80381 180.0
112.907417 180.0
112.947601 124.0
113.068207 76.0
113.091492 108.0
113.131706 160.0
113.280251 140.0
113.335037 208.0
113.375298 208.0
113.417686 136.0
113.748604 132.0
113.854515 160.0
113.873886 152.0
113.935486 144.0
114.003479 196.0
114.022606 168.0
114.048111 32.0
114.065117 136.0
114.092758 212.0
114.179939 148.0
114.228859 112.0
114.276161 120.0
114.431038 212.0
114.480019 172.0
114.533264 60.0
114.605698 120.0
114.829536 128.0
114.938339 132.0
115.017303 148.0
115.053291 3692.0
115.241547 244.0
115.309929 184.0
115.335579 132.0
115.453178 152.0
115.577248 148.0
115.600792 68.0
115.778481 152.0
115.801216 220.0
115.82695 324.0
115.904869 204.0
115.982025 368.0
116.049042 8724.0
116.185745 192.0
116.408981 104.0
116.546455 244.0
116.836716 96.0
116.892662 92.0
116.987366 84.0
117.055534 2716.0
117.185509 64.0
117.200592 208.0
117.368721 112.0
117.396751 112.0
117.543449 44.0
117.562866 220.0
117.642731 60.0
117.723648 184.0
117.794998 228.0
117.817657 60.0
117.891129 172.0
117.947319 104.0
118.064507 904.0
118.236702 228.0
118.334572 168.0
118.481842 208.0
118.499176 52.0
118.518677 96.0
118.539696 200.0
118.646561 156.0
118.692093 144.0
118.722313 192.0
118.759323 144.0
118.848267 116.0
118.874306 88.0
118.898178 132.0
119.026062 176.0
119.032776 160.0
119.0578 328.0
119.097931 172.0
119.171944 232.0
119.28698 208.0
119.370102 228.0
119.393524 156.0
119.41745 164.0
119.537109 140.0
119.659004 124.0
119.704727 252.0
119.734909 224.0
119.817993 120.0
119.872467 64.0
120.020699 164.0
120.040863 896.0
120.070854 176.0
120.225754 52.0
120.382935 116.0
120.433174 128.0
120.518372 176.0
120.64077 140.0
120.682304 140.0
120.710793 152.0
120.754471 160.0
120.855103 104.0
121.1222 104.0
121.238327 144.0
121.512428 60.0
121.600204 68.0
121.622154 100.0
121.745102 144.0
121.767067 204.0
121.870316 152.0
122.087944 72.0
122.153931 120.0
122.310165 140.0
122.340988 136.0
122.609718 96.0
122.878746 44.0
123.134811 176.0
123.411049 60.0
123.612343 108.0
123.856506 212.0
123.90905 212.0
124.277107 112.0
124.454681 244.0
124.512421 168.0
124.652374 180.0
124.703491 36.0
125.141747 112.0
125.228592 200.0
125.38282 144.0
125.502708 152.0
125.574066 192.0
125.850792 164.0
125.88652 76.0
126.259735 168.0
126.286575 148.0
126.349213 164.0
126.396202 204.0
126.528259 108.0
126.633507 208.0
126.763451 112.0
126.862068 116.0
126.965218 112.0
127.048058 332.0
127.167137 256.0
127.384949 44.0
127.492805 180.0
127.51078 164.0
127.627678 188.0
127.791878 116.0
127.884148 120.0
127.947174 160.0
128.001221 160.0
128.025986 140.0
128.050629 924.0
128.129608 36.0
128.174667 48.0
128.361771 164.0
128.56868 184.0
128.639282 152.0
128.718307 140.0
128.865128 64.0
128.917694 124.0
128.973602 176.0
129.0466 1728.0
129.065903 1448.0
129.091171 152.0
129.186172 172.0
129.233688 148.0
129.342316 44.0
129.417023 48.0
129.450989 176.0
129.49176 156.0
129.510254 168.0
129.707397 216.0
129.763687 144.0
129.788635 156.0
129.849869 176.0
129.868011 160.0
129.895233 144.0
130.004395 140.0
130.041367 396.0
130.064407 3616.0
130.153961 176.0
130.247086 40.0
130.2836 108.0
130.315231 84.0
130.397049 108.0
130.412949 100.0
130.437958 136.0
130.547089 136.0
130.588028 64.0
130.656662 212.0
130.73819 84.0
130.770309 176.0
130.840622 40.0
130.963211 188.0
131.027847 188.0
131.062637 976.0
131.232513 124.0
131.266708 172.0
131.294083 236.0
131.478882 184.0
131.524521 152.0
131.647812 40.0
131.702637 132.0
131.851151 208.0
131.942581 132.0
132.064407 488.0
132.430008 52.0
132.452911 176.0
132.638519 132.0
132.670288 144.0
132.695831 76.0
132.927505 160.0
132.977997 88.0
132.996353 156.0
133.073807 436.0
133.097366 140.0
133.182343 164.0
133.200729 60.0
133.336288 160.0
133.384552 124.0
133.460419 76.0
133.483414 116.0
133.582321 96.0
133.627853 136.0
133.87207 176.0
134.059753 1008.0
134.305634 104.0
134.534088 80.0
134.674942 136.0
134.714218 208.0
134.806641 72.0
134.882919 84.0
134.9095 168.0
134.973083 40.0
135.128052 188.0
135.158127 128.0
135.220612 32.0
135.253021 128.0
135.294693 172.0
135.387314 96.0
135.554108 124.0
135.595245 208.0
135.601715 156.0
135.639862 228.0
135.693192 48.0
135.862488 156.0
135.929489 220.0
135.938873 192.0
135.990128 248.0
136.036545 140.0
136.078339 164.0
136.34082 144.0
136.561707 180.0
136.594269 232.0
136.782761 64.0
136.817673 188.0
136.880539 120.0
137.006317 148.0
137.045929 96.0
137.078552 180.0
137.348999 56.0
137.369995 100.0
137.408752 256.0
137.706131 180.0
137.738831 152.0
137.89772 116.0
137.979538 244.0
138.047348 208.0
138.112839 148.0
138.353867 148.0
138.388992 172.0
138.492035 176.0
138.543564 68.0
138.618546 208.0
138.712296 176.0
138.892853 200.0
139.050064 92.0
139.082916 112.0
139.127533 156.0
139.322449 224.0
139.55748 156.0
139.889221 180.0
139.990463 120.0
140.016312 180.0
140.048996 216.0
140.13887 40.0
140.160065 128.0
140.211914 152.0
140.66243 216.0
140.766312 136.0
140.789932 168.0
141.033295 156.0
141.061676 520.0
141.2603 176.0
141.378601 164.0
141.411743 200.0
141.437775 176.0
141.492218 212.0
141.530106 36.0
141.650894 208.0
141.66748 216.0
141.712494 152.0
141.81012 160.0
141.840469 48.0
141.873657 136.0
141.949524 284.0
141.980362 64.0
142.01593 56.0
142.059845 2364.0
142.25798 104.0
142.319702 160.0
142.407928 264.0
142.504974 176.0
142.58815 120.0
142.607162 132.0
142.630936 216.0
142.728409 168.0
142.759323 196.0
142.859222 172.0
142.890152 188.0
143.00914 116.0
143.060715 8688.0
143.125793 176.0
143.141418 64.0
143.209137 184.0
143.240112 204.0
143.268692 108.0
143.442657 136.0
143.495117 48.0
143.690689 64.0
143.802094 76.0
143.833878 168.0
143.993744 168.0
144.016678 216.0
144.06694 11080.0
144.151703 108.0
144.173035 40.0
144.259079 176.0
144.28299 124.0
144.301102 188.0
144.404953 88.0
144.432343 88.0
144.49556 176.0
144.591568 28.0
144.620285 100.0
144.66098 264.0
144.780701 144.0
144.831009 72.0
144.85495 112.0
144.948669 72.0
145.015503 76.0
145.032288 176.0
145.073166 2636.0
145.103134 108.0
145.130569 116.0
145.188126 160.0
145.207321 60.0
145.236099 120.0
145.267288 64.0
145.32486 148.0
145.348862 48.0
145.516876 68.0
145.555298 192.0
145.656174 156.0
145.747467 260.0
145.997467 112.0
146.031143 184.0
146.063202 428.0
146.129013 88.0
146.148422 108.0
146.18512 128.0
146.2164 96.0
146.262131 260.0
146.303055 112.0
146.331955 124.0
146.493317 68.0
146.539093 56.0
146.594513 60.0
146.621017 216.0
146.734314 176.0
146.830765 64.0
147.051422 168.0
147.113083 304.0
147.190353 72.0
147.253143 112.0
147.286957 168.0
147.315582 160.0
147.562454 80.0
147.855164 228.0
148.131195 96.0
148.235367 72.0
148.396606 140.0
148.470535 160.0
148.489929 168.0
148.521469 228.0
148.552994 236.0
148.65976 52.0
148.759277 112.0
148.783554 148.0
148.926819 164.0
149.031281 180.0
149.099335 36.0
149.156845 148.0
149.785477 220.0
150.193512 204.0
150.390213 224.0
150.482971 120.0
150.619736 152.0
150.673477 164.0
150.763885 132.0
150.839661 196.0
151.304474 200.0
151.326508 168.0
151.353439 132.0
151.451401 212.0
151.605759 240.0
151.659683 88.0
151.892639 144.0
152.013123 148.0
152.042297 232.0
152.106125 132.0
152.133118 192.0
152.18222 112.0
152.214142 80.0
152.231339 92.0
152.265717 232.0
152.442612 124.0
152.464722 120.0
152.558136 180.0
152.592545 148.0
152.826218 208.0
152.872971 152.0
152.962387 72.0
153.050247 160.0
153.178268 192.0
153.279297 196.0
153.308868 156.0
153.360626 108.0
153.404984 124.0
153.432114 212.0
153.496216 92.0
153.567734 144.0
153.666412 180.0
153.841644 212.0
153.937943 188.0
153.994736 184.0
154.063416 1752.0
154.212173 52.0
154.335785 136.0
154.511398 132.0
154.724228 108.0
154.781189 188.0
154.843094 124.0
155.004791 180.0
155.061417 596.0
155.157806 68.0
155.279312 72.0
155.549774 68.0
155.666458 224.0
155.691299 48.0
156.070251 2764.0
156.128708 28.0
156.166016 52.0
156.509445 168.0
156.571701 48.0
156.614044 180.0
156.848267 148.0
156.997879 172.0
157.074844 1852.0
157.202438 168.0
157.469574 40.0
157.499542 44.0
157.529526 212.0
157.574493 160.0
157.661957 116.0
157.862686 216.0
158.03038 240.0
158.082947 2744.0
158.19223 140.0
158.252304 72.0
158.292374 128.0
158.402573 40.0
158.50029 184.0
158.690796 136.0
158.735931 56.0
158.766022 156.0
159.024445 100.0
159.082779 504.0
159.139923 48.0
159.246796 192.0
159.524307 128.0
159.561447 180.0
159.728577 88.0
159.833664 148.0
159.851288 64.0
159.934341 180.0
160.019928 120.0
160.061325 448.0
160.086044 152.0
160.360016 56.0
160.412949 56.0
160.632339 136.0
160.710556 176.0
160.900818 228.0
160.975601 108.0
161.048584 320.0
161.070175 300.0
161.132202 208.0
161.344513 136.0
161.474396 296.0
162.032913 120.0
162.248337 112.0
162.306656 196.0
162.565399 92.0
162.810074 160.0
162.911896 168.0
162.928497 180.0
163.162323 224.0
163.213165 60.0
163.378494 136.0
163.406479 232.0
163.48027 204.0
163.498093 168.0
163.800201 112.0
163.887711 192.0
163.933578 120.0
163.994736 168.0
164.091614 116.0
164.286667 184.0
164.903397 168.0
164.954514 184.0
164.990311 48.0
165.049118 128.0
165.207687 40.0
165.358673 188.0
165.420105 124.0
165.471298 108.0
165.537872 52.0
165.583969 164.0
165.660812 144.0
165.79747 204.0
165.886337 200.0
165.927353 88.0
165.958115 48.0
166.037613 192.0
166.064484 800.0
166.455933 176.0
166.607468 192.0
166.679413 164.0
166.741089 208.0
166.813065 140.0
167.071442 268.0
167.121689 152.0
167.160278 240.0
167.440903 176.0
167.479538 160.0
167.68309 128.0
167.771957 184.0
168.07045 220.0
168.253174 168.0
168.320297 208.0
168.374527 172.0
168.397781 136.0
168.436523 96.0
168.57605 172.0
168.633545 176.0
168.684601 152.0
168.723373 164.0
168.739624 128.0
168.776627 108.0
168.939941 184.0
168.96907 204.0
169.004578 232.0
169.074982 30656.0
169.152145 184.0
169.178467 88.0
169.18866 76.0
169.218506 160.0
169.25029 148.0
169.27533 140.0
169.373917 164.0
169.391052 180.0
169.421326 76.0
169.463043 112.0
169.498154 48.0
169.541336 152.0
169.562073 104.0
169.602112 180.0
169.624283 32.0
169.650208 112.0
169.673538 52.0
169.71608 168.0
169.73407 104.0
169.764297 192.0
169.842255 184.0
169.868179 152.0
169.925476 400.0
169.964035 124.0
169.999725 152.0
170.071259 59204.0
170.120605 264.0
170.170425 140.0
170.208939 132.0
170.21907 32.0
170.224884 100.0
170.252182 48.0
170.27037 60.0
170.293747 96.0
170.332886 60.0
170.403763 68.0
170.442749 192.0
170.463562 44.0
170.496246 176.0
170.517548 144.0
170.566879 68.0
170.6315 156.0
170.671112 136.0
170.691376 64.0
170.745728 100.0
170.777191 28.0
170.836319 44.0
170.878647 112.0
170.923386 232.0
170.977539 80.0
171.076706 5468.0
171.153107 136.0
171.183197 156.0
171.208023 60.0
171.248993 92.0
171.266968 152.0
171.305618 108.0
171.33284 80.0
171.38118 76.0
171.416519 92.0
171.438507 96.0
171.4776 40.0
171.516693 68.0
171.553192 148.0
171.607941 72.0
171.680954 88.0
171.71225 320.0
171.931412 72.0
172.035812 60.0
172.085037 1036.0
172.15332 52.0
172.179214 96.0
172.195724 116.0
172.263016 56.0
172.294357 52.0
172.312653 120.0
172.330948 176.0
172.362305 120.0
172.384827 156.0
172.416458 292.0
172.442139 124.0
172.478851 100.0
172.503433 168.0
172.546753 140.0
172.700867 80.0
172.764954 52.0
172.798965 152.0
172.827744 108.0
172.885315 48.0
172.919342 120.0
172.940277 76.0
172.968689 196.0
173.018814 120.0
173.066788 144.0
173.097076 152.0
173.12355 68.0
173.291199 120.0
173.464172 188.0
173.487762 44.0
173.587387 172.0
173.610992 124.0
173.637222 92.0
173.760513 136.0
173.794617 196.0
173.920593 180.0
173.966278 100.0
174.069107 132.0
174.087906 312.0
174.167419 60.0
174.191055 184.0
174.238358 92.0
174.269882 56.0
174.317184 96.0
174.564285 196.0
174.637924 60.0
174.787888 184.0
174.974762 116.0
175.282944 48.0
175.500534 160.0
175.597946 164.0
175.7444 88.0
175.765503 136.0
175.789246 176.0
175.897461 412.0
175.927704 144.0
175.96875 104.0
175.989868 92.0
176.057343 10332.0
176.110474 96.0
176.143051 32.0
176.193237 60.0
176.254013 48.0
176.367661 76.0
176.483978 208.0
176.505127 32.0
176.605637 136.0
176.655884 52.0
176.679703 60.0
176.767014 64.0
176.786789 68.0
176.931122 132.0
176.976135 184.0
177.059464 820.0
177.124954 168.0
177.415955 148.0
177.614838 188.0
177.726273 96.0
178.058762 160.0
178.180298 112.0
178.201553 148.0
178.247498 232.0
178.28392 124.0
178.536484 108.0
178.568405 124.0
178.642883 100.0
178.765274 112.0
179.058121 100.0
179.415192 152.0
179.500519 144.0
179.564529 132.0
179.633881 84.0
179.962143 116.0
180.086533 208.0
180.370895 120.0
180.571442 40.0
180.603531 160.0
180.694489 264.0
181.074707 412.0
181.16301 176.0
181.235352 76.0
181.425644 112.0
181.672379 244.0
181.779694 124.0
181.846786 60.0
182.005188 172.0
182.080734 2000.0
182.206635 64.0
182.252304 188.0
182.288086 128.0
182.373245 192.0
182.413559 84.0
182.440445 48.0
182.726807 168.0
182.905838 180.0
183.026993 196.0
183.090179 8184.0
183.158951 48.0
183.196671 44.0
183.40416 144.0
183.449997 32.0
183.657623 164.0
183.676514 80.0
183.725067 108.0
183.765533 128.0
183.838989 168.0
183.878876 120.0
184.027344 148.0
184.062134 1560.0
184.097122 4396.0
184.278549 96.0
184.356903 124.0
184.389343 56.0
184.413666 52.0
184.581284 48.0
184.702988 92.0
184.805786 48.0
185.072495 324.0
185.106262 4776.0
185.157715 60.0
185.206467 64.0
185.241684 28.0
185.293564 156.0
185.314835 84.0
185.360107 152.0
185.569611 60.0
185.591293 44.0
185.626556 56.0
185.740463 172.0
186.0634 88.0
186.108627 924.0
186.193741 152.0
186.237198 48.0
186.288818 56.0
186.394775 128.0
186.522522 200.0
186.669342 168.0
186.750931 104.0
186.858795 228.0
187.002609 144.0
187.087311 332.0
187.368866 48.0
187.8405 216.0
187.870514 200.0
188.022049 112.0
188.054688 140.0
188.08609 148.0
188.105194 176.0
188.434402 80.0
188.665237 144.0
188.900421 108.0
188.985229 84.0
189.007126 52.0
189.182281 52.0
189.263321 168.0
189.447937 44.0
189.530121 52.0
189.730209 48.0
189.785049 76.0
189.911194 96.0
190.690979 224.0
191.9767 72.0
192.2995 168.0
192.343658 152.0
192.412674 44.0
192.592178 88.0
192.697144 204.0
192.771759 112.0
193.076416 160.0
193.363602 36.0
193.421722 160.0
193.723572 160.0
193.978516 112.0
194.072784 88.0
195.08902 480.0
195.623077 96.0
196.086411 3236.0
196.408905 32.0
196.500961 128.0
196.676788 156.0
196.699112 132.0
196.727036 44.0
197.068832 1020.0
197.09343 1184.0
197.159973 48.0
197.417175 52.0
197.612991 160.0
197.716522 80.0
197.825684 120.0
197.853683 188.0
198.024506 192.0
198.101044 3332.0
198.313095 172.0
198.482574 176.0
198.576935 40.0
198.649582 136.0
199.048141 84.0
199.098236 496.0
199.178101 132.0
199.379639 68.0
199.759216 144.0
199.795792 196.0
199.849258 140.0
199.96463 124.0
200.081131 1176.0
200.15889 152.0
200.22084 52.0
200.240555 76.0
200.685806 84.0
200.705551 60.0
200.730927 152.0
201.032776 196.0
201.087616 216.0
201.586273 52.0
201.7276 164.0
202.074646 548.0
202.333023 60.0
202.709747 120.0
202.772095 56.0
203.07547 180.0
203.711319 76.0
203.918747 284.0
204.055191 192.0
204.772308 208.0
205.142746 72.0
206.447617 56.0
207.068665 40.0
207.105896 168.0
207.613205 52.0
208.057968 128.0
208.095291 124.0
208.322174 220.0
208.667053 120.0
208.871231 120.0
209.065598 152.0
210.04364 208.0
210.073654 304.0
210.216751 184.0
210.811646 188.0
211.059219 188.0
211.087296 1268.0
211.601318 56.0
211.92572 144.0
212.08461 228.0
212.424393 120.0
212.569458 160.0
212.630402 140.0
213.065979 192.0
213.109848 2344.0
213.478729 84.0
213.592163 148.0
213.624161 40.0
213.6707 48.0
213.74054 44.0
213.769638 44.0
214.095779 1420.0
214.375366 156.0
214.573578 64.0
214.757294 140.0
215.100006 200.0
215.197952 188.0
215.40239 144.0
215.449127 88.0
215.530945 88.0
215.992874 96.0
216.09819 216.0
216.250366 52.0
217.053085 88.0
217.113129 212.0
218.096756 256.0
218.227615 104.0
218.580597 208.0
219.791702 108.0
221.592407 76.0
222.111221 108.0
222.734573 112.0
223.067398 92.0
223.098419 248.0
223.400467 120.0
224.079987 960.0
224.237198 48.0
224.481674 176.0
225.089676 892.0
225.625275 120.0
226.097885 156.0
226.121841 72.0
226.223602 96.0
227.0896 152.0
228.435318 176.0
228.554184 164.0
229.398972 96.0
231.68367 176.0
232.414368 48.0
233.532364 140.0
234.083221 116.0
234.131943 56.0
234.842087 220.0
235.547211 72.0
236.152435 172.0
236.342102 212.0
237.540039 136.0
238.412033 116.0
238.605698 180.0
239.090363 672.0
239.17894 140.0
239.704544 36.0
239.760025 116.0
239.874069 48.0
239.988144 140.0
240.096191 312.0
240.145416 200.0
240.507767 120.0
240.584763 128.0
240.723221 148.0
240.776443 160.0
240.830643 100.0
240.867599 116.0
240.935669 36.0
241.02298 244.0
241.106857 45056.0
241.208771 204.0
241.257538 148.0
241.294189 136.0
241.326431 124.0
241.352356 148.0
241.369431 124.0
241.402405 136.0
241.461166 64.0
241.505585 100.0
241.54306 76.0
241.6017 108.0
241.659149 56.0
241.690094 52.0
241.723694 172.0
241.779831 44.0
241.831482 64.0
241.875793 104.0
241.942596 100.0
242.035751 156.0
242.110214 5908.0
242.157562 92.0
242.244293 88.0
242.281464 72.0
242.309357 68.0
242.36174 88.0
242.368073 80.0
242.410156 76.0
242.437729 84.0
242.461197 104.0
242.60997 56.0
242.693695 72.0
242.807526 88.0
242.867355 76.0
242.895279 80.0
243.034882 48.0
243.079269 92.0
243.111221 692.0
243.145889 52.0
243.22731 28.0
243.267654 88.0
243.345276 56.0
243.398056 68.0
243.465027 124.0
243.51297 104.0
243.618591 40.0
243.643433 124.0
243.689423 120.0
243.742859 136.0
243.814865 144.0
243.828613 108.0
243.888931 88.0
244.003952 92.0
244.091019 84.0
244.112793 164.0
244.184311 40.0
244.400391 44.0
244.451874 76.0
244.579483 52.0
244.626175 116.0
244.647964 108.0
244.735138 108.0
244.773804 48.0
244.806763 100.0
244.834793 36.0
244.981186 44.0
245.582809 68.0
246.51944 56.0
247.739716 100.0
248.423141 40.0
249.255173 88.0
250.973846 36.0
251.04007 72.0
252.205093 36.0
254.619446 80.0
255.754547 152.0
256.509491 68.0
256.997437 68.0
257.115509 172.0
258.396912 144.0
260.715302 56.0
263.951935 96.0
266.681702 168.0
268.65506 44.0
269.853668 96.0
270.34433 44.0
270.452362 64.0
276.05542 104.0
280.537903 68.0
283.807739 100.0
283.965363 80.0
286.402252 104.0
291.347992 32.0
292.667664 72.0
295.268036 68.0
295.521179 96.0
296.618073 72.0
297.176117 104.0
306.43927 68.0
314.08197 64.0
318.99353 100.0
326.477264 96.0
333.149872 32.0
333.495087 28.0
337.32251 148.0
337.41391 112.0
339.985352 76.0
340.694031 60.0
345.013336 76.0
348.408142 144.0
348.96933 96.0
352.970337 120.0
354.932495 48.0
368.85437 60.0
369.845093 68.0
370.266266 68.0
381.429169 84.0
386.792847 52.0
388.015106 64.0
388.097443 76.0
406.283752 88.0
406.608795 52.0
407.086517 64.0
407.407867 52.0
418.7099 68.0
430.843811 80.0
443.314484 68.0
447.944702 80.0
455.198395 56.0
457.413513 52.0
469.858948 80.0
470.027222 88.0
479.420288 92.0
480.942474 92.0
492.906128 80.0
495.40155 120.0
502.680145 56.0
505.030182 76.0
506.879181 96.0
514.597961 88.0
515.07666 116.0
522.306824 84.0
532.554993 144.0
536.577026 36.0
539.212891 92.0
550.367004 52.0
558.117249 128.0
558.49823 96.0
572.341431 72.0
573.518188 104.0
585.409912 80.0
592.51532 116.0
636.042786 64.0
641.027039 76.0
674.950745 48.0
704.308472 108.0
718.002502 52.0
720.628845 72.0
744.340942 72.0
745.557861 20.0
746.269958 220.0
752.776184 100.0
764.744629 88.0
764.865723 72.0
792.68689 72.0
827.433472 128.0
842.172607 36.0
850.325012 124.0
875.059021 144.0
877.062012 80.0
880.673157 208.0
901.031616 180.0
905.188721 188.0
914.90979 112.0
921.169617 260.0
926.675049 136.0
960.903564 108.0
962.866577 136.0
974.854492 240.0
978.817139 204.0
979.938354 68.0
980.966675 180.0
984.523254 164.0
985.753906 136.0
987.435669 76.0
993.016235 92.0
994.785767 152.0
998.002563 152.0
999.593994 132.0
1000.500366 64.0
1001.615051 188.0
1004.193054 124.0
1004.281372 172.0
1008.031555 108.0
1010.301453 132.0
1013.917114 48.0
1018.371094 172.0
1019.050842 192.0
1020.099487 220.0
1027.933716 208.0
1029.063477 60.0
1041.757324 152.0
1042.753296 92.0
1045.184204 164.0
1045.853516 112.0
1049.267822 112.0
1049.841797 176.0
1055.4729 180.0
1055.602173 140.0
1058.158081 144.0
1060.710571 212.0
1064.967285 120.0
1065.298584 68.0
1065.402588 180.0
1065.909302 140.0
1068.44519 176.0
1071.641968 236.0
1073.147705 44.0
1076.802124 160.0
1080.75061 164.0
1083.100952 148.0
1086.227783 152.0
1086.418091 200.0
1086.837891 116.0
1093.962524 176.0
1096.465576 220.0
1096.735718 116.0
1102.927368 148.0
1104.858276 196.0
1105.692139 172.0
1107.234741 196.0
1107.48645 116.0
1111.882324 68.0
1113.635132 184.0
1114.877563 176.0
1116.446533 40.0
1117.351196 172.0
1122.813477 220.0
1130.121704 204.0
1131.03186 120.0
1132.049561 68.0
1132.792969 192.0
1134.602417 172.0
1137.749023 148.0
1139.286987 220.0
1141.740356 188.0
1143.200317 168.0
1143.530029 144.0
1144.162842 300.0
1145.940918 168.0
1148.273315 132.0
1152.296631 224.0
1155.197021 108.0
1157.430542 136.0
1160.262695 192.0
1160.859375 232.0
1166.923218 252.0
1168.004517 156.0
1168.222168 112.0
1170.488647 136.0
1170.767944 160.0
1170.917725 164.0
1172.805054 188.0
1174.878174 116.0
1174.973633 164.0
1179.658569 152.0
1181.375122 172.0
1182.798462 156.0
1183.928223 156.0
1185.990601 160.0
1189.907715 100.0
1190.347168 128.0
1190.422729 232.0
1193.459961 156.0
1194.120239 208.0
1194.327637 152.0
1196.115601 120.0
1197.651123 188.0
1199.311768 180.0
1199.884033 36.0
1204.397217 128.0
1207.154907 184.0
1207.493774 28.0
1209.451904 148.0
1210.878296 48.0
1214.420044 76.0
1217.842041 104.0
1219.572144 124.0
1219.871094 112.0
1220.57312 168.0
1222.674194 160.0
1225.076538 188.0
1226.700195 200.0
1227.599731 164.0
1228.959961 100.0
1232.157715 120.0
1233.704712 208.0
1237.774414 148.0
1241.474487 156.0
1242.428467 164.0
1242.800293 196.0
1243.796875 148.0
1243.98645 108.0
1244.295288 164.0
1248.624023 112.0
1250.847534 136.0
1256.153809 144.0
1257.339233 96.0
1262.942139 180.0
1267.03064 172.0
1268.011841 144.0
1268.295288 168.0
1268.529297 192.0
1269.131836 136.0
1271.245728 200.0
1271.834839 92.0
1274.988403 128.0
1275.05957 140.0
1275.805908 132.0
1279.690552 52.0
1280.637695 136.0
1281.898682 168.0
1283.438477 232.0
1284.793579 156.0
1289.170654 204.0
1290.328613 148.0
1293.719849 236.0
1294.736572 120.0
1296.807251 156.0
1297.007935 136.0
1297.122559 144.0
1298.377441 104.0
1298.944092 44.0
1299.640015 144.0
1301.800659 128.0
1305.127808 44.0
1305.609619 148.0
1305.796631 100.0
1306.826538 184.0
1308.343872 88.0
1310.958618 140.0
1313.099854 184.0
1313.204712 88.0
1313.446045 208.0
1314.795532 140.0
1317.199707 176.0
1317.662109 168.0
1318.052246 164.0
1318.825562 192.0
1322.333618 96.0
1323.347046 128.0
1325.121582 160.0
1325.831787 124.0
1326.752319 188.0
1328.376831 240.0
1329.254761 168.0
1333.386963 232.0
1334.062988 204.0
1334.28833 168.0
1335.401001 220.0
1335.677368 176.0
1336.354004 164.0
1339.236816 196.0
1340.081909 76.0
1340.373413 128.0
1342.698975 124.0
1344.033936 148.0
1344.814819 104.0
1346.041382 232.0
1346.771729 184.0
1347.370728 116.0
1348.203735 104.0
1348.744629 84.0
1349.153931 128.0
1349.519531 160.0
1351.231079 76.0
1351.406616 108.0
1352.218994 68.0
1352.980225 168.0
1353.419556 84.0
1353.588013 164.0
1353.69043 192.0
1354.210449 144.0
1355.43396 124.0
1356.254761 200.0
1357.361816 204.0
1357.728516 160.0
1358.007202 48.0
1358.175903 208.0
1363.161133 140.0
1364.667969 268.0
1364.837158 108.0
1366.609863 104.0
1366.867432 232.0
1372.060181 172.0
1373.350708 204.0
1373.756348 116.0
1374.708252 184.0
1376.265747 120.0
1377.920288 76.0
1378.740479 88.0
1379.376099 132.0
1379.487061 188.0
1379.642334 152.0
1379.864136 160.0
1380.374268 208.0
1385.111084 112.0
1387.942261 92.0
1388.046021 120.0
1389.863403 144.0
1390.100952 200.0
1390.783691 128.0
1391.125244 204.0
1391.362793 72.0
1391.615234 164.0
1391.741455 156.0
1392.350342 136.0
1393.925293 88.0
1394.401001 160.0
1395.359863 76.0
1398.261108 212.0
1399.243652 188.0
1401.016235 132.0
1402.834595 176.0
1404.042603 168.0
1404.288696 260.0
1404.960083 148.0
1405.19873 168.0
1405.280884 164.0
1405.9823 152.0
1408.819702 132.0
1409.163452 68.0
1409.850952 180.0
1410.149902 160.0
1410.396484 216.0
1412.203979 220.0
1412.28833 116.0
1412.984009 64.0
1413.388062 124.0
1414.106567 196.0
1414.181396 104.0
1414.654785 164.0
1415.049805 48.0
1416.090698 40.0
1416.877197 144.0
1417.484131 176.0
1419.87561 160.0
1422.689575 196.0
1424.003662 112.0
1424.950195 164.0
1427.438232 144.0
1429.160767 172.0
1429.235962 172.0
1429.356445 208.0
1429.91333 164.0
1431.780518 84.0
1432.202271 216.0
1434.493042 220.0
1436.370728 156.0
1437.381714 164.0
1438.604492 128.0
1438.710205 104.0
1439.049927 232.0
1439.910767 156.0
1442.578125 108.0
1446.186401 120.0
1446.723877 172.0
1446.928223 116.0
1447.102417 144.0
1447.375 172.0
1449.056519 152.0
1449.124756 52.0
1449.943115 136.0
1450.13269 152.0
1450.610229 176.0
1450.701172 268.0
1451.557983 128.0
1452.407349 124.0
1452.597046 132.0
1453.848999 180.0
1454.372681 168.0
1454.539673 72.0
1455.708862 76.0
1456.293701 208.0
1458.261597 200.0
1458.740479 180.0
1458.793701 76.0
1459.341064 140.0
1460.010254 232.0
1460.360229 260.0
1460.786133 220.0
1460.847046 120.0
1462.224243 152.0
1462.323242 104.0
1463.373779 216.0
1466.398071 204.0
1466.641968 200.0
1467.335693 188.0
1467.739868 120.0
1467.877075 44.0
1468.006714 76.0
1468.929688 92.0
1470.713257 152.0
1471.409912 240.0
1472.05896 88.0
1472.173584 180.0
1472.509521 140.0
1474.060425 168.0
1475.711548 164.0
1478.61084 160.0
1479.498779 156.0
1481.880615 136.0
1482.325073 188.0
1484.69397 204.0
1484.801392 52.0
1485.798584 216.0
1486.374023 124.0
1487.59436 120.0
1487.878418 124.0
1489.744629 128.0
1489.890625 140.0
1490.136475 124.0
1490.712769 136.0
1492.596191 144.0
1492.995972 240.0
1494.28833 224.0
1495.242554 44.0
1495.596558 112.0
1497.359863 148.0
1498.030029 108.0
1499.293579 152.0
1499.470947 132.0
1500.072144 164.0
1500.24939 84.0
1500.789185 164.0
1502.192871 228.0
1502.424316 164.0
1503.141846 168.0
1503.381104 144.0
1504.245605 192.0
1504.392212 168.0
1504.631592 164.0
