>compound MLS001055357-01!501-36-0
>formula C14H12O3
>ionization [M+H]+
>parentmass 229.0859206960905
#inchi InChI=1S/C14H12O3/c15-12-5-3-10(4-6-12)1-2-11-7-13(16)9-14(17)8-11/h1-9,15-17H/b2-1+
#inchikey LUKBXSAWLPMMSZ
#Ion_Source LC-ESI
#Instrument qTof
#Compound_Source NIH Pharmacologically Active Library
#PI Dorrestein
#Data_Collector VP/LMS
#Scan -1
#Precursor_MZ 229.081
#ExactMass 228.079
#Charge 1
#CAS_Number N/A
#Pubmed_ID N/A
#Smiles Oc1ccc(/C=C/c2cc(O)cc(O)c2)cc1
#INCHI_AUX N/A
#Library_Class 1
#SpectrumID CCMSLIB00000085353
#IonMode Positive
#UpdateWorkflowName UPDATE-SINGLE-ANNOTATED-GOLD
#LibraryQualityString Gold
#TaskID d252d724072548979f1f6f1ced849daf
##Scan# 1630
#SpectrumFile p3-H08_GH8_01_18313.mzXML
#LibraryName Pharm_Active_Library.mgf
#MQScore -1
#Organism Pharm_Active_Library
#TIC_Query 0
#RT_Query -1
#MZErrorPPM -1
#SharedPeaks 0
#MassDiff 0
#LibMZ -1
#SpecMZ 229.081
#SpecCharge 0
#internalFilename spec-00000.mgf

>collision 10
45.325607 152.0
46.675411 164.0
47.212883 168.0
49.117722 148.0
49.166557 148.0
50.881176 96.0
51.712284 152.0
51.743778 44.0
51.991772 156.0
52.155514 156.0
54.118534 44.0
54.332527 60.0
56.492691 204.0
56.837303 156.0
56.912357 224.0
60.186531 116.0
62.129078 176.0
63.341404 132.0
63.938435 108.0
64.110435 124.0
71.607239 164.0
72.655312 196.0
75.338173 196.0
75.957932 72.0
76.180138 64.0
80.151558 172.0
89.308914 108.0
89.902405 160.0
90.956665 200.0
91.053047 192.0
92.500755 68.0
93.218086 216.0
94.276093 132.0
94.608795 200.0
94.912987 144.0
95.013847 152.0
96.150269 156.0
98.619202 176.0
100.695564 248.0
103.060287 180.0
103.945 72.0
106.066154 168.0
107.015305 156.0
107.04911 1100.0
107.157425 32.0
107.644226 68.0
108.053497 156.0
109.023949 204.0
109.685837 200.0
110.036316 152.0
111.042877 224.0
111.551033 96.0
113.22007 136.0
114.458153 56.0
115.05204 192.0
115.179024 68.0
115.827171 176.0
117.038475 144.0
117.071358 208.0
119.048492 284.0
120.05571 696.0
120.955223 120.0
120.977119 152.0
121.025284 160.0
123.048141 172.0
126.449371 256.0
127.050743 216.0
128.063736 192.0
128.629715 88.0
129.067749 156.0
129.500275 136.0
130.77179 64.0
131.054184 180.0
131.090652 128.0
135.046051 216.0
135.866608 104.0
136.052505 488.0
139.054276 324.0
140.060593 152.0
140.270325 60.0
141.06955 204.0
141.486969 60.0
143.058609 156.0
144.057739 224.0
144.876007 32.0
145.064972 220.0
146.235138 128.0
150.934494 164.0
152.062271 516.0
153.067566 412.0
154.065857 168.0
154.196823 28.0
155.084747 312.0
157.061249 200.0
158.066559 144.0
159.202179 72.0
160.052155 200.0
163.056137 184.0
164.063049 132.0
165.068863 1644.0
166.069809 488.0
166.825394 60.0
167.085144 160.0
168.053772 480.0
168.234573 40.0
169.058609 300.0
171.078537 128.0
172.045731 168.0
173.057343 216.0
181.063004 636.0
181.733551 248.0
181.800644 52.0
182.065109 156.0
183.031845 164.0
183.080322 176.0
183.20961 32.0
184.634842 144.0
186.103592 228.0
193.063004 312.0
193.972427 36.0
194.074661 128.0
194.094421 156.0
194.205353 80.0
195.157898 104.0
195.219086 84.0
196.048508 140.0
196.093277 168.0
196.561798 128.0
197.05603 92.0
197.520111 20.0
198.060364 156.0
200.040085 116.0
200.085129 136.0
200.913712 36.0
210.069443 388.0
211.075104 144.0
212.058441 192.0
212.084534 144.0
213.056671 124.0
216.009842 56.0
216.17662 60.0
228.076859 152.0
229.081924 172.0
240.826904 92.0
293.136902 124.0
757.350952 92.0
819.029663 200.0
901.822754 76.0
980.76947 116.0
991.194153 20.0
1011.294067 20.0
1033.667969 84.0
1043.346924 48.0
1127.662842 104.0
1140.383667 148.0
1152.089478 168.0
1153.954834 240.0
1206.375732 204.0
1239.492798 216.0
1278.510986 148.0
1297.174927 172.0
1298.078369 224.0
1304.8927 144.0
1308.086914 128.0
1327.97998 56.0
1343.488892 112.0
1349.03186 144.0
1374.924438 196.0
1385.202148 200.0
1385.254028 92.0
1411.064087 192.0
1434.985352 136.0
