>compound 2-butan-2-yl-4-[4-[4-[4-[[2-(2,4-dichlorophenyl)-2-(1,2,4-triazol-1-ylmethyl)-1,3-dioxolan-4-yl]methoxy]phenyl]piperazin-1-yl]phenyl]-1,2,4-triazol-3-one
>formula C35H38Cl2N8O4
>ionization [M+H]+
>parentmass 705.2465835080906
#inchi InChI=1S/C35H38Cl2N8O4/c1-3-25(2)45-34(46)44(24-40-45)29-7-5-27(6-8-29)41-14-16-42(17-15-41)28-9-11-30(12-10-28)47-19-31-20-48-35(49-31,21-43-23-38-22-39-43)32-13-4-26(36)18-33(32)37/h4-13,18,22-25,31H,3,14-17,19-21H2,1-2H3
#inchikey VHVPQPYKVGDNFY
#Ion_Source LC-ESI
#Instrument qTof
#Compound_Source Commercial
#PI Dorrestein
#Data_Collector Garg_Neha
#Scan -1
#Precursor_MZ 705.247
#ExactMass 704.239
#Charge 1
#CAS_Number N/A
#Pubmed_ID N/A
#Smiles CCC(C)n1ncn(c2ccc(cc2)N3CCN(CC3)c4ccc(OCC5COC(Cn6cncn6)(O5)c7ccc(Cl)cc7Cl)cc4)c1=O
#INCHI_AUX N/A
#Library_Class 1
#SpectrumID CCMSLIB00000079020
#IonMode Positive
#UpdateWorkflowName UPDATE-SINGLE-ANNOTATED-GOLD
#LibraryQualityString Gold
#TaskID 278b19f5865741e282cec7349aa7e7a1
##Scan# 2352
#SpectrumFile NCP003352_E2_F11_BC6_01_15720.mzXML
#LibraryName NIHcollectionI_05062014.mgf
#MQScore -1
#Organism NIHcollectionI_05062014
#TIC_Query 0
#RT_Query -1
#MZErrorPPM -1
#SharedPeaks 0
#MassDiff 0
#LibMZ -1
#SpecMZ 705.247
#SpecCharge 0
#internalFilename spec-00000.mgf

>collision 10
45.36866 204.0
45.509689 172.0
45.818871 152.0
46.577789 144.0
47.266277 172.0
49.073021 164.0
49.553818 204.0
52.982113 144.0
53.724854 124.0
53.7425 156.0
54.121067 160.0
54.820274 148.0
54.969212 176.0
55.480968 204.0
55.667919 148.0
56.115799 140.0
56.2635 152.0
58.37146 224.0
59.637318 156.0
60.212002 200.0
60.978909 180.0
61.218491 172.0
62.451759 196.0
63.129921 140.0
63.772007 168.0
63.939003 172.0
64.847763 176.0
66.189728 176.0
67.556885 204.0
68.393761 364.0
69.318619 232.0
69.393211 180.0
70.75103 144.0
72.988319 216.0
73.938499 152.0
74.068619 152.0
74.676231 248.0
74.810448 176.0
75.357147 140.0
75.742928 276.0
76.576653 168.0
77.913063 192.0
77.949966 168.0
78.672089 208.0
78.984863 140.0
79.878876 236.0
80.491966 180.0
81.024963 148.0
82.042145 160.0
83.585281 168.0
84.060875 164.0
85.880821 148.0
86.275986 156.0
87.865715 164.0
88.333321 180.0
88.90419 140.0
93.969948 196.0
94.826599 140.0
96.772667 144.0
98.68335 168.0
99.940628 172.0
102.159386 144.0
102.997948 152.0
103.137367 148.0
104.05098 156.0
104.962494 160.0
105.066513 152.0
105.757195 172.0
106.222328 168.0
107.045074 320.0
108.625504 180.0
109.026222 164.0
112.260635 172.0
113.576126 152.0
114.021996 156.0
114.304825 180.0
114.749985 156.0
115.05584 188.0
116.062782 164.0
116.580109 188.0
117.055511 228.0
117.071693 184.0
117.637634 164.0
118.064812 252.0
118.710091 188.0
118.758492 140.0
119.072174 1652.0
119.579765 164.0
120.079765 612.0
120.100502 140.0
121.066505 160.0
121.081841 188.0
121.755119 172.0
122.067474 304.0
122.278358 156.0
122.928474 176.0
123.768448 196.0
124.216125 152.0
124.580177 184.0
125.465897 184.0
125.769272 176.0
126.982895 196.0
127.844635 160.0
128.06076 128.0
129.068344 780.0
130.066589 784.0
131.051086 164.0
131.072449 432.0
132.039459 144.0
132.080566 988.0
132.545364 160.0
132.965027 156.0
133.047653 152.0
133.065033 212.0
133.091949 164.0
133.178543 148.0
133.504898 204.0
134.060165 488.0
134.094254 204.0
134.419418 140.0
135.067169 408.0
136.074814 144.0
136.095261 176.0
136.181183 144.0
136.967361 188.0
137.086182 220.0
138.118103 176.0
138.277206 152.0
138.723984 140.0
139.222 388.0
140.910889 176.0
142.073303 164.0
143.091965 184.0
144.080673 1852.0
145.030197 176.0
145.063553 352.0
145.087372 600.0
145.334763 184.0
145.536377 184.0
145.747742 156.0
146.059967 960.0
146.096954 4668.0
146.210617 144.0
147.068756 132.0
147.10231 520.0
147.552994 140.0
148.076309 1368.0
148.104309 140.0
149.06459 136.0
149.08165 424.0
149.230728 156.0
149.498291 180.0
151.01088 188.0
151.779831 208.0
152.044769 148.0
152.956619 144.0
155.075882 160.0
156.080673 448.0
156.372345 200.0
157.091248 324.0
157.824203 220.0
158.094299 576.0
158.337189 144.0
158.49501 172.0
158.975479 1224.0
159.068771 392.0
159.629593 148.0
160.074936 408.0
160.108124 336.0
160.231155 144.0
160.430237 164.0
160.93988 148.0
160.973297 640.0
161.091599 208.0
161.336533 148.0
162.089569 1408.0
162.69693 172.0
163.091873 440.0
164.01207 168.0
164.071609 624.0
164.353149 104.0
165.071564 144.0
166.039581 144.0
166.427063 152.0
166.583725 168.0
167.010406 152.0
167.074722 184.0
167.121033 176.0
169.672775 200.0
170.095123 344.0
171.067398 232.0
171.102814 276.0
172.075775 2876.0
172.112671 976.0
173.082199 940.0
173.460602 140.0
173.644135 152.0
173.835648 188.0
173.922256 188.0
174.062622 172.0
174.091446 13756.0
174.174332 160.0
174.29332 176.0
174.355606 200.0
174.960587 188.0
175.068924 116.0
175.095093 2008.0
176.081238 176.0
176.100769 344.0
177.504974 144.0
178.089844 820.0
179.083206 124.0
180.008957 200.0
180.706589 152.0
181.864243 208.0
182.092453 140.0
182.52243 216.0
182.648834 164.0
184.072891 272.0
184.096115 160.0
184.739395 176.0
185.023544 144.0
185.083099 160.0
185.126434 164.0
185.158936 196.0
185.508453 204.0
185.988571 196.0
186.090073 300.0
186.182953 148.0
186.971756 1400.0
186.999664 148.0
187.063568 196.0
187.093613 156.0
187.127609 188.0
187.970825 244.0
188.069519 172.0
188.108444 1476.0
188.967087 836.0
189.076416 432.0
189.110336 336.0
189.251785 188.0
189.97319 160.0
190.085587 552.0
190.249741 148.0
190.828491 144.0
190.964157 164.0
191.005417 172.0
191.096069 560.0
191.814606 152.0
192.101913 6848.0
192.173218 208.0
192.405304 152.0
192.73674 144.0
193.106735 1292.0
193.137604 204.0
193.646881 224.0
194.1073 112.0
194.850754 196.0
200.107452 6920.0
200.138229 160.0
200.999466 160.0
201.077484 496.0
201.110016 844.0
201.730957 192.0
202.089188 132.0
202.10994 168.0
202.452454 184.0
203.025436 188.0
203.093262 8928.0
203.263184 248.0
203.978867 140.0
204.09906 1224.0
204.596176 152.0
205.104294 272.0
205.588074 188.0
206.115082 244.0
206.224945 152.0
206.588089 188.0
207.09761 168.0
208.267838 140.0
209.055588 148.0
211.028564 176.0
211.369873 160.0
213.071823 156.0
213.107895 268.0
215.09346 1736.0
216.099136 692.0
217.105026 124.0
218.117828 4576.0
218.681076 112.0
219.120163 608.0
219.210541 164.0
220.030731 220.0
221.823227 156.0
222.107407 164.0
223.100906 124.0
224.104034 172.0
224.23674 164.0
225.439438 156.0
226.004593 168.0
227.098022 152.0
228.999435 292.0
229.109787 1376.0
229.486633 144.0
230.079254 120.0
230.110413 724.0
231.12355 428.0
231.316452 144.0
231.555664 160.0
232.121933 264.0
232.565277 192.0
232.964996 176.0
233.141296 188.0
233.507141 148.0
233.650101 144.0
235.161514 140.0
236.026047 176.0
237.158752 172.0
237.996246 132.0
238.147781 180.0
238.444733 172.0
240.138062 140.0
240.607086 164.0
240.705887 156.0
240.990799 192.0
241.144562 156.0
242.103821 268.0
243.121216 1196.0
244.130615 1592.0
245.138611 1824.0
245.417084 120.0
245.915207 160.0
246.005722 156.0
246.140671 1112.0
248.484299 160.0
249.137299 148.0
249.989365 176.0
251.117294 144.0
251.649307 148.0
252.127487 220.0
252.396179 152.0
255.606216 176.0
255.688965 152.0
255.948624 140.0
256.00528 15724.0
256.636353 116.0
256.709625 100.0
257.007263 2156.0
257.129852 104.0
258.001678 10144.0
258.148102 276.0
259.005707 1020.0
259.155609 6296.0
259.997467 1448.0
260.159973 1076.0
261.169464 464.0
263.84201 244.0
264.167328 232.0
265.079315 144.0
265.17453 216.0
265.951691 152.0
266.071808 152.0
266.471283 148.0
267.131226 212.0
267.358978 152.0
267.958099 148.0
269.009033 296.0
269.053894 156.0
269.445801 200.0
270.014557 152.0
270.134827 600.0
270.967102 200.0
271.01474 160.0
271.155701 5320.0
271.233582 152.0
272.157074 1032.0
273.077789 172.0
273.16629 584.0
274.078552 220.0
274.157654 156.0
275.064636 164.0
276.386566 160.0
278.421936 140.0
278.916962 148.0
279.084839 1272.0
279.755249 144.0
280.09079 280.0
280.147217 124.0
281.103027 224.0
281.919861 164.0
282.025909 204.0
284.015472 108.0
284.123047 152.0
284.34787 220.0
285.169525 1092.0
285.226532 252.0
286.165375 1184.0
287.182281 232.0
288.179352 148.0
289.174683 156.0
290.237885 208.0
291.582153 144.0
291.786102 168.0
292.157837 492.0
293.102051 200.0
293.160919 224.0
294.109192 104.0
295.117096 144.0
295.14447 168.0
296.043671 332.0
296.143738 184.0
296.822266 176.0
298.03653 276.0
298.165741 660.0
298.340668 112.0
298.384491 168.0
299.174133 3212.0
300.178711 864.0
301.186859 444.0
301.69754 156.0
303.701019 152.0
306.11087 168.0
306.138641 176.0
306.185181 292.0
306.215363 160.0
307.123016 244.0
310.162781 396.0
310.798309 168.0
310.968933 136.0
312.030914 908.0
314.0271 204.0
317.000854 200.0
318.746704 212.0
319.140015 104.0
319.511139 144.0
320.153259 436.0
320.294281 172.0
321.156586 1616.0
322.165771 3480.0
323.165649 524.0
324.719177 176.0
327.018585 156.0
330.334564 168.0
331.168121 288.0
332.131226 168.0
332.162537 332.0
332.515808 164.0
333.159393 144.0
333.867279 280.0
334.172302 544.0
335.151031 12572.0
335.254272 172.0
335.45108 144.0
335.724976 232.0
336.147736 5752.0
336.224792 244.0
337.15274 1888.0
337.21405 172.0
337.890533 200.0
338.161682 3452.0
338.30304 168.0
338.439545 208.0
339.160858 552.0
340.1716 104.0
340.739166 204.0
341.470337 136.0
342.897797 176.0
346.162994 132.0
346.372284 196.0
346.761322 240.0
347.177917 568.0
348.044861 140.0
348.09314 148.0
348.182495 21628.0
348.951813 120.0
349.183441 4356.0
350.178467 780.0
351.077576 148.0
351.158173 112.0
351.189636 140.0
352.115051 196.0
354.618011 144.0
354.824188 156.0
355.803345 168.0
356.329132 188.0
356.746277 180.0
358.166595 1228.0
359.166229 276.0
360.174133 148.0
361.164093 164.0
362.162567 148.0
362.203064 156.0
362.236877 208.0
363.179657 348.0
364.05603 188.0
364.177399 2956.0
364.505646 196.0
365.17923 964.0
366.053833 152.0
366.177338 176.0
366.278534 228.0
366.747192 156.0
367.605286 140.0
367.822815 140.0
373.586151 200.0
374.158691 1084.0
375.164642 152.0
375.206085 272.0
375.939575 240.0
376.176941 26344.0
376.250519 168.0
376.461426 148.0
376.489441 160.0
376.734711 192.0
376.867035 196.0
377.179718 6272.0
377.220886 3084.0
377.885895 96.0
377.949646 144.0
378.077209 120.0
378.184601 948.0
378.227661 2552.0
378.29068 104.0
379.231873 496.0
379.372253 112.0
379.70285 96.0
379.887238 100.0
380.068085 204.0
380.220581 108.0
383.63562 148.0
384.53656 140.0
387.217804 176.0
387.343903 204.0
387.676941 176.0
388.211487 224.0
388.6651 220.0
389.088959 200.0
390.189606 532.0
390.22699 416.0
390.46701 120.0
390.632385 180.0
390.722229 164.0
390.802551 152.0
390.981262 128.0
391.111389 128.0
391.200775 248.0
391.23111 172.0
391.5 148.0
391.660187 112.0
391.702209 140.0
391.864563 156.0
391.895996 188.0
391.98468 216.0
392.041504 112.0
392.073517 252.0
392.132385 124.0
392.208618 88332.0
392.331818 192.0
392.461426 132.0
392.572357 148.0
392.683533 104.0
392.741974 116.0
392.827393 176.0
392.911133 152.0
393.030121 112.0
393.072479 164.0
393.111084 168.0
393.212189 23432.0
393.300842 152.0
393.335846 108.0
393.617218 132.0
393.654907 164.0
393.822205 248.0
393.976532 132.0
394.188263 8328.0
394.21814 7480.0
394.371185 116.0
394.428314 200.0
394.486603 140.0
395.190765 2536.0
395.216827 2048.0
395.294678 104.0
395.394775 132.0
395.511566 172.0
395.58075 152.0
395.612549 136.0
395.748596 176.0
395.797852 144.0
395.981689 220.0
396.093781 120.0
396.132202 156.0
396.196472 436.0
396.230286 420.0
397.007385 132.0
397.19104 104.0
397.453979 112.0
397.58847 124.0
397.630981 96.0
398.059723 156.0
400.173157 160.0
400.338287 140.0
402.222931 284.0
403.235992 600.0
403.402496 160.0
404.244781 16828.0
404.362061 220.0
405.247498 4896.0
406.226227 828.0
406.422211 156.0
407.081085 196.0
407.228668 204.0
408.032776 152.0
408.232483 204.0
408.334351 148.0
411.196655 124.0
411.727753 160.0
413.029175 180.0
414.227478 1016.0
414.385315 144.0
415.231903 728.0
415.690918 164.0
416.240265 248.0
416.888855 180.0
417.083954 152.0
418.212402 128.0
419.232513 288.0
419.654022 112.0
420.071442 136.0
420.129852 144.0
420.238647 7704.0
420.303375 136.0
421.240082 2856.0
422.140533 224.0
422.212982 144.0
422.243927 236.0
422.593109 112.0
424.776947 140.0
430.217194 448.0
430.915039 200.0
431.22757 412.0
431.629913 96.0
431.836853 172.0
431.917816 160.0
431.954803 148.0
432.014709 176.0
432.159821 156.0
432.240021 28780.0
432.965088 144.0
433.24295 6944.0
434.247559 896.0
435.237915 104.0
435.588959 136.0
435.647797 140.0
436.261169 140.0
444.03598 144.0
446.099091 152.0
447.097473 268.0
447.848419 132.0
448.109741 128.0
448.2341 756.0
449.087677 392.0
449.238342 388.0
449.812927 152.0
450.009888 212.0
450.09317 276.0
450.249969 23348.0
450.444702 104.0
450.76535 132.0
451.251068 5500.0
451.313721 340.0
451.437195 128.0
452.25592 1352.0
453.256561 240.0
453.327148 212.0
453.860382 104.0
454.198273 128.0
459.10495 160.0
461.10434 264.0
463.220673 196.0
464.62674 144.0
465.03009 144.0
465.601105 172.0
466.920471 140.0
467.262329 176.0
468.04364 164.0
468.827606 268.0
469.534637 192.0
470.289642 224.0
473.105743 216.0
473.398102 188.0
474.060883 168.0
475.105011 172.0
475.596771 140.0
478.735107 144.0
479.680542 232.0
481.469421 188.0
491.796478 96.0
498.514191 192.0
499.3797 128.0
506.303223 164.0
507.728333 204.0
509.326141 144.0
511.503571 128.0
513.742065 156.0
514.983337 188.0
520.806274 180.0
521.980591 164.0
523.623413 152.0
526.405212 140.0
528.80072 212.0
528.983826 144.0
530.688049 200.0
535.91394 152.0
539.518433 176.0
539.939209 144.0
542.742004 104.0
543.937683 176.0
545.021912 124.0
546.71051 148.0
547.499146 144.0
547.98822 188.0
548.496216 148.0
550.357605 164.0
552.105286 196.0
553.246948 156.0
554.080505 160.0
556.087463 204.0
556.786987 140.0
558.323792 196.0
559.26355 112.0
561.328186 196.0
562.49353 236.0
564.162659 152.0
568.812805 160.0
573.593323 164.0
575.58844 152.0
575.697388 156.0
580.139771 240.0
581.13501 144.0
581.648499 140.0
584.151733 128.0
585.364868 144.0
585.735596 160.0
586.66571 148.0
588.392822 176.0
589.122009 176.0
589.257324 180.0
589.445435 192.0
593.739624 152.0
595.195374 176.0
595.273071 160.0
598.053894 140.0
598.52124 168.0
599.217773 168.0
601.153503 156.0
601.363342 144.0
602.65686 156.0
603.720581 124.0
607.048096 164.0
607.190308 140.0
607.263916 160.0
608.194458 236.0
608.667419 188.0
610.891541 96.0
612.055298 148.0
612.7547 164.0
613.104553 156.0
615.255066 152.0
617.91394 152.0
618.057373 192.0
621.14386 148.0
621.952637 152.0
622.198914 120.0
622.466553 124.0
622.548401 172.0
624.481628 140.0
625.095764 108.0
626.059265 184.0
627.638916 160.0
631.274109 152.0
633.401184 164.0
634.268005 140.0
634.772644 136.0
636.196716 228.0
637.228821 184.0
638.088257 192.0
638.209961 136.0
639.193298 152.0
639.268616 124.0
644.000427 144.0
644.73175 156.0
647.834412 192.0
649.1828 780.0
649.803101 148.0
650.189087 428.0
651.182007 392.0
652.177429 112.0
653.183899 164.0
653.305725 152.0
653.623169 96.0
656.234131 152.0
657.060364 192.0
659.818176 148.0
660.385742 216.0
661.204346 160.0
661.317505 164.0
663.232666 112.0
664.219055 144.0
665.443542 204.0
669.57782 168.0
670.290894 140.0
670.912354 156.0
672.432373 128.0
672.712708 188.0
673.373657 168.0
673.957397 152.0
679.204041 228.0
680.057739 332.0
680.291138 116.0
680.521118 152.0
687.016113 124.0
687.192139 152.0
687.233887 156.0
689.222473 340.0
689.568115 140.0
690.209167 248.0
691.204956 188.0
691.338318 108.0
692.014099 168.0
692.186523 124.0
692.450867 148.0
692.550415 196.0
693.554199 160.0
693.760803 164.0
694.350525 104.0
695.051025 140.0
695.350159 160.0
695.6651 144.0
696.896851 96.0
697.189087 152.0
697.660034 100.0
697.807068 264.0
698.129272 152.0
698.489807 116.0
698.723633 168.0
698.769043 144.0
698.868225 100.0
698.98053 120.0
699.044006 184.0
699.301758 120.0
699.618286 180.0
700.269409 164.0
700.419617 252.0
700.605469 140.0
700.650452 164.0
700.78717 232.0
700.888245 136.0
701.02533 200.0
701.176208 124.0
701.323853 216.0
701.465149 108.0
701.713074 196.0
701.87915 152.0
702.216003 108.0
702.272827 184.0
702.343506 160.0
702.385315 144.0
702.443298 136.0
702.649109 112.0
702.714417 116.0
702.798828 240.0
702.911438 200.0
702.985229 236.0
703.104736 96.0
703.181335 172.0
703.227966 372.0
703.43988 220.0
703.592163 140.0
703.66156 116.0
703.691345 252.0
703.837646 164.0
704.036194 260.0
704.09906 236.0
704.187073 196.0
704.233765 372.0
704.355774 252.0
704.415222 328.0
704.520508 324.0
704.618225 184.0
704.691772 308.0
704.743408 292.0
704.779175 240.0
704.869873 292.0
704.886658 392.0
704.90564 320.0
704.962708 332.0
705.013977 392.0
705.096863 184.0
705.111145 596.0
705.13385 404.0
705.248596 193200.0
705.376892 520.0
705.468079 308.0
705.527039 212.0
705.589966 268.0
705.6875 240.0
705.757202 516.0
705.826233 500.0
705.87146 388.0
705.931641 224.0
705.97052 496.0
706.045349 396.0
706.123413 1960.0
706.250549 105520.0
706.39563 324.0
706.511658 432.0
706.633057 340.0
706.687988 404.0
706.757874 172.0
706.850891 280.0
706.889282 500.0
706.991516 348.0
707.036682 304.0
707.116455 600.0
707.246887 154180.0
707.372192 212.0
707.413818 292.0
707.482422 136.0
707.634033 216.0
707.692017 260.0
707.761719 256.0
707.853394 280.0
707.902283 112.0
708.029236 116.0
708.125977 716.0
708.24707 57980.0
708.607788 320.0
708.705139 224.0
708.838623 348.0
708.907288 124.0
708.957764 108.0
709.063538 168.0
709.13623 364.0
709.243713 21220.0
709.429077 164.0
709.473267 392.0
709.616943 228.0
709.658752 212.0
709.70343 264.0
709.775879 272.0
709.844238 376.0
709.937378 536.0
709.996765 208.0
710.05658 244.0
710.132751 308.0
710.242737 4508.0
710.406738 164.0
710.630981 228.0
710.698547 192.0
710.791199 128.0
710.897217 136.0
710.965637 116.0
711.101013 140.0
711.162537 260.0
711.23761 164.0
711.289978 132.0
711.424805 136.0
711.49585 128.0
711.586914 192.0
711.717163 220.0
711.820923 100.0
711.90564 96.0
711.999817 288.0
712.051636 240.0
712.179871 280.0
712.240479 100.0
712.426941 144.0
712.597168 148.0
712.696899 112.0
712.82428 244.0
712.882019 100.0
713.06543 180.0
713.15332 144.0
713.200989 148.0
713.44696 144.0
713.706665 128.0
713.798889 236.0
713.925049 108.0
714.013062 136.0
714.079285 140.0
714.342529 116.0
714.636597 96.0
714.868042 108.0
716.383972 100.0
716.457397 96.0
716.77124 96.0
719.333374 148.0
723.740173 108.0
725.542664 116.0
726.641418 100.0
726.743042 96.0
729.457581 156.0
732.776978 168.0
740.511597 116.0
742.583801 140.0
770.982422 160.0
823.485107 148.0
842.238403 144.0
872.159607 140.0
904.661194 140.0
909.216492 144.0
944.642029 136.0
944.807129 108.0
970.102417 144.0
988.397888 100.0
1023.477844 196.0
1046.827759 128.0
1058.661377 144.0
1141.37146 208.0
1170.331665 144.0
1188.814941 200.0
1195.456909 112.0
1203.414551 144.0
1204.395142 188.0
1428.312256 140.0
1451.770752 188.0
1462.064453 204.0
1481.274536 184.0
1548.963257 116.0
1575.940674 164.0
1587.235596 224.0
1707.822632 108.0
1719.626343 164.0
1732.401489 204.0
1737.450073 180.0
1738.254883 140.0
1750.16626 204.0
1769.804688 236.0
1795.771606 192.0
1798.176147 212.0
1809.435547 244.0
1834.982788 172.0
1869.485107 140.0
1909.332153 176.0
1944.760254 204.0
1954.954956 148.0
1996.329346 144.0
1996.730835 140.0
