>compound MLS001331716-01!
>formula C18H22O2
>ionization [M+H]+
>parentmass 271.171
#inchi InChI=1S/C18H22O2/c1-18-9-8-14-13-5-3-12(19)10-11(13)2-4-15(14)16(18)6-7-17(18)20/h3,5,10,14-16,19H,2,4,6-9H2,1H3
#inchikey DNXHEGUUPJUMQT
#Ion_Source LC-ESI
#Instrument qTof
#Compound_Source NIH Pharmacologically Active Library
#PI Dorrestein
#Data_Collector VP/LMS
#Scan -1
#Precursor_MZ 271.171
#ExactMass 270.162
#Charge 1
#CAS_Number N/A
#Pubmed_ID N/A
#Smiles CC12CCC3C(CCc4cc(O)ccc34)C2CCC1=O
#INCHI_AUX N/A
#Library_Class 1
#SpectrumID CCMSLIB00000085999
#IonMode Positive
#UpdateWorkflowName UPDATE-SINGLE-ANNOTATED-GOLD
#LibraryQualityString Gold
#TaskID d252d724072548979f1f6f1ced849daf
##Scan# 2073
#SpectrumFile p5-A03_GA3_01_18432.mzXML
#LibraryName Pharm_Active_Library.mgf
#MQScore -1
#Organism Pharm_Active_Library
#TIC_Query 0
#RT_Query -1
#MZErrorPPM -1
#SharedPeaks 0
#MassDiff 0
#LibMZ -1
#SpecMZ 271.171
#SpecCharge 0
#internalFilename spec-00000.mgf

>collision 10
45.046158 96.0
45.056847 240.0
45.129017 152.0
45.349899 256.0
45.486713 160.0
45.725964 108.0
45.843128 156.0
46.385101 84.0
46.905716 192.0
47.11829 128.0
47.221123 84.0
47.556801 216.0
47.659798 176.0
48.866867 144.0
49.180412 208.0
49.19437 128.0
49.661728 228.0
50.158077 52.0
50.210243 148.0
50.540798 164.0
50.614403 152.0
50.747589 160.0
51.0984 140.0
51.159595 72.0
51.444706 164.0
51.526108 168.0
51.653339 224.0
51.807941 244.0
52.048893 64.0
53.187981 156.0
53.605381 152.0
53.765797 204.0
54.096123 164.0
54.531765 152.0
54.61557 148.0
55.053295 232.0
55.214378 120.0
55.232128 160.0
55.45126 48.0
55.84322 224.0
56.350052 128.0
56.405346 180.0
56.516014 172.0
56.79916 140.0
56.830662 180.0
57.627148 172.0
57.658882 120.0
57.673599 168.0
57.838867 108.0
58.016102 188.0
58.130684 168.0
58.175388 240.0
58.520496 164.0
58.723171 140.0
58.855934 188.0
59.230621 92.0
59.541977 128.0
59.588062 160.0
59.65107 212.0
59.678741 32.0
59.73103 104.0
59.98048 164.0
60.1054 124.0
60.578495 212.0
60.668377 140.0
60.86697 152.0
61.022346 168.0
61.126556 132.0
61.536491 136.0
61.913338 160.0
62.175148 192.0
62.237938 256.0
62.291336 128.0
62.37619 108.0
62.432793 132.0
62.462673 68.0
63.050781 156.0
63.193096 252.0
64.091774 204.0
64.122055 228.0
64.15712 184.0
64.270355 212.0
64.626671 204.0
64.74192 140.0
65.052971 220.0
65.176636 68.0
65.819328 132.0
66.194473 144.0
66.418129 132.0
66.463554 228.0
66.580429 152.0
67.166359 236.0
67.300179 144.0
67.785988 60.0
67.885986 100.0
68.06813 180.0
68.508911 36.0
69.230705 184.0
69.801552 156.0
69.883057 116.0
70.316315 236.0
71.302765 164.0
71.334702 128.0
71.358238 140.0
71.401955 264.0
71.43055 156.0
71.543297 84.0
71.679726 168.0
71.738708 188.0
71.887131 184.0
71.964783 44.0
72.480667 160.0
72.522057 208.0
72.592545 136.0
72.696022 148.0
73.255394 120.0
73.564049 168.0
73.613564 204.0
73.873352 116.0
74.32222 188.0
74.485313 92.0
74.571228 204.0
74.855087 148.0
75.196426 136.0
76.148666 148.0
76.256386 120.0
76.724632 204.0
76.78392 180.0
76.984612 208.0
77.003822 244.0
77.339516 244.0
78.331612 208.0
79.36396 144.0
79.424309 168.0
79.519821 48.0
79.994408 128.0
80.261642 172.0
81.039162 192.0
81.308136 188.0
81.924873 180.0
82.516823 144.0
82.583725 132.0
82.909615 200.0
83.847374 64.0
83.871071 160.0
84.28717 180.0
84.413292 216.0
84.426094 124.0
84.462677 188.0
84.685982 128.0
84.882072 28.0
85.188576 100.0
85.333755 120.0
85.878838 232.0
85.902817 164.0
86.220398 76.0
86.351662 172.0
86.76088 176.0
87.15435 124.0
87.813347 196.0
87.923416 180.0
88.013863 216.0
89.191406 36.0
89.244873 236.0
89.260971 136.0
89.873146 144.0
89.920319 120.0
90.862663 168.0
90.915794 220.0
91.052315 536.0
91.42038 168.0
91.924377 164.0
92.058006 168.0
92.128853 208.0
92.159241 40.0
92.467117 72.0
92.67968 140.0
93.071152 208.0
93.174683 164.0
93.211189 40.0
93.805893 264.0
94.04705 228.0
94.261375 152.0
94.756699 156.0
94.900124 144.0
95.086349 128.0
95.298012 172.0
95.764885 132.0
95.883736 152.0
95.926613 196.0
96.022156 136.0
96.156776 148.0
96.678574 172.0
97.917366 128.0
98.532799 116.0
98.578247 204.0
98.669167 180.0
99.023369 144.0
99.322655 208.0
99.548904 64.0
99.739639 132.0
99.843025 236.0
100.020096 204.0
100.079826 144.0
100.093758 268.0
101.131874 188.0
101.252007 160.0
101.626862 44.0
101.664986 124.0
101.95015 84.0
102.282005 96.0
102.332329 80.0
102.703125 224.0
102.929161 220.0
103.056267 596.0
103.102882 64.0
103.40625 52.0
103.6371 188.0
103.994011 144.0
104.061005 224.0
104.325111 172.0
104.730049 152.0
104.77079 96.0
105.015396 264.0
105.034744 164.0
105.070671 2724.0
105.480942 132.0
105.495247 200.0
105.66703 148.0
105.793922 104.0
105.86763 192.0
106.076988 128.0
106.320686 120.0
106.926956 152.0
107.048035 716.0
107.074203 300.0
107.077782 156.0
107.087997 184.0
107.733177 164.0
108.049484 172.0
108.088791 192.0
108.115692 92.0
108.347603 208.0
108.534134 56.0
108.918068 152.0
109.098221 328.0
109.767189 156.0
109.788048 212.0
110.069756 80.0
110.324654 164.0
111.191826 176.0
111.971809 52.0
112.555954 184.0
113.241135 180.0
113.573898 168.0
113.601479 140.0
114.030388 128.0
114.36644 64.0
114.496315 68.0
114.681671 144.0
114.952515 180.0
115.054665 1640.0
115.07354 120.0
115.319839 156.0
115.739136 120.0
116.024094 128.0
116.062378 1672.0
116.208534 180.0
116.82827 216.0
117.04818 200.0
117.06736 308.0
117.881599 152.0
117.942116 260.0
118.223274 168.0
118.704178 212.0
118.829987 124.0
119.044876 168.0
119.087654 188.0
119.416496 260.0
120.056793 180.0
120.089508 196.0
120.950386 232.0
121.069305 412.0
121.164993 236.0
121.283325 188.0
121.403908 64.0
121.467514 56.0
121.502609 180.0
122.465424 52.0
122.553543 156.0
122.626259 48.0
123.277298 140.0
123.48069 132.0
124.584549 156.0
125.096024 320.0
125.318726 60.0
125.530479 172.0
125.871895 88.0
126.00367 136.0
126.048035 164.0
126.095291 152.0
126.256256 176.0
126.377045 204.0
126.916847 136.0
126.977394 128.0
127.056664 536.0
127.078339 164.0
127.756821 224.0
128.062958 1140.0
129.06987 1160.0
129.807632 200.0
129.932388 60.0
130.07222 304.0
130.686691 168.0
130.877884 100.0
131.050262 1424.0
131.087006 1436.0
131.123901 48.0
131.148972 72.0
131.208237 60.0
131.650894 40.0
131.934219 44.0
131.957077 152.0
132.027969 216.0
132.056442 540.0
132.089294 196.0
132.124222 148.0
132.160645 144.0
132.213272 192.0
132.455963 80.0
132.682831 212.0
132.81813 96.0
132.932846 168.0
132.98793 152.0
133.029236 236.0
133.065369 8632.0
133.097183 88.0
133.160126 44.0
133.224442 88.0
133.277283 104.0
133.610657 100.0
133.974945 168.0
134.068436 1144.0
134.119568 32.0
134.53479 168.0
134.640991 32.0
134.714905 76.0
134.851242 104.0
134.909027 112.0
135.03157 100.0
135.070679 128.0
135.297668 188.0
135.413452 168.0
136.469299 140.0
136.850876 128.0
136.951019 160.0
137.356598 148.0
137.842209 200.0
138.153168 140.0
138.412949 72.0
139.057632 220.0
139.518021 112.0
139.572098 156.0
139.673233 132.0
139.722626 128.0
139.779099 156.0
139.800278 136.0
140.061615 172.0
140.596817 60.0
141.070053 1884.0
141.097565 180.0
141.343552 144.0
141.551849 112.0
141.990265 196.0
142.077301 304.0
142.163452 52.0
142.491119 68.0
143.085754 144.0
143.333405 180.0
143.481171 152.0
143.538391 212.0
143.965546 132.0
144.01091 164.0
144.057327 4080.0
144.199661 64.0
144.381363 72.0
144.539246 104.0
144.603867 136.0
144.625397 104.0
144.728348 96.0
144.906433 56.0
145.027802 180.0
145.064316 2160.0
145.320358 44.0
145.493164 96.0
145.747742 164.0
145.781387 44.0
146.071503 200.0
146.115601 32.0
146.385178 128.0
147.080902 644.0
147.156769 132.0
147.388641 36.0
147.775513 80.0
147.986069 164.0
148.00946 248.0
148.095047 200.0
148.119263 244.0
148.179825 120.0
148.980423 108.0
149.080048 152.0
149.10434 148.0
149.454514 164.0
149.846512 128.0
150.158524 212.0
150.556335 120.0
150.981552 160.0
151.051254 356.0
151.36821 196.0
151.691605 208.0
152.061935 144.0
152.106155 184.0
152.246109 52.0
152.563065 188.0
152.781937 224.0
153.071915 396.0
153.151169 56.0
153.422241 164.0
153.994705 60.0
154.076675 324.0
154.741501 116.0
155.009003 156.0
155.060989 416.0
155.085007 588.0
155.234589 64.0
155.567047 40.0
155.991837 156.0
156.078857 124.0
156.13356 224.0
156.37738 180.0
156.651276 176.0
156.73349 76.0
156.77298 132.0
156.795792 152.0
156.825699 136.0
156.985245 196.0
157.010193 120.0
157.06572 10028.0
157.132416 72.0
157.167343 44.0
157.218826 108.0
157.252197 56.0
157.289627 72.0
157.332062 52.0
157.424454 68.0
157.509369 60.0
157.556839 80.0
157.639282 148.0
157.849258 88.0
158.069214 1016.0
158.096909 220.0
158.114441 188.0
158.267136 40.0
159.027573 176.0
159.036087 60.0
159.046112 220.0
159.081253 5756.0
159.115204 176.0
159.197433 132.0
159.257584 80.0
159.263565 120.0
159.312973 48.0
159.345627 108.0
159.370758 100.0
159.488876 200.0
159.692535 56.0
159.820831 48.0
160.084396 1144.0
160.112839 172.0
160.143051 204.0
160.422745 48.0
160.47821 52.0
160.621964 128.0
160.803619 200.0
160.861679 56.0
161.091217 172.0
161.207703 268.0
161.253189 148.0
161.354294 60.0
161.399811 156.0
161.475677 124.0
162.146591 212.0
163.027206 84.0
163.072952 140.0
163.286514 272.0
164.959167 68.0
165.067902 240.0
165.465698 120.0
165.885834 56.0
166.074219 396.0
167.086975 488.0
167.136566 180.0
168.056427 132.0
168.686569 60.0
169.07605 436.0
169.105591 116.0
169.945206 84.0
170.075287 444.0
170.100616 184.0
170.230728 64.0
170.428146 68.0
171.049698 244.0
171.07959 1456.0
171.695862 232.0
172.088898 516.0
172.131668 212.0
172.471298 44.0
172.976135 84.0
173.093384 696.0
173.180374 32.0
176.871933 180.0
177.067459 208.0
178.080154 432.0
178.370621 68.0
178.719009 176.0
178.801498 136.0
179.087845 856.0
179.23291 220.0
179.312851 56.0
179.515457 68.0
179.734192 128.0
180.093292 164.0
180.795059 96.0
181.068802 672.0
181.100235 352.0
181.45755 180.0
182.072769 1396.0
182.099564 180.0
182.173218 112.0
182.861572 124.0
182.966553 108.0
183.020401 168.0
183.081955 2208.0
183.116028 132.0
183.21431 28.0
183.260117 64.0
183.470337 56.0
183.55661 60.0
184.08577 972.0
185.094879 744.0
185.579147 44.0
185.934494 128.0
186.099899 928.0
187.032532 28.0
187.111481 96.0
187.171371 52.0
187.212219 56.0
187.691818 92.0
188.049194 132.0
188.442413 52.0
189.276642 116.0
191.077164 168.0
192.090942 192.0
193.074219 264.0
193.099197 316.0
194.070312 300.0
194.38176 232.0
195.081772 424.0
195.110229 176.0
195.128006 144.0
196.087814 288.0
196.119934 168.0
196.945831 32.0
197.096542 2584.0
198.019852 132.0
198.102737 1536.0
198.165512 64.0
198.20195 36.0
199.111298 512.0
199.425507 124.0
200.114716 152.0
201.124908 316.0
201.790619 104.0
202.421585 96.0
202.656693 132.0
207.089325 36.0
207.117981 124.0
208.08725 68.0
209.097366 492.0
209.150894 148.0
209.398514 52.0
210.099808 288.0
211.11377 1520.0
211.283417 52.0
211.804489 96.0
212.050766 128.0
212.118134 284.0
213.016983 156.0
213.127869 800.0
213.167191 80.0
213.258148 144.0
213.470383 28.0
213.537277 88.0
213.671082 40.0
214.101868 108.0
214.129639 388.0
214.291214 56.0
215.128204 176.0
215.63353 64.0
216.725052 96.0
218.895752 88.0
219.084244 144.0
221.133499 148.0
222.13797 144.0
223.104446 172.0
223.115585 136.0
223.525421 64.0
224.034546 56.0
224.117966 168.0
224.216309 136.0
224.98587 64.0
225.126495 316.0
226.145676 216.0
227.119461 128.0
227.659683 164.0
229.16066 176.0
231.931839 68.0
234.387405 40.0
235.1427 184.0
237.131668 120.0
238.135712 128.0
239.140335 124.0
240.786713 136.0
245.638077 76.0
250.938065 88.0
251.140701 156.0
251.77742 112.0
253.157242 1212.0
253.587097 96.0
254.162079 140.0
254.472137 56.0
255.72142 56.0
258.126831 128.0
259.058197 212.0
271.155334 144.0
272.201111 116.0
273.127899 136.0
274.151794 60.0
293.039429 76.0
293.758759 92.0
304.331543 40.0
309.975311 152.0
342.708771 88.0
370.520264 92.0
372.876282 88.0
387.263245 88.0
403.480164 60.0
404.700439 56.0
428.944305 64.0
429.290649 56.0
450.617371 80.0
463.055756 68.0
533.256775 100.0
545.524475 68.0
606.840454 20.0
654.535828 96.0
674.017883 176.0
700.965149 152.0
737.87146 220.0
767.718628 120.0
792.107544 160.0
806.879822 156.0
810.808167 20.0
823.643921 184.0
868.823242 40.0
885.019287 232.0
888.753418 164.0
917.371643 148.0
938.628296 244.0
941.679626 112.0
955.336426 116.0
981.778381 328.0
985.492493 184.0
997.896118 168.0
1012.162109 212.0
1023.127014 124.0
1038.05896 60.0
1038.424438 152.0
1047.822388 140.0
1050.046265 184.0
1060.105469 184.0
1061.518677 116.0
1078.216675 204.0
1081.166138 180.0
1081.224976 184.0
1082.357422 184.0
1086.860596 68.0
1087.109863 132.0
1093.938721 84.0
1112.713867 192.0
1113.278198 188.0
1123.655273 48.0
1135.37439 144.0
1145.651489 176.0
1152.72229 208.0
1161.116699 168.0
1177.764526 128.0
1181.175415 192.0
1184.515747 144.0
1192.11084 168.0
1197.835083 148.0
1200.605713 164.0
1206.986328 196.0
1208.521851 216.0
1212.399658 44.0
1215.367554 200.0
1215.936523 148.0
1219.714966 108.0
1219.86792 192.0
1231.406494 148.0
1235.334839 108.0
1236.517334 176.0
1237.378296 108.0
1243.048584 128.0
1246.060791 200.0
1251.377808 76.0
1254.971069 132.0
1261.19751 168.0
1261.664062 148.0
1271.814941 184.0
1280.53894 172.0
1282.341553 112.0
1284.18811 204.0
1284.366455 100.0
1285.044189 160.0
1291.795288 160.0
1296.463501 48.0
1304.013428 200.0
1306.055298 176.0
1306.839478 88.0
1313.546509 184.0
1328.963135 164.0
1329.536499 52.0
1334.192383 204.0
1336.17041 148.0
1337.363892 172.0
1342.631348 172.0
1342.944946 200.0
1346.820679 188.0
1347.003296 136.0
1355.856445 296.0
1364.731201 112.0
1365.172363 112.0
1366.540527 68.0
1367.239624 172.0
1369.080078 80.0
1371.209106 180.0
1374.05542 84.0
1374.763794 168.0
1381.428223 84.0
1382.700806 152.0
1383.959229 160.0
1388.842896 128.0
1389.191528 144.0
1391.291626 124.0
1391.796509 140.0
1391.974731 204.0
1400.236816 104.0
1400.497437 220.0
1403.821411 192.0
1406.999878 156.0
1417.546021 136.0
1419.210083 212.0
1421.452881 116.0
1422.781372 180.0
1423.734863 124.0
1424.778931 132.0
1427.988647 32.0
1430.742676 148.0
1433.220581 164.0
1434.124878 76.0
1434.524414 180.0
1436.424683 160.0
1436.771606 188.0
1437.98645 192.0
1442.595093 120.0
1443.266968 52.0
1445.203247 168.0
1447.072632 84.0
1448.24646 264.0
1448.708496 64.0
1453.317993 224.0
1455.663452 176.0
1461.592529 164.0
1461.767456 184.0
1464.439697 156.0
1464.607178 140.0
1466.832153 224.0
1466.885498 112.0
1469.867554 184.0
1471.027588 172.0
1472.638794 192.0
1474.663452 172.0
1482.684082 144.0
1486.119507 136.0
1488.591064 148.0
1495.140747 76.0
1502.314087 184.0
1503.865112 200.0
1504.297363 108.0
