>compound MLS001332489-01!H-7
>formula C14H17N3O2S
>ionization [M+H]+
>parentmass 292.110046
#inchi InChI=1S/C14H17N3O2S/c1-11-9-16-7-8-17(11)20(18,19)14-4-2-3-12-10-15-6-5-13(12)14/h2-6,10-11,16H,7-9H2,1H3
#inchikey BDVFVCGFMNCYPV
#Ion_Source LC-ESI
#Instrument qTof
#Compound_Source NIH Pharmacologically Active Library
#PI Dorrestein
#Data_Collector VP/LMS
#Scan -1
#Precursor_MZ 292.114
#ExactMass 291.104
#Charge 1
#CAS_Number N/A
#Pubmed_ID N/A
#Smiles CC1CNCCN1S(=O)(=O)c2cccc3cnccc23
#INCHI_AUX N/A
#Library_Class 3
#SpectrumID CCMSLIB00000084897
#IonMode Positive
#UpdateWorkflowName UPDATE-SINGLE-ANNOTATED-BRONZE
#LibraryQualityString Bronze
#TaskID d252d724072548979f1f6f1ced849daf
##Scan# 1201
#SpectrumFile p3-C04_GC4_01_18249.mzXML
#LibraryName Pharm_Active_Library.mgf
#MQScore -1
#Organism Pharm_Active_Library
#TIC_Query 0
#RT_Query -1
#MZErrorPPM -1
#SharedPeaks 0
#MassDiff 0
#LibMZ -1
#SpecMZ 292.114
#SpecCharge 0
#internalFilename spec-00000.mgf

>collision 10
45.314468 44.0
46.017918 272.0
46.516129 144.0
48.204967 164.0
52.556633 180.0
52.926674 172.0
53.623997 140.0
54.336151 40.0
57.571037 156.0
58.65741 152.0
58.831318 208.0
58.858799 200.0
58.895454 232.0
59.847828 160.0
60.508659 220.0
61.132652 128.0
63.308571 56.0
63.345001 220.0
64.163445 176.0
65.027252 60.0
66.097343 264.0
67.04409 204.0
67.999214 160.0
69.783333 92.0
70.826363 176.0
71.963219 152.0
72.335152 240.0
74.915558 268.0
76.298325 172.0
76.637711 112.0
77.285507 108.0
79.58934 136.0
80.417152 148.0
81.148804 208.0
81.193634 220.0
81.369484 180.0
81.541931 160.0
81.628227 108.0
82.556946 204.0
83.002419 92.0
83.720215 212.0
85.080612 152.0
85.888466 176.0
87.188225 44.0
90.019653 188.0
90.319473 44.0
90.376228 92.0
90.516296 128.0
93.230942 172.0
95.081093 180.0
96.063698 128.0
97.072929 200.0
97.373192 56.0
97.843155 152.0
99.045349 536.0
99.091698 948.0
99.384796 188.0
99.64489 60.0
100.04464 276.0
100.108353 188.0
101.021553 368.0
101.035469 168.0
101.090515 56.0
101.112534 164.0
101.858406 60.0
102.043297 108.0
102.090393 1044.0
102.109459 204.0
102.153152 96.0
102.232376 156.0
102.675583 196.0
103.053062 176.0
103.751305 60.0
104.047447 540.0
105.055756 724.0
108.041977 76.0
109.101723 208.0
110.785858 164.0
112.954117 112.0
113.269524 140.0
117.05368 184.0
117.491707 212.0
118.059776 344.0
120.046829 232.0
121.010452 144.0
121.148422 108.0
122.420151 132.0
123.117081 316.0
125.168274 68.0
126.125366 164.0
126.866318 164.0
127.056938 56.0
128.01445 48.0
128.050308 588.0
128.11171 220.0
128.494553 40.0
128.928101 168.0
129.057861 1820.0
129.296738 76.0
129.711227 112.0
130.063171 1532.0
130.110489 76.0
130.337601 32.0
130.658188 156.0
131.065735 156.0
131.156906 92.0
131.63829 200.0
132.040924 384.0
132.086243 128.0
132.356308 84.0
133.007401 44.0
133.04718 632.0
133.846542 68.0
134.337448 160.0
135.356689 176.0
136.610001 112.0
137.586456 144.0
140.402206 108.0
143.072632 116.0
144.042709 392.0
144.067093 124.0
145.050552 1540.0
146.058655 1880.0
146.335892 56.0
147.060776 272.0
147.33194 128.0
147.92926 80.0
148.018845 184.0
148.190811 48.0
148.207779 80.0
152.559494 76.0
156.054947 832.0
157.055298 272.0
158.065781 148.0
158.992981 156.0
160.01947 156.0
161.022171 156.0
161.043182 316.0
161.135849 84.0
162.077072 168.0
168.928558 212.0
169.082657 172.0
170.019379 124.0
171.046021 208.0
172.41272 52.0
173.079773 172.0
176.006363 268.0
178.03096 156.0
184.173584 208.0
184.927948 160.0
185.082245 120.0
192.013931 168.0
192.937698 172.0
193.017883 128.0
193.131271 200.0
194.028152 544.0
194.078384 40.0
194.103348 52.0
194.150482 80.0
195.019485 116.0
196.026932 216.0
200.127762 248.0
202.044128 168.0
202.107285 752.0
203.107971 160.0
203.168823 80.0
203.796265 64.0
207.412094 200.0
209.039673 288.0
211.036575 76.0
213.126373 220.0
219.089142 124.0
221.035461 160.0
223.099121 164.0
228.121033 292.0
234.953537 188.0
235.054245 788.0
235.512161 64.0
236.010284 68.0
236.710999 56.0
237.032639 160.0
237.060211 168.0
247.121048 140.0
249.075256 336.0
275.074371 140.0
275.170105 128.0
288.839142 112.0
292.047913 112.0
292.110046 780.0
292.206848 72.0
293.10553 136.0
293.382751 56.0
294.109314 164.0
295.05899 128.0
300.412933 68.0
313.157318 140.0
324.217499 184.0
342.789001 112.0
345.129242 104.0
374.849701 64.0
472.131775 72.0
512.188904 100.0
613.886597 172.0
656.610046 60.0
808.923157 180.0
885.471069 52.0
900.184021 112.0
900.751404 64.0
937.10675 144.0
937.947754 208.0
940.399719 200.0
940.93689 72.0
966.790527 188.0
1024.454712 224.0
1029.634033 140.0
1066.618652 176.0
1082.81958 152.0
1116.059937 168.0
1139.043335 164.0
1154.302002 196.0
1166.614502 52.0
1251.221802 152.0
1251.503418 60.0
1261.048096 136.0
1284.05896 108.0
1294.020264 176.0
1294.836548 128.0
1304.88269 212.0
1327.961792 184.0
1328.774292 200.0
1342.675049 152.0
1363.165771 200.0
1367.541626 180.0
1382.042603 148.0
1390.245605 168.0
1396.240845 80.0
1398.249634 204.0
1412.238892 136.0
1416.003662 80.0
1425.328369 216.0
1429.712524 224.0
1432.362793 180.0
1446.021729 120.0
1451.885742 192.0
1460.179077 48.0
