>compound 3-O-(2-methoxyethyl) 5-O-propan-2-yl 2,6-dimethyl-4-(3-nitrophenyl)-1,4-dihydropyridine-3,5-dicarboxylate
>formula C21H26N2O7
>ionization [M+H]+
>parentmass 419.179352
#inchi InChI=1S/C21H26N2O7/c1-12(2)30-21(25)18-14(4)22-13(3)17(20(24)29-10-9-28-5)19(18)15-7-6-8-16(11-15)23(26)27/h6-8,11-12,19,24H,9-10H2,1-5H3/b20-17+
#inchikey FXLASALIDJKUIQ
#Ion_Source LC-ESI
#Instrument qTof
#Compound_Source Commercial
#PI Dorrestein
#Data_Collector Garg_Neha
#Scan -1
#Precursor_MZ 419.181
#ExactMass 418.174
#Charge 1
#CAS_Number N/A
#Pubmed_ID N/A
#Smiles COCCO/C(=C\1/C(C(=C(C)N=C1C)C(=O)OC(C)C)c2cccc(c2)[N+](=O)[O-])/O
#INCHI_AUX N/A
#Library_Class 1
#SpectrumID CCMSLIB00000079086
#IonMode Positive
#UpdateWorkflowName UPDATE-SINGLE-ANNOTATED-GOLD
#LibraryQualityString Gold
#TaskID 278b19f5865741e282cec7349aa7e7a1
##Scan# 2088
#SpectrumFile NCP003432_G2_H11_BD3_01_15725.mzXML
#LibraryName NIHcollectionI_05062014.mgf
#MQScore -1
#Organism NIHcollectionI_05062014
#TIC_Query 0
#RT_Query -1
#MZErrorPPM -1
#SharedPeaks 0
#MassDiff 0
#LibMZ -1
#SpecMZ 419.181
#SpecCharge 0
#internalFilename spec-00000.mgf

>collision 10
45.007282 156.0
47.022881 152.0
47.033798 148.0
48.383759 148.0
50.227043 212.0
50.743214 152.0
51.520275 184.0
52.201092 152.0
52.399723 140.0
52.591518 164.0
52.665154 140.0
52.955875 176.0
56.041103 156.0
57.651222 232.0
58.264648 128.0
58.589943 180.0
60.097584 228.0
60.256611 156.0
61.483322 144.0
62.102879 144.0
62.556992 168.0
63.975414 164.0
65.096222 200.0
65.565971 216.0
68.4907 148.0
68.50882 196.0
70.051102 140.0
72.370468 140.0
75.877861 184.0
76.508499 172.0
77.712677 152.0
77.877693 224.0
78.320938 276.0
79.071312 172.0
82.775444 160.0
82.991066 160.0
84.356491 144.0
85.589661 132.0
85.825233 164.0
86.710709 156.0
87.966217 252.0
87.988617 236.0
88.197838 164.0
88.334343 176.0
88.941452 140.0
88.994019 228.0
90.517563 144.0
90.578163 188.0
90.974487 272.0
91.931862 176.0
92.182022 140.0
93.825012 180.0
93.911789 172.0
94.03334 148.0
96.805656 192.0
102.95118 168.0
105.806 200.0
108.509033 144.0
108.822319 172.0
109.061218 156.0
109.431503 140.0
110.387154 172.0
111.321754 176.0
115.358063 164.0
116.876495 172.0
117.402092 140.0
122.322006 140.0
123.04287 204.0
127.896004 156.0
128.062622 160.0
128.419464 172.0
129.023849 168.0
129.066849 164.0
129.408508 164.0
129.737015 152.0
130.045502 148.0
131.481613 192.0
138.848419 168.0
139.273239 152.0
139.444748 236.0
139.470612 156.0
140.025864 236.0
140.483139 232.0
140.764008 160.0
142.072861 172.0
145.065704 172.0
145.091217 224.0
146.035767 160.0
146.07666 212.0
146.724457 228.0
146.982224 160.0
147.064575 164.0
147.313293 200.0
147.932343 164.0
149.045547 156.0
149.587891 156.0
149.843597 192.0
150.019608 544.0
150.055786 176.0
151.017746 176.0
152.054123 160.0
153.278778 152.0
153.586945 212.0
158.098938 156.0
158.299133 148.0
160.565903 148.0
160.830826 144.0
162.361496 168.0
163.606537 156.0
164.072739 144.0
165.954437 148.0
166.045624 136.0
166.08252 144.0
166.131409 172.0
166.298187 144.0
167.074295 232.0
167.21315 164.0
167.607147 184.0
168.080673 3024.0
169.083511 552.0
169.156723 168.0
169.218857 188.0
170.063934 204.0
170.091522 196.0
171.105637 608.0
171.984818 156.0
172.050064 148.0
172.102753 132.0
172.402679 204.0
173.085083 308.0
174.055222 164.0
174.086899 160.0
176.036057 656.0
176.741562 160.0
177.038025 284.0
177.618454 168.0
178.050781 140.0
178.306122 164.0
181.056686 180.0
181.087784 548.0
182.096085 852.0
182.427765 168.0
183.055618 404.0
183.103638 1660.0
183.758148 160.0
184.074036 324.0
184.105988 412.0
184.287338 172.0
184.606293 200.0
185.079819 276.0
185.925583 140.0
186.028717 188.0
186.123749 148.0
187.015427 180.0
187.098602 488.0
188.071457 196.0
188.108444 156.0
188.488068 176.0
189.06279 164.0
189.456604 144.0
189.892441 204.0
190.597946 192.0
191.076355 172.0
192.021164 200.0
194.039764 164.0
194.061523 160.0
194.702942 164.0
195.829315 204.0
196.015961 212.0
196.062012 560.0
196.100998 348.0
196.230576 156.0
196.593185 156.0
196.989655 164.0
197.050644 140.0
197.080627 144.0
198.089478 952.0
199.09726 348.0
199.171738 144.0
199.241959 184.0
199.469589 216.0
200.035629 388.0
200.071869 316.0
200.60965 140.0
200.747803 180.0
201.069397 184.0
202.180054 172.0
203.092331 168.0
204.086273 140.0
206.513077 152.0
206.850723 156.0
207.02536 172.0
207.06459 184.0
207.349091 168.0
208.075043 884.0
209.081314 1204.0
209.293854 188.0
209.812454 180.0
210.005661 232.0
210.062317 180.0
210.091003 3124.0
210.871826 168.0
211.095596 1728.0
212.017883 148.0
212.070251 1180.0
212.103714 388.0
212.44397 168.0
213.030487 144.0
213.071838 300.0
213.751526 228.0
214.045013 152.0
214.085144 332.0
214.225555 144.0
215.094147 516.0
215.188477 144.0
215.603271 168.0
216.071106 156.0
216.425247 140.0
217.062332 364.0
218.041565 152.0
218.066513 156.0
218.197357 164.0
220.177475 144.0
221.088013 156.0
221.26561 140.0
223.083344 352.0
225.077057 376.0
225.110138 196.0
226.086197 4880.0
226.123306 172.0
226.53978 200.0
226.809479 164.0
226.977356 192.0
227.092758 2292.0
227.584274 176.0
228.066177 508.0
228.095825 320.0
228.139267 160.0
228.506165 160.0
229.033875 172.0
229.069473 168.0
229.094055 172.0
230.077454 236.0
230.66539 168.0
231.084717 272.0
233.065643 168.0
233.792389 164.0
235.067398 140.0
235.13942 156.0
236.073364 476.0
236.110931 144.0
236.239395 192.0
236.756668 212.0
237.07756 184.0
237.860428 204.0
238.076859 308.0
239.08107 896.0
239.129837 144.0
239.216019 184.0
240.063217 928.0
240.085587 348.0
240.825592 184.0
241.07077 1052.0
241.972824 144.0
242.080826 1600.0
242.449844 200.0
243.089767 1404.0
243.60405 176.0
243.855728 208.0
244.089905 260.0
244.343933 204.0
244.409271 144.0
244.975891 164.0
245.103256 164.0
245.752182 144.0
245.970627 168.0
246.072021 184.0
247.627777 176.0
247.981812 164.0
248.320419 148.0
250.053192 144.0
250.105042 180.0
250.25116 144.0
251.113281 172.0
251.987671 184.0
252.070511 188.0
253.073059 2924.0
253.823456 172.0
253.860031 268.0
254.082138 14300.0
254.451675 148.0
254.848679 172.0
254.967468 188.0
255.017105 164.0
255.089142 21888.0
255.509979 148.0
255.694061 160.0
256.091949 3552.0
256.145294 104.0
256.853149 168.0
256.959045 176.0
257.09436 648.0
257.681091 156.0
257.923981 168.0
257.952728 144.0
258.025635 116.0
258.060455 356.0
258.496429 180.0
259.083344 184.0
259.659332 168.0
260.090515 264.0
260.644836 144.0
261.082031 168.0
262.22168 164.0
265.052979 136.0
265.81134 212.0
266.065674 316.0
266.359985 144.0
267.07547 964.0
267.129089 200.0
268.049194 112.0
268.079132 296.0
269.062714 664.0
270.071625 940.0
270.112823 140.0
270.383392 232.0
271.039093 292.0
271.083649 1136.0
272.052185 152.0
272.083954 356.0
273.086609 392.0
273.873444 140.0
273.992035 164.0
274.073547 184.0
274.096405 108.0
275.100098 148.0
276.794861 200.0
276.988251 168.0
277.641174 168.0
279.052399 156.0
280.067383 140.0
280.414581 152.0
280.677246 180.0
282.102844 324.0
282.166351 152.0
282.300079 168.0
282.828705 168.0
283.032898 176.0
283.070862 7896.0
283.357788 224.0
283.907501 212.0
284.079529 12220.0
284.592041 144.0
285.000549 128.0
285.066223 3284.0
285.516113 148.0
286.061584 512.0
287.079376 10044.0
287.142761 232.0
288.030457 172.0
288.08194 2492.0
288.161224 156.0
289.086792 456.0
289.129272 184.0
290.09082 160.0
294.087952 156.0
294.685547 228.0
295.819061 172.0
296.151947 360.0
296.317505 168.0
298.641479 160.0
298.686188 140.0
298.837555 144.0
299.066315 880.0
299.798248 156.0
300.070038 376.0
300.120605 108.0
300.242126 116.0
300.305115 180.0
300.622437 172.0
300.720581 108.0
300.772461 96.0
300.811371 324.0
300.876862 168.0
300.912872 140.0
300.94455 152.0
301.014038 328.0
301.082886 86644.0
301.35675 144.0
301.433655 132.0
301.645111 376.0
301.727631 172.0
301.752716 120.0
301.864746 108.0
302.085876 12184.0
302.484619 100.0
302.663391 120.0
302.840942 96.0
302.900848 148.0
303.085663 1884.0
303.134857 264.0
303.588989 160.0
303.716461 144.0
303.841583 104.0
303.944519 96.0
304.08139 308.0
304.145111 204.0
304.167664 124.0
304.197083 128.0
304.267151 192.0
305.089111 172.0
305.272491 108.0
305.704254 104.0
305.895111 152.0
310.162598 144.0
310.372925 192.0
310.927185 176.0
311.1091 164.0
313.917419 192.0
314.132538 244.0
315.261353 112.0
315.661835 144.0
316.365906 172.0
317.075623 2156.0
317.677063 140.0
317.701904 152.0
317.971558 200.0
318.081848 548.0
319.079376 172.0
319.478149 168.0
320.521301 212.0
320.998962 172.0
321.377045 180.0
321.773224 152.0
322.041046 188.0
324.395477 140.0
325.109222 192.0
327.871124 216.0
329.581573 164.0
331.085236 152.0
331.108551 132.0
331.223999 156.0
335.943604 104.0
339.006256 140.0
339.898254 184.0
341.109528 116.0
341.499023 144.0
341.554199 180.0
342.116089 364.0
342.172424 160.0
342.36145 156.0
342.50296 184.0
342.715302 168.0
342.84082 172.0
342.871063 180.0
342.949829 156.0
342.978058 360.0
343.010681 148.0
343.074707 412.0
343.130432 148900.0
343.254578 104.0
343.47641 128.0
343.520447 96.0
343.620667 136.0
343.644562 224.0
343.701233 140.0
343.737854 976.0
343.792725 176.0
343.983398 104.0
344.065186 248.0
344.132782 32012.0
344.24704 112.0
344.409485 172.0
344.561157 200.0
344.66275 144.0
344.73526 244.0
344.84137 128.0
344.98053 136.0
345.043335 128.0
345.134338 4728.0
345.315796 108.0
345.479675 136.0
345.810211 244.0
345.878906 192.0
345.934814 184.0
345.993988 100.0
346.048889 248.0
346.136292 716.0
346.192749 152.0
346.228607 104.0
346.420868 188.0
346.482178 228.0
346.570282 112.0
346.604614 180.0
346.66391 248.0
347.13559 244.0
347.469818 112.0
348.351471 132.0
355.457886 128.0
357.572693 216.0
358.842133 180.0
359.026886 152.0
359.124268 21656.0
359.200256 128.0
359.28125 100.0
359.355042 140.0
360.129303 3788.0
360.310242 172.0
360.793976 152.0
361.127472 460.0
362.113678 140.0
362.489319 112.0
375.117065 1560.0
375.267975 180.0
376.117889 312.0
377.128418 316.0
379.133392 156.0
387.15918 376.0
388.154846 160.0
401.165894 328.0
402.17099 148.0
417.163635 1892.0
418.169678 660.0
419.179352 296.0
420.175537 152.0
422.183868 120.0
435.491119 144.0
560.119934 156.0
1341.030762 148.0
1342.809814 152.0
1486.391235 180.0
1504.547607 144.0
1670.782837 180.0
