>compound MLS001148094-01!
>formula C17H23NO3
>ionization [M+H]+
>parentmass 290.173798
#inchi InChI=1S/C17H23NO3/c1-18-13-7-8-14(18)10-15(9-13)21-17(20)16(11-19)12-5-3-2-4-6-12/h2-6,13-16,19H,7-11H2,1H3/t13-,14+,15+,16?
#inchikey RKUNBYITZUJHSG
#Ion_Source LC-ESI
#Instrument qTof
#Compound_Source NIH Pharmacologically Active Library
#PI Dorrestein
#Data_Collector VP/LMS
#Scan -1
#Precursor_MZ 290.175
#ExactMass 289.168
#Charge 1
#CAS_Number N/A
#Pubmed_ID N/A
#Smiles CN1[C@H]2CC[C@@H]1C[C@@H](C2)OC(=O)C(CO)c3ccccc3
#INCHI_AUX N/A
#Library_Class 1
#SpectrumID CCMSLIB00000085043
#IonMode Positive
#UpdateWorkflowName UPDATE-SINGLE-ANNOTATED-GOLD
#LibraryQualityString Gold
#TaskID d252d724072548979f1f6f1ced849daf
##Scan# 1297
#SpectrumFile p3-E02_GE2_01_18271.mzXML
#LibraryName Pharm_Active_Library.mgf
#MQScore -1
#Organism Pharm_Active_Library
#TIC_Query 0
#RT_Query -1
#MZErrorPPM -1
#SharedPeaks 0
#MassDiff 0
#LibMZ -1
#SpecMZ 290.175
#SpecCharge 0
#internalFilename spec-00000.mgf

>collision 10
44.974571 128.0
44.985252 232.0
45.104145 160.0
45.334362 164.0
45.7225 160.0
45.764229 216.0
45.913815 112.0
45.990723 208.0
46.067696 152.0
46.488804 52.0
46.650444 200.0
46.789215 204.0
46.861401 240.0
46.907738 80.0
46.925465 76.0
47.063274 180.0
47.171211 232.0
47.324444 156.0
47.488266 208.0
47.493748 112.0
47.497517 156.0
47.690746 160.0
47.756748 88.0
48.030865 136.0
48.217033 164.0
48.232475 184.0
48.428967 76.0
48.452518 132.0
48.525978 152.0
48.792557 100.0
48.846794 132.0
48.87323 160.0
48.919159 200.0
49.030426 164.0
49.199383 192.0
49.211948 124.0
49.379646 204.0
49.438408 188.0
49.528019 164.0
49.59528 192.0
49.759418 224.0
49.92664 160.0
50.015282 176.0
50.025135 152.0
50.095551 228.0
50.157555 120.0
50.425747 48.0
50.455433 188.0
50.609661 172.0
50.782558 120.0
50.820862 56.0
50.955753 184.0
50.979618 256.0
50.992699 224.0
51.377182 148.0
51.507095 208.0
51.54567 132.0
51.824741 160.0
51.851936 56.0
51.907848 236.0
52.01833 132.0
52.134674 168.0
52.160545 208.0
52.301517 144.0
52.462864 176.0
52.550396 108.0
52.588364 152.0
52.606346 176.0
52.690895 176.0
52.877441 164.0
52.997639 204.0
53.10347 172.0
53.234093 148.0
53.3736 192.0
53.796131 232.0
53.961227 172.0
53.975849 112.0
53.991936 136.0
54.609421 120.0
54.628544 172.0
54.824379 144.0
54.967426 172.0
54.989563 148.0
55.005802 184.0
55.474754 228.0
55.50589 204.0
55.632008 124.0
55.764217 196.0
55.804356 200.0
56.021648 236.0
56.149845 44.0
56.282665 172.0
56.403683 124.0
56.53231 176.0
56.580212 160.0
56.946114 152.0
57.124992 204.0
57.16032 156.0
57.189697 60.0
57.302647 188.0
57.326756 112.0
57.734375 160.0
58.005409 188.0
58.029663 168.0
58.110054 132.0
58.236057 52.0
58.304428 204.0
58.704826 260.0
58.74601 216.0
58.833 56.0
59.020931 192.0
59.102005 148.0
59.229076 104.0
59.646465 184.0
59.700279 156.0
59.980507 160.0
60.006714 200.0
60.283024 164.0
60.309299 256.0
60.33094 144.0
60.448494 32.0
60.544476 192.0
60.598694 176.0
60.822018 36.0
61.179569 164.0
61.190468 140.0
61.254318 132.0
61.308853 104.0
61.416435 128.0
61.756954 88.0
61.980835 88.0
62.045097 212.0
62.409363 148.0
62.458118 192.0
62.500595 300.0
62.582447 76.0
62.853569 160.0
62.992512 136.0
63.115791 220.0
63.258003 172.0
63.2756 120.0
63.356373 184.0
63.389648 164.0
63.443539 172.0
63.506969 188.0
63.608528 44.0
63.660923 156.0
64.041046 200.0
64.51339 148.0
64.650948 148.0
64.670158 184.0
65.038826 188.0
65.095016 88.0
65.238022 96.0
65.295914 180.0
65.315208 48.0
65.34256 108.0
65.564781 164.0
65.593796 196.0
65.764778 192.0
65.830978 200.0
66.277451 144.0
66.309868 164.0
66.43148 184.0
66.574318 160.0
66.847435 136.0
66.863708 216.0
67.408417 184.0
67.481972 184.0
67.568657 44.0
67.701248 104.0
67.781517 132.0
68.338173 164.0
68.425407 156.0
68.492928 136.0
68.773247 200.0
69.092186 176.0
69.17659 128.0
69.20639 124.0
69.237854 116.0
69.257729 80.0
69.304123 212.0
69.757217 188.0
70.035774 260.0
71.046486 144.0
71.30172 196.0
71.451378 148.0
71.493446 44.0
71.742744 44.0
71.793327 132.0
72.038078 140.0
72.20034 132.0
72.41021 52.0
72.455948 100.0
72.572899 148.0
72.623772 216.0
72.661095 40.0
72.791794 168.0
72.934509 164.0
73.325996 192.0
73.750999 192.0
73.768097 128.0
73.867279 192.0
74.06414 148.0
74.360771 136.0
74.671761 164.0
74.850739 152.0
74.976501 196.0
75.01442 60.0
75.385521 144.0
75.487511 128.0
75.53421 172.0
75.695175 200.0
75.94474 204.0
76.220787 160.0
76.342476 132.0
76.694176 164.0
76.948875 48.0
77.037949 108.0
77.150108 180.0
77.170776 136.0
77.230232 84.0
77.30722 172.0
77.377235 188.0
77.529633 184.0
78.058052 196.0
78.182953 144.0
78.930939 140.0
79.198181 152.0
79.274368 116.0
79.639854 184.0
79.655838 92.0
80.059601 208.0
80.196785 112.0
80.21283 104.0
80.371559 220.0
80.526878 212.0
80.757454 48.0
81.006264 148.0
81.142471 32.0
81.262642 116.0
81.852219 104.0
82.061241 144.0
82.270523 132.0
82.36203 208.0
82.409599 52.0
82.666374 124.0
82.702568 228.0
83.074051 216.0
83.375465 196.0
83.43364 172.0
83.575508 184.0
84.003654 196.0
84.226364 148.0
84.290314 160.0
84.506081 132.0
85.08342 140.0
85.11647 160.0
85.267113 252.0
85.309387 184.0
85.340645 188.0
85.355354 76.0
85.463882 164.0
85.552223 200.0
85.850723 168.0
85.924507 160.0
86.467796 140.0
86.521736 144.0
86.536285 120.0
86.593697 208.0
86.632599 168.0
86.673355 80.0
86.988655 176.0
87.098221 176.0
87.168816 152.0
87.191116 176.0
87.360329 68.0
87.483154 168.0
87.609795 152.0
87.805519 164.0
87.840958 204.0
88.020134 48.0
88.163979 140.0
88.197617 176.0
88.365929 108.0
88.656181 212.0
88.753654 120.0
88.813675 188.0
88.920624 40.0
89.231384 128.0
89.411163 172.0
89.471397 228.0
89.558022 156.0
89.607002 192.0
89.705002 60.0
90.037094 72.0
90.133438 200.0
90.313049 68.0
90.49662 156.0
90.769478 108.0
90.91935 40.0
90.981987 160.0
91.053947 5004.0
91.090233 36.0
91.200447 64.0
91.21946 164.0
91.247971 208.0
91.280296 124.0
91.504829 160.0
91.520058 156.0
91.699135 232.0
91.739166 176.0
91.901283 48.0
91.952805 192.0
92.056885 592.0
92.075394 276.0
92.198265 92.0
92.333008 200.0
92.401329 168.0
92.482254 56.0
92.689087 80.0
92.714005 136.0
92.853958 100.0
92.896507 132.0
93.069305 3892.0
93.11306 156.0
93.168289 128.0
93.191826 92.0
93.232178 140.0
93.353294 92.0
93.373024 208.0
93.501434 180.0
93.66317 152.0
93.91761 112.0
94.04882 124.0
94.070717 336.0
94.176262 172.0
94.417862 164.0
94.433334 160.0
94.648148 240.0
94.938828 248.0
94.989258 180.0
95.02224 52.0
95.085617 528.0
95.169754 52.0
95.202766 76.0
95.334869 36.0
95.356247 60.0
95.55265 152.0
95.671371 156.0
96.012878 200.0
96.080513 1224.0
96.109909 244.0
96.281998 52.0
96.406731 136.0
96.492744 76.0
96.668785 168.0
97.005676 156.0
97.086914 200.0
97.178261 40.0
97.26265 180.0
97.343147 216.0
97.555344 136.0
97.569107 224.0
97.783524 76.0
97.807144 72.0
98.096138 720.0
98.240677 68.0
98.564484 168.0
98.602028 140.0
99.100716 164.0
99.150261 248.0
99.62648 204.0
99.692055 168.0
99.819283 124.0
99.898842 176.0
100.29113 72.0
100.313057 32.0
100.448662 204.0
100.710152 216.0
100.894005 208.0
100.971985 140.0
101.023994 204.0
101.108032 148.0
101.647118 216.0
101.757523 140.0
102.043053 184.0
102.187637 160.0
102.350677 108.0
102.604553 148.0
102.808281 160.0
102.898987 180.0
103.02636 220.0
103.053871 5020.0
103.078888 160.0
103.139519 188.0
103.161758 164.0
103.198151 164.0
103.240616 56.0
103.289162 148.0
103.49559 52.0
104.000397 160.0
104.058784 828.0
104.203476 172.0
104.394547 56.0
104.522705 96.0
104.714073 200.0
104.760925 164.0
104.826126 108.0
104.960663 92.0
105.342331 100.0
105.375023 196.0
105.460854 180.0
105.536491 176.0
105.561028 48.0
105.726738 80.0
106.349808 92.0
106.551056 192.0
106.824486 64.0
107.077072 152.0
107.147705 168.0
107.178612 184.0
107.271362 132.0
107.353836 164.0
107.946518 100.0
108.079567 1224.0
108.607201 72.0
108.783585 204.0
109.086548 752.0
109.542618 152.0
109.830292 140.0
109.988876 120.0
110.030624 56.0
110.094727 288.0
110.337746 84.0
110.574127 64.0
110.856857 140.0
111.078072 164.0
111.789268 180.0
111.930313 124.0
112.320213 140.0
112.858757 156.0
113.011055 224.0
113.404953 232.0
113.523621 144.0
113.733727 212.0
113.920593 160.0
113.980087 104.0
114.150146 64.0
114.386314 184.0
114.520462 136.0
114.575851 148.0
114.693054 200.0
114.925514 84.0
115.034363 120.0
115.062988 196.0
115.185982 84.0
115.495934 140.0
115.617889 80.0
115.716354 192.0
116.537842 56.0
116.740456 200.0
117.070053 164.0
117.088547 140.0
117.241508 132.0
117.621117 156.0
118.035942 156.0
118.30423 252.0
118.917686 256.0
119.004524 108.0
119.373924 172.0
119.413071 412.0
119.743896 52.0
119.865585 168.0
120.02285 192.0
120.144989 96.0
120.448433 172.0
120.793816 160.0
120.95575 192.0
121.064339 2428.0
121.100266 144.0
121.115593 76.0
121.268974 160.0
121.345703 196.0
121.558472 68.0
121.64846 172.0
121.806572 156.0
122.068497 584.0
122.092438 704.0
122.171494 92.0
122.56781 200.0
123.068527 200.0
123.115395 160.0
123.322578 148.0
123.380058 116.0
123.486198 248.0
123.528229 84.0
123.751755 168.0
123.829262 256.0
123.932388 160.0
123.938217 88.0
123.945572 176.0
123.964088 168.0
123.99157 140.0
124.017593 164.0
124.037659 252.0
124.055283 156.0
124.111664 38636.0
124.146187 36.0
124.161713 40.0
124.200157 120.0
124.241219 100.0
124.283829 168.0
124.330322 44.0
124.359177 40.0
124.374718 104.0
124.399132 56.0
124.416893 44.0
124.439095 236.0
124.474144 72.0
124.504852 72.0
124.521263 76.0
124.581238 64.0
124.625671 72.0
124.687897 84.0
124.730125 68.0
124.761246 112.0
124.792374 44.0
125.014816 60.0
125.043747 56.0
125.059334 52.0
125.086876 224.0
125.114792 3108.0
125.20182 80.0
125.259499 76.0
125.293152 52.0
125.426865 40.0
125.471443 56.0
125.507118 32.0
125.589638 68.0
125.78154 80.0
125.80587 80.0
125.895409 64.0
125.924438 88.0
125.942139 52.0
125.984756 156.0
126.022736 136.0
126.054016 108.0
126.071899 124.0
126.121376 496.0
126.1548 132.0
126.206024 36.0
126.268639 48.0
126.388435 80.0
126.960678 48.0
127.061623 76.0
127.304039 132.0
127.441071 100.0
128.673096 156.0
128.987122 136.0
129.066971 100.0
129.373947 120.0
129.478119 208.0
131.051697 188.0
131.419479 40.0
132.874664 72.0
132.980225 64.0
133.471848 80.0
133.998947 168.0
134.305557 248.0
134.580185 116.0
134.896713 92.0
134.938324 140.0
135.243683 72.0
135.308502 176.0
135.368713 128.0
135.869812 228.0
136.308212 160.0
137.633636 76.0
138.152512 152.0
138.592682 112.0
138.768463 52.0
139.174393 184.0
140.107193 1616.0
140.282532 40.0
140.426361 40.0
141.066284 156.0
141.105789 140.0
141.80481 124.0
141.837982 176.0
141.87355 248.0
141.992111 80.0
142.068008 164.0
142.121185 5844.0
142.18428 160.0
142.514374 112.0
143.12439 96.0
143.917313 188.0
144.127441 204.0
145.051331 300.0
145.120865 104.0
149.06517 208.0
149.916901 188.0
150.055847 172.0
150.397385 100.0
150.812622 132.0
153.180573 52.0
153.57991 112.0
154.338089 132.0
154.756256 136.0
155.455276 224.0
155.735825 148.0
155.889862 128.0
157.396957 172.0
158.224579 140.0
158.34227 164.0
158.708145 128.0
158.783371 60.0
160.16832 128.0
162.090973 144.0
162.423096 144.0
165.345627 168.0
167.592331 132.0
168.025803 108.0
168.30455 176.0
168.96106 128.0
169.061966 184.0
170.27269 68.0
171.928513 140.0
172.966156 152.0
177.256592 192.0
177.794937 96.0
178.525528 240.0
183.107422 180.0
184.002686 120.0
185.921875 132.0
187.251343 176.0
188.148483 144.0
189.406433 172.0
190.572388 184.0
190.949005 40.0
191.623444 44.0
192.912277 152.0
193.496017 80.0
194.313629 76.0
195.138535 84.0
195.436142 144.0
195.633743 92.0
195.915024 168.0
196.905258 172.0
197.923203 228.0
198.220123 200.0
198.506058 172.0
199.950058 188.0
200.930679 184.0
202.114563 192.0
203.091965 60.0
204.142807 204.0
208.669342 112.0
209.351318 156.0
209.624985 108.0
209.838287 96.0
210.842834 164.0
210.874634 128.0
210.90065 144.0
211.042297 148.0
212.757507 220.0
213.004349 108.0
213.294937 208.0
213.955307 160.0
214.03392 96.0
214.156326 832.0
215.837234 216.0
216.156082 104.0
216.779816 116.0
217.380981 76.0
218.265182 208.0
219.959244 172.0
221.573944 108.0
222.929962 112.0
223.402725 188.0
224.135162 144.0
226.166 160.0
226.878952 120.0
227.130844 184.0
227.992569 88.0
228.112793 116.0
228.591019 68.0
229.054672 68.0
229.579117 60.0
229.684677 224.0
229.763107 124.0
230.572372 52.0
232.783905 156.0
234.621704 252.0
235.650253 216.0
235.683853 100.0
237.128296 196.0
237.32756 148.0
238.654022 92.0
239.546539 116.0
242.15242 248.0
243.151901 128.0
244.572327 124.0
245.753464 64.0
246.396637 180.0
248.114838 56.0
249.049988 84.0
249.854752 172.0
251.534439 180.0
254.075623 132.0
254.332672 140.0
254.79631 144.0
254.936127 152.0
256.30127 116.0
256.773102 196.0
257.491211 68.0
258.200714 132.0
259.125824 196.0
259.158417 256.0
260.162842 1600.0
260.997101 176.0
261.169647 312.0
264.342224 180.0
265.313934 64.0
268.536438 148.0
269.254486 180.0
269.68576 156.0
270.660675 132.0
271.729218 192.0
271.850616 40.0
272.156952 448.0
272.428497 144.0
273.171448 108.0
273.20105 176.0
273.230652 156.0
273.997772 184.0
276.107056 44.0
277.537659 180.0
278.543243 92.0
278.656219 40.0
280.796661 84.0
282.96875 192.0
283.414215 152.0
283.80304 208.0
284.786346 144.0
284.9039 228.0
286.822052 156.0
286.845673 272.0
288.54715 44.0
288.68576 128.0
289.088348 180.0
289.233887 88.0
289.439911 216.0
289.514893 100.0
289.603729 88.0
289.629639 168.0
289.667328 116.0
289.707977 212.0
289.765656 128.0
289.825928 108.0
289.901093 172.0
290.088623 236.0
290.173798 25752.0
290.234314 160.0
290.299805 204.0
290.416443 108.0
290.480377 136.0
290.58606 100.0
290.694641 108.0
290.77948 36.0
290.833801 32.0
290.86618 52.0
290.898285 176.0
290.959381 140.0
291.04483 48.0
291.123779 196.0
291.176361 5152.0
291.315979 32.0
291.366943 76.0
291.434906 40.0
291.559204 208.0
291.645599 64.0
291.710175 40.0
291.744171 56.0
292.058777 60.0
292.084229 52.0
292.177673 616.0
292.346222 32.0
292.867126 120.0
292.931854 120.0
292.959106 96.0
292.982941 80.0
293.03064 64.0
293.085175 136.0
293.119232 72.0
293.18399 128.0
293.347595 124.0
293.402161 80.0
293.630615 64.0
293.889862 52.0
293.923981 52.0
294.159485 88.0
294.384827 132.0
294.92807 44.0
296.649902 104.0
296.845337 88.0
298.658722 116.0
299.688049 76.0
326.986298 48.0
329.326263 76.0
334.522552 48.0
342.991974 96.0
346.928955 96.0
358.10965 48.0
373.599487 108.0
401.919739 72.0
433.339508 76.0
440.403351 112.0
456.214539 52.0
472.41272 76.0
487.846619 56.0
492.853394 36.0
500.367004 64.0
531.618347 108.0
540.669556 64.0
546.628296 48.0
555.740173 68.0
625.987183 72.0
628.908752 32.0
657.707153 160.0
683.638184 216.0
719.745483 116.0
754.380127 52.0
759.209473 128.0
766.443787 156.0
784.518005 172.0
788.699097 172.0
792.650391 124.0
793.446289 228.0
798.303284 180.0
809.884644 236.0
812.741943 176.0
814.677979 236.0
839.001099 260.0
846.639954 52.0
850.228577 180.0
850.896118 196.0
857.795837 172.0
857.871643 240.0
857.912476 128.0
867.048584 236.0
869.640991 80.0
877.936646 124.0
880.078735 168.0
886.265808 80.0
889.195312 148.0
890.12146 172.0
892.706421 216.0
894.46759 96.0
894.789062 140.0
906.226807 68.0
907.911255 92.0
909.141113 152.0
912.252441 140.0
912.895813 176.0
915.814819 156.0
927.670654 92.0
928.562012 252.0
934.490967 184.0
938.535339 216.0
940.05426 148.0
940.322815 220.0
940.689026 160.0
941.226318 136.0
943.743774 196.0
949.83136 200.0
960.275696 176.0
960.466919 252.0
960.744507 124.0
964.041748 124.0
964.202454 260.0
966.317261 208.0
968.137146 128.0
982.689209 160.0
983.887512 124.0
984.099792 92.0
991.155457 112.0
991.644287 140.0
994.868469 168.0
998.651367 136.0
999.299316 88.0
1001.836548 196.0
1004.799683 204.0
1005.342346 124.0
1008.253723 184.0
1008.481262 140.0
1009.012268 180.0
1014.152588 180.0
1018.09259 200.0
1020.100403 160.0
1022.530212 156.0
1025.60022 156.0
1025.708618 168.0
1026.116577 160.0
1027.277344 164.0
1028.272705 220.0
1028.84729 200.0
1036.208618 188.0
1044.560913 112.0
1047.741089 208.0
1049.184692 148.0
1052.333252 184.0
1053.172729 120.0
1054.154785 272.0
1058.132812 144.0
1061.690186 112.0
1062.040527 44.0
1066.221802 204.0
1066.325806 104.0
1067.177368 204.0
1067.743164 152.0
1068.998779 100.0
1070.378784 136.0
1073.278564 120.0
1076.058105 204.0
1077.423096 208.0
1079.436279 224.0
1080.332275 144.0
1080.443481 208.0
1085.500122 132.0
1091.640137 212.0
1094.733154 220.0
1100.83313 216.0
1102.987061 148.0
1104.256592 204.0
1106.201904 180.0
1114.080322 172.0
1114.684937 160.0
1118.788818 100.0
1122.43335 220.0
1124.274536 192.0
1124.521484 124.0
1126.257568 152.0
1126.317627 108.0
1126.858765 172.0
1127.714233 136.0
1129.004517 180.0
1129.138306 72.0
1130.570068 216.0
1139.952026 140.0
1143.220337 144.0
1144.930298 176.0
1149.251343 148.0
1150.898315 100.0
1151.452148 192.0
1152.661377 196.0
1153.026245 124.0
1153.479126 160.0
1156.164429 232.0
1160.221802 196.0
1162.378662 148.0
1167.670898 84.0
1168.398804 196.0
1171.087646 228.0
1172.906982 148.0
1174.277466 132.0
1175.266724 164.0
1175.505493 64.0
1176.740967 56.0
1181.210571 256.0
1183.886719 124.0
1184.290771 176.0
1185.791382 148.0
1190.123169 172.0
1190.896118 180.0
1191.143433 132.0
1192.503906 116.0
1193.211914 44.0
1199.717896 220.0
1200.014404 144.0
1204.258423 228.0
1204.562378 100.0
1206.69104 144.0
1207.880493 236.0
1208.108765 192.0
1208.869873 140.0
1211.74353 164.0
1212.353271 152.0
1214.509521 136.0
1217.625977 128.0
1221.414062 232.0
1222.081909 136.0
1223.335327 192.0
1229.322021 160.0
1230.990356 216.0
1231.444336 36.0
1231.877441 192.0
1233.624512 232.0
1234.295654 124.0
1235.897583 184.0
1236.6604 212.0
1239.069336 172.0
1240.618164 224.0
1240.765381 248.0
1241.151001 204.0
1242.525757 176.0
1243.922363 136.0
1244.055664 172.0
1244.750732 208.0
1245.080811 180.0
1245.305664 160.0
1248.137817 232.0
1248.215088 140.0
1249.150513 228.0
1250.304565 76.0
1253.226929 132.0
1253.467407 156.0
1254.678833 164.0
1255.42627 112.0
1255.856445 180.0
1256.80188 172.0
1259.929688 156.0
1262.290405 212.0
1262.997681 136.0
1264.136719 112.0
1265.071045 148.0
1265.743652 212.0
1265.864014 168.0
1266.76355 176.0
1271.102661 224.0
1273.708374 164.0
1274.710083 132.0
1277.546997 180.0
1277.78186 148.0
1279.326172 196.0
1280.479736 116.0
1280.564087 124.0
1280.686279 228.0
1282.047119 40.0
1283.494263 168.0
1284.200317 120.0
1284.300171 164.0
1286.605103 208.0
1289.383789 248.0
1289.905518 188.0
1291.142578 40.0
1294.420166 176.0
1294.814087 232.0
1295.625488 128.0
1295.752441 112.0
1296.26123 196.0
1296.483276 236.0
1298.074829 160.0
1299.947144 164.0
1301.224854 156.0
1304.457764 184.0
1304.953735 140.0
1305.457153 144.0
1305.543457 172.0
1306.118774 160.0
1310.02771 144.0
1310.085327 188.0
1312.802612 84.0
1312.975708 220.0
1313.718628 144.0
1314.346436 188.0
1319.330078 160.0
1319.640991 176.0
1322.006348 152.0
1322.766357 128.0
1323.584473 144.0
1323.960938 192.0
1324.460693 208.0
1324.8302 244.0
1325.214233 136.0
1325.330078 224.0
1333.988647 148.0
1334.752075 100.0
1338.34668 144.0
1339.191406 180.0
1339.643066 200.0
1339.905273 180.0
1340.721436 204.0
1340.903687 164.0
1343.667358 180.0
1344.258423 148.0
1344.623291 224.0
1345.090454 184.0
1345.477417 180.0
1347.719604 144.0
1349.93457 132.0
1350.285522 184.0
1350.812256 180.0
1352.03418 140.0
1353.176147 176.0
1354.655518 68.0
1355.065796 224.0
1355.366089 156.0
1355.534668 40.0
1356.619507 156.0
1357.206055 152.0
1357.624023 212.0
1359.311279 60.0
1359.509399 192.0
1361.374146 172.0
1361.755981 144.0
1364.24707 96.0
1364.526367 132.0
1367.887085 168.0
1368.359619 80.0
1371.637939 184.0
1375.067871 120.0
1375.990601 120.0
1378.265503 200.0
1380.379639 180.0
1381.311523 52.0
1381.385498 124.0
1382.354736 104.0
1382.687866 160.0
1383.072754 132.0
1385.968384 248.0
1387.992065 128.0
1389.111938 168.0
1390.930054 144.0
1391.071045 204.0
1397.618896 176.0
1398.824585 188.0
1399.971191 208.0
1404.07019 56.0
1404.741455 196.0
1406.995239 192.0
1407.054932 116.0
1407.95752 164.0
1410.596069 208.0
1417.114624 212.0
1418.651123 176.0
1419.220825 148.0
1419.828247 220.0
1423.565674 216.0
1426.924438 184.0
1427.089844 148.0
1427.796753 84.0
1430.25708 144.0
1431.604858 164.0
1432.019043 240.0
1432.09436 148.0
1432.651855 100.0
1433.947876 208.0
1434.121216 128.0
1437.469849 152.0
1437.605713 224.0
1438.141479 128.0
1438.67749 144.0
1439.326782 124.0
1439.795044 136.0
1440.36145 160.0
1440.414429 80.0
1440.822266 100.0
1443.505615 112.0
1444.980591 136.0
1447.122559 196.0
1447.963135 216.0
1448.364136 140.0
1449.326782 192.0
1451.805542 156.0
1451.88147 144.0
1452.366821 136.0
1452.791626 140.0
1452.897827 48.0
1453.793213 160.0
1453.91394 176.0
1454.984985 184.0
1455.19751 200.0
1456.26062 248.0
1457.552246 120.0
1459.11792 176.0
1459.63501 64.0
1461.612793 140.0
1462.434692 224.0
1464.711426 200.0
1465.892334 144.0
1467.142456 180.0
1467.195801 68.0
1467.561768 188.0
1469.178589 136.0
1469.315918 160.0
1469.857666 136.0
1471.407227 168.0
1473.094971 136.0
1473.178955 152.0
1474.776001 184.0
1475.196533 132.0
1475.380005 128.0
1475.777588 236.0
1476.381592 196.0
1476.534546 80.0
1478.393677 128.0
1480.368774 156.0
1482.329956 72.0
1482.897095 216.0
1483.333984 204.0
1483.839966 160.0
1484.223267 144.0
1485.258667 160.0
1486.133301 180.0
1487.307495 136.0
1488.343872 216.0
1488.420654 192.0
1489.864624 124.0
1490.609985 176.0
1490.771362 112.0
1490.886597 192.0
1492.946899 64.0
1493.13147 184.0
1495.370483 172.0
1496.214355 212.0
1497.980835 152.0
1502.213989 156.0
1502.683594 400.0
1503.571045 180.0
1503.63269 168.0
1504.651733 184.0
1504.852417 196.0
