>compound MLS001158965-01!N-[(2S)-1-[[(1S)-2-hydroxy-1-phenylethyl]amino]-1-oxopropan-2-yl]-1-(4-methoxyphenyl)-5-oxopyrrolidine-3-carboxamide
>formula C23H27N3O5
>ionization [M+H]+
>parentmass 426.203
#inchi InChI=1S/C23H27N3O5/c1-15(22(29)25-20(14-27)16-6-4-3-5-7-16)24-23(30)17-12-21(28)26(13-17)18-8-10-19(31-2)11-9-18/h3-11,15,17,20,27H,12-14H2,1-2H3,(H,24,30)(H,25,29)/t15-,17?,20+/m0/s1
#inchikey XCIGKBBPJQAESH
#Ion_Source LC-ESI
#Instrument qTof
#Compound_Source NIH Natural Product Library
#PI Dorrestein
#Data_Collector VVP/LMS
#Scan -1
#Precursor_MZ 426.203
#ExactMass 425.195
#Charge 1
#CAS_Number N/A
#Pubmed_ID N/A
#Smiles COc1ccc(cc1)N2CC(CC2=O)C(=O)N[C@@H](C)C(=O)N[C@H](CO)c3ccccc3
#INCHI_AUX N/A
#Library_Class 1
#SpectrumID CCMSLIB00000079854
#IonMode Positive
#UpdateWorkflowName UPDATE-SINGLE-ANNOTATED-GOLD
#LibraryQualityString Gold
#TaskID b1d8e8f6646f4e71acdff9ca3d919d08
##Scan# 1573
#SpectrumFile p1-A12_GA12_01_17884.mzXML
#LibraryName NIH_Natural_Products_Library.mgf
#MQScore -1
#Organism NIH_Natural_Products_Library
#TIC_Query 0
#RT_Query -1
#MZErrorPPM -1
#SharedPeaks 0
#MassDiff 0
#LibMZ -1
#SpecMZ 426.203
#SpecCharge 0
#internalFilename spec-00000.mgf

>collision 10
94.99337 152.0
95.098145 176.0
95.210754 212.0
95.265137 168.0
95.50811 196.0
95.718292 180.0
95.79425 192.0
95.956001 160.0
96.151062 180.0
96.737427 144.0
96.990112 172.0
97.925362 152.0
98.064079 216.0
98.392693 184.0
98.973969 128.0
99.096771 68.0
99.66819 188.0
99.721268 116.0
99.803352 100.0
100.195435 228.0
100.596268 32.0
101.042168 156.0
101.276123 72.0
101.300156 124.0
101.524635 72.0
101.580795 188.0
101.839722 112.0
102.044693 220.0
102.068825 104.0
102.28006 184.0
102.330383 156.0
102.517708 212.0
102.681007 136.0
102.862823 176.0
102.939316 44.0
103.012024 128.0
103.030205 124.0
103.05442 8188.0
103.082977 168.0
103.111031 216.0
103.141342 116.0
103.155495 140.0
103.21817 40.0
103.359756 40.0
103.428566 212.0
103.503471 52.0
103.799309 68.0
103.831757 108.0
103.925064 116.0
103.977829 148.0
104.057945 472.0
104.336899 144.0
104.658806 188.0
104.793236 96.0
105.105194 40.0
105.953682 188.0
106.062286 128.0
106.411026 156.0
106.532188 200.0
106.599991 176.0
106.80558 160.0
106.891983 144.0
106.906387 172.0
107.031952 164.0
107.621658 156.0
107.884033 56.0
108.054993 800.0
108.482292 172.0
108.511322 104.0
108.756096 104.0
108.851593 220.0
108.924286 220.0
108.961678 64.0
109.064758 184.0
109.315147 192.0
109.421295 116.0
109.635841 172.0
109.681694 216.0
109.815132 176.0
110.067642 188.0
110.103142 220.0
110.665924 144.0
110.724266 176.0
110.813881 164.0
110.912834 56.0
110.95266 100.0
111.070091 220.0
111.084778 152.0
111.86438 200.0
111.879112 208.0
112.058128 116.0
112.287888 164.0
112.849586 180.0
113.166954 56.0
113.548378 180.0
114.276978 136.0
114.381256 148.0
114.557999 148.0
114.64109 252.0
115.219315 180.0
115.7005 184.0
115.724052 204.0
115.774681 124.0
115.968254 144.0
116.073303 164.0
116.14193 56.0
116.554115 160.0
116.693817 208.0
116.868034 212.0
117.056725 220.0
117.150063 88.0
117.350487 156.0
117.4842 88.0
117.546768 136.0
117.810173 120.0
118.070595 164.0
118.225304 176.0
118.327034 160.0
118.45047 208.0
119.138123 180.0
119.35981 188.0
119.4207 96.0
119.640472 140.0
119.810341 112.0
120.045731 208.0
120.080467 1484.0
120.167877 80.0
120.536629 176.0
120.639603 252.0
120.705193 196.0
120.919571 64.0
120.959633 172.0
120.998375 172.0
121.064339 5444.0
121.164818 100.0
121.324799 64.0
121.346039 64.0
121.935005 60.0
122.062134 324.0
122.108688 76.0
122.961304 56.0
122.983376 104.0
123.069466 192.0
123.453949 148.0
123.670761 48.0
123.816879 212.0
124.009628 196.0
124.079247 168.0
124.249115 72.0
124.333427 96.0
124.408897 204.0
124.83326 176.0
125.070274 184.0
125.41655 164.0
125.550323 128.0
126.055336 1752.0
126.323112 140.0
126.392471 116.0
126.661118 168.0
126.746246 52.0
126.94799 44.0
127.006302 68.0
127.060921 320.0
127.163361 204.0
127.563171 136.0
127.720566 204.0
127.927589 112.0
128.066681 212.0
128.560928 136.0
128.621582 160.0
128.858978 128.0
129.069183 176.0
129.594284 188.0
129.929825 144.0
130.104568 96.0
130.745544 208.0
130.927551 148.0
130.970947 96.0
131.073883 196.0
131.191986 220.0
131.760223 164.0
132.055099 192.0
132.073395 64.0
132.405258 148.0
132.751297 48.0
133.050064 296.0
133.647125 176.0
133.781586 124.0
134.02478 348.0
134.059235 964.0
134.617554 60.0
135.024277 200.0
135.058975 212.0
135.264908 176.0
135.424667 168.0
135.459412 140.0
135.505753 92.0
135.63089 116.0
135.821014 52.0
135.932495 164.0
135.96254 156.0
136.04187 156.0
136.075699 27384.0
136.14801 36.0
136.163773 100.0
136.192398 128.0
136.213303 72.0
136.265213 196.0
136.303314 64.0
136.366653 72.0
136.415451 60.0
136.438705 76.0
136.499161 76.0
136.569626 120.0
136.601654 56.0
136.659119 88.0
136.678268 56.0
136.699203 80.0
136.729462 80.0
136.778336 72.0
136.796951 76.0
136.843521 60.0
136.863693 48.0
136.897064 76.0
136.994156 76.0
137.078339 2352.0
137.28624 112.0
137.353867 84.0
137.521866 36.0
137.605896 108.0
137.795074 84.0
137.819061 132.0
137.900238 80.0
137.965469 176.0
137.983826 116.0
138.055237 224.0
138.0905 792.0
138.127029 32.0
138.145752 96.0
138.176712 88.0
138.222946 128.0
138.628052 64.0
138.806213 84.0
138.94693 132.0
139.094986 184.0
139.630478 160.0
140.096527 176.0
140.270905 208.0
141.909195 80.0
142.238937 264.0
142.364777 136.0
142.680786 188.0
143.421097 48.0
143.578461 220.0
144.727844 148.0
145.063248 148.0
145.084824 148.0
145.418243 36.0
146.06189 244.0
146.091812 320.0
146.958344 236.0
147.068787 440.0
147.661285 44.0
148.075912 884.0
148.460464 196.0
148.875427 220.0
148.967728 68.0
149.047485 2744.0
149.076447 200.0
149.536697 224.0
149.811844 76.0
149.880066 120.0
150.011658 180.0
150.044647 136.0
150.086426 60.0
150.348251 116.0
151.05191 76.0
151.093491 144.0
151.338242 148.0
151.536621 164.0
152.584595 116.0
152.670654 184.0
153.062424 152.0
153.567108 128.0
154.047592 544.0
154.807724 184.0
155.052979 372.0
158.317017 104.0
159.071198 124.0
160.07222 128.0
160.361542 128.0
161.072906 60.0
161.26004 184.0
161.285324 44.0
161.56601 148.0
162.05629 176.0
162.0905 2388.0
162.117966 100.0
162.196533 88.0
162.239624 64.0
162.384155 104.0
163.056717 216.0
163.092361 508.0
164.064926 160.0
164.110565 692.0
165.029968 144.0
166.013229 200.0
166.04657 148.0
166.141479 144.0
167.272156 164.0
167.344238 72.0
167.908554 216.0
168.053009 160.0
168.071075 208.0
168.528091 192.0
168.86673 156.0
169.029709 148.0
170.892685 144.0
171.075851 272.0
171.330078 48.0
172.071854 356.0
172.245697 108.0
172.896713 80.0
173.083664 156.0
173.884735 48.0
174.052734 128.0
174.094437 168.0
175.060959 336.0
175.542084 44.0
175.882416 172.0
176.059311 164.0
177.782684 160.0
178.087997 160.0
179.701172 104.0
181.340393 64.0
182.223221 160.0
182.491989 172.0
182.973572 124.0
183.00589 140.0
184.319443 124.0
184.708755 188.0
184.730392 172.0
184.792618 60.0
187.004211 160.0
187.113098 228.0
187.196777 56.0
187.480804 148.0
188.342941 212.0
189.082504 188.0
189.494614 96.0
189.905807 60.0
189.968887 72.0
190.086243 9976.0
190.149994 40.0
190.169205 32.0
190.237823 92.0
190.339401 72.0
190.394318 80.0
190.42453 28.0
190.564621 60.0
190.710266 108.0
191.042984 220.0
191.088745 1948.0
191.128189 124.0
191.180557 44.0
191.307175 104.0
191.431061 40.0
191.618362 120.0
191.673462 56.0
192.034607 52.0
192.065445 176.0
192.094681 128.0
192.136658 160.0
192.575562 88.0
192.992844 136.0
195.548111 148.0
197.35817 72.0
199.084274 152.0
200.127487 140.0
200.803787 68.0
201.068985 100.0
201.436035 52.0
201.639465 180.0
202.08226 204.0
202.40892 132.0
202.72052 220.0
202.850891 128.0
203.17984 192.0
203.989182 132.0
204.100052 60.0
204.714691 164.0
208.111206 124.0
208.600052 136.0
209.022827 176.0
209.166718 180.0
211.655304 140.0
214.342133 200.0
214.759018 104.0
215.561844 128.0
216.102783 128.0
217.104553 152.0
217.133881 168.0
217.920578 76.0
218.045532 236.0
218.080353 5680.0
218.16156 172.0
218.911819 56.0
219.014893 60.0
219.083206 512.0
219.38913 52.0
219.970261 52.0
220.088348 156.0
220.179886 68.0
220.419174 68.0
220.522598 60.0
220.550552 44.0
220.584671 92.0
220.608322 84.0
220.747284 104.0
222.243118 100.0
224.041809 200.0
224.441177 56.0
227.255722 60.0
228.093582 156.0
228.337128 32.0
228.945038 100.0
229.038406 236.0
231.711853 172.0
232.776459 40.0
232.800751 96.0
232.928314 164.0
233.365921 176.0
234.187561 76.0
236.094666 392.0
236.330551 68.0
237.096085 224.0
237.783051 84.0
240.331009 124.0
240.744629 176.0
240.868164 204.0
242.210602 76.0
242.343826 144.0
243.578522 148.0
245.099823 124.0
245.121643 180.0
245.554962 68.0
246.747787 68.0
247.97171 172.0
251.488007 124.0
252.938812 144.0
253.147766 140.0
255.114883 160.0
255.251602 152.0
256.550598 84.0
259.168091 56.0
259.514252 88.0
260.014648 48.0
260.348541 104.0
260.377441 100.0
260.496277 224.0
260.531616 180.0
260.653687 108.0
260.981567 128.0
261.068359 136.0
261.122833 11576.0
261.246796 84.0
261.293518 84.0
261.340118 84.0
261.402924 72.0
261.438599 96.0
261.581787 92.0
261.686188 80.0
261.753784 136.0
261.863281 48.0
262.024353 124.0
262.126617 2128.0
262.201569 124.0
262.630371 84.0
263.072418 128.0
263.119965 332.0
263.395355 96.0
263.459961 40.0
263.841278 104.0
263.933441 96.0
264.268188 72.0
264.36203 92.0
265.33374 44.0
265.816986 56.0
269.120789 136.0
270.094635 88.0
270.317108 44.0
271.11615 68.0
272.520538 44.0
273.130096 360.0
274.027405 220.0
274.218536 104.0
274.567993 60.0
276.421234 60.0
278.994995 68.0
281.006531 212.0
285.111755 104.0
286.764221 100.0
288.130951 424.0
289.115601 832.0
290.073273 112.0
290.124329 520.0
290.324158 84.0
291.114868 316.0
292.134491 148.0
292.94809 116.0
293.128662 144.0
296.923218 96.0
298.09729 140.0
306.145355 312.0
307.140594 184.0
321.090515 92.0
321.168976 144.0
325.025513 56.0
327.099152 40.0
338.136078 320.0
339.118591 112.0
339.144257 172.0
351.496674 96.0
373.018219 76.0
373.666229 20.0
374.719177 112.0
390.158661 164.0
404.123444 152.0
408.18869 264.0
409.18042 76.0
411.950928 56.0
446.783936 56.0
508.123627 72.0
511.421967 68.0
544.583435 68.0
555.177612 96.0
611.307007 76.0
647.721619 132.0
732.389282 20.0
783.231628 156.0
828.941223 56.0
830.076172 220.0
840.631714 244.0
855.428406 64.0
886.890198 176.0
898.83783 124.0
899.655457 260.0
899.888306 36.0
906.497742 140.0
907.366821 128.0
907.978455 72.0
910.823303 148.0
931.026184 192.0
936.018677 192.0
941.391785 140.0
949.033447 88.0
960.077148 152.0
960.274536 32.0
962.224426 48.0
971.172424 52.0
992.293518 168.0
998.258484 184.0
1006.980469 140.0
1007.138367 104.0
1024.671997 176.0
1026.354614 160.0
1032.676758 128.0
1034.666748 200.0
1062.190063 132.0
1062.293945 164.0
1063.689087 108.0
1066.254517 212.0
1069.695312 68.0
1072.300659 88.0
1072.359253 108.0
1073.108887 228.0
1081.3396 56.0
1087.81543 160.0
1092.665283 192.0
1097.690796 188.0
1098.600952 180.0
1100.098999 192.0
1100.158325 212.0
1103.329346 136.0
1104.288086 172.0
1106.154053 256.0
1106.465088 200.0
1107.325928 120.0
1115.061768 184.0
1126.555542 224.0
1126.99646 140.0
1127.99231 88.0
1129.824585 104.0
1135.001709 36.0
1136.423706 172.0
1143.614014 188.0
1145.48584 188.0
1146.873901 224.0
1148.444946 164.0
1153.144043 136.0
1161.098999 172.0
1170.252075 156.0
1170.871826 192.0
1171.825439 88.0
1181.301025 152.0
1181.697876 140.0
1182.224731 152.0
1188.700439 172.0
1193.673584 216.0
1196.164185 172.0
1198.202515 124.0
1204.562866 172.0
1208.268188 232.0
1210.344604 152.0
1217.535522 164.0
1218.389893 216.0
1219.487793 220.0
1224.57373 160.0
1226.447876 176.0
1228.588623 176.0
1230.445068 140.0
1232.770874 156.0
1235.441772 176.0
1235.602661 60.0
1236.260376 204.0
1239.110229 160.0
1239.831909 216.0
1243.429565 72.0
1243.675293 92.0
1248.164307 184.0
1254.747437 48.0
1256.425903 184.0
1259.277588 280.0
1259.800293 152.0
1260.690552 128.0
1264.764282 164.0
1273.478149 132.0
1275.161987 44.0
1276.768677 200.0
1280.291382 160.0
1281.124756 156.0
1282.307617 76.0
1283.883057 172.0
1286.615845 252.0
1290.116333 188.0
1290.766113 136.0
1291.832642 116.0
1297.590332 136.0
1297.748169 60.0
1299.225464 140.0
1299.275757 56.0
1302.398315 36.0
1303.741821 180.0
1305.323242 172.0
1309.626831 160.0
1310.851562 164.0
1311.550659 184.0
1313.648926 148.0
1315.286987 240.0
1316.600952 188.0
1319.82373 156.0
1322.884033 248.0
1323.130249 168.0
1324.498779 156.0
1330.002197 124.0
1330.974976 124.0
1336.819214 260.0
1337.226807 168.0
1337.86731 144.0
1341.866943 176.0
1346.741455 60.0
1347.603516 208.0
1348.502319 184.0
1352.72998 148.0
1357.624268 92.0
1362.365723 136.0
1364.2323 116.0
1366.651855 160.0
1366.946167 240.0
1370.045898 84.0
1370.613159 196.0
1373.451416 184.0
1374.27771 72.0
1374.993408 120.0
1379.853882 148.0
1381.939453 96.0
1384.811646 188.0
1391.478027 136.0
1394.820923 144.0
1396.798828 140.0
1398.748413 104.0
1399.842773 176.0
1400.565186 76.0
1402.129761 192.0
1405.664551 136.0
1406.067505 120.0
1407.217041 168.0
1410.085449 156.0
1411.872192 124.0
1416.183105 148.0
1416.497681 176.0
1417.426636 160.0
1419.817993 112.0
1420.177979 204.0
1422.826782 224.0
1428.876709 132.0
1431.119507 128.0
1434.539795 200.0
1435.060059 116.0
1436.002563 160.0
1437.760376 160.0
1440.969604 140.0
1443.06311 204.0
1445.672607 132.0
1446.429443 148.0
1452.620239 248.0
1453.265137 108.0
1453.765869 180.0
1455.686401 224.0
1456.332031 140.0
1457.296753 184.0
1464.317871 120.0
1465.75 112.0
1465.950317 196.0
1469.478516 152.0
1473.043579 152.0
1473.761719 144.0
1474.136108 52.0
1474.235474 176.0
1476.215332 152.0
1478.625122 200.0
1479.069092 196.0
1484.339844 120.0
1489.789062 232.0
1491.994629 152.0
1493.578735 196.0
1495.72168 40.0
1496.372192 264.0
1496.487671 72.0
1499.121948 180.0
1499.707642 204.0
1501.079956 156.0
1501.31897 164.0
