>compound MLS002154132-01!Oxprenolol hydrochloride6452-73-9
>formula C15H23NO3
>ionization [M+H]+
>parentmass 266.1750700480905
#inchi InChI=1S/C15H23NO3/c1-4-9-18-14-7-5-6-8-15(14)19-11-13(17)10-16-12(2)3/h4-8,12-13,16-17H,1,9-11H2,2-3H3
#inchikey CEMAWMOMDPGJMB
#origInchi InChI=1S/C15H23NO3.ClH/c1-4-9-18-14-7-5-6-8-15(14)19-11-13(17)10-16-12(2)3;/h4-8,12-13,16-17H,1,9-11H2,2-3H3;1H
#Ion_Source LC-ESI
#Instrument qTof
#Compound_Source NIH Pharmacologically Active Library
#PI Dorrestein
#Data_Collector VP/LMS
#Scan -1
#Precursor_MZ 266.177
#ExactMass 265.168
#Charge 1
#CAS_Number N/A
#Pubmed_ID N/A
#Smiles CC(C)NCC(O)COc1ccccc1OCC=C.Cl
#INCHI_AUX N/A
#Library_Class 1
#SpectrumID CCMSLIB00000085920
#IonMode Positive
#UpdateWorkflowName UPDATE-SINGLE-ANNOTATED-GOLD
#LibraryQualityString Gold
#TaskID d252d724072548979f1f6f1ced849daf
##Scan# 1432
#SpectrumFile p4-G11_GG11_01_18407.mzXML
#LibraryName Pharm_Active_Library.mgf
#MQScore -1
#Organism Pharm_Active_Library
#TIC_Query 0
#RT_Query -1
#MZErrorPPM -1
#SharedPeaks 0
#MassDiff 0
#LibMZ -1
#SpecMZ 266.177
#SpecCharge 0
#internalFilename spec-00000.mgf

>collision 10
44.97794 200.0
45.068756 208.0
45.161003 192.0
45.375271 44.0
45.657265 48.0
45.799934 184.0
46.13866 172.0
46.353874 148.0
46.417587 144.0
46.817127 136.0
46.879795 176.0
46.960232 100.0
47.092632 140.0
47.150017 144.0
47.819332 164.0
48.912857 148.0
48.97134 128.0
49.034775 212.0
49.095383 152.0
49.158161 164.0
49.198643 212.0
49.230755 144.0
49.50766 64.0
49.911819 164.0
50.234352 156.0
50.334564 68.0
50.488602 180.0
50.518307 188.0
50.778946 204.0
51.053051 140.0
51.135571 156.0
51.226704 168.0
51.745129 100.0
52.191368 156.0
52.509632 208.0
52.544254 208.0
53.305897 132.0
53.320431 208.0
53.518276 36.0
53.540119 160.0
53.717945 144.0
53.86977 244.0
54.017418 88.0
54.345596 152.0
54.498302 88.0
54.590912 32.0
54.704208 128.0
54.934101 120.0
55.097973 192.0
56.043114 176.0
56.148956 188.0
56.2146 128.0
56.231014 176.0
56.266842 176.0
56.31612 108.0
56.924183 128.0
57.008308 184.0
57.041378 196.0
57.50079 112.0
57.913567 136.0
58.024193 196.0
58.084854 160.0
58.244244 176.0
58.26524 180.0
58.323257 80.0
58.618519 156.0
59.015404 160.0
59.044456 112.0
59.186779 200.0
59.211281 44.0
59.713169 180.0
59.874771 136.0
60.166214 176.0
60.876938 64.0
62.050377 176.0
62.482288 104.0
62.860455 188.0
62.945698 136.0
63.03574 184.0
63.08474 192.0
63.548786 228.0
64.009758 188.0
64.063911 116.0
64.269585 140.0
64.28476 148.0
64.299911 76.0
64.376541 160.0
64.390915 192.0
64.41967 184.0
64.736366 204.0
64.939911 184.0
65.492844 204.0
65.571793 216.0
65.994751 208.0
66.031944 184.0
66.945671 124.0
67.386101 68.0
67.623222 184.0
68.386452 92.0
69.203636 196.0
69.390862 184.0
69.919113 172.0
69.972382 156.0
70.249039 140.0
70.414291 136.0
70.496155 172.0
70.529579 156.0
70.648308 188.0
70.934677 232.0
71.344299 160.0
71.6287 136.0
71.859665 228.0
71.906921 132.0
72.331184 196.0
72.403992 48.0
72.945267 144.0
73.048996 316.0
73.341888 52.0
73.845596 136.0
74.068115 96.0
74.32872 236.0
74.40596 48.0
74.464348 156.0
74.529625 204.0
74.562279 28.0
74.739403 64.0
74.885742 136.0
75.177109 212.0
75.199547 256.0
75.26342 156.0
75.534767 184.0
75.555527 84.0
76.038994 156.0
76.056351 64.0
76.745285 120.0
77.1521 172.0
77.174828 184.0
78.745934 192.0
78.929726 164.0
79.101349 172.0
79.574707 220.0
79.587135 148.0
80.225868 204.0
81.05162 164.0
81.220146 148.0
81.334991 156.0
81.502014 52.0
81.638634 220.0
81.671005 140.0
82.180847 76.0
82.361382 112.0
82.448105 152.0
82.780983 176.0
82.994812 152.0
83.399658 200.0
83.545143 148.0
83.770226 144.0
83.856522 164.0
83.964096 108.0
84.00605 116.0
84.020645 196.0
84.223282 76.0
84.484688 156.0
84.680557 100.0
84.972031 168.0
85.82917 132.0
86.129997 116.0
86.27784 160.0
86.401749 240.0
86.686905 96.0
87.319984 176.0
87.463257 188.0
87.556351 156.0
88.119705 188.0
88.30291 216.0
88.746735 188.0
88.851768 168.0
88.988785 168.0
89.062027 104.0
89.217995 152.0
89.338364 212.0
89.475746 92.0
89.803642 236.0
89.975365 220.0
90.134026 184.0
90.51046 180.0
90.580536 144.0
90.864906 204.0
90.974983 168.0
91.054131 352.0
91.667328 168.0
91.913322 172.0
92.278152 180.0
92.77594 56.0
93.050293 188.0
93.367355 60.0
93.821793 196.0
94.111198 204.0
94.194244 88.0
94.608093 104.0
95.046181 284.0
95.129585 132.0
95.304382 148.0
95.391846 148.0
95.609695 176.0
96.083206 260.0
96.317467 124.0
96.440575 164.0
96.601822 200.0
96.673317 152.0
96.71637 116.0
96.974922 176.0
97.028671 224.0
97.129829 184.0
97.709366 308.0
97.804558 196.0
98.073685 68.0
98.095238 1616.0
98.115082 208.0
98.375496 152.0
98.448555 164.0
98.990417 160.0
99.103615 144.0
99.422592 160.0
99.541702 192.0
99.790085 68.0
99.99897 100.0
100.075356 552.0
100.111412 800.0
100.285782 180.0
100.904633 92.0
100.948624 172.0
101.114677 128.0
101.147346 112.0
101.182739 100.0
101.583557 148.0
101.798325 180.0
102.042816 368.0
102.087334 308.0
102.274818 112.0
102.867462 104.0
103.054642 1540.0
103.136131 64.0
103.741402 168.0
103.767754 192.0
103.986847 160.0
104.057343 192.0
104.141159 232.0
104.210228 52.0
104.527435 44.0
104.718811 64.0
104.91851 180.0
104.965408 88.0
105.032204 600.0
105.070129 4620.0
105.271507 208.0
105.296013 248.0
105.50444 180.0
105.582146 124.0
105.847031 156.0
106.032562 164.0
106.048958 252.0
106.075005 320.0
106.092873 228.0
106.62365 132.0
106.675041 68.0
106.707932 104.0
107.008331 152.0
107.049316 2752.0
107.086586 32.0
107.294716 168.0
107.31739 72.0
107.647552 156.0
107.845894 104.0
107.951332 68.0
108.056885 464.0
108.129257 44.0
109.029594 184.0
109.052231 160.0
109.110435 72.0
109.374641 116.0
109.993744 140.0
110.035873 1408.0
110.190056 44.0
110.221397 128.0
110.652283 204.0
110.989624 176.0
111.039955 320.0
111.117569 240.0
111.352684 180.0
111.529182 236.0
111.823654 172.0
111.838387 96.0
112.436974 84.0
113.34845 116.0
113.655922 140.0
113.68988 172.0
113.908577 144.0
113.942566 140.0
114.097717 260.0
114.676735 236.0
115.054245 1112.0
115.099144 200.0
115.143997 80.0
115.571548 52.0
115.684982 164.0
116.0149 128.0
116.059418 564.0
116.106789 6316.0
116.16716 48.0
116.218651 168.0
116.306641 64.0
116.508507 256.0
116.568665 48.0
116.64389 172.0
116.667542 40.0
116.850349 108.0
116.938583 76.0
117.068398 1132.0
117.110405 560.0
117.380226 52.0
117.729828 124.0
117.865929 76.0
117.999939 84.0
118.038857 132.0
118.072952 188.0
118.118881 64.0
118.134026 124.0
118.188118 92.0
118.393768 48.0
118.430588 224.0
118.517242 92.0
118.968376 176.0
119.052307 572.0
119.070877 156.0
119.086601 180.0
119.513908 232.0
119.540024 120.0
119.888466 168.0
120.057022 564.0
120.521301 64.0
120.628395 124.0
120.957275 188.0
121.008087 160.0
121.02829 5228.0
121.063896 608.0
121.10762 64.0
121.190865 68.0
121.231163 72.0
121.291679 236.0
121.535118 80.0
121.690964 172.0
121.991951 144.0
122.034027 2264.0
122.112892 52.0
122.304321 48.0
122.603867 80.0
123.042839 1964.0
123.080368 184.0
123.1157 188.0
123.876587 84.0
124.051659 216.0
124.262344 140.0
125.187057 36.0
125.731026 64.0
125.775665 56.0
126.235916 240.0
127.051414 152.0
127.979492 176.0
128.002014 192.0
128.061188 520.0
128.518204 76.0
128.698792 172.0
128.721359 92.0
129.028656 208.0
129.065781 144.0
129.379333 224.0
129.660217 200.0
129.746353 224.0
130.036713 188.0
130.069427 196.0
131.048569 1732.0
131.084869 448.0
131.237885 232.0
131.57785 84.0
131.938828 80.0
132.055359 868.0
132.080612 120.0
132.295715 76.0
132.990295 32.0
133.063217 1808.0
133.102783 136.0
133.316437 56.0
133.804077 156.0
133.89389 76.0
133.981415 64.0
134.061401 208.0
134.110474 144.0
134.22113 48.0
134.733536 136.0
134.904556 216.0
135.013229 196.0
135.042923 3584.0
135.07933 124.0
135.100754 276.0
135.130005 100.0
135.154343 104.0
135.270065 64.0
135.332581 56.0
135.492386 32.0
135.789108 68.0
136.046356 800.0
136.1651 208.0
136.271957 44.0
136.434647 60.0
136.972229 44.0
137.05751 172.0
137.300873 60.0
137.954666 76.0
139.061676 184.0
140.031372 208.0
140.094971 188.0
141.068573 252.0
141.459961 208.0
143.045731 120.0
143.083817 328.0
143.729752 108.0
143.775101 180.0
144.058258 368.0
144.087067 344.0
145.011612 120.0
145.063751 1756.0
145.093109 40.0
145.402557 64.0
146.068863 200.0
146.535172 220.0
146.752106 168.0
146.855804 128.0
147.043167 3908.0
147.079468 1040.0
148.051437 2264.0
148.086334 204.0
148.28476 112.0
148.45932 56.0
148.682526 72.0
148.942322 36.0
149.019867 148.0
149.028488 136.0
149.059723 1388.0
149.093903 184.0
149.139145 52.0
149.21936 52.0
149.440704 84.0
149.752304 56.0
150.061371 184.0
151.019104 156.0
151.070465 160.0
151.148758 140.0
151.310303 100.0
151.981888 48.0
152.097244 160.0
152.342804 144.0
153.070847 180.0
155.06456 132.0
156.065018 124.0
156.129669 140.0
157.910446 96.0
158.073059 196.0
159.050522 148.0
159.081482 632.0
159.100739 108.0
159.892548 76.0
160.068771 84.0
160.991745 204.0
161.059952 872.0
161.100082 268.0
162.06044 164.0
162.355835 44.0
163.073959 616.0
164.06459 156.0
164.107925 112.0
165.334091 128.0
166.066742 176.0
166.086014 156.0
168.432404 184.0
169.055511 120.0
169.944336 160.0
170.066299 208.0
170.242859 140.0
171.079895 140.0
171.246765 232.0
173.064392 132.0
173.216293 44.0
174.068695 156.0
175.070648 184.0
176.086029 252.0
176.93222 132.0
177.087036 280.0
177.189117 48.0
177.822906 112.0
178.095688 168.0
178.12561 144.0
179.066467 244.0
180.099457 76.0
181.10788 152.0
183.092758 180.0
185.305145 128.0
187.021454 124.0
189.088684 744.0
189.16774 140.0
189.464951 184.0
190.094177 204.0
192.105316 200.0
193.544739 140.0
194.051804 76.0
203.491058 168.0
205.052795 168.0
206.116058 436.0
207.124847 368.0
207.832504 128.0
208.133896 360.0
210.111633 1896.0
211.109619 152.0
211.136749 104.0
211.889374 84.0
212.109619 196.0
224.12236 320.0
225.131424 400.0
225.253113 44.0
225.632645 80.0
228.858093 68.0
236.04686 152.0
239.234787 60.0
248.163406 300.0
248.208267 52.0
249.567902 52.0
253.954498 96.0
254.313049 100.0
255.119904 120.0
266.169403 672.0
266.200226 156.0
267.172791 236.0
270.143158 56.0
342.992493 116.0
369.495331 60.0
412.160736 132.0
459.188934 68.0
477.846924 136.0
532.879883 52.0
689.36499 100.0
807.724731 208.0
822.042664 64.0
849.517883 152.0
851.467529 172.0
863.965942 176.0
885.996765 140.0
902.842468 92.0
903.75769 152.0
904.398071 192.0
930.350098 208.0
935.310669 148.0
943.430176 148.0
946.795654 144.0
953.950195 156.0
969.845703 156.0
991.461243 244.0
999.222656 160.0
1011.117676 128.0
1020.480896 208.0
1023.592468 176.0
1041.885864 148.0
1049.035767 128.0
1050.867432 56.0
1051.996948 112.0
1055.945068 120.0
1056.889526 172.0
1057.640259 112.0
1061.171021 164.0
1062.734131 132.0
1072.143921 132.0
1081.352905 188.0
1089.359253 160.0
1089.43811 140.0
1090.515747 184.0
1106.142456 176.0
1106.844238 204.0
1113.323242 204.0
1117.384766 176.0
1117.471191 216.0
1125.402954 48.0
1126.79895 188.0
1126.97937 172.0
1127.507324 184.0
1128.074097 96.0
1132.351196 208.0
1133.295776 172.0
1138.038086 276.0
1157.444458 156.0
1162.7323 144.0
1167.209229 136.0
1168.467529 184.0
1177.595459 168.0
1177.882324 104.0
1178.886719 196.0
1188.933472 176.0
1194.416504 236.0
1194.609131 200.0
1199.884521 140.0
1201.995117 180.0
1207.245361 132.0
1207.722656 196.0
1207.784912 156.0
1211.121216 192.0
1211.259766 208.0
1213.220947 200.0
1220.796387 160.0
1221.631104 180.0
1225.139771 196.0
1227.049438 156.0
1233.255493 144.0
1233.395386 84.0
1234.444092 152.0
1242.49231 124.0
1243.004517 80.0
1246.192383 232.0
1248.350464 132.0
1254.90625 212.0
1258.158813 180.0
1263.23999 188.0
1269.678711 124.0
1271.21814 108.0
1272.226074 216.0
1272.964478 188.0
1274.811523 228.0
1275.79248 152.0
1275.891968 236.0
1276.347046 160.0
1277.342773 96.0
1282.769043 180.0
1283.082764 132.0
1284.066895 144.0
1284.180908 196.0
1285.258179 212.0
1286.88562 220.0
1289.421631 156.0
1292.396606 188.0
1297.023071 168.0
1299.016602 120.0
1304.323486 204.0
1305.703979 104.0
1307.459473 148.0
1308.69043 128.0
1308.942505 168.0
1309.424927 124.0
1311.947021 144.0
1319.253052 184.0
1320.373779 160.0
1322.544434 48.0
1322.613159 144.0
1322.732666 88.0
1323.831421 160.0
1325.129761 164.0
1325.318237 176.0
1329.277466 84.0
1330.496826 172.0
1333.838623 76.0
1335.001953 100.0
1341.394775 120.0
1341.467651 180.0
1344.74292 148.0
1346.210327 100.0
1346.487915 104.0
1347.649414 188.0
1349.008789 232.0
1352.066284 152.0
1359.225464 196.0
1361.832397 204.0
1366.750732 176.0
1368.414307 96.0
1381.055908 204.0
1383.542358 156.0
1388.388428 160.0
1389.87207 264.0
1390.206055 220.0
1392.589233 112.0
1395.695679 108.0
1397.443726 132.0
1399.535278 180.0
1406.289551 124.0
1407.835083 196.0
1408.55957 156.0
1408.686523 220.0
1409.485962 148.0
1412.050293 224.0
1412.110107 104.0
1415.635132 168.0
1422.060303 212.0
1422.795898 152.0
1422.886108 156.0
1424.102539 164.0
1426.988403 108.0
1427.251465 132.0
1429.76416 140.0
1430.027588 204.0
1431.239624 168.0
1431.887329 144.0
1433.800903 160.0
1437.768066 104.0
1441.755615 152.0
1444.356689 100.0
1444.976929 144.0
1445.135864 292.0
1447.649048 156.0
1447.868652 160.0
1448.050415 92.0
1448.701904 180.0
1450.604004 188.0
1450.793579 212.0
1451.604858 36.0
1455.087646 164.0
1456.447021 152.0
1457.138428 120.0
1457.259888 200.0
1460.635498 172.0
1463.398071 124.0
1465.965088 172.0
1466.170898 164.0
1470.159546 164.0
1470.480103 208.0
1473.236694 136.0
1475.5448 208.0
1475.965332 96.0
1477.625122 148.0
1479.645752 212.0
1484.917969 236.0
1485.846069 164.0
1487.204468 164.0
1489.369751 152.0
1490.529907 132.0
1491.060181 168.0
1493.112915 180.0
1498.540039 120.0
1498.593994 268.0
1499.557251 136.0
1500.621094 140.0
1501.315063 188.0
1502.317871 188.0
1503.282349 176.0
1505.057861 124.0
