>compound MLS001165721-01!lornoxicam
>formula C13H10ClN3O4S2
>ionization [M+H]+
>parentmass 371.987244
#inchi InChI=1S/C13H10ClN3O4S2/c1-17-10(13(19)16-9-4-2-3-5-15-9)11(18)12-7(23(17,20)21)6-8(14)22-12/h2-6,18H,1H3,(H,15,16,19)
#inchikey WLHQHAUOOXYABV
#Ion_Source LC-ESI
#Instrument qTof
#Compound_Source NIH Pharmacologically Active Library
#PI Dorrestein
#Data_Collector VP/LMS
#Scan -1
#Precursor_MZ 371.986
#ExactMass 370.98
#Charge 1
#CAS_Number N/A
#Pubmed_ID N/A
#Smiles CN1C(=C(O)c2sc(Cl)cc2S1(=O)=O)C(=O)Nc3ccccn3
#INCHI_AUX N/A
#Library_Class 1
#SpectrumID CCMSLIB00000085240
#IonMode Positive
#UpdateWorkflowName UPDATE-SINGLE-ANNOTATED-GOLD
#LibraryQualityString Gold
#TaskID d252d724072548979f1f6f1ced849daf
##Scan# 1817
#SpectrumFile p3-G05_GG5_01_18298.mzXML
#LibraryName Pharm_Active_Library.mgf
#MQScore -1
#Organism Pharm_Active_Library
#TIC_Query 0
#RT_Query -1
#MZErrorPPM -1
#SharedPeaks 0
#MassDiff 0
#LibMZ -1
#SpecMZ 371.986
#SpecCharge 0
#internalFilename spec-00000.mgf

>collision 10
44.911503 164.0
44.942192 228.0
44.963543 128.0
45.057022 76.0
45.173336 160.0
45.190731 156.0
45.210804 52.0
45.500355 84.0
45.846889 172.0
45.913486 160.0
45.940464 164.0
46.103855 176.0
46.147114 156.0
46.17416 80.0
46.202568 176.0
46.509666 192.0
46.677326 164.0
46.688206 104.0
46.697727 96.0
46.942883 132.0
47.012463 124.0
47.132641 144.0
47.181751 168.0
47.213299 92.0
47.29129 132.0
47.376301 156.0
47.455692 208.0
47.529766 208.0
47.653351 136.0
47.819756 176.0
47.865189 160.0
47.916153 144.0
47.9575 128.0
48.025066 144.0
48.125816 176.0
48.138245 144.0
48.163105 204.0
48.197647 188.0
48.243259 216.0
48.399612 152.0
48.423153 160.0
48.457787 200.0
48.495209 192.0
48.610325 224.0
48.721409 136.0
48.732525 168.0
48.822887 140.0
48.89941 160.0
48.9189 184.0
49.098656 184.0
49.13353 216.0
49.203316 184.0
49.231243 136.0
49.354221 136.0
49.424164 180.0
49.44236 152.0
49.770409 244.0
49.805519 136.0
49.843456 48.0
49.920776 208.0
50.064327 184.0
50.088272 240.0
50.106586 156.0
50.199623 144.0
50.285686 48.0
50.465107 196.0
50.506123 196.0
50.535831 128.0
50.688766 216.0
50.77383 208.0
50.812134 228.0
50.968327 148.0
51.180283 132.0
51.208763 188.0
51.532612 184.0
51.578346 192.0
51.634109 176.0
51.645554 220.0
51.903355 104.0
52.051163 236.0
52.344532 124.0
52.400024 172.0
52.432411 204.0
52.540565 208.0
52.555531 108.0
52.645943 180.0
52.817947 132.0
52.951115 156.0
52.974293 228.0
52.987331 68.0
53.051105 92.0
53.120716 84.0
53.183117 28.0
53.245552 148.0
53.364719 176.0
53.514591 160.0
53.526241 96.0
53.552456 160.0
53.785767 112.0
53.806206 180.0
53.862885 188.0
53.928921 60.0
53.940617 116.0
53.971321 176.0
54.111794 160.0
54.314041 192.0
54.368332 140.0
54.409431 172.0
54.441738 120.0
54.475521 204.0
54.715252 116.0
54.737339 76.0
54.939278 180.0
54.961407 136.0
55.141586 112.0
55.268772 152.0
55.476135 48.0
55.536934 148.0
55.654182 112.0
55.680912 148.0
55.755199 220.0
55.884583 120.0
56.03199 168.0
56.055832 224.0
56.222866 136.0
56.276608 156.0
56.364742 192.0
56.399117 188.0
56.418552 212.0
56.460423 244.0
56.473881 40.0
56.485847 72.0
56.567299 156.0
56.64753 160.0
56.732956 168.0
56.881477 220.0
56.931026 52.0
57.099358 164.0
57.231792 240.0
57.314644 124.0
57.420174 152.0
57.503338 172.0
57.533352 172.0
57.54845 124.0
57.568085 124.0
57.601315 208.0
57.6134 184.0
57.654198 172.0
57.959896 192.0
58.27552 136.0
58.330235 224.0
58.401707 116.0
58.415398 188.0
58.456482 40.0
58.541737 156.0
58.581337 64.0
58.75209 148.0
58.774979 164.0
58.823818 252.0
59.0821 128.0
59.147907 152.0
59.219875 116.0
59.454464 212.0
59.498344 168.0
59.661842 132.0
59.823341 144.0
60.046165 220.0
60.062977 196.0
60.19035 168.0
60.30468 128.0
60.349514 168.0
60.400551 156.0
60.433041 180.0
60.522823 108.0
60.546051 128.0
60.649864 152.0
60.713436 184.0
60.733601 160.0
60.851551 156.0
60.896587 212.0
61.108013 212.0
61.159374 132.0
61.425846 144.0
61.550491 144.0
61.561642 64.0
61.582153 268.0
61.594017 220.0
61.849335 140.0
61.965229 92.0
61.979328 192.0
62.082798 116.0
62.180073 216.0
62.197338 152.0
62.266426 152.0
62.483364 44.0
62.497879 220.0
62.571507 188.0
62.787395 188.0
63.005238 176.0
63.095329 124.0
63.149094 148.0
63.221878 128.0
63.234539 148.0
63.253532 60.0
63.30154 128.0
63.350136 36.0
63.648327 156.0
63.683266 188.0
63.718216 124.0
63.737286 148.0
63.831074 176.0
63.926525 244.0
63.950401 168.0
64.001343 28.0
64.170433 176.0
64.232452 240.0
64.280312 156.0
64.371307 60.0
64.681496 144.0
64.692703 152.0
64.719925 192.0
64.909012 208.0
64.928253 172.0
64.949112 60.0
65.02433 168.0
65.080711 40.0
65.194771 140.0
65.230133 68.0
65.275154 208.0
65.431236 128.0
65.457001 104.0
65.512558 204.0
65.533897 260.0
65.60524 112.0
65.643936 128.0
65.690712 384.0
65.714912 128.0
65.824684 148.0
66.076851 152.0
66.122162 192.0
66.135109 188.0
66.253632 276.0
66.373268 216.0
66.548523 144.0
66.579376 212.0
66.704491 112.0
66.80117 188.0
66.88018 148.0
66.893204 132.0
67.049576 172.0
67.113937 208.0
67.184921 192.0
67.224083 156.0
67.294281 168.0
67.547607 160.0
67.719482 172.0
67.76535 72.0
67.852226 168.0
67.999863 132.0
68.014641 144.0
68.064751 180.0
68.737183 56.0
68.760567 168.0
68.803207 160.0
68.851097 144.0
69.014702 64.0
69.049431 176.0
69.173538 48.0
69.369019 100.0
69.417107 44.0
69.511665 216.0
69.558136 92.0
69.614594 88.0
69.667747 88.0
69.720917 200.0
69.874741 96.0
69.902191 196.0
70.092041 336.0
70.178719 168.0
70.192055 112.0
70.222076 216.0
70.435738 196.0
70.638016 164.0
70.666458 72.0
70.721687 92.0
70.880791 172.0
70.909286 164.0
70.937782 128.0
70.97802 128.0
71.024986 168.0
71.070282 36.0
71.14917 140.0
71.327248 196.0
71.542587 216.0
71.748131 36.0
71.776794 136.0
71.952278 108.0
72.133049 136.0
72.231133 184.0
72.36145 228.0
72.373299 140.0
72.480019 176.0
72.539345 188.0
72.571556 212.0
72.615646 56.0
72.714058 180.0
72.80574 72.0
72.905983 136.0
72.921272 188.0
72.933174 212.0
72.956978 104.0
73.042473 220.0
73.072632 144.0
73.178162 100.0
73.266724 188.0
73.478142 184.0
73.503738 68.0
73.689865 132.0
73.758224 80.0
73.773613 40.0
73.946381 200.0
74.052544 112.0
74.064529 96.0
74.295967 188.0
74.311409 144.0
74.393791 144.0
74.409241 160.0
74.426414 208.0
74.438438 192.0
74.887329 212.0
75.038979 124.0
75.259842 224.0
75.351387 128.0
75.584824 120.0
75.686958 160.0
75.813423 128.0
76.016327 164.0
76.111801 120.0
76.134384 180.0
76.422958 100.0
76.498856 236.0
76.701614 72.0
76.719048 212.0
77.027946 176.0
77.13105 184.0
77.346214 40.0
77.417999 160.0
77.467049 112.0
77.481064 172.0
77.747604 164.0
77.94429 104.0
78.084938 92.0
78.1166 180.0
78.23275 104.0
78.296143 228.0
78.387756 160.0
78.767105 168.0
78.848381 56.0
78.874901 72.0
79.124344 152.0
79.177467 228.0
79.195183 200.0
79.315681 164.0
79.391922 148.0
79.407883 128.0
79.420303 128.0
79.662506 236.0
79.6866 164.0
79.716805 236.0
79.803955 160.0
79.887505 180.0
80.00853 216.0
80.038795 148.0
80.063728 156.0
80.14389 184.0
80.15815 128.0
80.175972 216.0
80.220535 160.0
80.486382 148.0
80.523888 100.0
80.570335 32.0
80.808128 204.0
81.062408 184.0
81.164589 76.0
81.189697 80.0
81.347168 84.0
81.406853 140.0
81.521828 112.0
81.597328 144.0
81.842033 144.0
81.971657 180.0
82.04744 176.0
82.213394 144.0
82.265739 200.0
82.321716 152.0
82.377708 152.0
82.390358 200.0
82.534958 176.0
82.549423 176.0
82.583786 64.0
82.618156 156.0
82.632637 156.0
82.672447 176.0
82.858955 36.0
82.884323 56.0
82.955009 120.0
83.123695 152.0
83.150917 200.0
83.174515 120.0
83.243515 148.0
83.379768 152.0
83.51432 164.0
83.585274 60.0
83.68457 152.0
83.80014 128.0
83.82383 184.0
83.856636 108.0
83.905861 208.0
84.347664 144.0
84.397858 196.0
84.411659 212.0
84.455551 136.0
84.928146 148.0
85.124527 180.0
85.18882 188.0
85.311951 100.0
85.391022 116.0
85.453568 184.0
85.503258 220.0
85.516136 32.0
85.534546 184.0
85.573212 132.0
85.617409 168.0
85.816429 68.0
85.878365 144.0
86.222565 224.0
86.252136 204.0
86.285416 172.0
86.381584 140.0
86.437607 344.0
86.600014 88.0
86.729721 132.0
86.759384 216.0
86.85582 164.0
86.879936 212.0
86.91333 188.0
86.976433 152.0
86.989433 52.0
87.247665 112.0
87.323914 56.0
87.575188 176.0
87.638535 64.0
87.701324 168.0
87.733589 156.0
87.921989 184.0
88.028618 176.0
88.116203 220.0
88.131149 228.0
88.222733 120.0
88.248909 124.0
88.319107 176.0
88.376106 128.0
88.538971 104.0
88.658875 76.0
88.990913 172.0
89.064156 108.0
89.193817 168.0
89.265266 184.0
89.299118 104.0
89.391312 176.0
89.530624 132.0
89.598434 200.0
89.670044 124.0
89.722832 84.0
89.954697 208.0
90.017189 196.0
90.090096 180.0
90.139122 212.0
90.187233 168.0
90.234489 152.0
90.446381 208.0
90.810196 180.0
90.897469 252.0
90.961998 180.0
91.201347 148.0
91.467659 108.0
91.574295 136.0
91.677177 136.0
92.007179 168.0
92.312912 180.0
92.616302 192.0
92.725746 232.0
92.768623 224.0
92.793549 200.0
92.91246 288.0
93.058334 144.0
93.081375 88.0
93.204315 112.0
93.22229 136.0
93.283119 200.0
93.321571 152.0
93.33503 156.0
93.667999 168.0
93.716164 160.0
93.820244 108.0
93.841454 164.0
93.903168 176.0
94.050972 464.0
94.096146 108.0
94.138626 88.0
94.184982 136.0
94.302261 196.0
94.44207 228.0
94.491081 144.0
94.703819 160.0
94.744064 268.0
94.77507 148.0
94.817703 168.0
94.879128 216.0
94.937904 76.0
94.965057 172.0
94.992218 144.0
95.017441 160.0
95.03653 180.0
95.059883 32820.0
95.113647 76.0
95.138283 136.0
95.158615 76.0
95.194443 64.0
95.256233 180.0
95.310638 104.0
95.326538 44.0
95.392265 56.0
95.452545 184.0
95.524506 48.0
95.543961 176.0
95.584824 128.0
95.608177 208.0
95.670464 112.0
95.74057 100.0
95.81459 48.0
95.86525 40.0
95.921776 140.0
95.956871 60.0
95.988068 180.0
96.029022 160.0
96.062431 1140.0
96.102348 144.0
96.136482 264.0
96.187714 136.0
96.251511 132.0
96.278854 120.0
96.327682 216.0
96.374573 204.0
96.435158 96.0
96.484032 64.0
96.560295 136.0
96.622894 176.0
96.677254 128.0
96.699211 88.0
96.723274 164.0
96.750114 96.0
96.822563 140.0
96.861267 172.0
96.881287 172.0
96.926392 188.0
96.996956 116.0
97.014595 188.0
97.067535 128.0
97.202896 140.0
97.26178 204.0
97.314781 136.0
97.363083 208.0
97.568245 36.0
97.623299 156.0
97.640999 192.0
97.723625 204.0
97.827934 192.0
97.902763 160.0
98.011108 136.0
98.271393 108.0
98.395744 156.0
98.423386 172.0
98.486588 80.0
98.575493 148.0
98.615021 160.0
98.644676 148.0
98.66642 52.0
98.698059 232.0
98.971367 68.0
99.020638 180.0
99.058273 160.0
99.137535 220.0
99.208893 104.0
99.258461 208.0
99.38343 112.0
99.409233 160.0
99.574013 212.0
99.597847 128.0
99.728996 88.0
100.587547 140.0
100.791267 84.0
100.889206 204.0
100.907204 44.0
100.923203 176.0
100.950699 1888.0
100.988274 176.0
101.003197 108.0
101.101242 124.0
101.285454 204.0
101.348976 164.0
101.383629 160.0
101.927483 156.0
101.965668 148.0
102.313675 136.0
102.378113 132.0
102.853958 228.0
102.894333 132.0
103.144844 116.0
103.280327 72.0
103.332924 216.0
103.855598 156.0
103.983429 164.0
104.073959 156.0
104.111343 144.0
104.208847 136.0
104.403999 96.0
104.627838 60.0
104.705215 140.0
104.766327 160.0
104.790779 172.0
104.882484 92.0
104.954529 1628.0
105.042732 540.0
105.270149 236.0
105.331421 36.0
105.427452 112.0
105.527618 160.0
105.674889 76.0
105.79155 136.0
105.818169 148.0
105.958412 340.0
106.037361 136.0
106.057861 192.0
106.09066 192.0
106.127571 112.0
106.158325 144.0
106.21138 208.0
106.250633 136.0
106.441528 236.0
106.687721 92.0
106.815598 104.0
106.906128 44.0
106.95385 736.0
107.060966 528.0
107.12233 44.0
107.161476 208.0
107.20475 84.0
107.254219 160.0
107.34906 196.0
107.522362 140.0
107.953133 148.0
107.981041 240.0
107.997223 68.0
108.014137 220.0
108.150711 212.0
108.289436 144.0
108.446671 172.0
108.594131 204.0
108.82077 96.0
108.968536 328.0
109.015602 152.0
109.063408 132.0
109.150726 52.0
109.240166 144.0
109.256805 144.0
109.27137 168.0
109.452461 144.0
109.685814 124.0
109.82135 104.0
109.844429 128.0
110.003944 168.0
110.023773 156.0
110.339256 184.0
110.376892 172.0
110.590294 68.0
110.822762 128.0
111.078537 180.0
111.41864 88.0
111.832924 48.0
111.889763 264.0
111.904495 156.0
112.513832 156.0
112.923798 196.0
112.950256 752.0
112.991493 108.0
113.061325 168.0
113.083565 204.0
113.126938 224.0
113.540138 128.0
113.59317 144.0
113.64621 188.0
113.72261 168.0
113.77356 84.0
113.892479 104.0
113.958611 408.0
114.168907 148.0
114.287926 108.0
114.332611 172.0
114.428406 188.0
114.801315 256.0
114.903702 36.0
114.964676 1268.0
115.174828 100.0
115.207397 164.0
115.294487 172.0
115.446274 172.0
115.508308 148.0
115.720184 184.0
115.970886 256.0
116.569633 100.0
116.597572 192.0
116.760979 48.0
116.819054 204.0
116.958931 168.0
116.973999 88.0
117.057968 204.0
117.096733 76.0
117.25618 224.0
117.275574 180.0
117.340248 192.0
117.357498 200.0
117.374748 128.0
117.514961 68.0
117.549484 228.0
117.633659 200.0
117.70491 148.0
117.763222 136.0
117.873413 128.0
117.967514 184.0
118.295181 172.0
118.364464 48.0
118.427269 180.0
118.511642 144.0
118.771927 164.0
118.965858 252.0
119.059517 164.0
119.112732 140.0
119.217033 184.0
119.345284 236.0
119.413513 236.0
119.471436 244.0
119.608536 52.0
119.737007 96.0
119.756607 168.0
119.900414 64.0
120.026855 208.0
120.054939 368.0
120.098831 176.0
120.439354 108.0
120.480858 152.0
120.518005 144.0
120.62291 156.0
120.642586 172.0
120.680252 140.0
120.754105 156.0
120.79348 140.0
120.839424 152.0
120.868111 368.0
120.902885 80.0
120.924774 184.0
120.949692 208.0
120.969131 136.0
120.986534 188.0
121.039322 77240.0
121.094193 116.0
121.111229 64.0
121.145851 112.0
121.172234 100.0
121.198524 84.0
121.224823 28.0
121.242355 136.0
121.266899 100.0
121.281258 80.0
121.321266 48.0
121.355034 140.0
121.399017 348.0
121.445534 156.0
121.47039 80.0
121.498917 92.0
121.542793 192.0
121.567635 100.0
121.626778 76.0
121.703041 52.0
121.746956 72.0
121.808456 104.0
121.848007 96.0
121.892265 84.0
121.927116 52.0
122.007431 276.0
122.041664 6764.0
122.085411 72.0
122.105202 44.0
122.138672 112.0
122.173393 92.0
122.190994 44.0
122.235001 60.0
122.375885 56.0
122.470581 116.0
122.580742 60.0
122.657883 48.0
122.71962 104.0
122.746078 100.0
122.789696 180.0
122.820633 164.0
122.854156 124.0
122.917038 112.0
122.949043 240.0
122.970627 128.0
122.990974 256.0
123.014046 408.0
123.052963 1272.0
123.084961 148.0
123.110146 152.0
123.18972 80.0
123.499207 56.0
123.72271 100.0
123.806854 168.0
123.948639 112.0
123.973015 112.0
123.990746 220.0
124.01815 328.0
124.057243 252.0
124.261292 120.0
124.327858 176.0
124.414429 56.0
124.765457 120.0
124.94561 108.0
124.999008 84.0
125.03054 144.0
125.163742 108.0
125.502449 252.0
125.703209 100.0
125.875099 100.0
126.069458 76.0
126.098511 140.0
126.982925 168.0
127.003113 116.0
127.265694 48.0
127.575752 208.0
127.667946 52.0
127.847923 200.0
128.431488 172.0
128.718124 56.0
128.853653 120.0
128.94429 176.0
129.057068 60.0
129.944122 184.0
130.006668 172.0
130.153809 40.0
130.283264 56.0
130.328705 108.0
130.428711 180.0
130.884659 208.0
130.915619 272.0
130.944717 88.0
130.96933 304.0
130.990021 192.0
131.015854 124.0
131.050018 156.0
131.777893 180.0
131.798462 140.0
131.944748 180.0
131.967606 148.0
132.05452 100.0
132.116272 120.0
132.276474 148.0
132.604034 144.0
132.633835 72.0
132.943466 164.0
132.969727 312.0
133.147797 136.0
133.458038 64.0
133.787064 64.0
133.835403 48.0
133.855362 156.0
133.89299 208.0
134.008072 332.0
134.044861 208.0
134.132904 160.0
134.15567 92.0
134.254822 184.0
134.367859 168.0
134.795029 192.0
134.959579 152.0
135.012909 356.0
135.050583 520.0
135.209 220.0
135.336319 124.0
136.015625 208.0
136.087509 628.0
136.722229 80.0
136.894501 208.0
136.928101 664.0
136.96286 148.0
137.083206 176.0
137.127487 48.0
137.598709 32.0
137.666428 208.0
137.692123 196.0
137.99826 204.0
138.084778 184.0
138.398376 124.0
138.590454 160.0
138.848328 156.0
138.883499 148.0
138.923386 192.0
138.951538 168.0
138.972656 104.0
139.428238 68.0
139.47995 68.0
139.57869 100.0
140.57045 192.0
140.657776 92.0
140.830154 52.0
141.411819 180.0
141.63678 120.0
141.921173 232.0
141.975571 128.0
142.153641 168.0
142.170258 48.0
142.566864 112.0
142.707123 184.0
142.76181 140.0
142.969162 552.0
142.988235 188.0
143.062363 196.0
143.083054 152.0
143.361755 56.0
143.380814 68.0
143.445175 168.0
143.962952 168.0
143.982056 124.0
144.187531 116.0
144.385971 116.0
144.888657 112.0
144.94986 3020.0
145.106766 160.0
145.171509 68.0
145.293839 68.0
145.459442 28.0
145.519455 272.0
145.836563 48.0
145.950897 588.0
146.065002 132.0
146.5923 116.0
146.891281 164.0
146.947083 1660.0
147.009506 168.0
147.349991 184.0
147.59169 84.0
147.925583 100.0
147.956131 376.0
147.978851 116.0
148.048874 1736.0
148.084244 184.0
148.305893 52.0
148.570221 36.0
148.926498 2164.0
148.963516 132.0
149.033585 508.0
149.05687 1356.0
149.211304 88.0
149.228424 172.0
149.92749 332.0
150.034332 124.0
150.061142 196.0
150.771515 56.0
150.941223 1256.0
151.020905 188.0
151.16037 304.0
151.292542 120.0
151.341507 96.0
151.361099 68.0
151.925323 184.0
152.014603 1292.0
152.391327 60.0
152.627304 40.0
152.656815 68.0
152.938248 604.0
153.020874 548.0
153.141678 128.0
153.980286 172.0
154.029617 160.0
154.215012 104.0
154.323792 192.0
154.452393 68.0
155.009476 168.0
155.274734 164.0
155.304504 120.0
155.776154 80.0
156.196274 28.0
156.216171 208.0
156.380402 188.0
156.654327 88.0
156.970032 668.0
157.338089 164.0
157.76239 112.0
157.956146 176.0
157.981613 324.0
158.19017 180.0
158.93457 100.0
158.96701 888.0
158.997299 152.0
159.165497 160.0
159.336304 180.0
159.627884 176.0
159.93335 172.0
159.993576 388.0
160.053162 92.0
160.943771 480.0
160.965256 200.0
161.011475 152.0
161.031479 156.0
161.047546 184.0
161.382965 196.0
161.504349 188.0
161.843491 108.0
161.942245 80.0
161.967575 60.0
161.995163 140.0
162.064636 3508.0
162.62941 60.0
162.938507 172.0
163.073471 508.0
163.127289 104.0
163.305298 188.0
164.080276 4672.0
164.119736 248.0
164.1483 88.0
164.228348 52.0
164.270721 80.0
164.293686 60.0
164.920898 2416.0
165.007538 160.0
165.082321 604.0
165.922852 56.0
166.079285 200.0
166.125458 152.0
166.299957 196.0
166.533615 120.0
166.917908 624.0
168.029297 212.0
168.073166 196.0
168.45787 164.0
168.579315 156.0
168.708557 84.0
168.760254 228.0
168.980118 156.0
169.011169 148.0
169.202698 124.0
169.933609 32.0
169.978882 648.0
170.325638 204.0
170.432159 192.0
170.970352 212.0
171.650406 72.0
171.890411 92.0
171.959152 332.0
171.979141 288.0
172.55127 56.0
172.904404 184.0
172.944382 556.0
173.037918 232.0
173.239578 152.0
173.924026 204.0
173.955521 152.0
174.370544 116.0
174.551956 80.0
174.968155 156.0
175.914154 188.0
175.935272 136.0
176.009201 184.0
176.495407 180.0
176.677917 128.0
176.720245 124.0
176.778473 152.0
176.921982 6416.0
176.961121 140.0
177.005814 164.0
177.046814 176.0
177.145355 52.0
177.467484 188.0
177.658173 188.0
177.721848 52.0
177.812073 128.0
177.92189 336.0
177.953522 2988.0
178.01384 116.0
178.03775 48.0
178.373474 168.0
178.862 108.0
178.919235 2076.0
178.987137 60.0
179.051056 112.0
179.168259 148.0
179.234863 88.0
179.323792 120.0
179.538773 80.0
179.617569 52.0
179.648148 128.0
179.874969 100.0
179.950882 1188.0
180.02449 68.0
180.071625 124.0
180.92836 160.0
180.954086 360.0
181.445374 88.0
182.721146 68.0
182.866455 64.0
182.957977 68.0
183.079147 116.0
183.966156 192.0
184.973099 336.0
185.69812 56.0
185.904312 204.0
185.980194 348.0
186.048187 140.0
186.325211 52.0
186.597 168.0
186.732971 84.0
186.898911 216.0
186.950623 120.0
186.982712 404.0
187.22287 92.0
187.743408 80.0
187.82251 128.0
187.937103 112.0
187.992035 2096.0
188.039856 1020.0
188.147263 100.0
188.26741 68.0
188.305649 76.0
188.343887 68.0
188.42038 52.0
188.921921 312.0
188.990158 192.0
189.040482 288.0
189.062988 208.0
189.331284 208.0
189.509354 80.0
189.588821 76.0
189.629929 128.0
189.676529 52.0
189.950745 292.0
189.986237 540.0
190.019333 160.0
190.057755 256.0
190.777359 180.0
190.918976 124.0
190.958694 144.0
190.991867 220.0
191.068893 116.0
191.159698 188.0
191.291809 72.0
191.90773 544.0
191.946716 412.0
192.093735 120.0
192.480148 76.0
192.717697 180.0
192.803375 100.0
192.917145 6284.0
192.965256 228.0
193.270721 40.0
193.337143 68.0
193.583542 40.0
193.922821 824.0
194.445755 60.0
194.817856 136.0
194.88176 92.0
194.91301 2396.0
194.948456 148.0
195.044556 148.0
195.582596 132.0
195.664642 76.0
195.914169 204.0
196.859558 76.0
196.943359 132.0
197.869003 148.0
199.957565 100.0
200.036194 164.0
200.692841 156.0
200.96196 172.0
201.003128 92.0
201.03981 96.0
201.262833 80.0
201.745972 112.0
201.920898 492.0
201.972794 136.0
202.008987 136.0
202.108246 144.0
202.144791 48.0
202.535507 224.0
202.970657 152.0
202.988983 232.0
203.025864 128.0
203.931564 2460.0
203.982025 192.0
204.241516 136.0
204.434982 156.0
204.514679 136.0
204.918945 372.0
204.923492 272.0
204.93454 420.0
204.990646 200.0
205.172745 68.0
205.637726 120.0
205.930603 1348.0
205.991653 160.0
206.060364 144.0
206.188965 56.0
206.918945 228.0
206.951294 156.0
207.179047 72.0
207.910248 76.0
207.940994 252.0
207.981949 364.0
208.015045 76.0
208.792267 196.0
208.852661 144.0
208.910767 820.0
208.979248 180.0
209.914444 116.0
209.975998 196.0
210.068298 48.0
210.255859 60.0
210.4897 44.0
210.909927 164.0
210.983795 56.0
211.028564 132.0
211.160187 128.0
211.469788 60.0
211.920807 140.0
211.955841 160.0
211.982407 204.0
212.03418 348.0
212.913681 164.0
212.963272 720.0
212.992096 124.0
213.012436 124.0
213.082153 88.0
213.967468 384.0
214.04306 216.0
214.079895 124.0
214.712326 104.0
214.878601 48.0
214.958801 148.0
215.141266 76.0
215.576492 68.0
215.966507 432.0
216.120407 188.0
216.345779 48.0
216.767563 124.0
216.928757 160.0
217.6241 64.0
218.020676 72.0
219.018387 220.0
219.666641 104.0
220.171387 132.0
220.991272 192.0
221.019821 140.0
221.938217 172.0
221.976639 172.0
222.998138 172.0
223.93222 80.0
224.262955 40.0
224.75206 200.0
226.028763 160.0
226.785736 180.0
226.929626 192.0
227.025589 216.0
227.579102 44.0
228.058426 124.0
228.99118 136.0
229.989227 180.0
230.242859 128.0
230.973602 288.0
231.019699 152.0
231.970093 184.0
232.970398 136.0
233.747437 80.0
233.940918 1128.0
234.009216 152.0
234.124924 56.0
234.161484 164.0
234.658203 68.0
234.941437 92.0
234.999908 172.0
235.042542 156.0
235.561584 124.0
235.939072 544.0
236.00029 280.0
236.953598 116.0
236.989349 448.0
237.241699 48.0
237.551437 64.0
237.939484 200.0
237.990326 208.0
238.146957 132.0
240.956482 184.0
241.96167 180.0
242.962738 208.0
244.793549 100.0
244.827805 56.0
244.936829 84.0
244.989777 168.0
247.000214 208.0
247.031494 188.0
248.001068 128.0
248.991165 372.0
249.732361 108.0
249.938385 1684.0
249.987198 136.0
250.01947 256.0
250.601257 40.0
250.943695 208.0
250.991028 164.0
251.013367 156.0
251.455872 36.0
251.935822 416.0
252.013901 148.0
252.081192 116.0
252.735779 112.0
252.937744 152.0
252.988983 116.0
253.014313 152.0
253.901581 48.0
254.036285 140.0
254.479126 80.0
255.041443 160.0
255.165421 168.0
255.423019 64.0
255.722137 40.0
256.907562 44.0
257.788818 112.0
257.945435 164.0
258.137268 92.0
259.043091 136.0
259.087921 100.0
260.00824 172.0
260.988861 456.0
261.11026 212.0
262.007416 148.0
262.015137 80.0
263.001617 132.0
263.24054 108.0
263.870636 88.0
263.989838 172.0
264.031036 212.0
264.99054 116.0
265.311401 104.0
266.005646 180.0
268.956451 220.0
271.963104 144.0
272.938873 152.0
274.002014 116.0
274.994629 140.0
275.922913 140.0
275.99234 124.0
276.981598 496.0
277.935577 224.0
278.005768 176.0
278.996307 152.0
279.368774 136.0
279.927979 104.0
279.991241 120.0
280.017883 212.0
280.957916 192.0
280.995728 160.0
282.955811 144.0
283.100555 168.0
283.465698 144.0
284.948853 128.0
284.972351 52.0
287.950378 140.0
288.288208 88.0
289.004578 148.0
290.014282 384.0
290.957428 112.0
290.987976 132.0
291.28006 72.0
291.967041 168.0
292.006165 116.0
292.06189 72.0
293.002533 168.0
294.010834 156.0
295.080017 152.0
295.938843 140.0
296.06897 144.0
296.17514 136.0
303.04483 52.0
305.005707 120.0
306.011108 144.0
307.01944 244.0
307.995483 152.0
309.017151 52.0
310.024841 28.0
310.999878 68.0
312.944 136.0
314.943634 128.0
324.635529 60.0
330.482086 144.0
335.953552 160.0
337.509766 56.0
337.963348 180.0
340.452454 208.0
340.941071 176.0
343.444794 72.0
347.696136 60.0
351.22348 72.0
354.955994 152.0
371.175903 100.0
371.987244 184.0
373.981506 232.0
374.238434 140.0
376.814972 96.0
388.899445 140.0
395.798859 64.0
400.250275 132.0
402.695007 64.0
418.162476 80.0
424.630371 108.0
447.437897 60.0
447.972778 32.0
460.345673 84.0
475.752472 64.0
491.32901 40.0
492.441467 108.0
497.5784 68.0
508.816345 80.0
516.224243 36.0
571.404236 56.0
580.182678 68.0
581.861877 116.0
613.567139 52.0
632.840759 60.0
729.034302 156.0
750.951477 268.0
774.38916 104.0
784.959961 172.0
788.784546 56.0
799.717285 80.0
807.48114 144.0
815.447388 172.0
818.878296 204.0
820.867371 128.0
822.253662 156.0
838.554382 184.0
848.056763 160.0
854.107361 204.0
855.044128 196.0
855.701904 168.0
856.517273 248.0
856.925049 76.0
857.583618 176.0
861.259705 168.0
865.166077 112.0
868.107544 208.0
868.37146 132.0
871.277283 176.0
886.198914 72.0
891.028625 220.0
891.771484 200.0
899.348083 164.0
900.78125 228.0
904.375122 132.0
906.884827 224.0
907.904114 128.0
914.037781 136.0
916.530762 104.0
917.254028 260.0
917.718262 220.0
923.782043 184.0
924.701843 224.0
928.324829 108.0
932.228394 84.0
935.640808 252.0
937.06604 224.0
937.21228 112.0
937.992371 184.0
943.749695 176.0
948.690613 132.0
950.407959 80.0
951.377747 76.0
957.607056 176.0
960.41156 156.0
965.674255 220.0
965.804138 56.0
967.029297 136.0
969.240234 200.0
969.593506 72.0
970.343567 148.0
970.67218 156.0
971.720459 164.0
972.024536 208.0
978.327148 156.0
982.714905 196.0
985.662231 152.0
986.16217 152.0
988.207153 156.0
990.498596 36.0
990.899536 176.0
998.086548 192.0
1000.156433 180.0
1003.29364 132.0
1004.163879 152.0
1004.744263 124.0
1006.018494 212.0
1006.075928 112.0
1007.585327 76.0
1008.583862 140.0
1008.90625 120.0
1013.482361 232.0
1016.247009 164.0
1017.611633 164.0
1019.339417 104.0
1019.828796 172.0
1022.073853 204.0
1024.486938 232.0
1025.506592 124.0
1028.938599 188.0
1031.104126 248.0
1033.572754 160.0
1034.071899 180.0
1034.891357 184.0
1036.838745 84.0
1037.358032 104.0
1040.103638 200.0
1041.028198 180.0
1041.541992 208.0
1042.004517 200.0
1042.929932 200.0
1043.01355 136.0
1044.151611 156.0
1046.146362 208.0
1046.745239 124.0
1047.56958 136.0
1047.672729 164.0
1047.83374 152.0
1048.349243 196.0
1051.942017 196.0
1056.679321 152.0
1060.221436 184.0
1060.273315 228.0
1060.422363 208.0
1060.571411 232.0
1062.049805 200.0
1062.932251 188.0
1063.016602 116.0
1064.223999 116.0
1064.483765 80.0
1066.003906 128.0
1066.40686 152.0
1068.071411 220.0
1069.717773 160.0
1071.215576 224.0
1072.069214 136.0
1072.688354 160.0
1074.631958 88.0
1075.460693 140.0
1075.983032 256.0
1080.008667 120.0
1088.344971 136.0
1088.778442 160.0
1089.974121 168.0
1090.756226 124.0
1092.867432 152.0
1096.756348 152.0
1098.738037 204.0
1100.077759 236.0
1100.242798 180.0
1100.870117 216.0
1101.755249 140.0
1102.495361 208.0
1103.348022 180.0
1105.266235 192.0
1107.033691 160.0
1107.272095 132.0
1110.374023 120.0
1110.433716 180.0
1110.806519 276.0
1112.570435 216.0
1113.639526 128.0
1113.79895 132.0
1115.141235 68.0
1115.526733 120.0
1117.261597 168.0
1118.846558 140.0
1122.057861 184.0
1124.733032 236.0
1125.734619 80.0
1126.796631 176.0
1126.950317 240.0
1127.979614 208.0
1128.133301 148.0
1129.591187 176.0
1129.678223 180.0
1130.507812 88.0
1131.424927 148.0
1132.121338 128.0
1132.657104 240.0
1133.608521 180.0
1134.915771 164.0
1135.438843 148.0
1135.532715 212.0
1136.653076 116.0
1137.505493 216.0
1137.626343 156.0
1138.808228 220.0
1139.869751 172.0
1140.165405 48.0
1140.783813 172.0
1142.202759 132.0
1142.592896 88.0
1145.791016 112.0
1145.939209 60.0
1146.040283 80.0
1146.22229 208.0
1148.386353 140.0
1148.723633 112.0
1149.762817 68.0
1151.146729 184.0
1151.254883 160.0
1151.552002 164.0
1152.254517 172.0
1153.788818 140.0
1155.371338 188.0
1155.608154 156.0
1156.765503 160.0
1158.770142 192.0
1160.132446 160.0
1161.183594 156.0
1163.259888 124.0
1163.714844 180.0
1163.762329 68.0
1164.794678 224.0
1166.547974 172.0
1166.724731 132.0
1168.914917 168.0
1169.228027 68.0
1169.636353 180.0
1170.106079 80.0
1174.549561 84.0
1175.593384 176.0
1175.900513 168.0
1175.948364 164.0
1176.200928 180.0
1178.276978 168.0
1180.601074 180.0
1183.379395 172.0
1183.92041 172.0
1184.24231 220.0
1185.105469 148.0
1185.75647 140.0
1185.886719 180.0
1186.448853 160.0
1188.520264 120.0
1188.932007 180.0
1191.067383 80.0
1192.46228 112.0
1192.579102 180.0
1193.706665 180.0
1194.016113 184.0
1195.805054 328.0
1196.039062 140.0
1196.748169 184.0
1199.249023 220.0
1199.710815 144.0
1201.138428 208.0
1202.352783 100.0
1202.766968 184.0
1203.125854 100.0
1203.250122 256.0
1204.313721 148.0
1204.500244 160.0
1204.893921 148.0
1206.213989 204.0
1206.566528 188.0
1206.76709 220.0
1207.036743 156.0
1207.354858 28.0
1207.45166 184.0
1207.548462 188.0
1207.797485 120.0
1208.219482 164.0
1210.164429 136.0
1211.092407 168.0
1212.595947 140.0
1213.420898 168.0
1214.20459 356.0
1214.419556 200.0
1216.661011 92.0
1217.640137 196.0
1218.953247 112.0
1219.584351 144.0
1220.927612 196.0
1221.087524 192.0
1221.609253 192.0
1222.910522 44.0
1224.323853 160.0
1226.170166 164.0
1226.539673 216.0
1226.918457 188.0
1228.352661 152.0
1230.572021 148.0
1230.655884 136.0
1230.914185 224.0
1231.221558 80.0
1231.857178 140.0
1232.094727 172.0
1232.416138 252.0
1234.205566 124.0
1234.282471 176.0
1234.708984 140.0
1235.275635 180.0
1235.513428 92.0
1236.500122 108.0
1237.33313 120.0
1237.858398 100.0
1237.984375 32.0
1238.495728 76.0
1240.765503 176.0
1241.579712 104.0
1242.519653 196.0
1243.123169 216.0
1245.369873 200.0
1246.620483 128.0
1247.084351 156.0
1248.286499 164.0
1248.785889 132.0
1248.870361 168.0
1249.039185 192.0
1250.516846 152.0
1255.625 56.0
1255.737915 128.0
1257.911255 144.0
1259.372925 164.0
1259.641357 240.0
1260.284302 104.0
1261.153564 176.0
1263.105225 208.0
1263.275024 152.0
1265.327393 40.0
1265.433716 200.0
1267.076904 112.0
1267.245605 108.0
1267.870483 160.0
1269.075684 132.0
1270.579346 148.0
1271.324341 160.0
1271.643799 160.0
1272.502808 204.0
1275.842041 148.0
1276.268677 152.0
1276.446411 148.0
1277.10791 208.0
1278.110962 136.0
1278.922363 128.0
1280.130981 80.0
1280.228638 176.0
1280.460327 176.0
1281.870972 160.0
1282.890259 164.0
1283.496216 152.0
1283.938354 228.0
1284.544678 228.0
1284.901367 216.0
1285.308105 220.0
1285.871948 128.0
1287.421265 196.0
1288.02124 60.0
1289.4646 160.0
1289.964966 168.0
1291.931641 160.0
1292.561279 152.0
1292.854614 184.0
1292.940552 180.0
1293.756592 164.0
1294.178955 116.0
1294.615845 128.0
1296.827759 220.0
1297.654175 164.0
1299.382202 180.0
1299.784546 228.0
1300.408936 156.0
1300.55249 88.0
1300.76062 172.0
1300.88269 124.0
1302.376343 188.0
1302.584717 196.0
1302.785767 180.0
1303.202515 180.0
1304.151123 160.0
1304.58252 308.0
1305.200806 176.0
1305.625122 60.0
1306.83374 180.0
1308.237183 100.0
1308.589966 128.0
1309.209229 204.0
1313.036255 60.0
1313.180542 124.0
1314.731689 184.0
1316.016724 160.0
1316.442749 116.0
1317.649048 160.0
1318.169312 232.0
1318.386108 140.0
1319.000488 116.0
1320.142822 244.0
1320.2948 68.0
1320.75769 140.0
1320.953003 168.0
1321.871826 204.0
1323.797485 180.0
1324.058228 128.0
1325.289795 160.0
1325.659302 180.0
1328.748413 164.0
1328.973267 96.0
1329.29248 172.0
1329.749878 40.0
1330.483032 92.0
1330.78064 156.0
1331.339844 208.0
1332.298706 140.0
1332.821777 148.0
1333.802979 184.0
1334.144653 164.0
1334.319092 232.0
1334.450073 156.0
1334.835449 132.0
1335.439087 188.0
1335.984619 128.0
1336.704956 140.0
1337.279907 156.0
1338.401123 96.0
1338.889038 144.0
1339.47168 140.0
1341.453857 192.0
1341.592407 244.0
1341.694458 152.0
1342.008057 196.0
1342.314331 156.0
1342.576782 192.0
1343.269775 160.0
1344.035889 224.0
1345.094116 188.0
1346.970825 216.0
1347.68689 148.0
1348.768555 216.0
1350.896484 120.0
1352.1698 188.0
1352.84314 152.0
1353.092163 164.0
1353.450928 120.0
1354.820557 124.0
1354.93042 152.0
1355.875732 212.0
1356.146973 136.0
1356.865356 184.0
1357.614258 240.0
1358.354126 192.0
1358.471558 160.0
1359.226562 156.0
1360.115356 196.0
1360.43103 200.0
1360.599854 156.0
1360.981689 72.0
1361.356201 168.0
1361.481079 52.0
1361.686646 128.0
1361.767456 88.0
1362.311035 200.0
1362.751831 124.0
1363.383911 96.0
1364.229126 100.0
1364.714478 140.0
1365.192383 60.0
1365.471924 172.0
1369.424438 136.0
1370.551636 128.0
1370.831665 148.0
1371.096924 192.0
1371.996216 196.0
1372.777832 128.0
1373.839966 136.0
1375.640747 140.0
1376.201782 200.0
1376.840332 248.0
1377.294922 120.0
1377.390869 172.0
1379.090454 92.0
1379.149536 132.0
1379.452637 200.0
1380.643066 180.0
1380.813232 208.0
1382.144897 32.0
1383.684448 152.0
1384.195435 144.0
1384.587891 140.0
1385.45459 188.0
1386.008057 264.0
1387.841187 184.0
1388.115601 196.0
1388.360352 208.0
1388.849854 164.0
1390.33374 180.0
1390.793945 140.0
1391.491821 140.0
1392.957886 204.0
1393.155396 164.0
1393.645752 144.0
1393.861328 248.0
1394.143677 140.0
1394.953857 168.0
1395.97998 172.0
1396.291626 164.0
1396.731201 100.0
1400.981934 176.0
1403.277466 200.0
1404.836304 188.0
1404.970581 132.0
1406.007812 176.0
1407.291748 160.0
1409.15918 44.0
1409.428101 124.0
1412.15686 176.0
1412.500977 212.0
1413.353882 180.0
1414.237061 200.0
1414.805908 116.0
1415.008057 228.0
1415.142944 160.0
1415.6521 184.0
1418.559326 164.0
1418.694214 104.0
1419.346558 196.0
1420.088989 152.0
1420.494141 124.0
1422.017334 156.0
1422.850586 252.0
1424.00708 376.0
1424.803345 240.0
1425.186523 156.0
1425.472168 132.0
1425.66748 152.0
1426.968018 176.0
1427.554565 224.0
1427.742554 96.0
1428.908447 188.0
1429.390137 192.0
1429.962036 152.0
1431.106323 68.0
1432.974365 164.0
1433.230469 136.0
1433.584717 236.0
1434.308228 84.0
1434.790771 176.0
1436.297363 180.0
1436.766724 144.0
1437.030884 192.0
1437.543945 216.0
1437.800537 156.0
1438.396851 172.0
1439.446411 92.0
1440.0354 192.0
1441.108154 216.0
1441.470947 80.0
1441.629639 136.0
1441.924316 188.0
1443.322998 96.0
1444.132202 168.0
1445.213989 196.0
1446.826172 136.0
1448.893799 124.0
1449.280273 120.0
1449.628784 224.0
1450.136597 184.0
1450.212402 180.0
1450.735474 248.0
1451.046265 140.0
1451.622559 272.0
1453.048706 144.0
1453.793213 156.0
1453.95166 116.0
1454.02002 212.0
1454.217285 128.0
1454.687988 212.0
1454.748657 172.0
1456.214233 204.0
1456.30542 68.0
1457.171387 136.0
1457.619751 176.0
1457.729858 176.0
1459.383301 164.0
1460.493652 220.0
1460.866455 216.0
1460.9729 132.0
1462.342651 128.0
1463.74353 168.0
1464.527954 152.0
1465.518433 192.0
1467.439209 48.0
1467.690796 160.0
1467.942505 124.0
1468.148315 108.0
1468.964478 84.0
1469.025513 92.0
1469.590088 200.0
1469.658813 180.0
1469.986938 208.0
1470.872314 152.0
1471.582275 228.0
1472.506348 108.0
1473.331421 148.0
1474.531128 172.0
1475.524902 132.0
1476.557251 188.0
1477.199707 68.0
1477.612915 144.0
1477.735352 64.0
1478.791382 220.0
1480.256348 140.0
1481.808716 148.0
1482.061523 168.0
1484.867432 160.0
1485.258545 60.0
1485.680542 156.0
1486.363403 68.0
1486.432495 176.0
1486.639648 44.0
1486.716431 120.0
1488.758545 76.0
1488.850708 148.0
1490.21814 180.0
1490.47168 100.0
1490.694458 176.0
1491.16333 100.0
1491.77832 204.0
1492.008911 160.0
1492.301147 32.0
1492.716309 84.0
1493.110962 224.0
1493.216187 196.0
1493.731567 172.0
1493.977783 152.0
1494.170166 132.0
1494.785645 112.0
1496.948853 188.0
1497.511108 164.0
1498.319946 148.0
1501.796753 132.0
1501.904785 244.0
1502.213257 104.0
1502.653076 140.0
1503.170044 320.0
1503.633057 188.0
1504.312378 128.0
1504.598022 196.0
