>compound N-[4-[[(2,4-diamino-6-pteridinyl)methyl]methylamino]benzoyl]
>formula C20H22N8O5
>ionization [M+H]+
>parentmass 455.180359
#inchi InChI=1S/C20H22N8O5/c1-28(9-11-8-23-17-15(24-11)16(21)26-20(22)27-17)12-4-2-10(3-5-12)18(31)25-13(19(32)33)6-7-14(29)30/h2-5,8,13H,6-7,9H2,1H3,(H,25,31)(H,29,30)(H,32,33)(H4,21,22,23,26,27)/t13-/m0/s1
#inchikey FBOZXECLQNJBKD
#Ion_Source LC-ESI
#Instrument qTof
#Compound_Source Commercial
#PI Dorrestein
#Data_Collector Garg_Neha
#Scan -1
#Precursor_MZ 455.179
#ExactMass 454.171
#Charge 1
#CAS_Number N/A
#Pubmed_ID N/A
#Smiles CN(Cc1cnc2nc(N)nc(N)c2n1)c3ccc(cc3)C(=O)N[C@@H](CCC(=O)O)C(=O)O
#INCHI_AUX N/A
#Library_Class 1
#SpectrumID CCMSLIB00000079189
#IonMode Positive
#UpdateWorkflowName UPDATE-SINGLE-ANNOTATED-GOLD
#LibraryQualityString Gold
#TaskID 278b19f5865741e282cec7349aa7e7a1
##Scan# 991
#SpectrumFile NCP003592_E2_F11_BE2_01_15736.mzXML
#LibraryName NIHcollectionI_05062014.mgf
#MQScore -1
#Organism NIHcollectionI_05062014
#TIC_Query 0
#RT_Query -1
#MZErrorPPM -1
#SharedPeaks 0
#MassDiff 0
#LibMZ -1
#SpecMZ 455.179
#SpecCharge 0
#internalFilename spec-00000.mgf

>collision 10
46.993172 204.0
49.395798 172.0
49.764374 160.0
50.275349 164.0
50.838589 148.0
58.578651 180.0
66.829483 148.0
72.047913 164.0
73.656647 200.0
75.502617 140.0
76.4916 196.0
76.765137 140.0
90.773979 176.0
104.158974 188.0
104.541199 148.0
106.286301 152.0
107.065392 152.0
113.417503 148.0
117.215332 184.0
120.046402 176.0
121.029709 156.0
121.312332 228.0
122.199577 228.0
122.67968 168.0
126.993614 140.0
128.275269 148.0
131.866165 148.0
133.052567 284.0
133.970306 152.0
134.061386 6028.0
134.426819 184.0
135.064575 1196.0
136.065567 144.0
139.993835 160.0
142.719803 140.0
147.865555 236.0
148.060425 292.0
160.064194 372.0
161.056091 600.0
166.309555 176.0
169.289902 188.0
169.375366 240.0
173.820526 180.0
175.074219 7960.0
175.6763 96.0
176.050171 164.0
176.078308 1960.0
176.742737 156.0
177.090561 984.0
177.866409 152.0
179.068146 392.0
186.2146 140.0
189.05304 1680.0
189.086151 160.0
190.055145 164.0
193.107864 228.0
202.637283 176.0
214.836777 176.0
219.066956 188.0
221.093521 228.0
221.557312 208.0
239.06987 168.0
249.13504 168.0
250.39006 144.0
254.074112 148.0
255.613495 328.0
255.638947 164.0
267.6138 172.0
279.929352 208.0
280.099213 144.0
280.139191 148.0
281.830658 172.0
284.872681 156.0
290.632355 280.0
291.077026 144.0
292.239471 188.0
293.864655 148.0
298.932434 152.0
304.581696 192.0
307.241241 164.0
307.653046 104.0
307.735382 116.0
307.838257 260.0
307.914795 224.0
308.002228 156.0
308.089935 3240.0
308.126312 23904.0
308.458679 108.0
308.603302 204.0
309.098114 692.0
309.129333 3540.0
310.083771 116.0
310.129852 304.0
311.12088 168.0
316.130463 172.0
326.093689 156.0
326.136078 112.0
327.127716 120.0
338.147888 164.0
346.844086 192.0
347.370636 188.0
348.291199 160.0
353.069305 168.0
368.805786 148.0
378.632294 180.0
381.631866 156.0
381.748535 188.0
392.466064 168.0
393.215576 180.0
410.139557 212.0
418.016754 152.0
418.281281 140.0
423.163788 156.0
435.215179 116.0
436.150482 208.0
452.942291 204.0
453.134094 108.0
455.083801 164.0
455.180359 13184.0
455.308716 156.0
456.183868 2724.0
456.385376 164.0
457.064056 100.0
457.183319 248.0
458.184082 120.0
459.255646 140.0
465.392334 172.0
761.212585 144.0
1548.695679 176.0
1553.641968 156.0
1588.54187 140.0
1684.783325 192.0
1763.963013 152.0
1779.243042 180.0
1867.753906 212.0
1891.083862 188.0
1899.212036 204.0
