>compound MLS001032152-01!5-[2-(4-hydroxypiperidin-1-yl)-2-oxoethoxy]-3,4,8,8-tetramethyl-9,10-dihydropyrano[2,3-h]chromen-2-one
>formula C23H29NO6
>ionization [M+H]+
>parentmass 416.204987
#inchi InChI=1S/C23H29NO6/c1-13-14(2)22(27)29-21-16-5-8-23(3,4)30-17(16)11-18(20(13)21)28-12-19(26)24-9-6-15(25)7-10-24/h11,15,25H,5-10,12H2,1-4H3
#inchikey OWRGTCNIAMOXMJ
#Ion_Source LC-ESI
#Instrument qTof
#Compound_Source NIH Natural Product Library
#PI Dorrestein
#Data_Collector VVP/LMS
#Scan -1
#Precursor_MZ 416.207
#ExactMass 415.199
#Charge 1
#CAS_Number N/A
#Pubmed_ID N/A
#Smiles Cc1c(C)c2c(OCC(=O)N3CCC(O)CC3)cc4OC(C)(C)CCc4c2oc1=O
#INCHI_AUX N/A
#Library_Class 1
#SpectrumID CCMSLIB00000079417
#IonMode Positive
#UpdateWorkflowName UPDATE-SINGLE-ANNOTATED-GOLD
#LibraryQualityString Gold
#TaskID b1d8e8f6646f4e71acdff9ca3d919d08
##Scan# 2030
#SpectrumFile p1-A06_GA6_01_17879.mzXML
#LibraryName NIH_Natural_Products_Library.mgf
#MQScore -1
#Organism NIH_Natural_Products_Library
#TIC_Query 0
#RT_Query -1
#MZErrorPPM -1
#SharedPeaks 0
#MassDiff 0
#LibMZ -1
#SpecMZ 416.207
#SpecCharge 0
#internalFilename spec-00000.mgf

>collision 10
95.293907 172.0
95.3386 44.0
95.377464 224.0
95.564156 172.0
95.856216 144.0
95.938072 140.0
95.979019 152.0
96.049225 176.0
96.08149 708.0
96.097992 64.0
96.207283 72.0
96.437775 104.0
96.480774 76.0
96.825836 140.0
96.887825 220.0
97.066177 240.0
97.085312 164.0
97.238808 136.0
97.2761 108.0
97.346779 228.0
97.527519 144.0
97.592392 124.0
97.710396 196.0
97.834381 100.0
98.023453 192.0
98.262024 132.0
98.338982 68.0
98.352798 216.0
98.572014 168.0
98.922073 184.0
99.122101 192.0
99.185516 136.0
99.280685 148.0
99.653854 204.0
99.713463 92.0
99.806892 140.0
99.828766 176.0
99.93618 188.0
100.029709 228.0
100.076126 14796.0
100.151169 148.0
100.171089 32.0
100.218903 156.0
100.243401 68.0
100.25676 144.0
100.358421 44.0
100.407959 128.0
100.436195 92.0
100.492401 68.0
100.681679 48.0
100.757576 68.0
100.975449 48.0
101.019455 56.0
101.033455 208.0
101.079254 1212.0
101.153526 164.0
101.2276 196.0
101.576324 56.0
102.092079 1232.0
102.14679 172.0
102.557549 196.0
102.609955 212.0
102.670448 168.0
102.803589 192.0
102.900475 112.0
103.053963 180.0
103.099335 212.0
103.179268 144.0
103.355225 88.0
103.902252 216.0
104.182777 220.0
104.302292 176.0
104.322624 88.0
104.50769 144.0
104.523964 108.0
104.578911 228.0
104.593163 80.0
104.613518 108.0
104.823296 136.0
104.900406 244.0
104.970055 164.0
105.072037 204.0
105.212852 144.0
105.39666 236.0
106.045364 84.0
106.178627 244.0
106.322227 116.0
106.743347 252.0
106.833839 152.0
107.046974 188.0
107.066422 72.0
107.086014 172.0
107.187958 132.0
107.82148 156.0
107.98687 236.0
108.007553 220.0
108.406403 220.0
108.508682 148.0
108.722328 116.0
108.751381 160.0
109.027374 420.0
109.067093 200.0
109.485268 176.0
109.589424 112.0
109.895905 164.0
109.985641 152.0
110.056618 132.0
110.15686 148.0
110.236252 140.0
110.271782 124.0
110.41185 184.0
110.685982 160.0
110.868225 168.0
111.623924 176.0
111.678604 60.0
111.77327 160.0
111.838509 196.0
112.071304 188.0
112.293602 112.0
112.367432 164.0
112.472939 128.0
112.751724 208.0
112.931435 144.0
113.04567 60.0
113.08622 316.0
113.210785 232.0
113.229843 92.0
113.29155 184.0
113.361191 140.0
113.426888 192.0
113.485283 72.0
113.558342 124.0
113.613495 248.0
113.821037 188.0
113.832687 204.0
113.866081 160.0
113.895813 72.0
113.961998 156.0
114.023293 176.0
114.045982 124.0
114.064804 188.0
114.091682 22544.0
114.174232 64.0
114.255058 176.0
114.338043 60.0
114.363579 144.0
114.441452 44.0
114.519859 120.0
114.55735 184.0
114.604218 36.0
114.657486 68.0
114.740616 212.0
114.793724 88.0
114.807732 92.0
114.879234 52.0
114.947502 48.0
115.009392 84.0
115.054214 188.0
115.094559 1260.0
115.169525 92.0
115.216522 96.0
115.466606 144.0
115.562859 52.0
115.851875 160.0
115.931152 88.0
115.975548 112.0
116.006165 100.0
116.095314 160.0
116.186302 88.0
116.566322 156.0
116.817871 72.0
116.868286 120.0
117.069344 152.0
117.272484 148.0
117.582756 168.0
117.627846 180.0
118.430267 156.0
118.506088 208.0
118.620941 140.0
118.807434 148.0
118.883377 200.0
119.084862 224.0
119.478706 60.0
119.785645 112.0
119.935989 80.0
120.058083 160.0
120.396332 132.0
120.420357 168.0
120.562363 148.0
120.597328 268.0
121.030472 180.0
121.064171 240.0
121.16407 188.0
121.236374 160.0
121.341583 172.0
121.47316 172.0
121.52581 188.0
121.576279 160.0
121.734337 236.0
122.066139 156.0
122.105728 124.0
122.251328 236.0
122.279526 124.0
122.541565 92.0
123.046608 136.0
123.070892 108.0
123.221085 240.0
123.559334 252.0
123.844887 156.0
124.008835 276.0
124.074203 388.0
124.093071 184.0
124.445839 64.0
124.539101 188.0
124.792435 148.0
125.028214 112.0
125.080223 260.0
125.467003 224.0
125.643181 80.0
126.089668 584.0
126.375977 176.0
126.458771 128.0
126.841782 232.0
126.915764 256.0
126.969574 76.0
127.039108 124.0
127.530594 176.0
127.614029 64.0
127.922325 92.0
128.070068 624.0
128.156448 96.0
128.329987 236.0
128.442749 104.0
129.064316 180.0
129.28093 60.0
129.43486 164.0
130.071915 176.0
130.528549 140.0
130.826599 88.0
131.492157 152.0
131.649673 132.0
132.012741 164.0
132.777893 216.0
132.887985 180.0
133.025681 116.0
133.049911 252.0
133.058334 324.0
133.567978 160.0
133.950073 168.0
134.072174 388.0
134.390396 160.0
134.570419 164.0
135.075317 152.0
135.409912 136.0
135.565018 196.0
136.003342 100.0
136.077621 148.0
136.112442 156.0
137.06662 132.0
137.406525 92.0
138.018448 144.0
138.755951 172.0
139.105484 108.0
139.185303 140.0
139.314484 236.0
139.751755 72.0
139.975357 128.0
140.07663 144.0
140.109604 144.0
140.932999 32.0
141.088974 176.0
141.547592 148.0
141.576385 176.0
141.638092 228.0
141.751678 132.0
141.844116 168.0
142.028458 172.0
142.057617 100.0
142.086334 26724.0
142.198837 72.0
142.240234 88.0
142.286469 184.0
142.389816 76.0
142.453949 52.0
142.494324 124.0
142.565613 40.0
142.598877 48.0
142.781937 68.0
142.862183 56.0
142.881851 76.0
143.024628 204.0
143.053177 44.0
143.09021 3128.0
143.176987 128.0
143.34613 72.0
143.377106 136.0
143.470062 140.0
143.710938 72.0
143.863678 40.0
143.887543 60.0
143.949631 60.0
144.037994 68.0
144.095047 352.0
144.126389 108.0
144.188507 76.0
144.257828 128.0
144.276947 76.0
144.427597 116.0
144.487396 144.0
145.062439 404.0
145.090897 288.0
145.12207 176.0
145.162827 104.0
145.210785 200.0
145.538483 36.0
145.707657 168.0
145.892441 160.0
146.0009 196.0
146.349808 180.0
146.501541 164.0
147.049103 168.0
147.082504 176.0
147.222702 172.0
147.377289 184.0
147.410568 88.0
147.437698 28.0
147.626266 260.0
147.703644 44.0
147.747406 220.0
147.856079 184.0
148.149048 160.0
148.287155 160.0
148.498093 80.0
149.056412 744.0
150.073853 124.0
150.095795 96.0
150.530121 96.0
150.732864 160.0
150.867294 220.0
151.133865 76.0
151.633408 148.0
151.861618 244.0
152.038315 196.0
152.259003 184.0
152.75795 152.0
152.826828 116.0
152.844055 60.0
152.878494 180.0
152.974487 160.0
153.659576 208.0
154.131149 100.0
154.279449 196.0
154.333832 180.0
155.051697 140.0
155.897934 156.0
156.106735 100.0
156.681686 184.0
157.035645 168.0
157.46991 188.0
158.067368 184.0
158.200027 132.0
158.332718 96.0
159.079895 180.0
159.103378 220.0
159.175293 100.0
160.057877 132.0
160.120834 136.0
160.862106 284.0
160.925217 136.0
161.021164 120.0
161.059387 552.0
161.314255 96.0
161.600037 160.0
161.860733 152.0
162.069107 340.0
162.098831 96.0
162.365005 188.0
162.621246 72.0
162.758331 200.0
163.034286 188.0
163.074936 628.0
163.261459 36.0
163.304688 116.0
163.52858 108.0
163.548935 140.0
163.984467 112.0
164.01506 148.0
164.067505 188.0
165.058975 552.0
165.107788 172.0
165.573547 128.0
166.004074 76.0
166.096405 160.0
166.317062 168.0
167.067383 168.0
167.129135 136.0
167.538483 168.0
167.992188 196.0
168.139252 160.0
168.281219 164.0
168.44133 164.0
168.754028 192.0
168.968689 172.0
169.101303 224.0
169.880554 140.0
169.903915 132.0
170.010284 220.0
170.085556 116.0
171.180069 132.0
171.246765 180.0
171.336334 60.0
171.617813 36.0
172.103104 144.0
172.636154 188.0
172.77478 68.0
173.058075 272.0
173.091461 188.0
173.628662 84.0
174.061447 168.0
174.095779 184.0
174.516205 136.0
174.626648 144.0
174.805527 48.0
174.945023 148.0
175.030014 156.0
175.076385 1332.0
175.126709 128.0
175.189926 40.0
175.274231 132.0
175.398102 60.0
175.543091 228.0
175.925659 124.0
175.949417 216.0
176.044464 192.0
176.079254 188.0
176.313919 52.0
176.895798 156.0
177.053528 684.0
177.0905 180.0
177.396454 220.0
177.823486 140.0
177.879227 132.0
177.932312 140.0
178.057098 364.0
178.615265 56.0
179.006485 140.0
179.073059 136.0
179.55011 160.0
179.915649 220.0
179.982391 156.0
180.19606 132.0
180.244156 156.0
180.827133 160.0
180.877975 188.0
182.92337 88.0
183.074142 180.0
183.101074 164.0
183.72641 144.0
184.079971 124.0
184.163696 212.0
184.677216 88.0
185.055115 272.0
185.283569 96.0
185.307953 48.0
185.584396 260.0
185.809509 196.0
186.078186 140.0
186.395966 64.0
187.077713 172.0
187.112244 168.0
187.405411 172.0
187.792496 140.0
188.043503 144.0
188.078979 196.0
188.117203 184.0
188.917862 228.0
189.053268 740.0
189.085831 144.0
189.112137 192.0
189.186035 156.0
189.292816 152.0
190.061798 2428.0
190.691895 48.0
190.889832 68.0
191.034531 180.0
191.067917 1596.0
192.0327 164.0
192.075485 172.0
192.234085 224.0
192.407974 40.0
192.468704 108.0
192.510132 144.0
192.534988 80.0
193.01857 168.0
193.068344 192.0
194.614532 116.0
195.059021 204.0
195.930023 184.0
195.99968 180.0
196.08606 208.0
196.727585 152.0
196.847641 164.0
196.900696 80.0
197.057114 172.0
197.57991 152.0
197.826172 200.0
198.134216 136.0
198.913788 140.0
199.071014 152.0
199.093475 80.0
199.748337 124.0
200.063507 188.0
200.108551 44.0
201.053909 116.0
201.083862 136.0
201.323822 144.0
201.657181 120.0
202.094345 196.0
202.539948 180.0
202.763779 152.0
202.976379 240.0
203.035934 172.0
203.070877 3220.0
203.169235 148.0
203.288406 52.0
203.333801 112.0
203.387726 64.0
203.495605 76.0
203.751205 84.0
204.073868 376.0
204.257202 112.0
204.376678 76.0
204.536057 148.0
204.681244 224.0
204.891998 132.0
205.047272 196.0
205.055969 96.0
205.084473 676.0
205.399414 176.0
205.983002 168.0
206.056473 256.0
206.441849 176.0
206.673538 144.0
208.040588 120.0
208.178406 192.0
209.055161 172.0
209.262802 144.0
209.633972 76.0
209.867447 196.0
210.087158 220.0
210.562881 160.0
210.591751 84.0
211.111954 196.0
211.664642 196.0
211.980377 84.0
212.566116 100.0
213.055145 304.0
213.097916 128.0
213.498581 60.0
213.585831 164.0
214.08989 188.0
214.159225 132.0
214.765472 164.0
214.931747 128.0
214.966766 168.0
215.068802 272.0
215.106857 176.0
215.261597 176.0
215.454361 152.0
215.655975 120.0
216.076675 184.0
216.434128 104.0
217.051788 496.0
217.084656 192.0
217.149139 128.0
217.466003 124.0
217.821274 72.0
217.885895 60.0
218.057419 1176.0
218.15921 148.0
218.185654 128.0
218.247406 160.0
218.441498 164.0
218.473862 84.0
218.51799 84.0
218.562119 116.0
218.606262 196.0
218.729858 200.0
218.89473 128.0
218.935959 140.0
218.999161 156.0
219.06424 9156.0
219.143616 288.0
219.298325 36.0
219.322525 152.0
219.522369 44.0
219.66394 148.0
219.814407 44.0
219.914749 60.0
219.947205 192.0
219.991486 112.0
220.069061 1176.0
220.242477 60.0
220.431549 56.0
220.458145 144.0
220.602966 80.0
220.795151 240.0
221.071411 316.0
221.375168 140.0
221.452164 120.0
221.53215 152.0
221.621017 152.0
221.813644 76.0
222.021194 96.0
222.071609 180.0
222.122025 316.0
222.602814 148.0
223.91127 176.0
224.012543 156.0
224.590805 128.0
224.733994 240.0
225.35202 128.0
225.890137 152.0
226.081619 164.0
226.120514 152.0
226.641571 228.0
227.06723 172.0
227.106216 128.0
227.580353 144.0
227.631409 236.0
228.076035 92.0
228.118118 156.0
228.271439 44.0
228.623398 60.0
228.713684 216.0
228.900345 128.0
229.026825 204.0
229.060638 160.0
229.12146 732.0
229.439651 100.0
229.546799 128.0
229.651978 48.0
229.880005 152.0
230.123444 372.0
230.34549 156.0
230.499023 160.0
230.571548 128.0
230.937363 96.0
231.064499 9496.0
231.206619 108.0
231.433655 52.0
231.530548 84.0
231.551743 60.0
231.706223 52.0
231.799347 120.0
231.88501 40.0
231.933502 60.0
232.068588 1656.0
232.143112 140.0
232.254898 48.0
232.27916 52.0
232.588654 48.0
232.652405 76.0
232.792068 64.0
232.852798 88.0
232.898361 124.0
233.083054 988.0
233.122116 148.0
233.171799 64.0
233.281219 204.0
233.414993 68.0
233.550278 156.0
233.60051 84.0
233.621796 104.0
233.719162 192.0
233.956543 32.0
234.08168 508.0
234.258026 188.0
234.376831 184.0
234.480438 208.0
234.687729 68.0
234.831055 84.0
234.937805 232.0
235.055588 168.0
235.96698 72.0
236.184097 140.0
236.428848 68.0
236.986145 208.0
237.574768 52.0
237.614655 132.0
237.718964 144.0
238.068924 56.0
238.532837 216.0
238.914154 172.0
239.366577 228.0
240.007477 180.0
240.09726 212.0
240.525757 148.0
240.658508 76.0
241.050781 184.0
241.08786 172.0
241.666077 44.0
241.851761 132.0
242.092392 192.0
242.393707 184.0
242.96109 44.0
243.03244 196.0
243.072144 268.0
243.093719 112.0
243.142181 176.0
243.389389 140.0
244.076782 224.0
244.122711 160.0
244.299988 144.0
244.897629 32.0
245.084366 272.0
245.115036 188.0
245.234116 108.0
245.876572 64.0
246.017029 92.0
246.074402 436.0
246.119965 248.0
246.288696 52.0
246.485504 68.0
247.026215 160.0
247.059402 960.0
247.131378 372.0
247.16716 68.0
247.279816 72.0
247.561569 80.0
248.034637 176.0
248.069122 124.0
248.103607 200.0
248.194519 32.0
248.31369 44.0
248.432877 120.0
248.583481 44.0
249.079514 164.0
249.156235 160.0
249.918884 140.0
252.195709 192.0
253.03714 152.0
253.116287 136.0
254.755966 176.0
255.102341 144.0
255.29628 160.0
256.106934 184.0
257.076447 224.0
257.123199 124.0
257.466461 172.0
258.048004 108.0
258.111969 172.0
258.163116 84.0
258.387024 128.0
258.508606 192.0
258.543793 92.0
258.697418 124.0
258.904449 224.0
259.059204 14748.0
259.127625 276.0
259.235504 68.0
259.257935 84.0
259.293182 40.0
259.411774 48.0
259.608276 136.0
259.645844 152.0
259.777344 48.0
259.825439 72.0
259.87677 92.0
259.944153 224.0
259.98587 164.0
260.063629 1888.0
260.134674 156.0
260.374329 76.0
260.522064 64.0
260.595978 88.0
260.669861 52.0
260.817688 68.0
260.97522 56.0
261.06842 480.0
261.100616 80.0
261.18103 48.0
261.464172 80.0
261.567139 84.0
261.734558 68.0
261.821503 120.0
261.844055 40.0
261.976105 152.0
262.079315 248.0
262.137207 128.0
262.440186 104.0
262.520782 112.0
264.828278 40.0
265.08493 416.0
265.635345 160.0
266.498901 128.0
266.541138 140.0
267.103546 120.0
267.520081 128.0
268.536682 168.0
268.588867 212.0
268.745453 92.0
269.111816 184.0
269.225281 164.0
269.555206 44.0
270.137146 164.0
270.209137 176.0
270.647705 88.0
271.069977 140.0
271.706299 124.0
272.090881 128.0
272.142792 136.0
272.826141 44.0
273.10556 408.0
273.194458 188.0
273.625549 92.0
273.684814 124.0
274.076782 124.0
274.118866 3564.0
274.215179 56.0
274.366821 52.0
275.085938 88.0
275.123199 404.0
275.591217 212.0
276.071228 112.0
276.987274 92.0
277.065063 120.0
277.109833 192.0
277.693268 100.0
278.330414 152.0
278.592773 152.0
278.815399 112.0
279.058044 104.0
279.387268 184.0
280.156281 124.0
281.677368 96.0
282.764008 108.0
282.799042 52.0
283.088043 96.0
284.128815 168.0
284.862946 184.0
285.126282 232.0
285.326691 148.0
286.136047 180.0
286.443909 260.0
287.127899 2660.0
287.343994 132.0
287.374359 28.0
288.078339 196.0
288.131866 516.0
288.204926 76.0
288.231964 32.0
288.471893 72.0
289.094208 136.0
289.133545 252.0
289.449646 56.0
289.530914 44.0
289.564789 44.0
289.679932 96.0
290.094788 76.0
290.147583 128.0
290.310333 92.0
290.815826 88.0
291.158722 212.0
291.688751 80.0
292.154633 204.0
293.298737 192.0
294.035461 76.0
294.469025 80.0
294.636414 80.0
295.593719 172.0
296.470367 76.0
297.110352 268.0
298.10379 160.0
299.105225 132.0
299.135559 200.0
299.503998 192.0
299.597015 88.0
299.793396 84.0
300.0867 572.0
301.089935 120.0
302.058685 132.0
302.088562 120.0
303.526642 96.0
303.876953 120.0
304.223999 100.0
304.421906 144.0
305.457581 172.0
305.662842 88.0
306.132782 148.0
306.247711 136.0
306.979553 160.0
307.139984 88.0
308.145325 68.0
309.138336 208.0
309.789551 160.0
310.851868 160.0
311.360901 52.0
313.112244 164.0
314.14032 492.0
314.321381 108.0
314.494293 68.0
314.558868 68.0
314.794373 96.0
315.121521 4016.0
315.402039 72.0
315.437988 68.0
315.787415 104.0
316.123169 780.0
316.732422 40.0
317.13678 108.0
317.171814 52.0
317.480255 52.0
317.80304 136.0
318.1362 196.0
318.260895 64.0
318.992737 124.0
319.017609 60.0
319.101959 144.0
319.142029 172.0
319.981689 56.0
320.223816 36.0
321.746399 140.0
322.746765 88.0
322.782501 36.0
323.011414 128.0
323.140198 100.0
324.122681 140.0
326.458008 140.0
326.899902 108.0
327.627777 84.0
328.103455 128.0
329.142548 140.0
330.133331 180.0
331.091095 112.0
331.145935 104.0
332.149719 224.0
333.496979 108.0
333.722351 68.0
334.086029 188.0
334.147888 140.0
336.283203 156.0
339.165344 100.0
339.59433 76.0
340.581635 160.0
341.695435 52.0
341.816864 88.0
341.941986 52.0
342.026642 168.0
342.132019 1484.0
342.269592 128.0
343.140076 156.0
343.179688 60.0
344.150024 332.0
345.806122 96.0
345.980072 176.0
346.180023 28.0
347.102692 56.0
347.299225 72.0
347.417938 156.0
348.140289 532.0
349.144409 136.0
349.364502 40.0
349.56543 64.0
349.639832 36.0
349.896667 60.0
350.12381 132.0
350.228088 188.0
351.517975 72.0
352.182495 160.0
353.03833 120.0
356.156372 196.0
356.359344 116.0
356.430725 80.0
357.152527 104.0
357.28418 196.0
357.318512 156.0
358.26297 156.0
358.662384 52.0
359.159058 160.0
359.782715 112.0
359.945068 324.0
360.018433 148.0
360.065887 144.0
360.143372 8080.0
360.266083 32.0
360.303864 60.0
360.33786 72.0
360.405853 128.0
360.519226 64.0
360.575928 36.0
360.719543 124.0
360.759216 72.0
360.897217 52.0
360.965271 68.0
361.146362 1616.0
361.290558 52.0
361.422974 60.0
361.487274 80.0
361.627319 68.0
361.952881 120.0
362.017242 132.0
362.085419 36.0
362.141693 484.0
362.180084 68.0
362.316467 120.0
362.403595 156.0
362.634766 76.0
363.010071 104.0
363.12384 124.0
363.165558 44.0
363.359009 152.0
363.533539 144.0
363.630371 72.0
364.403046 180.0
365.151886 136.0
367.605225 140.0
368.300049 64.0
368.65918 236.0
369.09494 72.0
370.193359 296.0
371.085907 148.0
371.212433 296.0
374.255615 88.0
374.390381 132.0
374.987518 148.0
375.743286 68.0
376.013397 112.0
377.299652 84.0
381.700195 80.0
382.338165 120.0
384.110901 128.0
385.543762 160.0
386.294434 76.0
388.213531 112.0
388.327271 48.0
388.456726 144.0
389.312317 168.0
391.486938 164.0
391.758698 176.0
395.023254 88.0
398.051147 104.0
398.193085 992.0
399.198151 216.0
399.267151 156.0
400.190308 136.0
400.628387 76.0
401.142426 84.0
402.674591 68.0
403.249878 128.0
403.909607 168.0
404.045624 144.0
404.429749 64.0
404.762024 96.0
406.33316 108.0
409.029602 200.0
410.552521 108.0
412.029785 164.0
413.283112 52.0
413.384277 56.0
413.880615 148.0
414.044128 72.0
414.092712 80.0
414.254364 88.0
414.368164 204.0
414.493774 60.0
414.566711 104.0
414.66803 72.0
414.963928 180.0
415.170715 168.0
415.405975 108.0
415.576355 100.0
415.657501 76.0
415.874786 96.0
415.990295 116.0
416.075531 152.0
416.130646 204.0
416.204987 18224.0
416.319153 80.0
416.369385 112.0
416.45105 56.0
416.604858 124.0
416.717499 156.0
416.846008 172.0
416.92038 48.0
416.95697 60.0
417.050446 96.0
417.127655 104.0
417.208282 5916.0
417.587128 40.0
417.713196 120.0
417.827118 92.0
417.855591 36.0
418.068909 132.0
418.140411 60.0
418.210114 732.0
418.287598 100.0
418.334259 96.0
418.40094 88.0
418.458893 68.0
418.555054 60.0
419.10144 48.0
419.170715 160.0
419.211456 156.0
419.260345 48.0
419.479797 104.0
419.631287 72.0
419.798462 148.0
419.875946 132.0
419.924866 68.0
420.059479 184.0
420.161469 108.0
420.222656 136.0
420.442993 152.0
420.483795 40.0
420.528687 104.0
420.811462 88.0
420.880676 124.0
420.912445 84.0
420.958771 160.0
421.022675 72.0
421.055969 80.0
421.289185 48.0
421.533295 76.0
422.596405 100.0
422.682312 72.0
423.886169 72.0
427.717865 88.0
430.909637 148.0
431.910034 76.0
441.199768 100.0
444.354584 128.0
444.932404 96.0
445.285126 112.0
446.125458 72.0
454.059235 96.0
457.530701 144.0
468.364624 36.0
477.23172 136.0
478.92453 108.0
479.011627 84.0
481.982605 64.0
499.574188 112.0
501.488831 76.0
501.916779 48.0
529.356018 60.0
539.769226 84.0
540.675903 44.0
546.606384 96.0
547.495483 84.0
552.845337 64.0
568.941589 56.0
569.406921 100.0
574.972229 108.0
630.358826 116.0
638.439575 72.0
658.008606 52.0
666.885803 52.0
673.269043 40.0
700.395752 104.0
722.922668 88.0
744.057068 92.0
744.390991 20.0
748.411926 96.0
758.650146 56.0
761.640686 72.0
791.320984 120.0
815.436157 60.0
838.07428 104.0
844.042419 124.0
845.928467 200.0
850.658569 192.0
850.844299 152.0
852.766968 152.0
866.784424 116.0
880.886536 64.0
885.63031 56.0
886.542725 244.0
886.904236 152.0
893.555054 92.0
896.842041 196.0
901.915405 108.0
904.493408 204.0
908.310242 212.0
911.432007 212.0
922.370117 156.0
930.305359 180.0
930.523926 68.0
933.975525 104.0
937.68335 204.0
948.409607 184.0
952.256531 120.0
957.305481 144.0
964.63501 128.0
972.073181 212.0
981.721252 72.0
983.967468 176.0
987.078979 128.0
994.797607 192.0
996.486938 52.0
1002.004395 168.0
1003.113525 168.0
1014.327087 132.0
1017.168762 124.0
1017.975037 176.0
1018.972229 176.0
1028.039185 180.0
1028.779541 80.0
1035.128296 196.0
1035.730225 20.0
1039.859253 160.0
1041.02771 184.0
1055.170654 176.0
1055.468018 36.0
1056.658081 212.0
1058.153442 204.0
1064.37085 164.0
1064.81897 104.0
1065.520386 156.0
1071.740234 48.0
1074.191528 168.0
1076.397461 168.0
1085.682983 104.0
1087.572388 128.0
1100.580566 132.0
1105.273438 152.0
1105.935181 116.0
1107.842163 92.0
1117.960815 136.0
1118.766113 28.0
1120.957275 180.0
1123.424194 144.0
1123.740479 124.0
1125.312744 200.0
1126.782104 148.0
1129.890747 120.0
1133.31189 76.0
1135.718506 152.0
1135.852661 188.0
1137.147583 40.0
1140.532715 80.0
1142.61731 124.0
1149.219849 156.0
1149.314209 144.0
1152.42688 204.0
1154.522217 136.0
1160.474121 156.0
1161.810181 100.0
1163.5271 232.0
1166.958008 152.0
1168.182129 132.0
1169.46814 104.0
1169.645142 132.0
1171.061279 128.0
1176.700562 100.0
1181.922241 136.0
1182.592896 220.0
1182.962524 156.0
1187.779663 104.0
1188.033447 32.0
1190.29834 236.0
1191.534668 196.0
1192.950317 160.0
1197.932373 176.0
1198.235474 148.0
1204.146851 176.0
1204.326416 156.0
1205.846436 120.0
1207.574829 172.0
1214.043213 212.0
1214.202637 48.0
1214.591064 112.0
1214.6604 100.0
1216.499268 196.0
1218.666016 156.0
1220.702515 164.0
1222.483398 156.0
1230.191772 204.0
1231.582153 152.0
1233.670532 228.0
1233.880249 136.0
1237.840454 160.0
1237.966431 116.0
1238.533691 180.0
1243.406494 156.0
1244.276855 80.0
1247.466187 52.0
1252.173218 184.0
1254.942627 200.0
1255.824097 164.0
1259.183472 164.0
1265.561768 132.0
1265.76001 292.0
1266.914551 68.0
1267.977295 140.0
1270.168091 204.0
1270.522827 148.0
1272.091064 172.0
1272.623535 144.0
1272.836548 180.0
1273.653198 168.0
1273.710083 128.0
1277.008057 136.0
1279.769043 176.0
1281.827515 144.0
1282.974976 160.0
1287.027344 184.0
1287.734253 116.0
1290.707031 120.0
1291.844238 188.0
1293.268066 208.0
1293.511475 84.0
1296.268799 116.0
1300.034302 172.0
1300.499878 152.0
1302.654053 116.0
1306.874023 180.0
1310.178467 208.0
1314.533325 56.0
1319.054321 188.0
1325.256348 168.0
1337.136108 152.0
1337.631104 220.0
1338.02417 176.0
1338.329956 160.0
1340.347534 116.0
1340.952393 216.0
1341.805176 124.0
1342.519775 36.0
1345.438232 184.0
1348.432983 60.0
1349.025024 264.0
1349.836548 232.0
1354.329956 192.0
1355.597412 140.0
1356.872803 176.0
1358.273315 204.0
1359.271118 152.0
1363.045288 228.0
1371.154663 160.0
1372.481567 152.0
1373.395996 128.0
1373.484497 68.0
1373.772217 132.0
1375.801514 228.0
1376.244507 192.0
1377.056763 184.0
1379.088501 112.0
1381.306763 112.0
1381.97998 128.0
1384.82251 164.0
1387.645752 120.0
1388.795166 148.0
1396.75 136.0
1396.898804 236.0
1400.218384 212.0
1401.052612 148.0
1401.521973 240.0
1402.237305 156.0
1404.175781 184.0
1404.354736 156.0
1405.026123 88.0
1405.45874 196.0
1405.645386 216.0
1408.661499 164.0
1410.454834 168.0
1413.311523 156.0
1413.670776 64.0
1415.519653 52.0
1417.294922 28.0
1419.01123 144.0
1419.468628 144.0
1419.760986 188.0
1420.038452 236.0
1421.171265 164.0
1421.974121 176.0
1426.13501 152.0
1428.330444 188.0
1428.87207 172.0
1429.353638 192.0
1429.842773 196.0
1432.40271 144.0
1432.523193 208.0
1435.002563 64.0
1439.189941 156.0
1446.674438 204.0
1447.022705 176.0
1447.885864 132.0
1451.401978 100.0
1453.343628 188.0
1454.2771 216.0
1455.749878 144.0
1456.175049 192.0
1457.033447 176.0
1459.237427 156.0
1462.158325 164.0
1463.315308 160.0
1465.714478 132.0
1466.148804 148.0
1467.078735 136.0
1467.719116 152.0
1471.19043 120.0
1471.297363 148.0
1472.08374 144.0
1474.306641 192.0
1476.355469 196.0
1476.538452 188.0
1482.969971 192.0
1484.641235 160.0
1485.914551 260.0
1486.858276 192.0
1487.134644 44.0
1488.155518 72.0
1488.316772 172.0
1488.692993 204.0
1489.169189 128.0
1489.238281 204.0
1490.590332 92.0
1490.9823 340.0
1491.689453 156.0
1492.019897 204.0
1493.473267 104.0
1493.733032 188.0
1495.904785 152.0
1496.335815 48.0
1502.215698 156.0
1502.377808 112.0
1502.632324 172.0
1503.843872 160.0
