>compound MLS000877003-01!(2R)-7-hydroxy-8-(2-hydroxyethyl)-5-methoxy-2-methyl-2,3-dihydrochromen-4-one
>formula C13H16O5
>ionization [M+H]+
>parentmass 253.105835
#inchi InChI=1S/C13H16O5/c1-7-5-10(16)12-11(17-2)6-9(15)8(3-4-14)13(12)18-7/h6-7,14-15H,3-5H2,1-2H3/t7-/m1/s1
#inchikey MFMBOHMTFYYVAI
#Ion_Source LC-ESI
#Instrument qTof
#Compound_Source NIH Natural Product Library
#PI Dorrestein
#Data_Collector VVP/LMS
#Scan -1
#Precursor_MZ 253.108
#ExactMass 252.1
#Charge 1
#CAS_Number N/A
#Pubmed_ID N/A
#Smiles COc1cc(O)c(CCO)c2O[C@H](C)CC(=O)c12
#INCHI_AUX N/A
#Library_Class 1
#SpectrumID CCMSLIB00000080484
#IonMode Positive
#UpdateWorkflowName UPDATE-SINGLE-ANNOTATED-GOLD
#LibraryQualityString Gold
#TaskID b1d8e8f6646f4e71acdff9ca3d919d08
##Scan# 1461
#SpectrumFile p2-F09_GF9_01_18045.mzXML
#LibraryName NIH_Natural_Products_Library.mgf
#MQScore -1
#Organism NIH_Natural_Products_Library
#TIC_Query 0
#RT_Query -1
#MZErrorPPM -1
#SharedPeaks 0
#MassDiff 0
#LibMZ -1
#SpecMZ 253.108
#SpecCharge 0
#internalFilename spec-00000.mgf

>collision 10
95.039032 152.0
95.147728 196.0
95.359459 176.0
95.501396 220.0
95.688217 168.0
96.212662 40.0
96.376724 148.0
96.838409 44.0
97.128502 148.0
97.169304 180.0
97.195206 180.0
98.46891 240.0
98.660583 176.0
98.704086 224.0
98.763412 136.0
98.820786 244.0
99.157425 160.0
99.900055 236.0
100.087143 184.0
100.66143 160.0
100.873215 52.0
101.161278 180.0
101.323494 136.0
101.646309 72.0
101.784813 124.0
101.995766 176.0
102.01989 136.0
102.060097 112.0
102.124451 128.0
102.388115 180.0
102.446526 88.0
102.914436 144.0
103.0336 100.0
103.087868 172.0
103.456276 108.0
104.06794 132.0
104.212769 188.0
104.316414 164.0
104.33065 80.0
104.43029 196.0
104.868042 108.0
105.034599 340.0
105.068726 420.0
105.178078 60.0
105.470177 112.0
105.523331 188.0
105.537643 72.0
106.209373 152.0
107.047447 372.0
107.064384 216.0
107.083778 500.0
107.348778 196.0
107.39415 140.0
107.427155 200.0
107.509689 60.0
107.61496 180.0
107.714844 104.0
107.984863 136.0
108.021538 1620.0
108.053131 160.0
108.799225 120.0
108.94252 188.0
109.026344 600.0
109.066216 612.0
109.131653 132.0
109.173241 80.0
109.893974 112.0
110.02755 208.0
110.299126 144.0
110.445496 188.0
110.545921 132.0
110.65686 132.0
111.006783 168.0
111.042572 304.0
111.430786 144.0
111.519043 144.0
111.643089 164.0
111.944023 156.0
112.118874 72.0
112.504883 144.0
112.830231 88.0
112.929611 136.0
113.395416 200.0
113.463249 148.0
113.511185 168.0
113.834564 168.0
114.051277 80.0
114.142693 44.0
114.637321 224.0
114.813499 84.0
115.053268 612.0
115.199837 188.0
115.357971 160.0
115.753792 148.0
115.935883 188.0
116.058067 552.0
116.266151 100.0
116.472267 136.0
116.530273 48.0
116.857079 140.0
117.063721 320.0
117.11541 180.0
117.855377 140.0
117.898598 156.0
117.922371 60.0
118.075874 56.0
118.218658 176.0
118.805847 124.0
119.046776 272.0
119.224915 76.0
119.627304 184.0
119.827667 84.0
120.392624 152.0
121.030411 1080.0
121.06398 316.0
121.099045 136.0
121.329132 144.0
121.572609 272.0
121.743843 152.0
121.954758 48.0
122.035004 1532.0
122.061417 124.0
122.311096 40.0
122.344116 184.0
122.615051 132.0
123.00972 340.0
123.042297 348.0
123.076103 148.0
123.823563 148.0
123.850143 52.0
123.932114 224.0
124.054008 132.0
124.082825 128.0
124.120522 160.0
124.317947 212.0
124.604385 208.0
124.648827 204.0
125.025208 208.0
125.060692 300.0
125.231705 264.0
125.592796 160.0
125.752609 192.0
125.795853 128.0
126.028122 100.0
126.513458 128.0
126.540321 160.0
126.948135 112.0
127.03331 160.0
127.058044 220.0
127.316177 128.0
127.419502 76.0
127.808708 200.0
128.061722 316.0
129.066879 140.0
129.277512 136.0
129.377106 136.0
129.456345 144.0
129.594528 120.0
129.623978 224.0
130.079865 96.0
130.538803 120.0
130.891525 196.0
130.980347 164.0
131.052261 400.0
131.088028 168.0
131.208221 100.0
131.377106 80.0
131.854218 276.0
131.950226 120.0
131.977661 104.0
132.024628 144.0
132.282196 180.0
132.859451 204.0
132.985657 200.0
133.031815 152.0
133.055084 180.0
133.297989 128.0
133.479584 168.0
134.032043 144.0
134.087341 168.0
134.567154 136.0
134.708038 252.0
134.978455 72.0
135.013138 176.0
135.041779 136.0
135.080841 444.0
135.119537 156.0
135.221359 48.0
135.320892 60.0
135.696243 140.0
136.223053 104.0
136.318314 180.0
136.650818 148.0
136.823044 212.0
136.944138 164.0
137.022598 5044.0
137.059326 340.0
137.095581 156.0
137.184143 196.0
137.347382 56.0
137.639099 156.0
137.982574 200.0
138.026321 452.0
138.059738 176.0
138.099503 136.0
138.237534 44.0
138.492722 56.0
138.757523 176.0
138.811462 132.0
139.017883 208.0
139.043701 96.0
139.164124 200.0
139.294937 208.0
139.348969 164.0
139.464127 184.0
139.720444 124.0
140.042938 124.0
140.272827 180.0
140.500259 156.0
140.691422 160.0
141.069397 136.0
141.161606 172.0
141.206543 192.0
141.249115 164.0
141.964401 140.0
142.567383 208.0
142.605804 172.0
142.681488 160.0
142.745682 192.0
142.798004 132.0
143.135941 176.0
143.290756 108.0
144.056183 148.0
144.08046 220.0
144.209488 148.0
144.503632 100.0
144.766937 40.0
145.067307 384.0
145.736023 120.0
145.79129 184.0
145.913895 120.0
145.933121 68.0
146.074463 152.0
146.61676 96.0
146.954361 140.0
147.044617 540.0
147.082413 184.0
147.176422 160.0
147.231964 40.0
147.519485 188.0
147.584763 80.0
147.855698 112.0
148.051804 148.0
148.068756 140.0
148.279541 156.0
148.779221 128.0
149.022675 508.0
149.05986 168.0
149.454895 56.0
149.515732 208.0
149.603363 200.0
149.868835 204.0
150.031448 6268.0
150.129654 64.0
150.417557 208.0
150.488358 76.0
150.539642 208.0
150.586044 128.0
150.930618 192.0
151.007584 212.0
151.034988 572.0
151.067581 180.0
151.241318 112.0
151.520493 220.0
152.039871 212.0
152.131149 116.0
152.19989 76.0
152.703674 56.0
153.035889 180.0
153.054855 172.0
153.203369 144.0
153.26004 176.0
153.457214 196.0
154.005066 60.0
155.014465 108.0
155.044205 148.0
155.064026 204.0
155.448425 216.0
156.057587 188.0
156.52977 168.0
156.564636 60.0
156.990784 140.0
157.066238 316.0
157.215302 256.0
157.250244 196.0
157.385056 156.0
157.864838 92.0
158.034927 92.0
158.059204 120.0
158.182587 108.0
158.643524 148.0
158.804001 244.0
158.992172 136.0
159.045029 128.0
159.082535 168.0
160.014938 440.0
160.055527 164.0
160.607452 124.0
160.927948 228.0
161.019363 324.0
161.061798 108.0
161.092117 204.0
161.349884 148.0
161.921768 156.0
162.063889 312.0
162.438843 92.0
162.588547 76.0
162.998627 244.0
163.038437 576.0
163.073654 292.0
163.429657 152.0
163.472916 76.0
163.834473 212.0
164.015411 96.0
164.048538 152.0
164.262756 188.0
164.301025 160.0
164.415848 156.0
164.551132 152.0
164.801437 288.0
164.916428 168.0
165.019043 6120.0
165.053589 336.0
165.085175 136.0
165.184921 60.0
165.218185 100.0
165.305176 128.0
165.445953 44.0
165.481796 116.0
165.934769 180.0
165.963486 80.0
166.022049 296.0
166.060135 216.0
166.833847 84.0
166.887848 104.0
166.918701 100.0
167.019882 164.0
167.062729 312.0
167.188812 140.0
167.271179 80.0
167.55188 68.0
167.572479 104.0
167.734848 68.0
167.799286 88.0
168.05098 172.0
168.075272 128.0
168.547806 144.0
169.215134 156.0
169.658157 128.0
170.340668 264.0
170.985489 132.0
171.042755 120.0
171.079193 156.0
171.097427 192.0
171.621109 232.0
171.947205 140.0
173.059753 276.0
173.251999 164.0
173.291306 108.0
173.53244 88.0
173.739624 216.0
174.067825 304.0
174.162262 88.0
174.333633 176.0
174.356689 72.0
175.038513 176.0
175.074905 188.0
175.673218 180.0
175.771851 156.0
175.852661 192.0
176.046951 572.0
176.106125 88.0
176.235565 96.0
176.476089 144.0
176.592453 120.0
176.674454 136.0
176.973526 80.0
177.016647 1616.0
177.053314 280.0
177.323212 180.0
177.466354 56.0
177.606903 152.0
177.718338 152.0
177.795288 84.0
178.025391 7776.0
178.056061 368.0
178.217514 68.0
178.241425 188.0
178.27066 48.0
178.310516 84.0
178.350388 100.0
178.429123 52.0
178.485977 88.0
178.549789 132.0
178.57373 68.0
178.706741 104.0
178.7435 60.0
178.752579 140.0
178.837143 180.0
178.877075 44.0
178.906357 108.0
179.033707 5056.0
179.069138 388.0
179.074707 1036.0
179.133408 136.0
179.159348 44.0
179.193985 48.0
179.233948 120.0
179.26059 60.0
179.372543 84.0
179.420517 64.0
179.441849 124.0
179.748596 188.0
180.037354 544.0
180.076965 232.0
180.114349 72.0
180.207855 92.0
180.37355 52.0
180.424347 64.0
180.785446 128.0
180.905884 56.0
181.014435 148.0
181.040924 248.0
181.112076 172.0
181.144226 256.0
181.814529 104.0
181.938004 184.0
182.134033 192.0
182.222687 96.0
182.451141 68.0
183.032303 108.0
183.506531 92.0
184.053314 400.0
184.121765 276.0
184.208206 184.0
184.908524 176.0
185.068588 180.0
185.903122 48.0
186.419098 128.0
186.720856 96.0
186.821503 160.0
187.042175 296.0
187.093643 156.0
187.129044 156.0
187.401413 108.0
188.042328 140.0
189.042511 160.0
189.090637 176.0
189.477875 52.0
189.812256 56.0
190.020721 192.0
190.05365 96.0
190.075592 44.0
190.361084 112.0
190.9272 144.0
191.033981 204.0
191.069946 796.0
191.408783 72.0
191.874435 92.0
192.043518 524.0
192.072983 128.0
192.426224 140.0
192.527191 136.0
192.564285 64.0
192.689713 120.0
192.741104 48.0
192.812943 96.0
192.837814 104.0
192.900909 68.0
192.99263 112.0
193.049469 8072.0
193.186234 112.0
193.37439 56.0
193.426559 80.0
193.457428 132.0
193.519135 56.0
193.543945 180.0
193.604187 56.0
193.676193 80.0
193.875671 116.0
193.972687 36.0
194.053665 1032.0
194.087433 216.0
194.139038 44.0
194.25415 88.0
194.291595 68.0
194.333206 36.0
194.358185 28.0
194.832962 88.0
195.01358 56.0
195.056 208.0
195.088638 192.0
195.135895 224.0
195.319443 116.0
195.361176 176.0
195.427933 108.0
195.47525 96.0
195.675262 200.0
195.7202 72.0
195.851089 56.0
196.033676 224.0
196.252396 80.0
197.047852 112.0
197.40004 168.0
197.746948 172.0
198.912994 144.0
199.07515 484.0
200.206345 104.0
201.053299 288.0
201.320297 208.0
201.738464 128.0
202.06427 1284.0
202.291779 148.0
203.064926 308.0
203.296295 144.0
203.622772 52.0
204.0746 144.0
204.132462 220.0
204.57637 176.0
205.050034 8824.0
205.133987 72.0
205.182144 52.0
205.219208 76.0
205.350388 76.0
205.370346 84.0
205.497589 60.0
205.578613 92.0
205.709915 68.0
205.789856 80.0
205.818405 88.0
205.912643 84.0
206.050888 936.0
206.275528 56.0
206.478531 48.0
206.733154 88.0
206.904892 92.0
207.007965 48.0
207.063766 796.0
207.103394 216.0
207.12825 248.0
207.429138 136.0
207.506546 128.0
208.067764 320.0
209.063416 112.0
209.406006 100.0
209.901703 112.0
210.008408 112.0
210.880371 120.0
211.121948 144.0
214.304718 172.0
216.947556 180.0
217.083893 464.0
217.278168 76.0
218.094543 136.0
218.291519 136.0
218.729889 188.0
219.064697 844.0
219.543091 204.0
219.614182 168.0
219.681717 108.0
219.737762 180.0
220.072113 5292.0
220.12738 104.0
220.248474 80.0
220.348923 56.0
220.393234 48.0
220.668121 88.0
220.878082 96.0
221.076385 612.0
221.138474 48.0
221.718964 80.0
221.745636 48.0
221.917572 44.0
222.083649 236.0
222.199341 56.0
222.226044 104.0
222.392227 116.0
222.45752 56.0
222.66835 56.0
222.733688 100.0
225.140259 76.0
225.687103 124.0
226.381332 68.0
228.867691 40.0
229.789993 116.0
229.886551 120.0
233.701584 100.0
233.826355 72.0
234.20694 84.0
234.292236 108.0
234.475067 172.0
234.948303 160.0
235.011765 156.0
235.051437 128.0
235.096909 8732.0
235.249817 44.0
235.292557 100.0
235.434464 152.0
235.505173 32.0
235.536865 96.0
235.619339 120.0
235.677399 36.0
235.860764 60.0
236.098541 608.0
236.533722 68.0
236.717422 68.0
236.962463 84.0
237.106613 236.0
237.195374 32.0
237.686081 68.0
237.867157 208.0
237.920624 96.0
246.252457 108.0
247.096466 76.0
249.690643 64.0
253.105835 1128.0
254.109406 168.0
256.236938 32.0
271.00705 84.0
276.97287 116.0
289.327576 108.0
303.905121 136.0
304.220947 120.0
314.961243 128.0
316.18103 112.0
325.205505 56.0
329.05014 108.0
333.887665 96.0
335.23465 72.0
352.24472 80.0
355.033142 44.0
357.821259 32.0
362.884064 168.0
412.871582 92.0
435.410004 80.0
458.172363 60.0
464.816742 92.0
466.061981 92.0
504.023834 76.0
506.838348 52.0
519.761719 40.0
553.203125 80.0
572.400879 68.0
645.656616 56.0
682.468445 84.0
720.973938 48.0
740.498352 52.0
747.72467 44.0
764.102478 56.0
826.534424 220.0
890.621582 204.0
897.268616 68.0
927.016357 120.0
928.823059 164.0
934.338928 168.0
956.516479 148.0
979.788818 88.0
989.913574 60.0
1006.293457 112.0
1013.69397 36.0
1017.937744 168.0
1020.263245 176.0
1020.364929 152.0
1035.020752 220.0
1048.38855 156.0
1050.322754 140.0
1071.214844 84.0
1073.893921 104.0
1094.45166 120.0
1095.334229 180.0
1100.187622 180.0
1112.089355 200.0
1117.824707 220.0
1125.543701 252.0
1139.03186 144.0
1141.148804 164.0
1155.656616 156.0
1159.557129 148.0
1159.834961 160.0
1174.365356 196.0
1208.978516 224.0
1217.102783 172.0
1232.768921 156.0
1238.484741 160.0
1238.786011 152.0
1246.524658 152.0
1249.0979 180.0
1249.393311 136.0
1249.505859 44.0
1253.878662 188.0
1256.628784 140.0
1257.771973 96.0
1258.510742 236.0
1264.012451 112.0
1266.993286 164.0
1280.75293 136.0
1283.332642 140.0
1283.746216 136.0
1285.172852 176.0
1288.371338 160.0
1293.011963 48.0
1301.973389 96.0
1308.365601 72.0
1309.143188 168.0
1314.35498 120.0
1325.04126 176.0
1325.164429 196.0
1325.954224 92.0
1328.042358 264.0
1329.043457 160.0
1334.687134 128.0
1334.759888 188.0
1337.306152 80.0
1339.570679 88.0
1342.179688 160.0
1342.529785 176.0
1347.749023 164.0
1349.269165 164.0
1351.799927 156.0
1355.241455 160.0
1356.333374 248.0
1356.707275 144.0
1365.077393 160.0
1370.612793 148.0
1376.595093 196.0
1384.174561 52.0
1384.959595 168.0
1389.33313 152.0
1393.862061 224.0
1398.986572 236.0
1401.034424 152.0
1405.172119 136.0
1406.142212 116.0
1414.528442 48.0
1416.175781 152.0
1418.693481 120.0
1420.15564 184.0
1420.553223 84.0
1428.846924 192.0
1432.987671 220.0
1433.944702 164.0
1438.243896 140.0
1444.818115 172.0
1457.426514 184.0
1458.992188 140.0
1459.090942 132.0
1464.988892 224.0
1465.080322 204.0
1467.241333 224.0
1468.304565 196.0
1468.655396 248.0
1471.494141 72.0
1473.861816 152.0
1476.743896 136.0
1482.914917 164.0
1487.885498 164.0
1488.438354 208.0
1491.765015 156.0
1492.864502 124.0
1494.249023 160.0
1496.442505 144.0
1497.204834 112.0
1500.818848 44.0
1501.798218 208.0
