>compound MLS001048873-01!N-(furan-2-ylmethyl)-9-methylpurin-6-amine
>formula C11H11N5O
>ionization [M+H]+
>parentmass 230.103104
#inchi InChI=1S/C11H11N5O/c1-16-7-15-9-10(13-6-14-11(9)16)12-5-8-3-2-4-17-8/h2-4,6-7H,5H2,1H3,(H,12,13,14)
#inchikey RGMVFYIAYDVJCK
#Ion_Source LC-ESI
#Instrument qTof
#Compound_Source NIH Natural Product Library
#PI Dorrestein
#Data_Collector VVP/LMS
#Scan -1
#Precursor_MZ 230.104
#ExactMass 229.096
#Charge 1
#CAS_Number N/A
#Pubmed_ID N/A
#Smiles Cn1cnc2c(NCc3ccco3)ncnc12
#INCHI_AUX N/A
#Library_Class 1
#SpectrumID CCMSLIB00000080113
#IonMode Positive
#UpdateWorkflowName UPDATE-SINGLE-ANNOTATED-GOLD
#LibraryQualityString Gold
#TaskID b1d8e8f6646f4e71acdff9ca3d919d08
##Scan# 1430
#SpectrumFile p2-C04_GC4_01_18004.mzXML
#LibraryName NIH_Natural_Products_Library.mgf
#MQScore -1
#Organism NIH_Natural_Products_Library
#TIC_Query 0
#RT_Query -1
#MZErrorPPM -1
#SharedPeaks 0
#MassDiff 0
#LibMZ -1
#SpecMZ 230.104
#SpecCharge 0
#internalFilename spec-00000.mgf

>collision 10
95.074989 156.0
95.247787 72.0
96.049744 140.0
96.319115 148.0
96.362091 168.0
96.481308 208.0
96.526276 160.0
96.618202 64.0
96.784561 156.0
96.888367 128.0
97.137329 196.0
97.319847 200.0
97.740471 176.0
97.917648 236.0
97.953094 152.0
97.97477 188.0
98.679329 136.0
98.746567 208.0
98.819756 212.0
98.894951 140.0
99.03949 200.0
99.067223 60.0
99.122696 140.0
99.194046 196.0
99.303101 68.0
99.412216 156.0
99.545219 188.0
99.656448 160.0
99.827393 272.0
100.750221 116.0
101.22625 80.0
101.378494 196.0
101.847961 152.0
101.872063 76.0
101.888138 148.0
101.936356 128.0
102.8507 160.0
103.293213 192.0
103.45105 280.0
104.033348 148.0
104.422981 84.0
104.504356 112.0
104.685509 156.0
105.045456 176.0
105.389244 208.0
105.63662 220.0
106.041306 3276.0
106.703011 208.0
106.960159 40.0
107.047653 672.0
107.071335 128.0
107.093994 176.0
107.915314 92.0
108.057121 1296.0
108.08699 60.0
108.646393 124.0
109.024292 188.0
109.049629 208.0
109.477798 180.0
109.565277 48.0
109.775795 144.0
110.511047 164.0
110.957153 188.0
111.106056 100.0
111.37265 212.0
112.028938 124.0
112.370468 216.0
112.427437 168.0
112.603325 192.0
112.649132 228.0
112.915459 252.0
113.480843 220.0
114.95063 152.0
115.435539 100.0
115.508255 124.0
115.640915 140.0
116.007187 212.0
116.146568 144.0
116.661934 68.0
117.303429 184.0
118.035706 388.0
118.520172 140.0
118.906174 184.0
119.006027 164.0
119.025177 156.0
119.347153 56.0
119.675697 192.0
120.028679 208.0
120.058167 192.0
121.049141 156.0
122.057541 172.0
122.08931 236.0
122.265305 236.0
122.703644 68.0
123.038986 156.0
123.066139 756.0
123.281952 168.0
123.383621 136.0
123.662338 208.0
123.839462 140.0
124.025581 228.0
124.049026 224.0
125.03392 48.0
125.359055 112.0
126.066452 96.0
126.272133 140.0
127.282806 132.0
127.849289 192.0
128.227631 116.0
128.274963 236.0
128.329071 176.0
128.538849 100.0
129.085495 52.0
129.139771 92.0
129.363785 140.0
129.93486 144.0
131.058029 344.0
132.062531 276.0
132.174576 100.0
132.275269 116.0
132.334793 68.0
132.437851 160.0
132.795395 196.0
132.864212 232.0
132.894043 188.0
132.972061 36.0
133.011078 220.0
133.052277 21460.0
133.083725 188.0
133.112091 120.0
133.135056 48.0
133.182938 164.0
133.208557 132.0
133.26828 216.0
133.284378 56.0
133.305054 96.0
133.330399 124.0
133.498154 132.0
133.560242 48.0
133.735107 76.0
133.82489 168.0
133.857132 64.0
133.953857 68.0
133.9767 188.0
134.054611 1120.0
134.179703 44.0
134.350357 104.0
134.770554 128.0
134.835251 128.0
134.904587 140.0
135.067795 4140.0
135.098846 152.0
135.14743 68.0
135.270081 92.0
135.358063 80.0
135.640717 156.0
135.71106 104.0
136.06517 168.0
136.232437 56.0
136.955856 56.0
137.247162 160.0
138.30545 172.0
138.361633 276.0
138.989761 152.0
139.377182 152.0
139.901657 108.0
142.538803 100.0
142.557816 164.0
143.40744 84.0
144.056946 140.0
144.532227 120.0
145.056 376.0
145.306122 132.0
145.490906 196.0
146.052948 180.0
146.269775 204.0
146.431091 240.0
147.70549 180.0
147.831299 108.0
148.071167 144.0
148.177551 168.0
148.582428 248.0
149.038879 152.0
149.087418 512.0
149.111771 228.0
149.362213 60.0
149.634766 232.0
149.931931 176.0
149.973358 212.0
150.000183 132.0
150.02211 196.0
150.079529 3648.0
150.165985 92.0
150.627289 188.0
150.815445 180.0
150.927887 48.0
151.035492 188.0
151.06221 616.0
151.077545 360.0
151.241028 88.0
151.304672 76.0
151.402618 132.0
151.466293 32.0
151.547134 148.0
151.811874 104.0
151.831497 152.0
151.983582 216.0
152.060059 144.0
152.089111 188.0
152.224136 72.0
152.983856 68.0
154.927368 180.0
154.964523 180.0
158.069855 140.0
159.068588 552.0
159.102112 168.0
159.385925 172.0
159.876282 168.0
160.075577 656.0
160.490906 164.0
160.687637 160.0
161.078339 180.0
161.104187 148.0
161.597183 84.0
161.738892 160.0
161.840164 92.0
161.888275 72.0
161.966782 128.0
161.987045 72.0
162.004776 272.0
162.043808 196.0
162.078705 23072.0
162.159348 36.0
162.183838 84.0
162.222443 224.0
162.258942 48.0
162.281021 88.0
162.319046 92.0
162.344284 76.0
162.354019 76.0
162.360748 136.0
162.379913 52.0
162.430649 56.0
162.448395 44.0
162.496597 164.0
162.549881 48.0
162.593018 52.0
162.630951 72.0
162.722488 56.0
162.943298 76.0
162.999329 152.0
163.029831 60.0
163.079926 1600.0
163.212845 48.0
163.3629 88.0
163.507935 72.0
163.625031 52.0
163.800735 208.0
163.831314 84.0
163.966354 60.0
164.045364 56.0
164.065765 120.0
164.13205 124.0
164.392242 60.0
164.828888 56.0
164.959229 76.0
165.99614 36.0
166.042297 248.0
166.060257 120.0
168.224228 108.0
171.067383 196.0
171.437805 148.0
172.066696 196.0
172.798203 168.0
172.994492 136.0
173.08223 140.0
175.096252 288.0
176.062912 184.0
176.095398 276.0
177.30365 124.0
180.62114 72.0
183.367874 152.0
185.050766 140.0
185.083908 516.0
186.075745 352.0
186.934509 128.0
187.037933 196.0
187.086166 888.0
188.09137 512.0
188.234772 40.0
188.505203 80.0
190.708618 156.0
196.066879 116.0
197.063065 204.0
200.094879 576.0
201.095581 176.0
201.988434 48.0
202.050674 136.0
202.109421 2680.0
202.155365 156.0
202.265747 56.0
202.548904 68.0
203.070419 180.0
203.11438 280.0
204.118332 152.0
209.945892 140.0
212.09285 292.0
214.891602 160.0
215.075439 160.0
222.066498 88.0
230.103104 552.0
230.134537 180.0
230.403336 52.0
231.89209 40.0
232.85939 136.0
244.341705 80.0
253.919479 128.0
254.84639 44.0
266.172546 68.0
269.690948 32.0
271.111359 92.0
272.88385 200.0
306.710114 72.0
309.58194 96.0
319.294128 20.0
379.452148 92.0
441.05011 44.0
443.859192 136.0
475.274139 84.0
535.194092 56.0
696.691223 192.0
846.449036 156.0
867.7453 184.0
878.914429 132.0
897.843445 100.0
969.208557 32.0
980.879761 160.0
994.559265 156.0
999.832275 60.0
1034.149048 184.0
1040.854614 156.0
1047.704224 204.0
1056.554932 236.0
1074.596313 184.0
1078.579834 184.0
1083.867676 132.0
1094.396484 136.0
1095.371094 180.0
1105.254028 184.0
1111.376343 136.0
1118.234131 168.0
1118.633423 164.0
1134.270752 176.0
1145.397949 84.0
1150.279907 188.0
1152.285522 112.0
1160.115356 228.0
1161.437622 116.0
1166.740967 168.0
1178.859497 260.0
1179.050903 80.0
1185.963257 80.0
1189.324097 192.0
1194.016602 20.0
1198.732178 84.0
1204.437622 152.0
1204.485962 176.0
1205.190552 192.0
1206.469116 148.0
1210.800537 216.0
1210.959839 160.0
1215.278442 220.0
1216.138916 116.0
1217.534424 44.0
1223.096436 180.0
1234.42627 184.0
1234.922852 240.0
1238.730469 188.0
1238.779541 84.0
1245.499268 156.0
1246.328247 120.0
1256.515991 128.0
1269.554443 168.0
1270.126221 152.0
1271.367798 248.0
1274.058838 180.0
1274.68396 128.0
1279.000854 180.0
1281.129883 76.0
1282.612061 100.0
1284.045166 244.0
1284.337524 172.0
1284.765503 212.0
1289.199463 212.0
1291.129639 172.0
1293.633789 128.0
1303.588623 148.0
1304.292969 148.0
1308.652344 144.0
1313.379639 168.0
1313.783569 172.0
1316.082275 240.0
1319.011597 208.0
1321.014648 196.0
1326.242432 112.0
1327.953613 148.0
1330.340698 160.0
1330.55127 204.0
1333.049805 156.0
1334.990723 156.0
1341.718262 164.0
1350.129761 128.0
1360.255127 156.0
1366.921021 152.0
1367.855591 160.0
1368.893677 164.0
1370.433105 108.0
1371.324829 104.0
1372.548462 176.0
1373.971924 148.0
1374.643311 80.0
1375.405029 232.0
1375.765137 140.0
1376.444458 208.0
1377.640869 196.0
1378.305786 192.0
1379.473511 56.0
1379.584351 164.0
1382.616821 160.0
1383.756714 152.0
1384.978638 104.0
1387.112549 160.0
1390.15332 128.0
1394.460571 104.0
1397.196899 96.0
1398.46936 132.0
1399.414673 176.0
1401.045654 136.0
1403.124878 172.0
1407.623901 192.0
1412.736084 120.0
1419.32666 216.0
1419.821533 156.0
1420.061523 156.0
1424.249634 264.0
1424.692749 164.0
1425.000732 180.0
1425.77478 132.0
1426.030273 136.0
1427.789429 52.0
1431.025024 80.0
1431.725342 232.0
1439.960693 112.0
1443.088989 156.0
1443.164551 148.0
1444.669556 172.0
1446.765747 144.0
1447.583496 176.0
1448.931641 152.0
1454.56604 164.0
1458.037598 180.0
1468.497314 132.0
1471.718872 128.0
1473.619385 160.0
1479.370361 144.0
1480.128296 224.0
1482.717407 116.0
1483.882568 152.0
1488.99292 48.0
1496.659546 108.0
