>compound MLS001148087-01!
>formula C17H27NO4
>ionization [M+H]+
>parentmass 310.200836
#inchi InChI=1S/C17H27NO4/c1-17(2,3)18-9-12(19)10-22-16-6-4-5-11-7-14(20)15(21)8-13(11)16/h4-6,12,14-15,18-21H,7-10H2,1-3H3/t12?,14-,15+/m1/s1
#inchikey VWPOSFSPZNDTMJ
#Ion_Source LC-ESI
#Instrument qTof
#Compound_Source NIH Pharmacologically Active Library
#PI Dorrestein
#Data_Collector VP/LMS
#Scan -1
#Precursor_MZ 310.208
#ExactMass 309.194
#Charge 1
#CAS_Number N/A
#Pubmed_ID N/A
#Smiles CC(C)(C)NCC(O)COc1cccc2C[C@@H](O)[C@@H](O)Cc12
#INCHI_AUX N/A
#Library_Class 1
#SpectrumID CCMSLIB00000085589
#IonMode Positive
#UpdateWorkflowName UPDATE-SINGLE-ANNOTATED-GOLD
#LibraryQualityString Gold
#TaskID d252d724072548979f1f6f1ced849daf
##Scan# 1212
#SpectrumFile p4-D02_GD2_01_18362.mzXML
#LibraryName Pharm_Active_Library.mgf
#MQScore -1
#Organism Pharm_Active_Library
#TIC_Query 0
#RT_Query -1
#MZErrorPPM -1
#SharedPeaks 0
#MassDiff 0
#LibMZ -1
#SpecMZ 310.208
#SpecCharge 0
#internalFilename spec-00000.mgf

>collision 10
44.923447 148.0
44.942123 168.0
44.974152 76.0
45.027561 208.0
45.051601 160.0
45.121098 368.0
45.133129 168.0
45.307121 160.0
45.366085 192.0
45.376812 172.0
45.386196 116.0
45.457291 180.0
45.497555 192.0
45.520382 188.0
45.571423 152.0
45.622494 124.0
45.697807 152.0
45.72472 156.0
45.735489 52.0
45.773186 144.0
45.816284 120.0
45.854015 92.0
45.867493 116.0
45.925472 216.0
46.013187 152.0
46.152351 128.0
46.234867 128.0
46.255169 168.0
46.303913 172.0
46.328293 84.0
46.377075 204.0
46.412323 112.0
46.439445 152.0
46.498081 72.0
46.627289 204.0
46.637085 164.0
46.772339 168.0
46.83276 208.0
46.843147 152.0
46.906368 192.0
46.931526 184.0
46.972649 188.0
47.047703 140.0
47.087299 196.0
47.371803 160.0
47.418392 176.0
47.565155 140.0
47.608936 144.0
47.809803 152.0
47.856602 164.0
47.889652 152.0
47.899296 224.0
47.910316 144.0
47.962681 116.0
47.999905 152.0
48.081295 220.0
48.205585 164.0
48.312046 140.0
48.413086 148.0
48.546124 84.0
48.637691 196.0
48.66188 160.0
48.741852 212.0
48.765476 112.0
48.793278 120.0
48.829433 132.0
48.868382 140.0
48.988304 200.0
49.057789 124.0
49.105198 164.0
49.119694 132.0
49.151699 60.0
49.179142 104.0
49.214043 124.0
49.260132 72.0
49.301544 156.0
49.388729 120.0
49.41531 88.0
49.49229 156.0
49.566528 148.0
49.659054 80.0
49.680096 136.0
49.727802 176.0
49.74184 152.0
49.81205 136.0
49.849529 124.0
49.883717 208.0
49.949806 252.0
50.000458 112.0
50.02298 160.0
50.062401 196.0
50.086346 140.0
50.131611 188.0
50.269627 116.0
50.374672 168.0
50.441933 128.0
50.555084 168.0
50.60321 144.0
50.637196 128.0
50.683945 60.0
50.737801 184.0
50.777504 148.0
50.825657 144.0
50.927952 172.0
50.963467 136.0
51.069397 200.0
51.128418 148.0
51.15831 200.0
51.334984 160.0
51.449127 204.0
51.481968 172.0
51.519104 208.0
51.556255 40.0
51.566257 228.0
51.597706 48.0
51.612003 132.0
51.639175 172.0
51.730751 152.0
51.793758 208.0
51.901241 164.0
51.914146 136.0
51.964352 144.0
52.087811 188.0
52.099598 156.0
52.198883 212.0
52.238747 28.0
52.248817 192.0
52.28479 148.0
52.303501 152.0
52.315018 280.0
52.342598 152.0
52.363972 180.0
52.46772 140.0
52.485023 128.0
52.52396 76.0
52.539829 140.0
52.676971 124.0
52.74778 292.0
52.79549 104.0
52.840332 200.0
52.886639 44.0
53.341404 172.0
53.604076 200.0
53.646343 164.0
53.679878 232.0
53.690086 196.0
53.830181 156.0
53.929523 40.0
53.957298 196.0
53.974842 56.0
54.057446 128.0
54.156311 252.0
54.169632 216.0
54.209053 120.0
54.260353 200.0
54.318157 224.0
54.339554 112.0
54.393852 164.0
54.408531 144.0
54.448177 68.0
54.473145 144.0
54.496651 212.0
54.534859 152.0
54.653976 204.0
54.690769 140.0
54.724628 164.0
54.787956 172.0
54.84985 160.0
54.904404 224.0
54.963409 148.0
54.97374 80.0
55.040165 60.0
55.075607 184.0
55.134705 124.0
55.36105 116.0
55.454384 128.0
55.467724 188.0
55.501823 248.0
55.56115 188.0
55.58934 180.0
55.72892 120.0
55.766071 204.0
55.928192 200.0
55.949032 208.0
55.959454 80.0
56.032433 144.0
56.069687 96.0
56.098007 144.0
56.184502 124.0
56.242699 104.0
56.408501 232.0
56.427937 120.0
56.472797 180.0
56.553593 180.0
56.592514 152.0
56.625462 144.0
56.686882 180.0
56.730347 104.0
56.793327 416.0
56.838333 192.0
56.866848 164.0
56.970455 140.0
57.001827 168.0
57.007977 148.0
57.032063 144.0
57.066639 136.0
57.078667 92.0
57.1283 152.0
57.212574 68.0
57.239677 240.0
57.500477 236.0
57.515568 128.0
57.595596 64.0
57.632748 176.0
57.728596 304.0
57.80423 136.0
57.845093 116.0
57.881432 152.0
58.039017 112.0
58.063278 184.0
58.079964 152.0
58.131546 116.0
58.147758 340.0
58.184399 156.0
58.218075 152.0
58.257565 140.0
58.3521 196.0
58.423267 144.0
58.482613 156.0
58.511536 176.0
58.529808 164.0
58.560265 188.0
58.618156 64.0
58.674549 112.0
58.734024 124.0
58.755379 172.0
58.824776 236.0
58.926373 180.0
59.001259 176.0
59.108322 156.0
59.39835 184.0
59.417824 156.0
59.468464 188.0
59.491489 164.0
59.680458 104.0
59.798912 92.0
59.820461 144.0
60.009953 40.0
60.076271 140.0
60.104042 124.0
60.139534 172.0
60.213646 148.0
60.33881 128.0
60.436249 144.0
60.462555 172.0
60.495056 180.0
60.549252 184.0
60.730587 52.0
60.774025 148.0
60.946373 168.0
61.045856 56.0
61.07074 164.0
61.204575 180.0
61.511703 196.0
61.547611 144.0
61.596157 236.0
61.663212 176.0
61.811779 168.0
62.012234 320.0
62.109444 48.0
62.128021 108.0
62.146515 216.0
62.198883 180.0
62.263256 132.0
62.322948 192.0
62.393677 172.0
62.450287 196.0
62.528954 144.0
62.591923 100.0
62.621841 132.0
62.662575 120.0
62.678555 128.0
62.819691 216.0
62.831493 192.0
62.904087 136.0
62.959347 84.0
63.073105 112.0
63.115788 192.0
63.136345 48.0
63.169563 108.0
63.215443 172.0
63.248417 216.0
63.354778 108.0
63.400726 48.0
63.411819 128.0
63.435596 148.0
63.558475 184.0
63.591042 188.0
63.721252 192.0
63.739002 188.0
63.872276 224.0
64.004372 240.0
64.026665 148.0
64.077637 76.0
64.178047 188.0
64.199684 232.0
64.31205 164.0
64.413033 148.0
64.449387 112.0
64.498932 208.0
64.617271 120.0
64.630074 196.0
64.646072 112.0
64.676483 76.0
64.697289 152.0
64.728607 100.0
64.82222 120.0
64.851677 200.0
64.867096 172.0
64.942459 176.0
65.030701 172.0
65.091705 208.0
65.115799 124.0
65.159164 220.0
65.17363 192.0
65.233093 80.0
65.416473 184.0
65.477661 116.0
65.580124 232.0
65.608177 120.0
65.764648 44.0
66.079765 84.0
66.188774 160.0
66.206017 128.0
66.256233 184.0
66.377792 172.0
66.454025 156.0
66.520569 156.0
66.548164 80.0
66.595261 136.0
66.642365 240.0
66.678116 212.0
66.710625 72.0
66.761032 128.0
66.811226 172.0
66.873283 160.0
66.916359 224.0
66.944916 136.0
67.006813 188.0
67.093193 116.0
67.160423 208.0
67.194305 140.0
67.225304 92.0
67.360817 136.0
67.38369 180.0
67.525909 220.0
67.574982 152.0
67.599953 200.0
67.651901 152.0
67.664993 160.0
67.730499 188.0
67.857246 220.0
68.019089 160.0
68.106117 192.0
68.21804 216.0
68.23101 180.0
68.486069 136.0
68.517365 36.0
68.535492 112.0
68.598122 104.0
68.687164 148.0
68.75811 148.0
68.772964 216.0
68.83075 52.0
68.852211 112.0
68.865425 136.0
68.952995 76.0
68.979439 68.0
69.015808 96.0
69.05719 168.0
69.121674 100.0
69.159737 224.0
69.239204 180.0
69.278961 112.0
69.290558 148.0
69.323692 172.0
69.366783 108.0
69.391655 108.0
69.476814 196.0
69.491165 96.0
69.597389 176.0
69.640572 132.0
69.682098 120.0
69.721977 228.0
69.733612 132.0
69.758545 104.0
69.778496 156.0
69.886604 116.0
69.961494 132.0
70.016441 44.0
70.189751 156.0
70.206863 244.0
70.249794 180.0
70.376633 88.0
70.413368 104.0
70.582153 128.0
70.649055 196.0
70.702599 276.0
70.960556 220.0
70.999123 176.0
71.111443 160.0
71.185394 116.0
71.222343 156.0
71.235344 200.0
71.272743 180.0
71.356781 128.0
71.390411 220.0
71.410591 144.0
71.45005 132.0
71.508179 52.0
71.67321 164.0
71.706917 160.0
71.727142 216.0
71.762543 104.0
71.872177 184.0
72.054527 164.0
72.091698 220.0
72.11367 184.0
72.139023 32.0
72.341164 144.0
72.382812 208.0
72.467346 208.0
72.589386 132.0
72.606339 176.0
72.755661 96.0
72.862648 228.0
72.952721 144.0
72.993523 208.0
73.024139 208.0
73.080276 180.0
73.138138 144.0
73.167397 168.0
73.211342 152.0
73.351051 168.0
73.41243 224.0
73.470428 180.0
73.579651 188.0
73.68895 68.0
73.706039 136.0
73.740219 264.0
73.807564 192.0
73.833679 180.0
73.897537 156.0
73.975082 272.0
73.995094 176.0
74.03051 152.0
74.081825 116.0
74.096138 336.0
74.152687 176.0
74.274422 128.0
74.317314 128.0
74.368599 172.0
74.399696 96.0
74.435753 220.0
74.574905 116.0
74.662582 280.0
74.691826 172.0
74.712471 176.0
74.859932 272.0
74.950066 72.0
74.965569 220.0
75.053482 172.0
75.212196 232.0
75.251907 216.0
75.345169 148.0
75.36763 132.0
75.391823 156.0
75.457504 172.0
75.737846 92.0
75.880257 224.0
75.904221 156.0
75.971863 172.0
76.098549 108.0
76.169754 168.0
76.218399 140.0
76.279228 176.0
76.300087 160.0
76.319214 132.0
76.360947 220.0
76.629021 200.0
76.692352 200.0
76.747543 224.0
76.76194 188.0
76.977432 176.0
77.087921 56.0
77.124626 120.0
77.147346 116.0
77.221642 168.0
77.253838 188.0
77.385277 152.0
77.420303 116.0
77.479858 128.0
77.504387 148.0
77.579742 228.0
77.600784 164.0
77.644623 76.0
77.717545 160.0
77.735847 140.0
77.823608 156.0
77.957108 104.0
78.101273 176.0
78.164604 236.0
78.201561 152.0
78.287834 188.0
78.375908 120.0
78.393524 184.0
78.469322 124.0
78.518692 84.0
78.608665 68.0
78.645729 132.0
78.663376 64.0
78.714577 176.0
78.827629 172.0
78.843536 104.0
78.855904 172.0
78.953552 172.0
78.99736 156.0
79.018593 176.0
79.034515 128.0
79.055748 172.0
79.18676 140.0
79.215096 220.0
79.259392 176.0
79.29129 168.0
79.346237 144.0
79.372833 200.0
79.466843 76.0
79.484581 128.0
79.626602 160.0
79.861206 108.0
79.921692 116.0
79.935928 180.0
79.978638 116.0
80.023148 196.0
80.144257 164.0
80.156731 172.0
80.358215 148.0
80.422462 124.0
80.470657 188.0
80.549232 200.0
80.597473 160.0
80.647507 136.0
80.727959 128.0
80.744057 116.0
80.758362 160.0
80.772675 240.0
80.906883 132.0
80.937325 148.0
80.987465 236.0
81.008965 100.0
81.026878 152.0
81.051964 92.0
81.083481 176.0
81.186401 168.0
81.270714 60.0
81.338905 192.0
81.394562 196.0
81.443054 176.0
81.525696 216.0
81.63356 156.0
81.651543 176.0
81.686852 180.0
81.844086 224.0
82.035065 56.0
82.118736 200.0
82.225159 112.0
82.294853 100.0
82.34903 116.0
82.439972 236.0
82.632835 44.0
82.669022 128.0
82.687119 168.0
82.708839 124.0
82.871826 196.0
82.913498 144.0
83.094833 148.0
83.145638 300.0
83.163521 164.0
83.225471 184.0
83.32177 128.0
83.461296 224.0
83.483543 104.0
83.499908 80.0
83.638184 176.0
83.701164 148.0
83.902504 200.0
83.955269 216.0
84.09568 92.0
84.124886 108.0
84.151405 244.0
84.192444 148.0
84.274643 188.0
84.318497 112.0
84.393448 120.0
84.488556 152.0
84.569069 132.0
84.669762 200.0
84.809006 136.0
85.032768 132.0
85.045616 248.0
85.104362 164.0
85.209053 428.0
85.234772 208.0
85.278877 148.0
85.391029 128.0
85.427818 200.0
85.444374 120.0
85.477493 132.0
85.561226 156.0
85.598984 196.0
85.645027 164.0
85.668976 68.0
85.737144 60.0
85.84407 184.0
85.871735 136.0
85.93261 56.0
85.96582 120.0
86.080269 140.0
86.105469 124.0
86.207733 128.0
86.314949 64.0
86.37413 196.0
86.575867 188.0
86.592537 40.0
86.63884 196.0
86.683311 92.0
86.718521 112.0
86.785255 212.0
86.879845 152.0
86.925148 172.0
86.998611 136.0
87.039459 64.0
87.383316 148.0
87.422386 144.0
87.463913 44.0
87.508011 152.0
87.584366 124.0
87.627213 148.0
87.660751 264.0
87.692429 148.0
87.804298 136.0
87.856522 172.0
87.884506 212.0
87.929291 140.0
87.955421 160.0
87.994629 172.0
88.050644 128.0
88.130783 156.0
88.134499 140.0
88.170212 160.0
88.312302 228.0
88.331009 64.0
88.384384 128.0
88.441406 228.0
88.505058 184.0
88.53315 164.0
88.626808 136.0
88.698021 140.0
88.71302 44.0
88.804901 180.0
88.872581 200.0
88.949379 136.0
88.975655 84.0
89.033867 172.0
89.060158 152.0
89.095848 104.0
89.266891 96.0
89.308266 180.0
89.342125 152.0
89.366585 216.0
89.407982 244.0
89.430565 132.0
89.481392 144.0
89.503983 136.0
89.647148 124.0
89.665993 184.0
89.692383 72.0
89.796082 116.0
89.824371 140.0
89.862106 236.0
89.920601 36.0
89.979729 236.0
90.124748 192.0
90.177788 184.0
90.277657 172.0
90.292786 44.0
90.317902 272.0
90.341965 180.0
90.396835 144.0
90.57859 172.0
90.745361 196.0
90.855354 88.0
91.003395 180.0
91.035675 156.0
91.054611 2692.0
91.073654 192.0
91.123047 128.0
91.15155 104.0
91.235176 60.0
91.248482 236.0
91.480583 160.0
91.526276 176.0
91.600548 156.0
91.619598 200.0
91.690102 120.0
92.057396 580.0
92.193924 100.0
92.255089 176.0
92.281853 148.0
92.295235 188.0
92.411911 156.0
92.427216 72.0
92.469315 164.0
92.524826 184.0
92.62249 192.0
92.643562 236.0
92.693375 212.0
92.743202 124.0
92.856323 180.0
92.965675 88.0
92.981033 196.0
93.115425 140.0
93.132706 164.0
93.148071 180.0
93.240303 128.0
93.272972 160.0
93.33065 188.0
93.378723 196.0
93.420784 148.0
93.434509 132.0
93.48838 196.0
93.557678 152.0
93.643204 240.0
93.682846 172.0
93.842812 212.0
93.873657 160.0
93.891014 92.0
93.937309 188.0
94.09169 128.0
94.223022 172.0
94.297905 196.0
94.312172 196.0
94.332329 192.0
94.429855 164.0
94.598587 196.0
94.708626 132.0
94.788239 220.0
94.813187 132.0
94.912048 220.0
95.016785 156.0
95.069176 172.0
95.156525 140.0
95.189529 96.0
95.218658 52.0
95.283005 160.0
95.323563 204.0
95.358543 192.0
95.380821 192.0
95.554947 144.0
95.579773 200.0
95.611374 144.0
95.632782 80.0
95.708702 200.0
95.757393 144.0
95.829468 184.0
95.893768 176.0
95.920372 228.0
96.007629 220.0
96.073166 80.0
96.125847 172.0
96.198059 140.0
96.225388 152.0
96.241005 168.0
96.276154 64.0
96.295685 244.0
96.321075 140.0
96.502823 68.0
96.592781 172.0
96.608437 148.0
96.672821 176.0
96.733673 148.0
96.904053 252.0
96.966759 68.0
97.000084 208.0
97.044662 324.0
97.066742 252.0
97.082428 160.0
97.123573 192.0
97.131126 188.0
97.174622 180.0
97.192276 104.0
97.302185 108.0
97.345383 96.0
97.455383 176.0
97.685402 148.0
97.840866 184.0
97.951141 100.0
97.986603 116.0
98.055573 172.0
98.227173 252.0
98.264595 120.0
98.282349 120.0
98.352409 128.0
98.369186 116.0
98.412621 164.0
98.610161 156.0
98.709007 160.0
98.728783 92.0
98.934563 84.0
99.02961 128.0
99.094978 152.0
99.168297 180.0
99.198029 232.0
99.283958 200.0
99.320976 156.0
99.384453 144.0
99.406281 132.0
99.487656 128.0
99.509499 208.0
99.656471 180.0
99.682304 172.0
99.755836 120.0
99.771744 140.0
99.978607 160.0
100.104362 164.0
100.13987 160.0
100.187836 248.0
100.257408 144.0
100.275345 124.0
100.365051 72.0
100.396957 168.0
100.512657 212.0
100.643669 176.0
100.684334 140.0
100.858551 180.0
100.888145 52.0
101.080147 156.0
101.126175 140.0
101.388542 196.0
101.456688 164.0
101.572998 164.0
101.661278 220.0
101.705429 176.0
101.880127 124.0
102.028847 148.0
102.079109 156.0
102.470428 260.0
102.523888 144.0
102.583992 136.0
102.693352 100.0
102.824493 176.0
102.899178 160.0
102.977936 76.0
103.026413 144.0
103.054169 2292.0
103.073433 480.0
103.111275 44.0
103.20224 140.0
103.285156 216.0
103.337753 76.0
103.428818 168.0
103.578659 108.0
103.627281 132.0
103.641464 180.0
103.728958 184.0
103.763069 196.0
103.785378 84.0
103.945618 180.0
104.004234 184.0
104.020714 164.0
104.041008 76.0
104.058907 152.0
104.168945 60.0
104.203484 152.0
104.227867 192.0
104.298996 128.0
104.484406 204.0
104.527527 152.0
104.551193 152.0
104.605774 240.0
104.664848 216.0
104.678787 136.0
104.779243 116.0
104.903557 180.0
105.050385 232.0
105.069664 1668.0
105.123833 196.0
105.152405 168.0
105.232018 152.0
105.246307 212.0
105.346382 140.0
105.413803 200.0
105.47921 148.0
105.53849 224.0
105.616203 200.0
105.634613 124.0
105.706223 156.0
105.730461 128.0
105.773758 172.0
105.792183 204.0
105.915047 216.0
105.956017 244.0
106.070541 248.0
106.115875 44.0
106.265602 144.0
106.284065 152.0
106.304588 128.0
106.325104 144.0
106.464706 116.0
106.496635 176.0
106.536598 160.0
106.606453 228.0
106.677467 196.0
106.72979 160.0
106.86348 152.0
106.882149 164.0
107.049896 1964.0
107.08786 136.0
107.114639 96.0
107.172325 148.0
107.242393 192.0
107.311859 204.0
107.372276 124.0
107.397026 176.0
107.520569 164.0
107.55854 188.0
107.67849 152.0
107.74176 112.0
107.764488 212.0
107.807877 176.0
107.834747 116.0
107.871948 184.0
108.029114 232.0
108.05233 224.0
108.087044 124.0
108.165688 116.0
108.223648 136.0
108.304413 232.0
108.439095 124.0
108.490913 168.0
108.507187 212.0
108.551041 204.0
108.59874 216.0
108.654747 168.0
108.800018 88.0
108.926697 168.0
108.95578 128.0
109.036316 144.0
109.043007 200.0
109.248901 116.0
109.365433 172.0
109.404984 44.0
109.536171 188.0
109.590164 144.0
109.644516 132.0
109.677864 144.0
109.714439 132.0
109.91436 160.0
109.949005 196.0
109.967789 176.0
110.00193 168.0
110.065498 124.0
110.07943 192.0
110.095139 68.0
110.153618 192.0
110.266449 36.0
110.460342 164.0
110.48391 108.0
110.517387 116.0
110.697403 168.0
110.716248 156.0
111.024315 184.0
111.053673 152.0
111.154373 220.0
111.175362 220.0
111.242523 156.0
111.332809 180.0
111.404221 176.0
111.477753 104.0
111.515587 56.0
111.542908 148.0
111.654343 180.0
111.742691 176.0
111.817986 164.0
111.929573 248.0
111.98056 180.0
112.018471 204.0
112.056396 152.0
112.119606 132.0
112.17556 168.0
112.210251 116.0
112.229225 200.0
112.431732 108.0
112.56472 168.0
112.636528 132.0
112.659767 168.0
112.750626 172.0
112.773315 228.0
112.826721 160.0
112.847862 144.0
112.86689 76.0
112.981102 164.0
113.014954 216.0
113.122887 44.0
113.271935 124.0
113.3601 64.0
113.398247 184.0
113.42128 152.0
113.466072 136.0
113.612411 160.0
113.642113 144.0
113.722748 148.0
113.750343 164.0
113.848007 240.0
113.864845 164.0
113.920227 124.0
113.986084 232.0
114.068977 208.0
114.13063 208.0
114.194824 184.0
114.298668 116.0
114.430626 144.0
114.618065 140.0
114.652161 164.0
114.878166 124.0
114.986992 48.0
115.011505 164.0
115.031601 204.0
115.053917 7520.0
115.095375 176.0
115.144974 76.0
115.186958 136.0
115.224014 60.0
115.271103 196.0
115.294525 60.0
115.341545 224.0
115.401405 184.0
115.457001 144.0
115.527588 60.0
115.57354 164.0
115.670959 60.0
115.754456 120.0
115.924583 172.0
115.95369 192.0
115.968689 420.0
115.983696 148.0
116.009415 164.0
116.059074 1732.0
116.112335 180.0
116.185265 68.0
116.217445 164.0
116.320457 100.0
116.353546 204.0
116.412781 180.0
116.442848 140.0
116.58992 184.0
116.606133 144.0
116.657715 76.0
116.679214 164.0
116.724365 144.0
116.760925 124.0
116.825455 288.0
116.885696 136.0
116.933037 200.0
117.001915 196.0
117.021294 264.0
117.070068 8744.0
117.102798 224.0
117.143715 208.0
117.172058 64.0
117.21946 44.0
117.389427 80.0
117.457466 164.0
117.577438 180.0
117.593254 276.0
117.637871 68.0
117.668404 196.0
117.706963 76.0
117.755936 200.0
117.778229 176.0
117.79335 108.0
117.881927 56.0
117.903542 168.0
117.94677 124.0
117.97271 192.0
118.038605 420.0
118.073532 1000.0
118.139221 32.0
118.234428 128.0
118.266891 176.0
118.390297 148.0
118.483437 168.0
118.56823 148.0
118.665482 56.0
118.75116 268.0
118.780418 164.0
118.854187 56.0
118.994453 96.0
119.047829 792.0
119.086655 1508.0
119.153809 32.0
119.190742 236.0
119.220947 156.0
119.289413 48.0
119.364639 128.0
119.37986 88.0
119.398285 176.0
119.484268 252.0
119.638779 244.0
119.662285 156.0
119.804291 128.0
119.874008 104.0
119.913239 252.0
119.94593 128.0
119.982994 148.0
120.061485 260.0
120.082626 220.0
120.430328 176.0
120.445618 236.0
120.464378 136.0
120.565788 84.0
120.609497 168.0
120.653214 112.0
120.723183 44.0
120.823799 200.0
120.981369 100.0
121.027824 184.0
121.063858 332.0
121.089272 100.0
121.130272 248.0
121.235443 116.0
121.421791 216.0
121.513916 252.0
121.586327 112.0
121.607384 168.0
121.797104 112.0
121.867401 236.0
121.959702 112.0
122.008064 204.0
122.038841 356.0
122.06868 332.0
122.129005 196.0
122.333588 160.0
122.377678 112.0
122.434929 64.0
122.463562 164.0
122.553879 88.0
122.620224 188.0
122.679504 92.0
122.714775 152.0
122.754463 140.0
122.785339 108.0
122.805191 144.0
122.953011 148.0
122.98391 136.0
123.109749 172.0
123.19368 152.0
123.273216 200.0
123.293106 164.0
123.399208 120.0
123.458908 48.0
123.646957 80.0
123.675728 144.0
123.786423 164.0
123.983582 140.0
124.001312 140.0
124.038994 208.0
124.12989 180.0
124.336205 68.0
124.422768 196.0
124.509369 336.0
124.540459 160.0
124.571556 192.0
124.588531 172.0
124.636147 220.0
124.747108 176.0
124.780457 260.0
124.800468 176.0
124.816032 192.0
124.856064 240.0
124.940582 204.0
125.042938 172.0
125.136436 252.0
125.283424 252.0
125.340034 236.0
125.452789 60.0
125.51075 104.0
125.555351 192.0
125.586578 112.0
125.664658 172.0
125.798553 64.0
125.896797 192.0
126.015182 228.0
126.044769 632.0
126.151512 160.0
126.312515 164.0
126.359489 164.0
126.408714 240.0
126.462425 60.0
126.482574 128.0
126.531876 176.0
126.596756 172.0
126.677383 52.0
126.742477 144.0
126.773727 184.0
127.054047 1548.0
127.085411 188.0
127.25 172.0
127.32785 168.0
127.354393 176.0
127.389313 160.0
127.444656 40.0
127.60199 144.0
127.732422 92.0
127.876419 396.0
127.902115 248.0
127.975105 124.0
128.062195 11000.0
128.108353 208.0
128.130875 168.0
128.173676 160.0
128.19397 164.0
128.240662 172.0
128.268341 240.0
128.446472 192.0
128.471283 168.0
128.563797 136.0
128.681168 80.0
128.873154 172.0
128.891235 112.0
128.92482 212.0
128.953964 116.0
128.977585 168.0
128.992935 228.0
129.02684 200.0
129.069199 7104.0
129.095596 156.0
129.145691 136.0
129.17836 76.0
129.267303 88.0
129.296326 148.0
129.468063 124.0
129.701431 200.0
129.737701 200.0
129.814789 176.0
129.880554 124.0
130.044846 220.0
130.074203 1460.0
130.113785 152.0
130.130188 48.0
130.186951 132.0
130.268723 132.0
130.2939 180.0
130.357162 172.0
130.402786 136.0
130.418686 176.0
130.623337 112.0
130.755295 56.0
130.839523 116.0
130.884842 196.0
130.93306 156.0
130.992096 220.0
131.04953 5564.0
131.085617 2572.0
131.142487 172.0
131.215424 88.0
131.267868 96.0
131.283829 48.0
131.306641 148.0
131.338211 200.0
131.384201 168.0
131.489151 36.0
131.63298 112.0
131.674088 64.0
131.706909 244.0
131.733475 48.0
131.770447 192.0
132.057053 3376.0
132.09166 404.0
132.135468 256.0
132.179291 64.0
132.218597 204.0
132.283813 88.0
132.32579 152.0
132.348679 144.0
132.383026 148.0
132.415085 156.0
132.523453 204.0
132.559418 28.0
132.584625 164.0
132.605255 208.0
132.632751 168.0
132.653381 76.0
132.745102 164.0
132.779495 240.0
132.827652 164.0
132.848312 172.0
132.882721 156.0
132.903366 100.0
132.936737 204.0
132.956955 148.0
132.979095 108.0
133.065109 6996.0
133.176544 56.0
133.201813 36.0
133.224792 156.0
133.245468 180.0
133.266144 44.0
133.312103 68.0
133.372131 160.0
133.42012 84.0
133.436218 104.0
133.456909 172.0
133.4776 156.0
133.512634 172.0
133.535095 192.0
133.587997 228.0
133.698441 116.0
133.718735 144.0
133.797424 140.0
133.868805 176.0
134.01622 152.0
134.065948 1036.0
134.212128 44.0
134.338974 200.0
134.3759 136.0
134.45665 152.0
134.537445 184.0
134.625183 100.0
134.645966 152.0
134.791504 96.0
134.84465 180.0
134.877014 124.0
134.916306 100.0
134.978745 196.0
135.045807 160.0
135.079926 820.0
135.131393 176.0
135.228577 196.0
135.272568 160.0
135.423065 108.0
135.457809 176.0
135.499512 64.0
135.582932 140.0
135.617691 148.0
135.828491 136.0
135.841019 180.0
135.87973 56.0
136.086288 228.0
136.171616 264.0
136.341812 148.0
136.43013 172.0
136.632462 136.0
136.68132 156.0
136.767426 208.0
136.876846 180.0
136.949051 72.0
136.970001 240.0
137.088821 164.0
137.293976 148.0
137.339661 132.0
137.559967 168.0
137.653351 60.0
137.753784 196.0
137.889297 68.0
137.933701 132.0
137.950073 196.0
138.015656 148.0
138.07399 164.0
138.209671 164.0
138.715546 80.0
139.048599 180.0
139.065033 284.0
139.111252 232.0
139.191803 156.0
139.302185 216.0
139.398514 28.0
139.530136 64.0
139.673584 60.0
139.729996 168.0
139.828873 160.0
139.866531 144.0
139.967773 184.0
140.052551 160.0
140.073746 80.0
140.10202 152.0
140.146774 136.0
140.217804 120.0
140.233978 204.0
140.292908 220.0
140.374527 188.0
140.382797 216.0
140.429657 152.0
140.542892 96.0
140.585373 188.0
140.682053 196.0
140.762421 116.0
140.972656 192.0
141.008102 204.0
141.045868 196.0
141.069885 2600.0
141.152313 196.0
141.201965 96.0
141.526169 132.0
141.559311 152.0
141.620895 132.0
141.687225 176.0
141.985886 52.0
142.076401 732.0
142.125839 148.0
142.246872 160.0
142.543747 128.0
142.722031 148.0
142.799316 232.0
142.829041 216.0
142.878998 132.0
142.902786 156.0
142.950378 136.0
143.026535 180.0
143.050461 704.0
143.086136 8496.0
143.121765 136.0
143.146729 120.0
143.169388 144.0
143.3004 272.0
143.352829 228.0
143.44577 40.0
143.572144 196.0
143.601105 140.0
143.629379 44.0
143.653229 140.0
143.674698 48.0
143.703339 188.0
143.858459 132.0
143.879944 32.0
143.951569 92.0
143.98262 236.0
144.056427 2968.0
144.087006 1200.0
144.164185 60.0
144.183304 80.0
144.216751 36.0
144.23349 96.0
144.30101 148.0
144.376938 88.0
144.489365 160.0
144.520462 244.0
144.597046 132.0
144.620972 108.0
144.671249 164.0
144.704758 104.0
144.759827 100.0
144.776596 84.0
144.825043 140.0
144.846054 48.0
144.862823 160.0
144.953857 156.0
144.993378 148.0
145.0242 360.0
145.06488 32880.0
145.101318 1608.0
145.12645 108.0
145.192535 128.0
145.210373 48.0
145.265549 68.0
145.284729 36.0
145.303925 108.0
145.32312 72.0
145.366318 40.0
145.388306 124.0
145.433517 56.0
145.462128 256.0
145.515121 80.0
145.536575 60.0
145.599167 96.0
145.620789 28.0
145.65921 60.0
145.748108 52.0
145.767334 148.0
145.799347 160.0
145.860565 136.0
145.892319 256.0
145.923569 192.0
145.950943 124.0
146.007721 52.0
146.069138 4016.0
146.103714 252.0
146.156876 168.0
146.188156 36.0
146.337387 76.0
146.41568 224.0
146.49321 148.0
146.513199 60.0
146.587891 60.0
146.617233 192.0
146.640915 64.0
146.657776 128.0
146.677063 184.0
146.701767 176.0
146.766266 156.0
146.815765 76.0
146.862732 108.0
146.8965 148.0
146.980942 60.0
147.001984 284.0
147.04245 176.0
147.080475 19960.0
147.112106 208.0
147.131134 224.0
147.163757 108.0
147.228073 256.0
147.247787 152.0
147.304459 72.0
147.362427 40.0
147.386597 80.0
147.463928 168.0
147.509857 372.0
147.55751 180.0
147.65976 92.0
147.703293 48.0
147.833939 136.0
147.862991 64.0
147.908966 44.0
148.000961 28.0
148.017914 48.0
148.046982 116.0
148.083466 2220.0
148.123901 152.0
148.180191 36.0
148.203613 108.0
148.293579 208.0
148.412872 192.0
148.437119 100.0
148.517151 164.0
148.538986 220.0
148.602066 132.0
148.643311 60.0
148.742813 88.0
148.779221 60.0
148.920059 100.0
148.99144 140.0
149.029785 144.0
149.058533 204.0
149.093796 364.0
149.121719 176.0
149.141174 72.0
149.180054 64.0
149.206802 92.0
149.22966 168.0
149.279739 116.0
149.357574 120.0
149.666641 256.0
149.771362 164.0
149.885864 128.0
150.09549 64.0
150.132065 52.0
150.154022 100.0
150.258911 108.0
150.732574 168.0
150.793671 140.0
150.935471 228.0
151.011276 92.0
151.048431 200.0
151.14093 180.0
151.162949 220.0
151.290222 44.0
151.326355 164.0
151.43959 112.0
151.535126 104.0
151.718933 32.0
151.736099 132.0
151.890594 168.0
151.981369 80.0
152.065659 1228.0
152.32016 212.0
152.4086 172.0
152.519196 176.0
152.590485 68.0
152.683914 120.0
152.706055 100.0
152.792145 164.0
152.809372 28.0
152.854797 136.0
152.982071 228.0
153.01857 28.0
153.070312 5360.0
153.117065 212.0
153.20256 192.0
153.235306 36.0
153.331406 152.0
153.348648 40.0
153.402878 164.0
153.491638 140.0
153.552963 128.0
153.647018 308.0
153.696365 164.0
153.918518 124.0
153.950623 88.0
154.076874 2312.0
154.21991 132.0
154.366058 36.0
154.444916 88.0
154.603256 132.0
154.652756 112.0
154.684937 140.0
154.824173 184.0
154.845871 104.0
154.883026 196.0
154.973038 180.0
155.059418 2344.0
155.085556 14964.0
155.132706 164.0
155.161957 36.0
155.179779 80.0
155.215393 72.0
155.259384 80.0
155.289108 192.0
155.341599 36.0
155.367233 132.0
155.406113 28.0
155.432693 112.0
155.519104 128.0
155.631149 132.0
155.7164 140.0
155.818253 92.0
155.858994 160.0
155.897766 60.0
155.977631 180.0
156.002853 184.0
156.056305 920.0
156.087906 1424.0
156.13298 124.0
156.216019 64.0
156.243378 120.0
156.280701 108.0
156.320511 184.0
156.412598 48.0
156.444962 68.0
156.484787 40.0
156.666595 232.0
156.701477 68.0
156.860962 36.0
156.93576 148.0
157.034012 48.0
157.064728 9116.0
157.142761 76.0
157.202652 92.0
157.237595 144.0
157.270035 60.0
157.289749 152.0
157.336029 128.0
157.412338 132.0
157.459793 100.0
157.51474 128.0
157.557205 44.0
157.634308 196.0
157.664642 36.0
157.722137 156.0
157.79213 172.0
157.817932 248.0
158.069397 2564.0
158.15007 44.0
158.212433 104.0
158.249985 128.0
158.352646 88.0
158.50296 56.0
158.53804 136.0
158.610718 52.0
158.733566 212.0
158.783722 140.0
158.869003 52.0
158.896606 52.0
158.997086 180.0
159.045578 792.0
159.080368 19196.0
159.129517 164.0
159.187759 168.0
159.254898 136.0
159.280685 56.0
159.38118 128.0
159.441498 152.0
159.49176 40.0
159.553467 80.0
159.609909 124.0
159.713028 192.0
159.740692 136.0
159.765854 112.0
159.798553 64.0
159.934448 180.0
160.020035 416.0
160.050659 968.0
160.084274 2428.0
160.221512 40.0
160.259308 92.0
160.2845 52.0
160.314743 32.0
160.350021 28.0
160.375229 120.0
160.393341 216.0
160.484665 108.0
160.536591 84.0
160.686249 108.0
160.849442 64.0
160.907501 56.0
160.960526 152.0
161.00528 160.0
161.059555 2076.0
161.096268 1124.0
161.243454 84.0
161.278839 56.0
161.336975 92.0
161.354675 172.0
161.379959 80.0
161.415359 72.0
161.562057 140.0
161.915451 208.0
162.065689 368.0
162.099976 376.0
162.309204 88.0
162.359924 44.0
162.419067 164.0
162.573013 164.0
162.814194 60.0
162.839584 60.0
163.040298 120.0
163.075378 1160.0
163.106369 288.0
163.241119 188.0
163.304703 124.0
163.459885 100.0
163.500595 64.0
163.610046 64.0
163.650787 112.0
163.813782 204.0
163.959015 196.0
163.99469 60.0
164.07309 200.0
164.16806 160.0
164.19101 168.0
164.219055 176.0
164.277725 104.0
164.379776 108.0
164.399506 212.0
164.428268 68.0
164.502289 68.0
164.545685 156.0
164.714233 92.0
164.857315 160.0
164.887527 204.0
164.926437 172.0
165.000443 248.0
165.03624 272.0
165.06958 3460.0
165.135971 168.0
165.202484 64.0
165.228058 124.0
165.399521 40.0
165.445587 48.0
165.48912 188.0
165.588989 120.0
165.653015 212.0
165.673508 56.0
165.822128 136.0
165.901596 56.0
166.076736 348.0
166.137527 60.0
166.312012 52.0
166.833466 152.0
166.856598 64.0
167.064011 92.0
167.082916 236.0
167.1138 140.0
167.255341 196.0
167.389206 124.0
167.463898 136.0
167.556625 216.0
167.79631 64.0
167.822098 88.0
167.963928 184.0
168.055542 2600.0
168.234879 124.0
168.374313 228.0
168.612 52.0
168.660614 192.0
168.694702 148.0
168.953308 156.0
169.064331 1372.0
169.160339 52.0
169.188812 124.0
169.261307 148.0
169.284607 96.0
169.491837 64.0
169.639557 48.0
169.753647 60.0
170.044205 132.0
170.072861 1328.0
170.111679 220.0
170.168793 112.0
170.503891 120.0
170.57666 176.0
170.607864 232.0
170.625168 152.0
170.704056 160.0
170.730072 140.0
170.75087 36.0
170.800293 120.0
170.888733 200.0
170.914764 88.0
170.959 136.0
170.985016 84.0
171.003235 92.0
171.046387 164.0
171.080902 25656.0
171.147675 124.0
171.193939 144.0
171.232346 64.0
171.279236 52.0
171.359344 180.0
171.445984 60.0
171.536057 136.0
171.581512 76.0
171.618011 76.0
171.72493 40.0
171.745804 56.0
171.91539 76.0
172.001511 80.0
172.049072 200.0
172.083984 4108.0
172.13205 132.0
172.224106 80.0
172.298691 200.0
172.398499 72.0
172.422028 64.0
172.448151 56.0
172.516113 100.0
172.68869 56.0
172.780243 32.0
172.974594 152.0
173.021011 204.0
173.059128 1380.0
173.095001 5864.0
173.185989 48.0
173.255341 40.0
173.280289 124.0
173.308044 88.0
173.364151 104.0
173.382492 144.0
173.411316 72.0
173.652527 96.0
173.778442 84.0
173.854538 80.0
173.995514 124.0
174.061615 136.0
174.09169 1792.0
174.193237 160.0
174.329849 52.0
174.374527 72.0
174.41658 132.0
174.57959 48.0
174.703217 72.0
175.019043 108.0
175.074661 3780.0
175.166519 80.0
175.253464 36.0
175.322983 160.0
175.540771 164.0
175.598785 44.0
175.627808 120.0
175.873184 64.0
176.060272 176.0
176.078552 628.0
176.282547 76.0
176.423782 100.0
177.009995 56.0
177.094193 416.0
177.486954 48.0
177.571808 112.0
177.656693 56.0
178.020309 144.0
178.355072 232.0
178.559784 160.0
178.615646 116.0
178.812546 56.0
178.871094 148.0
178.97493 148.0
179.046829 172.0
179.2173 136.0
180.49585 232.0
180.578751 188.0
180.784744 148.0
180.811508 112.0
181.069427 332.0
181.154236 140.0
181.202454 56.0
181.304276 172.0
181.38736 100.0
181.872864 176.0
182.070465 104.0
182.211227 60.0
182.238083 200.0
182.428909 96.0
182.496185 148.0
182.547195 140.0
182.595093 208.0
182.622498 200.0
182.678986 180.0
182.791626 176.0
182.825394 136.0
182.983093 148.0
183.035202 276.0
183.07988 25964.0
183.148071 256.0
183.197601 148.0
183.249725 188.0
183.273972 36.0
183.295532 48.0
183.400635 64.0
183.430283 80.0
183.489594 96.0
183.508469 60.0
183.62442 76.0
183.664871 88.0
183.745804 88.0
183.799774 80.0
183.899612 64.0
183.945511 64.0
184.044678 152.0
184.081802 3096.0
184.166916 60.0
184.185822 108.0
184.258759 72.0
184.293884 40.0
184.35495 80.0
184.450638 76.0
184.496582 56.0
184.715622 124.0
184.941269 256.0
185.037659 124.0
185.060806 168.0
185.083481 584.0
185.132431 172.0
185.185028 72.0
185.20285 140.0
185.254318 44.0
185.396088 200.0
185.474762 220.0
185.517181 72.0
185.597855 116.0
185.954834 196.0
186.068924 344.0
186.302597 180.0
186.554184 116.0
186.65477 152.0
187.074905 204.0
187.095993 140.0
187.133652 68.0
187.283432 148.0
187.986816 156.0
188.00592 124.0
188.030487 44.0
188.500198 40.0
188.691513 100.0
188.978699 64.0
189.091461 1216.0
189.123734 172.0
189.345505 52.0
189.611252 96.0
189.703964 184.0
189.863464 72.0
190.09227 424.0
190.122772 344.0
190.654114 124.0
190.75032 248.0
191.066559 180.0
191.10228 200.0
191.4767 172.0
191.573105 200.0
191.950699 172.0
192.041702 136.0
192.163071 84.0
192.422516 116.0
192.825806 132.0
192.881088 120.0
192.90596 112.0
193.080154 156.0
193.384491 56.0
194.273163 84.0
194.67363 56.0
195.187714 60.0
195.365723 76.0
195.968277 120.0
196.187241 88.0
196.703308 136.0
197.21167 196.0
197.801865 180.0
198.056671 136.0
198.101486 272.0
198.160324 140.0
198.196747 156.0
198.29483 112.0
198.622879 56.0
198.771561 116.0
199.077927 148.0
199.293839 224.0
199.333176 180.0
199.636765 132.0
199.763336 112.0
199.884308 140.0
199.940598 172.0
200.075699 196.0
200.106506 1384.0
200.281265 136.0
200.334778 144.0
200.639145 168.0
200.689896 224.0
200.72937 184.0
200.865463 188.0
200.925812 284.0
200.968918 196.0
201.018906 436.0
201.090973 40376.0
201.196396 68.0
201.23381 36.0
201.276779 48.0
201.327484 84.0
201.408234 184.0
201.518616 72.0
201.561508 376.0
201.587509 84.0
201.607285 32.0
201.644165 84.0
201.692078 48.0
201.717514 56.0
201.740128 60.0
201.813644 56.0
201.864532 192.0
202.006332 136.0
202.034241 156.0
202.054047 156.0
202.093903 4028.0
202.249298 56.0
202.280441 104.0
202.335403 124.0
202.365372 64.0
202.388016 112.0
202.467865 104.0
202.540939 112.0
202.583435 60.0
202.623596 68.0
202.683792 76.0
202.75061 116.0
202.815796 44.0
202.904831 88.0
202.932022 44.0
202.991562 60.0
203.09584 456.0
203.350693 68.0
203.375153 136.0
203.466003 168.0
203.499466 72.0
203.539215 156.0
203.584656 104.0
203.647141 76.0
203.667023 72.0
203.689743 124.0
203.752243 200.0
203.782822 68.0
203.868912 124.0
204.087616 28.0
204.639587 92.0
204.830399 132.0
205.297806 96.0
205.568817 152.0
205.600204 64.0
205.737213 112.0
205.865692 80.0
206.014221 120.0
206.11763 468.0
206.620285 160.0
206.763351 40.0
207.115524 188.0
207.407791 112.0
207.63501 192.0
208.182419 116.0
208.73703 48.0
208.970016 144.0
209.016052 176.0
210.185928 148.0
210.37352 96.0
210.792313 216.0
210.90213 152.0
210.957047 184.0
211.087158 104.0
211.822281 168.0
211.8918 72.0
211.99321 164.0
212.2686 168.0
212.538361 136.0
212.648636 104.0
213.508606 180.0
214.003281 120.0
214.536423 108.0
214.597656 128.0
215.584259 124.0
216.895447 108.0
217.203323 68.0
217.599487 112.0
217.637665 176.0
217.799179 48.0
218.004837 80.0
218.025406 220.0
218.116913 2328.0
218.331161 148.0
218.657715 72.0
218.695969 56.0
218.722458 56.0
218.778397 120.0
218.904999 144.0
219.061096 128.0
219.101654 1108.0
219.17894 40.0
219.571014 120.0
219.594604 48.0
220.108444 364.0
220.2892 144.0
220.8806 176.0
221.370743 92.0
221.69957 92.0
221.732178 140.0
222.034576 144.0
222.176941 64.0
222.639984 104.0
223.344376 104.0
223.603226 176.0
223.75206 100.0
223.969437 208.0
224.92659 228.0
225.081833 64.0
225.47316 156.0
225.583755 48.0
226.373627 80.0
228.053665 164.0
228.537827 140.0
229.954163 136.0
230.156418 224.0
230.340652 40.0
231.284058 56.0
231.541412 60.0
231.665604 132.0
232.441757 104.0
233.000427 140.0
233.532394 108.0
234.046692 160.0
234.485352 56.0
234.63472 208.0
234.888718 96.0
235.605194 164.0
235.712143 152.0
235.828262 72.0
235.901627 176.0
236.033096 156.0
236.063263 152.0
236.127823 14796.0
236.183899 116.0
236.211212 76.0
236.253906 60.0
236.278931 64.0
236.342026 84.0
236.439957 56.0
236.602173 120.0
236.648102 132.0
236.687912 48.0
236.75528 44.0
236.874725 60.0
236.896896 200.0
237.018723 92.0
237.064682 192.0
237.130524 2268.0
237.214859 80.0
237.257782 52.0
237.355896 72.0
237.496964 100.0
237.616608 32.0
237.690231 40.0
237.971313 56.0
238.133255 156.0
238.310471 100.0
238.467194 60.0
238.565552 40.0
238.610001 140.0
238.639343 76.0
238.737747 60.0
238.873062 124.0
238.897675 104.0
238.962723 112.0
238.989975 48.0
239.735153 64.0
240.7995 160.0
241.798111 56.0
241.928116 36.0
243.969376 108.0
244.51683 36.0
244.809464 32.0
245.002579 60.0
245.40773 160.0
247.808121 124.0
248.341034 68.0
248.899628 192.0
249.028397 88.0
249.207443 192.0
250.201294 168.0
250.402817 52.0
251.096176 112.0
252.327667 152.0
252.640762 180.0
252.846436 156.0
253.489288 144.0
253.543167 200.0
253.676285 180.0
253.726044 92.0
253.76506 104.0
253.812622 104.0
254.037003 112.0
254.075867 224.0
254.138321 10900.0
254.18457 184.0
254.221817 104.0
254.289963 68.0
254.506516 80.0
254.739349 108.0
254.771103 48.0
254.869598 88.0
255.095245 96.0
255.138199 1312.0
255.228775 164.0
255.460938 88.0
255.626389 36.0
256.146729 168.0
256.451233 88.0
256.653076 96.0
256.722229 112.0
256.897644 108.0
256.958252 72.0
257.041199 164.0
257.413452 104.0
257.65744 84.0
257.922668 104.0
258.098511 128.0
258.287201 124.0
258.595154 112.0
259.991669 48.0
260.537537 92.0
262.465393 52.0
264.445709 100.0
264.526611 108.0
264.633453 104.0
265.521332 108.0
266.472443 116.0
268.940826 32.0
269.188934 112.0
270.136749 108.0
270.257812 40.0
271.794525 104.0
275.924774 80.0
277.915314 136.0
285.427521 80.0
292.845734 108.0
295.946503 76.0
300.103943 108.0
300.234985 112.0
310.200836 1144.0
311.19458 136.0
312.194366 132.0
312.433563 116.0
316.931549 72.0
323.903595 48.0
328.299194 40.0
334.898956 44.0
344.742493 76.0
350.073273 56.0
351.571869 32.0
356.436249 52.0
357.628387 100.0
366.093903 64.0
366.848297 36.0
369.051147 88.0
370.520844 124.0
377.128021 120.0
388.624115 84.0
399.421234 64.0
413.007324 36.0
422.98468 64.0
429.134644 64.0
431.070496 96.0
436.962494 76.0
440.389069 48.0
442.258057 76.0
446.836304 88.0
456.356842 68.0
467.383728 92.0
479.45697 40.0
500.942291 92.0
513.880798 48.0
514.485596 68.0
518.941895 68.0
520.829712 68.0
531.5448 52.0
537.489929 40.0
538.062256 132.0
539.596069 76.0
553.063538 80.0
556.297852 80.0
557.490845 124.0
559.466309 68.0
562.620178 108.0
573.892944 92.0
595.214233 68.0
604.035522 64.0
607.077881 112.0
618.730103 216.0
619.814758 88.0
635.621826 124.0
679.227539 96.0
692.372437 228.0
696.888916 96.0
739.663879 160.0
760.562744 240.0
764.729004 120.0
765.312561 116.0
782.125671 112.0
793.471375 244.0
797.097229 96.0
809.25824 76.0
815.577881 104.0
816.237366 180.0
820.901062 56.0
825.995544 108.0
827.987305 180.0
829.287903 84.0
839.573303 44.0
851.681091 84.0
852.285278 188.0
852.552612 140.0
852.825745 188.0
853.878113 160.0
858.741272 200.0
878.04303 208.0
878.326172 164.0
882.879822 128.0
884.566101 176.0
893.890015 128.0
897.833618 68.0
898.477844 148.0
914.031921 228.0
915.229736 56.0
915.380249 120.0
916.77179 72.0
921.937561 68.0
936.449646 92.0
937.753479 108.0
938.161865 40.0
938.332581 148.0
941.358948 200.0
955.41333 204.0
957.838745 136.0
958.75061 188.0
963.143494 112.0
970.470703 156.0
971.475403 136.0
972.269592 108.0
977.408752 132.0
982.50531 76.0
986.254395 156.0
986.520813 148.0
986.766296 176.0
988.84137 72.0
989.580017 200.0
991.008057 192.0
993.095581 188.0
999.371277 168.0
1002.336975 60.0
1004.039062 184.0
1004.688721 132.0
1007.295898 96.0
1008.932556 140.0
1009.027405 220.0
1011.20343 200.0
1014.161255 180.0
1014.338745 172.0
1015.518127 76.0
1015.974792 68.0
1016.292053 144.0
1020.929138 120.0
1021.43158 248.0
1022.038086 60.0
1022.175964 152.0
1022.481384 184.0
1023.557251 136.0
1024.525391 144.0
1031.167847 172.0
1031.212646 92.0
1031.922119 196.0
1033.764282 168.0
1036.677979 196.0
1041.046631 200.0
1041.566895 116.0
1042.190063 120.0
1044.337158 140.0
1051.075806 96.0
1051.25 164.0
1052.715332 48.0
1057.065796 196.0
1060.601929 80.0
1061.185425 188.0
1062.871826 144.0
1068.635132 196.0
1068.732666 108.0
1069.246704 196.0
1070.307861 216.0
1070.620361 160.0
1072.157837 156.0
1072.412109 132.0
1075.771362 120.0
1076.874878 160.0
1079.639404 140.0
1079.828979 208.0
1082.12793 168.0
1082.924805 168.0
1084.398926 156.0
1086.044678 156.0
1086.254517 180.0
1087.29126 256.0
1089.372681 104.0
1091.133911 140.0
1091.541504 184.0
1093.120239 148.0
1093.258423 180.0
1095.332397 124.0
1098.1073 68.0
1098.760376 204.0
1098.846069 92.0
1099.215576 168.0
1099.736938 104.0
1100.998047 160.0
1103.330444 192.0
1110.077393 180.0
1110.46875 176.0
1113.468628 164.0
1113.521729 132.0
1114.797241 184.0
1115.388794 160.0
1117.763062 44.0
1118.381958 88.0
1120.039917 132.0
1120.086548 180.0
1120.466187 184.0
1123.292847 156.0
1125.929199 176.0
1131.686646 120.0
1134.996704 180.0
1135.835815 164.0
1136.989014 108.0
1137.136719 124.0
1137.411865 144.0
1137.566284 108.0
1137.713989 236.0
1139.621338 128.0
1141.90686 188.0
1142.458496 84.0
1142.606445 192.0
1143.777344 184.0
1144.053345 248.0
1146.019897 136.0
1147.745483 68.0
1149.431763 172.0
1150.113403 136.0
1150.592651 176.0
1151.39502 240.0
1153.051392 192.0
1154.545532 84.0
1154.748413 208.0
1157.089722 88.0
1157.197998 108.0
1158.464478 252.0
1159.464844 200.0
1163.082275 120.0
1163.170532 204.0
1163.414917 164.0
1165.037964 192.0
1166.220337 224.0
1167.464478 52.0
1168.614136 124.0
1169.505615 216.0
1172.679565 136.0
1174.179443 172.0
1174.759155 216.0
1175.707642 120.0
1176.362915 88.0
1179.040283 172.0
1179.16333 164.0
1181.146118 248.0
1181.727661 192.0
1182.52832 200.0
1183.110107 172.0
1183.986572 164.0
1184.21936 176.0
1184.589355 148.0
1187.324097 84.0
1187.612183 180.0
1188.064941 168.0
1188.263794 176.0
1191.724243 160.0
1191.875366 68.0
1197.585327 184.0
1199.64563 220.0
1204.075317 184.0
1204.593384 112.0
1207.330444 48.0
1208.963013 196.0
1209.47522 172.0
1210.061157 208.0
1210.209106 40.0
1212.841553 160.0
1213.756714 148.0
1215.393677 140.0
1217.319092 116.0
1217.48999 160.0
1218.740356 188.0
1219.456177 268.0
1220.067871 148.0
1220.276489 80.0
1222.836304 76.0
1223.246948 64.0
1223.539429 152.0
1223.595093 212.0
1225.266602 172.0
1229.164062 88.0
1230.860352 112.0
1231.677368 200.0
1231.726318 220.0
1232.243286 180.0
1232.634521 164.0
1233.074829 224.0
1233.619995 168.0
1234.500977 156.0
1234.83667 192.0
1235.892944 196.0
1236.046875 144.0
1236.522827 188.0
1236.746704 152.0
1237.537842 192.0
1238.882446 128.0
1239.267822 124.0
1239.470947 76.0
1240.375122 96.0
1241.74939 128.0
1243.749023 160.0
1244.394897 200.0
1245.848633 48.0
1246.909668 132.0
1247.092407 128.0
1247.900757 60.0
1248.899414 256.0
1249.504272 176.0
1250.151611 260.0
1251.411621 152.0
1252.390503 164.0
1252.834229 196.0
1253.193604 76.0
1253.313354 116.0
1254.053345 188.0
1256.267456 240.0
1259.72644 68.0
1260.694458 188.0
1260.743896 164.0
1261.316406 104.0
1263.529785 136.0
1264.074585 108.0
1264.152466 212.0
1264.223267 64.0
1265.568115 276.0
1266.942139 248.0
1267.749878 112.0
1269.054199 232.0
1269.784546 204.0
1270.210083 136.0
1270.905396 128.0
1271.4021 152.0
1271.955688 240.0
1272.623047 224.0
1272.67981 140.0
1272.928345 168.0
1273.098755 148.0
1278.726562 224.0
1278.978516 208.0
1279.156494 136.0
1282.276245 184.0
1284.62915 196.0
1285.228516 216.0
1285.556763 128.0
1285.74939 244.0
1287.462769 204.0
1289.763306 168.0
1291.47229 140.0
1293.346924 136.0
1294.73584 152.0
1297.444336 156.0
1298.921631 164.0
1299.352051 172.0
1299.847168 208.0
1300.457153 232.0
1300.995483 176.0
1302.108398 184.0
1302.359863 136.0
1302.790771 148.0
1302.956055 76.0
1303.883057 144.0
1304.407715 172.0
1305.752197 196.0
1308.083496 180.0
1308.961792 156.0
1309.905273 160.0
1310.272705 136.0
1310.668945 140.0
1311.159058 40.0
1311.332031 184.0
1311.598633 144.0
1312.341187 156.0
1312.434937 152.0
1313.285889 88.0
1313.480713 72.0
1313.754761 100.0
1313.949585 136.0
1314.526733 212.0
1314.837158 220.0
1314.945312 176.0
1315.117676 184.0
1316.533691 180.0
1316.728638 108.0
1318.173462 168.0
1318.25293 184.0
1319.257568 96.0
1320.826782 112.0
1321.137817 144.0
1321.239136 76.0
1321.33313 136.0
1321.557495 116.0
1322.548828 120.0
1323.866577 172.0
1326.902588 184.0
1330.181641 204.0
1330.951172 88.0
1331.466675 236.0
1331.597412 228.0
1331.670044 248.0
1332.556274 48.0
1333.653687 200.0
1334.256958 164.0
1334.547852 208.0
1335.816528 220.0
1335.994629 184.0
1336.008911 172.0
1336.032837 168.0
1336.540771 144.0
1337.122925 136.0
1337.188477 56.0
1337.654297 232.0
1337.792603 120.0
1337.923584 212.0
1338.20752 108.0
1338.345825 156.0
1338.717285 152.0
1339.095947 252.0
1341.770264 156.0
1342.397339 96.0
1345.921753 100.0
1346.118896 164.0
1347.557861 116.0
1348.273926 136.0
1348.55896 56.0
1350.013794 180.0
1350.708618 188.0
1350.825684 132.0
1351.94519 132.0
1352.150024 144.0
1352.706299 156.0
1353.072388 236.0
1354.714111 112.0
1355.086426 56.0
1355.394653 200.0
1355.687256 76.0
1355.877808 124.0
1356.22229 216.0
1356.926025 180.0
1357.439453 164.0
1357.578613 156.0
1357.651978 196.0
1358.026001 164.0
1360.2052 136.0
1360.873291 124.0
1362.812256 164.0
1363.407471 104.0
1363.635376 108.0
1363.694092 120.0
1364.31897 176.0
1364.686523 232.0
1364.804199 160.0
1365.223389 48.0
1365.958862 160.0
1366.481201 224.0
1366.768066 216.0
1367.44519 156.0
1367.798462 200.0
1367.901489 204.0
1368.453613 192.0
1369.057495 120.0
1369.985474 172.0
1370.375977 228.0
1370.967651 176.0
1371.31189 176.0
1372.742065 192.0
1373.125488 132.0
1373.612305 52.0
1374.689575 40.0
1376.409424 160.0
1376.918945 168.0
1377.007568 128.0
1377.155396 148.0
1377.524658 208.0
1377.768433 148.0
1378.063965 112.0
1378.810303 196.0
1379.623413 128.0
1380.288818 128.0
1380.784302 132.0
1381.662476 256.0
1382.241577 132.0
1383.129761 192.0
1383.335571 132.0
1383.958862 124.0
1384.73645 132.0
1385.102783 216.0
1385.158569 128.0
1385.44751 188.0
1385.588257 136.0
1386.988892 160.0
1388.219604 140.0
1388.612671 184.0
1390.22998 152.0
1391.009277 180.0
1391.759033 136.0
1392.523926 144.0
1393.036499 40.0
1394.128662 140.0
1395.555908 168.0
1395.977417 216.0
1396.381348 208.0
1396.82019 176.0
1396.983765 200.0
1398.338013 56.0
1398.732544 116.0
1399.112183 192.0
1399.253662 176.0
1400.302002 176.0
1400.378052 196.0
1400.616455 220.0
1401.756226 144.0
1402.568604 148.0
1404.276123 188.0
1404.402832 212.0
1404.828003 240.0
1405.297119 152.0
1405.596558 132.0
1405.686035 136.0
1406.402588 168.0
1407.081787 148.0
1407.484985 204.0
1407.611938 164.0
1408.358765 200.0
1409.329956 168.0
1409.384766 208.0
1409.770874 240.0
1409.972656 56.0
1410.241699 72.0
1410.65271 164.0
1412.79895 152.0
1413.165649 224.0
1413.951294 220.0
1414.28064 152.0
1414.991821 172.0
1415.478516 156.0
1415.71814 40.0
1416.474609 188.0
1416.706787 144.0
1416.953979 208.0
1417.133789 140.0
1417.201294 180.0
1417.928101 164.0
1418.512817 212.0
1418.587769 148.0
1419.29248 120.0
1419.584961 192.0
1421.490234 180.0
1422.150757 200.0
1423.096558 104.0
1423.427002 192.0
1423.839966 160.0
1424.741333 160.0
1425.04187 128.0
1426.026245 160.0
1426.19165 124.0
1426.409668 68.0
1429.169678 160.0
1429.357788 144.0
1429.658813 204.0
1431.156738 180.0
1432.052856 164.0
1432.128174 176.0
1432.904175 128.0
1433.122559 352.0
1433.265747 76.0
1433.378784 132.0
1434.441528 164.0
1434.758057 220.0
1435.13501 184.0
1436.002319 112.0
1436.07019 168.0
1437.179077 112.0
1437.337524 136.0
1437.820557 200.0
1438.001709 132.0
1438.431885 116.0
1438.484741 160.0
1438.94519 36.0
1439.111328 168.0
1439.18689 104.0
1439.360474 220.0
1439.436035 196.0
1440.145874 132.0
1440.387573 100.0
1440.463135 144.0
1440.976929 108.0
1441.596436 80.0
1442.677246 168.0
1444.121582 180.0
1444.197144 180.0
1444.393799 180.0
1445.680054 144.0
1445.816284 176.0
1446.255249 184.0
1446.330933 76.0
1446.868408 180.0
1449.261719 208.0
1449.466309 108.0
1449.837646 32.0
1450.064941 176.0
1451.013794 168.0
1451.122192 136.0
1451.262695 160.0
1451.56604 140.0
1452.036255 152.0
1452.134766 132.0
1452.536743 148.0
1453.262573 192.0
1454.972778 184.0
1455.116943 148.0
1455.709229 28.0
1455.777588 144.0
1455.868774 160.0
1456.70459 172.0
1456.840942 180.0
1457.509521 68.0
1458.444336 180.0
1458.923218 156.0
1459.227295 156.0
1459.386963 224.0
1460.033325 144.0
1460.177856 112.0
1460.246216 164.0
1460.322266 164.0
1460.97644 128.0
1462.696289 132.0
1463.076904 200.0
1463.259644 192.0
1463.724121 144.0
1464.036255 116.0
1464.295166 212.0
1464.691284 188.0
1465.056885 88.0
1465.163574 116.0
1465.338867 140.0
1465.818848 172.0
1466.314209 228.0
1466.535156 208.0
1466.685791 116.0
1466.977295 176.0
1467.068848 128.0
1467.343262 168.0
1467.876953 176.0
1468.815063 136.0
1469.249878 196.0
1470.280029 116.0
1470.608154 164.0
1471.088989 124.0
1471.180664 148.0
1471.539429 100.0
1472.096924 204.0
1472.303101 208.0
1472.425293 164.0
1473.387695 172.0
1473.609253 152.0
1474.136475 164.0
1474.365723 184.0
1474.801392 212.0
1475.100708 132.0
1475.374756 308.0
1475.626953 104.0
1477.026489 108.0
1477.470093 156.0
1477.592529 68.0
1478.135742 104.0
1479.176636 188.0
1479.322144 32.0
1479.773804 192.0
1480.187256 128.0
1481.063843 264.0
1481.450928 168.0
1481.588867 168.0
1482.094482 152.0
1482.776489 208.0
1482.952881 136.0
1483.389771 80.0
1483.86499 180.0
1484.210083 148.0
1484.685547 76.0
1485.130371 192.0
1485.30188 208.0
1485.820679 136.0
1486.664795 216.0
1487.862183 64.0
1488.345825 168.0
1489.252075 156.0
1490.266113 140.0
1490.957642 112.0
1491.318848 196.0
1491.818481 84.0
1493.971802 48.0
1494.748779 84.0
1496.049561 196.0
1497.119751 184.0
1497.682007 140.0
1498.883911 64.0
1499.011719 224.0
1499.084229 128.0
1500.594971 80.0
1500.79541 132.0
1501.574341 220.0
1501.66687 192.0
1502.060181 216.0
1502.160522 192.0
1503.973877 100.0
1504.228516 168.0
1505.263062 60.0
