>compound MLS001401406-01!TEGASEROD MALEATE
>formula C16H23N5O
>ionization [M+H]+
>parentmass 302.198242
#inchi InChI=1S/C16H23N5O/c1-3-4-5-8-18-16(17)21-20-11-12-10-19-15-7-6-13(22-2)9-14(12)15/h6-7,9-11,19H,3-5,8H2,1-2H3,(H3,17,18,21)
#inchikey IKBKZGMPCYNSLU
#origInchi InChI=1S/C16H23N5O.C4H4O4/c1-3-4-5-8-18-16(17)21-20-11-12-10-19-15-7-6-13(22-2)9-14(12)15;5-3(6)1-2-4(7)8/h6-7,9-11,19H,3-5,8H2,1-2H3,(H3,17,18,21);1-2H,(H,5,6)(H,7,8)/b;2-1-
#Ion_Source LC-ESI
#Instrument qTof
#Compound_Source NIH Pharmacologically Active Library
#PI Dorrestein
#Data_Collector VP/LMS
#Scan -1
#Precursor_MZ 302.201
#ExactMass 301.19
#Charge 1
#CAS_Number N/A
#Pubmed_ID N/A
#Smiles CCCCCN=C(N)NN=Cc1c[nH]c2ccc(OC)cc12.OC(=O)/C=C\C(=O)O
#INCHI_AUX N/A
#Library_Class 1
#SpectrumID CCMSLIB00000085394
#IonMode Positive
#UpdateWorkflowName UPDATE-SINGLE-ANNOTATED-GOLD
#LibraryQualityString Gold
#TaskID d252d724072548979f1f6f1ced849daf
##Scan# 1773
#SpectrumFile p4-A03_GA3_01_18327.mzXML
#LibraryName Pharm_Active_Library.mgf
#MQScore -1
#Organism Pharm_Active_Library
#TIC_Query 0
#RT_Query -1
#MZErrorPPM -1
#SharedPeaks 0
#MassDiff 0
#LibMZ -1
#SpecMZ 302.201
#SpecCharge 0
#internalFilename spec-00000.mgf

>collision 10
44.917332 88.0
44.955631 372.0
44.987427 220.0
45.010754 300.0
45.024956 164.0
45.054981 176.0
45.066853 192.0
45.105007 160.0
45.170826 140.0
45.192539 108.0
45.20602 148.0
45.237782 144.0
45.247829 168.0
45.260803 148.0
45.273129 136.0
45.283379 140.0
45.28857 120.0
45.324387 272.0
45.339275 116.0
45.365726 216.0
45.382732 156.0
45.427555 172.0
45.463219 116.0
45.476929 168.0
45.499458 44.0
45.511543 168.0
45.522881 136.0
45.56258 156.0
45.584641 48.0
45.591824 200.0
45.618458 200.0
45.639191 252.0
45.677467 200.0
45.692989 128.0
45.707581 180.0
45.722595 132.0
45.744129 240.0
45.764324 152.0
45.78183 176.0
45.805805 120.0
45.835117 156.0
45.847839 52.0
45.901764 184.0
45.932785 32.0
45.94257 152.0
45.954369 108.0
45.989456 132.0
46.013332 192.0
46.038059 140.0
46.055721 208.0
46.086689 308.0
46.117893 176.0
46.189434 164.0
46.205669 256.0
46.216492 192.0
46.251678 120.0
46.284935 220.0
46.320736 40.0
46.335819 120.0
46.338783 200.0
46.369514 152.0
46.380203 140.0
46.423008 384.0
46.449512 96.0
46.468506 164.0
46.480717 172.0
46.497746 224.0
46.549946 152.0
46.562168 108.0
46.598846 408.0
46.627716 212.0
46.660004 116.0
46.669521 180.0
46.69128 168.0
46.721924 204.0
46.767471 100.0
46.783913 132.0
46.810104 132.0
46.890053 192.0
46.913223 208.0
46.952766 188.0
46.964863 160.0
46.982777 168.0
47.02737 188.0
47.063301 120.0
47.075588 152.0
47.114441 100.0
47.134327 108.0
47.193104 188.0
47.21088 132.0
47.255306 172.0
47.277054 172.0
47.288746 232.0
47.366909 160.0
47.376499 48.0
47.388618 208.0
47.416965 160.0
47.432682 132.0
47.453247 60.0
47.488976 144.0
47.508106 120.0
47.534172 196.0
47.557106 124.0
47.569378 160.0
47.633026 180.0
47.664623 96.0
47.684631 172.0
47.720978 184.0
47.76086 136.0
47.776489 188.0
47.787834 136.0
47.811768 160.0
47.837917 160.0
47.853596 124.0
47.891621 120.0
47.928818 164.0
47.944782 164.0
47.968784 196.0
47.981194 140.0
47.992344 180.0
48.010147 144.0
48.030838 296.0
48.065117 156.0
48.115669 164.0
48.126415 152.0
48.167709 76.0
48.1922 208.0
48.210979 76.0
48.219368 176.0
48.235203 324.0
48.255981 128.0
48.265617 224.0
48.302242 240.0
48.324257 244.0
48.355076 156.0
48.383221 148.0
48.406567 192.0
48.426147 32.0
48.457771 212.0
48.498585 244.0
48.509796 196.0
48.527157 144.0
48.555042 148.0
48.580009 140.0
48.639679 140.0
48.650784 160.0
48.666058 144.0
48.705688 216.0
48.718658 192.0
48.744537 160.0
48.768951 176.0
48.799442 188.0
48.820297 60.0
48.842331 200.0
48.878723 104.0
48.903774 140.0
48.916035 188.0
48.920773 152.0
48.959465 132.0
48.98753 108.0
49.038879 196.0
49.048634 152.0
49.062279 188.0
49.076515 136.0
49.094643 60.0
49.107197 168.0
49.126724 180.0
49.13649 328.0
49.146255 168.0
49.160702 228.0
49.197895 156.0
49.218067 192.0
49.228615 180.0
49.240578 188.0
49.253754 68.0
49.306847 148.0
49.331493 228.0
49.357174 188.0
49.397732 80.0
49.428513 104.0
49.486805 192.0
49.534054 160.0
49.545338 164.0
49.555931 64.0
49.56694 196.0
49.585262 116.0
49.590858 108.0
49.609188 156.0
49.633022 112.0
49.653053 352.0
49.68211 124.0
49.697544 44.0
49.722801 224.0
49.734032 212.0
49.782276 352.0
49.806171 180.0
49.847206 164.0
49.862049 188.0
49.888748 140.0
49.902607 208.0
49.916077 400.0
49.94339 144.0
49.965897 156.0
49.978626 172.0
50.016556 180.0
50.037674 132.0
50.054569 108.0
50.075695 44.0
50.085552 260.0
50.102329 132.0
50.115139 112.0
50.12923 144.0
50.14473 224.0
50.165329 176.0
50.179771 252.0
50.198303 64.0
50.211536 156.0
50.222961 196.0
50.260368 128.0
50.270878 460.0
50.335403 252.0
50.348911 308.0
50.368801 328.0
50.391563 192.0
50.402313 168.0
50.415703 296.0
50.44397 108.0
50.456692 56.0
50.470749 204.0
50.505756 200.0
50.55146 140.0
50.624287 260.0
50.676907 232.0
50.692333 284.0
50.717163 140.0
50.734173 148.0
50.746315 192.0
50.759056 240.0
50.815014 316.0
50.840355 172.0
50.887043 144.0
50.899384 136.0
50.915798 124.0
50.93568 196.0
50.949032 252.0
50.964096 168.0
51.008446 192.0
51.023788 196.0
51.051685 384.0
51.06477 140.0
51.08287 176.0
51.127335 196.0
51.171753 36.0
51.193111 64.0
51.237267 96.0
51.250053 164.0
51.270504 196.0
51.295696 176.0
51.305676 84.0
51.317707 188.0
51.33847 164.0
51.35273 144.0
51.391247 164.0
51.418556 204.0
51.43549 164.0
51.456902 156.0
51.469753 156.0
51.517258 244.0
51.554031 60.0
51.623493 156.0
51.638382 140.0
51.651257 144.0
51.661697 308.0
51.695171 164.0
51.720562 140.0
51.732822 188.0
51.763924 188.0
51.7901 176.0
51.799526 124.0
51.814056 160.0
51.834511 148.0
51.876076 156.0
51.927883 152.0
51.948532 184.0
51.968578 140.0
51.984562 188.0
51.988621 120.0
51.993759 132.0
52.032448 180.0
52.05542 224.0
52.072655 108.0
52.105694 136.0
52.12006 84.0
52.134541 104.0
52.146473 200.0
52.168049 144.0
52.188175 372.0
52.20631 196.0
52.223568 124.0
52.243393 220.0
52.273922 264.0
52.287251 152.0
52.305584 212.0
52.319462 128.0
52.334377 176.0
52.358856 208.0
52.404877 316.0
52.423767 144.0
52.453953 148.0
52.495766 108.0
52.510185 440.0
52.533264 52.0
52.57222 212.0
52.583191 160.0
52.612854 184.0
52.639561 148.0
52.65451 188.0
52.700985 164.0
52.752766 172.0
52.762886 128.0
52.787464 140.0
52.798134 212.0
52.808781 216.0
52.823437 216.0
52.838791 204.0
52.860447 160.0
52.871368 184.0
52.909004 132.0
52.924992 184.0
52.95557 152.0
52.998802 152.0
53.027782 80.0
53.045177 172.0
53.059673 164.0
53.10463 136.0
53.117683 148.0
53.145248 40.0
53.20224 148.0
53.226532 212.0
53.26865 184.0
53.296253 116.0
53.324562 192.0
53.346565 156.0
53.372955 188.0
53.421566 292.0
53.43729 184.0
53.463482 152.0
53.49696 152.0
53.527534 52.0
53.563942 188.0
53.610565 108.0
53.645546 104.0
53.661583 88.0
53.715542 160.0
53.742313 320.0
53.76807 128.0
53.810402 64.0
53.823544 352.0
53.838146 232.0
53.858593 124.0
53.873199 28.0
53.892193 144.0
53.92934 216.0
53.950653 188.0
53.96381 184.0
53.984283 108.0
54.075752 420.0
54.108727 164.0
54.143635 284.0
54.171627 160.0
54.192139 160.0
54.215584 172.0
54.243431 156.0
54.277153 228.0
54.306484 152.0
54.319683 120.0
54.332886 96.0
54.346581 204.0
54.360146 192.0
54.390194 156.0
54.401863 192.0
54.432693 156.0
54.453255 224.0
54.464554 144.0
54.490768 320.0
54.504669 196.0
54.516426 200.0
54.531124 140.0
54.565517 164.0
54.588078 124.0
54.610519 220.0
54.651711 132.0
54.669369 148.0
54.704693 196.0
54.73114 116.0
54.765064 136.0
54.77832 136.0
54.806221 192.0
54.835785 96.0
54.849979 204.0
54.882957 156.0
54.897705 136.0
54.93462 252.0
54.953758 224.0
55.00499 168.0
55.023125 212.0
55.040844 156.0
55.070377 180.0
55.091057 84.0
55.102879 128.0
55.114697 164.0
55.154598 188.0
55.164948 72.0
55.183632 296.0
55.213741 88.0
55.228947 312.0
55.237869 128.0
55.250721 56.0
55.270756 236.0
55.289192 188.0
55.310223 96.0
55.329159 164.0
55.33952 152.0
55.380985 184.0
55.401241 124.0
55.418022 128.0
55.437283 320.0
55.450623 312.0
55.463963 184.0
55.477684 156.0
55.495094 184.0
55.512394 84.0
55.532166 108.0
55.614025 140.0
55.666 220.0
55.708805 176.0
55.720692 212.0
55.740005 196.0
55.763042 224.0
55.775677 164.0
55.793514 184.0
55.803921 116.0
55.848534 136.0
55.88126 44.0
55.891678 140.0
55.91251 148.0
55.953934 164.0
55.969078 280.0
55.986946 132.0
56.009289 168.0
56.048023 88.0
56.06435 276.0
56.076221 204.0
56.097206 164.0
56.114742 168.0
56.140446 124.0
56.16938 160.0
56.194973 160.0
56.206913 136.0
56.235928 116.0
56.249363 192.0
56.267277 172.0
56.289673 160.0
56.341202 176.0
56.359879 176.0
56.383785 120.0
56.39724 280.0
56.421154 316.0
56.433014 176.0
56.455547 244.0
56.474991 140.0
56.499691 312.0
56.517689 176.0
56.539322 72.0
56.569717 248.0
56.581642 220.0
56.615673 196.0
56.63792 272.0
56.648624 188.0
56.68119 376.0
56.717556 72.0
56.73502 136.0
56.757336 172.0
56.777996 180.0
56.816528 96.0
56.875053 132.0
56.918591 120.0
56.9291 116.0
56.942616 124.0
56.967487 316.0
56.986179 108.0
56.999069 208.0
57.039181 340.0
57.070351 108.0
57.104469 128.0
57.110069 136.0
57.143242 164.0
57.171135 376.0
57.190701 152.0
57.250179 164.0
57.269035 144.0
57.282993 240.0
57.31604 140.0
57.336796 100.0
57.382015 108.0
57.458073 196.0
57.498165 156.0
57.527348 132.0
57.540188 172.0
57.563423 176.0
57.587242 148.0
57.597816 192.0
57.612923 216.0
57.649185 180.0
57.661148 144.0
57.671001 316.0
57.685337 192.0
57.715698 172.0
57.729305 112.0
57.758041 100.0
57.775681 200.0
57.850349 104.0
57.871544 140.0
57.9132 188.0
57.93465 168.0
57.973034 104.0
58.007893 180.0
58.030632 160.0
58.073093 232.0
58.100521 148.0
58.127708 132.0
58.160339 168.0
58.182869 152.0
58.20182 204.0
58.224106 128.0
58.246944 232.0
58.276566 124.0
58.300827 128.0
58.327904 172.0
58.363152 120.0
58.378357 140.0
58.395088 116.0
58.407257 124.0
58.433369 136.0
58.438667 136.0
58.50008 136.0
58.512257 144.0
58.530529 156.0
58.556416 156.0
58.581375 156.0
58.623451 140.0
58.645664 228.0
58.666126 148.0
58.690208 176.0
58.717968 120.0
58.765259 128.0
58.798828 164.0
58.809513 164.0
58.833939 384.0
58.86142 160.0
58.904182 88.0
58.916405 124.0
58.957661 180.0
58.990025 160.0
59.03669 132.0
59.041542 92.0
59.045666 212.0
59.089161 188.0
59.116703 108.0
59.130478 92.0
59.146221 140.0
59.176399 164.0
59.187119 200.0
59.205494 184.0
59.224957 376.0
59.256248 184.0
59.271366 136.0
59.317345 296.0
59.331139 92.0
59.364189 216.0
59.377716 120.0
59.398613 96.0
59.441574 136.0
59.479519 204.0
59.532143 184.0
59.552109 192.0
59.589809 152.0
59.602802 56.0
59.626587 300.0
59.664852 184.0
59.711182 224.0
59.768761 168.0
59.788231 288.0
59.816242 128.0
59.823345 132.0
59.826225 180.0
59.85815 180.0
59.893749 140.0
59.897663 140.0
59.904297 216.0
60.026112 72.0
60.036907 240.0
60.050789 168.0
60.065277 132.0
60.096375 212.0
60.110073 168.0
60.129471 168.0
60.24139 240.0
60.278152 324.0
60.290089 132.0
60.307091 148.0
60.320999 288.0
60.353466 156.0
60.390583 152.0
60.406052 96.0
60.43222 48.0
60.459732 144.0
60.499741 140.0
60.505558 200.0
60.520435 180.0
60.595249 132.0
60.627544 148.0
60.646893 192.0
60.720478 188.0
60.732327 144.0
60.744862 156.0
60.821331 124.0
60.8353 148.0
60.852379 180.0
60.863247 180.0
60.884987 204.0
60.898571 220.0
60.903019 164.0
60.90749 320.0
60.920712 120.0
60.974468 236.0
61.017757 160.0
61.054382 100.0
61.074589 244.0
61.09676 360.0
61.118164 216.0
61.130611 100.0
61.142429 164.0
61.183395 368.0
61.200722 164.0
61.230244 108.0
61.275417 128.0
61.30814 96.0
61.347767 132.0
61.370121 168.0
61.37709 104.0
61.382122 192.0
61.4048 48.0
61.418839 44.0
61.495991 152.0
61.512463 152.0
61.523388 124.0
61.543427 168.0
61.559299 164.0
61.571793 128.0
61.58429 92.0
61.608948 168.0
61.634705 308.0
61.645786 276.0
61.667099 132.0
61.739487 240.0
61.814102 180.0
61.837578 124.0
61.854042 208.0
61.873581 108.0
61.929955 160.0
61.945618 120.0
61.963619 180.0
61.981655 148.0
62.0177 180.0
62.04121 128.0
62.058456 184.0
62.081978 168.0
62.099232 132.0
62.113346 168.0
62.178059 180.0
62.190231 180.0
62.201218 60.0
62.213779 164.0
62.227909 168.0
62.24675 172.0
62.259037 204.0
62.31884 192.0
62.345825 172.0
62.387226 88.0
62.399323 156.0
62.413311 196.0
62.423061 128.0
62.44017 152.0
62.453506 208.0
62.46521 156.0
62.487236 60.0
62.498249 204.0
62.514858 200.0
62.529724 164.0
62.542313 136.0
62.561203 152.0
62.586357 164.0
62.625763 200.0
62.649776 164.0
62.674603 292.0
62.692486 172.0
62.735264 188.0
62.753456 140.0
62.828003 176.0
62.8512 200.0
62.884342 172.0
62.902878 140.0
62.949005 116.0
62.952755 216.0
62.982235 248.0
62.999928 80.0
63.08466 44.0
63.124565 136.0
63.146362 200.0
63.150795 168.0
63.186161 204.0
63.200401 164.0
63.217808 132.0
63.246292 208.0
63.28104 316.0
63.293789 136.0
63.306458 132.0
63.324913 196.0
63.359634 188.0
63.446743 196.0
63.464054 140.0
63.485531 120.0
63.536995 184.0
63.565845 216.0
63.570446 136.0
63.576374 152.0
63.614029 164.0
63.627937 160.0
63.666443 88.0
63.683403 212.0
63.698704 196.0
63.73634 124.0
63.760178 108.0
63.772892 156.0
63.795143 132.0
63.834034 132.0
63.857697 236.0
63.882607 84.0
63.909653 132.0
63.943447 136.0
63.969212 148.0
63.995605 152.0
64.007492 200.0
64.02108 76.0
64.035416 32.0
64.056427 188.0
64.073059 324.0
64.10392 384.0
64.116669 304.0
64.18557 180.0
64.223488 176.0
64.260185 160.0
64.287308 284.0
64.298477 200.0
64.327209 124.0
64.359138 164.0
64.396599 192.0
64.420067 188.0
64.433067 196.0
64.451393 180.0
64.489975 160.0
64.516525 96.0
64.528503 68.0
64.549286 284.0
64.565277 160.0
64.57769 184.0
64.595673 324.0
64.637268 152.0
64.662872 176.0
64.68528 112.0
64.713699 176.0
64.750153 272.0
64.765816 164.0
64.78389 180.0
64.789185 104.0
64.79493 196.0
64.810928 132.0
64.843849 204.0
64.859245 376.0
64.873955 108.0
64.879738 176.0
64.900467 240.0
64.950249 168.0
65.010239 192.0
65.033325 152.0
65.049164 184.0
65.066818 176.0
65.087692 212.0
65.102142 188.0
65.1166 132.0
65.127846 156.0
65.17627 168.0
65.198532 60.0
65.222641 144.0
65.247505 160.0
65.277306 184.0
65.340034 172.0
65.357735 108.0
65.391525 136.0
65.415672 152.0
65.440781 180.0
65.479515 332.0
65.485153 216.0
65.517128 124.0
65.567078 160.0
65.584808 160.0
65.597702 152.0
65.610992 180.0
65.623497 180.0
65.655746 140.0
65.692848 156.0
65.70575 120.0
65.759758 256.0
65.80484 172.0
65.821236 136.0
65.870842 196.0
65.897881 188.0
65.936661 116.0
65.957672 140.0
65.980301 176.0
65.991623 172.0
66.020729 172.0
66.033669 128.0
66.095139 208.0
66.112938 324.0
66.152962 160.0
66.159096 116.0
66.235161 164.0
66.317001 184.0
66.328354 228.0
66.341316 144.0
66.364502 120.0
66.389961 248.0
66.466202 96.0
66.487297 180.0
66.550209 212.0
66.581459 136.0
66.600952 116.0
66.617195 188.0
66.635391 140.0
66.657814 216.0
66.716324 160.0
66.730957 88.0
66.74559 52.0
66.769981 156.0
66.800003 88.0
66.825287 224.0
66.856819 80.0
66.875999 224.0
66.895271 180.0
66.922951 148.0
66.966919 352.0
67.005447 208.0
67.032761 176.0
67.049751 180.0
67.058914 464.0
67.074455 144.0
67.106651 208.0
67.126625 56.0
67.186157 224.0
67.20166 148.0
67.243065 204.0
67.269173 152.0
67.296265 204.0
67.317551 32.0
67.351852 112.0
67.384903 172.0
67.399223 156.0
67.46624 176.0
67.480949 136.0
67.509521 288.0
67.558266 160.0
67.57254 32.0
67.614037 168.0
67.642914 160.0
67.664467 144.0
67.693665 76.0
67.711678 208.0
67.737885 164.0
67.752632 116.0
67.7854 164.0
67.806702 168.0
67.821457 320.0
67.849319 172.0
67.885391 76.0
67.975616 176.0
67.994995 208.0
68.011726 132.0
68.023216 188.0
68.034706 32.0
68.051125 96.0
68.076004 184.0
68.096413 152.0
68.111885 200.0
68.139145 220.0
68.184784 328.0
68.226913 140.0
68.249931 176.0
68.261444 100.0
68.297623 164.0
68.322304 184.0
68.338753 132.0
68.351913 168.0
68.371506 212.0
68.39682 156.0
68.414314 104.0
68.427628 180.0
68.468346 160.0
68.481972 112.0
68.506821 184.0
68.569298 196.0
68.600723 120.0
68.62764 152.0
68.650352 120.0
68.66346 308.0
68.699509 136.0
68.746643 216.0
68.789345 132.0
68.829941 156.0
68.846275 184.0
68.869888 172.0
68.894356 156.0
68.932678 204.0
68.949097 216.0
68.961182 352.0
68.983597 124.0
68.998474 200.0
69.015007 28.0
69.036499 148.0
69.052666 140.0
69.070374 108.0
69.092743 196.0
69.110939 160.0
69.18425 176.0
69.225571 176.0
69.242119 196.0
69.252884 172.0
69.300468 168.0
69.351067 68.0
69.374275 148.0
69.418175 352.0
69.461044 196.0
69.478752 156.0
69.491371 276.0
69.50267 56.0
69.553429 220.0
69.575005 144.0
69.589951 152.0
69.62886 168.0
69.654716 120.0
69.678818 204.0
69.749428 76.0
69.78434 128.0
69.811813 192.0
69.834229 164.0
69.856041 180.0
69.875816 60.0
69.927406 140.0
69.961021 164.0
69.990036 180.0
70.020889 132.0
70.043953 152.0
70.068947 140.0
70.118935 180.0
70.142265 160.0
70.17144 128.0
70.21563 52.0
70.241127 112.0
70.253532 116.0
70.268684 204.0
70.281555 208.0
70.285721 240.0
70.330795 180.0
70.382507 104.0
70.394196 168.0
70.409225 160.0
70.425926 68.0
70.462677 104.0
70.476044 60.0
70.491081 196.0
70.504456 208.0
70.517822 168.0
70.529526 192.0
70.574432 172.0
70.675018 180.0
70.69677 144.0
70.729385 156.0
70.748955 68.0
70.772102 132.0
70.806076 124.0
70.847466 200.0
70.883827 160.0
70.888756 112.0
70.933578 176.0
71.001625 128.0
71.015297 196.0
71.077324 196.0
71.107193 148.0
71.18856 200.0
71.213676 152.0
71.270439 152.0
71.302193 124.0
71.317314 112.0
71.335999 208.0
71.364487 132.0
71.401382 160.0
71.421562 172.0
71.434624 184.0
71.473686 212.0
71.490547 144.0
71.509056 152.0
71.550819 148.0
71.554955 120.0
71.56012 180.0
71.616211 292.0
71.628609 200.0
71.642082 144.0
71.667351 424.0
71.70443 132.0
71.723267 204.0
71.747276 172.0
71.760506 224.0
71.771706 176.0
71.792091 144.0
71.81739 180.0
71.842697 152.0
71.855759 188.0
71.90609 112.0
71.920258 116.0
71.952263 152.0
71.972649 208.0
72.01487 108.0
72.047516 208.0
72.065552 356.0
72.119629 196.0
72.136528 128.0
72.168709 192.0
72.187248 80.0
72.204163 148.0
72.223801 164.0
72.235802 204.0
72.256599 172.0
72.278374 184.0
72.31752 264.0
72.336136 56.0
72.369995 188.0
72.392014 176.0
72.4132 300.0
72.458069 188.0
72.50721 128.0
72.549782 104.0
72.564842 136.0
72.602592 152.0
72.617409 132.0
72.6325 188.0
72.662788 176.0
72.681831 148.0
72.692101 148.0
72.752319 164.0
72.779106 200.0
72.824745 152.0
72.904846 184.0
72.952705 140.0
72.986191 180.0
72.998596 124.0
73.006134 104.0
73.010612 216.0
73.06662 108.0
73.108078 168.0
73.118614 356.0
73.132225 112.0
73.144142 188.0
73.171379 164.0
73.186302 408.0
73.210541 108.0
73.222466 184.0
73.256531 152.0
73.276306 204.0
73.290604 148.0
73.31057 128.0
73.35537 136.0
73.384354 96.0
73.426979 124.0
73.469284 100.0
73.498436 144.0
73.51783 348.0
73.531799 220.0
73.591957 160.0
73.607468 192.0
73.657402 188.0
73.677902 208.0
73.694984 124.0
73.715492 136.0
73.741127 144.0
73.768478 128.0
73.792412 200.0
73.826607 148.0
73.838577 156.0
73.857391 176.0
73.884766 152.0
73.925827 200.0
73.94294 108.0
73.95887 196.0
74.009705 208.0
74.0541 376.0
74.097054 120.0
74.113144 204.0
74.13475 288.0
74.152313 160.0
74.17662 204.0
74.226334 244.0
74.238205 160.0
74.25647 96.0
74.273529 212.0
74.354942 252.0
74.371429 224.0
74.414345 136.0
74.438385 148.0
74.453842 108.0
74.476166 196.0
74.491585 176.0
74.520828 152.0
74.532089 176.0
74.557907 184.0
74.589577 152.0
74.601234 132.0
74.623955 104.0
74.646309 184.0
74.658348 88.0
74.701546 104.0
74.725433 196.0
74.74189 184.0
74.771889 192.0
74.803848 140.0
74.821808 104.0
74.835587 148.0
74.859688 172.0
74.883804 164.0
74.926865 76.0
74.990036 164.0
75.002052 196.0
75.021652 172.0
75.035446 140.0
75.073082 212.0
75.103233 400.0
75.117325 196.0
75.136734 164.0
75.149277 168.0
75.180939 148.0
75.228661 244.0
75.256287 56.0
75.278732 204.0
75.366829 60.0
75.380653 128.0
75.40139 60.0
75.422379 168.0
75.449791 212.0
75.461891 64.0
75.473991 228.0
75.512039 68.0
75.574318 148.0
75.595078 216.0
75.645218 136.0
75.698944 132.0
75.711868 156.0
75.717941 124.0
75.721779 152.0
75.754372 36.0
75.782394 160.0
75.804955 164.0
75.855331 136.0
75.86647 116.0
75.897736 100.0
75.925629 144.0
75.946907 160.0
75.960655 164.0
75.980644 168.0
76.014435 160.0
76.043938 180.0
76.109787 168.0
76.130745 148.0
76.144638 172.0
76.160271 256.0
76.24295 136.0
76.294075 176.0
76.312393 112.0
76.330589 120.0
76.344498 164.0
76.377434 188.0
76.414078 120.0
76.435173 156.0
76.474983 276.0
76.492813 212.0
76.506317 152.0
76.520439 348.0
76.586418 180.0
76.600349 168.0
76.619514 72.0
76.63868 188.0
76.654358 100.0
76.687263 164.0
76.738258 148.0
76.771156 120.0
76.799065 216.0
76.842674 108.0
76.855453 100.0
76.888039 180.0
76.91597 160.0
76.929932 124.0
76.947388 192.0
76.964546 228.0
76.969383 188.0
76.991043 176.0
77.013329 232.0
77.026482 248.0
77.055672 196.0
77.081886 156.0
77.099358 204.0
77.122078 132.0
77.140106 160.0
77.167534 88.0
77.179771 156.0
77.199005 216.0
77.230797 180.0
77.244476 108.0
77.291107 300.0
77.325714 196.0
77.387985 68.0
77.426834 168.0
77.472054 116.0
77.490448 168.0
77.519356 148.0
77.531624 120.0
77.559052 160.0
77.577194 180.0
77.604294 176.0
77.623619 268.0
77.719254 100.0
77.740311 168.0
77.765808 212.0
77.80526 192.0
77.833351 144.0
77.847229 172.0
77.890793 124.0
77.919495 136.0
77.954552 64.0
77.973885 84.0
78.007278 132.0
78.040337 140.0
78.061081 428.0
78.086403 144.0
78.099655 184.0
78.163811 208.0
78.192116 320.0
78.216606 172.0
78.243011 124.0
78.285271 152.0
78.302887 172.0
78.331062 96.0
78.350441 196.0
78.375107 164.0
78.39032 152.0
78.408592 176.0
78.510841 104.0
78.543129 144.0
78.574341 100.0
78.608574 208.0
78.637871 152.0
78.666115 144.0
78.704956 140.0
78.717316 204.0
78.740273 136.0
78.759697 168.0
78.777969 152.0
78.827034 180.0
78.87632 32.0
78.930923 136.0
78.957657 160.0
78.997612 184.0
79.013046 140.0
79.028412 224.0
79.040794 256.0
79.056725 80.0
79.091042 224.0
79.127991 168.0
79.157623 148.0
79.176666 176.0
79.212494 180.0
79.219009 176.0
79.223877 296.0
79.249817 180.0
79.265678 100.0
79.315498 364.0
79.329483 176.0
79.345444 204.0
79.400414 108.0
79.412827 92.0
79.43766 136.0
79.451851 232.0
79.469589 120.0
79.488129 148.0
79.508629 216.0
79.548676 164.0
79.577858 128.0
79.610962 168.0
79.64357 204.0
79.664886 148.0
79.68235 48.0
79.722664 200.0
79.788414 164.0
79.793381 236.0
79.817001 244.0
79.863968 192.0
79.882996 132.0
79.934479 164.0
79.965385 144.0
79.977844 112.0
80.002769 216.0
80.025909 168.0
80.043083 168.0
80.132774 160.0
80.180923 192.0
80.211189 252.0
80.228966 148.0
80.270401 168.0
80.310715 152.0
80.32888 100.0
80.357422 128.0
80.381905 164.0
80.42836 116.0
80.448441 104.0
80.463783 188.0
80.49704 128.0
80.518074 164.0
80.535202 216.0
80.547966 240.0
80.602036 132.0
80.622917 120.0
80.635994 104.0
80.677193 164.0
80.762329 248.0
80.781258 232.0
80.818398 180.0
80.847023 120.0
80.866714 216.0
80.882935 192.0
80.897087 132.0
80.909996 156.0
80.924637 416.0
80.955772 204.0
81.00721 164.0
81.057259 188.0
81.102943 144.0
81.133614 120.0
81.14975 124.0
81.19458 96.0
81.20842 256.0
81.240105 136.0
81.268127 136.0
81.29863 160.0
81.317627 376.0
81.347092 136.0
81.372223 300.0
81.384552 176.0
81.388199 152.0
81.397049 160.0
81.427567 156.0
81.45594 208.0
81.483574 96.0
81.526703 152.0
81.54895 264.0
81.564507 116.0
81.577507 196.0
81.591408 132.0
81.608368 120.0
81.63456 160.0
81.679771 128.0
81.707756 136.0
81.712402 116.0
81.726189 148.0
81.738899 148.0
81.756126 168.0
81.778625 192.0
81.81089 264.0
81.823494 172.0
81.840073 172.0
81.855858 152.0
81.87571 104.0
81.918938 124.0
81.947884 176.0
81.991104 152.0
82.037048 148.0
82.084755 140.0
82.099182 140.0
82.11837 280.0
82.150993 192.0
82.177429 136.0
82.185402 60.0
82.193489 344.0
82.22316 160.0
82.235367 156.0
82.244614 72.0
82.255219 240.0
82.279617 136.0
82.304459 200.0
82.315155 288.0
82.406044 168.0
82.422935 80.0
82.443077 184.0
82.467796 160.0
82.512672 100.0
82.536179 168.0
82.566925 208.0
82.606712 104.0
82.669403 148.0
82.689949 140.0
82.702507 132.0
82.738823 68.0
82.751495 228.0
82.771408 160.0
82.78952 216.0
82.8022 68.0
82.825745 120.0
82.875122 88.0
82.952583 384.0
82.999107 176.0
83.068642 152.0
83.106743 140.0
83.120636 224.0
83.143036 160.0
83.177521 248.0
83.233795 148.0
83.250145 304.0
83.272461 152.0
83.28595 156.0
83.311897 176.0
83.324615 152.0
83.340965 192.0
83.370331 224.0
83.409081 184.0
83.480934 56.0
83.495483 124.0
83.517303 132.0
83.533676 120.0
83.602684 112.0
83.634987 160.0
83.675797 168.0
83.715157 104.0
83.733894 204.0
83.776833 244.0
83.79467 220.0
83.808586 124.0
83.826805 140.0
83.845345 160.0
83.877838 116.0
83.898193 284.0
83.921593 120.0
83.998146 176.0
84.014603 216.0
84.026657 240.0
84.041969 188.0
84.071999 196.0
84.101349 216.0
84.131401 104.0
84.170403 144.0
84.188004 164.0
84.216019 156.0
84.262894 96.0
84.279335 232.0
84.293953 104.0
84.315887 228.0
84.33728 204.0
84.359749 108.0
84.381691 120.0
84.430031 192.0
84.487762 112.0
84.525955 220.0
84.540825 224.0
84.557297 140.0
84.619385 148.0
84.625778 136.0
84.647003 120.0
84.663483 120.0
84.716599 68.0
84.752945 368.0
84.759346 120.0
84.788055 168.0
84.824715 204.0
84.885178 176.0
84.921898 284.0
84.945038 180.0
84.976364 168.0
84.992775 176.0
85.022804 80.0
85.036423 180.0
85.050705 224.0
85.098404 152.0
85.11721 236.0
85.123352 188.0
85.127884 116.0
85.180923 100.0
85.241333 164.0
85.260712 144.0
85.290085 188.0
85.351624 112.0
85.371384 220.0
85.407043 208.0
85.43718 124.0
85.48407 172.0
85.528328 160.0
85.542458 248.0
85.591194 164.0
85.613609 196.0
85.647926 132.0
85.697662 272.0
85.709396 212.0
85.72715 184.0
85.765442 168.0
85.778755 116.0
85.808716 204.0
85.836678 172.0
85.867256 124.0
85.902306 260.0
85.920753 128.0
85.952118 144.0
85.970482 248.0
86.035172 180.0
86.087685 316.0
86.111343 128.0
86.125656 108.0
86.152061 148.0
86.164154 200.0
86.216187 192.0
86.242058 112.0
86.260544 164.0
86.312775 208.0
86.345596 104.0
86.399239 172.0
86.432175 160.0
86.477798 192.0
86.495468 68.0
86.544838 168.0
86.565086 232.0
86.61953 200.0
86.649109 220.0
86.685982 176.0
86.723297 180.0
86.736275 160.0
86.754807 204.0
86.773964 204.0
86.866074 148.0
86.913055 160.0
86.984344 196.0
86.989571 116.0
87.003853 164.0
87.046104 212.0
87.067963 192.0
87.085098 72.0
87.131538 144.0
87.151405 220.0
87.166847 88.0
87.235611 184.0
87.279984 208.0
87.323006 140.0
87.397202 144.0
87.402924 104.0
87.410187 196.0
87.47744 160.0
87.519386 164.0
87.570541 160.0
87.59848 148.0
87.640228 180.0
87.675514 176.0
87.712151 344.0
87.77169 128.0
87.776283 120.0
87.784019 176.0
87.792252 216.0
87.827759 104.0
87.846413 156.0
87.876007 176.0
87.946426 140.0
87.985168 136.0
88.006912 108.0
88.027451 136.0
88.042137 144.0
88.110573 176.0
88.166977 140.0
88.184097 208.0
88.204941 88.0
88.220734 152.0
88.249809 208.0
88.308388 160.0
88.391968 192.0
88.405067 64.0
88.424316 196.0
88.451859 444.0
88.468704 168.0
88.493042 124.0
88.511765 120.0
88.529961 156.0
88.577995 144.0
88.603546 60.0
88.633522 80.0
88.657883 64.0
88.68412 40.0
88.711678 200.0
88.729111 176.0
88.745979 108.0
88.785439 192.0
88.869774 232.0
88.88398 180.0
88.903549 124.0
88.935608 196.0
88.960075 140.0
88.980598 164.0
88.98716 148.0
89.026901 192.0
89.04216 356.0
89.063095 172.0
89.093193 288.0
89.117615 56.0
89.132431 184.0
89.175873 108.0
89.209778 100.0
89.237907 180.0
89.256706 160.0
89.286797 128.0
89.315666 172.0
89.375214 144.0
89.408737 324.0
89.473083 128.0
89.499443 144.0
89.512619 336.0
89.533897 148.0
89.670868 128.0
89.691597 136.0
89.719879 80.0
89.7425 140.0
89.789001 152.0
89.795982 100.0
89.801842 188.0
89.817932 180.0
89.871643 108.0
89.902534 148.0
89.965126 60.0
89.997223 84.0
90.029236 144.0
90.039093 288.0
90.061859 140.0
90.080315 184.0
90.099205 164.0
90.134567 168.0
90.169121 216.0
90.222046 148.0
90.267426 160.0
90.312813 132.0
90.329117 168.0
90.46006 180.0
90.47934 224.0
90.52478 108.0
90.5494 128.0
90.614143 136.0
90.642227 128.0
90.678238 164.0
90.731308 232.0
90.762985 204.0
90.769547 144.0
90.77562 228.0
90.791985 76.0
90.80526 76.0
90.818542 168.0
90.83371 100.0
90.850784 168.0
90.919266 132.0
90.938072 188.0
90.966713 184.0
91.006416 208.0
91.055229 2312.0
91.089287 220.0
91.11467 196.0
91.131767 132.0
91.150772 256.0
91.172142 164.0
91.188133 152.0
91.193977 148.0
91.231895 176.0
91.24585 172.0
91.267578 196.0
91.281937 160.0
91.299049 136.0
91.314262 100.0
91.365623 68.0
91.408195 256.0
91.429581 124.0
91.456963 208.0
91.529305 176.0
91.558823 216.0
91.617439 160.0
91.632156 128.0
91.663483 204.0
91.698853 104.0
91.720253 88.0
91.746506 104.0
91.771095 172.0
91.790359 32.0
91.804504 228.0
91.836128 132.0
91.860924 96.0
91.87619 76.0
91.889542 104.0
91.919533 212.0
91.971603 136.0
91.993927 212.0
92.025055 184.0
92.051392 276.0
92.089432 116.0
92.096039 136.0
92.123199 204.0
92.130699 252.0
92.134262 176.0
92.168304 84.0
92.208855 144.0
92.223724 128.0
92.260681 188.0
92.298286 92.0
92.313583 236.0
92.339218 160.0
92.374786 148.0
92.40731 160.0
92.44558 136.0
92.506821 120.0
92.528587 196.0
92.576889 216.0
92.635124 212.0
92.679192 212.0
92.709846 184.0
92.729233 208.0
92.798027 352.0
92.821037 168.0
92.84021 116.0
92.870567 116.0
92.888161 148.0
92.962097 164.0
92.979248 152.0
93.010963 108.0
93.032082 176.0
93.051964 124.0
93.083252 172.0
93.106178 136.0
93.120209 116.0
93.144608 172.0
93.183975 176.0
93.208397 200.0
93.215988 160.0
93.253441 84.0
93.28566 116.0
93.300079 320.0
93.322182 112.0
93.339493 144.0
93.373871 132.0
93.386406 192.0
93.418343 216.0
93.434311 160.0
93.52504 340.0
93.551125 152.0
93.578171 196.0
93.588348 108.0
93.6063 244.0
93.632782 236.0
93.658966 52.0
93.67437 136.0
93.693634 176.0
93.714828 132.0
93.755569 196.0
93.797699 232.0
93.853607 96.0
93.876747 192.0
93.905678 52.0
93.951157 180.0
93.954597 144.0
93.981323 148.0
94.005997 184.0
94.063011 184.0
94.068382 252.0
94.13147 180.0
94.148849 172.0
94.168159 172.0
94.220444 124.0
94.255096 140.0
94.271194 88.0
94.285995 188.0
94.320801 140.0
94.343353 356.0
94.362938 156.0
94.388954 64.0
94.431717 132.0
94.447754 196.0
94.476227 224.0
94.554459 348.0
94.583313 180.0
94.607208 72.0
94.637001 72.0
94.650826 164.0
94.66906 152.0
94.715538 160.0
94.758163 224.0
94.783783 180.0
94.813301 144.0
94.834885 176.0
94.907234 236.0
94.926796 84.0
94.949211 344.0
94.973335 228.0
95.051689 124.0
95.066681 212.0
95.095627 152.0
95.116928 212.0
95.158943 168.0
95.164604 100.0
95.190247 136.0
95.225952 160.0
95.295593 168.0
95.339035 156.0
95.35553 248.0
95.363838 256.0
95.427757 164.0
95.447197 148.0
95.489479 184.0
95.515266 168.0
95.538963 132.0
95.557457 228.0
95.661453 192.0
95.687462 188.0
95.721565 128.0
95.746887 112.0
95.770256 96.0
95.794296 176.0
95.817009 172.0
95.850128 160.0
95.873512 196.0
95.930099 124.0
95.972931 160.0
96.07621 184.0
96.097763 112.0
96.127876 304.0
96.203148 184.0
96.222435 200.0
96.230171 176.0
96.279297 128.0
96.302734 140.0
96.328911 168.0
96.435593 300.0
96.484467 132.0
96.511833 160.0
96.555626 336.0
96.615494 168.0
96.64772 176.0
96.66832 184.0
96.68985 200.0
96.71138 160.0
96.734352 152.0
96.758362 124.0
96.774025 144.0
96.787727 224.0
96.811226 148.0
96.843193 136.0
96.860191 152.0
96.886513 164.0
96.894089 184.0
96.897736 220.0
96.942924 176.0
96.963692 160.0
97.005196 168.0
97.056168 160.0
97.08268 152.0
97.09539 188.0
97.124809 48.0
97.146835 192.0
97.195435 176.0
97.236649 84.0
97.267426 316.0
97.342659 84.0
97.385864 112.0
97.399612 116.0
97.442307 176.0
97.500587 204.0
97.525368 124.0
97.558784 164.0
97.580406 160.0
97.657104 152.0
97.674202 184.0
97.701401 292.0
97.735794 124.0
97.768768 200.0
97.828949 144.0
97.873528 160.0
97.884995 140.0
97.900391 336.0
97.920959 160.0
97.954323 172.0
98.003181 144.0
98.023232 164.0
98.050865 144.0
98.095779 360.0
98.115509 176.0
98.120422 140.0
98.131172 76.0
98.173096 152.0
98.193802 368.0
98.234779 204.0
98.257912 128.0
98.290382 176.0
98.304337 196.0
98.328949 136.0
98.342766 360.0
98.407196 144.0
98.433578 216.0
98.453323 192.0
98.467148 96.0
98.4869 140.0
98.518234 144.0
98.544754 256.0
98.576721 152.0
98.597542 128.0
98.61731 164.0
98.666725 184.0
98.686668 92.0
98.71418 160.0
98.743843 116.0
98.779449 180.0
98.798897 96.0
98.824951 216.0
98.855423 196.0
98.900421 208.0
98.925491 324.0
98.950432 180.0
98.993202 132.0
99.010002 216.0
99.032806 104.0
99.067413 624.0
99.096199 288.0
99.117996 196.0
99.1315 172.0
99.149704 208.0
99.183395 148.0
99.209167 140.0
99.250801 176.0
99.275307 156.0
99.287872 184.0
99.311089 200.0
99.326164 244.0
99.34137 108.0
99.360901 180.0
99.380981 196.0
99.403542 140.0
99.493637 112.0
99.544479 176.0
99.570297 172.0
99.60009 124.0
99.659981 136.0
99.681503 184.0
99.747131 88.0
99.772797 136.0
99.783363 160.0
99.804787 88.0
99.847206 132.0
99.892288 160.0
99.918152 220.0
100.025612 152.0
100.051987 184.0
100.07386 188.0
100.089111 428.0
100.10984 268.0
100.131142 180.0
100.161018 196.0
100.212578 204.0
100.254662 140.0
100.276581 192.0
100.304489 224.0
100.320435 152.0
100.359856 176.0
100.38224 136.0
100.470001 44.0
100.565788 216.0
100.603714 184.0
100.665604 88.0
100.72435 116.0
100.799446 200.0
100.819427 92.0
100.849403 40.0
100.86705 184.0
100.90477 192.0
100.954918 124.0
101.00663 280.0
101.038162 160.0
101.095116 168.0
101.133736 180.0
101.173523 268.0
101.201492 204.0
101.217514 124.0
101.241539 208.0
101.255562 96.0
101.270409 272.0
101.339691 156.0
101.375763 76.0
101.430779 248.0
101.471733 168.0
101.493668 112.0
101.518967 340.0
101.612366 104.0
101.670555 224.0
101.696053 176.0
101.717361 300.0
101.762444 180.0
101.804703 180.0
101.82238 204.0
101.85141 156.0
101.88942 336.0
101.951385 124.0
101.971436 172.0
101.984299 180.0
102.003967 164.0
102.031258 404.0
102.056488 192.0
102.103493 208.0
102.133629 176.0
102.168869 124.0
102.195023 144.0
102.209106 196.0
102.27774 152.0
102.313278 164.0
102.346771 92.0
102.368134 480.0
102.397331 184.0
102.4338 112.0
102.474937 164.0
102.505112 72.0
102.519218 124.0
102.549446 136.0
102.565575 136.0
102.58358 124.0
102.650246 128.0
102.668396 148.0
102.690582 52.0
102.750427 176.0
102.769463 156.0
102.795486 220.0
102.83181 144.0
102.856033 172.0
102.873573 192.0
102.897385 180.0
102.920639 64.0
102.934769 168.0
102.973145 156.0
103.003441 52.0
103.042366 6364.0
103.131142 100.0
103.181274 192.0
103.208679 204.0
103.252045 180.0
103.301262 120.0
103.320824 152.0
103.339844 136.0
103.363312 84.0
103.389618 72.0
103.432121 76.0
103.48214 124.0
103.488182 156.0
103.54348 172.0
103.565758 240.0
103.579941 152.0
103.608299 96.0
103.624504 144.0
103.643486 228.0
103.675163 60.0
103.715698 56.0
103.731918 248.0
103.782997 164.0
103.79882 80.0
103.813011 128.0
103.856079 184.0
103.906319 172.0
103.922546 292.0
103.938782 372.0
103.980705 152.0
104.009239 184.0
104.048782 3328.0
104.071617 288.0
104.088989 124.0
104.129791 120.0
104.169716 188.0
104.18721 224.0
104.221024 112.0
104.241341 144.0
104.271828 124.0
104.299881 184.0
104.326706 124.0
104.349068 88.0
104.37957 208.0
104.397873 224.0
104.423721 152.0
104.449905 96.0
104.462326 180.0
104.487366 176.0
104.509804 92.0
104.52494 128.0
104.542305 56.0
104.56266 204.0
104.609474 108.0
104.623459 240.0
104.637589 168.0
104.658066 212.0
104.72554 44.0
104.780441 188.0
104.819061 128.0
104.864082 164.0
104.890579 116.0
104.906578 132.0
104.958839 324.0
104.980293 176.0
105.000687 160.0
105.047112 944.0
105.073807 156.0
105.097435 196.0
105.119003 168.0
105.135246 176.0
105.177132 208.0
105.20269 168.0
105.221062 172.0
105.249649 172.0
105.272575 140.0
105.302902 156.0
105.331001 144.0
105.363358 160.0
105.369774 108.0
105.376747 140.0
105.398758 144.0
105.419189 264.0
105.443504 156.0
105.460709 276.0
105.489632 112.0
105.502991 156.0
105.623642 32.0
105.658417 132.0
105.677948 228.0
105.684158 124.0
105.689713 176.0
105.713661 40.0
105.754593 216.0
105.787346 128.0
105.826248 68.0
105.846718 140.0
105.863106 148.0
105.891045 108.0
105.908157 136.0
105.935684 164.0
105.949928 168.0
105.965515 124.0
105.981911 200.0
106.003578 188.0
106.007256 108.0
106.028755 472.0
106.058281 344.0
106.098732 240.0
106.129196 84.0
106.149994 196.0
106.182808 232.0
106.219284 188.0
106.251305 212.0
106.283752 192.0
106.324364 172.0
106.337669 164.0
106.357201 276.0
106.437271 132.0
106.451645 76.0
106.470123 88.0
106.490921 64.0
106.511208 272.0
106.526031 128.0
106.571083 188.0
106.587219 144.0
106.64476 200.0
106.668831 180.0
106.685974 160.0
106.714653 184.0
106.75705 168.0
106.786629 212.0
106.819542 232.0
106.860687 216.0
106.886932 132.0
106.913261 160.0
106.953293 112.0
106.977989 88.0
107.019165 108.0
107.040527 492.0
107.074768 44.0
107.113899 180.0
107.142738 228.0
107.188072 228.0
107.203468 160.0
107.223717 200.0
107.231346 60.0
107.238968 200.0
107.292633 172.0
107.299431 144.0
107.315659 200.0
107.359169 372.0
107.388039 192.0
107.404541 220.0
107.430748 196.0
107.451988 316.0
107.501511 224.0
107.532463 180.0
107.557236 92.0
107.593666 308.0
107.625359 108.0
107.654266 188.0
107.697639 256.0
107.735771 212.0
107.759613 92.0
107.784409 160.0
107.827805 232.0
107.852882 240.0
107.887749 136.0
107.916695 164.0
107.932785 256.0
107.95565 124.0
107.975815 176.0
108.02253 260.0
108.049057 60.0
108.069748 252.0
108.133675 148.0
108.167191 192.0
108.185646 204.0
108.210495 164.0
108.26226 148.0
108.287109 204.0
108.379295 136.0
108.403122 140.0
108.44043 144.0
108.454941 120.0
108.479813 84.0
108.521103 172.0
108.579338 244.0
108.604225 132.0
108.631729 248.0
108.668533 152.0
108.702621 420.0
108.757866 164.0
108.795135 180.0
108.809097 176.0
108.846817 112.0
108.853271 100.0
108.889725 252.0
108.924675 204.0
108.944656 48.0
108.979973 204.0
109.000755 172.0
109.01738 392.0
109.052704 120.0
109.101494 204.0
109.179245 220.0
109.21489 200.0
109.231819 200.0
109.253845 96.0
109.276306 168.0
109.303116 220.0
109.327103 324.0
109.35936 184.0
109.375107 160.0
109.400009 112.0
109.441475 152.0
109.457748 144.0
109.464958 100.0
109.469574 160.0
109.485451 92.0
109.502113 120.0
109.537163 140.0
109.552597 152.0
109.609276 336.0
109.677132 148.0
109.72361 124.0
109.829926 224.0
109.882378 164.0
109.919052 188.0
109.937836 144.0
109.976341 196.0
110.010887 160.0
110.030983 192.0
110.097198 180.0
110.117378 68.0
110.131996 152.0
110.16256 176.0
110.184219 116.0
110.231026 180.0
110.279396 184.0
110.297066 176.0
110.326332 160.0
110.340965 140.0
110.380333 116.0
110.407883 144.0
110.44545 220.0
110.497765 144.0
110.516655 80.0
110.544678 180.0
110.57106 140.0
110.613403 176.0
110.628487 184.0
110.652702 104.0
110.696671 156.0
110.730484 220.0
110.745239 232.0
110.854713 180.0
110.874741 204.0
110.892502 184.0
110.956551 248.0
110.981567 168.0
111.057144 200.0
111.091164 1292.0
111.120071 188.0
111.170433 224.0
111.201912 148.0
111.238983 224.0
111.256493 236.0
111.299683 188.0
111.332077 156.0
111.353081 188.0
111.381279 188.0
111.411896 192.0
111.428474 112.0
111.43576 100.0
111.439888 148.0
111.467766 196.0
111.502251 152.0
111.534271 372.0
111.596077 220.0
111.662033 184.0
111.685165 304.0
111.712509 140.0
111.796677 168.0
111.882973 188.0
111.951729 128.0
111.960449 176.0
111.967918 268.0
112.00666 396.0
112.041054 124.0
112.083588 96.0
112.140945 160.0
112.174599 224.0
112.234108 200.0
112.288834 144.0
112.296471 188.0
112.320564 232.0
112.32679 152.0
112.333687 196.0
112.37825 92.0
112.409904 184.0
112.431007 204.0
112.470436 172.0
112.491844 184.0
112.534645 204.0
112.590492 244.0
112.63369 196.0
112.652702 108.0
112.668045 76.0
112.688622 104.0
112.746414 244.0
112.768921 144.0
112.788292 120.0
112.842628 300.0
112.859825 136.0
112.896194 356.0
112.911461 124.0
112.92749 172.0
112.971916 92.0
112.993073 160.0
113.012108 120.0
113.041603 132.0
113.067131 120.0
113.081947 156.0
113.108452 1500.0
113.134018 84.0
113.156036 76.0
113.17025 100.0
113.220749 64.0
113.229393 124.0
113.281853 292.0
113.28804 120.0
113.295044 332.0
113.317879 132.0
113.346664 200.0
113.374207 124.0
113.454758 292.0
113.486557 68.0
113.547523 124.0
113.59668 160.0
113.620171 80.0
113.643196 272.0
113.661652 176.0
113.709297 236.0
113.749619 184.0
113.838791 224.0
113.853661 112.0
113.872093 324.0
113.908882 116.0
113.932251 120.0
113.953499 116.0
113.974747 212.0
114.004494 188.0
114.034157 2928.0
114.060318 176.0
114.091896 132.0
114.108116 212.0
114.12455 216.0
114.183075 92.0
114.245979 224.0
114.317101 224.0
114.331993 140.0
114.366051 196.0
114.395851 168.0
114.41288 152.0
114.446945 160.0
114.463982 176.0
114.483147 52.0
114.525368 92.0
114.540428 152.0
114.570473 76.0
114.64505 160.0
114.685394 176.0
114.697563 100.0
114.705193 128.0
114.728897 376.0
114.751625 196.0
114.819862 284.0
114.864655 156.0
114.949989 208.0
114.988403 172.0
115.040802 1728.0
115.090248 164.0
115.126869 112.0
115.184898 160.0
115.236115 124.0
115.266884 180.0
115.299194 144.0
115.316406 292.0
115.347244 172.0
115.402824 44.0
115.422066 132.0
115.462952 168.0
115.48687 156.0
115.50074 184.0
115.517242 176.0
115.565376 188.0
115.601501 200.0
115.655617 184.0
115.678802 108.0
115.772774 144.0
115.781113 128.0
115.804306 444.0
115.828697 48.0
115.852264 140.0
115.897255 216.0
115.940361 172.0
115.962105 316.0
115.985123 136.0
116.014168 196.0
116.050606 8132.0
116.087791 164.0
116.111626 148.0
116.139503 88.0
116.182404 180.0
116.216042 224.0
116.238411 428.0
116.277924 404.0
116.309517 188.0
116.373421 152.0
116.392349 220.0
116.399902 180.0
116.404854 156.0
116.421135 296.0
116.439339 148.0
116.497002 140.0
116.513016 264.0
116.543098 136.0
116.577477 104.0
116.594673 168.0
116.63121 176.0
116.65065 176.0
116.670975 136.0
116.705849 356.0
116.745155 176.0
116.775269 208.0
116.81617 272.0
116.839798 72.0
116.912956 140.0
116.942307 44.0
116.975372 224.0
117.0084 176.0
117.023911 132.0
117.057816 10128.0
117.09967 176.0
117.117393 88.0
117.13929 148.0
117.180382 160.0
117.225891 260.0
117.276649 60.0
117.292755 188.0
117.314896 184.0
117.352386 152.0
117.385284 212.0
117.493225 172.0
117.506454 92.0
117.529251 280.0
117.550827 44.0
117.595154 168.0
117.626213 224.0
117.657913 320.0
117.707321 208.0
117.73864 112.0
117.75592 160.0
117.783997 144.0
117.805603 152.0
117.824562 168.0
117.844002 124.0
117.869392 236.0
117.89225 368.0
117.914215 212.0
117.940285 304.0
117.978767 216.0
118.003677 104.0
118.065964 21736.0
118.109657 128.0
118.122261 176.0
118.151497 408.0
118.202126 160.0
118.222214 164.0
118.253708 136.0
118.289436 280.0
118.320297 76.0
118.345398 88.0
118.365768 100.0
118.428574 80.0
118.443733 72.0
118.475006 184.0
118.509201 164.0
118.528229 164.0
118.547729 188.0
118.564629 196.0
118.568176 156.0
118.597939 336.0
118.653015 140.0
118.687866 148.0
118.710312 80.0
118.734734 184.0
118.801407 164.0
118.817123 148.0
118.849136 120.0
118.864326 224.0
118.905563 196.0
118.946037 216.0
118.981537 184.0
118.998901 204.0
119.049973 22568.0
119.098801 56.0
119.149094 156.0
119.193527 192.0
119.248718 292.0
119.285667 232.0
119.306404 252.0
119.338898 132.0
119.370461 160.0
119.407684 212.0
119.429688 120.0
119.462875 196.0
119.485741 216.0
119.503143 200.0
119.544319 52.0
119.570465 188.0
119.607605 132.0
119.625015 80.0
119.64679 200.0
119.668556 76.0
119.691788 192.0
119.751312 44.0
119.800484 104.0
119.816658 180.0
119.840622 132.0
119.884201 236.0
119.89946 176.0
119.934334 136.0
120.016052 160.0
120.052437 2068.0
120.097862 88.0
120.150215 144.0
120.167671 136.0
120.210632 192.0
120.303825 224.0
120.358047 144.0
120.404808 264.0
120.433151 280.0
120.447845 176.0
120.468948 100.0
120.490211 136.0
120.499359 100.0
120.509094 128.0
120.565086 132.0
120.580383 156.0
120.59742 200.0
120.635063 236.0
120.667824 204.0
120.682098 136.0
120.697632 196.0
120.728065 160.0
120.744354 120.0
120.76841 108.0
120.814346 224.0
120.847168 176.0
120.9524 188.0
120.976288 168.0
121.000374 108.0
121.02124 200.0
121.066612 424.0
121.103294 120.0
121.144394 152.0
121.164627 204.0
121.20845 88.0
121.273689 156.0
121.293739 144.0
121.357498 196.0
121.403549 204.0
121.423286 100.0
121.483429 200.0
121.50042 228.0
121.552711 188.0
121.568077 168.0
121.620087 172.0
121.636116 84.0
121.677826 212.0
121.756111 92.0
121.779488 188.0
121.857918 108.0
121.873299 196.0
121.915047 124.0
121.941422 112.0
121.991974 172.0
122.009567 192.0
122.04097 204.0
122.057854 1020.0
122.101913 216.0
122.170105 96.0
122.200905 188.0
122.26252 180.0
122.282799 124.0
122.321945 172.0
122.339554 88.0
122.367348 296.0
122.414413 160.0
122.458458 152.0
122.484894 116.0
122.524544 232.0
122.582085 172.0
122.603867 104.0
122.68763 128.0
122.753769 100.0
122.797882 232.0
122.855232 120.0
122.877731 180.0
122.911308 192.0
122.954521 132.0
123.037018 204.0
123.062714 204.0
123.116493 164.0
123.155434 64.0
123.22834 132.0
123.249229 220.0
123.274742 252.0
123.330902 116.0
123.363144 120.0
123.389679 184.0
123.514961 232.0
123.543999 140.0
123.568665 168.0
123.604225 76.0
123.637413 176.0
123.666183 48.0
123.685966 192.0
123.694275 180.0
123.728165 344.0
123.781654 180.0
123.831947 184.0
123.901993 168.0
123.952774 168.0
123.99176 200.0
124.069778 204.0
124.126984 144.0
124.151672 288.0
124.177994 272.0
124.201401 140.0
124.232864 228.0
124.273026 148.0
124.280579 196.0
124.31926 160.0
124.364365 412.0
124.391006 152.0
124.420296 248.0
124.475372 152.0
124.493134 156.0
124.519783 108.0
124.535332 108.0
124.561287 140.0
124.595306 52.0
124.61245 168.0
124.659744 188.0
124.679749 40.0
124.730865 88.0
124.757538 104.0
124.788567 176.0
124.793327 168.0
124.801727 192.0
124.821922 188.0
124.857597 356.0
124.879837 100.0
124.935448 292.0
124.961548 224.0
124.967354 164.0
124.976875 116.0
125.002937 192.0
125.025131 220.0
125.054726 192.0
125.082321 204.0
125.115486 120.0
125.149605 196.0
125.178749 352.0
125.238068 148.0
125.246521 140.0
125.254768 252.0
125.293877 188.0
125.322838 192.0
125.347351 172.0
125.385231 200.0
125.465477 220.0
125.538887 344.0
125.612663 120.0
125.641663 180.0
125.691803 152.0
125.742073 168.0
125.763184 212.0
125.874329 148.0
125.88942 188.0
125.94278 152.0
125.970352 304.0
126.003334 220.0
126.100677 144.0
126.149666 164.0
126.200012 136.0
126.235558 152.0
126.263222 344.0
126.336441 196.0
126.419228 128.0
126.448318 208.0
126.469185 192.0
126.501122 176.0
126.550735 112.0
126.575256 148.0
126.626419 156.0
126.663269 220.0
126.681328 128.0
126.701347 208.0
126.721512 100.0
126.769272 348.0
126.786499 140.0
126.880348 188.0
126.907539 192.0
126.954636 172.0
127.006714 144.0
127.035561 144.0
127.057808 188.0
127.082489 252.0
127.1745 100.0
127.208168 204.0
127.264297 220.0
127.296906 128.0
127.313698 156.0
127.332832 200.0
127.383324 188.0
127.43499 68.0
127.49791 124.0
127.58654 344.0
127.626045 132.0
127.659775 52.0
127.679352 132.0
127.718246 116.0
127.74749 140.0
127.769989 136.0
127.805984 108.0
127.830734 196.0
127.859772 124.0
127.880249 100.0
127.896004 52.0
127.923012 164.0
127.944466 136.0
127.983803 128.0
128.014191 156.0
128.047974 724.0
128.118347 7288.0
128.175262 116.0
128.209061 40.0
128.244308 200.0
128.32869 112.0
128.352219 176.0
128.385361 172.0
128.413223 108.0
128.457397 112.0
128.499939 104.0
128.547333 164.0
128.57666 152.0
128.599243 132.0
128.628586 204.0
128.664703 144.0
128.697952 120.0
128.784851 208.0
128.802811 152.0
128.822784 140.0
128.846436 68.0
128.863449 140.0
128.929352 220.0
128.971924 112.0
129.000366 164.0
129.004242 120.0
129.045609 11492.0
129.093918 224.0
129.120651 392.0
129.140366 248.0
129.178055 136.0
129.202576 48.0
129.263657 120.0
129.279495 284.0
129.302139 104.0
129.333267 176.0
129.34967 140.0
129.434433 252.0
129.441574 256.0
129.464539 312.0
129.493225 100.0
129.548325 324.0
129.594254 128.0
129.623703 164.0
129.671295 108.0
129.741562 176.0
129.797516 136.0
129.803772 92.0
129.812943 176.0
129.836075 352.0
129.861389 180.0
129.8965 176.0
129.912476 120.0
129.919754 280.0
129.964935 352.0
130.029404 644.0
130.053391 63592.0
130.134888 25536.0
130.185547 204.0
130.206039 132.0
130.220276 108.0
130.245331 352.0
130.263504 80.0
130.280304 164.0
130.288071 64.0
130.296448 132.0
130.327499 356.0
130.342682 80.0
130.371536 44.0
130.380981 120.0
130.406662 220.0
130.426239 132.0
130.443527 160.0
130.510101 200.0
130.53923 328.0
130.576035 212.0
130.598175 180.0
130.649109 144.0
130.665268 176.0
130.683685 44.0
130.73999 64.0
130.759186 180.0
130.785385 116.0
130.803772 116.0
130.834564 228.0
130.86908 252.0
130.883652 136.0
130.891983 204.0
130.923691 216.0
130.942612 168.0
130.952362 132.0
130.956726 192.0
130.991043 320.0
131.013733 156.0
131.037521 3724.0
131.05722 6764.0
131.093964 68.0
131.136475 2088.0
131.160812 120.0
131.194244 96.0
131.250046 188.0
131.276337 56.0
131.298981 300.0
131.338974 232.0
131.385651 172.0
131.415466 88.0
131.444962 104.0
131.459976 96.0
131.513596 36.0
131.545563 56.0
131.630035 100.0
131.697235 84.0
131.719101 136.0
131.752167 180.0
131.763 96.0
131.791275 108.0
131.81665 184.0
131.833344 116.0
131.871094 92.0
131.880386 48.0
131.890854 72.0
131.933411 364.0
131.950943 156.0
131.984207 172.0
132.045364 3936.0
132.066864 856.0
132.100937 116.0
132.139282 120.0
132.154968 220.0
132.191696 68.0
132.24501 48.0
132.261032 36.0
132.290787 124.0
132.313675 176.0
132.339951 160.0
132.373215 92.0
132.411453 204.0
132.460236 124.0
132.482742 136.0
132.491837 96.0
132.579376 168.0
132.60405 184.0
132.651962 228.0
132.69046 96.0
132.707748 160.0
132.749023 100.0
132.772598 200.0
132.805542 168.0
132.833878 176.0
132.898392 132.0
132.932541 212.0
132.954025 100.0
133.00267 200.0
133.052002 5692.0
133.108444 108.0
133.155228 40.0
133.173599 144.0
133.191971 112.0
133.252045 216.0
133.33902 80.0
133.407013 192.0
133.442459 148.0
133.457535 100.0
133.496643 264.0
133.576202 180.0
133.621857 224.0
133.656372 72.0
133.688583 80.0
133.708939 236.0
133.728958 176.0
133.759933 104.0
133.838211 144.0
133.860764 136.0
133.888306 148.0
133.913559 200.0
133.960266 292.0
134.019669 184.0
134.060577 1640.0
134.087158 196.0
134.103836 196.0
134.122879 184.0
134.153839 288.0
134.174591 152.0
134.220245 200.0
134.241455 224.0
134.262222 140.0
134.28067 200.0
134.338547 88.0
134.363708 116.0
134.384476 188.0
134.401245 192.0
134.43866 132.0
134.491272 172.0
134.505951 132.0
134.536789 132.0
134.582962 176.0
134.599136 132.0
134.740021 136.0
134.759277 144.0
134.804718 92.0
134.8685 196.0
134.929535 232.0
134.980408 164.0
135.002228 136.0
135.031219 996.0
135.053818 448.0
135.086105 68.0
135.151566 204.0
135.17659 172.0
135.210464 168.0
135.253174 176.0
135.277695 136.0
135.299698 44.0
135.345993 168.0
135.392319 56.0
135.436325 60.0
135.475693 140.0
135.519791 128.0
135.542572 148.0
135.613373 184.0
135.677322 148.0
135.726013 72.0
135.761978 328.0
135.807175 132.0
135.835007 140.0
135.897644 168.0
135.976746 188.0
136.006516 316.0
136.026932 1044.0
136.075775 1036.0
136.10994 112.0
136.178986 188.0
136.201767 156.0
136.243576 124.0
136.303986 140.0
136.327225 152.0
136.352158 132.0
136.374191 304.0
136.44809 136.0
136.480637 268.0
136.510864 96.0
136.564362 160.0
136.606232 204.0
136.74379 168.0
136.799728 168.0
136.83197 484.0
136.859909 32.0
136.889984 140.0
136.948395 44.0
136.967041 300.0
137.00795 92.0
137.02919 176.0
137.034439 172.0
137.042435 164.0
137.073837 172.0
137.11615 156.0
137.185898 156.0
137.24437 164.0
137.419296 76.0
137.491501 148.0
137.522705 204.0
137.564789 244.0
137.597595 212.0
137.633865 276.0
137.664383 68.0
137.685455 208.0
137.750809 68.0
137.779556 248.0
137.909698 104.0
137.940079 200.0
138.045349 180.0
138.068542 144.0
138.103043 328.0
138.133698 216.0
138.155228 132.0
138.176285 88.0
138.226883 192.0
138.267532 200.0
138.309402 176.0
138.347122 260.0
138.400024 128.0
138.452484 92.0
138.485275 144.0
138.506348 92.0
138.547592 272.0
138.569611 224.0
138.630524 144.0
138.651627 180.0
138.685959 104.0
138.705521 140.0
138.740692 152.0
138.766479 196.0
138.822754 128.0
138.856339 188.0
138.889694 224.0
138.994446 176.0
139.045624 148.0
139.080826 204.0
139.112717 232.0
139.153137 232.0
139.198853 176.0
139.273361 172.0
139.29216 200.0
139.333313 184.0
139.337479 96.0
139.350403 116.0
139.354141 188.0
139.390839 176.0
139.409637 48.0
139.502625 240.0
139.53421 40.0
139.555649 144.0
139.574783 164.0
139.610519 132.0
139.625916 168.0
139.726959 180.0
139.778824 156.0
139.808945 188.0
139.842361 176.0
139.887085 136.0
139.919815 164.0
139.948303 160.0
139.964783 136.0
139.995865 124.0
140.026505 116.0
140.092102 196.0
140.139084 224.0
140.193283 220.0
140.210938 128.0
140.235275 156.0
140.280487 140.0
140.303955 92.0
140.357025 328.0
140.370438 180.0
140.414993 188.0
140.457336 152.0
140.488007 120.0
140.506882 152.0
140.535187 96.0
140.570587 164.0
140.620148 148.0
140.711594 280.0
140.738174 168.0
140.757065 192.0
140.794846 276.0
140.880707 80.0
140.963654 228.0
141.008865 164.0
141.045319 6676.0
141.089783 196.0
141.117645 152.0
141.146957 152.0
141.175339 144.0
141.198975 192.0
141.222626 336.0
141.272766 424.0
141.313324 200.0
141.355362 152.0
141.407181 176.0
141.435577 112.0
141.473465 204.0
141.498398 204.0
141.520813 236.0
141.546478 76.0
141.626495 204.0
141.648697 76.0
141.668472 412.0
141.697693 164.0
141.786118 156.0
141.888046 124.0
141.909225 200.0
141.961075 156.0
141.969345 140.0
141.988678 136.0
141.996582 212.0
142.020309 144.0
142.053253 50900.0
142.129532 128.0
142.176468 128.0
142.197815 136.0
142.215393 52.0
142.243103 196.0
142.274429 184.0
142.298492 256.0
142.323532 64.0
142.365265 232.0
142.373993 40.0
142.383362 156.0
142.414047 148.0
142.438324 212.0
142.442184 104.0
142.452087 224.0
142.475586 76.0
142.519379 128.0
142.550262 136.0
142.583527 56.0
142.60968 84.0
142.661972 152.0
142.689224 52.0
142.726868 164.0
142.746262 88.0
142.776367 176.0
142.847458 212.0
142.86731 128.0
142.910507 176.0
142.928452 208.0
142.947235 184.0
142.992264 224.0
143.028305 248.0
143.059143 9156.0
143.107315 188.0
143.116852 144.0
143.124329 216.0
143.199265 388.0
143.24353 104.0
143.280731 128.0
143.306931 152.0
143.375946 212.0
143.396729 112.0
143.44754 44.0
143.471985 200.0
143.508377 156.0
143.564377 236.0
143.595367 104.0
143.709335 160.0
143.746445 268.0
143.819656 196.0
143.855972 56.0
143.888977 184.0
143.924698 52.0
143.946182 264.0
143.988937 164.0
144.021896 188.0
144.066238 6852.0
144.143967 196.0
144.16835 184.0
144.201736 132.0
144.268051 184.0
144.296295 120.0
144.350021 64.0
144.36676 160.0
144.458893 116.0
144.550125 228.0
144.577286 112.0
144.621902 168.0
144.658661 48.0
144.690582 152.0
144.763199 164.0
144.795151 144.0
144.847839 196.0
144.867004 144.0
144.889984 236.0
144.9245 144.0
144.943665 180.0
144.970734 204.0
145.00119 28.0
145.05542 4668.0
145.076187 12792.0
145.128235 136.0
145.189484 148.0
145.234024 176.0
145.259171 100.0
145.322861 56.0
145.350372 176.0
145.368912 284.0
145.376144 204.0
145.384949 212.0
145.421936 116.0
145.449768 164.0
145.548889 64.0
145.593323 176.0
145.636078 84.0
145.762939 244.0
145.794693 112.0
145.824539 264.0
145.857071 164.0
145.909943 156.0
145.960861 572.0
145.989456 140.0
146.023117 480.0
146.060898 50252.0
146.121597 108.0
146.188522 128.0
146.206116 84.0
146.233841 116.0
146.32132 180.0
146.370758 128.0
146.394577 176.0
146.413834 56.0
146.444275 132.0
146.46312 180.0
146.492935 172.0
146.523865 80.0
146.561081 32.0
146.57605 188.0
146.608597 132.0
146.662003 88.0
146.68129 40.0
146.702972 44.0
146.72876 172.0
146.823532 200.0
146.840424 108.0
146.870483 372.0
146.90181 116.0
146.912231 52.0
146.91803 156.0
146.940704 84.0
146.974579 280.0
147.028168 164.0
147.065475 6576.0
147.127563 136.0
147.146881 60.0
147.163773 168.0
147.192215 160.0
147.220734 116.0
147.243469 52.0
147.291122 192.0
147.319824 140.0
147.356995 132.0
147.385391 240.0
147.41983 196.0
147.454254 164.0
147.509247 120.0
147.543564 224.0
147.56485 44.0
147.64949 52.0
147.673676 240.0
147.705124 196.0
147.758087 196.0
147.837097 196.0
147.876038 200.0
147.891815 176.0
147.932587 84.0
147.949524 60.0
147.986649 60.0
147.990967 168.0
148.01445 88.0
148.036865 268.0
148.075058 12480.0
148.128342 200.0
148.17572 80.0
148.208344 88.0
148.243698 168.0
148.281937 120.0
148.301727 116.0
148.324036 72.0
148.351669 176.0
148.375107 120.0
148.402588 80.0
148.431671 168.0
148.464493 172.0
148.490036 72.0
148.528687 180.0
148.548523 68.0
148.586914 60.0
148.613602 204.0
148.673203 228.0
148.701416 84.0
148.739792 192.0
148.777817 108.0
148.807068 168.0
148.880814 48.0
148.90976 92.0
148.943756 120.0
148.975342 180.0
149.008163 88.0
149.043198 196.0
149.076065 1412.0
149.122757 156.0
149.161789 136.0
149.19162 76.0
149.242676 68.0
149.266998 76.0
149.291306 116.0
149.335083 204.0
149.398331 52.0
149.437256 76.0
149.595444 188.0
149.614929 104.0
149.639267 116.0
149.670929 188.0
149.727798 112.0
149.828476 168.0
149.851822 224.0
149.903549 160.0
149.943115 152.0
150.033951 76.0
150.057846 348.0
150.085938 200.0
150.150986 168.0
150.16806 88.0
150.258316 76.0
150.279587 156.0
150.322281 204.0
150.375443 132.0
150.402298 80.0
150.475525 76.0
150.499939 168.0
150.595184 176.0
150.69046 208.0
150.719772 136.0
150.779449 220.0
150.79866 128.0
150.868866 184.0
150.915314 184.0
150.94577 124.0
150.978897 100.0
151.00824 72.0
151.030258 152.0
151.057159 84.0
151.115875 120.0
151.17215 112.0
151.220215 176.0
151.243347 176.0
151.267609 112.0
151.287186 76.0
151.316574 144.0
151.343506 184.0
151.392471 132.0
151.424316 276.0
151.451263 84.0
151.499466 164.0
151.549255 128.0
151.583557 108.0
151.62767 156.0
151.656097 320.0
151.789459 92.0
151.823792 128.0
151.843414 164.0
151.86058 140.0
151.88266 164.0
151.993057 32.0
152.010223 108.0
152.04213 72.0
152.0681 180.0
152.111572 164.0
152.130493 164.0
152.206604 204.0
152.227402 120.0
152.354614 136.0
152.390823 172.0
152.471909 116.0
152.516159 184.0
152.621872 60.0
152.762054 148.0
152.836823 124.0
152.925766 152.0
153.010605 112.0
153.043457 328.0
153.069702 144.0
153.114029 160.0
153.187347 188.0
153.190857 144.0
153.201599 72.0
153.214218 112.0
153.218079 148.0
153.242111 128.0
153.28154 152.0
153.323273 176.0
153.328705 200.0
153.362869 164.0
153.379654 104.0
153.40477 140.0
153.454086 76.0
153.496002 204.0
153.547791 156.0
153.582321 184.0
153.705673 120.0
153.752548 316.0
153.769836 88.0
153.829071 200.0
153.851288 180.0
153.898193 156.0
154.042435 148.0
154.076019 224.0
154.132843 108.0
154.23317 140.0
154.276199 112.0
154.295975 92.0
154.36026 132.0
154.380051 152.0
154.41684 200.0
154.470963 128.0
154.540833 120.0
154.58606 184.0
154.621704 140.0
154.716553 44.0
154.753677 108.0
154.773499 212.0
154.799347 112.0
154.894852 72.0
154.92952 144.0
155.018723 72.0
155.057266 516.0
155.102325 208.0
155.129272 6692.0
155.163895 568.0
155.235809 48.0
155.256241 152.0
155.298874 136.0
155.339172 212.0
155.368332 108.0
155.38678 164.0
155.420425 204.0
155.470062 164.0
155.518692 108.0
155.567307 156.0
155.641342 132.0
155.675476 188.0
155.745651 64.0
155.795334 72.0
155.823715 140.0
155.856033 224.0
155.884766 212.0
155.912109 132.0
155.950684 176.0
156.030319 252.0
156.067337 616.0
156.093903 280.0
156.131851 240.0
156.163208 92.0
156.239944 128.0
156.275162 196.0
156.334885 72.0
156.375305 200.0
156.419937 92.0
156.446884 180.0
156.50415 68.0
156.537369 132.0
156.560257 128.0
156.580887 228.0
156.603546 188.0
156.628662 84.0
156.678482 160.0
156.72023 200.0
156.755341 128.0
156.810547 44.0
156.83548 136.0
156.985062 320.0
157.002518 148.0
157.040176 5280.0
157.062943 2008.0
157.127014 176.0
157.152191 108.0
157.1884 96.0
157.209579 48.0
157.243195 136.0
157.264481 108.0
157.294098 176.0
157.34549 180.0
157.369339 48.0
157.401794 48.0
157.420471 96.0
157.444931 348.0
157.495102 144.0
157.513535 200.0
157.577835 268.0
157.61911 148.0
157.638855 164.0
157.673828 160.0
157.704315 132.0
157.730835 272.0
157.781677 196.0
157.799774 184.0
157.835785 88.0
157.860703 248.0
157.880875 388.0
157.899323 172.0
157.919449 184.0
157.928726 396.0
157.939194 264.0
157.97113 320.0
158.002014 716.0
158.048615 214320.0
158.137314 208.0
158.182327 204.0
158.219696 56.0
158.249527 100.0
158.276596 124.0
158.300156 144.0
158.325226 272.0
158.348495 340.0
158.390182 116.0
158.434387 72.0
158.460159 2212.0
158.482986 48.0
158.520554 148.0
158.550507 124.0
158.602829 56.0
158.639969 108.0
158.646622 52.0
158.65332 240.0
158.672836 132.0
158.697601 96.0
158.705521 128.0
158.730118 172.0
158.760361 72.0
158.799652 156.0
158.879929 112.0
158.899277 28.0
158.936646 180.0
158.96199 168.0
158.998932 128.0
159.05275 31596.0
159.118484 96.0
159.147949 108.0
159.165634 128.0
159.19252 104.0
159.229904 80.0
159.254837 160.0
159.309723 108.0
159.332504 76.0
159.380417 96.0
159.39772 40.0
159.416626 172.0
159.446762 268.0
159.469711 88.0
159.517334 132.0
159.536087 164.0
159.598343 88.0
159.65094 80.0
159.678314 68.0
159.69986 156.0
159.730087 64.0
159.771317 92.0
159.815475 196.0
159.860367 204.0
159.876953 192.0
159.90834 56.0
159.927521 180.0
159.959915 152.0
159.985229 72.0
160.005569 68.0
160.075272 6424.0
160.120453 280.0
160.142517 112.0
160.161728 136.0
160.18428 192.0
160.218933 204.0
160.249222 484.0
160.286774 136.0
160.326797 80.0
160.357452 224.0
160.375366 120.0
160.410049 128.0
160.440231 124.0
160.467957 192.0
160.571609 276.0
160.593826 120.0
160.639755 100.0
160.671646 68.0
160.698395 44.0
160.717651 40.0
160.74794 88.0
160.808502 64.0
160.826172 80.0
160.860657 128.0
160.882721 80.0
160.904434 92.0
160.946564 116.0
160.971786 112.0
161.007446 160.0
161.046829 11708.0
161.071335 1444.0
161.113205 104.0
161.139191 132.0
161.167099 136.0
161.192291 132.0
161.21637 96.0
161.261963 112.0
161.279373 104.0
161.323792 72.0
161.35759 228.0
161.380676 100.0
161.427536 132.0
161.50174 76.0
161.564041 84.0
161.604462 172.0
161.611389 168.0
161.663391 60.0
161.708282 136.0
161.730865 164.0
161.762161 96.0
161.799408 36.0
161.824722 48.0
161.900909 88.0
161.944656 132.0
161.984268 248.0
162.009598 136.0
162.051468 1828.0
162.073563 444.0
162.154037 84.0
162.213318 112.0
162.27475 160.0
162.460846 28.0
162.528885 200.0
162.605484 100.0
162.633774 80.0
162.649826 76.0
162.709747 252.0
162.752716 68.0
162.81366 156.0
162.856827 172.0
162.882233 116.0
162.920334 148.0
162.950745 120.0
162.992325 108.0
163.027435 1068.0
163.087082 2340.0
163.137909 84.0
163.161774 52.0
163.181412 88.0
163.191162 64.0
163.199234 60.0
163.28891 228.0
163.321213 256.0
163.35759 36.0
163.375397 120.0
163.41864 64.0
163.454269 156.0
163.526535 180.0
163.622345 112.0
163.680817 36.0
163.769943 80.0
163.848679 128.0
163.892227 132.0
163.966125 44.0
164.001816 60.0
164.034561 356.0
164.070755 320.0
164.147125 64.0
164.182831 64.0
164.204086 176.0
164.236511 84.0
164.258514 148.0
164.292511 140.0
164.320572 148.0
164.374146 160.0
164.47879 80.0
164.505768 240.0
164.599884 176.0
164.642197 100.0
164.706039 236.0
164.831238 132.0
164.850449 116.0
164.90451 196.0
164.925797 192.0
164.9897 152.0
165.023605 136.0
165.072723 144.0
165.092682 144.0
165.173813 220.0
165.196838 156.0
165.227539 116.0
165.283081 108.0
165.345245 96.0
165.381073 72.0
165.439957 36.0
165.473236 40.0
165.49115 132.0
165.538559 188.0
165.582642 192.0
165.616638 104.0
165.665787 156.0
165.708862 112.0
165.747299 188.0
165.832947 204.0
165.89595 56.0
165.960037 156.0
166.165222 188.0
166.212402 124.0
166.252472 84.0
166.307983 272.0
166.361389 264.0
166.46553 156.0
166.560562 44.0
166.587982 180.0
166.64534 324.0
166.696732 124.0
166.732712 108.0
166.847656 72.0
166.857803 84.0
166.881805 208.0
166.940933 84.0
166.979523 76.0
167.049606 228.0
167.074692 112.0
167.102982 128.0
167.146423 68.0
167.180176 176.0
167.22908 100.0
167.328369 176.0
167.488251 164.0
167.522629 136.0
167.615372 108.0
167.654022 168.0
167.692688 40.0
167.723618 160.0
167.775177 192.0
167.819 168.0
167.947937 144.0
167.996948 152.0
168.051727 228.0
168.093994 124.0
168.132385 164.0
168.210861 184.0
168.231796 176.0
168.252441 112.0
168.286011 68.0
168.332489 172.0
168.367447 148.0
168.386719 32.0
168.42804 116.0
168.466797 88.0
168.570145 44.0
168.608902 132.0
168.645081 124.0
168.680695 188.0
168.761414 156.0
168.784683 100.0
168.888138 140.0
168.99678 232.0
169.051041 2888.0
169.190887 104.0
169.215424 76.0
169.253036 36.0
169.338211 112.0
169.395477 128.0
169.501495 156.0
169.533417 380.0
169.582031 136.0
169.600174 52.0
169.649826 80.0
169.67276 52.0
169.706467 76.0
169.787506 160.0
169.817978 80.0
169.841324 132.0
169.885422 248.0
170.055405 668.0
170.19426 176.0
170.233215 68.0
170.269577 84.0
170.292953 236.0
170.313721 212.0
170.35788 76.0
170.399445 60.0
170.417633 56.0
170.470642 192.0
170.49559 96.0
170.513794 156.0
170.547577 100.0
170.565765 56.0
170.66124 204.0
170.689758 144.0
170.715454 196.0
170.752975 84.0
170.844009 176.0
170.929871 32.0
170.976715 120.0
171.064941 1740.0
171.134003 220.0
171.219803 204.0
171.280273 136.0
171.441544 148.0
171.483978 88.0
171.500366 156.0
171.578415 216.0
171.658417 128.0
171.692062 144.0
171.750534 92.0
171.794876 192.0
171.823563 100.0
171.927948 152.0
171.969955 336.0
171.994278 164.0
172.029251 284.0
172.072968 17636.0
172.134338 224.0
172.166595 208.0
172.210342 184.0
172.296112 40.0
172.322235 44.0
172.345749 92.0
172.363266 68.0
172.439819 252.0
172.460739 204.0
172.48555 152.0
172.514847 212.0
172.539154 96.0
172.570526 140.0
172.579681 128.0
172.590088 100.0
172.608109 140.0
172.669693 100.0
172.692154 180.0
172.721069 164.0
172.76297 272.0
172.781616 304.0
172.817093 208.0
172.83754 380.0
172.887909 124.0
172.929611 344.0
172.954819 384.0
172.973068 296.0
173.010376 288.0
173.072083 205788.0
173.133469 164.0
173.168442 128.0
173.210266 116.0
173.263489 124.0
173.292084 176.0
173.314026 148.0
173.369522 116.0
173.399826 408.0
173.444565 120.0
173.468643 76.0
173.502182 1216.0
173.533218 68.0
173.556549 276.0
173.590897 92.0
173.61467 96.0
173.686142 112.0
173.732132 260.0
173.777084 48.0
173.805862 44.0
173.825897 252.0
173.867767 196.0
173.892181 152.0
173.913406 156.0
173.921127 120.0
173.95015 168.0
173.972076 232.0
174.01796 100.0
174.024536 72.0
174.076782 32580.0
174.129929 172.0
174.159225 196.0
174.196396 128.0
174.250397 72.0
174.281311 116.0
174.306488 92.0
174.334641 152.0
174.359909 104.0
174.397186 60.0
174.418335 132.0
174.427567 112.0
174.463425 44.0
174.510986 96.0
174.583115 184.0
174.634903 76.0
174.703339 224.0
174.723785 56.0
174.771133 64.0
174.792191 52.0
174.815872 104.0
174.838104 116.0
174.87114 128.0
174.900742 312.0
174.931686 128.0
174.958878 148.0
174.977402 180.0
175.017899 80.0
175.077393 5004.0
175.15451 220.0
175.188644 76.0
175.196289 108.0
175.250275 84.0
175.274017 116.0
175.291748 168.0
175.321487 64.0
175.346207 276.0
175.386795 108.0
175.397827 104.0
175.417374 384.0
175.443283 212.0
175.47551 224.0
175.525681 172.0
175.546387 104.0
175.564957 164.0
175.585495 120.0
175.606506 92.0
175.649155 64.0
175.723557 168.0
175.77243 144.0
175.811539 112.0
175.870071 168.0
175.898453 224.0
175.973022 44.0
176.057861 4296.0
176.189682 120.0
176.227615 216.0
176.244904 140.0
176.299606 176.0
176.360214 148.0
176.380005 108.0
176.402939 104.0
176.469131 184.0
176.509399 68.0
176.530563 44.0
176.559647 128.0
176.591385 76.0
176.637283 148.0
176.662811 44.0
176.705139 68.0
176.762085 76.0
176.879791 60.0
176.898331 180.0
176.940689 76.0
176.983047 60.0
177.06366 740.0
177.138672 84.0
177.173737 84.0
177.22142 196.0
177.246567 140.0
177.367188 56.0
177.406204 72.0
177.478409 84.0
177.513 36.0
177.56073 116.0
177.68541 108.0
177.740097 120.0
177.767654 52.0
177.81012 64.0
177.834015 76.0
177.895798 100.0
178.032898 136.0
178.051804 124.0
178.359924 156.0
178.471573 44.0
178.585922 40.0
178.705643 44.0
178.987778 80.0
179.028931 88.0
179.067673 32.0
179.110291 120.0
179.158234 156.0
179.488724 84.0
179.773529 68.0
179.886246 160.0
180.053238 148.0
180.15329 208.0
180.305008 72.0
180.334991 44.0
180.417862 144.0
180.444595 76.0
180.594345 76.0
180.618423 56.0
180.690643 136.0
180.859238 52.0
180.877975 196.0
181.017197 56.0
181.084152 200.0
181.204697 104.0
181.357437 168.0
181.376205 240.0
181.523651 132.0
181.708725 88.0
181.795486 120.0
181.924255 156.0
181.957062 188.0
182.052307 160.0
182.073792 108.0
182.175858 180.0
182.269897 96.0
182.355881 92.0
182.477997 160.0
182.554825 84.0
182.584412 52.0
182.704742 136.0
182.796936 120.0
182.826538 180.0
182.915359 92.0
182.939575 116.0
182.963806 64.0
183.042725 776.0
183.081741 116.0
183.113831 84.0
183.165787 64.0
183.221756 72.0
183.291611 136.0
183.775055 56.0
183.829025 96.0
183.876678 212.0
183.912689 72.0
183.961273 56.0
184.043243 244.0
184.075348 604.0
184.182693 60.0
184.347504 116.0
184.579971 96.0
184.655701 80.0
184.752487 168.0
184.801773 52.0
184.855881 168.0
184.919647 136.0
185.0802 1724.0
185.118469 176.0
185.146149 36.0
185.289108 68.0
185.463257 120.0
185.521439 44.0
185.560135 40.0
185.725555 52.0
185.91275 64.0
186.034897 184.0
186.081131 620.0
186.195099 120.0
186.301025 120.0
186.504822 56.0
186.531433 112.0
186.697861 152.0
186.79306 112.0
186.84314 196.0
186.925095 248.0
187.08638 1892.0
187.223099 136.0
187.299362 44.0
187.460098 72.0
187.603516 116.0
187.642731 56.0
187.672714 112.0
187.733032 156.0
187.806335 132.0
187.929108 56.0
187.980469 116.0
188.082489 2392.0
188.180206 156.0
188.213821 128.0
188.289429 44.0
188.357712 72.0
188.466995 124.0
188.488846 92.0
188.6091 96.0
188.836044 260.0
189.019333 132.0
189.038483 148.0
189.057251 112.0
189.082443 300.0
189.230087 136.0
189.268417 64.0
189.301086 56.0
189.40535 60.0
189.443512 116.0
189.679367 48.0
189.789658 228.0
189.843872 76.0
189.973557 176.0
190.042923 156.0
190.09787 11808.0
190.253326 192.0
190.315842 132.0
190.428436 64.0
190.480621 100.0
190.570755 84.0
190.630417 108.0
190.733429 220.0
190.763657 52.0
190.788406 80.0
190.925888 100.0
190.950638 116.0
190.997559 64.0
191.096649 1908.0
191.181732 160.0
191.649857 140.0
191.693939 68.0
191.765594 44.0
191.961334 116.0
192.060608 196.0
192.105408 136.0
192.159927 148.0
192.350342 120.0
192.424881 156.0
192.504959 88.0
192.994049 176.0
193.029999 112.0
193.301086 196.0
193.480988 112.0
193.561279 112.0
193.597275 56.0
193.655441 156.0
193.970093 60.0
194.071121 116.0
194.121033 56.0
194.295776 100.0
194.367905 88.0
194.434509 192.0
194.581635 132.0
194.60939 132.0
194.634384 76.0
194.773239 140.0
194.837143 56.0
194.912155 112.0
195.023315 156.0
195.170654 140.0
195.373688 64.0
195.45993 80.0
196.07196 160.0
196.142273 92.0
196.189651 44.0
196.287247 120.0
196.482483 112.0
196.638748 148.0
196.892212 152.0
196.92012 128.0
197.071976 216.0
197.10791 220.0
197.759506 192.0
197.924683 116.0
198.065414 1064.0
198.182159 52.0
198.283249 92.0
198.459854 72.0
198.71228 92.0
198.745956 152.0
198.880661 164.0
198.939606 72.0
198.976105 284.0
199.060333 4512.0
199.096222 860.0
199.144592 184.0
199.25415 124.0
199.30191 88.0
199.341248 444.0
199.431183 80.0
199.518326 48.0
199.630783 60.0
199.661728 72.0
199.681412 76.0
199.717972 152.0
199.743286 116.0
199.767899 136.0
199.801193 96.0
199.830505 228.0
199.86145 116.0
200.010788 156.0
200.070465 30480.0
200.142929 100.0
200.176712 36.0
200.206406 124.0
200.272461 40.0
200.33725 72.0
200.356979 68.0
200.408234 208.0
200.435867 96.0
200.455597 64.0
200.492905 112.0
200.52887 92.0
200.560745 116.0
200.583878 52.0
200.65007 52.0
200.684204 76.0
200.750107 100.0
200.827728 128.0
200.850296 152.0
200.889786 96.0
200.988525 140.0
201.072815 3072.0
201.191742 28.0
201.239731 76.0
201.40918 72.0
201.485443 84.0
201.525009 52.0
201.654999 84.0
202.014099 84.0
202.06459 156.0
202.095428 440.0
202.126541 156.0
202.136932 116.0
202.187561 172.0
202.228394 172.0
202.297089 132.0
202.455643 176.0
202.486801 104.0
202.512283 116.0
202.532104 188.0
202.577438 112.0
202.625595 204.0
202.673767 96.0
202.696426 56.0
202.738937 156.0
202.773071 88.0
202.804123 52.0
202.960037 144.0
203.094452 184.0
203.138718 68.0
203.203964 132.0
203.23233 104.0
203.851349 32.0
203.911041 104.0
204.089325 128.0
204.09938 188.0
204.169754 200.0
204.286362 48.0
204.363174 48.0
204.704758 40.0
204.918381 164.0
205.134964 64.0
205.268967 152.0
205.928207 44.0
206.091034 128.0
206.11676 68.0
206.248215 152.0
206.285385 160.0
206.550232 132.0
206.608521 96.0
206.768951 124.0
206.980606 120.0
207.089432 60.0
207.118073 224.0
207.249847 40.0
207.556549 44.0
207.65979 96.0
207.955307 60.0
208.144791 148.0
208.199341 116.0
208.340088 68.0
208.696472 80.0
208.719467 28.0
208.854645 200.0
208.958206 44.0
209.073303 156.0
209.122223 156.0
209.24025 104.0
209.415909 56.0
209.467743 192.0
210.066895 156.0
210.097275 212.0
210.240448 172.0
210.275085 172.0
210.51181 56.0
210.584015 96.0
210.777573 184.0
210.93364 152.0
210.982773 52.0
211.099518 288.0
211.41954 184.0
211.54538 92.0
211.682968 76.0
211.888626 68.0
212.021912 120.0
212.097641 220.0
212.120453 104.0
212.34082 76.0
212.854477 160.0
212.921265 116.0
213.076813 1232.0
213.10376 112.0
213.219925 100.0
213.409454 52.0
213.549042 168.0
213.610123 88.0
213.7677 156.0
213.872009 140.0
213.918579 60.0
213.959335 100.0
214.085175 1184.0
214.126968 216.0
214.154434 148.0
214.186478 148.0
214.446899 168.0
214.474945 140.0
214.507004 192.0
214.711105 48.0
214.73735 84.0
214.772842 144.0
214.830688 112.0
214.880295 216.0
214.906555 52.0
214.967819 92.0
215.023224 212.0
215.092865 27152.0
215.135666 328.0
215.156616 124.0
215.168259 48.0
215.179932 192.0
215.262665 112.0
215.313492 128.0
215.338593 76.0
215.389786 68.0
215.413177 216.0
215.470428 120.0
215.557693 40.0
215.589844 76.0
215.621994 108.0
215.64537 56.0
215.732849 56.0
215.752121 108.0
215.775299 80.0
215.89679 40.0
216.094635 3104.0
216.135315 152.0
216.16301 92.0
216.195953 92.0
216.209091 64.0
216.215073 96.0
216.338608 56.0
216.417664 44.0
216.449875 156.0
216.479156 40.0
216.733307 120.0
216.766235 88.0
216.786743 88.0
216.927429 84.0
216.974335 48.0
217.106003 252.0
217.182541 68.0
217.285202 56.0
217.322052 76.0
217.367355 80.0
217.390839 104.0
217.418198 148.0
217.467148 140.0
217.517044 116.0
217.558136 204.0
217.581619 48.0
217.61821 104.0
217.71254 232.0
217.771072 124.0
217.848862 132.0
217.873245 120.0
218.095703 116.0
218.477966 60.0
218.539764 148.0
218.654526 44.0
218.689835 56.0
218.728104 116.0
218.763428 60.0
218.816422 68.0
219.025497 84.0
219.060852 64.0
219.090317 68.0
219.137451 44.0
219.647461 116.0
219.753662 72.0
219.818573 72.0
219.839233 72.0
219.918915 140.0
220.406189 116.0
220.616028 220.0
220.746124 100.0
220.771881 128.0
221.17807 32.0
221.290573 108.0
221.334976 32.0
221.361633 184.0
221.488983 112.0
222.061035 152.0
222.336945 48.0
222.363663 40.0
222.933868 104.0
223.101974 164.0
223.451248 80.0
223.707184 100.0
224.081039 372.0
224.505692 148.0
224.583237 112.0
225.079498 96.0
225.129395 152.0
225.272766 132.0
226.014221 100.0
226.112961 108.0
226.151871 108.0
226.32251 92.0
226.753891 156.0
226.834808 32.0
226.867798 76.0
227.095932 940.0
227.127396 112.0
227.15567 128.0
227.362701 120.0
227.593842 72.0
227.728989 108.0
227.795059 120.0
228.00238 92.0
228.0625 264.0
228.094788 292.0
228.309021 144.0
228.654999 160.0
228.814545 224.0
228.902298 116.0
229.022324 100.0
229.108704 160.0
229.143921 196.0
229.471329 116.0
229.600998 172.0
229.908707 128.0
230.089813 104.0
230.131943 80.0
230.322342 36.0
230.431091 136.0
230.642639 44.0
230.706116 132.0
230.833099 120.0
230.95105 88.0
231.151077 200.0
232.329742 144.0
232.994186 36.0
234.128738 164.0
234.278 56.0
234.793121 100.0
234.924271 116.0
235.434006 128.0
235.741104 128.0
235.932053 184.0
236.338821 92.0
236.452042 152.0
236.64183 200.0
237.300568 108.0
237.444687 60.0
237.616455 160.0
238.093979 120.0
238.510086 48.0
238.885239 92.0
239.048309 104.0
239.10231 168.0
239.362289 96.0
240.12178 136.0
240.407303 52.0
240.703644 124.0
240.793198 192.0
241.108643 604.0
241.135498 168.0
241.897049 164.0
241.983734 72.0
242.152069 2996.0
242.215988 140.0
242.618835 48.0
242.733566 56.0
243.059265 92.0
243.151489 528.0
243.232803 148.0
244.163849 244.0
244.772003 60.0
245.165161 356.0
245.416992 128.0
246.072205 192.0
246.16275 240.0
246.606369 72.0
246.722031 104.0
246.80957 160.0
246.912766 112.0
247.197449 252.0
247.21936 92.0
248.526031 152.0
248.676666 148.0
249.345642 184.0
249.421082 176.0
250.05957 96.0
250.216965 116.0
250.544495 52.0
250.62326 112.0
250.783981 112.0
251.324814 120.0
251.698868 164.0
252.112686 156.0
253.145737 164.0
253.359344 52.0
253.869644 132.0
254.117065 148.0
254.149551 368.0
254.266205 36.0
254.675781 72.0
254.866394 176.0
255.028458 184.0
255.126999 164.0
255.190582 76.0
256.072052 76.0
256.123016 128.0
256.151672 56.0
256.177155 84.0
256.234497 112.0
256.795532 36.0
257.162994 140.0
257.446594 144.0
257.83316 52.0
258.159332 536.0
259.154755 168.0
259.244476 100.0
259.645203 176.0
260.091156 168.0
260.21637 84.0
260.701538 84.0
260.80423 104.0
261.07431 164.0
261.7211 144.0
261.808044 60.0
261.988403 60.0
262.465424 96.0
262.758911 60.0
263.042908 128.0
263.50473 216.0
263.915192 112.0
265.08371 172.0
265.725739 104.0
266.121704 128.0
266.54071 64.0
266.654449 48.0
266.729187 96.0
268.148315 260.0
269.138519 104.0
269.888275 84.0
269.947113 136.0
270.074677 100.0
270.146271 7184.0
270.212067 60.0
270.257874 176.0
270.352753 84.0
270.526245 44.0
270.575348 36.0
270.614624 52.0
270.657196 96.0
270.716125 48.0
271.017487 88.0
271.102692 104.0
271.149597 1052.0
271.240356 28.0
271.597748 52.0
272.030914 56.0
272.14621 96.0
272.17865 68.0
272.375702 32.0
272.651672 144.0
272.760132 104.0
272.819305 60.0
272.898224 136.0
273.079071 124.0
273.15802 116.0
273.190918 112.0
273.32251 100.0
273.46402 152.0
274.13916 176.0
274.336914 72.0
275.360962 140.0
276.895721 172.0
277.331757 120.0
278.911682 144.0
279.267456 168.0
280.446136 232.0
281.249969 80.0
281.42691 100.0
281.720825 56.0
282.867828 144.0
283.00174 60.0
283.150421 112.0
283.303162 64.0
283.608093 76.0
283.681824 76.0
283.909821 84.0
284.033936 100.0
284.070831 108.0
284.154694 236.0
284.211731 172.0
284.255341 52.0
284.298981 36.0
284.392944 124.0
284.617889 52.0
284.728699 60.0
284.755554 124.0
284.920166 280.0
284.980621 128.0
285.010864 176.0
285.045715 204.0
285.074707 84.0
285.104187 180.0
285.171295 24580.0
285.296539 148.0
285.348999 80.0
285.384674 56.0
285.415497 116.0
285.529114 72.0
285.646271 48.0
285.66983 84.0
285.716919 108.0
285.743835 36.0
285.826019 132.0
285.897614 80.0
285.91983 80.0
285.952484 56.0
285.996216 76.0
286.025146 124.0
286.090485 60.0
286.13269 56.0
286.17276 2900.0
286.218414 52.0
286.255463 60.0
286.292511 32.0
286.357422 72.0
286.455597 112.0
286.659698 60.0
286.727081 80.0
286.821472 100.0
286.848419 60.0
286.875397 128.0
286.94281 156.0
287.138397 48.0
287.174988 816.0
287.226105 60.0
287.310425 60.0
287.541321 84.0
287.776184 56.0
287.809937 124.0
287.890991 80.0
287.928131 92.0
288.002441 44.0
288.027863 120.0
288.167969 164.0
288.431549 100.0
288.746002 80.0
289.195984 52.0
289.348328 64.0
289.453278 68.0
289.534546 52.0
289.852997 60.0
290.575195 200.0
291.33905 40.0
292.481628 88.0
292.512268 52.0
294.039246 56.0
295.638641 64.0
295.765289 56.0
296.405701 60.0
296.611328 84.0
296.724457 48.0
297.115448 68.0
297.475769 100.0
298.217712 144.0
298.516815 144.0
298.554626 128.0
298.678467 60.0
299.11203 56.0
299.47699 64.0
300.214539 204.0
301.595551 64.0
302.198242 3852.0
302.253387 144.0
302.301056 52.0
302.328766 148.0
302.391052 60.0
302.629913 80.0
303.199432 636.0
303.430237 56.0
303.766632 104.0
304.019928 76.0
304.199738 176.0
304.422607 72.0
304.780396 108.0
304.968048 144.0
305.079285 104.0
305.190552 88.0
305.85849 60.0
306.802521 44.0
307.496643 52.0
309.121704 72.0
309.36319 100.0
311.727173 60.0
312.458527 156.0
313.349243 108.0
315.625824 72.0
316.188293 112.0
317.38916 88.0
317.885773 116.0
318.0242 92.0
318.308197 44.0
318.386322 96.0
322.076172 132.0
324.692535 64.0
326.394714 100.0
328.202271 40.0
329.140411 176.0
331.09317 112.0
331.372101 96.0
334.78653 132.0
335.314789 68.0
335.606415 60.0
335.810638 128.0
339.36145 72.0
339.72821 124.0
339.977722 44.0
341.285431 104.0
345.741547 132.0
346.545074 56.0
348.106689 60.0
348.507843 76.0
348.912964 80.0
349.515503 112.0
350.375549 84.0
350.845123 92.0
352.322968 140.0
352.894806 60.0
353.534424 96.0
353.882538 72.0
358.367157 68.0
360.06842 124.0
362.20163 52.0
362.42514 80.0
364.474121 48.0
366.113647 84.0
366.349792 56.0
368.623779 68.0
370.510071 48.0
370.682495 104.0
371.568207 40.0
371.905914 68.0
372.12854 120.0
372.282135 48.0
372.520264 52.0
373.250519 116.0
373.36203 40.0
373.68515 140.0
374.324097 100.0
376.251953 40.0
376.321442 60.0
378.877869 76.0
379.149109 36.0
380.673706 88.0
383.170837 100.0
385.945892 112.0
386.227448 52.0
387.092377 100.0
387.895538 136.0
390.066284 124.0
391.246429 60.0
391.305481 52.0
394.038666 76.0
394.607788 92.0
394.951843 48.0
396.872559 92.0
397.951752 56.0
398.515778 92.0
398.670746 100.0
399.040405 44.0
400.034973 56.0
402.075745 80.0
402.546814 64.0
403.553741 76.0
403.781677 68.0
406.196899 80.0
408.715881 68.0
408.921143 72.0
409.472717 68.0
409.521027 84.0
410.234253 76.0
411.145813 48.0
412.36145 56.0
419.639984 44.0
420.639465 44.0
422.83847 76.0
423.690155 52.0
424.596039 64.0
432.068146 108.0
433.384766 64.0
434.060394 36.0
435.417389 88.0
435.649994 60.0
437.250854 84.0
441.096466 36.0
446.227753 96.0
446.589386 68.0
447.721558 96.0
448.581085 76.0
449.213623 92.0
449.420349 48.0
451.177307 72.0
452.620056 48.0
456.545319 120.0
456.90686 88.0
458.111633 84.0
458.981079 52.0
460.325226 108.0
467.604645 92.0
467.875824 132.0
473.272705 84.0
475.127716 120.0
477.195007 64.0
479.319092 64.0
479.449829 108.0
484.119873 92.0
488.240692 116.0
488.825775 44.0
492.242065 52.0
503.285431 56.0
506.97583 44.0
508.904663 92.0
510.086212 52.0
510.85965 116.0
513.774353 80.0
514.433228 48.0
515.408752 84.0
519.324707 116.0
520.981506 36.0
521.281372 100.0
523.214478 44.0
524.699646 60.0
525.306213 44.0
526.958801 148.0
528.586609 72.0
529.062622 116.0
532.04248 100.0
537.570374 68.0
539.722961 60.0
540.847595 80.0
543.034058 144.0
545.443848 40.0
550.018066 68.0
554.166138 92.0
557.422546 104.0
559.972351 84.0
562.09375 148.0
562.768738 60.0
564.209778 76.0
571.475647 92.0
576.018982 40.0
576.071533 48.0
576.472839 120.0
579.190369 68.0
580.004944 96.0
580.724182 116.0
582.418457 100.0
587.164124 204.0
587.197876 120.0
587.275085 76.0
588.727783 96.0
593.862732 44.0
595.289551 56.0
597.379517 112.0
598.669312 124.0
604.023438 96.0
607.261047 72.0
622.009521 68.0
623.251099 56.0
624.175659 68.0
624.329834 72.0
624.643188 56.0
625.15564 172.0
632.061951 116.0
632.237061 184.0
635.363708 60.0
637.633362 36.0
642.47229 44.0
644.133118 92.0
645.68988 88.0
653.308533 48.0
657.195862 80.0
658.420959 68.0
666.216858 60.0
666.674194 60.0
667.311584 104.0
668.803406 88.0
671.637329 88.0
678.58252 208.0
678.639526 80.0
679.365601 84.0
688.887024 180.0
693.266357 100.0
697.338928 140.0
707.000854 112.0
715.578796 64.0
715.743835 168.0
721.891113 52.0
722.008728 96.0
724.765625 148.0
726.652893 128.0
726.717285 176.0
728.027039 232.0
729.596008 180.0
730.090698 48.0
731.09668 164.0
731.984924 32.0
735.651184 88.0
742.1922 76.0
743.157654 120.0
746.123047 80.0
747.292419 152.0
752.590271 136.0
753.89032 80.0
754.409546 124.0
756.302246 144.0
757.452087 96.0
761.752686 148.0
763.313599 168.0
764.964111 224.0
765.079712 32.0
765.327454 136.0
766.892029 180.0
768.121643 56.0
768.397461 184.0
771.396179 140.0
772.72345 188.0
775.414612 116.0
778.243774 28.0
778.425171 208.0
779.343506 120.0
779.721375 76.0
780.599731 164.0
782.714294 132.0
782.75885 112.0
782.95929 64.0
786.443909 96.0
792.926208 228.0
794.855347 76.0
797.309387 64.0
798.450623 188.0
803.018188 176.0
804.411926 140.0
805.85199 192.0
806.434082 88.0
807.649719 48.0
808.255066 100.0
808.617249 84.0
809.205933 200.0
810.378357 88.0
816.844604 128.0
817.055054 108.0
818.859497 92.0
820.09021 232.0
821.823792 116.0
823.033875 212.0
825.405212 92.0
826.0 96.0
827.436401 64.0
830.806213 256.0
835.873779 120.0
838.275024 132.0
839.243408 168.0
841.216492 176.0
841.557129 92.0
842.105713 84.0
842.498535 236.0
843.382629 60.0
846.946899 172.0
847.908691 168.0
847.955078 92.0
848.059387 120.0
850.745117 172.0
854.080566 172.0
854.708862 332.0
856.548584 132.0
860.356567 184.0
862.097107 164.0
863.476807 168.0
865.811951 80.0
866.766846 192.0
868.46698 136.0
870.004395 64.0
870.168762 136.0
870.286194 56.0
872.10144 80.0
872.460022 80.0
873.947998 204.0
874.395203 108.0
876.173523 164.0
876.574158 160.0
877.104614 164.0
877.322693 164.0
878.266174 152.0
878.79126 128.0
880.538574 120.0
880.957947 64.0
882.512268 60.0
882.689636 184.0
884.701294 156.0
885.044678 124.0
885.399963 112.0
885.619141 184.0
886.098938 192.0
886.561157 36.0
886.691528 184.0
887.954346 172.0
889.23584 104.0
892.277222 204.0
892.68158 156.0
892.925415 52.0
893.454773 168.0
894.966492 180.0
895.770508 224.0
896.080322 112.0
896.676208 144.0
897.164978 156.0
899.939209 128.0
900.028809 176.0
902.143738 152.0
902.347046 152.0
902.771545 176.0
905.704224 148.0
906.824646 100.0
907.064392 188.0
908.01178 200.0
909.523743 36.0
909.625793 32.0
909.997986 180.0
912.653687 168.0
913.068604 244.0
913.315247 200.0
913.471619 108.0
913.579895 188.0
915.915527 116.0
916.029968 204.0
916.264893 176.0
916.343262 164.0
916.415527 212.0
916.710815 108.0
916.933777 128.0
916.981995 104.0
918.869385 52.0
919.394348 144.0
920.782959 136.0
920.897705 116.0
921.016113 232.0
922.257141 148.0
922.450562 148.0
923.41803 164.0
924.960938 224.0
925.051758 148.0
925.160706 80.0
925.626892 148.0
926.0448 228.0
927.129211 136.0
927.359558 92.0
928.754089 148.0
928.996765 184.0
929.931213 148.0
930.010071 184.0
930.817566 196.0
930.902527 104.0
931.655701 148.0
932.056702 88.0
934.458374 44.0
937.070312 112.0
937.362793 152.0
937.874756 168.0
939.53949 40.0
939.832336 204.0
941.040833 184.0
942.384521 156.0
944.921875 104.0
947.505493 108.0
948.099854 156.0
949.148071 120.0
949.503784 132.0
950.362549 200.0
951.23407 236.0
951.983093 72.0
952.474426 80.0
953.973816 224.0
954.748535 132.0
955.400513 204.0
956.108154 120.0
956.317383 140.0
956.957581 132.0
957.154663 120.0
957.647339 96.0
958.14624 208.0
958.244873 124.0
959.045959 116.0
959.311035 68.0
960.143433 112.0
960.945312 132.0
961.833984 76.0
962.543945 216.0
962.624207 188.0
963.587769 180.0
965.640076 212.0
967.1745 144.0
968.536743 96.0
968.660645 144.0
969.825562 108.0
970.501282 140.0
971.462585 164.0
971.940308 184.0
972.126465 200.0
972.250549 144.0
972.294006 136.0
972.821594 144.0
973.585327 112.0
974.138123 148.0
976.338379 188.0
976.580933 176.0
976.630676 220.0
976.699097 136.0
977.209229 144.0
977.2901 104.0
978.07428 56.0
978.422852 212.0
979.033081 260.0
981.444641 84.0
981.712769 100.0
982.16803 64.0
982.211731 152.0
982.773193 168.0
982.991577 180.0
983.054016 40.0
983.659424 180.0
984.127625 168.0
984.533508 172.0
984.858276 156.0
986.070374 168.0
986.35791 120.0
987.195679 180.0
987.858704 120.0
987.908752 160.0
989.554688 200.0
989.936646 156.0
990.450195 172.0
990.72583 104.0
991.891418 152.0
992.581055 164.0
993.829224 48.0
994.067688 100.0
995.241516 148.0
996.020264 216.0
996.623352 112.0
996.673645 116.0
996.71759 240.0
998.35199 184.0
999.673096 60.0
1000.629822 192.0
1000.818726 148.0
1001.473633 136.0
1001.61853 188.0
1002.19812 208.0
1003.982056 116.0
1004.278442 168.0
1004.455078 200.0
1005.149048 192.0
1007.920593 148.0
1008.034851 144.0
1008.647888 148.0
1009.166321 176.0
1009.400269 144.0
1009.729126 228.0
1010.469177 132.0
1011.114624 108.0
1012.057861 184.0
1014.674561 132.0
1015.340332 148.0
1015.708191 156.0
1016.717041 172.0
1016.850281 200.0
1017.478699 228.0
1017.535889 96.0
1018.056519 132.0
1018.691711 172.0
1019.708313 204.0
1019.968933 220.0
1020.293152 200.0
1022.614929 68.0
1022.659485 116.0
1023.028687 164.0
1023.245117 380.0
1024.703613 144.0
1025.2771 48.0
1025.602173 160.0
1025.767822 176.0
1026.526611 224.0
1027.547119 312.0
1028.861816 172.0
1029.570557 296.0
1029.723877 176.0
1030.317871 188.0
1030.803467 196.0
1031.864502 64.0
1032.356934 156.0
1032.599976 208.0
1033.303589 152.0
1033.7771 188.0
1034.007446 200.0
1034.269897 92.0
1034.468262 160.0
1034.532349 180.0
1034.8396 232.0
1035.095703 176.0
1036.601074 152.0
1037.139404 140.0
1037.883057 132.0
1038.614258 148.0
1038.883667 240.0
1039.02478 184.0
1039.095337 144.0
1040.975952 264.0
1041.70813 44.0
1041.855957 96.0
1042.100098 240.0
1042.247803 180.0
1042.369995 160.0
1042.421387 108.0
1043.977051 164.0
1044.350098 92.0
1044.459351 160.0
1044.645996 132.0
1044.690918 144.0
1045.05127 224.0
1045.495239 104.0
1045.688354 152.0
1045.804199 104.0
1046.441528 156.0
1046.640747 160.0
1046.789185 156.0
1047.022949 164.0
1047.07251 184.0
1047.955078 156.0
1048.651001 112.0
1049.734131 124.0
1049.946899 124.0
1050.333862 248.0
1050.991943 212.0
1051.587524 172.0
1051.716919 168.0
1051.884399 164.0
1051.92627 204.0
1052.024536 80.0
1052.637939 204.0
1052.683105 232.0
1052.883301 80.0
1053.606812 136.0
1053.748901 132.0
1053.839355 136.0
1054.343384 168.0
1054.56311 236.0
1055.248413 120.0
1055.403564 92.0
1055.532837 132.0
1055.907959 188.0
1056.078613 184.0
1056.160156 160.0
1056.528931 180.0
1056.871826 128.0
1057.318359 164.0
1057.434814 116.0
1057.486572 32.0
1057.81665 188.0
1058.198608 144.0
1058.716675 188.0
1058.807373 232.0
1059.085815 184.0
1059.494019 104.0
1059.753052 160.0
1059.88916 160.0
1060.874268 72.0
1061.185547 124.0
1061.347656 128.0
1061.697754 160.0
1062.962769 172.0
1064.247925 120.0
1064.578735 144.0
1064.722046 124.0
1064.767456 248.0
1065.001343 76.0
1065.189697 64.0
1066.047241 64.0
1066.976807 220.0
1067.178345 116.0
1067.470947 136.0
1067.672485 128.0
1068.017212 156.0
1068.082275 204.0
1068.641724 104.0
1069.006104 100.0
1069.090698 172.0
1069.344482 132.0
1070.360107 148.0
1070.503418 160.0
1070.750854 168.0
1072.294922 176.0
1073.331421 128.0
1073.598755 152.0
1073.651001 160.0
1073.940552 200.0
1074.094482 220.0
1076.254639 228.0
1076.300415 160.0
1076.417847 204.0
1078.554321 88.0
1078.652344 72.0
1078.730713 112.0
1079.037964 128.0
1080.15625 176.0
1080.385254 220.0
1081.340576 248.0
1081.739868 196.0
1082.113037 140.0
1082.460083 96.0
1083.05603 204.0
1083.101929 88.0
1083.606323 188.0
1083.789795 204.0
1084.150146 196.0
1084.543457 168.0
1084.648315 112.0
1085.81543 140.0
1086.084229 172.0
1087.370239 120.0
1087.652466 184.0
1088.473145 80.0
1088.762085 112.0
1089.051025 188.0
1090.358521 104.0
1090.430786 172.0
1090.483398 204.0
1090.687134 132.0
1091.153931 132.0
1091.568115 168.0
1091.660156 160.0
1092.041626 176.0
1092.114014 172.0
1092.581055 164.0
1093.252197 164.0
1093.358765 108.0
1094.239502 160.0
1094.937012 156.0
1095.517212 280.0
1096.202393 124.0
1097.204224 216.0
1097.276733 184.0
1097.711914 136.0
1097.937622 144.0
1098.015259 196.0
1098.272583 60.0
1098.675293 212.0
1098.727661 152.0
1098.839844 116.0
1099.051025 152.0
1099.262207 96.0
1099.559082 220.0
1099.750488 168.0
1100.509644 152.0
1101.13855 236.0
1101.771118 144.0
1102.372437 132.0
1104.448364 60.0
1104.772583 156.0
1104.997437 200.0
1105.24231 120.0
1106.287964 168.0
1106.433594 144.0
1106.71167 172.0
1106.817627 152.0
1107.413696 132.0
1107.592529 60.0
1108.102539 180.0
1108.255005 180.0
1108.63269 148.0
1108.712158 148.0
1108.997192 160.0
1109.587158 160.0
1109.67334 164.0
1110.157471 72.0
1110.435913 112.0
1110.595093 208.0
1111.31665 156.0
1111.504028 136.0
1111.882324 208.0
1112.280518 292.0
1112.426514 168.0
1112.605835 176.0
1113.017456 180.0
1113.263184 148.0
1113.422485 120.0
1113.967163 172.0
1114.040283 76.0
1114.266113 164.0
1114.556152 248.0
1114.844238 180.0
1115.016968 184.0
1115.143311 180.0
1115.282837 160.0
1115.821289 308.0
1116.020752 136.0
1116.379883 112.0
1116.479614 196.0
1117.078247 140.0
1117.4375 152.0
1117.710205 172.0
1117.83667 152.0
1118.16272 124.0
1118.435669 132.0
1119.141357 48.0
1119.314453 132.0
1119.53418 316.0
1119.680664 276.0
1120.107056 160.0
1120.273682 148.0
1120.326782 140.0
1120.493408 100.0
1120.793213 172.0
1121.082642 148.0
1121.105103 64.0
1121.129883 136.0
1121.213013 124.0
1121.259644 36.0
1121.3396 112.0
1121.66626 188.0
1122.206299 160.0
1122.999756 124.0
1123.266602 200.0
1123.406738 116.0
1123.566772 128.0
1124.141235 168.0
1124.227417 240.0
1124.781372 180.0
1126.009888 160.0
1126.136841 136.0
1126.564331 164.0
1127.018555 136.0
1127.207642 176.0
1127.524658 180.0
1127.820557 176.0
1128.234985 180.0
1129.077515 140.0
1129.157715 152.0
1129.559082 140.0
1130.107666 152.0
1130.181274 124.0
1130.522583 208.0
1131.098145 108.0
1131.356323 168.0
1131.48645 148.0
1132.015381 196.0
1132.430542 160.0
1132.510986 60.0
1132.61145 132.0
1132.979858 160.0
1133.174194 204.0
1133.68335 136.0
1133.75708 156.0
1134.796143 124.0
1135.044189 192.0
1135.802002 132.0
1136.546753 56.0
1136.835205 148.0
1137.090332 120.0
1137.607178 232.0
1137.734619 112.0
1137.808472 180.0
1138.144287 128.0
1138.446411 148.0
1139.286011 176.0
1139.696899 132.0
1140.145996 184.0
1140.670288 136.0
1140.744263 172.0
1142.160156 204.0
1143.158813 128.0
1143.46167 112.0
1143.690552 156.0
1144.067505 116.0
1144.134766 76.0
1144.229004 128.0
1144.35022 144.0
1144.787964 172.0
1145.090942 128.0
1145.353638 120.0
1145.872314 156.0
1146.741699 112.0
1147.159546 120.0
1147.27417 120.0
1147.665161 112.0
1147.9552 160.0
1149.115356 72.0
1149.297485 40.0
1149.62146 116.0
1149.709106 136.0
1150.066895 240.0
1150.235596 156.0
1150.417847 144.0
1150.532593 276.0
1151.450928 92.0
1151.78186 128.0
1152.045288 100.0
1152.092651 192.0
1152.200684 168.0
1152.910156 92.0
1153.126465 176.0
1153.984985 156.0
1154.586792 204.0
1154.727417 212.0
1155.039917 160.0
1155.554077 180.0
1156.169312 176.0
1156.894165 164.0
1157.374756 184.0
1157.544067 116.0
1157.767578 152.0
1157.895142 168.0
1158.383911 256.0
1158.532959 216.0
1158.593872 68.0
1158.905518 212.0
1159.007202 180.0
1159.115601 140.0
1159.334595 184.0
1159.447632 160.0
1159.535767 224.0
1159.752686 152.0
1159.88147 132.0
1159.996704 132.0
1160.139038 312.0
1160.308594 156.0
1160.762817 180.0
1160.925537 172.0
1161.088379 104.0
1161.712402 40.0
1161.883179 140.0
1161.942993 280.0
1162.146606 104.0
1162.350098 172.0
1162.411133 200.0
1162.580811 156.0
1162.859131 144.0
1162.967651 44.0
1163.144165 148.0
1163.23291 156.0
1163.870605 188.0
1164.047119 180.0
1164.223755 216.0
1164.407104 240.0
1164.495361 180.0
1165.337769 92.0
1165.516357 160.0
1165.97644 164.0
1166.024048 80.0
1166.071655 200.0
1166.493042 120.0
1166.656128 188.0
1167.975464 172.0
1168.505981 196.0
1169.029907 160.0
1169.213745 208.0
1169.397461 168.0
1169.492798 180.0
1169.540405 52.0
1170.384521 80.0
1170.761108 164.0
1171.099609 148.0
1171.37207 132.0
1171.630981 208.0
1171.768555 188.0
1172.073853 44.0
1172.46228 68.0
1172.537231 164.0
1172.623047 168.0
1172.918945 172.0
1173.232422 88.0
1173.280151 176.0
1173.430176 128.0
1174.132568 172.0
1174.289429 140.0
1174.691772 152.0
1174.855591 112.0
1174.910156 144.0
1175.217163 136.0
1175.783569 180.0
1175.954102 180.0
1176.50708 188.0
1176.780151 136.0
1176.88916 128.0
1176.984985 40.0
1177.256714 180.0
1177.367432 128.0
1178.446655 36.0
1179.266724 160.0
1179.912109 220.0
1180.051025 192.0
1180.244263 176.0
1180.346802 56.0
1180.962402 244.0
1181.345459 88.0
1181.571167 148.0
1181.625854 144.0
1181.761841 160.0
1182.159668 196.0
1182.276001 228.0
1182.392334 180.0
1182.597778 136.0
1182.700317 224.0
1183.026489 176.0
1183.419067 172.0
1183.494385 192.0
1183.754761 136.0
1183.994263 36.0
1184.494263 152.0
1184.871094 148.0
1185.072144 184.0
1185.179443 96.0
1185.611084 164.0
1185.768677 76.0
1185.830444 156.0
1186.413086 204.0
1186.640869 140.0
1186.721558 188.0
1188.580444 104.0
1188.813721 172.0
1188.992188 68.0
1189.506958 132.0
1189.836426 192.0
1190.076782 128.0
1190.866455 184.0
1190.935181 120.0
1191.017578 132.0
1191.277344 92.0
1191.354126 172.0
1191.532837 212.0
1192.384888 192.0
1194.027954 164.0
1194.076172 108.0
1194.158691 152.0
1194.289307 128.0
1194.805298 128.0
1194.936035 108.0
1195.775513 92.0
1196.238159 224.0
1197.228149 208.0
1198.757446 108.0
1199.164062 136.0
1199.336426 168.0
1199.577637 196.0
1199.915527 156.0
1199.977539 168.0
1200.191284 152.0
1200.343018 40.0
1200.418823 108.0
1200.529175 228.0
1201.025757 56.0
1201.122314 112.0
1201.391357 184.0
1201.860962 176.0
1201.984619 88.0
1202.695557 120.0
1202.916382 172.0
1203.137329 192.0
1203.758667 168.0
1204.269775 44.0
1204.318115 200.0
1204.497681 172.0
1204.566772 152.0
1204.829346 192.0
1204.939819 156.0
1205.108887 176.0
1205.340576 52.0
1205.886475 128.0
1206.135376 140.0
1206.280518 104.0
1206.331543 156.0
1206.515625 80.0
1206.805176 184.0
1207.075562 92.0
1207.615723 164.0
1208.320679 204.0
1208.81189 48.0
1209.054077 200.0
1209.261719 108.0
1209.310181 196.0
1209.60083 80.0
1210.050903 156.0
1210.397095 216.0
1210.944214 120.0
1211.255859 172.0
1211.394409 52.0
1211.553711 132.0
1211.743652 164.0
1211.858521 168.0
1212.010986 280.0
1212.572266 216.0
1212.634644 152.0
1213.237793 180.0
1213.681519 112.0
1214.333374 84.0
1215.02002 164.0
1215.235107 188.0
1216.720459 180.0
1216.817627 96.0
1217.046753 128.0
1217.275879 212.0
1217.991211 184.0
1218.164917 196.0
1218.407959 128.0
1218.456665 208.0
1218.887451 168.0
1219.102905 64.0
1219.561523 128.0
1219.783936 152.0
1219.985596 76.0
1220.046753 200.0
1220.284546 272.0
1220.360962 212.0
1220.493164 96.0
1220.562622 136.0
1220.646118 164.0
1220.77124 172.0
1221.119019 132.0
1221.223267 140.0
1221.390259 224.0
1221.557129 144.0
1221.939819 124.0
1222.385132 188.0
1222.503418 144.0
1222.616577 196.0
1222.667969 148.0
1222.788818 204.0
1223.296875 156.0
1223.398926 120.0
1224.243286 120.0
1224.417847 152.0
1224.487549 136.0
1224.668579 176.0
1225.030884 148.0
1225.093506 248.0
1225.281616 108.0
1225.414551 176.0
1225.532471 140.0
1226.235229 228.0
1226.291992 128.0
1226.501099 196.0
1227.951416 132.0
1228.258301 72.0
1228.488525 164.0
1228.900146 172.0
1229.30481 140.0
1229.374634 172.0
1229.590942 160.0
1229.856201 148.0
1230.065552 152.0
1230.128418 52.0
1230.24707 212.0
1230.973267 136.0
1231.277954 216.0
1231.364258 148.0
1231.524902 112.0
1232.069824 136.0
1232.677368 140.0
1233.271729 120.0
1233.914795 40.0
1234.809937 144.0
1234.970825 92.0
1235.075684 144.0
1235.229248 96.0
1235.397461 112.0
1235.474365 128.0
1235.537354 128.0
1235.708008 184.0
1235.906128 224.0
1236.218872 288.0
1236.384033 180.0
1236.531006 100.0
1236.593994 100.0
1236.692017 128.0
1236.927246 224.0
1237.04895 148.0
1237.322021 172.0
1237.706421 180.0
1238.022217 120.0
1238.380737 188.0
1238.435425 136.0
1238.889526 136.0
1239.437256 68.0
1239.605347 100.0
1239.794556 168.0
1240.166016 148.0
1240.306274 144.0
1240.551636 80.0
1240.607666 188.0
1240.881104 132.0
1241.007324 48.0
1241.245728 144.0
1241.6875 156.0
1241.869873 172.0
1242.010132 84.0
1242.276733 44.0
1242.325806 164.0
1242.647705 200.0
1242.936157 140.0
1243.097534 72.0
1243.273071 128.0
1243.666016 128.0
1243.869629 212.0
1244.01709 228.0
1244.128784 180.0
1244.459351 140.0
1244.852539 160.0
1245.018677 164.0
1245.477661 176.0
1245.526733 232.0
1245.920166 104.0
1246.102783 164.0
1246.390869 164.0
1246.55957 120.0
1246.960083 184.0
1247.360718 128.0
1247.578735 108.0
1247.62793 76.0
1248.028687 192.0
1248.2677 72.0
1248.352173 136.0
1248.640503 196.0
1249.124146 204.0
1249.196167 32.0
1249.336792 172.0
1249.386108 96.0
1249.808228 104.0
1249.970093 168.0
1250.089722 244.0
1250.237427 264.0
1251.103271 184.0
1251.279175 164.0
1251.476318 152.0
1251.532715 56.0
1251.680542 180.0
1252.159424 140.0
1252.391846 88.0
1252.518677 116.0
1252.879517 120.0
1253.046997 140.0
1253.258301 192.0
1253.469727 184.0
1253.87854 132.0
1253.963013 280.0
1254.449463 164.0
1255.119141 164.0
1255.182617 152.0
1255.344849 72.0
1255.50708 156.0
1255.796143 52.0
1255.887939 156.0
1256.120605 108.0
1256.275879 172.0
1256.586304 164.0
1256.674805 132.0
1256.882202 152.0
1257.362427 140.0
1257.567871 120.0
1258.089478 156.0
1258.145996 160.0
1258.945435 108.0
1259.388794 168.0
1259.515991 164.0
1259.593628 200.0
1259.643066 120.0
1260.016235 200.0
1260.260742 148.0
1261.027954 112.0
1261.353149 32.0
1261.551025 76.0
1261.897461 204.0
1262.137939 228.0
1262.201538 188.0
1262.314697 124.0
1262.739014 104.0
1262.788452 180.0
1263.672729 188.0
1263.976929 104.0
1264.063354 176.0
1264.387451 156.0
1264.762573 136.0
1265.059814 112.0
1265.151855 168.0
1265.208496 128.0
1265.427979 160.0
1265.663818 224.0
1265.859863 192.0
1266.171509 36.0
1266.405273 144.0
1266.611816 168.0
1266.674438 148.0
1266.77832 204.0
1266.922363 180.0
1267.136963 160.0
1267.765503 112.0
1267.963989 156.0
1268.02063 120.0
1268.126953 80.0
1268.417603 148.0
1268.563721 156.0
1268.800415 100.0
1268.963379 136.0
1269.083984 160.0
1269.154907 156.0
1269.353394 208.0
1269.499878 172.0
1269.665405 148.0
1269.722168 124.0
1269.771851 176.0
1269.864014 212.0
1270.169067 144.0
1270.399414 212.0
1270.871338 208.0
1271.375122 236.0
1271.541992 144.0
1271.72998 180.0
1271.808105 88.0
1271.864868 156.0
1272.010498 220.0
1272.191406 148.0
1272.461182 244.0
1272.844604 104.0
1273.228149 180.0
1273.505127 44.0
1273.654297 124.0
1273.940552 188.0
1274.311523 220.0
1274.556519 92.0
1275.281372 84.0
1275.743408 168.0
1275.842896 148.0
1276.30835 248.0
1276.613525 180.0
1276.852661 176.0
1277.037598 132.0
1277.542603 148.0
1277.599487 168.0
1277.755981 96.0
1277.807007 144.0
1278.140259 44.0
1278.688232 176.0
1278.816284 164.0
1279.057007 176.0
1279.620728 176.0
1280.040649 184.0
1280.401001 216.0
1280.643433 168.0
1281.018066 220.0
1281.087769 108.0
1281.166138 176.0
1281.522339 28.0
1281.743286 216.0
1282.560425 164.0
1282.715942 152.0
1282.812378 208.0
1282.933472 172.0
1283.06897 120.0
1283.23291 176.0
1284.170044 128.0
1285.301392 144.0
1285.529785 144.0
1285.671143 148.0
1286.072144 256.0
1286.186401 200.0
1286.728882 40.0
1286.85022 140.0
1286.97168 160.0
1287.442993 188.0
1287.571533 92.0
1287.700073 148.0
1287.771484 168.0
1287.892944 128.0
1288.133179 224.0
1288.187744 176.0
1288.24646 184.0
1288.307251 132.0
1288.678711 200.0
1288.896973 140.0
1289.307495 124.0
1289.379028 200.0
1289.443359 244.0
1289.679199 136.0
1289.793579 124.0
1289.893677 180.0
1290.029419 116.0
1290.186768 256.0
1290.258179 104.0
1290.565674 176.0
1290.651489 240.0
1290.730103 128.0
1290.8302 168.0
1291.073364 128.0
1291.137695 176.0
1291.27356 144.0
1291.408447 132.0
1291.452515 196.0
1291.538208 232.0
1291.724243 132.0
1291.953125 124.0
1292.07312 164.0
1292.267944 180.0
1292.575562 92.0
1292.854736 156.0
1293.29126 196.0
1293.427246 148.0
1294.050049 180.0
1294.193237 100.0
1294.25769 124.0
1294.329346 132.0
1294.443848 136.0
1294.53186 172.0
1294.837769 76.0
1295.031128 196.0
1295.145752 44.0
1295.248779 220.0
1295.324829 76.0
1295.425171 124.0
1295.589844 140.0
1296.055542 180.0
1296.263428 164.0
1296.644287 156.0
1296.824585 220.0
1296.934326 176.0
1297.023071 36.0
1297.317017 244.0
1297.487427 144.0
1297.646729 100.0
1297.711304 176.0
1297.880371 200.0
1297.947876 120.0
1298.220459 136.0
1298.313599 108.0
1298.803589 208.0
1298.916138 144.0
1299.002197 176.0
1299.228394 140.0
1299.35376 172.0
1299.726807 220.0
1299.884644 120.0
1300.075684 196.0
1300.444458 160.0
1300.539062 168.0
1300.939697 184.0
1301.334961 148.0
1301.604248 136.0
1301.84436 136.0
1302.088623 164.0
1302.489502 132.0
1302.763794 208.0
1302.98645 156.0
1303.374512 148.0
1303.618774 144.0
1303.769653 52.0
1303.880615 260.0
1304.423828 200.0
1304.790405 196.0
1305.002319 160.0
1305.121094 160.0
1305.523804 152.0
1305.753906 204.0
1306.322144 168.0
1306.444458 216.0
1306.502075 212.0
1306.653076 128.0
1306.768188 124.0
1306.933716 112.0
1307.063232 104.0
1307.142334 120.0
1307.271973 104.0
1307.415894 116.0
1307.509399 144.0
1307.804443 152.0
1308.005981 164.0
1308.197754 212.0
1308.351562 212.0
1308.459595 360.0
1308.51001 164.0
1308.795898 268.0
1308.891602 116.0
1308.970825 164.0
1309.100342 60.0
1309.2948 204.0
1309.3927 220.0
1309.49646 240.0
1309.741333 148.0
1310.022339 160.0
1310.180786 128.0
1310.447388 192.0
1310.519409 124.0
1310.627563 148.0
1310.829224 156.0
1310.879761 68.0
1311.131958 244.0
1311.189575 128.0
1311.391357 164.0
1311.52832 172.0
1311.723022 132.0
1312.184326 188.0
1312.242065 132.0
1312.616943 96.0
1312.76123 112.0
1312.941528 128.0
1312.999146 152.0
1313.078491 148.0
1313.179443 204.0
1313.51123 204.0
1314.095581 196.0
1314.348145 148.0
1314.470825 68.0
1314.528564 168.0
1314.612915 176.0
1314.623413 216.0
1314.721558 140.0
1314.795532 164.0
1314.853271 192.0
1314.983154 84.0
1315.372925 148.0
1315.907227 144.0
1316.058838 92.0
1316.119141 144.0
1316.217651 128.0
1316.269775 172.0
1316.369263 208.0
1316.441528 228.0
1316.520996 132.0
1316.597168 188.0
1316.773682 112.0
1317.155518 144.0
1317.337158 152.0
1317.416626 148.0
1317.481567 176.0
1317.597168 112.0
1317.68396 200.0
1317.792236 228.0
1318.037964 200.0
1318.199951 164.0
1318.464355 108.0
1318.869019 188.0
1318.970215 88.0
1319.020874 108.0
1319.085938 104.0
1319.483521 120.0
1319.68042 244.0
1319.765503 108.0
1319.823364 32.0
1319.881226 40.0
1320.427612 188.0
1320.821289 144.0
1320.966064 156.0
1321.055786 208.0
1321.132446 144.0
1321.284302 196.0
1321.393188 84.0
1321.855957 132.0
1322.094727 232.0
1322.405884 120.0
1322.775146 120.0
1322.956055 148.0
1323.368774 148.0
1323.419434 172.0
1323.585571 208.0
1323.687378 136.0
1323.745239 104.0
1323.955322 232.0
1324.078369 48.0
1324.353638 184.0
1324.411621 80.0
1324.46228 156.0
1324.817261 172.0
1324.976562 100.0
1325.027344 80.0
1325.135986 176.0
1325.244629 120.0
1325.29541 88.0
1325.505493 168.0
1325.831665 108.0
1325.892944 164.0
1326.012817 136.0
1326.085327 128.0
1326.266479 112.0
1326.375244 164.0
1326.527466 160.0
1326.810181 116.0
1326.947876 92.0
1327.404663 48.0
1327.54248 144.0
1327.622314 184.0
1327.694824 196.0
1327.96582 208.0
1328.151733 124.0
1328.209717 216.0
1328.286133 144.0
1328.340332 160.0
1328.528931 224.0
1328.60144 184.0
1328.937012 228.0
1329.058594 36.0
1329.610107 72.0
1329.762451 188.0
1329.864136 44.0
1330.234253 336.0
1330.328613 148.0
1330.422974 168.0
1330.55249 372.0
1330.706177 220.0
1330.756958 164.0
1331.229004 236.0
1331.584839 132.0
1331.751343 116.0
1331.904419 128.0
1332.267578 176.0
1332.369263 132.0
1332.463745 188.0
1332.623657 212.0
1332.8125 108.0
1332.87793 88.0
1332.961426 120.0
1333.175903 196.0
1333.263062 160.0
1333.313965 352.0
1333.393921 160.0
1333.757324 72.0
1333.953491 260.0
1334.098999 132.0
1334.273438 108.0
1334.484253 148.0
1334.54248 188.0
1334.644165 156.0
1334.775146 232.0
1335.160522 100.0
1335.742432 100.0
1336.251587 156.0
1336.480225 196.0
1336.68457 204.0
1336.950195 140.0
1337.073853 140.0
1337.247192 224.0
1337.423218 120.0
1337.561523 164.0
1337.991089 148.0
1338.214844 132.0
1338.318726 200.0
1338.384277 32.0
1338.435181 204.0
1338.741089 156.0
1338.806519 132.0
1339.138794 124.0
1339.498901 156.0
1339.571289 76.0
1339.622314 160.0
1339.81897 160.0
1340.139648 56.0
1340.241577 112.0
1340.314453 152.0
1340.584106 148.0
1340.817261 212.0
1341.094238 56.0
1341.305664 156.0
1341.371216 156.0
1341.429565 128.0
1341.743042 212.0
1341.837769 48.0
1341.990967 128.0
1342.056519 68.0
1342.216919 168.0
1342.393555 236.0
1342.486816 212.0
1342.931641 72.0
1343.04834 120.0
1343.231323 212.0
1343.354736 156.0
1343.522461 152.0
1343.682983 72.0
1343.887329 148.0
1343.974854 136.0
1344.087402 140.0
1344.252075 128.0
1344.441895 108.0
1345.240845 280.0
1345.64624 176.0
1345.697388 128.0
1345.755737 172.0
1345.942139 200.0
1346.077026 56.0
1346.128174 140.0
1346.555298 192.0
1346.668579 144.0
1346.89502 112.0
1347.136108 48.0
1347.428345 188.0
1347.559204 136.0
1347.684082 144.0
1347.749756 184.0
1347.837524 88.0
1348.435059 156.0
1348.561035 152.0
1348.677979 180.0
1348.794922 204.0
1349.291992 148.0
1349.365112 220.0
1349.452759 152.0
1349.584473 200.0
1349.678467 144.0
1349.942749 168.0
1350.147461 228.0
1350.19873 176.0
1350.330322 140.0
1350.63208 192.0
1350.85498 204.0
1350.942505 160.0
1351.127686 128.0
1351.493408 152.0
1351.595947 100.0
1351.786133 144.0
1351.898804 196.0
1352.335083 192.0
1352.474121 116.0
1352.554688 160.0
1352.883301 164.0
1353.224487 172.0
1353.301392 196.0
1353.36731 164.0
1353.527344 156.0
1353.601562 156.0
1353.726074 128.0
1353.843262 152.0
1353.931152 140.0
1354.150757 204.0
1354.238647 188.0
1354.824707 160.0
1354.956543 208.0
1355.088501 88.0
1355.154419 124.0
1355.623413 76.0
1355.762573 176.0
1355.99707 128.0
1356.070435 156.0
1356.59082 204.0
1356.764282 188.0
1356.885254 204.0
1357.059814 136.0
1357.275757 204.0
1357.478027 108.0
1357.859375 176.0
1358.706665 232.0
1358.790894 140.0
1358.856934 88.0
1359.047729 100.0
1359.148438 156.0
1359.383423 124.0
1359.693481 160.0
1359.83252 208.0
1359.972412 120.0
1360.124146 108.0
1360.165894 112.0
1360.49353 60.0
1360.60376 140.0
1360.715454 204.0
1361.149292 180.0
1361.222412 136.0
1361.440796 192.0
1361.646362 48.0
1362.167847 116.0
1362.226685 124.0
1362.541138 180.0
1362.887329 164.0
1362.976074 40.0
1363.070557 148.0
1363.124878 80.0
1363.188232 164.0
1363.247925 96.0
1363.372925 108.0
1363.835938 36.0
1363.953491 136.0
1364.181396 208.0
1364.254883 148.0
1364.725464 244.0
1364.784302 140.0
1364.843018 140.0
1364.916626 132.0
1365.063721 164.0
1365.115112 84.0
1365.269531 156.0
1365.440674 140.0
1365.674072 192.0
1365.966919 236.0
1366.108032 80.0
1366.174316 128.0
1366.452515 160.0
1366.652466 160.0
1366.96875 164.0
1367.08313 168.0
1367.174927 56.0
1367.645996 124.0
1368.566162 164.0
1368.69873 176.0
1368.772339 60.0
1368.82959 204.0
1368.941772 120.0
1369.354126 112.0
1369.413086 164.0
1369.840332 116.0
1369.934326 220.0
1370.370728 120.0
1370.753906 68.0
1370.812866 240.0
1371.019165 136.0
1371.196045 40.0
1371.262451 120.0
1371.33606 188.0
1371.415527 192.0
1371.564575 188.0
1371.71936 60.0
1371.857666 152.0
1371.905396 152.0
1371.969971 124.0
1372.043701 164.0
1372.656494 152.0
1372.810547 204.0
1372.928589 124.0
1373.03186 136.0
1373.291138 336.0
1373.931763 108.0
1373.998169 84.0
1374.057129 128.0
1374.219482 144.0
1374.307983 112.0
1374.61792 68.0
1375.016357 172.0
1375.097656 164.0
1375.459229 64.0
1376.113281 184.0
1376.337769 140.0
1376.714355 100.0
1376.825195 112.0
1376.95813 120.0
1377.135376 176.0
1377.371704 124.0
1377.48999 140.0
1377.571167 128.0
1377.800171 120.0
1377.851929 152.0
1377.999634 180.0
1378.192505 196.0
1378.287842 220.0
1378.3396 100.0
1378.407593 156.0
1378.59082 208.0
1378.642578 160.0
1379.004639 152.0
1379.196899 72.0
1379.263428 120.0
1379.692139 304.0
1379.876587 184.0
1380.317139 156.0
1380.409302 212.0
1380.853027 104.0
1381.050537 180.0
1381.141479 40.0
1381.200684 128.0
1381.422607 148.0
1381.511353 160.0
1381.785156 152.0
1381.99353 184.0
1382.051514 116.0
1382.214233 176.0
1382.354858 160.0
1382.428833 128.0
1382.621216 76.0
1382.695312 104.0
1382.991333 124.0
1383.59668 124.0
1383.728394 176.0
1384.183228 128.0
1384.646851 144.0
1384.716431 176.0
1385.079346 168.0
1385.575684 236.0
1385.63501 180.0
1385.837524 204.0
1385.946167 212.0
1386.07959 136.0
1386.383423 88.0
1386.45752 196.0
1386.553833 120.0
1386.768799 140.0
1387.131958 136.0
1387.183838 96.0
1387.391479 120.0
1387.569336 140.0
1387.762085 72.0
1388.126221 116.0
1388.25061 164.0
1388.325684 236.0
1388.600098 152.0
1388.840942 196.0
1388.94873 92.0
1389.297363 176.0
1389.416016 112.0
1389.475342 156.0
1389.582642 160.0
1389.712769 196.0
1390.06897 124.0
1390.254517 116.0
1390.306396 152.0
1390.402954 156.0
1390.525513 180.0
1390.647827 156.0
1390.774414 160.0
1390.915039 156.0
1391.189697 372.0
1392.088135 56.0
1392.496582 156.0
1392.674805 132.0
1392.786255 132.0
1393.077515 164.0
1393.150269 260.0
1393.269043 128.0
1393.358276 160.0
1393.521729 148.0
1393.670288 116.0
1393.796631 208.0
1393.933594 168.0
1394.220215 104.0
1394.428223 36.0
1394.777588 192.0
1394.918823 156.0
1395.216187 116.0
1395.351929 156.0
1395.454102 164.0
1395.615601 168.0
1396.153076 164.0
1396.227417 136.0
1396.368774 320.0
1396.502686 92.0
1396.577026 152.0
1396.673706 164.0
1396.800171 128.0
1396.911743 40.0
1397.119995 152.0
1397.439941 156.0
1397.648315 100.0
1397.923218 136.0
1398.265991 260.0
1398.437134 164.0
1398.623047 196.0
1398.824219 128.0
1398.995361 124.0
1399.270874 188.0
1399.360229 140.0
1399.809082 236.0
1399.911255 36.0
1399.970825 192.0
1400.156982 96.0
1400.56665 124.0
1400.618774 168.0
1400.819824 36.0
1400.983765 100.0
1401.050781 120.0
1401.42334 200.0
1401.803345 144.0
1401.855469 68.0
1401.969482 192.0
1402.205811 60.0
1402.333008 176.0
1402.481567 136.0
1402.563599 116.0
1402.62915 248.0
1402.7854 180.0
1403.033203 168.0
1403.152466 200.0
1403.271729 88.0
1403.323975 128.0
1403.599854 172.0
1404.032349 132.0
1404.27124 160.0
1404.397827 164.0
1404.57373 164.0
1404.651367 104.0
1404.718506 84.0
1404.858276 240.0
1405.345215 168.0
1405.486938 132.0
1405.72583 108.0
1405.837769 164.0
1405.890015 248.0
1405.994385 180.0
1406.161499 204.0
1406.300415 152.0
1406.912476 144.0
1406.987183 112.0
1407.27832 160.0
1407.349243 184.0
1407.435181 168.0
1407.56958 164.0
1407.657715 168.0
1407.992554 208.0
1408.413452 156.0
1408.592529 156.0
1408.71228 152.0
1408.831055 168.0
1408.970459 212.0
1409.078369 84.0
1409.235229 164.0
1409.392212 168.0
1409.466919 116.0
1409.549072 164.0
1409.64624 120.0
1410.22168 200.0
1410.408569 308.0
1410.528564 156.0
1410.842041 116.0
1411.043945 152.0
1411.163574 116.0
1411.284302 156.0
1411.372925 56.0
1411.627197 152.0
1411.746826 184.0
1411.851562 140.0
1411.941284 156.0
1412.008545 208.0
1412.128174 176.0
1412.218018 184.0
1412.838867 176.0
1412.891235 52.0
1413.302734 164.0
1413.683105 144.0
1413.766724 128.0
1413.901367 132.0
1414.283081 120.0
1414.425293 268.0
1414.545044 192.0
1414.694824 156.0
1414.866943 156.0
1415.286255 140.0
1415.608276 156.0
1415.765503 76.0
1415.997681 184.0
1416.286133 156.0
1416.364624 312.0
1416.459106 208.0
1416.626831 172.0
1416.791626 116.0
1417.361084 108.0
1417.418823 160.0
1417.548462 148.0
1417.735718 112.0
1417.848145 168.0
1417.945557 188.0
1418.162964 256.0
1418.402832 156.0
1418.552734 108.0
1418.6427 116.0
1418.991211 136.0
1419.070068 68.0
1419.35498 68.0
1419.414917 436.0
1419.489868 128.0
1419.85437 100.0
1419.978027 188.0
1420.059937 192.0
1420.142334 136.0
1420.277344 220.0
1420.359863 152.0
1420.674927 204.0
1420.795044 172.0
1420.930054 96.0
1421.035034 144.0
1421.192627 124.0
1421.68042 116.0
1421.81543 88.0
1421.890503 116.0
1422.160767 136.0
1422.686157 144.0
1422.828857 168.0
1422.918945 220.0
1423.151611 160.0
1423.677002 128.0
1423.793335 304.0
1423.970215 232.0
1424.071533 192.0
1424.120361 232.0
1424.353271 180.0
1424.713867 168.0
1424.939209 56.0
1425.029419 232.0
1425.277344 156.0
1425.502808 76.0
1425.780762 172.0
1425.840942 136.0
1426.134033 220.0
1426.235229 208.0
1426.288818 192.0
1426.330933 140.0
1426.419678 168.0
1426.610474 252.0
1426.675293 288.0
1426.780518 136.0
1427.141357 184.0
1427.246704 144.0
1427.5625 112.0
1427.78064 68.0
1427.93103 276.0
1428.051392 128.0
1428.119019 196.0
1428.352173 124.0
1428.758423 88.0
1429.029297 136.0
1429.088745 196.0
1429.465698 144.0
1429.736572 188.0
1430.228882 140.0
1430.32373 160.0
1430.438354 184.0
1430.730225 160.0
1430.918457 116.0
1431.154785 172.0
1431.273804 136.0
1431.325317 284.0
1431.400269 268.0
1431.52832 176.0
1431.656372 180.0
1431.867188 156.0
1432.130859 124.0
1432.296509 160.0
1432.507446 164.0
1432.582764 92.0
1432.823853 128.0
1432.914185 112.0
1433.012207 84.0
1433.43103 172.0
1433.630127 192.0
1433.743164 168.0
1433.878784 200.0
1434.044556 184.0
1434.252075 180.0
1434.58728 116.0
1434.866211 172.0
1435.303589 176.0
1435.492065 144.0
1435.6073 160.0
1435.635376 172.0
1435.997314 144.0
1436.283936 112.0
1436.404663 176.0
1436.555542 136.0
1436.729004 184.0
1436.887451 188.0
1436.947876 160.0
1437.016846 208.0
1437.181763 136.0
1437.242065 132.0
1437.360962 168.0
1437.498657 52.0
1437.687256 180.0
1437.925781 196.0
1438.022949 148.0
1438.260864 72.0
1438.328857 152.0
1438.781738 164.0
1438.911011 160.0
1438.963013 216.0
1439.280029 100.0
1439.584961 200.0
1439.680298 192.0
1439.962646 312.0
1440.165283 204.0
1440.292114 120.0
1440.443115 272.0
1440.538574 348.0
1440.654663 204.0
1440.835938 200.0
1441.062622 196.0
1441.145752 120.0
1441.198608 176.0
1441.432861 144.0
1441.561279 120.0
1441.697388 180.0
1441.848511 232.0
1442.135742 284.0
1442.279297 188.0
1442.77063 180.0
1442.891602 128.0
1443.005005 104.0
1443.148682 124.0
1443.314819 120.0
1443.405762 160.0
1443.496582 192.0
1443.602417 200.0
1443.991333 148.0
1444.015015 64.0
1444.053101 184.0
1444.169556 208.0
1444.28833 212.0
1444.416138 164.0
1444.502441 92.0
1444.691528 216.0
1444.752075 132.0
1444.895874 100.0
1445.039551 212.0
1445.092529 200.0
1445.629761 84.0
1445.841675 192.0
1446.318481 176.0
1446.515259 116.0
1446.689453 180.0
1446.908936 124.0
1447.17395 132.0
1447.351685 200.0
1447.408691 68.0
1447.673706 128.0
1447.726685 144.0
1447.885742 276.0
1448.006958 160.0
1448.070557 260.0
1448.264404 188.0
1448.365845 176.0
1448.461426 144.0
1448.920288 188.0
1449.110474 304.0
1449.264404 168.0
1449.514526 336.0
1449.688721 220.0
1449.8479 208.0
1450.438232 160.0
1450.560425 156.0
1450.731445 152.0
1450.810547 152.0
1450.962158 188.0
1451.091064 140.0
1451.439819 128.0
1451.650879 172.0
1451.856934 152.0
1452.304443 52.0
1452.357422 76.0
1452.494019 156.0
1452.554688 136.0
1452.816406 196.0
1452.987061 76.0
1453.252686 148.0
1453.378418 160.0
1453.571289 132.0
1453.670044 140.0
1453.753418 140.0
1453.965942 220.0
1454.254395 144.0
1454.740112 144.0
1454.838867 132.0
1454.891968 136.0
1454.963379 188.0
1455.248779 140.0
1455.606689 236.0
1455.742432 64.0
1455.977783 152.0
1456.106934 176.0
1456.194336 196.0
1456.334717 36.0
1456.387939 172.0
1456.536011 160.0
1456.64624 160.0
1456.706909 148.0
1456.7677 224.0
1456.927246 156.0
1457.003296 48.0
1457.063965 160.0
1457.124756 200.0
1457.27124 176.0
1457.337524 36.0
1457.390747 128.0
1457.519897 196.0
1457.617676 144.0
1457.752075 192.0
1457.842896 136.0
1457.991089 132.0
1458.059448 176.0
1458.302612 152.0
1458.629517 172.0
1458.713135 168.0
1458.94873 160.0
1459.058716 152.0
1459.245239 240.0
1459.834839 156.0
1460.053101 192.0
1460.118408 160.0
1460.568726 168.0
1460.81189 296.0
1461.032471 164.0
1461.313965 172.0
1461.382446 188.0
1461.638672 248.0
1461.801025 160.0
1461.968384 184.0
1462.021729 36.0
1462.105347 156.0
1462.645752 184.0
1462.851318 336.0
1463.01123 116.0
1463.130981 120.0
1463.189331 168.0
1463.283569 212.0
1463.376587 72.0
1463.44519 116.0
1463.589844 136.0
1463.734863 172.0
1463.810669 76.0
1464.099976 144.0
1464.168579 188.0
1464.435181 204.0
1464.592163 164.0
1464.724609 128.0
1464.968384 148.0
1465.151123 128.0
1465.257812 92.0
1465.417847 148.0
1465.501587 160.0
1465.562622 176.0
1465.654053 108.0
1465.913086 156.0
1465.966431 160.0
1466.147461 160.0
1466.225586 176.0
1466.309448 132.0
1466.576172 100.0
1466.835327 188.0
1466.911499 152.0
1467.224121 128.0
1467.386841 212.0
1467.528931 168.0
1467.635864 144.0
1468.039307 132.0
1468.497559 212.0
1468.680664 140.0
1468.84082 104.0
1469.306152 160.0
1469.374756 120.0
1469.557861 144.0
1469.657104 172.0
1469.894531 164.0
1469.96228 160.0
1470.061523 92.0
1470.130249 156.0
1470.206543 168.0
1470.343872 88.0
1470.450684 196.0
1470.534668 168.0
1470.809448 32.0
1471.053711 164.0
1471.117676 232.0
1471.771362 188.0
1471.83252 128.0
1471.937866 164.0
1471.969482 152.0
1472.099731 104.0
1472.269409 200.0
1472.299194 116.0
1472.53833 180.0
1472.60376 136.0
1472.793823 164.0
1473.039185 216.0
1473.143799 212.0
1473.266479 132.0
1473.436401 92.0
1473.505127 148.0
1473.604492 192.0
1473.784302 164.0
1474.075073 204.0
1474.231079 92.0
1474.419434 168.0
1474.444824 108.0
1474.462891 164.0
1474.59082 172.0
1474.689575 288.0
1474.958496 160.0
1475.094727 92.0
1475.178467 164.0
1475.196045 156.0
1475.22644 204.0
1475.415771 128.0
1475.622192 132.0
1475.866943 72.0
1476.406494 164.0
1476.532227 112.0
1476.820923 244.0
1477.212891 136.0
1477.308594 176.0
1477.649048 96.0
1477.840332 208.0
1478.238159 196.0
1478.406494 144.0
1478.490723 144.0
1478.720337 172.0
1478.789185 216.0
1478.896362 156.0
1479.069336 396.0
1479.214966 160.0
1479.503906 32.0
1479.679443 192.0
1479.738403 116.0
1479.811646 184.0
1479.96814 40.0
1480.044678 128.0
1480.271729 224.0
1480.894775 184.0
1481.436646 160.0
1481.522827 136.0
1481.653076 140.0
1481.892822 184.0
1482.152588 208.0
1482.289062 188.0
1482.434692 224.0
1482.672241 332.0
1482.94812 152.0
1483.181763 168.0
1483.31604 136.0
1483.377319 156.0
1483.57666 140.0
1483.64563 220.0
1483.812378 204.0
1484.029053 124.0
1484.281982 140.0
1484.450684 120.0
1484.588745 68.0
1484.680786 160.0
1484.834229 164.0
1484.979858 132.0
1485.056641 76.0
1485.369629 192.0
1485.685547 88.0
1485.754639 224.0
1485.865112 308.0
1486.053833 172.0
1486.161255 192.0
1486.246704 124.0
1486.330078 164.0
1486.4375 216.0
1486.498901 116.0
1486.681396 144.0
1486.798218 140.0
1487.043823 220.0
1487.112915 136.0
1487.244141 148.0
1487.481445 156.0
1487.772949 200.0
1487.972656 60.0
1488.080078 144.0
1488.210571 52.0
1488.333496 136.0
1488.52124 156.0
1488.573975 112.0
1488.717407 180.0
1488.894043 144.0
1489.462402 52.0
1489.854248 176.0
1489.938721 128.0
1490.406738 176.0
1490.484253 196.0
1490.566284 208.0
1490.745483 72.0
1490.945312 80.0
1491.022095 192.0
1491.137207 304.0
1491.214233 128.0
1491.291138 148.0
1491.444824 184.0
1491.690796 184.0
1491.795776 192.0
1492.013672 180.0
1492.459595 144.0
1492.644165 136.0
1492.705688 388.0
1492.767212 256.0
1492.91333 132.0
1493.028687 232.0
1493.571899 196.0
1493.820923 116.0
1494.328003 148.0
1494.492188 204.0
1494.821167 200.0
1495.398315 180.0
1495.490723 52.0
1495.590698 196.0
1495.729248 112.0
1495.867798 124.0
1496.183472 232.0
1496.82251 192.0
1496.884155 128.0
1497.0177 200.0
1497.223022 172.0
1497.287964 200.0
1497.423218 164.0
1497.654297 56.0
1498.037476 180.0
1498.111572 216.0
1498.648071 188.0
1498.732788 288.0
1498.833008 56.0
1498.894653 40.0
1498.97168 160.0
1499.171997 68.0
1499.387817 204.0
1499.541992 232.0
1499.788574 148.0
1499.950439 256.0
1500.004395 52.0
1500.05835 192.0
1500.112305 104.0
1500.197144 100.0
1500.598022 176.0
1500.87561 108.0
1501.168579 164.0
1501.319214 156.0
1501.407715 168.0
1501.546509 176.0
1501.762451 168.0
1501.820312 148.0
1502.094116 128.0
1502.163574 108.0
1502.294678 204.0
1502.541626 164.0
1502.603271 152.0
1502.671143 264.0
1502.834717 208.0
1502.901611 180.0
1503.02002 152.0
1503.155884 284.0
1504.06958 56.0
1504.139038 124.0
1504.339722 196.0
1504.446533 148.0
1504.580078 172.0
1504.679443 168.0
1504.756592 56.0
1504.957397 148.0
1505.119507 264.0
1505.213623 196.0
