>compound NCGC00160288-01!2-Oxo-1(10),3,5-guaiatrien-12,8-olide
>formula C15H16O3
>ionization [M+H]+
>parentmass 245.118
#inchi InChI=1S/C15H16O3/c1-7-4-12(16)14-8(2)5-13-11(6-10(7)14)9(3)15(17)18-13/h4,6,9,11,13H,5H2,1-3H3/t9-,11+,13-/m0/s1
#inchikey FRBORWNVTCITAQ
#Ion_Source LC-ESI
#Instrument qTOF
#Compound_Source Prestwick Phytochem Lib
#PI Dorrestein
#Data_Collector VVP/LMS
#Scan -1
#Precursor_MZ 245.118
#ExactMass 244.11
#Charge 1
#CAS_Number N/A
#Pubmed_ID N/A
#Smiles [H][C@]12C=C3C(C)=CC(=O)C3=C(C)C[C@@H]1OC(=O)[C@H]2C
#INCHI_AUX N/A
#Library_Class 1
#SpectrumID CCMSLIB00000078765
#IonMode Positive
#UpdateWorkflowName UPDATE-SINGLE-ANNOTATED-GOLD
#LibraryQualityString Gold
#TaskID 67c915c6594c435cadc1fe2b5358144d
##Scan# 1936
#SpectrumFile p1-E03_GE3_01_17923.mzXML
#LibraryName phytochem_lib.mgf
#MQScore -1
#Organism phytochem_lib
#TIC_Query 0
#RT_Query -1
#MZErrorPPM -1
#SharedPeaks 0
#MassDiff 0
#LibMZ -1
#SpecMZ 245.118
#SpecCharge 0
#internalFilename spec-00000.mgf

>collision 10
95.222214 92.0
97.8405 68.0
98.14193 168.0
98.228706 144.0
98.829285 172.0
99.035164 168.0
99.154037 228.0
99.338432 176.0
99.624283 132.0
100.909714 164.0
101.049713 164.0
101.528442 136.0
101.668869 156.0
101.885719 136.0
103.055313 676.0
103.537689 152.0
103.841995 132.0
104.034454 148.0
104.059914 80.0
104.255844 208.0
104.351379 196.0
104.770615 80.0
105.069214 532.0
105.151917 140.0
106.068222 144.0
106.392334 64.0
106.688156 120.0
107.088226 364.0
107.706116 160.0
108.092712 172.0
108.492447 56.0
110.05072 168.0
110.163498 168.0
110.560753 140.0
111.220947 160.0
111.464561 64.0
111.735786 256.0
112.148514 172.0
112.256035 284.0
112.29821 108.0
112.397362 228.0
112.513443 112.0
113.084167 224.0
113.471817 140.0
113.656334 60.0
113.749718 128.0
114.153381 168.0
114.208679 92.0
114.779419 236.0
114.809273 192.0
115.054634 1088.0
115.488426 176.0
116.060966 524.0
116.173874 48.0
116.221069 148.0
116.657043 140.0
116.712936 204.0
116.822624 72.0
117.069656 1216.0
117.100288 48.0
117.238167 100.0
117.816422 144.0
118.07357 464.0
118.842628 172.0
119.05101 144.0
119.086617 960.0
119.283478 120.0
119.627174 64.0
119.927765 148.0
120.093475 100.0
120.669968 212.0
120.912766 236.0
121.064713 320.0
121.103889 212.0
121.464897 156.0
121.671173 200.0
121.783165 184.0
121.947952 156.0
122.509048 68.0
123.078056 180.0
123.139885 176.0
123.168602 104.0
123.517838 256.0
124.140182 236.0
125.527771 220.0
126.050102 44.0
126.235641 44.0
126.743759 72.0
127.054565 164.0
127.623611 172.0
127.799049 148.0
127.965607 92.0
128.061935 3740.0
128.136765 36.0
128.195358 52.0
128.213379 64.0
128.314819 48.0
128.371185 84.0
128.479446 92.0
128.761597 40.0
129.025955 208.0
129.069229 2204.0
129.125458 76.0
129.15033 124.0
129.759476 104.0
130.075653 604.0
130.097504 172.0
130.770325 60.0
130.797638 92.0
131.048279 432.0
131.085464 944.0
131.222626 100.0
131.53389 240.0
132.057465 200.0
132.089188 580.0
132.334015 132.0
132.42131 164.0
133.001099 156.0
133.065186 480.0
133.101395 496.0
133.180191 40.0
133.605453 64.0
133.750427 80.0
133.803375 76.0
134.065948 172.0
134.275742 72.0
134.310333 64.0
134.568787 132.0
134.649612 60.0
134.961578 72.0
135.081589 352.0
135.748856 224.0
136.087616 128.0
136.473312 196.0
136.589584 148.0
136.780396 76.0
136.801346 132.0
136.887482 232.0
137.668671 148.0
139.054596 160.0
139.143799 200.0
139.863129 144.0
140.067978 152.0
140.395203 128.0
140.548904 84.0
140.63858 144.0
140.985764 88.0
141.069931 3280.0
141.129944 60.0
141.165421 68.0
141.184341 108.0
141.212708 108.0
141.451691 236.0
141.503769 108.0
141.558228 112.0
141.598495 200.0
141.6577 52.0
141.714127 108.0
142.076614 1560.0
142.269516 144.0
142.882645 124.0
143.086334 2648.0
143.168274 52.0
143.468491 108.0
143.733231 44.0
143.852554 180.0
143.962387 76.0
144.059525 308.0
144.089005 264.0
144.165436 120.0
144.675858 148.0
144.72995 56.0
145.064789 1976.0
145.102219 416.0
145.132492 56.0
145.18045 60.0
145.312378 72.0
145.381958 148.0
145.432358 48.0
145.571594 64.0
145.819046 208.0
146.047455 108.0
146.072235 692.0
146.295288 40.0
146.497574 72.0
146.847076 92.0
147.042496 196.0
147.077301 468.0
147.112045 236.0
147.254959 72.0
148.116013 204.0
148.770737 128.0
148.916428 96.0
149.097595 216.0
150.352829 192.0
151.051605 172.0
151.14946 160.0
151.867249 200.0
152.063843 580.0
152.717072 184.0
153.069534 788.0
153.087677 204.0
153.221695 44.0
153.374481 116.0
154.074692 280.0
154.095062 144.0
155.056519 516.0
155.085022 832.0
155.382462 124.0
155.844254 164.0
156.058609 228.0
156.093338 2520.0
156.274384 192.0
157.062393 1016.0
157.099228 500.0
157.291153 160.0
157.440948 92.0
158.070236 476.0
158.104736 160.0
158.687057 84.0
158.944 144.0
159.078369 1932.0
159.116074 260.0
159.179626 64.0
159.241623 124.0
159.384811 36.0
159.414963 88.0
159.87767 56.0
160.087494 780.0
160.126907 188.0
160.255386 216.0
160.74202 68.0
161.062759 204.0
161.094116 1076.0
161.131516 552.0
162.10498 400.0
162.487839 200.0
162.561417 32.0
162.944824 92.0
163.069336 304.0
165.069534 520.0
165.188202 92.0
165.456894 76.0
166.075363 384.0
166.223251 56.0
166.914215 56.0
167.083862 168.0
167.761261 56.0
168.053909 232.0
168.089325 176.0
168.357269 104.0
168.452835 160.0
168.734512 160.0
168.889664 216.0
169.063873 924.0
169.100647 356.0
169.363327 52.0
169.529144 56.0
170.070099 296.0
170.094528 180.0
170.252914 44.0
170.312637 176.0
171.080002 5272.0
171.115891 940.0
171.282837 64.0
171.308899 36.0
171.470444 72.0
171.59816 32.0
171.733765 48.0
171.806793 68.0
172.085526 2412.0
172.119156 296.0
172.166992 36.0
172.247955 36.0
172.313263 64.0
172.375977 52.0
172.71846 144.0
172.811829 52.0
173.060089 160.0
173.09314 340.0
173.166031 108.0
173.265564 68.0
173.323212 84.0
173.414917 176.0
173.435898 76.0
173.459488 188.0
173.900131 52.0
174.069305 352.0
174.103424 372.0
174.449112 76.0
174.62265 136.0
174.751541 76.0
175.027908 56.0
175.075546 564.0
175.10965 468.0
176.082718 160.0
176.119705 124.0
177.066544 60.0
178.070419 152.0
179.087708 148.0
179.404785 40.0
180.665253 212.0
181.102066 220.0
181.211395 48.0
181.242722 64.0
181.425797 104.0
181.806671 120.0
182.100082 136.0
183.080536 928.0
183.110855 136.0
184.088257 1608.0
184.124512 144.0
184.1651 32.0
184.221817 36.0
185.091248 620.0
185.17392 36.0
185.344589 48.0
186.011749 128.0
186.055176 84.0
186.101181 340.0
186.131195 192.0
186.318604 60.0
186.400116 96.0
186.43544 68.0
187.077698 364.0
187.111588 196.0
187.169891 116.0
187.453186 132.0
187.71759 216.0
188.078537 132.0
188.08371 184.0
188.117157 128.0
188.618546 156.0
189.092545 188.0
189.127655 208.0
190.097473 136.0
190.34726 48.0
191.092133 196.0
192.097656 176.0
195.341446 36.0
196.972122 52.0
197.091949 148.0
198.10878 164.0
199.111603 956.0
199.620605 160.0
200.118103 508.0
202.09549 256.0
202.125458 124.0
203.86087 108.0
205.087494 140.0
206.07486 52.0
211.07431 168.0
212.081802 148.0
213.099304 56.0
216.1082 224.0
217.119553 536.0
218.127762 220.0
227.489365 48.0
245.122452 344.0
245.785324 80.0
246.200485 60.0
247.116348 128.0
266.144318 156.0
278.054443 96.0
306.501862 92.0
320.558716 64.0
365.373047 96.0
409.205444 48.0
535.075073 52.0
676.282654 52.0
676.531128 76.0
705.609253 40.0
708.49353 92.0
765.606567 100.0
766.824097 168.0
814.948547 100.0
849.847595 196.0
849.90564 156.0
877.18866 192.0
919.901978 156.0
944.953369 140.0
977.096558 120.0
978.241638 112.0
1000.301208 72.0
1010.531006 188.0
1016.118958 20.0
1036.483643 124.0
1051.318604 68.0
1059.698608 204.0
1061.50708 72.0
1071.190796 108.0
1073.987183 116.0
1081.913452 132.0
1100.902222 216.0
1108.47644 20.0
1110.518311 232.0
1160.127197 156.0
1164.605591 172.0
1178.454712 200.0
1178.939819 144.0
1181.825439 236.0
1193.444336 260.0
1200.116089 132.0
1205.610718 216.0
1210.72998 160.0
1211.720459 48.0
1217.567871 132.0
1217.713745 180.0
1222.559326 160.0
1227.149536 252.0
1236.754883 160.0
1237.048828 104.0
1243.069214 52.0
1258.131226 180.0
1258.929077 196.0
1260.63855 104.0
1273.788208 184.0
1274.26416 200.0
1277.83313 72.0
1282.675659 112.0
1286.299194 144.0
1290.700073 48.0
1293.026611 84.0
1299.00769 104.0
1307.392456 212.0
1308.745728 52.0
1322.54126 152.0
1324.604858 184.0
1327.41687 160.0
1345.336792 36.0
1345.913574 184.0
1350.722412 184.0
1358.281616 60.0
1358.406372 112.0
1364.067871 184.0
1364.810303 148.0
1370.470459 140.0
1372.379395 120.0
1372.54895 84.0
1373.197998 44.0
1373.633057 120.0
1387.091064 164.0
1387.172607 44.0
1394.186401 216.0
1396.944824 220.0
1399.125244 68.0
1405.691528 172.0
1406.557251 212.0
1406.885742 132.0
1411.776367 108.0
1413.784546 224.0
1414.413208 200.0
1417.933472 192.0
1429.701538 156.0
1437.357666 120.0
1438.920044 148.0
1439.644897 184.0
1443.619751 156.0
1449.093262 148.0
1457.749756 212.0
1459.178711 180.0
1461.209351 64.0
1473.621216 180.0
1475.82251 124.0
1476.587158 236.0
1478.591553 140.0
1479.61731 160.0
1480.796509 152.0
1487.958374 152.0
1492.660645 160.0
1495.814941 120.0
1497.447266 48.0
1503.043823 172.0
