>compound MLS002207241-01!Propanil709-98-8
>formula C9H9Cl2NO
>ionization [M+H]+
>parentmass 218.015
#inchi InChI=1S/C9H9Cl2NO/c1-2-9(13)12-6-3-4-7(10)8(11)5-6/h3-5H,2H2,1H3,(H,12,13)
#inchikey LFULEKSKNZEWOE
#Ion_Source LC-ESI
#Instrument qTof
#Compound_Source NIH Pharmacologically Active Library
#PI Dorrestein
#Data_Collector VP/LMS
#Scan -1
#Precursor_MZ 218.015
#ExactMass 217.006
#Charge 1
#CAS_Number N/A
#Pubmed_ID N/A
#Smiles CCC(=O)Nc1ccc(Cl)c(Cl)c1
#INCHI_AUX N/A
#Library_Class 1
#SpectrumID CCMSLIB00000085785
#IonMode Positive
#UpdateWorkflowName UPDATE-SINGLE-ANNOTATED-GOLD
#LibraryQualityString Gold
#TaskID d252d724072548979f1f6f1ced849daf
##Scan# 2059
#SpectrumFile p4-F06_GF6_01_18390.mzXML
#LibraryName Pharm_Active_Library.mgf
#MQScore -1
#Organism Pharm_Active_Library
#TIC_Query 0
#RT_Query -1
#MZErrorPPM -1
#SharedPeaks 0
#MassDiff 0
#LibMZ -1
#SpecMZ 218.015
#SpecCharge 0
#internalFilename spec-00000.mgf

>collision 10
44.961533 160.0
44.977551 184.0
45.376217 188.0
45.691845 144.0
45.722794 36.0
45.832512 228.0
45.90871 68.0
46.108521 168.0
46.228886 176.0
46.552891 160.0
46.709194 136.0
46.947552 172.0
46.973469 148.0
47.069008 216.0
47.456245 120.0
47.612686 180.0
47.666264 180.0
47.996635 212.0
48.19817 208.0
48.282497 36.0
48.486019 220.0
48.53315 164.0
48.567822 140.0
48.652473 120.0
48.695518 200.0
48.895733 212.0
49.160526 60.0
49.354702 132.0
49.470829 216.0
49.570274 184.0
49.617931 44.0
49.732964 208.0
49.797554 172.0
49.9142 100.0
50.007294 116.0
50.069588 168.0
50.338364 124.0
50.806873 136.0
51.194923 128.0
51.303215 204.0
51.481575 92.0
51.551575 160.0
51.716049 128.0
51.908031 160.0
52.327606 188.0
52.548126 152.0
52.654953 140.0
52.899319 152.0
53.012295 120.0
53.376667 152.0
53.398479 180.0
53.682476 140.0
53.83717 212.0
53.965763 172.0
54.009636 232.0
54.142826 156.0
54.21022 136.0
54.258591 168.0
54.284985 188.0
54.390621 180.0
54.412643 192.0
54.465511 60.0
54.611031 40.0
54.683125 64.0
54.709621 172.0
54.856747 152.0
55.192093 164.0
55.4156 196.0
55.451164 156.0
55.503052 192.0
55.71233 188.0
56.553375 112.0
56.649212 168.0
56.788616 176.0
56.98077 88.0
57.040882 76.0
57.394691 144.0
57.785759 212.0
57.869148 144.0
57.926697 228.0
58.105591 152.0
58.135937 108.0
58.158703 244.0
58.248295 168.0
58.47942 120.0
58.490078 152.0
58.55555 200.0
58.602776 204.0
58.706432 172.0
58.735409 36.0
59.089836 148.0
59.951286 288.0
59.975945 36.0
60.320175 224.0
60.761547 152.0
60.834488 156.0
60.899708 56.0
60.996048 152.0
61.241905 184.0
61.541332 132.0
61.650681 152.0
61.680374 112.0
61.747478 188.0
62.277386 160.0
62.40625 72.0
62.536823 152.0
62.645477 120.0
62.768414 112.0
63.131626 176.0
63.248711 156.0
63.348473 192.0
63.381744 120.0
63.578388 204.0
63.653 92.0
63.73719 176.0
63.975769 144.0
64.060173 132.0
64.345642 152.0
64.625816 192.0
64.766235 140.0
64.814301 144.0
64.833527 148.0
65.424637 156.0
65.456841 136.0
65.489052 136.0
65.80513 176.0
66.382805 144.0
66.847412 188.0
67.43454 152.0
67.570267 144.0
67.786407 184.0
68.027512 180.0
68.198349 160.0
68.315102 200.0
68.394089 216.0
68.664314 160.0
69.204689 192.0
69.277565 144.0
69.363739 124.0
69.45826 48.0
69.522964 208.0
69.547867 184.0
69.619255 176.0
69.910187 76.0
70.035057 168.0
70.42704 96.0
70.651047 164.0
70.692879 132.0
71.879295 184.0
72.388123 156.0
72.805305 148.0
73.139961 140.0
73.628738 144.0
74.055489 120.0
74.136009 192.0
74.184006 136.0
74.525543 176.0
74.826538 168.0
75.506439 168.0
75.752228 184.0
76.078255 140.0
76.324982 188.0
76.370193 132.0
76.432823 124.0
76.741135 140.0
76.947021 196.0
77.922585 172.0
77.945427 124.0
78.036827 140.0
78.198669 116.0
78.320168 120.0
78.771744 128.0
78.85833 224.0
79.330956 204.0
79.346916 192.0
79.499458 136.0
79.513657 164.0
79.53141 220.0
79.705452 220.0
80.180611 148.0
80.592842 216.0
80.852135 200.0
81.041954 172.0
81.076004 148.0
81.135155 100.0
81.404305 220.0
81.454597 184.0
81.468964 196.0
81.744064 116.0
81.799339 208.0
82.221642 208.0
82.554054 192.0
82.753105 164.0
82.861778 48.0
83.023109 116.0
83.072083 188.0
83.370865 188.0
83.606285 80.0
83.957893 148.0
84.359604 176.0
84.502251 172.0
84.696312 240.0
84.963959 160.0
85.277969 208.0
85.452675 160.0
85.478432 128.0
85.579445 164.0
85.645973 120.0
86.092316 104.0
86.134796 100.0
86.147728 160.0
86.195763 148.0
86.23642 76.0
86.325165 176.0
86.474854 172.0
86.547218 84.0
86.745461 240.0
86.825195 224.0
86.851158 132.0
87.157486 260.0
87.389915 224.0
87.977005 176.0
88.029282 160.0
88.062904 148.0
88.2659 84.0
88.335815 176.0
88.354523 164.0
88.369484 224.0
88.391533 200.0
88.414398 180.0
88.536087 104.0
88.670982 212.0
89.192787 124.0
89.260468 120.0
89.399681 240.0
89.548416 144.0
90.625221 140.0
90.651749 156.0
90.829971 176.0
90.932434 148.0
91.01976 120.0
91.086235 128.0
91.242073 160.0
91.297211 184.0
91.985054 148.0
92.049301 344.0
92.583519 144.0
92.619911 196.0
92.690796 64.0
93.014931 188.0
93.055244 176.0
93.306213 96.0
93.528168 48.0
93.865326 192.0
94.160599 168.0
94.288109 196.0
94.733154 112.0
95.132645 208.0
96.26976 188.0
96.297104 180.0
97.062309 100.0
97.505447 236.0
97.551193 112.0
97.905365 172.0
97.929001 232.0
98.157608 184.0
98.175362 160.0
98.272018 160.0
98.301613 236.0
98.754044 172.0
98.894524 108.0
98.99736 336.0
99.100487 252.0
99.130211 148.0
99.219406 196.0
99.542831 148.0
99.616318 192.0
100.005783 1268.0
100.79982 112.0
100.999855 304.0
101.130478 156.0
101.181862 224.0
101.243935 76.0
101.326065 128.0
101.406219 52.0
101.779366 204.0
101.875771 128.0
102.00444 496.0
102.485397 136.0
102.592216 68.0
102.99379 220.0
103.022072 104.0
103.349609 176.0
103.908829 164.0
104.925758 92.0
104.974693 176.0
105.058319 140.0
105.546463 208.0
105.910759 64.0
106.056244 228.0
106.103394 160.0
106.162857 204.0
106.622726 228.0
106.818062 140.0
106.888016 164.0
107.073296 144.0
107.089775 168.0
107.159813 124.0
107.256676 204.0
107.31028 184.0
107.388641 104.0
107.555779 100.0
107.743698 120.0
108.068306 140.0
108.19249 224.0
108.501183 144.0
108.981758 148.0
109.090782 40.0
109.344551 56.0
109.796661 184.0
109.88636 108.0
109.99279 136.0
110.080482 208.0
110.578056 172.0
110.982368 124.0
111.322319 176.0
111.574463 132.0
111.742722 116.0
111.865685 196.0
112.098572 176.0
112.495102 132.0
112.71476 40.0
113.059464 56.0
113.139954 148.0
113.663429 120.0
114.400955 160.0
114.95726 144.0
114.985008 176.0
115.304474 172.0
115.553429 128.0
115.778191 116.0
116.209061 160.0
116.262711 208.0
116.793404 176.0
116.819221 152.0
116.873009 84.0
117.139977 64.0
117.215385 132.0
117.379211 204.0
117.415878 152.0
117.590637 168.0
117.998917 156.0
118.507553 264.0
118.90657 192.0
119.38018 152.0
119.717499 200.0
120.020401 168.0
120.162178 208.0
120.47438 156.0
120.633911 200.0
120.843864 140.0
120.948914 168.0
121.062386 184.0
121.099998 192.0
121.727234 148.0
121.977707 188.0
122.034866 184.0
122.07225 144.0
122.31427 244.0
122.587379 152.0
122.666725 192.0
122.896095 136.0
123.789131 136.0
123.82457 252.0
123.971581 212.0
124.183624 140.0
124.596519 252.0
124.707634 112.0
124.896629 204.0
125.021233 168.0
125.226059 196.0
125.261696 188.0
125.382019 176.0
126.006828 108.0
126.033646 112.0
126.107391 168.0
126.165512 36.0
126.319817 212.0
126.402603 136.0
126.465263 160.0
126.526009 120.0
126.554817 176.0
126.624626 92.0
126.776581 148.0
126.824547 184.0
126.836929 104.0
126.845604 176.0
126.927704 232.0
126.934906 96.0
126.943848 196.0
126.964233 148.0
126.969963 124.0
126.976814 180.0
127.018173 59904.0
127.050224 340.0
127.076225 160.0
127.132759 112.0
127.183563 140.0
127.21138 132.0
127.245399 88.0
127.261116 104.0
127.279076 84.0
127.306023 32.0
127.385841 128.0
127.436813 160.0
127.466438 52.0
127.607132 40.0
127.63636 36.0
127.706078 72.0
127.758354 204.0
127.800835 168.0
127.827568 68.0
128.02066 3596.0
128.042877 200.0
128.08371 104.0
128.111267 44.0
128.176605 104.0
128.254608 72.0
128.282532 148.0
128.318604 76.0
128.63446 124.0
128.677353 120.0
128.742828 60.0
128.763153 132.0
128.871597 100.0
128.905746 136.0
128.940643 156.0
129.014709 12384.0
129.080139 160.0
129.137604 84.0
129.160965 60.0
129.192642 60.0
129.208481 64.0
129.321625 48.0
129.394058 48.0
129.659103 92.0
129.681763 80.0
129.740707 144.0
129.85408 60.0
129.974716 204.0
130.017517 360.0
130.061356 136.0
130.118515 128.0
130.137741 60.0
130.888107 88.0
131.074905 80.0
131.209381 36.0
131.862244 72.0
135.079132 120.0
136.156952 68.0
136.463699 96.0
137.486328 44.0
137.61705 64.0
137.99556 180.0
138.147583 180.0
138.869064 36.0
139.120132 120.0
139.319763 68.0
139.745316 120.0
140.91478 68.0
142.927872 172.0
146.957367 332.0
147.025833 172.0
147.100662 152.0
156.001511 68.0
157.831558 156.0
158.339569 112.0
160.236145 172.0
160.975662 156.0
161.523666 100.0
161.936798 56.0
161.945557 172.0
161.954041 160.0
161.986267 5476.0
162.085724 188.0
162.15921 88.0
162.220047 132.0
162.268219 88.0
162.321472 52.0
162.425461 144.0
162.455902 72.0
162.52948 60.0
162.989105 896.0
163.083115 176.0
163.983414 3248.0
164.030029 96.0
164.073273 124.0
164.114151 52.0
164.26207 100.0
164.295242 80.0
164.795654 56.0
164.989899 176.0
165.029953 160.0
167.031235 132.0
168.017899 132.0
171.081238 56.0
171.474564 124.0
171.977966 160.0
172.955551 176.0
175.113907 132.0
178.084229 164.0
178.121414 72.0
181.411789 96.0
187.668213 48.0
193.966949 124.0
201.077438 44.0
218.00795 172.0
220.01062 168.0
263.585999 72.0
265.281982 36.0
309.852051 56.0
311.999969 52.0
384.552155 128.0
442.902802 68.0
580.899963 88.0
593.914856 220.0
618.94519 156.0
651.357056 124.0
670.174438 208.0
671.870667 76.0
694.148926 184.0
715.246033 132.0
745.80603 56.0
752.414001 176.0
761.416382 132.0
768.286011 196.0
773.630127 116.0
783.694031 172.0
794.075256 256.0
801.597473 144.0
820.689331 184.0
821.750244 256.0
821.91571 52.0
829.883667 148.0
843.678772 116.0
845.182556 100.0
850.584106 168.0
860.883911 72.0
870.781677 160.0
888.200317 144.0
891.329102 204.0
898.384644 104.0
901.136963 144.0
903.026001 148.0
910.746155 192.0
913.679749 172.0
914.973755 132.0
922.569336 84.0
924.595703 144.0
925.970093 100.0
953.462463 100.0
954.329224 56.0
955.448608 196.0
957.110474 156.0
963.377625 160.0
966.214539 160.0
967.960022 72.0
968.443115 204.0
977.028381 224.0
980.185181 240.0
992.198608 152.0
996.290527 160.0
1006.153076 172.0
1010.741882 28.0
1011.938232 192.0
1012.413147 156.0
1016.717834 124.0
1018.158997 176.0
1019.169067 164.0
1022.609558 184.0
1022.832336 144.0
1024.653687 176.0
1043.438599 116.0
1044.647705 180.0
1045.928223 164.0
1049.142822 28.0
1049.478027 80.0
1050.993896 220.0
1053.763794 152.0
1055.03064 204.0
1060.131104 164.0
1061.907593 172.0
1062.712036 120.0
1062.802856 116.0
1068.019653 204.0
1070.323608 92.0
1079.09314 148.0
1082.679077 144.0
1088.358154 152.0
1089.599487 200.0
1089.790039 148.0
1090.940186 236.0
1093.183105 128.0
1096.298096 220.0
1097.069214 128.0
1099.127075 164.0
1101.589722 60.0
1108.742554 208.0
1111.594238 164.0
1118.453125 224.0
1122.297241 196.0
1129.617065 156.0
1131.778931 64.0
1138.558716 208.0
1141.919189 144.0
1149.991089 140.0
1150.740356 152.0
1151.956055 184.0
1153.375122 120.0
1155.81665 152.0
1156.608521 220.0
1158.958496 156.0
1161.066772 132.0
1162.328613 52.0
1164.310913 40.0
1165.64917 228.0
1167.321533 164.0
1173.715698 124.0
1175.468872 144.0
1180.031738 248.0
1182.357544 204.0
1185.028198 176.0
1190.515869 240.0
1192.391479 156.0
1194.743164 60.0
1196.959473 136.0
1203.261719 220.0
1210.265869 204.0
1210.598267 112.0
1215.471558 140.0
1215.693604 160.0
1217.630615 156.0
1221.961426 112.0
1224.571899 80.0
1228.545288 180.0
1228.608032 188.0
1232.741699 216.0
1232.867432 156.0
1234.964966 128.0
1237.66626 60.0
1239.060181 196.0
1240.209473 184.0
1241.471436 172.0
1242.25 120.0
1244.783813 180.0
1250.668457 144.0
1250.886597 228.0
1251.534302 192.0
1252.224487 200.0
1255.706299 172.0
1256.672729 212.0
1256.962036 200.0
1258.507935 64.0
1258.889282 192.0
1261.546021 128.0
1265.85498 88.0
1267.73938 160.0
1268.12915 48.0
1270.384155 192.0
1273.812866 164.0
1274.516235 140.0
1275.482788 124.0
1277.786987 164.0
1279.324219 164.0
1281.012085 176.0
1284.933105 200.0
1285.296997 176.0
1286.98877 152.0
1288.474365 164.0
1290.654419 244.0
1290.918945 64.0
1291.047729 132.0
1294.103271 160.0
1296.130371 180.0
1298.496094 52.0
1299.737183 128.0
1302.264282 156.0
1303.794678 72.0
1303.959961 40.0
1304.247437 172.0
1304.319336 40.0
1305.95874 172.0
1306.375977 248.0
1307.836792 212.0
1308.182373 96.0
1308.743896 136.0
1309.89624 140.0
1311.676147 224.0
1312.844238 44.0
1316.279175 180.0
1316.712524 128.0
1319.697021 156.0
1320.145386 176.0
1321.809204 52.0
1321.939453 212.0
1322.257935 184.0
1324.357666 144.0
1324.690918 216.0
1325.495117 192.0
1325.755981 136.0
1327.524902 112.0
1328.33728 120.0
1328.438843 176.0
1330.848389 200.0
1331.422119 152.0
1331.705322 68.0
1331.807007 184.0
1332.998535 140.0
1333.485474 208.0
1335.383179 212.0
1336.598022 236.0
1338.359619 144.0
1338.636353 140.0
1338.891235 152.0
1339.685181 84.0
1339.794434 192.0
1343.19165 184.0
1344.015991 44.0
1344.877197 208.0
1346.826782 176.0
1347.119019 176.0
1348.405029 44.0
1351.754517 204.0
1352.2229 200.0
1352.581543 184.0
1355.393921 72.0
1357.431885 140.0
1361.460693 92.0
1361.512207 192.0
1363.503174 128.0
1366.348999 152.0
1368.04895 92.0
1368.321411 128.0
1369.831177 168.0
1371.341675 60.0
1371.503906 144.0
1373.354614 152.0
1374.439209 156.0
1375.930176 200.0
1377.709961 168.0
1378.116333 168.0
1379.690674 132.0
1380.008545 152.0
1380.141602 172.0
1381.28064 152.0
1381.332397 132.0
1384.130005 108.0
1387.686768 132.0
1389.125488 104.0
1390.899048 128.0
1391.485596 232.0
1391.634033 172.0
1393.483521 92.0
1394.538696 36.0
1395.378784 192.0
1399.165771 208.0
1400.238037 132.0
1401.206421 60.0
1401.996338 124.0
1403.360474 160.0
1404.195679 156.0
1410.273438 132.0
1410.834106 120.0
1411.01355 184.0
1415.40564 176.0
1417.645508 148.0
1418.185181 132.0
1418.350098 120.0
1418.492432 140.0
1419.452148 184.0
1419.677124 140.0
1420.884888 140.0
1421.867798 156.0
1424.022705 180.0
1425.495239 172.0
1427.524902 204.0
1428.216797 100.0
1432.530151 116.0
1432.929443 144.0
1433.163086 212.0
1435.793945 72.0
1436.012695 112.0
1437.936646 200.0
1438.223511 208.0
1440.186768 104.0
1441.327515 176.0
1443.791992 184.0
1447.008057 204.0
1448.537842 212.0
1448.79541 224.0
1452.426514 148.0
1456.206543 176.0
1456.958618 160.0
1458.539307 224.0
1460.021973 128.0
1460.356567 216.0
1460.88147 52.0
1461.695557 228.0
1461.901001 120.0
1462.943848 40.0
1464.520142 140.0
1465.464722 156.0
1466.478271 160.0
1467.385498 124.0
1471.360474 196.0
1471.780396 204.0
1472.376099 52.0
1473.804688 128.0
1475.226196 164.0
1476.220215 188.0
1478.002563 164.0
1480.161255 208.0
1484.299194 168.0
1485.357544 60.0
1485.817871 168.0
1487.183838 164.0
1491.231689 188.0
1491.869751 52.0
1492.446411 60.0
1493.5 140.0
1493.923584 192.0
1496.578369 132.0
1501.016724 172.0
1501.417847 124.0
1502.582642 124.0
1502.9375 188.0
