>compound MLS000862198-01!Ibudilast
>formula C14H18N2O
>ionization [M+H]+
>parentmass 231.148819
#inchi InChI=1S/C14H18N2O/c1-9(2)13-12(14(17)10(3)4)11-7-5-6-8-16(11)15-13/h5-10H,1-4H3
#inchikey ZJVFLBOZORBYFE
#Ion_Source LC-ESI
#Instrument qTof
#Compound_Source NIH Pharmacologically Active Library
#PI Dorrestein
#Data_Collector VP/LMS
#Scan -1
#Precursor_MZ 231.152
#ExactMass 230.142
#Charge 1
#CAS_Number N/A
#Pubmed_ID N/A
#Smiles CC(C)C(=O)c1c(nn2ccccc12)C(C)C
#INCHI_AUX N/A
#Library_Class 1
#SpectrumID CCMSLIB00000084844
#IonMode Positive
#UpdateWorkflowName UPDATE-SINGLE-ANNOTATED-GOLD
#LibraryQualityString Gold
#TaskID d252d724072548979f1f6f1ced849daf
##Scan# 2255
#SpectrumFile p3-B07_GB7_01_18240.mzXML
#LibraryName Pharm_Active_Library.mgf
#MQScore -1
#Organism Pharm_Active_Library
#TIC_Query 0
#RT_Query -1
#MZErrorPPM -1
#SharedPeaks 0
#MassDiff 0
#LibMZ -1
#SpecMZ 231.152
#SpecCharge 0
#internalFilename spec-00000.mgf

>collision 10
44.901348 144.0
44.938702 144.0
44.958717 260.0
45.013451 132.0
45.042831 216.0
45.074898 224.0
45.093609 156.0
45.201931 216.0
45.276901 136.0
45.346073 260.0
45.500835 176.0
45.516945 264.0
45.534405 220.0
45.574707 232.0
45.588142 56.0
45.710518 184.0
45.719936 176.0
45.764359 48.0
45.826317 200.0
45.881577 152.0
45.928772 244.0
46.01379 156.0
46.065109 144.0
46.173244 220.0
46.198513 164.0
46.201889 112.0
46.206238 184.0
46.219238 104.0
46.337036 220.0
46.433281 164.0
46.465836 124.0
46.554066 192.0
46.569004 128.0
46.687244 140.0
46.871021 208.0
46.905094 148.0
46.937813 140.0
47.087929 212.0
47.21777 184.0
47.238285 84.0
47.327248 136.0
47.376842 224.0
47.549324 140.0
47.795311 192.0
47.909588 184.0
48.073669 156.0
48.16341 152.0
48.215916 140.0
48.352833 224.0
48.386055 60.0
48.406826 48.0
48.531536 188.0
48.58424 188.0
48.614765 168.0
48.688442 168.0
48.850525 184.0
49.031979 180.0
49.090534 164.0
49.121216 212.0
49.133774 220.0
49.163074 128.0
49.378223 124.0
49.410397 236.0
49.563011 104.0
49.599449 140.0
49.65834 120.0
49.753761 160.0
49.78746 168.0
50.130718 228.0
50.299969 152.0
50.334759 224.0
50.383286 84.0
50.571358 36.0
50.676151 224.0
50.697407 116.0
50.756947 124.0
50.969868 228.0
51.036674 124.0
51.07365 228.0
51.274406 160.0
51.315746 160.0
51.369938 164.0
51.531265 88.0
51.574135 132.0
51.668518 48.0
51.755825 144.0
51.767281 108.0
51.890507 120.0
51.982307 168.0
52.042595 160.0
52.067005 152.0
52.166149 148.0
52.399292 152.0
52.484329 124.0
52.495865 144.0
52.514614 80.0
52.536251 128.0
52.562187 160.0
52.62862 108.0
52.761543 144.0
52.774555 188.0
52.904766 200.0
52.947933 192.0
52.993111 176.0
53.003254 216.0
53.02644 148.0
53.053982 184.0
53.133747 196.0
53.239708 188.0
53.29055 212.0
53.386486 132.0
53.43158 128.0
53.550945 136.0
53.575706 176.0
53.618721 100.0
53.70982 164.0
53.801598 148.0
53.832417 176.0
53.892307 172.0
53.980007 176.0
54.072174 132.0
54.138054 64.0
54.192253 156.0
54.310997 136.0
54.366749 228.0
54.469528 116.0
54.573872 152.0
54.650356 212.0
54.710697 64.0
54.774212 216.0
54.906673 200.0
55.021767 168.0
55.15472 164.0
55.182808 188.0
55.206467 108.0
55.301155 148.0
55.4137 124.0
55.443333 148.0
55.481873 112.0
55.533772 184.0
55.608273 164.0
55.648041 188.0
55.760937 124.0
55.821888 212.0
55.990051 132.0
56.188301 160.0
56.252472 164.0
56.302242 216.0
56.494564 152.0
56.534962 192.0
56.630779 180.0
56.753666 184.0
56.870678 92.0
57.019371 140.0
57.276661 140.0
57.359535 192.0
57.469627 196.0
57.517921 244.0
57.531506 128.0
57.599461 148.0
57.659901 56.0
57.785408 180.0
58.027737 224.0
58.059582 128.0
58.182487 84.0
58.332111 140.0
58.407394 188.0
58.421085 184.0
58.516964 184.0
58.54285 220.0
58.567219 100.0
58.578659 176.0
58.734886 84.0
58.806599 160.0
58.837132 116.0
58.983784 180.0
59.197979 40.0
59.213295 132.0
59.259251 180.0
59.632145 224.0
59.669037 172.0
59.735168 116.0
59.995419 204.0
60.052475 232.0
60.067898 144.0
60.145054 140.0
60.205265 200.0
60.303585 144.0
60.319599 120.0
60.373714 260.0
60.528461 84.0
61.107857 128.0
61.228836 104.0
61.447067 160.0
61.503246 124.0
61.65593 132.0
61.675064 128.0
61.729782 180.0
61.815819 176.0
62.063313 240.0
62.105656 136.0
62.140591 192.0
62.278145 188.0
62.577099 124.0
62.629066 160.0
62.646397 232.0
62.755138 132.0
62.816647 112.0
62.999763 116.0
63.044006 164.0
63.055069 88.0
63.066132 200.0
63.132534 116.0
63.216007 256.0
63.333534 184.0
63.544373 204.0
63.558655 148.0
63.720608 164.0
63.84618 204.0
63.870037 160.0
63.930496 104.0
64.01487 212.0
64.037163 168.0
64.061058 200.0
64.464722 128.0
64.536652 164.0
64.570236 104.0
64.637421 164.0
64.663574 208.0
64.79113 148.0
64.835999 204.0
65.009193 164.0
65.095879 204.0
65.14888 228.0
65.211548 144.0
65.274246 180.0
65.304802 196.0
65.372375 144.0
65.47863 160.0
65.560181 180.0
65.702682 100.0
65.79306 196.0
65.868958 168.0
66.024124 168.0
66.079117 48.0
66.113098 172.0
66.169754 152.0
66.289612 160.0
66.386879 200.0
66.456627 192.0
66.48259 152.0
66.542648 180.0
66.604362 40.0
66.68792 224.0
66.747375 180.0
66.874268 160.0
67.04039 52.0
67.099068 136.0
67.240982 112.0
67.374878 128.0
67.458221 236.0
67.574333 136.0
67.590698 68.0
67.611969 144.0
67.813721 216.0
67.964294 140.0
68.000397 64.0
68.057854 156.0
68.13176 188.0
68.380051 184.0
68.432564 196.0
68.475548 116.0
68.635391 156.0
68.78553 216.0
68.863129 204.0
68.935822 200.0
69.096207 216.0
69.195511 140.0
69.37693 148.0
69.480568 184.0
69.59343 144.0
69.666504 184.0
69.766212 168.0
69.829399 100.0
69.934219 84.0
69.979164 108.0
70.142426 208.0
70.37265 136.0
70.765564 184.0
70.80764 184.0
70.918739 184.0
70.985062 236.0
71.038734 180.0
71.115921 128.0
71.132706 184.0
71.34269 52.0
71.403221 212.0
71.414993 264.0
71.539513 96.0
71.566452 192.0
71.777077 128.0
71.804054 136.0
71.844536 104.0
71.896843 172.0
72.21447 156.0
72.238152 80.0
72.349838 40.0
72.426041 160.0
72.46331 32.0
72.576866 180.0
72.678642 112.0
72.926582 156.0
73.064316 244.0
73.377686 64.0
73.590958 56.0
73.672928 236.0
73.719063 216.0
73.742989 236.0
73.768631 64.0
73.862679 180.0
74.02356 164.0
74.134903 168.0
74.407631 136.0
74.436821 184.0
74.570816 120.0
74.641304 236.0
74.677422 212.0
74.823685 168.0
74.854675 136.0
74.997673 48.0
75.013184 28.0
75.042488 152.0
75.121422 188.0
75.185661 108.0
75.230537 180.0
75.301338 176.0
75.370438 176.0
75.460312 204.0
75.500084 144.0
75.628113 156.0
76.023262 216.0
76.036064 152.0
76.118736 168.0
76.177788 248.0
76.478607 244.0
76.504723 136.0
76.543022 188.0
76.598755 228.0
76.635338 180.0
76.646873 208.0
76.699821 84.0
76.870262 192.0
76.931824 76.0
77.157188 128.0
77.211395 208.0
77.31636 72.0
77.426651 204.0
77.468689 188.0
77.517746 164.0
77.55455 260.0
77.593117 148.0
77.628189 176.0
77.696732 204.0
77.749229 168.0
77.812424 200.0
77.824715 152.0
77.884422 144.0
77.926582 180.0
78.061928 112.0
78.104141 104.0
78.195633 40.0
78.278374 96.0
78.332573 212.0
78.338684 164.0
78.648605 156.0
78.788101 252.0
79.32431 108.0
79.530067 96.0
79.60463 176.0
79.741425 136.0
79.938828 116.0
80.124001 172.0
80.216667 108.0
80.252327 108.0
80.500351 188.0
80.58252 256.0
80.620041 136.0
80.742249 212.0
80.838211 148.0
80.943825 108.0
81.17498 204.0
81.340042 156.0
81.444183 136.0
81.465744 112.0
81.543007 232.0
81.63829 240.0
81.703041 172.0
81.818222 236.0
81.832619 144.0
81.958702 132.0
82.101112 188.0
82.196716 180.0
82.317657 128.0
82.357391 44.0
82.415199 192.0
82.482071 120.0
82.520035 160.0
82.786018 156.0
82.847603 164.0
82.869347 132.0
83.264793 228.0
83.310204 180.0
83.37561 112.0
83.421051 368.0
83.448326 248.0
83.839684 152.0
83.874306 132.0
83.890717 124.0
84.003777 188.0
84.392776 84.0
84.465927 160.0
84.51532 208.0
84.54277 152.0
84.70755 92.0
84.819328 40.0
84.879829 196.0
84.934845 144.0
85.043106 112.0
85.131226 148.0
85.151428 172.0
85.276253 136.0
85.381157 36.0
85.410583 148.0
85.451057 116.0
85.600151 228.0
85.727257 204.0
85.861832 140.0
85.880272 156.0
85.907944 104.0
86.057434 144.0
86.364197 148.0
86.410446 240.0
86.534447 192.0
86.760475 280.0
86.827225 180.0
86.869881 200.0
86.910698 100.0
86.96637 96.0
87.170662 164.0
87.215263 104.0
87.362167 148.0
87.427284 180.0
87.465073 212.0
87.536072 212.0
88.063034 40.0
88.08358 224.0
88.193825 168.0
88.240555 148.0
88.317223 140.0
88.541817 152.0
88.616745 148.0
88.642982 212.0
88.680458 180.0
88.988106 148.0
89.040688 192.0
89.183479 192.0
89.305687 140.0
89.66153 212.0
89.706764 156.0
89.744469 176.0
90.042618 192.0
90.118179 172.0
90.180542 136.0
90.207008 156.0
90.231583 272.0
90.369644 160.0
90.403709 180.0
90.49646 196.0
90.579781 172.0
90.699158 144.0
90.839478 100.0
90.909683 188.0
91.006485 84.0
91.04483 472.0
91.354279 144.0
91.517952 232.0
91.668114 168.0
91.771362 124.0
91.880074 148.0
92.05043 1928.0
92.08432 228.0
92.116791 48.0
92.137802 124.0
92.313644 216.0
92.596878 228.0
92.639023 164.0
92.808395 212.0
92.851776 132.0
92.87011 168.0
92.888222 128.0
93.055656 324.0
93.108948 60.0
93.155045 116.0
93.168488 160.0
93.197311 160.0
93.437637 52.0
93.481895 180.0
93.506912 56.0
93.60894 132.0
93.63398 160.0
93.668648 112.0
93.682129 224.0
93.738007 60.0
93.782333 36.0
93.973244 132.0
94.065109 364.0
94.156624 140.0
94.224228 244.0
94.384651 188.0
94.434929 136.0
94.489098 48.0
94.531662 100.0
94.601341 172.0
94.64006 96.0
94.69622 72.0
94.953987 136.0
94.983078 176.0
95.04496 156.0
95.065987 104.0
95.087852 108.0
95.385025 128.0
95.420021 128.0
95.571724 180.0
95.696724 144.0
95.746925 172.0
95.875504 176.0
96.004166 132.0
96.088036 176.0
96.222702 156.0
96.236374 124.0
96.480583 220.0
96.541199 236.0
96.658569 176.0
97.268074 128.0
97.566666 128.0
97.853905 180.0
97.895256 180.0
97.989799 180.0
98.009506 132.0
98.106079 80.0
98.449394 196.0
98.506668 200.0
98.552109 132.0
98.682556 160.0
98.718147 152.0
98.985291 200.0
99.486908 128.0
99.518669 84.0
99.546471 124.0
99.671616 132.0
99.782913 184.0
99.926109 152.0
99.965904 72.0
100.021637 152.0
100.053482 152.0
100.428108 116.0
100.489952 224.0
100.535843 132.0
100.565781 188.0
100.591728 204.0
100.675583 204.0
100.817421 108.0
100.866402 184.0
101.037369 148.0
101.115402 200.0
101.187469 96.0
101.255051 176.0
101.405807 196.0
101.443893 144.0
101.648468 208.0
101.666527 144.0
101.774925 212.0
101.851234 144.0
101.911507 236.0
101.927582 172.0
102.018021 172.0
102.10247 220.0
102.317772 136.0
102.343948 232.0
102.360458 180.0
102.4245 156.0
102.535316 188.0
102.690559 160.0
102.969078 56.0
103.00341 192.0
103.053703 304.0
103.076141 68.0
103.092308 124.0
103.341019 116.0
103.549522 212.0
103.662971 140.0
104.015869 52.0
104.03064 72.0
104.049751 2160.0
104.07177 196.0
104.255524 144.0
104.283981 172.0
104.440536 80.0
104.554474 136.0
104.737717 52.0
104.831429 144.0
104.945274 160.0
105.044403 1364.0
105.059303 476.0
105.112839 156.0
105.143448 84.0
105.216927 192.0
105.478409 140.0
105.535652 56.0
105.64682 136.0
105.795479 76.0
105.820045 204.0
105.928589 108.0
105.955215 136.0
105.975708 128.0
106.028984 160.0
106.064316 900.0
106.131477 148.0
106.268898 204.0
106.433098 44.0
106.490601 144.0
106.689919 44.0
106.741318 176.0
107.006546 132.0
107.041748 212.0
107.067833 80.0
107.075218 188.0
107.083298 180.0
107.087425 220.0
107.169456 32.0
107.239517 220.0
107.383842 128.0
107.43541 140.0
107.61496 148.0
107.668121 196.0
107.695496 176.0
107.77607 60.0
107.895943 148.0
108.007607 192.0
108.048035 176.0
108.075874 252.0
108.111053 180.0
108.216621 164.0
108.27874 144.0
108.382317 216.0
108.481796 52.0
108.541924 180.0
108.591698 172.0
108.685043 224.0
108.732773 36.0
108.80127 180.0
109.103676 128.0
109.204391 140.0
109.229355 152.0
109.335464 256.0
109.381256 140.0
109.745827 176.0
109.858452 156.0
110.059196 224.0
110.104744 56.0
110.211281 228.0
110.225906 156.0
110.315773 88.0
110.496857 224.0
110.658752 68.0
110.730072 196.0
111.044441 68.0
111.065414 368.0
111.172417 212.0
111.27317 120.0
111.338264 164.0
111.573593 180.0
111.592514 48.0
111.718704 48.0
111.844955 92.0
112.321159 48.0
112.500526 136.0
112.832199 104.0
112.961205 88.0
113.022552 204.0
113.206711 96.0
113.528824 184.0
113.547913 156.0
113.620026 128.0
113.770706 112.0
113.936356 160.0
114.255241 208.0
114.629974 200.0
115.055557 344.0
115.075768 52.0
115.148369 160.0
115.199631 196.0
115.488197 184.0
115.599449 200.0
115.924942 104.0
116.052406 496.0
116.068939 204.0
116.17794 160.0
116.248749 108.0
116.310982 196.0
116.388268 112.0
116.41404 252.0
116.562256 188.0
116.648224 160.0
116.712723 180.0
116.74498 128.0
116.852524 112.0
116.878571 228.0
116.98999 192.0
117.057037 4736.0
117.112999 84.0
117.160385 80.0
117.298302 56.0
117.352196 176.0
117.548477 188.0
117.697418 216.0
117.712532 184.0
117.757889 112.0
117.859161 148.0
117.982613 204.0
118.006393 132.0
118.064339 6032.0
118.111137 156.0
118.142082 248.0
118.170769 72.0
118.309273 64.0
118.381989 96.0
118.409882 228.0
118.522408 176.0
118.606041 56.0
118.704575 160.0
118.746979 80.0
118.831573 52.0
118.86412 112.0
118.897964 208.0
118.950447 72.0
118.998383 196.0
119.036934 1988.0
119.061333 7640.0
119.111618 128.0
119.202866 88.0
119.316925 160.0
119.37677 44.0
119.418289 216.0
119.444374 48.0
119.469276 196.0
119.522514 36.0
119.585617 72.0
119.663986 88.0
119.794655 140.0
120.044815 1184.0
120.080872 2156.0
120.112907 100.0
120.195808 48.0
120.368256 60.0
120.411926 128.0
120.676338 56.0
120.733185 228.0
120.809738 160.0
120.879753 176.0
121.047447 332.0
121.084488 320.0
121.114006 156.0
121.328758 208.0
121.423042 160.0
121.59417 92.0
121.761017 164.0
121.886238 120.0
121.906013 196.0
122.046692 180.0
122.154457 56.0
122.414162 68.0
122.810852 92.0
123.135292 112.0
123.422569 128.0
123.469009 124.0
123.49334 32.0
123.590675 208.0
123.778816 164.0
123.995918 124.0
124.1483 212.0
124.191025 164.0
124.646126 204.0
124.786156 120.0
124.839523 252.0
125.036957 144.0
125.18222 116.0
125.41391 144.0
125.48748 176.0
125.701607 148.0
125.855621 88.0
126.011963 68.0
126.041008 120.0
126.094643 156.0
126.172882 76.0
126.204178 204.0
126.22654 220.0
126.405487 256.0
126.539787 172.0
126.839973 216.0
126.880325 220.0
126.945343 132.0
127.0373 128.0
127.585251 140.0
127.634712 248.0
127.753914 208.0
127.771912 120.0
127.870918 188.0
128.005981 136.0
128.051834 1080.0
128.138885 52.0
128.334961 92.0
128.438705 192.0
128.531189 132.0
128.567307 188.0
128.88118 240.0
129.057587 404.0
129.464783 152.0
129.4897 84.0
129.788284 204.0
129.796387 144.0
129.84552 104.0
129.952133 220.0
130.004318 156.0
130.034225 136.0
130.064545 2616.0
130.194412 224.0
130.213181 156.0
130.242706 52.0
130.354019 68.0
130.424484 128.0
130.474487 104.0
130.620819 140.0
130.656418 68.0
130.795227 180.0
130.865799 168.0
130.884018 220.0
130.931839 124.0
130.997894 152.0
131.06279 3096.0
131.173355 72.0
131.232269 180.0
131.524628 96.0
131.750244 100.0
131.876373 68.0
131.924377 112.0
131.967819 64.0
132.069427 4860.0
132.123337 68.0
132.182831 196.0
132.281235 60.0
132.301834 76.0
132.361374 44.0
132.402588 172.0
132.799072 40.0
133.03772 172.0
133.073288 828.0
133.230621 152.0
133.253586 56.0
133.283463 160.0
133.338608 156.0
133.573135 64.0
134.033585 132.0
134.057388 180.0
134.095673 1792.0
134.137283 84.0
134.167252 76.0
134.204147 140.0
134.328674 132.0
134.379425 364.0
134.453278 180.0
134.497131 108.0
134.69339 180.0
134.769623 88.0
135.060394 72.0
135.086349 188.0
135.340927 168.0
135.447464 92.0
135.727875 260.0
135.809052 28.0
135.950577 124.0
136.04805 256.0
136.100082 156.0
136.171112 148.0
136.291916 172.0
136.440659 160.0
136.791931 56.0
137.048111 148.0
137.070374 172.0
137.113358 160.0
137.243896 40.0
137.402496 88.0
137.598541 204.0
137.703613 152.0
137.722305 128.0
137.969986 228.0
138.092331 176.0
138.236633 160.0
138.285782 124.0
138.356003 140.0
138.402817 212.0
138.487122 212.0
138.64949 188.0
138.768326 284.0
138.866821 60.0
139.124939 28.0
139.378586 204.0
139.496094 132.0
139.695969 180.0
139.752441 136.0
139.971344 208.0
140.044342 160.0
140.093811 200.0
140.147995 56.0
140.437958 76.0
140.725845 224.0
140.778946 176.0
141.030594 160.0
141.058395 604.0
141.19136 188.0
141.427948 220.0
141.489502 212.0
141.597717 176.0
142.065735 1672.0
142.091141 212.0
142.347794 48.0
142.438049 136.0
142.566345 64.0
142.599625 164.0
142.848282 200.0
143.072632 4704.0
143.158127 84.0
143.177734 160.0
143.24205 64.0
143.26825 76.0
143.299225 104.0
143.57811 184.0
143.630585 60.0
143.857269 128.0
143.926514 120.0
143.943222 48.0
144.038757 256.0
144.081009 11964.0
144.134308 72.0
144.185394 148.0
144.347061 72.0
144.476212 148.0
144.515839 140.0
144.602219 132.0
144.677231 216.0
144.717453 200.0
144.799347 196.0
144.955063 212.0
144.976624 232.0
144.995804 156.0
145.012421 156.0
145.040756 2284.0
145.077011 16708.0
145.14682 76.0
145.185013 56.0
145.212769 144.0
145.295532 156.0
145.342529 52.0
145.403503 76.0
145.486313 96.0
145.525925 168.0
145.546082 68.0
145.590759 116.0
145.665207 172.0
145.694046 228.0
145.738205 116.0
145.782944 72.0
145.847824 64.0
145.908691 200.0
145.953613 104.0
145.987274 188.0
146.014694 160.0
146.024399 64.0
146.056519 740.0
146.083755 7152.0
146.168549 144.0
146.191757 100.0
146.280807 60.0
146.303757 104.0
146.396027 56.0
146.53125 72.0
146.601135 52.0
146.765045 36.0
146.854263 180.0
146.875977 40.0
146.895279 96.0
146.999023 140.0
147.091064 2620.0
147.169189 96.0
147.216278 72.0
147.233917 220.0
147.262924 112.0
147.320129 196.0
147.342773 116.0
147.668198 40.0
148.074173 336.0
148.096069 344.0
148.34375 168.0
148.797394 200.0
149.074295 176.0
149.118042 96.0
149.178802 160.0
149.254181 132.0
149.480392 88.0
149.531494 144.0
149.716522 152.0
149.974777 176.0
151.11763 140.0
151.271805 120.0
151.330566 52.0
151.786301 56.0
151.931015 92.0
152.284485 160.0
152.390106 144.0
152.449081 140.0
152.793304 200.0
153.339951 172.0
153.418839 144.0
153.579117 192.0
153.894989 60.0
154.011047 160.0
154.043167 184.0
154.064163 1188.0
154.270508 176.0
154.315002 60.0
154.703415 240.0
154.856934 80.0
155.06163 768.0
155.340271 104.0
155.74736 60.0
155.841751 144.0
156.076691 2104.0
156.172379 120.0
156.256958 64.0
156.356491 140.0
156.401291 68.0
156.421204 40.0
156.610443 180.0
156.655273 116.0
156.767395 52.0
156.884537 168.0
157.031647 236.0
157.081772 588.0
157.233734 44.0
157.263687 168.0
157.286148 136.0
157.434998 156.0
157.948303 32.0
158.023361 116.0
158.055878 192.0
158.087952 1096.0
158.667007 120.0
158.687057 116.0
158.741013 168.0
158.762283 164.0
158.787369 56.0
158.98053 232.0
159.010651 48.0
159.056839 172.0
159.090958 9812.0
159.171768 88.0
159.190735 228.0
159.384827 36.0
159.452667 96.0
159.575836 108.0
159.814774 192.0
159.880203 48.0
159.917953 44.0
159.958221 132.0
159.983398 148.0
160.038788 144.0
160.098541 2240.0
160.373825 244.0
160.479706 64.0
160.517014 136.0
160.560394 96.0
160.603271 140.0
160.673904 36.0
160.959106 52.0
160.981842 92.0
161.075638 200.0
161.107422 11308.0
161.237396 148.0
161.261108 140.0
161.367798 64.0
161.402695 80.0
161.434174 168.0
161.482224 156.0
161.611237 68.0
161.659317 60.0
161.720047 128.0
161.758011 64.0
161.89473 68.0
161.973099 132.0
161.996048 56.0
162.10965 480.0
162.191162 32.0
162.378784 124.0
162.553833 68.0
162.574127 64.0
162.975327 84.0
163.049026 172.0
163.096588 300.0
163.115097 372.0
163.171036 200.0
163.247314 88.0
163.265106 80.0
163.651886 148.0
163.855637 128.0
163.939728 28.0
164.360458 168.0
164.564651 148.0
165.108932 200.0
165.390366 120.0
166.069443 180.0
166.313095 120.0
166.572433 144.0
166.590424 148.0
166.693192 136.0
166.783142 80.0
166.872467 216.0
167.078766 280.0
167.233246 216.0
167.289871 124.0
167.658188 184.0
168.006271 240.0
168.065643 1148.0
168.104324 176.0
168.688019 128.0
169.077896 536.0
169.158813 52.0
169.27272 140.0
169.422943 196.0
169.56546 132.0
169.619888 60.0
169.669144 200.0
169.728088 144.0
170.095047 2068.0
170.13092 184.0
170.177643 72.0
170.247757 68.0
170.616714 80.0
170.663513 124.0
170.744125 132.0
170.854782 132.0
170.897598 112.0
171.05629 164.0
171.094162 2696.0
171.238617 180.0
171.342804 224.0
171.384491 76.0
171.919037 96.0
172.036499 188.0
172.075577 480.0
172.103943 436.0
172.342056 112.0
172.78653 120.0
172.878098 200.0
172.969711 188.0
173.001114 132.0
173.035156 84.0
173.071304 9280.0
173.107285 4068.0
173.143021 180.0
173.193146 96.0
173.33374 44.0
173.399246 96.0
173.627335 52.0
173.661438 140.0
173.763733 60.0
173.839828 400.0
174.041946 56.0
174.076904 1628.0
174.108505 192.0
174.228424 120.0
174.25206 116.0
174.328262 44.0
174.454422 52.0
174.499115 68.0
174.535919 248.0
174.793701 128.0
174.87265 72.0
174.956879 84.0
174.996368 108.0
175.082504 512.0
175.30455 56.0
175.462692 136.0
175.858368 56.0
175.900604 192.0
176.022049 204.0
176.059021 112.0
176.095276 176.0
176.2677 104.0
176.288849 80.0
176.624603 80.0
176.730423 184.0
176.809814 136.0
177.085159 148.0
177.114288 140.0
177.673615 228.0
177.989456 168.0
178.069122 356.0
178.263046 148.0
179.072433 148.0
179.106415 40.0
179.335556 168.0
179.711563 136.0
180.018524 64.0
180.083084 2092.0
180.178772 60.0
180.363159 76.0
180.478119 40.0
180.504852 60.0
180.793762 160.0
180.887436 44.0
181.026657 144.0
181.087173 3308.0
181.460724 48.0
181.986588 144.0
182.088074 772.0
182.273987 124.0
182.322357 88.0
182.480957 220.0
182.58313 160.0
182.696106 48.0
183.093719 3052.0
183.134857 224.0
183.200073 228.0
183.312668 152.0
183.442032 136.0
183.814224 88.0
183.92218 160.0
184.076508 484.0
184.095947 460.0
184.238113 32.0
184.524582 116.0
185.0746 324.0
185.107513 524.0
186.080093 384.0
186.127014 896.0
186.44368 40.0
186.609497 64.0
186.884186 176.0
187.017532 164.0
187.086624 5048.0
187.122757 872.0
187.210831 72.0
187.23262 76.0
187.295258 64.0
187.517776 72.0
187.753143 156.0
187.884064 84.0
188.047791 100.0
188.093369 1036.0
188.16243 36.0
188.394562 48.0
188.476517 120.0
188.528442 108.0
188.695175 44.0
188.874496 84.0
189.062454 132.0
189.101471 6380.0
189.299866 60.0
189.343689 124.0
189.371063 60.0
189.403931 72.0
189.554611 56.0
189.730026 104.0
189.834213 52.0
189.889069 60.0
190.107452 180.0
190.146957 36.0
190.49292 76.0
191.367447 108.0
192.169495 128.0
192.2771 156.0
192.605667 92.0
193.689941 148.0
194.098038 636.0
194.125061 116.0
194.6884 68.0
195.092194 340.0
195.235855 212.0
196.111679 1048.0
196.333084 40.0
197.107376 2592.0
197.173401 128.0
197.218109 132.0
197.296387 100.0
197.500519 172.0
197.640091 76.0
197.931488 92.0
198.021103 88.0
198.090317 612.0
198.113892 956.0
198.149948 216.0
198.228409 68.0
198.312485 152.0
198.887466 156.0
198.996948 52.0
199.088196 616.0
199.123306 528.0
199.145782 52.0
199.255325 80.0
199.308716 60.0
199.339615 64.0
199.896393 156.0
200.101212 368.0
200.500488 116.0
200.961472 184.0
201.025635 152.0
201.101776 6252.0
201.132553 412.0
201.202896 52.0
201.278549 84.0
201.36232 68.0
201.678757 152.0
201.913422 76.0
202.071823 116.0
202.103561 484.0
202.143723 332.0
202.306717 132.0
202.329361 68.0
202.669235 76.0
202.694733 48.0
202.922714 120.0
203.155136 204.0
203.883728 120.0
204.135544 268.0
204.327301 56.0
205.101028 204.0
206.089264 124.0
206.438004 108.0
207.101959 32.0
207.391342 212.0
207.612106 96.0
208.746399 40.0
209.996262 72.0
211.131409 160.0
211.414764 116.0
211.851959 80.0
212.002625 144.0
212.127258 64.0
213.102356 124.0
213.141266 776.0
213.355194 88.0
213.602371 76.0
213.651825 92.0
214.128876 400.0
214.210739 64.0
214.601257 76.0
214.910416 132.0
215.047577 144.0
215.116684 2972.0
215.164337 172.0
215.421326 108.0
215.500198 68.0
215.573257 48.0
215.704773 68.0
215.830475 124.0
216.124863 1548.0
216.485947 148.0
216.611877 72.0
216.913696 36.0
217.016296 64.0
217.127884 152.0
217.209854 56.0
217.409363 76.0
217.776337 116.0
218.014313 92.0
218.193604 100.0
218.40239 128.0
218.52301 88.0
220.75882 60.0
222.949554 192.0
224.864487 96.0
228.192505 196.0
229.143539 144.0
230.012039 148.0
230.734024 112.0
230.903351 204.0
231.000137 248.0
231.148819 13692.0
231.208832 156.0
231.266418 60.0
231.375397 60.0
231.541931 48.0
231.74791 52.0
232.087372 52.0
232.153748 1664.0
232.266296 44.0
232.320908 56.0
232.505997 64.0
232.56366 60.0
232.694183 60.0
232.94017 68.0
233.155884 260.0
233.396027 52.0
233.417313 116.0
233.572418 92.0
233.602844 80.0
233.694107 28.0
233.785385 36.0
235.2789 68.0
235.44989 92.0
236.826172 76.0
237.660004 88.0
239.0858 168.0
239.942093 20.0
241.402542 48.0
241.761383 92.0
245.473572 100.0
247.476456 96.0
248.338211 100.0
248.859131 80.0
253.030289 48.0
266.553772 104.0
277.09964 36.0
286.019501 64.0
287.117828 232.0
289.368256 28.0
289.727264 72.0
311.923157 64.0
327.88028 108.0
333.671814 32.0
335.882263 72.0
357.86441 100.0
358.776123 60.0
363.636719 72.0
369.176025 84.0
374.371979 120.0
379.042206 56.0
384.943146 116.0
393.838531 92.0
396.850037 52.0
407.771942 72.0
410.715118 44.0
414.162903 92.0
419.742767 80.0
428.374084 56.0
429.177704 76.0
445.618683 104.0
482.39563 76.0
483.594116 48.0
497.301605 88.0
507.660828 100.0
594.359619 100.0
603.912842 60.0
624.356201 84.0
667.687683 40.0
691.559265 48.0
701.845215 112.0
722.275818 88.0
740.143311 100.0
750.586853 200.0
754.506958 116.0
761.575806 156.0
765.028992 36.0
768.545166 176.0
778.903198 120.0
793.44574 80.0
799.0 212.0
806.720276 60.0
818.487061 164.0
825.231262 208.0
829.387329 84.0
829.685364 188.0
830.574219 112.0
863.865479 168.0
875.79303 56.0
876.818176 160.0
877.124695 208.0
879.342407 124.0
884.117554 232.0
884.318787 36.0
886.26709 84.0
886.367798 164.0
886.456726 140.0
887.025635 208.0
891.673035 128.0
902.94696 220.0
903.820312 180.0
913.347046 172.0
917.930115 164.0
919.909058 68.0
922.524719 204.0
924.387512 156.0
931.146912 132.0
931.875854 188.0
932.434875 124.0
937.425049 116.0
941.640503 220.0
945.388062 160.0
948.597412 128.0
948.683228 152.0
950.320679 144.0
952.794922 208.0
955.998352 156.0
965.306946 124.0
969.088867 160.0
969.200378 152.0
971.388855 156.0
973.722595 196.0
974.287842 148.0
974.884338 224.0
983.098145 184.0
994.978088 176.0
995.580872 56.0
996.805786 52.0
998.182434 160.0
1000.044556 188.0
1009.754395 156.0
1012.159119 196.0
1016.037964 108.0
1018.253235 148.0
1025.882324 60.0
1028.24231 196.0
1029.046631 212.0
1033.821411 160.0
1034.359009 116.0
1035.044067 172.0
1040.59021 28.0
1042.542847 200.0
1045.706909 112.0
1047.567749 196.0
1051.004028 204.0
1054.536499 136.0
1056.851562 28.0
1058.282349 308.0
1061.424438 48.0
1061.469849 60.0
1061.878418 44.0
1061.988647 236.0
1064.266479 164.0
1064.857422 112.0
1069.427979 180.0
1071.128662 164.0
1071.687744 256.0
1071.733276 152.0
1071.778931 84.0
1072.789062 52.0
1072.926025 200.0
1073.069458 68.0
1077.076294 136.0
1080.495117 192.0
1085.118896 124.0
1087.605103 228.0
1092.533447 140.0
1092.704468 204.0
1093.113892 228.0
1099.181274 188.0
1099.372681 68.0
1102.714355 200.0
1105.412476 100.0
1109.40625 172.0
1110.560059 196.0
1110.64624 132.0
1111.754272 156.0
1113.918701 224.0
1115.314087 180.0
1116.816772 136.0
1119.259155 188.0
1120.777832 112.0
1122.690918 172.0
1125.012817 204.0
1128.727539 132.0
1129.029419 136.0
1129.275879 68.0
1130.092041 116.0
1131.403809 192.0
1132.08667 152.0
1132.749756 208.0
1133.674316 128.0
1134.659668 140.0
1134.807129 216.0
1135.068604 144.0
1137.846436 196.0
1138.108276 68.0
1142.483521 152.0
1144.549683 144.0
1144.778564 136.0
1147.912109 152.0
1148.586548 148.0
1151.630615 200.0
1154.685547 136.0
1155.476929 212.0
1155.835449 164.0
1158.177856 188.0
1158.34729 172.0
1166.469604 160.0
1168.781982 52.0
1169.973022 108.0
1170.531372 52.0
1170.885376 92.0
1170.994385 224.0
1172.602295 132.0
1173.263428 188.0
1174.211182 208.0
1177.52124 188.0
1180.870239 100.0
1185.045898 116.0
1185.957275 152.0
1187.788086 212.0
1189.033569 200.0
1194.148315 128.0
1197.245239 112.0
1199.429321 160.0
1203.520264 252.0
1204.576904 100.0
1205.053589 176.0
1206.532593 176.0
1206.774536 160.0
1206.919678 152.0
1207.189453 248.0
1207.611328 124.0
1208.704346 184.0
1208.953369 180.0
1209.064087 248.0
1209.970947 168.0
1211.217407 104.0
1211.736938 180.0
1211.820068 200.0
1213.081421 196.0
1215.085571 228.0
1216.098633 184.0
1218.223389 152.0
1219.036255 120.0
1221.963623 168.0
1224.978027 188.0
1229.272705 232.0
1230.584961 144.0
1231.045776 124.0
1232.114502 152.0
1232.994873 172.0
1234.455933 180.0
1235.351196 160.0
1240.505127 100.0
1243.556274 124.0
1245.557373 188.0
1250.275024 144.0
1252.880249 116.0
1253.71875 148.0
1257.745972 120.0
1259.270996 132.0
1259.574707 156.0
1261.355347 64.0
1263.936768 108.0
1264.354248 120.0
1265.005371 252.0
1267.590454 196.0
1268.299194 140.0
1268.873413 136.0
1270.78125 204.0
1272.967407 144.0
1275.141235 164.0
1278.071045 76.0
1282.236938 128.0
1283.962158 132.0
1284.233154 220.0
1285.039307 180.0
1286.702148 180.0
1287.116333 168.0
1289.166382 104.0
1290.367188 180.0
1290.6604 148.0
1290.932129 156.0
1291.017944 140.0
1291.890503 160.0
1294.925415 112.0
1295.362305 208.0
1295.906738 132.0
1298.200562 164.0
1301.953735 120.0
1302.478027 68.0
1302.564209 236.0
1303.84314 184.0
1304.058716 156.0
1306.273315 200.0
1306.71936 128.0
1307.273438 208.0
1309.404297 156.0
1311.450439 112.0
1311.86853 64.0
1314.356689 92.0
1315.446533 144.0
1316.883423 128.0
1318.082642 172.0
1319.289551 192.0
1320.84436 152.0
1321.148071 176.0
1321.372437 44.0
1323.985474 108.0
1328.537354 120.0
1330.126465 200.0
1331.411621 48.0
1331.498779 252.0
1331.578613 180.0
1333.525757 140.0
1334.223511 140.0
1334.601562 164.0
1334.819702 212.0
1334.936157 112.0
1335.248779 148.0
1337.074829 180.0
1337.904663 128.0
1338.822144 92.0
1339.914673 144.0
1343.217041 120.0
1344.165405 176.0
1345.019287 172.0
1345.245605 196.0
1346.976196 104.0
1348.93457 168.0
1350.572388 212.0
1351.064453 204.0
1352.255249 156.0
1354.539673 156.0
1354.620239 168.0
1354.854736 140.0
1355.594727 176.0
1356.899414 232.0
1357.031372 148.0
1357.089966 200.0
1359.554688 180.0
1359.760132 124.0
1360.86853 44.0
1360.927368 72.0
1361.411987 116.0
1362.704712 80.0
1363.520386 180.0
1363.777588 136.0
1364.343628 172.0
1365.152466 212.0
1366.248291 136.0
1368.691772 68.0
1369.281006 104.0
1369.737549 144.0
1370.687988 156.0
1372.213745 152.0
1372.611816 212.0
1372.921631 196.0
1374.042725 204.0
1374.205078 208.0
1375.718018 120.0
1377.37207 164.0
1377.800537 192.0
1378.022095 172.0
1378.665039 140.0
1379.84021 232.0
1379.958496 120.0
1380.727539 124.0
1381.637329 160.0
1382.680664 180.0
1383.635498 168.0
1385.09436 56.0
1385.672241 148.0
1389.275146 160.0
1389.727783 176.0
1391.390259 192.0
1391.924805 116.0
1393.937866 152.0
1396.086182 172.0
1396.294312 176.0
1398.169189 108.0
1398.585938 172.0
1399.501587 160.0
1399.605835 180.0
1400.514404 120.0
1401.929932 260.0
1402.108765 64.0
1402.220581 276.0
1403.458008 112.0
1403.72644 208.0
1404.434937 216.0
1404.658691 160.0
1408.002441 192.0
1408.570068 132.0
1409.526367 188.0
1410.116821 164.0
1410.221436 196.0
1410.303589 192.0
1410.871704 192.0
1411.447388 68.0
1411.851196 64.0
1412.801147 132.0
1413.339844 196.0
1413.624146 184.0
1413.728882 92.0
1415.488037 248.0
1415.795044 160.0
1416.369507 172.0
1416.633911 108.0
1417.810303 152.0
1417.960205 124.0
1419.766968 176.0
1421.087158 132.0
1421.649902 168.0
1421.844971 204.0
1422.790771 180.0
1423.977173 80.0
1425.787842 200.0
1427.569458 172.0
1427.825195 140.0
1428.547241 208.0
1429.562988 156.0
1429.886475 232.0
1430.323975 148.0
1431.437256 92.0
1432.32605 228.0
1432.499268 260.0
1432.649902 128.0
1433.026611 140.0
1433.976074 204.0
1434.315308 224.0
1435.642212 180.0
1436.283203 184.0
1437.422485 140.0
1437.845093 144.0
1442.119751 140.0
1444.115845 140.0
1444.448608 208.0
1446.355469 168.0
1447.233643 116.0
1447.332031 96.0
1447.625 276.0
1448.021118 252.0
1448.710449 104.0
1450.802002 192.0
1451.074951 144.0
1451.924194 136.0
1452.621948 168.0
1453.031616 188.0
1453.274414 152.0
1457.047729 152.0
1457.313721 144.0
1457.503662 124.0
1459.099731 140.0
1460.133789 120.0
1460.955322 152.0
1461.799805 188.0
1463.344971 168.0
1465.340454 184.0
1466.689209 144.0
1467.238159 120.0
1467.413452 144.0
1467.863281 188.0
1468.374268 148.0
1469.526123 96.0
1469.983887 160.0
1470.182373 156.0
1470.686035 164.0
1471.289062 112.0
1471.884644 96.0
1472.426758 32.0
1472.57959 108.0
1473.053101 184.0
1473.977539 196.0
1474.413086 104.0
1475.116333 236.0
1475.315063 144.0
1475.789062 164.0
1476.974365 208.0
1477.10437 76.0
1477.226807 124.0
1477.395142 176.0
1478.374512 224.0
1481.306885 128.0
1481.82019 124.0
1482.141968 164.0
1483.582764 164.0
1484.081177 108.0
1485.085693 160.0
1485.361816 96.0
1488.170654 176.0
1488.308838 164.0
1488.531494 228.0
1489.637451 176.0
1489.798828 160.0
1490.290527 240.0
1491.70459 144.0
1491.881348 180.0
1492.827026 176.0
1493.080811 180.0
1493.396118 140.0
1493.734619 228.0
1494.56543 168.0
1494.85022 144.0
1495.160889 116.0
1495.31189 84.0
1495.765991 184.0
1496.689819 92.0
1497.013306 184.0
1497.475342 184.0
1497.729492 144.0
1497.828613 176.0
1499.270386 68.0
1499.879272 224.0
1500.118286 156.0
1501.428955 172.0
1502.431763 184.0
1503.056641 148.0
1503.751221 172.0
1504.963135 244.0
