>compound MLS000697611-01!
>formula C16H14O4
>ionization [M+H]+
>parentmass 271.097
#inchi InChI=1S/C16H14O4/c1-18-10-3-5-11-13-8-19-14-6-9(17)2-4-12(14)16(13)20-15(11)7-10/h2-7,13,16-17H,8H2,1H3/t13-,16-/m0/s1
#inchikey NSRJSISNDPOJOP
#Ion_Source LC-ESI
#Instrument qTof
#Compound_Source NIH Natural Product Library
#PI Dorrestein
#Data_Collector VVP/LMS
#Scan -1
#Precursor_MZ 271.097
#ExactMass 270.089
#Charge 1
#CAS_Number N/A
#Pubmed_ID N/A
#Smiles COc1ccc2[C@@H]3COc4cc(O)ccc4[C@@H]3Oc2c1
#INCHI_AUX N/A
#Library_Class 1
#SpectrumID CCMSLIB00000079496
#IonMode Positive
#UpdateWorkflowName UPDATE-SINGLE-ANNOTATED-GOLD
#LibraryQualityString Gold
#TaskID b1d8e8f6646f4e71acdff9ca3d919d08
##Scan# 2134
#SpectrumFile p1-B07_GB7_01_17891.mzXML
#LibraryName NIH_Natural_Products_Library.mgf
#MQScore -1
#Organism NIH_Natural_Products_Library
#TIC_Query 0
#RT_Query -1
#MZErrorPPM -1
#SharedPeaks 0
#MassDiff 0
#LibMZ -1
#SpecMZ 271.097
#SpecCharge 0
#internalFilename spec-00000.mgf

>collision 10
94.966805 188.0
95.003204 148.0
95.047829 168.0
95.339104 168.0
97.025536 140.0
98.778557 148.0
98.861282 224.0
99.837296 168.0
100.095993 160.0
100.864082 172.0
102.868797 224.0
103.056618 200.0
104.278549 40.0
104.494102 104.0
104.78727 160.0
105.036987 184.0
105.941536 120.0
106.405014 176.0
106.811905 232.0
107.051003 456.0
107.126846 104.0
107.143326 68.0
108.057907 84.0
108.623459 100.0
109.064568 3188.0
109.119781 44.0
109.331947 60.0
109.502663 56.0
109.907074 52.0
110.036484 116.0
110.067863 364.0
110.959877 164.0
111.280106 88.0
112.001404 68.0
112.182625 20.0
112.957603 208.0
113.652481 176.0
113.820168 148.0
115.053085 188.0
115.856995 172.0
116.062744 144.0
117.003792 252.0
118.041321 340.0
119.047447 664.0
119.525291 64.0
119.799614 68.0
120.054626 256.0
121.067024 360.0
122.041031 208.0
122.505058 152.0
122.696785 196.0
123.044373 1296.0
123.83699 36.0
124.049347 252.0
124.466797 192.0
125.063721 196.0
126.068413 80.0
126.453072 108.0
126.701622 232.0
127.633041 208.0
128.06282 204.0
129.38385 172.0
131.00531 216.0
131.043808 120.0
131.447617 164.0
131.488693 204.0
131.940948 96.0
133.028885 208.0
133.062958 128.0
133.249573 152.0
134.5 132.0
134.668549 36.0
135.536057 132.0
135.786423 116.0
136.05011 188.0
136.485397 180.0
136.559494 144.0
136.829742 216.0
136.920547 168.0
136.967133 196.0
136.988098 60.0
137.011398 68.0
137.060547 11608.0
137.144211 68.0
137.160538 52.0
137.19783 140.0
137.244461 56.0
137.272446 92.0
137.638794 52.0
137.666809 40.0
137.849014 48.0
137.991592 124.0
138.062851 1616.0
138.7267 136.0
138.750137 164.0
139.010483 136.0
139.043335 124.0
139.062119 160.0
140.062363 192.0
140.667389 56.0
141.06897 72.0
144.058411 148.0
144.962799 132.0
146.038528 360.0
146.185074 56.0
147.045914 364.0
147.076797 156.0
147.646988 160.0
148.048508 336.0
149.060318 336.0
149.091858 172.0
149.130737 192.0
150.111832 72.0
151.705933 80.0
151.914383 148.0
153.069641 364.0
154.063461 164.0
155.082367 240.0
158.928375 152.0
159.752426 152.0
161.059814 916.0
161.22995 60.0
162.067978 340.0
163.039871 216.0
163.583694 40.0
163.75174 216.0
165.07132 152.0
168.058411 128.0
169.063583 216.0
169.610062 152.0
171.056885 168.0
172.029205 124.0
172.076187 156.0
173.05925 120.0
174.061005 148.0
176.067474 128.0
177.05603 160.0
178.069656 152.0
180.061798 164.0
181.065536 368.0
183.049225 168.0
183.076157 148.0
184.055008 176.0
184.090103 156.0
185.066238 132.0
185.518677 168.0
186.064743 208.0
187.073944 176.0
187.124252 172.0
189.377106 196.0
190.133789 96.0
195.058472 184.0
197.059021 152.0
198.074875 180.0
198.111298 120.0
199.067703 76.0
200.65181 84.0
201.099228 144.0
207.076752 144.0
209.051895 96.0
209.095062 48.0
210.068741 316.0
213.04982 140.0
213.056107 100.0
213.065811 128.0
213.088409 188.0
214.071533 148.0
218.979874 172.0
221.064117 168.0
224.536926 196.0
225.089005 128.0
226.066483 164.0
227.067062 136.0
228.075882 120.0
228.523956 212.0
228.927292 84.0
233.13829 64.0
235.075043 128.0
236.043365 116.0
237.053513 164.0
238.062759 228.0
239.066498 152.0
241.051468 284.0
243.100983 264.0
253.331818 68.0
254.048248 180.0
254.09584 176.0
255.069061 132.0
255.096176 140.0
257.067657 168.0
258.134583 56.0
269.052612 200.0
281.080322 120.0
285.471863 88.0
308.901367 20.0
334.749756 60.0
339.100739 100.0
339.130066 52.0
341.034973 116.0
408.171112 68.0
433.747162 68.0
451.601746 20.0
620.975952 184.0
714.372559 156.0
810.033386 188.0
889.792175 252.0
949.568298 44.0
954.364197 156.0
1000.424255 212.0
1003.965271 132.0
1005.428833 240.0
1009.901855 164.0
1027.108643 148.0
1043.206787 120.0
1052.929688 116.0
1091.621094 200.0
1104.765991 212.0
1111.318115 72.0
1117.570312 180.0
1131.505981 152.0
1137.485596 172.0
1138.539673 212.0
1156.757568 36.0
1171.663574 252.0
1172.460815 152.0
1184.718628 60.0
1195.642822 172.0
1198.838135 168.0
1201.520264 164.0
1214.892822 132.0
1217.155396 168.0
1223.739868 228.0
1226.561157 160.0
1231.717773 164.0
1235.50647 232.0
1239.273071 72.0
1246.317505 144.0
1255.419067 92.0
1256.420654 220.0
1258.502686 84.0
1258.566162 224.0
1288.574585 248.0
1301.186523 108.0
1301.918945 168.0
1306.583862 148.0
1313.701294 20.0
1317.043335 252.0
1327.327148 172.0
1339.973877 116.0
1351.297607 128.0
1352.841797 176.0
1360.289551 268.0
1361.111816 184.0
1363.727051 196.0
1364.145996 140.0
1377.018311 164.0
1377.838257 144.0
1383.177368 172.0
1431.415161 164.0
1435.770874 192.0
1441.183105 180.0
1443.201172 268.0
1444.138916 204.0
1455.696167 140.0
1458.408325 224.0
1462.264404 164.0
1466.224609 176.0
1467.207886 176.0
1473.8479 160.0
1477.158203 196.0
1479.859619 136.0
1484.073608 88.0
1491.258911 292.0
1498.245728 240.0
1498.75415 164.0
1501.244019 148.0
1502.755859 164.0
