>compound MLS001159203-01!
>formula C19H19N3O4
>ionization [M+H]+
>parentmass 354.143005
#inchi InChI=1S/C19H19N3O4/c23-17-6-2-5-16-14-7-12(10-22(16)17)9-21(11-14)19(26)20-15-4-1-3-13(8-15)18(24)25/h1-6,8,12,14H,7,9-11H2,(H,20,26)(H,24,25)/t12-,14+/m1/s1
#inchikey ONHACSZYTRSPKH
#Ion_Source LC-ESI
#Instrument qTof
#Compound_Source NIH Natural Product Library
#PI Dorrestein
#Data_Collector VVP/LMS
#Scan -1
#Precursor_MZ 354.145
#ExactMass 353.138
#Charge 1
#CAS_Number N/A
#Pubmed_ID N/A
#Smiles OC(=O)c1cccc(NC(=O)N2C[C@H]3C[C@@H](C2)c4cccc(=O)n4C3)c1
#INCHI_AUX N/A
#Library_Class 1
#SpectrumID CCMSLIB00000080009
#IonMode Positive
#UpdateWorkflowName UPDATE-SINGLE-ANNOTATED-GOLD
#LibraryQualityString Gold
#TaskID b1d8e8f6646f4e71acdff9ca3d919d08
##Scan# 1464
#SpectrumFile p2-H02_GH2_01_18062.mzXML
#LibraryName NIH_Natural_Products_Library.mgf
#MQScore -1
#Organism NIH_Natural_Products_Library
#TIC_Query 0
#RT_Query -1
#MZErrorPPM -1
#SharedPeaks 0
#MassDiff 0
#LibMZ -1
#SpecMZ 354.145
#SpecCharge 0
#internalFilename spec-00000.mgf

>collision 10
95.230667 192.0
95.360443 132.0
95.467369 200.0
95.589928 92.0
95.989265 136.0
96.008766 144.0
96.045822 204.0
96.061432 168.0
96.084839 232.0
96.250748 196.0
96.915802 156.0
97.278633 92.0
97.687386 120.0
98.2883 184.0
98.313957 108.0
98.353432 164.0
98.394882 188.0
98.661598 120.0
98.689278 72.0
98.827736 72.0
98.845543 124.0
98.940552 188.0
99.172539 184.0
99.257568 144.0
99.507576 216.0
100.163849 212.0
100.287392 84.0
100.397049 124.0
100.84227 180.0
100.908241 176.0
100.930229 188.0
101.066246 200.0
101.102272 184.0
101.222382 232.0
101.621269 152.0
101.998825 220.0
102.348892 172.0
102.610825 180.0
102.818596 160.0
102.996269 44.0
103.017448 180.0
103.056984 152.0
103.075066 140.0
103.307579 196.0
103.886963 220.0
104.044716 208.0
104.263771 112.0
104.502563 184.0
104.68576 168.0
104.737671 148.0
104.840584 220.0
105.044327 208.0
105.058952 340.0
105.238365 44.0
105.524414 200.0
105.681908 180.0
105.769905 140.0
106.065163 316.0
106.272003 152.0
106.510147 164.0
106.621101 264.0
106.711548 100.0
106.75473 172.0
107.009888 144.0
107.067444 160.0
107.296265 48.0
107.337509 148.0
107.622261 188.0
107.682152 240.0
108.043968 116.0
108.201187 132.0
108.36895 152.0
108.507812 160.0
109.05349 728.0
109.132774 140.0
109.25132 180.0
109.617775 248.0
109.680298 172.0
109.845032 212.0
110.141449 128.0
110.166519 168.0
110.21666 212.0
110.528221 120.0
111.232422 124.0
111.276505 100.0
111.417221 116.0
111.549622 52.0
111.635826 116.0
111.896744 96.0
111.985191 128.0
112.288696 144.0
112.353302 184.0
112.84407 168.0
112.894821 124.0
113.064064 236.0
113.110634 116.0
113.415657 144.0
114.173637 172.0
114.29702 92.0
114.712334 172.0
114.731522 180.0
115.054962 240.0
116.053391 196.0
116.565849 192.0
117.057663 332.0
117.143738 128.0
117.284683 196.0
117.310547 160.0
117.327797 40.0
117.53054 84.0
117.744255 112.0
117.917099 152.0
117.973297 72.0
118.029221 332.0
118.069008 184.0
118.09655 76.0
118.198235 156.0
118.3638 148.0
118.627068 140.0
119.032234 200.0
119.054512 104.0
119.341354 176.0
120.043648 1196.0
120.079079 152.0
120.645142 92.0
120.800407 156.0
121.0466 336.0
121.157249 156.0
121.376427 188.0
121.424675 124.0
121.479507 96.0
121.584831 156.0
121.626534 276.0
122.024757 472.0
122.063858 200.0
122.191315 140.0
122.490715 144.0
122.825775 120.0
122.925056 152.0
123.025368 168.0
123.395538 80.0
123.503899 244.0
123.576904 144.0
123.862488 208.0
124.053062 128.0
124.425774 196.0
124.525696 256.0
124.885765 168.0
125.030388 160.0
125.07045 172.0
125.261948 252.0
125.306503 48.0
125.415703 64.0
125.571777 72.0
125.792679 104.0
125.944527 252.0
126.051765 132.0
126.143402 200.0
126.419144 184.0
126.640419 148.0
126.803711 216.0
126.886658 56.0
127.053864 180.0
127.086273 132.0
127.742699 92.0
127.940331 224.0
128.043915 192.0
128.05899 360.0
128.684341 196.0
128.808548 204.0
129.073486 160.0
129.129517 136.0
129.292419 104.0
129.351257 144.0
129.435028 208.0
129.829346 156.0
130.024445 124.0
130.064209 464.0
130.11525 156.0
130.258316 156.0
130.526505 44.0
130.573181 200.0
130.60611 192.0
130.626572 132.0
130.956635 108.0
131.074493 492.0
131.227814 192.0
131.394318 156.0
131.862137 152.0
132.04451 2348.0
132.080399 668.0
132.386337 200.0
132.443604 148.0
132.58107 84.0
132.626907 168.0
133.000793 128.0
133.050217 1284.0
133.091095 156.0
133.299362 132.0
133.349915 112.0
133.547653 156.0
133.630478 60.0
134.058807 988.0
134.217819 96.0
134.314682 104.0
134.778732 200.0
134.910477 140.0
134.984467 132.0
135.06218 292.0
135.09317 148.0
135.287567 120.0
135.322296 32.0
135.482101 44.0
135.563187 156.0
135.690674 204.0
136.010818 84.0
136.04068 556.0
136.082138 216.0
136.245361 88.0
136.68248 228.0
136.752289 164.0
137.808701 244.0
138.398132 124.0
139.082687 64.0
140.268234 196.0
141.054306 280.0
141.371231 108.0
141.513519 112.0
141.534576 84.0
141.752502 260.0
142.044128 176.0
142.065903 812.0
142.188858 192.0
142.305176 88.0
142.564102 144.0
142.6259 168.0
142.720993 168.0
143.025513 204.0
143.068512 252.0
143.225525 148.0
143.792999 116.0
143.96489 64.0
143.995941 208.0
144.031769 72.0
144.083176 368.0
144.249222 80.0
144.354416 168.0
144.58168 244.0
144.957672 224.0
145.050842 260.0
145.089279 172.0
145.451736 188.0
145.478134 108.0
145.494949 192.0
145.545364 136.0
145.707321 252.0
145.857132 232.0
145.897263 148.0
145.914047 244.0
145.96347 144.0
145.990067 380.0
146.024094 27776.0
146.060242 6580.0
146.094559 496.0
146.12944 32.0
146.154922 88.0
146.16983 144.0
146.185715 72.0
146.192963 120.0
146.295502 60.0
146.543564 40.0
146.625504 48.0
146.666473 76.0
146.731567 192.0
146.828018 44.0
146.881088 120.0
146.95105 40.0
147.025284 1548.0
147.064499 1180.0
147.090164 80.0
147.117569 40.0
147.144135 48.0
147.165863 32.0
147.182755 36.0
147.231064 60.0
147.257629 84.0
147.318008 144.0
147.525848 132.0
147.547607 48.0
147.643661 44.0
147.660172 196.0
147.80072 160.0
147.828186 108.0
147.944366 56.0
148.029907 288.0
148.075592 2936.0
148.138092 56.0
148.173279 84.0
148.227737 104.0
148.400711 144.0
148.494415 100.0
148.528381 188.0
148.564758 64.0
148.591446 140.0
148.625412 56.0
148.707932 88.0
148.749191 100.0
148.846313 96.0
149.080444 388.0
149.315338 168.0
149.714462 56.0
149.853317 156.0
149.906921 76.0
150.077545 176.0
150.441071 156.0
150.67308 152.0
151.453445 164.0
151.487747 212.0
152.501175 188.0
153.769623 124.0
153.841202 268.0
154.066986 256.0
154.216675 48.0
154.696548 120.0
154.780731 120.0
155.074051 176.0
156.079559 328.0
156.812897 196.0
156.997391 64.0
157.057022 180.0
157.088333 244.0
157.134583 36.0
157.401657 40.0
157.761444 112.0
157.881454 136.0
158.059158 1740.0
158.241791 164.0
158.409592 108.0
158.484741 44.0
158.765503 148.0
159.067123 1112.0
159.242355 192.0
159.589157 184.0
159.787857 64.0
159.850754 148.0
159.918701 80.0
159.94136 200.0
159.986679 176.0
160.037033 188.0
160.075668 12164.0
160.170502 56.0
160.215851 180.0
160.271271 84.0
160.397293 112.0
160.485535 68.0
160.599014 116.0
160.732727 92.0
160.927689 168.0
161.005356 76.0
161.081741 2168.0
161.11145 88.0
161.141769 52.0
161.194824 108.0
161.212524 48.0
161.242844 68.0
161.442566 64.0
161.460266 88.0
161.498215 160.0
161.518448 60.0
161.652542 68.0
161.83226 96.0
161.966476 68.0
162.027283 68.0
162.087021 328.0
162.232559 64.0
162.265518 112.0
162.503937 60.0
163.019394 104.0
163.048889 232.0
163.096893 204.0
163.606949 64.0
163.734268 76.0
163.757187 184.0
164.033768 140.0
164.320572 196.0
164.721375 116.0
165.058746 176.0
165.099655 180.0
165.196854 156.0
165.245453 108.0
166.157562 128.0
167.816483 168.0
168.249939 212.0
169.431839 144.0
169.98671 120.0
170.069763 152.0
170.685486 160.0
170.872757 128.0
171.057526 200.0
171.091583 188.0
171.482101 120.0
171.701111 204.0
171.72197 168.0
171.763702 116.0
172.047943 196.0
172.075623 2284.0
172.54454 164.0
172.651749 204.0
173.00499 172.0
173.044266 100.0
173.078217 324.0
173.107101 184.0
173.185669 140.0
173.366455 68.0
173.395279 52.0
173.793884 112.0
174.022232 208.0
174.049194 284.0
174.090683 6552.0
174.136093 240.0
174.199585 76.0
174.26387 40.0
174.32431 84.0
174.345337 72.0
174.489914 64.0
174.58194 160.0
174.721344 60.0
174.842392 52.0
174.934509 44.0
175.018768 104.0
175.058258 216.0
175.093079 608.0
176.015503 212.0
176.038162 48.0
176.098358 300.0
176.327225 52.0
176.956818 56.0
177.04155 108.0
177.073334 208.0
177.611389 172.0
179.075943 136.0
179.123886 132.0
180.372726 132.0
180.955933 116.0
181.950607 56.0
182.060699 104.0
183.15538 88.0
184.060547 204.0
184.848175 56.0
185.070129 192.0
185.60936 64.0
185.801926 180.0
187.087067 160.0
187.416962 64.0
187.850449 128.0
187.940475 120.0
188.070404 720.0
188.580383 188.0
188.705261 88.0
189.102264 5832.0
189.145721 96.0
189.745667 60.0
189.973282 92.0
190.077545 160.0
190.10762 1092.0
190.187332 76.0
190.55806 220.0
190.764175 40.0
191.119019 912.0
191.175476 188.0
191.424515 76.0
191.567734 72.0
192.120895 328.0
192.651901 100.0
192.991852 96.0
193.127777 132.0
193.434509 148.0
194.52948 108.0
194.659973 152.0
194.882187 228.0
195.048935 196.0
195.801346 200.0
195.886536 136.0
196.025833 104.0
196.569611 68.0
196.625427 72.0
196.653336 124.0
199.083267 196.0
200.076065 240.0
200.101395 32.0
200.154892 80.0
200.298538 64.0
201.392975 76.0
201.489014 168.0
201.554001 36.0
201.686829 68.0
201.893219 188.0
201.92717 44.0
202.077087 124.0
202.300674 168.0
202.906937 36.0
203.074249 76.0
203.199066 124.0
203.392044 80.0
203.656113 148.0
203.738495 72.0
203.937408 60.0
204.68277 176.0
205.158585 160.0
205.381012 44.0
206.575043 132.0
208.950455 120.0
209.07132 180.0
209.529144 260.0
211.264236 76.0
211.319199 176.0
211.843216 72.0
212.147507 72.0
212.631912 156.0
212.928055 168.0
213.820602 60.0
214.190384 208.0
214.706284 176.0
215.088501 172.0
215.789642 48.0
216.058716 164.0
216.644226 156.0
216.805374 72.0
216.858139 36.0
216.987122 168.0
217.097336 11596.0
217.16893 56.0
217.315613 112.0
217.444733 52.0
217.685287 68.0
217.717773 72.0
217.800003 60.0
217.952774 92.0
218.098297 1440.0
218.184967 44.0
218.358459 92.0
218.417282 128.0
218.735077 56.0
218.785126 52.0
218.958862 64.0
219.017761 60.0
219.104996 124.0
219.212219 84.0
219.238739 136.0
219.580734 76.0
219.607269 136.0
219.698715 196.0
219.787231 128.0
219.816742 76.0
220.747269 104.0
220.930649 148.0
221.108185 116.0
221.422012 116.0
224.6978 176.0
224.799255 136.0
224.855957 92.0
224.909683 276.0
224.945511 84.0
225.554886 164.0
226.596329 36.0
227.072876 148.0
228.076324 184.0
228.445663 52.0
229.080856 180.0
229.101944 88.0
232.263962 104.0
233.190048 108.0
233.606628 164.0
233.987045 72.0
235.106888 548.0
235.352982 60.0
235.429321 36.0
236.107788 156.0
236.707596 104.0
237.041489 124.0
237.06601 124.0
237.098557 180.0
238.053818 352.0
238.075302 160.0
238.926743 48.0
239.080704 316.0
239.17601 96.0
240.001648 128.0
240.083496 164.0
240.115753 56.0
241.570587 60.0
244.611725 140.0
244.935577 232.0
245.415512 92.0
245.708694 140.0
246.09259 180.0
246.520538 156.0
247.355621 164.0
248.942093 44.0
249.036316 40.0
250.354111 128.0
250.713242 248.0
251.088409 212.0
252.452728 76.0
254.103027 156.0
255.097061 128.0
258.119568 120.0
259.393829 124.0
259.442749 76.0
259.538086 184.0
259.640717 60.0
261.642578 40.0
264.871948 112.0
265.127899 160.0
265.319153 112.0
265.941956 176.0
267.567352 80.0
269.939453 136.0
270.58078 84.0
270.829651 172.0
271.078644 56.0
274.385315 152.0
276.284332 144.0
276.936432 172.0
278.143402 112.0
279.106537 396.0
280.12207 112.0
280.331848 28.0
284.539734 80.0
292.303864 72.0
293.083618 128.0
294.219391 152.0
295.511292 192.0
296.278198 72.0
296.422119 64.0
298.81192 28.0
301.118073 116.0
303.169647 132.0
303.36026 184.0
304.783264 112.0
305.134308 48.0
305.586456 64.0
305.739563 40.0
305.767395 212.0
308.089691 132.0
308.142548 400.0
309.089661 44.0
309.136322 224.0
309.930023 92.0
311.610687 132.0
311.919952 156.0
313.584869 144.0
313.824585 216.0
314.498383 100.0
315.826935 104.0
320.124939 148.0
322.182983 188.0
323.77832 192.0
324.086395 68.0
324.42688 104.0
327.052765 160.0
328.144318 204.0
328.191193 128.0
329.696472 156.0
329.826599 140.0
330.394348 184.0
330.539062 152.0
333.46933 48.0
334.178467 88.0
334.484161 92.0
334.593384 36.0
334.968475 112.0
335.307343 256.0
335.568085 64.0
335.952728 240.0
335.985565 76.0
336.049377 152.0
336.135376 18056.0
336.226379 64.0
336.325195 56.0
336.43811 44.0
336.518433 72.0
336.631622 68.0
336.770386 80.0
336.841736 108.0
336.883636 68.0
336.938446 36.0
336.965302 56.0
337.022461 60.0
337.136993 3472.0
337.31485 28.0
337.493561 68.0
337.669525 76.0
337.724396 68.0
337.826813 72.0
337.917328 216.0
337.946625 96.0
338.138916 424.0
338.183136 84.0
338.22934 44.0
338.287903 96.0
338.339142 96.0
338.416046 60.0
338.51123 44.0
338.555176 88.0
338.646759 60.0
339.003845 76.0
339.141388 60.0
339.167053 116.0
339.237762 116.0
339.277039 76.0
339.321014 68.0
339.447144 132.0
339.486023 72.0
339.537354 100.0
339.563049 56.0
339.629059 108.0
339.658417 52.0
340.0914 152.0
340.289612 96.0
340.858948 48.0
341.391968 124.0
341.557495 108.0
342.010071 36.0
344.026459 92.0
348.667664 100.0
348.764282 132.0
349.489471 96.0
354.02121 92.0
354.143005 520.0
354.931793 56.0
355.15448 276.0
355.261841 64.0
358.318329 112.0
363.737579 80.0
365.77887 104.0
368.150391 84.0
375.245392 84.0
378.018768 20.0
387.672729 140.0
393.083801 88.0
394.173676 68.0
394.924835 52.0
406.209778 72.0
408.053101 148.0
420.832397 104.0
422.119507 92.0
423.081024 56.0
433.945496 52.0
438.049469 20.0
438.905945 52.0
442.913849 80.0
474.925568 92.0
497.823761 112.0
501.173309 44.0
510.983337 72.0
530.416382 60.0
539.388 108.0
544.294312 56.0
556.683105 80.0
557.242065 128.0
580.449036 120.0
592.54248 96.0
594.42865 44.0
600.841553 20.0
621.343079 104.0
625.920776 64.0
636.55188 32.0
658.894714 76.0
708.291687 128.0
727.000732 100.0
728.573975 72.0
752.027161 56.0
772.070007 52.0
777.610229 108.0
821.26416 212.0
867.264526 60.0
922.722229 60.0
923.320862 80.0
961.957092 168.0
981.219849 156.0
984.189697 56.0
989.416565 124.0
999.937073 192.0
1000.516174 204.0
1015.701538 144.0
1023.410278 144.0
1041.778442 32.0
1053.134888 48.0
1069.467773 80.0
1078.168213 120.0
1080.574585 52.0
1087.789917 184.0
1090.528931 172.0
1098.905396 164.0
1102.206787 192.0
1103.204712 36.0
1104.699219 72.0
1105.466797 164.0
1126.015991 176.0
1127.165039 140.0
1129.525024 140.0
1131.492554 68.0
1135.412476 68.0
1145.730347 152.0
1145.817871 68.0
1151.193726 168.0
1151.970459 176.0
1158.749146 220.0
1165.350586 136.0
1172.352539 132.0
1176.997925 200.0
1184.192139 248.0
1189.060059 152.0
1189.245361 156.0
1196.394287 172.0
1214.172974 200.0
1219.129761 160.0
1224.263794 136.0
1233.082031 204.0
1237.223022 200.0
1247.11377 164.0
1253.067139 192.0
1260.299072 216.0
1260.765381 160.0
1262.957153 192.0
1265.929688 80.0
1269.74231 112.0
1275.63562 52.0
1290.249878 204.0
1300.285278 152.0
1307.335327 156.0
1307.961548 144.0
1316.468994 84.0
1322.281494 124.0
1325.149048 228.0
1331.590576 132.0
1331.699585 68.0
1335.697266 156.0
1336.664917 124.0
1337.894897 176.0
1340.648193 268.0
1344.060791 136.0
1345.593628 180.0
1350.431152 196.0
1354.96228 136.0
1355.27002 136.0
1362.298462 152.0
1368.822144 60.0
1369.403931 144.0
1372.875244 112.0
1373.133301 108.0
1377.251831 136.0
1379.217163 156.0
1379.468506 140.0
1383.951904 40.0
1398.174683 128.0
1401.980225 208.0
1406.05957 156.0
1408.867188 148.0
1409.801147 124.0
1410.660645 172.0
1411.311035 180.0
1413.996582 152.0
1414.423218 156.0
1415.508789 176.0
1417.021851 168.0
1417.726196 220.0
1419.982788 192.0
1420.110229 80.0
1426.049194 168.0
1429.486084 172.0
1431.985474 200.0
1436.538208 168.0
1440.002808 136.0
1441.03772 128.0
1441.113281 136.0
1441.347412 204.0
1442.556641 80.0
1443.819336 200.0
1448.277222 168.0
1449.496948 76.0
1452.787476 128.0
1462.095337 152.0
1464.120361 156.0
1465.651489 244.0
1467.892578 152.0
1473.120605 104.0
1475.642578 224.0
1478.09021 196.0
1478.755981 168.0
1479.988403 108.0
1483.091064 196.0
1484.547729 40.0
1487.524658 148.0
1488.730103 152.0
1489.26001 180.0
1491.357544 180.0
1492.772217 128.0
1494.487427 92.0
1497.90564 52.0
1498.884155 176.0
1499.361938 152.0
1501.582275 168.0
1501.836792 140.0
1501.998779 172.0
