>compound MLS002695995-01!
>formula C10H12O4
>ionization [M+H]+
>parentmass 197.081
#inchi InChI=1S/C10H12O4/c1-3-14-10(13)9-6(2)4-7(11)5-8(9)12/h4-5,11-12H,3H2,1-2H3
#inchikey UQSRXQMIXSZGLA
#Ion_Source LC-ESI
#Instrument qTof
#Compound_Source NIH Natural Product Library
#PI Dorrestein
#Data_Collector VVP/LMS
#Scan -1
#Precursor_MZ 197.081
#ExactMass 196.074
#Charge 1
#CAS_Number N/A
#Pubmed_ID N/A
#Smiles CCOC(=O)c1c(C)cc(O)cc1O
#INCHI_AUX N/A
#Library_Class 1
#SpectrumID CCMSLIB00000080001
#IonMode Positive
#UpdateWorkflowName UPDATE-SINGLE-ANNOTATED-GOLD
#LibraryQualityString Gold
#TaskID b1d8e8f6646f4e71acdff9ca3d919d08
##Scan# 2015
#SpectrumFile p2-G02_GG2_01_18050.mzXML
#LibraryName NIH_Natural_Products_Library.mgf
#MQScore -1
#Organism NIH_Natural_Products_Library
#TIC_Query 0
#RT_Query -1
#MZErrorPPM -1
#SharedPeaks 0
#MassDiff 0
#LibMZ -1
#SpecMZ 197.081
#SpecCharge 0
#internalFilename spec-00000.mgf

>collision 10
95.050842 208.0
97.988197 168.0
103.693909 164.0
104.935959 64.0
105.084854 172.0
105.931244 176.0
107.403061 144.0
108.78952 168.0
110.034492 164.0
111.036827 224.0
111.803665 152.0
114.437035 212.0
114.462585 192.0
114.837669 168.0
116.0009 152.0
116.228241 132.0
117.331627 120.0
117.726494 156.0
120.708054 216.0
120.958649 240.0
122.061035 144.0
123.044319 732.0
123.123238 80.0
124.010437 80.0
124.047653 312.0
124.27877 156.0
124.794075 60.0
128.654465 176.0
129.187805 28.0
132.942871 160.0
134.092789 192.0
135.090302 84.0
138.034866 196.0
138.845139 112.0
138.953049 176.0
142.34021 232.0
142.58252 240.0
143.086807 116.0
144.332306 136.0
146.993866 204.0
148.610245 140.0
148.988998 116.0
150.030609 196.0
150.306229 156.0
150.412231 176.0
150.50882 88.0
150.757202 124.0
150.887543 40.0
150.968231 48.0
150.987793 192.0
151.039719 9980.0
151.123459 76.0
151.215332 80.0
151.401398 48.0
151.455276 56.0
151.474869 40.0
151.509171 76.0
151.550827 48.0
151.626785 76.0
151.923492 52.0
152.01918 200.0
152.043121 1328.0
152.193466 56.0
152.262222 76.0
152.39241 76.0
152.885818 196.0
152.982666 80.0
153.022064 104.0
153.040451 176.0
153.118103 124.0
153.428574 68.0
154.263 84.0
154.314926 72.0
154.352005 132.0
156.964325 152.0
157.031662 156.0
157.955841 156.0
159.196503 104.0
163.140732 64.0
165.155243 108.0
166.475159 36.0
169.042831 144.0
170.11319 48.0
174.973282 128.0
177.992828 176.0
181.075699 80.0
183.084595 172.0
187.14653 84.0
194.406555 104.0
224.620804 20.0
241.01619 76.0
441.823608 64.0
455.597076 92.0
929.520386 124.0
1092.951172 132.0
1123.962036 240.0
1137.695923 80.0
1153.249512 156.0
1170.978394 48.0
1201.792603 180.0
1206.171021 244.0
1210.377441 216.0
1216.67981 132.0
1232.091797 160.0
1234.384277 108.0
1234.957764 160.0
1237.210938 92.0
1242.33374 128.0
1244.200439 176.0
1245.012695 264.0
1247.221069 176.0
1323.738403 164.0
1326.643799 120.0
1328.340698 188.0
1344.785034 148.0
1357.148193 188.0
1357.580811 108.0
1363.453735 52.0
1364.865234 196.0
1376.190063 164.0
1418.469849 200.0
1433.094482 72.0
1467.871216 216.0
1477.793335 148.0
1487.28064 200.0
