>compound MLS002154163-01!Azaperone1649-18-9
>formula C19H22FN3O
>ionization [M+H]+
>parentmass 328.180603
#inchi InChI=1S/C19H22FN3O/c20-17-8-6-16(7-9-17)18(24)4-3-11-22-12-14-23(15-13-22)19-5-1-2-10-21-19/h1-2,5-10H,3-4,11-15H2
#inchikey XTKDAFGWCDAMPY
#Ion_Source LC-ESI
#Instrument qTof
#Compound_Source NIH Pharmacologically Active Library
#PI Dorrestein
#Data_Collector VP/LMS
#Scan -1
#Precursor_MZ 328.186
#ExactMass 327.175
#Charge 1
#CAS_Number N/A
#Pubmed_ID N/A
#Smiles Fc1ccc(cc1)C(=O)CCCN2CCN(CC2)c3ccccn3
#INCHI_AUX N/A
#Library_Class 1
#SpectrumID CCMSLIB00000085692
#IonMode Positive
#UpdateWorkflowName UPDATE-SINGLE-ANNOTATED-GOLD
#LibraryQualityString Gold
#TaskID d252d724072548979f1f6f1ced849daf
##Scan# 1278
#SpectrumFile p4-E04_GE4_01_18376.mzXML
#LibraryName Pharm_Active_Library.mgf
#MQScore -1
#Organism Pharm_Active_Library
#TIC_Query 0
#RT_Query -1
#MZErrorPPM -1
#SharedPeaks 0
#MassDiff 0
#LibMZ -1
#SpecMZ 328.186
#SpecCharge 0
#internalFilename spec-00000.mgf

>collision 10
45.036278 160.0
45.147209 152.0
45.180649 156.0
45.216782 160.0
45.260643 188.0
45.264938 144.0
45.267944 184.0
45.283722 164.0
45.462036 160.0
45.483509 64.0
45.538563 140.0
45.588272 120.0
45.615154 56.0
45.66087 128.0
45.678356 200.0
45.769875 96.0
45.803543 228.0
45.900917 208.0
45.986923 196.0
46.027424 176.0
46.135513 220.0
46.147682 228.0
46.173374 200.0
46.234257 124.0
46.259972 164.0
46.42799 160.0
46.452404 196.0
46.489037 156.0
46.503967 136.0
46.516182 212.0
46.531116 104.0
46.72411 164.0
46.827564 188.0
46.841183 196.0
46.901142 148.0
46.962498 348.0
46.984325 124.0
47.003429 112.0
47.041645 164.0
47.063488 64.0
47.12632 128.0
47.154659 184.0
47.167316 184.0
47.321911 56.0
47.391762 84.0
47.431507 96.0
47.502384 204.0
47.53437 164.0
47.631851 96.0
47.767941 96.0
47.818851 144.0
47.835369 184.0
47.860149 124.0
47.871166 152.0
48.068295 132.0
48.087833 176.0
48.152508 184.0
48.195332 84.0
48.438828 164.0
48.589939 212.0
49.008442 328.0
49.226051 200.0
49.252586 172.0
49.287514 164.0
49.350414 144.0
49.420349 104.0
49.432941 160.0
49.460934 184.0
49.672527 52.0
49.771111 148.0
49.871922 196.0
49.956291 104.0
50.130882 212.0
50.267673 236.0
50.295898 220.0
50.413124 208.0
50.487823 124.0
50.604088 148.0
50.656487 180.0
50.707497 160.0
50.835136 240.0
51.056755 160.0
51.117928 88.0
51.130737 216.0
51.181984 168.0
51.200497 200.0
51.231834 144.0
51.254631 124.0
51.391518 140.0
51.437187 260.0
51.521442 244.0
51.651527 172.0
51.683002 188.0
51.700176 88.0
51.728802 112.0
51.771755 180.0
51.813297 180.0
51.826191 116.0
51.893559 176.0
51.950924 160.0
51.960968 256.0
51.978184 104.0
52.068626 128.0
52.262695 80.0
52.380749 128.0
52.438385 176.0
52.631699 112.0
52.668427 232.0
52.685139 204.0
52.738605 232.0
52.75037 172.0
52.893379 72.0
52.957088 168.0
53.000549 100.0
53.087524 136.0
53.225384 48.0
53.270409 64.0
53.302372 136.0
53.538036 188.0
53.554058 168.0
53.664814 148.0
53.715858 168.0
53.78149 184.0
53.799038 176.0
53.809258 196.0
53.848686 96.0
53.896893 40.0
53.934891 184.0
53.948048 200.0
54.008003 168.0
54.30534 148.0
54.387508 160.0
54.453583 188.0
54.600555 112.0
54.628502 148.0
54.688831 144.0
54.917213 88.0
55.021988 188.0
55.032322 368.0
55.050041 44.0
55.066288 68.0
55.078106 160.0
55.11504 156.0
55.132771 152.0
55.231834 192.0
55.253963 200.0
55.304337 304.0
55.335426 144.0
55.454594 252.0
55.547348 192.0
55.582958 320.0
55.621544 52.0
55.645298 184.0
55.662258 228.0
55.704704 156.0
55.726986 148.0
55.875668 84.0
55.985817 172.0
56.017097 60.0
56.063286 164.0
56.127384 152.0
56.213905 56.0
56.305183 168.0
56.366219 68.0
56.569836 144.0
56.610054 196.0
56.620537 176.0
56.637012 148.0
56.652809 184.0
56.719429 200.0
56.965527 156.0
57.004589 152.0
57.068142 168.0
57.201618 160.0
57.216675 212.0
57.336533 144.0
57.5061 160.0
57.574039 148.0
57.617847 136.0
57.639 44.0
57.747849 132.0
57.850746 184.0
57.937065 216.0
57.961308 184.0
57.984039 228.0
57.994648 152.0
58.062878 184.0
58.147839 252.0
58.246532 176.0
58.304272 148.0
58.352913 72.0
58.395493 116.0
58.459393 224.0
58.634529 132.0
58.666538 48.0
58.71262 180.0
58.756519 164.0
58.79314 232.0
58.809929 44.0
58.849621 112.0
58.906128 184.0
59.089581 164.0
59.107944 188.0
59.1367 164.0
59.326965 232.0
59.469624 56.0
59.510406 248.0
59.569435 168.0
59.587868 168.0
59.62936 36.0
59.657028 184.0
59.73595 112.0
59.849346 180.0
59.947933 124.0
60.103516 152.0
60.1577 100.0
60.190121 244.0
60.237999 124.0
60.335358 188.0
60.412685 152.0
60.431252 120.0
60.449818 160.0
60.480774 196.0
60.548897 164.0
60.63876 188.0
60.654259 140.0
60.765919 188.0
60.786091 108.0
60.928936 148.0
61.129517 204.0
61.183994 160.0
61.236938 120.0
61.260303 196.0
61.327309 184.0
61.514492 56.0
61.556648 164.0
61.59882 124.0
61.617565 220.0
61.786415 248.0
61.894413 196.0
61.919468 192.0
61.991535 224.0
62.014763 180.0
62.074619 120.0
62.157757 148.0
62.277073 180.0
62.360348 176.0
62.498737 180.0
62.513577 212.0
62.527065 132.0
62.542805 116.0
62.567368 208.0
62.64201 152.0
62.921146 156.0
63.031712 216.0
63.159771 220.0
63.235718 176.0
63.31488 144.0
63.346558 108.0
63.397263 180.0
63.472794 136.0
63.503487 204.0
63.544731 140.0
63.640812 92.0
63.687603 176.0
63.724144 164.0
63.860855 220.0
63.916538 168.0
63.927677 136.0
64.149071 140.0
64.244751 48.0
64.311775 168.0
64.380737 124.0
64.442726 140.0
64.724243 136.0
64.892479 160.0
65.065758 136.0
65.166939 136.0
65.189438 156.0
65.205505 192.0
65.29715 136.0
65.454865 120.0
65.567635 88.0
65.581306 148.0
65.590805 116.0
65.674042 200.0
65.691788 200.0
65.719215 176.0
65.772469 228.0
65.814445 116.0
65.86451 204.0
66.003502 240.0
66.039078 216.0
66.095703 188.0
66.221977 96.0
66.284462 176.0
66.343506 192.0
66.5317 112.0
66.617767 104.0
66.765221 212.0
66.820992 200.0
66.887711 124.0
66.985413 160.0
67.083191 128.0
67.107643 176.0
67.182671 152.0
67.212036 132.0
67.249573 52.0
67.290092 156.0
67.31324 140.0
67.331207 192.0
67.609131 152.0
67.628777 144.0
67.69754 164.0
67.822052 216.0
67.836807 164.0
67.848282 152.0
67.99263 184.0
68.00412 164.0
68.109207 172.0
68.204506 116.0
68.260406 76.0
68.36898 136.0
68.467766 160.0
68.616028 172.0
68.647392 184.0
68.797539 124.0
68.835518 280.0
68.88176 40.0
69.027206 232.0
69.136391 160.0
69.147972 168.0
69.194321 96.0
69.237373 168.0
69.295357 156.0
69.431763 136.0
69.517548 208.0
69.530823 168.0
69.586128 164.0
69.635422 156.0
69.684845 176.0
69.750069 224.0
69.779991 88.0
70.072922 204.0
70.301369 156.0
70.333076 164.0
70.359787 184.0
70.413223 216.0
70.697433 132.0
70.868233 216.0
70.879967 144.0
70.933594 152.0
71.009048 144.0
71.08622 44.0
71.109718 136.0
71.141609 156.0
71.165924 224.0
71.306221 156.0
71.42392 204.0
71.442429 172.0
71.486176 216.0
71.560234 192.0
71.615807 224.0
71.740509 156.0
71.760735 216.0
71.968269 192.0
72.127144 208.0
72.206543 160.0
72.262367 208.0
72.314827 164.0
72.562149 152.0
72.597763 212.0
72.864258 148.0
73.01384 196.0
73.064491 196.0
73.097198 232.0
73.138046 144.0
73.207848 152.0
73.257248 128.0
73.299843 204.0
73.422585 144.0
73.454987 136.0
73.514709 208.0
73.612015 212.0
73.632507 140.0
73.663246 104.0
73.702545 140.0
73.733307 140.0
73.76236 176.0
73.782875 204.0
74.150909 152.0
74.193977 216.0
74.242889 172.0
74.293228 144.0
74.396202 164.0
74.420235 156.0
74.511261 208.0
74.743385 136.0
74.978401 236.0
74.99482 104.0
75.094826 148.0
75.163834 88.0
75.251862 152.0
75.265678 200.0
75.336487 184.0
75.530098 108.0
75.594116 164.0
75.607956 156.0
75.663353 208.0
75.708366 84.0
75.758598 148.0
75.786324 76.0
75.80838 208.0
75.871246 184.0
76.023888 156.0
76.058601 128.0
76.124573 92.0
76.150627 216.0
76.475761 128.0
76.56282 160.0
76.760338 268.0
76.808571 196.0
76.836487 156.0
76.890579 172.0
76.92025 60.0
77.168327 136.0
77.422058 220.0
77.444824 160.0
77.465851 220.0
77.655159 180.0
77.754463 200.0
77.785004 52.0
77.804314 228.0
77.842941 52.0
77.969429 160.0
78.013374 180.0
78.175186 180.0
78.434097 32.0
78.478165 124.0
78.56459 132.0
78.608696 188.0
78.672241 140.0
78.802933 116.0
78.857712 168.0
78.884232 124.0
79.011559 188.0
79.481087 176.0
79.559181 212.0
79.605347 136.0
79.749252 164.0
79.875504 32.0
79.89151 132.0
79.928749 172.0
80.06472 168.0
80.247711 164.0
80.301208 192.0
80.333313 80.0
80.377914 76.0
80.581467 184.0
80.704796 164.0
80.890862 168.0
81.145256 152.0
81.568932 84.0
81.628265 68.0
81.68042 160.0
81.860634 156.0
81.88382 136.0
81.95948 176.0
82.026161 152.0
82.112709 240.0
82.260666 244.0
82.273308 76.0
82.414185 144.0
82.448517 184.0
82.461166 200.0
82.670959 160.0
82.908195 164.0
82.920883 212.0
83.212944 208.0
83.369156 152.0
83.420052 68.0
83.447319 168.0
83.523132 176.0
83.629234 128.0
83.753052 124.0
83.968124 160.0
83.996452 180.0
84.01738 232.0
84.112274 176.0
84.148781 68.0
84.243752 168.0
84.322319 152.0
84.389961 116.0
84.424706 120.0
84.536293 172.0
84.669937 152.0
84.729851 192.0
84.748711 148.0
84.81102 164.0
84.888023 180.0
84.941208 188.0
85.143112 152.0
85.227608 164.0
85.284584 64.0
85.3339 164.0
85.419167 188.0
85.553154 236.0
85.597343 32.0
85.763153 152.0
86.050934 204.0
86.365051 184.0
86.403938 152.0
86.446503 124.0
86.4991 188.0
86.670563 228.0
86.766945 136.0
86.848534 112.0
86.881927 188.0
86.900482 212.0
86.92646 168.0
86.943161 140.0
86.97657 92.0
87.112122 108.0
87.175293 92.0
87.221764 144.0
87.305428 156.0
87.351929 140.0
87.444962 160.0
87.469162 112.0
87.69268 228.0
87.737419 156.0
87.957542 152.0
87.99675 44.0
88.097603 148.0
88.164864 128.0
88.210915 188.0
88.383659 180.0
88.507195 168.0
88.540909 132.0
88.700165 48.0
88.891472 160.0
88.930885 132.0
89.261536 180.0
89.470383 180.0
89.549477 208.0
89.849197 148.0
89.996414 172.0
90.01152 176.0
90.041565 176.0
90.075737 236.0
90.245827 52.0
90.351738 228.0
90.375511 160.0
90.452034 176.0
90.569435 232.0
90.675545 164.0
90.787399 88.0
90.859474 156.0
90.963852 140.0
91.049294 120.0
91.111977 180.0
91.340103 208.0
91.383858 184.0
91.450462 208.0
91.494247 124.0
91.684723 176.0
91.856331 124.0
91.90593 52.0
91.972725 188.0
92.060555 152.0
92.073921 72.0
92.146507 144.0
92.270737 156.0
92.402702 140.0
92.636932 208.0
92.674583 160.0
92.768494 144.0
92.935349 204.0
92.977242 212.0
93.031311 168.0
93.055061 228.0
93.217621 184.0
93.232994 184.0
93.282967 76.0
93.438744 68.0
93.683243 172.0
93.777664 128.0
93.852844 92.0
94.064888 772.0
94.134575 68.0
94.157753 180.0
94.207893 196.0
94.246613 236.0
94.271736 172.0
94.341316 216.0
94.422531 116.0
94.507645 140.0
94.604416 124.0
94.905647 188.0
94.94738 80.0
95.029045 2292.0
95.06028 716.0
95.129768 252.0
95.156952 36.0
95.221031 116.0
95.252113 128.0
95.440628 72.0
95.502861 200.0
95.584572 112.0
95.621544 52.0
95.691628 124.0
95.851349 128.0
95.939056 164.0
96.029778 172.0
96.100929 112.0
96.151665 148.0
96.387962 164.0
96.552177 180.0
96.577599 152.0
96.593254 120.0
96.753723 184.0
96.809242 180.0
96.825226 132.0
97.116249 112.0
97.188835 176.0
97.253593 56.0
97.288933 44.0
97.491241 188.0
97.549271 244.0
97.597389 124.0
97.621307 148.0
97.648521 196.0
97.788216 172.0
97.809868 156.0
98.016663 324.0
98.097466 100.0
98.121124 180.0
98.223671 152.0
98.304565 56.0
98.324303 164.0
98.357857 160.0
98.523735 52.0
98.537567 124.0
98.57708 160.0
98.640327 164.0
98.796555 108.0
98.964783 192.0
99.026138 220.0
99.127213 80.0
99.154961 196.0
99.172798 144.0
99.234253 64.0
99.384995 108.0
99.436592 140.0
99.541145 216.0
99.641121 216.0
99.71862 128.0
99.829956 92.0
99.863998 168.0
99.907524 140.0
99.931396 228.0
99.971199 168.0
100.214134 116.0
100.240036 152.0
100.3078 160.0
100.459351 128.0
100.517212 236.0
100.549149 204.0
100.702881 172.0
100.724854 200.0
100.764809 196.0
100.816757 188.0
100.88472 200.0
101.005783 232.0
101.020706 196.0
101.164787 140.0
101.248886 188.0
101.282936 152.0
101.423203 220.0
101.531471 56.0
101.559547 160.0
101.585625 148.0
101.808418 240.0
101.842567 96.0
101.897621 220.0
101.930962 212.0
101.979195 108.0
102.017387 168.0
102.057594 164.0
102.240654 180.0
102.272858 88.0
102.288963 176.0
102.403732 112.0
102.460136 108.0
102.480286 204.0
102.544769 164.0
102.821083 104.0
102.847321 48.0
102.873558 172.0
103.122017 184.0
103.719124 88.0
103.783997 256.0
103.836723 192.0
103.879318 164.0
103.964539 176.0
103.984833 188.0
104.048622 536.0
104.1754 116.0
104.240715 120.0
104.279335 184.0
104.393181 144.0
104.480972 124.0
104.570946 160.0
104.586464 124.0
104.659752 188.0
104.686226 144.0
104.822708 240.0
104.93074 132.0
105.041916 472.0
105.067383 80.0
105.153091 180.0
105.181664 144.0
105.316429 76.0
105.432892 160.0
105.602585 148.0
105.782646 88.0
105.825645 160.0
106.057922 104.0
106.206818 148.0
106.518829 172.0
106.623619 136.0
106.695564 104.0
106.814835 240.0
106.905365 172.0
106.940353 192.0
107.059479 144.0
107.162758 156.0
107.288483 148.0
107.488548 160.0
107.701195 204.0
107.71772 200.0
107.965752 136.0
108.162308 260.0
108.20578 112.0
108.261688 204.0
108.29483 184.0
108.350754 116.0
108.394272 200.0
108.435715 148.0
108.50412 100.0
108.626976 252.0
108.898399 176.0
109.042831 1048.0
109.058388 164.0
109.075012 176.0
109.126991 180.0
109.47657 176.0
109.574471 132.0
109.866348 148.0
109.92894 72.0
109.972771 64.0
110.022865 180.0
110.164879 172.0
110.319519 204.0
110.612389 76.0
110.691948 120.0
110.79039 352.0
110.817627 200.0
111.02195 228.0
111.073395 96.0
111.182495 72.0
111.264542 140.0
111.363052 196.0
111.422859 136.0
111.636276 144.0
111.819305 192.0
111.935089 132.0
111.956154 140.0
112.002487 164.0
112.021027 120.0
112.162628 136.0
112.179497 132.0
112.211121 204.0
112.282814 48.0
112.324997 156.0
112.377739 236.0
112.569824 228.0
112.58461 100.0
112.605728 196.0
113.041687 224.0
113.085678 188.0
113.176704 148.0
113.240242 200.0
113.445778 152.0
113.617561 140.0
113.81282 116.0
114.040138 172.0
114.086899 212.0
114.103905 152.0
114.14431 180.0
114.214493 176.0
114.340027 216.0
114.427299 140.0
114.450722 192.0
114.546562 232.0
114.738358 220.0
114.757545 204.0
114.785263 92.0
114.940987 180.0
114.968727 212.0
115.009277 100.0
115.032761 136.0
115.182236 260.0
115.227097 180.0
115.39167 220.0
115.515709 140.0
115.763985 204.0
115.783257 168.0
115.91394 36.0
116.106873 188.0
116.158356 228.0
116.224861 124.0
116.293533 212.0
116.49968 172.0
116.521591 180.0
116.564133 156.0
116.615715 196.0
116.946945 164.0
117.020142 132.0
117.058899 200.0
117.121353 176.0
117.140739 176.0
117.173058 224.0
117.368713 196.0
117.481354 176.0
117.641045 152.0
117.7677 228.0
117.828934 152.0
117.932663 144.0
118.053734 180.0
118.172699 56.0
118.350189 196.0
118.689384 156.0
118.787979 212.0
118.805328 192.0
119.058754 1368.0
119.320038 332.0
119.4179 184.0
119.607201 144.0
119.65509 104.0
119.694283 236.0
119.777046 56.0
119.957909 160.0
120.027679 144.0
120.066612 464.0
120.10183 36.0
120.117775 80.0
120.21814 168.0
120.232735 132.0
120.274208 168.0
120.545029 164.0
120.623711 116.0
120.829079 180.0
120.877502 196.0
120.929939 156.0
120.968636 212.0
121.048607 136.0
121.076065 36992.0
121.099564 464.0
121.157333 464.0
121.174377 96.0
121.227791 68.0
121.273056 220.0
121.331749 84.0
121.347771 76.0
121.356964 56.0
121.425095 196.0
121.467789 104.0
121.491898 68.0
121.535149 72.0
121.575111 148.0
121.607201 124.0
121.626961 116.0
121.642326 272.0
121.71917 152.0
121.802628 180.0
121.962097 180.0
121.978416 56.0
122.013588 112.0
122.078026 2828.0
122.242348 80.0
122.290764 176.0
122.34359 164.0
122.535248 176.0
122.578316 144.0
122.61232 136.0
122.656403 56.0
122.696083 192.0
122.718498 116.0
122.759521 156.0
122.777672 160.0
122.793106 144.0
122.850464 104.0
122.868111 228.0
122.89695 228.0
122.924194 420.0
122.940514 216.0
122.960785 116.0
122.993782 360.0
123.024384 93616.0
123.080452 332.0
123.096718 56.0
123.102081 32.0
123.143982 148.0
123.166206 212.0
123.203377 116.0
123.237099 72.0
123.258575 104.0
123.316376 56.0
123.336273 140.0
123.370148 184.0
123.387581 936.0
123.408165 144.0
123.451164 128.0
123.46656 56.0
123.586174 84.0
123.604492 72.0
123.64592 128.0
123.697861 60.0
123.735626 84.0
123.76899 128.0
123.790977 48.0
123.880547 108.0
123.964828 144.0
123.99807 68.0
124.026909 7408.0
124.053482 44.0
124.073433 72.0
124.088951 136.0
124.125038 44.0
124.168785 72.0
124.184311 116.0
124.20327 124.0
124.281921 72.0
124.332962 28.0
124.352936 120.0
124.428406 36.0
124.455055 64.0
124.519455 40.0
124.634636 132.0
124.672745 132.0
124.706085 52.0
124.749199 120.0
124.795143 192.0
124.828362 104.0
124.849068 116.0
124.863441 160.0
124.897308 64.0
124.919548 104.0
124.934937 96.0
124.988968 256.0
125.031097 552.0
125.064934 108.0
125.140213 160.0
125.15992 108.0
125.179962 56.0
125.255684 60.0
125.289101 212.0
125.454018 44.0
125.581116 192.0
125.596733 72.0
125.612343 52.0
125.632423 108.0
125.650269 36.0
125.69043 184.0
125.717209 44.0
125.732834 80.0
125.833282 180.0
125.958344 88.0
125.973976 44.0
126.005753 180.0
126.347321 108.0
126.512932 196.0
126.563782 84.0
126.593536 84.0
126.609215 168.0
126.66745 72.0
126.694328 208.0
126.740463 108.0
126.875854 148.0
127.053947 196.0
127.104637 144.0
127.183182 168.0
127.533585 96.0
127.607773 68.0
127.672981 148.0
127.924988 88.0
128.024063 192.0
128.04657 160.0
128.080368 124.0
128.339539 256.0
128.355316 76.0
128.481628 172.0
128.648621 184.0
128.763779 156.0
128.890289 68.0
128.953568 104.0
129.073395 44.0
129.875107 184.0
130.067291 196.0
130.799927 236.0
130.934265 200.0
131.061661 488.0
131.248734 60.0
131.312592 188.0
131.330841 68.0
131.371902 272.0
131.497406 60.0
131.755432 148.0
131.833115 172.0
131.853683 92.0
131.940552 184.0
132.004578 52.0
132.067322 996.0
132.155548 76.0
132.201309 84.0
132.253952 100.0
132.670868 112.0
132.72818 132.0
132.779984 136.0
133.0728 160.0
133.145844 56.0
133.244614 56.0
133.458359 104.0
133.686096 140.0
133.773392 168.0
133.865646 232.0
133.978516 196.0
134.080551 184.0
134.262039 72.0
134.296631 288.0
134.649765 200.0
134.779129 68.0
135.094772 168.0
135.11438 136.0
135.688751 152.0
136.094376 184.0
136.162125 96.0
136.199295 204.0
136.49678 140.0
137.027466 88.0
137.088058 196.0
137.111359 104.0
138.080246 140.0
138.881287 156.0
139.015015 164.0
139.630524 92.0
140.29454 152.0
140.403015 164.0
140.627151 184.0
140.752274 156.0
141.012131 120.0
141.759995 152.0
141.859543 44.0
142.210602 64.0
142.956863 48.0
143.275925 120.0
143.430817 148.0
144.718506 168.0
145.068237 168.0
145.406494 120.0
145.836426 160.0
146.045609 140.0
146.082947 148.0
146.317535 184.0
146.481293 148.0
146.565628 92.0
146.760864 92.0
146.958191 148.0
147.01825 148.0
147.060806 468.0
147.091293 13776.0
147.163803 100.0
147.260406 28.0
147.364273 40.0
147.601151 64.0
147.63501 52.0
147.651947 80.0
147.678543 92.0
147.799515 64.0
147.983459 192.0
148.010101 124.0
148.058533 132.0
148.094345 1288.0
148.145721 100.0
148.167526 88.0
148.18692 188.0
148.611221 48.0
148.70343 60.0
148.720428 84.0
148.832108 96.0
148.943817 208.0
149.077377 140.0
149.106613 2280.0
149.147003 168.0
149.301102 48.0
149.371643 60.0
149.47139 40.0
149.624725 152.0
149.709961 140.0
149.733109 228.0
150.108734 188.0
150.605042 44.0
151.111084 100.0
151.370529 124.0
151.693939 56.0
151.742981 120.0
152.142883 40.0
152.162521 144.0
152.730362 180.0
152.843369 184.0
153.067368 196.0
153.523254 128.0
153.811935 148.0
154.00946 156.0
154.175003 200.0
154.407394 116.0
154.890045 80.0
155.095718 148.0
155.395782 136.0
155.728424 136.0
156.073868 188.0
156.706085 164.0
156.785828 136.0
157.11496 184.0
157.132431 136.0
157.214767 44.0
157.619308 148.0
157.896805 56.0
157.934326 120.0
158.007736 80.0
158.414932 140.0
159.152298 152.0
159.292938 168.0
159.893326 164.0
160.085205 144.0
160.218704 60.0
160.289246 176.0
160.642227 40.0
160.692688 192.0
160.876923 196.0
161.094833 148.0
162.068146 160.0
162.096024 144.0
162.121368 80.0
162.253174 228.0
162.656525 32.0
162.976532 96.0
163.055313 44.0
163.273956 176.0
164.035263 180.0
164.118057 336.0
164.272415 112.0
164.300476 160.0
164.50209 188.0
164.629745 180.0
164.714035 104.0
164.777908 212.0
164.854553 148.0
164.908234 200.0
164.964996 124.0
165.005371 48.0
165.070679 51980.0
165.176712 28.0
165.212524 88.0
165.250015 92.0
165.297699 96.0
165.332794 148.0
165.353256 64.0
165.456589 152.0
165.493103 32.0
165.530945 88.0
165.68103 220.0
165.716888 96.0
165.742508 48.0
165.791199 48.0
165.860245 64.0
165.952698 40.0
166.027054 60.0
166.073914 5112.0
166.142487 92.0
166.206635 56.0
166.237427 248.0
166.334946 152.0
166.43251 76.0
166.509552 56.0
166.533829 44.0
166.581467 52.0
166.753632 116.0
166.779327 48.0
166.85997 108.0
166.920731 96.0
167.070694 336.0
167.108505 108.0
167.152863 116.0
167.193161 116.0
167.241409 156.0
167.304108 52.0
167.329849 80.0
167.34787 152.0
167.389069 108.0
167.427704 104.0
167.456024 52.0
167.53331 48.0
167.577103 88.0
167.9767 72.0
168.454269 144.0
168.847153 80.0
169.419205 100.0
169.914368 148.0
171.057465 136.0
171.492844 72.0
171.975372 68.0
172.239105 72.0
172.552689 76.0
172.947708 64.0
173.775818 72.0
174.521759 84.0
175.013809 84.0
175.050674 48.0
176.462845 64.0
176.48085 104.0
176.988892 112.0
177.927475 92.0
178.108063 208.0
179.37468 144.0
179.697372 76.0
181.167801 52.0
182.076111 192.0
184.161758 92.0
184.259018 136.0
185.06073 332.0
186.068176 156.0
187.828903 64.0
188.079941 156.0
190.101257 184.0
191.113739 140.0
194.751892 232.0
195.892365 72.0
200.279083 76.0
204.529297 96.0
204.902344 248.0
205.952148 132.0
206.097839 132.0
208.112991 276.0
208.637222 96.0
209.114731 48.0
211.084412 156.0
211.886917 144.0
212.037598 72.0
212.771484 76.0
213.076447 208.0
213.489197 64.0
216.120392 152.0
216.301849 64.0
219.489548 44.0
224.352081 72.0
225.121902 124.0
225.432587 100.0
227.019196 96.0
228.740814 76.0
229.207626 112.0
234.124298 60.0
235.127319 172.0
243.694504 76.0
243.765976 40.0
244.736481 108.0
244.917114 76.0
245.079102 132.0
251.164337 180.0
256.443726 56.0
256.918854 64.0
277.705627 64.0
279.160278 180.0
283.118225 132.0
284.916107 60.0
287.232208 80.0
288.36673 28.0
290.530487 48.0
294.564545 76.0
294.639709 52.0
299.135284 148.0
301.840576 116.0
304.84256 32.0
308.151337 176.0
309.142395 140.0
310.996399 92.0
318.109222 52.0
328.180603 912.0
329.172455 156.0
332.121155 232.0
338.339478 76.0
351.084167 92.0
355.671234 72.0
359.24234 96.0
364.774994 84.0
367.677368 108.0
368.639771 124.0
368.97995 36.0
433.805206 88.0
438.231384 60.0
455.247192 40.0
460.75473 84.0
514.87915 92.0
514.915283 96.0
529.05719 48.0
539.639038 64.0
550.503113 232.0
573.203979 160.0
576.477539 40.0
576.687866 108.0
577.213745 96.0
605.668518 136.0
607.595032 48.0
615.198608 36.0
624.474792 96.0
705.241821 144.0
725.67395 48.0
753.516296 44.0
770.377197 184.0
778.730408 108.0
782.339233 204.0
783.653625 236.0
785.755554 132.0
799.529053 172.0
817.144592 128.0
820.69873 92.0
822.484436 112.0
825.706909 220.0
825.947144 184.0
827.881714 136.0
844.94873 132.0
857.684021 184.0
857.923035 124.0
871.348633 144.0
875.307129 208.0
878.206726 32.0
879.062195 88.0
885.292969 68.0
891.296265 148.0
898.608032 96.0
899.013794 168.0
902.466492 168.0
907.993713 52.0
908.527588 168.0
913.098755 60.0
915.801208 76.0
918.525696 208.0
920.72876 168.0
923.127991 180.0
923.351746 192.0
925.282043 180.0
941.004761 140.0
947.64093 168.0
948.560181 204.0
958.757141 128.0
959.428955 152.0
965.758545 236.0
966.216309 112.0
967.44165 148.0
969.033325 176.0
973.847229 240.0
974.828857 80.0
975.991272 192.0
977.148193 160.0
978.243469 116.0
987.440918 148.0
993.278625 152.0
997.397827 196.0
1004.229614 128.0
1007.032043 104.0
1007.48053 148.0
1008.87085 220.0
1014.44812 48.0
1018.591919 136.0
1020.047119 180.0
1023.361694 220.0
1024.731079 132.0
1035.027466 92.0
1038.250854 168.0
1038.520142 208.0
1040.798462 184.0
1040.952515 196.0
1041.312256 40.0
1042.674316 100.0
1043.522827 164.0
1048.125 84.0
1048.182983 160.0
1056.136841 176.0
1057.10083 184.0
1059.10144 160.0
1059.230957 148.0
1059.347534 44.0
1062.751221 136.0
1063.60791 200.0
1064.7052 172.0
1072.369385 196.0
1073.901611 120.0
1074.586548 116.0
1077.13269 152.0
1079.282837 112.0
1081.893433 124.0
1087.721191 216.0
1089.251221 192.0
1089.632324 76.0
1090.762573 148.0
1091.610718 80.0
1093.85437 176.0
1095.158081 128.0
1095.507202 144.0
1096.792236 60.0
1097.174561 180.0
1097.359131 180.0
1098.381348 196.0
1103.598633 244.0
1104.584106 196.0
1107.430298 188.0
1113.585449 180.0
1115.372803 176.0
1115.539062 80.0
1116.922119 136.0
1117.800415 184.0
1119.258179 188.0
1120.382935 224.0
1122.203247 200.0
1122.91687 120.0
1123.777344 124.0
1125.819946 144.0
1126.62146 148.0
1127.657227 168.0
1127.817627 140.0
1128.158569 108.0
1132.467896 48.0
1132.648804 180.0
1134.35083 160.0
1135.926758 164.0
1136.684937 204.0
1137.335938 180.0
1137.799072 88.0
1138.141479 88.0
1139.820801 192.0
1141.192017 132.0
1142.934082 168.0
1143.304199 36.0
1143.566772 168.0
1143.869629 152.0
1144.085083 164.0
1144.361084 196.0
1144.664062 224.0
1145.290405 188.0
1145.492554 180.0
1147.945801 204.0
1148.34375 244.0
1148.505615 176.0
1148.809204 152.0
1149.045288 136.0
1149.632324 116.0
1149.963013 188.0
1150.1521 40.0
1154.868408 228.0
1154.963135 196.0
1155.903442 212.0
1158.361206 232.0
1159.628296 168.0
1159.696045 184.0
1160.068848 124.0
1163.562744 92.0
1165.036499 188.0
1168.013916 48.0
1168.204468 228.0
1168.253174 124.0
1168.394897 176.0
1168.939209 244.0
1170.518555 164.0
1171.111084 184.0
1172.718994 180.0
1174.403198 112.0
1175.658569 180.0
1176.81897 136.0
1177.051147 204.0
1178.916016 116.0
1179.09375 152.0
1179.729492 156.0
1179.845703 164.0
1182.376587 164.0
1183.163696 196.0
1183.677246 168.0
1183.896362 68.0
1185.225342 176.0
1185.396729 40.0
1185.93811 172.0
1187.446533 164.0
1190.699707 44.0
1191.860718 136.0
1193.569824 264.0
1194.658936 108.0
1195.209351 192.0
1195.753052 172.0
1196.166016 264.0
1196.558472 104.0
1197.067993 32.0
1197.839355 172.0
1200.223999 144.0
1201.748291 136.0
1201.941528 172.0
1203.377197 92.0
1203.964233 144.0
1204.247314 160.0
1204.3302 104.0
1204.910522 104.0
1206.133667 84.0
1206.804321 164.0
1210.049316 156.0
1211.074219 164.0
1212.037109 208.0
1212.404419 48.0
1213.069824 144.0
1213.707642 212.0
1214.338745 148.0
1215.268311 144.0
1215.452759 180.0
1215.69165 160.0
1216.69812 176.0
1216.857788 160.0
1219.247314 76.0
1219.539185 172.0
1220.157959 140.0
1221.041016 212.0
1221.597534 184.0
1221.959229 216.0
1222.766479 44.0
1225.085205 108.0
1225.572876 160.0
1226.360352 64.0
1226.973877 144.0
1227.050537 184.0
1228.215088 208.0
1228.731323 160.0
1228.856934 64.0
1229.247681 176.0
1229.827026 188.0
1230.273682 168.0
1231.265259 208.0
1231.565552 144.0
1232.87915 116.0
1233.193604 192.0
1233.983521 208.0
1234.458984 132.0
1239.28894 52.0
1239.359009 164.0
1240.178955 180.0
1241.125366 156.0
1241.478149 192.0
1242.072144 164.0
1242.366821 124.0
1242.626343 152.0
1243.08252 100.0
1243.777344 124.0
1245.567871 224.0
1246.087769 132.0
1247.493286 168.0
1247.556641 188.0
1248.126099 168.0
1249.441406 164.0
1250.306885 144.0
1250.574341 168.0
1250.644653 160.0
1250.876953 224.0
1251.236084 144.0
1252.48645 204.0
1252.588135 100.0
1253.271484 188.0
1253.440674 160.0
1254.469604 212.0
1254.540161 180.0
1254.829224 100.0
1254.934937 152.0
1257.368652 56.0
1259.974365 144.0
1261.0625 204.0
1261.126099 208.0
1261.507812 172.0
1261.861328 148.0
1261.917969 180.0
1262.335083 120.0
1263.127197 88.0
1264.68396 48.0
1267.33252 128.0
1267.814453 64.0
1268.509033 144.0
1268.579956 92.0
1269.572632 120.0
1272.971802 192.0
1273.298584 164.0
1273.611084 88.0
1274.605713 72.0
1274.811768 116.0
1275.086304 192.0
1275.245239 188.0
1275.515381 172.0
1275.792603 160.0
1276.660034 156.0
1277.349976 132.0
1277.697998 196.0
1279.969116 204.0
1280.81665 132.0
1280.966187 168.0
1281.550415 368.0
1282.541016 164.0
1282.80481 144.0
1283.952759 108.0
1286.250244 176.0
1287.128418 216.0
1287.599731 204.0
1289.59314 152.0
1290.901367 220.0
1292.27478 172.0
1293.505737 68.0
1294.443604 124.0
1294.751587 168.0
1294.808838 148.0
1295.410522 208.0
1295.639771 104.0
1296.678833 176.0
1297.252319 136.0
1298.263306 180.0
1300.221802 196.0
1301.384766 148.0
1302.734985 132.0
1306.724976 184.0
1307.077637 100.0
1307.343872 64.0
1307.797241 164.0
1308.365967 176.0
1308.437988 60.0
1310.894165 216.0
1311.117554 36.0
1311.196777 96.0
1311.87439 200.0
1312.25647 208.0
1312.847778 212.0
1314.341064 124.0
1315.748535 164.0
1316.167236 112.0
1316.347778 140.0
1316.571655 116.0
1317.091675 108.0
1317.402344 112.0
1321.385864 200.0
1322.044312 172.0
1322.637817 196.0
1324.020752 152.0
1324.868164 128.0
1324.984131 172.0
1325.13623 180.0
1326.817749 148.0
1327.390503 160.0
1327.550049 148.0
1328.783203 100.0
1329.675659 200.0
1330.016846 124.0
1331.759521 176.0
1332.296997 228.0
1333.009155 180.0
1333.42334 184.0
1335.335449 28.0
1337.700317 244.0
1337.802246 168.0
1338.421143 200.0
1339.353271 256.0
1340.161987 220.0
1341.029175 140.0
1341.765381 168.0
1342.027954 148.0
1343.377197 212.0
1343.763794 192.0
1344.442383 104.0
1345.581177 180.0
1345.946289 168.0
1346.625366 176.0
1347.86731 180.0
1348.466553 164.0
1350.587646 188.0
1351.004028 200.0
1351.084473 172.0
1351.172241 168.0
1351.691772 180.0
1352.811523 156.0
1353.119019 160.0
1354.144287 64.0
1355.690063 144.0
1356.1698 208.0
1356.422974 88.0
1356.672241 136.0
1357.845459 176.0
1358.32959 140.0
1358.84314 120.0
1358.923828 124.0
1359.261353 128.0
1359.819092 228.0
1359.958618 300.0
1360.156738 184.0
1360.487061 176.0
1360.79541 132.0
1361.146484 248.0
1361.250732 196.0
1362.102661 176.0
1362.205566 176.0
1362.366089 268.0
1363.07251 196.0
1364.042603 216.0
1364.270508 152.0
1367.278931 132.0
1367.875122 228.0
1367.99292 108.0
1368.303711 196.0
1368.780762 128.0
1368.883789 132.0
1369.126831 172.0
1369.318359 176.0
1370.091797 160.0
1371.034912 176.0
1372.649414 164.0
1373.608154 156.0
1373.718872 164.0
1373.873779 180.0
1374.139404 144.0
1374.655884 184.0
1374.810913 120.0
1375.371826 168.0
1375.526855 56.0
1376.575195 248.0
1377.254761 196.0
1377.372925 180.0
1379.220215 216.0
1382.274658 200.0
1382.607666 164.0
1382.792725 152.0
1383.747681 136.0
1384.45105 132.0
1385.162109 216.0
1385.55481 120.0
1386.421753 344.0
1386.755249 124.0
1387.718994 180.0
1388.519775 208.0
1388.762329 156.0
1389.001953 152.0
1389.677002 152.0
1389.973877 196.0
1390.488037 216.0
1391.168823 52.0
1391.66626 192.0
1391.896484 48.0
1392.624268 56.0
1393.092163 184.0
1395.819946 128.0
1396.02063 240.0
1396.139648 188.0
1397.910278 136.0
1398.446045 208.0
1398.520508 172.0
1398.888428 176.0
1399.391479 272.0
1399.853149 72.0
1400.970459 204.0
1401.60376 212.0
1402.11792 148.0
1402.893066 164.0
1403.042236 208.0
1404.026489 32.0
1405.727417 140.0
1406.951538 44.0
1407.212769 276.0
1407.391968 184.0
1408.639282 220.0
1411.030762 160.0
1411.838257 68.0
1412.668579 172.0
1413.334351 92.0
1413.551392 160.0
1413.626221 176.0
1414.247437 252.0
1415.288086 88.0
1415.3479 80.0
1415.640015 68.0
1415.9021 136.0
1416.808472 204.0
1417.018188 128.0
1419.064331 208.0
1419.199341 160.0
1420.189209 208.0
1420.241699 136.0
1420.796875 168.0
1421.052002 224.0
1421.344604 188.0
1422.125122 108.0
1423.754272 244.0
1423.859497 244.0
1424.295044 156.0
1424.693237 184.0
1425.970703 188.0
1426.835083 168.0
1427.083252 64.0
1427.406616 120.0
1427.624634 172.0
1428.060913 140.0
1428.31665 112.0
1429.392456 156.0
1429.783813 108.0
1430.002075 152.0
1432.384399 232.0
1432.599854 148.0
1432.833496 156.0
1433.586914 132.0
1433.880859 156.0
1435.207642 156.0
1435.479126 168.0
1435.64502 56.0
1435.780762 144.0
1436.097534 180.0
1437.055664 112.0
1437.501709 176.0
1437.712158 152.0
1437.825317 168.0
1438.202637 144.0
1438.315918 172.0
1439.82605 112.0
1440.286743 140.0
1440.687134 128.0
1440.996826 176.0
1441.42749 156.0
1441.661865 52.0
1442.591553 164.0
1442.795654 140.0
1443.5896 176.0
1443.778564 168.0
1444.36853 160.0
1444.542603 140.0
1444.928345 164.0
1445.231445 160.0
1445.533691 148.0
1445.965088 32.0
1446.331787 264.0
1446.986938 164.0
1447.509399 176.0
1448.766724 148.0
1449.793335 140.0
1449.948853 100.0
1450.251953 116.0
1451.662109 156.0
1452.352295 112.0
1453.566162 160.0
1454.241577 96.0
1454.788208 148.0
1456.5271 120.0
1457.271606 144.0
1458.312744 208.0
1458.510376 208.0
1460.943848 180.0
1462.351562 164.0
1462.450439 124.0
1463.059448 96.0
1463.318359 168.0
1463.973145 212.0
1464.064575 160.0
1465.53479 124.0
1465.823853 176.0
1466.098633 132.0
1466.456909 164.0
1469.30127 64.0
1470.61377 180.0
1471.30835 124.0
1471.888672 116.0
1472.721191 140.0
1473.019043 192.0
1473.553833 152.0
1475.862061 192.0
1475.930908 208.0
1477.246338 84.0
1478.355835 188.0
1478.59314 128.0
1478.960449 168.0
1479.672363 204.0
1480.43811 176.0
1480.491699 124.0
1480.867065 104.0
1481.1427 136.0
1481.259033 140.0
1481.495117 104.0
1484.078003 40.0
1484.614746 184.0
1486.041504 212.0
1487.123535 116.0
1487.246338 164.0
1487.591797 208.0
1487.783691 140.0
1488.637573 176.0
1489.043091 208.0
1489.142944 152.0
1489.288818 196.0
1489.742065 148.0
1489.957153 152.0
1491.063721 144.0
1492.001465 196.0
1493.162598 260.0
1493.954834 164.0
1494.378052 128.0
1495.247559 188.0
1496.402222 168.0
1496.556274 196.0
1497.172241 192.0
1497.357056 172.0
1497.619019 184.0
1498.027222 220.0
1498.188965 188.0
1498.34314 148.0
1498.458618 124.0
1499.075073 164.0
1499.714722 196.0
1500.283447 136.0
1500.539673 168.0
1500.740112 216.0
1500.794067 124.0
1502.706909 152.0
1503.192993 104.0
1503.679199 176.0
1503.818115 164.0
1503.980225 220.0
1504.188721 100.0
1504.35083 228.0
1504.458862 180.0
1505.037964 124.0
