>compound MLS002153902-01!Monocrotaline315-22-0
>formula C16H23NO6
>ionization [M+H]+
>parentmass 326.158722
#inchi InChI=1S/C16H23NO6/c1-9-13(18)23-11-5-7-17-6-4-10(12(11)17)8-22-14(19)16(3,21)15(9,2)20/h4,9,11-12,20-21H,5-8H2,1-3H3/t9-,11+,12+,15+,16-/m0/s1
#inchikey QVCMHGGNRFRMAD
#Ion_Source LC-ESI
#Instrument qTof
#Compound_Source NIH Pharmacologically Active Library
#PI Dorrestein
#Data_Collector VP/LMS
#Scan -1
#Precursor_MZ 326.162
#ExactMass 325.153
#Charge 1
#CAS_Number N/A
#Pubmed_ID N/A
#Smiles C[C@H]1C(=O)O[C@@H]2CCN3CC=C(COC(=O)[C@](C)(O)[C@]1(C)O)[C@H]23
#INCHI_AUX N/A
#Library_Class 1
#SpectrumID CCMSLIB00000085787
#IonMode Positive
#UpdateWorkflowName UPDATE-SINGLE-ANNOTATED-GOLD
#LibraryQualityString Gold
#TaskID d252d724072548979f1f6f1ced849daf
##Scan# 409
#SpectrumFile p4-F06_GF6_01_18390.mzXML
#LibraryName Pharm_Active_Library.mgf
#MQScore -1
#Organism Pharm_Active_Library
#TIC_Query 0
#RT_Query -1
#MZErrorPPM -1
#SharedPeaks 0
#MassDiff 0
#LibMZ -1
#SpecMZ 326.162
#SpecCharge 0
#internalFilename spec-00000.mgf

>collision 10
45.407112 192.0
46.367077 228.0
46.448433 136.0
47.234436 136.0
47.572918 132.0
47.751553 144.0
48.576199 120.0
48.692799 132.0
49.043427 104.0
49.097805 224.0
49.723194 176.0
50.214226 212.0
51.066891 180.0
51.320381 140.0
52.478954 168.0
52.699795 160.0
52.971786 164.0
54.031639 220.0
56.272388 128.0
58.02224 184.0
58.081383 252.0
58.196724 184.0
58.764462 204.0
58.880478 196.0
58.932419 72.0
60.182743 136.0
60.812824 160.0
61.407192 84.0
62.938908 176.0
63.419853 176.0
63.627666 204.0
64.27549 132.0
64.687843 180.0
65.021248 156.0
65.958687 232.0
66.104248 208.0
67.513092 160.0
67.775017 124.0
67.799591 116.0
68.511086 172.0
68.631409 220.0
68.695732 180.0
70.370338 224.0
70.438812 192.0
70.595924 184.0
70.860405 60.0
71.496826 68.0
71.791656 32.0
72.4729 92.0
72.822372 120.0
72.903923 172.0
73.44194 136.0
73.709984 156.0
75.226601 164.0
75.757507 52.0
76.807495 184.0
76.948853 152.0
77.308937 164.0
77.711975 176.0
78.147728 148.0
79.359413 164.0
79.616722 164.0
79.803307 40.0
79.922485 44.0
82.827446 220.0
83.315445 180.0
84.235428 208.0
84.639626 232.0
85.763992 172.0
85.800865 132.0
86.830856 140.0
87.630203 140.0
89.194771 100.0
90.072891 212.0
90.976196 164.0
91.052147 152.0
92.155128 180.0
92.533836 64.0
92.61618 176.0
92.838516 164.0
93.056183 368.0
94.063416 1244.0
95.049294 168.0
95.073921 388.0
96.08255 396.0
96.351906 92.0
96.385124 132.0
96.537598 172.0
96.56694 112.0
97.083984 156.0
97.411774 224.0
97.453033 164.0
99.944481 116.0
100.973862 164.0
101.216011 124.0
101.634956 96.0
102.995926 140.0
103.052109 148.0
103.147484 188.0
103.167694 240.0
104.695618 176.0
104.864716 256.0
104.91568 192.0
104.987045 176.0
105.066597 112.0
106.062828 468.0
107.070244 376.0
107.118736 164.0
107.186722 120.0
108.0812 336.0
108.962051 172.0
109.065247 284.0
109.082588 212.0
109.434189 72.0
110.058762 156.0
110.072815 208.0
110.096069 384.0
110.325073 144.0
111.601921 156.0
113.131561 116.0
113.495979 184.0
113.990578 152.0
115.403839 148.0
115.480827 204.0
116.044037 164.0
116.059044 212.0
117.068893 328.0
117.649048 124.0
118.063164 520.0
118.442696 200.0
118.815559 176.0
119.066399 324.0
119.097771 176.0
120.027077 84.0
120.080139 6132.0
120.118683 36.0
120.138313 48.0
120.155769 56.0
120.19722 264.0
120.233231 88.0
120.424271 116.0
120.446114 48.0
120.485435 56.0
120.599068 184.0
120.918404 96.0
121.087669 4204.0
121.146133 80.0
121.343384 40.0
121.411362 48.0
121.766907 104.0
121.786674 120.0
121.856972 92.0
121.87455 156.0
122.09407 1428.0
122.416306 212.0
122.444313 48.0
122.805779 140.0
123.047951 136.0
123.070602 84.0
123.08606 168.0
123.652008 128.0
123.993088 120.0
124.057373 144.0
124.079544 156.0
124.32798 184.0
125.059204 140.0
126.062836 116.0
126.091888 176.0
126.331146 164.0
126.675896 52.0
128.341293 176.0
128.600739 56.0
129.346664 168.0
129.548218 176.0
130.062973 168.0
130.190125 136.0
133.099487 148.0
134.068405 168.0
135.079285 176.0
136.072693 300.0
136.110657 164.0
137.512863 144.0
138.090576 856.0
138.707413 48.0
139.024063 176.0
139.09787 1072.0
140.109802 764.0
141.108749 76.0
145.163956 148.0
145.860229 164.0
145.891479 228.0
146.054993 180.0
146.095901 212.0
146.139206 84.0
146.416031 192.0
148.118881 136.0
149.084549 184.0
149.111282 148.0
149.378754 204.0
149.894913 128.0
150.947037 124.0
151.061996 160.0
151.4561 72.0
152.083817 136.0
153.073563 136.0
154.085938 156.0
154.899857 140.0
156.100403 504.0
156.24765 80.0
156.325027 48.0
156.97023 60.0
157.10199 160.0
158.374817 132.0
158.477524 116.0
160.808762 208.0
162.91304 176.0
163.129044 212.0
164.004715 88.0
164.107391 944.0
164.236755 88.0
165.115387 180.0
166.082642 208.0
168.780029 116.0
169.305359 160.0
170.969498 168.0
171.27153 172.0
172.372513 124.0
173.773392 60.0
174.695557 40.0
175.738876 132.0
176.795883 136.0
176.938828 280.0
179.577621 112.0
180.101776 288.0
180.833405 40.0
180.889618 144.0
181.618484 248.0
182.088196 196.0
182.114517 180.0
182.889435 172.0
183.118561 208.0
184.0979 832.0
186.962891 200.0
188.10495 64.0
188.990448 44.0
190.630264 148.0
190.869415 84.0
191.527191 52.0
191.57402 136.0
191.935074 124.0
192.097794 136.0
192.622299 172.0
193.385483 168.0
194.115738 1444.0
194.188995 32.0
194.577499 76.0
194.858002 172.0
194.8983 40.0
195.041428 192.0
195.122971 556.0
195.597763 80.0
196.11586 108.0
200.936569 164.0
201.81781 60.0
202.865356 108.0
203.339066 48.0
205.105408 152.0
206.510254 84.0
207.317642 144.0
208.09787 260.0
208.192642 76.0
209.135681 164.0
209.896255 112.0
210.110321 392.0
210.866272 132.0
211.114609 468.0
211.763199 192.0
212.129089 340.0
216.086197 56.0
219.148605 244.0
222.110565 304.0
224.037247 112.0
224.093475 156.0
224.132599 152.0
226.564713 124.0
227.101303 140.0
227.695572 204.0
228.124832 252.0
235.950287 208.0
236.122467 236.0
236.678497 104.0
237.134323 1812.0
238.141266 140.0
238.199707 168.0
239.125244 96.0
239.14679 184.0
239.667252 244.0
240.11734 32.0
240.348709 216.0
240.626495 72.0
243.540604 88.0
247.883514 120.0
248.328705 60.0
252.119476 312.0
253.128662 148.0
254.139862 160.0
255.137054 140.0
256.898193 112.0
262.159943 44.0
263.147003 88.0
263.799622 176.0
265.172089 220.0
266.073883 140.0
266.733368 120.0
269.131226 176.0
269.444763 180.0
270.128265 288.0
275.143066 104.0
277.750824 128.0
278.411316 108.0
279.837891 156.0
280.152374 1276.0
281.158997 272.0
281.371582 52.0
281.615356 56.0
282.133057 192.0
282.175507 292.0
282.845856 116.0
282.979767 60.0
283.160583 168.0
285.301453 228.0
287.848724 124.0
293.294128 40.0
295.161621 104.0
297.748993 112.0
297.773041 236.0
298.163361 692.0
299.172882 332.0
304.049896 176.0
304.206085 124.0
306.564331 148.0
307.561829 200.0
308.152313 512.0
309.880432 160.0
316.605164 112.0
318.126312 184.0
319.288208 116.0
321.989746 160.0
324.738525 80.0
324.880341 204.0
325.140381 104.0
325.334198 72.0
326.070587 152.0
326.111298 180.0
326.158722 7192.0
326.289856 80.0
326.322205 104.0
326.530792 100.0
326.735809 144.0
326.775391 96.0
326.814331 68.0
326.8349 120.0
326.973328 128.0
326.998505 48.0
327.045319 68.0
327.099304 92.0
327.159973 1792.0
327.196503 60.0
327.282898 52.0
327.344116 76.0
327.538605 56.0
327.650299 28.0
327.913361 76.0
328.162201 352.0
329.259094 48.0
329.515594 176.0
330.477356 88.0
341.027985 96.0
344.47702 92.0
345.24585 92.0
371.546082 52.0
388.532288 120.0
504.872955 60.0
521.274048 20.0
534.747498 128.0
574.93396 72.0
593.609924 36.0
778.449341 124.0
796.984131 68.0
854.292603 192.0
898.654114 72.0
901.376953 196.0
918.22876 120.0
925.831787 20.0
940.3078 168.0
967.732056 204.0
979.961975 228.0
990.50769 256.0
1037.071533 212.0
1049.614624 176.0
1069.960205 120.0
1075.077026 116.0
1076.480591 76.0
1097.314453 176.0
1120.938599 164.0
1125.494629 232.0
1127.973389 112.0
1141.463135 176.0
1151.464233 116.0
1157.076904 176.0
1158.180664 108.0
1160.627319 180.0
1170.636963 148.0
1174.235352 140.0
1197.470459 176.0
1234.057129 152.0
1241.01001 220.0
1251.831543 140.0
1274.489258 168.0
1278.18689 132.0
1287.09021 144.0
1288.783081 160.0
1296.740967 200.0
1300.578369 120.0
1301.310669 212.0
1305.399292 144.0
1307.08252 240.0
1307.802246 212.0
1317.906006 164.0
1320.73999 48.0
1321.789062 216.0
1328.607178 128.0
1328.998901 188.0
1329.993164 48.0
1330.915161 116.0
1333.167114 184.0
1334.911865 148.0
1345.754761 228.0
1350.973145 168.0
1360.331543 168.0
1376.130981 240.0
1377.017212 184.0
1378.346924 76.0
1380.54248 168.0
1382.739868 180.0
1394.027466 212.0
1404.100342 184.0
1410.970215 108.0
1413.266479 72.0
1413.865112 204.0
1414.688477 128.0
1419.716187 232.0
1441.933716 120.0
1442.961792 252.0
1451.275391 256.0
1452.094482 172.0
1454.735107 240.0
1455.729736 164.0
1456.056274 128.0
1456.117065 276.0
1459.103516 180.0
1462.22998 220.0
1466.533325 184.0
1478.034912 156.0
1481.357666 136.0
1492.178955 168.0
1502.345093 132.0
