>compound MLS001076071-01!
>formula C8H7ClN2O2S
>ionization [M+H]+
>parentmass 230.99895259609053
#inchi InChI=1S/C8H7ClN2O2S/c1-5-10-7-3-2-6(9)4-8(7)14(12,13)11-5/h2-4H,1H3,(H,10,11)
#inchikey GDLBFKVLRPITMI
#Ion_Source LC-ESI
#Instrument qTof
#Compound_Source NIH Pharmacologically Active Library
#PI Dorrestein
#Data_Collector VP/LMS
#Scan -1
#Precursor_MZ 231.001
#ExactMass 229.992
#Charge 1
#CAS_Number N/A
#Pubmed_ID N/A
#Smiles CC1=NS(=O)(=O)c2cc(Cl)ccc2N1
#INCHI_AUX N/A
#Library_Class 1
#SpectrumID CCMSLIB00000086190
#IonMode Positive
#UpdateWorkflowName UPDATE-SINGLE-ANNOTATED-GOLD
#LibraryQualityString Gold
#TaskID d252d724072548979f1f6f1ced849daf
##Scan# 1450
#SpectrumFile p5-H05_GH5_01_18480.mzXML
#LibraryName Pharm_Active_Library.mgf
#MQScore -1
#Organism Pharm_Active_Library
#TIC_Query 0
#RT_Query -1
#MZErrorPPM -1
#SharedPeaks 0
#MassDiff 0
#LibMZ -1
#SpecMZ 231.001
#SpecCharge 0
#internalFilename spec-00000.mgf

>collision 10
45.13842 176.0
45.44516 172.0
45.836445 216.0
46.983521 260.0
47.264977 60.0
47.352592 152.0
47.429321 188.0
48.287121 160.0
48.601585 140.0
49.938545 36.0
50.3162 192.0
51.379208 192.0
51.470551 96.0
53.77182 188.0
54.827785 136.0
55.666588 192.0
56.704933 84.0
58.567974 204.0
60.155083 128.0
60.940281 160.0
61.971626 132.0
62.737019 128.0
64.045944 132.0
64.229248 56.0
64.324989 164.0
65.843948 144.0
65.887566 148.0
66.162498 108.0
69.438332 160.0
71.417595 236.0
71.429375 104.0
71.892708 176.0
72.932625 152.0
73.735405 136.0
74.283318 204.0
74.686989 128.0
75.352417 176.0
75.764175 92.0
78.0401 160.0
78.914635 156.0
83.536758 80.0
83.68235 144.0
85.859337 188.0
86.12326 116.0
86.774155 176.0
88.041855 168.0
89.838158 184.0
90.033836 596.0
90.059456 172.0
91.648788 176.0
92.37236 132.0
93.014297 236.0
93.633423 164.0
93.806831 148.0
94.127106 200.0
95.087318 108.0
95.693817 176.0
99.000465 2508.0
99.999275 196.0
100.24025 84.0
100.995903 1220.0
102.003517 224.0
104.052223 184.0
104.360832 84.0
106.383469 164.0
106.969337 152.0
106.996101 156.0
108.996193 232.0
109.983353 148.0
110.154579 148.0
112.787567 208.0
113.957375 108.0
114.010147 3916.0
114.048759 68.0
114.18058 48.0
114.92189 60.0
115.011261 172.0
115.89476 176.0
115.912247 224.0
115.939758 168.0
116.007149 808.0
116.044792 92.0
116.957809 164.0
117.01281 136.0
117.669205 108.0
117.9133 40.0
120.636894 204.0
124.075699 188.0
124.999695 160.0
125.086494 144.0
125.92041 184.0
126.009735 5160.0
126.108086 44.0
126.604767 56.0
127.016281 208.0
127.268524 160.0
127.461693 64.0
127.522369 56.0
127.916 120.0
128.007751 1056.0
128.064621 68.0
130.540558 108.0
131.054932 156.0
131.725723 88.0
132.069321 556.0
133.072342 132.0
135.002609 168.0
135.026459 32.0
137.085678 188.0
137.706253 80.0
138.396118 196.0
139.983459 172.0
140.433609 72.0
141.020325 164.0
141.878418 120.0
141.935318 68.0
141.95192 124.0
142.005508 2040.0
143.005493 152.0
143.080292 152.0
143.441589 36.0
143.638184 180.0
144.003922 556.0
145.005875 340.0
145.962845 204.0
146.953293 140.0
148.9534 152.0
153.015488 144.0
154.58287 48.0
154.728912 72.0
155.375763 56.0
160.107651 68.0
161.103989 148.0
161.98938 196.0
164.920761 180.0
165.01535 180.0
167.056778 128.0
168.033188 164.0
168.200928 48.0
171.07576 160.0
171.95961 156.0
172.965714 188.0
173.961838 124.0
176.118454 160.0
189.383774 80.0
189.973114 148.0
190.956482 116.0
191.969955 104.0
192.823013 36.0
192.925293 176.0
207.97879 164.0
225.985016 184.0
228.989944 108.0
231.006516 212.0
233.001053 140.0
290.03064 64.0
338.736786 96.0
806.525757 96.0
847.469788 160.0
881.639038 116.0
894.700317 168.0
939.510925 40.0
991.761963 152.0
1003.839233 216.0
1007.727478 148.0
1018.115967 152.0
1048.711426 184.0
1049.575317 200.0
1054.177856 168.0
1057.275513 236.0
1092.116577 224.0
1100.182251 240.0
1106.687866 208.0
1130.01001 212.0
1138.892456 196.0
1140.666382 240.0
1182.005127 176.0
1185.435913 240.0
1198.484863 164.0
1212.644653 172.0
1221.650635 144.0
1228.06604 188.0
1240.393433 140.0
1245.087402 120.0
1250.430664 144.0
1251.240112 156.0
1296.238037 180.0
1297.356079 128.0
1298.9552 88.0
1304.34082 136.0
1320.137573 184.0
1341.287109 160.0
1344.248169 144.0
1352.784912 148.0
1379.776978 204.0
1380.264893 260.0
1382.91333 196.0
1384.208984 168.0
1396.126831 172.0
1416.547974 148.0
1417.394531 72.0
1423.365479 164.0
1424.77002 232.0
1436.46106 180.0
1439.842529 48.0
1444.142944 256.0
1449.828735 112.0
1451.132568 204.0
1459.826782 216.0
1467.24292 108.0
1471.599365 180.0
1472.389771 20.0
1475.709961 108.0
1493.839966 60.0
1495.224976 188.0
1505.293091 172.0
