>compound MLS001304057-01!Silymarin22888-70-6
>formula C25H22O10
>ionization [M+H]+
>parentmass 483.12857335609056
#inchi InChI=1S/C25H22O10/c1-32-17-6-11(2-4-14(17)28)24-20(10-26)33-16-5-3-12(7-18(16)34-24)25-23(31)22(30)21-15(29)8-13(27)9-19(21)35-25/h2-9,20,23-29,31H,10H2,1H3/t20-,23+,24-,25-/m1/s1
#inchikey SEBFKMXJBCUCAI
#Ion_Source LC-ESI
#Instrument qTof
#Compound_Source NIH Pharmacologically Active Library
#PI Dorrestein
#Data_Collector VP/LMS
#Scan -1
#Precursor_MZ 483.131
#ExactMass 482.121
#Charge 1
#CAS_Number N/A
#Pubmed_ID N/A
#Smiles COc1cc(ccc1O)[C@H]2Oc3cc(ccc3O[C@@H]2CO)[C@H]4Oc5cc(O)cc(O)c5C(=O)[C@@H]4O
#INCHI_AUX N/A
#Library_Class 1
#SpectrumID CCMSLIB00000085107
#IonMode Positive
#UpdateWorkflowName UPDATE-SINGLE-ANNOTATED-GOLD
#LibraryQualityString Gold
#TaskID d252d724072548979f1f6f1ced849daf
##Scan# 1806
#SpectrumFile p3-E11_GE11_01_18280.mzXML
#LibraryName Pharm_Active_Library.mgf
#MQScore -1
#Organism Pharm_Active_Library
#TIC_Query 0
#RT_Query -1
#MZErrorPPM -1
#SharedPeaks 0
#MassDiff 0
#LibMZ -1
#SpecMZ 483.131
#SpecCharge 0
#internalFilename spec-00000.mgf

>collision 10
45.154541 136.0
46.327038 140.0
46.735725 64.0
47.176277 204.0
49.240883 76.0
49.445019 156.0
49.60891 176.0
50.051502 160.0
51.752712 108.0
51.767033 204.0
51.901737 100.0
52.233513 128.0
52.839451 120.0
53.033504 68.0
53.759281 172.0
54.366638 120.0
54.484112 164.0
55.169434 60.0
56.494564 248.0
56.954788 220.0
57.207428 192.0
57.320393 152.0
57.777912 204.0
58.214462 120.0
58.399887 188.0
58.895287 168.0
59.049667 48.0
59.564701 176.0
59.832294 176.0
59.932415 136.0
60.105118 136.0
60.58289 236.0
60.627827 92.0
61.042336 152.0
61.383381 112.0
61.848976 168.0
61.985233 104.0
62.357189 44.0
63.563797 148.0
65.123657 192.0
65.335854 168.0
65.724167 228.0
65.803253 168.0
65.846855 228.0
65.916328 196.0
66.389046 176.0
66.442574 144.0
67.365677 176.0
68.078194 140.0
68.580009 192.0
68.718544 112.0
69.766953 72.0
70.20488 168.0
70.54718 176.0
70.680992 120.0
71.07814 112.0
71.821785 152.0
71.936531 40.0
71.999008 92.0
72.228882 192.0
72.396446 148.0
72.86293 56.0
72.886719 84.0
72.956406 168.0
73.422974 184.0
73.761055 152.0
74.240479 116.0
74.509979 96.0
74.554657 132.0
74.666405 156.0
75.785065 188.0
75.875198 144.0
76.559837 200.0
76.594673 164.0
76.924263 160.0
80.364281 236.0
80.947021 168.0
81.142334 144.0
81.224831 176.0
81.370201 76.0
81.436646 224.0
82.615585 184.0
83.686424 172.0
84.511467 208.0
84.831978 156.0
85.011734 136.0
85.589798 192.0
87.010857 160.0
87.902458 116.0
88.167648 72.0
88.23494 180.0
88.416389 100.0
90.888947 128.0
90.962967 136.0
91.054108 252.0
91.074997 132.0
92.05587 176.0
93.805756 208.0
94.139557 152.0
95.097923 164.0
95.395126 52.0
95.95388 204.0
96.176277 224.0
96.670761 100.0
97.16259 116.0
97.435493 152.0
97.482651 160.0
98.384781 212.0
98.69696 132.0
99.017555 80.0
100.780136 196.0
101.348412 124.0
102.045387 200.0
102.318542 56.0
103.050438 300.0
103.093124 172.0
103.880768 276.0
104.217796 212.0
104.891449 120.0
105.02993 176.0
105.069824 220.0
105.763695 244.0
106.752625 128.0
106.789642 124.0
107.046906 396.0
107.180801 236.0
107.711037 144.0
109.026756 216.0
109.047539 228.0
109.062088 172.0
109.4907 116.0
109.509445 188.0
110.254295 160.0
110.947159 140.0
111.010063 180.0
111.042534 344.0
111.060402 204.0
111.167404 52.0
111.985252 68.0
112.29509 128.0
112.971046 64.0
113.01548 140.0
113.386078 32.0
113.649033 128.0
113.757278 76.0
114.573929 208.0
115.053795 156.0
115.335777 56.0
115.740135 156.0
116.033676 184.0
117.043556 212.0
117.069397 128.0
118.038406 300.0
119.047867 536.0
119.113373 140.0
119.345917 112.0
119.441612 72.0
120.516434 128.0
120.907875 148.0
120.98011 56.0
121.028702 648.0
121.065506 220.0
121.341606 32.0
121.501709 160.0
121.903542 152.0
122.028778 168.0
122.859154 80.0
123.046753 88.0
123.300789 52.0
124.015701 192.0
124.051956 392.0
124.494934 132.0
124.528244 84.0
125.050758 184.0
125.82206 76.0
126.096825 216.0
126.116936 136.0
127.041786 176.0
127.729195 124.0
128.060089 176.0
128.78186 156.0
128.987488 20.0
129.07341 196.0
129.222687 176.0
129.329056 104.0
129.782166 72.0
130.041519 476.0
131.048004 1320.0
132.054932 484.0
132.352478 80.0
132.824615 216.0
133.027679 496.0
133.064316 516.0
133.178101 68.0
133.194183 100.0
133.260803 84.0
133.387207 56.0
134.030182 212.0
134.195297 176.0
134.287537 224.0
135.041931 576.0
136.049133 108.0
136.908875 48.0
137.020676 180.0
137.058258 1748.0
137.645798 32.0
137.739212 112.0
138.058212 260.0
138.436218 148.0
138.604874 104.0
139.037628 288.0
139.69194 220.0
139.819016 200.0
139.98851 228.0
140.043076 216.0
141.073898 132.0
143.040512 128.0
143.292953 128.0
145.064133 324.0
145.15979 184.0
145.318115 112.0
145.483719 148.0
146.03653 268.0
146.089325 56.0
147.043533 1200.0
147.490402 40.0
147.543579 100.0
148.046341 176.0
148.529205 64.0
148.667511 168.0
149.022079 2000.0
149.058334 1616.0
149.145981 88.0
149.525421 52.0
150.022034 160.0
150.064728 872.0
150.190613 96.0
150.881714 28.0
151.070862 336.0
151.322098 144.0
152.059982 144.0
152.091888 160.0
152.190094 200.0
152.359558 60.0
152.393967 120.0
152.733231 324.0
152.931076 168.0
152.986694 180.0
153.016724 4544.0
153.072021 336.0
153.183701 96.0
153.400558 52.0
153.607712 56.0
154.019485 488.0
154.096527 44.0
154.472321 56.0
154.776749 152.0
155.01828 180.0
155.048691 372.0
155.076508 136.0
155.126083 144.0
156.400436 152.0
157.045792 152.0
157.06955 356.0
158.262863 180.0
159.044479 360.0
159.524857 156.0
160.053223 160.0
161.019089 152.0
161.058685 1068.0
161.087296 108.0
161.653656 240.0
162.064911 1684.0
162.65863 180.0
162.763977 52.0
162.857941 144.0
163.037491 204.0
163.070709 324.0
163.17305 152.0
164.006927 392.0
164.045135 168.0
164.080505 188.0
164.235001 112.0
165.008789 304.0
165.057373 208.0
166.020248 152.0
166.302475 100.0
166.459091 180.0
166.546402 28.0
166.584946 148.0
166.705704 36.0
167.033386 552.0
167.078781 208.0
167.882202 128.0
168.036972 128.0
169.06543 144.0
171.0224 124.0
171.040619 292.0
171.723312 108.0
171.851135 40.0
172.883331 132.0
173.055298 408.0
174.141785 128.0
175.037125 156.0
176.122559 172.0
177.027222 172.0
177.051849 540.0
177.098602 144.0
177.212524 64.0
177.260223 164.0
178.093292 156.0
179.029495 260.0
179.071716 220.0
179.31456 128.0
180.048264 88.0
180.07106 152.0
180.288712 132.0
181.064575 160.0
183.030365 212.0
183.07373 120.0
183.582794 136.0
184.073944 148.0
185.054306 136.0
187.001953 132.0
187.04306 156.0
187.075455 124.0
187.394104 96.0
187.473129 148.0
187.639404 108.0
188.051315 144.0
189.065308 168.0
190.282394 144.0
191.61908 124.0
192.062927 152.0
192.739334 88.0
193.071381 72.0
193.887787 152.0
194.067978 160.0
194.275986 244.0
195.026932 996.0
195.067459 172.0
196.029755 324.0
197.015442 104.0
197.039902 180.0
197.605362 56.0
198.045639 116.0
198.057114 140.0
198.067749 168.0
199.040482 164.0
199.071381 156.0
200.083633 72.0
200.427261 160.0
201.050781 688.0
201.824509 36.0
202.058533 292.0
203.028046 148.0
203.087601 96.0
205.05777 132.0
207.026505 148.0
207.082062 384.0
208.9785 184.0
209.202988 204.0
210.070526 176.0
211.042404 228.0
211.075134 228.0
212.050842 148.0
212.077255 212.0
212.300491 36.0
213.053864 1020.0
213.907272 80.0
214.057053 392.0
214.650223 172.0
215.026566 160.0
215.057632 156.0
215.084946 148.0
215.111221 180.0
215.569778 32.0
215.648697 112.0
216.919083 96.0
217.05394 176.0
219.087891 124.0
220.678696 128.0
222.073532 116.0
223.069489 356.0
224.074188 328.0
224.509399 140.0
225.037567 124.0
225.061462 112.0
225.088333 112.0
226.062866 220.0
226.101776 164.0
227.030518 136.0
227.079102 204.0
228.057861 184.0
228.538513 168.0
229.05278 1040.0
230.053146 560.0
231.065216 328.0
231.127472 32.0
231.321182 36.0
231.766388 40.0
232.06041 164.0
233.06813 284.0
233.128906 160.0
234.065872 120.0
235.070938 200.0
235.090149 232.0
236.670563 140.0
237.047287 128.0
237.051788 168.0
237.091995 312.0
238.063812 256.0
239.031097 316.0
239.074173 432.0
239.804123 116.0
240.070328 168.0
240.195709 56.0
240.637039 132.0
241.04509 532.0
242.054321 168.0
242.115158 164.0
243.057007 132.0
243.094833 408.0
245.081848 172.0
246.058121 168.0
247.048477 180.0
247.069809 176.0
249.075974 208.0
249.966827 144.0
250.065781 128.0
251.065231 652.0
252.006989 124.0
252.066589 176.0
253.049805 160.0
253.095093 116.0
253.915863 72.0
254.039581 148.0
254.353745 156.0
254.922256 112.0
255.067368 184.0
255.106613 68.0
255.151123 52.0
255.860596 136.0
256.150391 44.0
256.22049 120.0
256.985687 108.0
257.041656 892.0
257.61377 160.0
258.05011 348.0
258.775604 96.0
259.041412 132.0
259.067047 200.0
259.442017 68.0
260.016174 136.0
260.883484 144.0
261.04425 156.0
261.092468 132.0
261.813385 80.0
263.061218 152.0
263.975586 124.0
264.464142 112.0
265.056793 196.0
266.042816 116.0
267.027405 156.0
267.059143 244.0
267.089203 96.0
267.903015 240.0
268.082245 204.0
269.040314 176.0
269.07547 160.0
270.06076 288.0
271.09494 244.0
273.163879 60.0
273.871613 212.0
274.603333 148.0
275.080139 216.0
276.417084 152.0
277.09256 128.0
278.060852 136.0
279.063416 224.0
280.074677 176.0
281.085968 176.0
282.077942 124.0
283.054413 360.0
283.094574 296.0
284.083862 200.0
285.033447 444.0
285.077728 128.0
286.043976 220.0
286.079498 196.0
286.268616 136.0
287.063934 140.0
288.068878 440.0
289.087494 128.0
290.31723 36.0
291.0672 132.0
293.070709 36.0
294.090393 152.0
294.524048 136.0
294.547974 88.0
295.060822 356.0
295.099396 268.0
297.022888 116.0
297.060608 168.0
298.090668 160.0
298.197205 140.0
299.048615 172.0
299.456482 144.0
300.984253 112.0
301.025696 156.0
302.034912 136.0
302.06604 136.0
303.076996 160.0
303.104706 164.0
303.603912 80.0
307.063049 192.0
307.099335 96.0
309.069702 208.0
311.045715 380.0
311.070923 152.0
312.060669 156.0
312.814545 60.0
313.077911 176.0
315.057465 192.0
315.095337 112.0
315.870544 108.0
316.047455 136.0
316.093445 180.0
317.074432 144.0
323.070892 180.0
324.059052 76.0
324.213135 120.0
325.067078 164.0
331.092621 96.0
332.10202 60.0
333.111145 136.0
334.849823 192.0
338.227295 88.0
338.835205 168.0
339.223694 132.0
340.217865 148.0
341.079865 248.0
342.074371 48.0
342.199524 100.0
343.098511 104.0
345.051575 124.0
345.109802 168.0
347.039856 128.0
350.1987 56.0
351.212524 124.0
352.227844 148.0
353.068848 152.0
357.075409 176.0
357.439301 140.0
357.78183 104.0
358.067993 108.0
359.05545 116.0
359.092621 188.0
361.110382 108.0
361.658722 48.0
362.097931 148.0
362.654907 156.0
363.066437 136.0
363.125061 92.0
364.077698 104.0
369.088898 136.0
374.061249 144.0
374.101654 140.0
375.105194 224.0
377.019653 116.0
377.100189 128.0
379.115356 468.0
379.772461 44.0
380.12384 196.0
380.13147 148.0
381.072968 164.0
381.119598 100.0
387.085358 304.0
387.444275 60.0
388.081848 248.0
389.087555 152.0
391.112427 240.0
392.125946 156.0
394.492767 88.0
395.576691 40.0
399.016296 72.0
399.807892 76.0
401.094391 144.0
403.046021 132.0
404.477783 132.0
405.094482 208.0
406.09259 100.0
407.113464 536.0
407.698578 144.0
408.102478 192.0
408.482605 56.0
409.101807 172.0
410.121521 156.0
410.988586 80.0
416.238708 100.0
418.098328 88.0
419.116516 284.0
419.709717 164.0
421.113617 52.0
422.074005 172.0
423.088715 40.0
427.106262 60.0
433.082428 400.0
434.094482 268.0
435.110535 164.0
436.102203 164.0
436.133026 164.0
437.119873 272.0
439.130951 88.0
440.132538 108.0
448.093628 176.0
462.533234 84.0
465.096558 116.0
474.735352 116.0
481.271423 144.0
567.022461 88.0
604.83313 172.0
605.832092 64.0
648.341492 88.0
777.386597 48.0
847.914429 84.0
881.609009 160.0
945.121033 100.0
946.945374 112.0
973.397217 92.0
997.948547 192.0
1015.619019 48.0
1053.536621 188.0
1054.383057 104.0
1062.418945 140.0
1093.050537 124.0
1138.255615 112.0
1156.47229 140.0
1160.713379 164.0
1182.384155 136.0
1207.621582 160.0
1215.762451 208.0
1216.803589 168.0
1234.950317 48.0
1239.872437 64.0
1281.816772 232.0
1284.419067 116.0
1295.886353 192.0
1304.469971 196.0
1320.470947 104.0
1321.903076 116.0
1331.058716 184.0
1336.852539 100.0
1343.913696 156.0
1354.712402 200.0
1359.038208 212.0
1366.598999 68.0
1369.92688 168.0
1370.877319 132.0
1377.030396 128.0
1379.173218 132.0
1385.841187 124.0
1389.325806 140.0
1409.107788 160.0
1412.965698 184.0
1420.85498 156.0
1426.713013 200.0
1427.32959 164.0
1437.167236 168.0
1442.544678 128.0
1445.509521 56.0
1466.836914 196.0
1468.369629 276.0
1486.93103 204.0
1491.901001 188.0
1499.668091 144.0
1502.567749 172.0
1503.323853 176.0
