>compound MLS000860022-01!R(+)-IAA-94
>formula C17H18Cl2O4
>ionization [M+H]+
>parentmass 357.06549086809054
#inchi InChI=1S/C17H18Cl2O4/c1-17(10-4-2-3-5-10)7-9-6-11(23-8-12(20)21)14(18)15(19)13(9)16(17)22/h6,10H,2-5,7-8H2,1H3,(H,20,21)/t17-/m1/s1
#inchikey RNOJGTHBMJBOSP
#Ion_Source LC-ESI
#Instrument qTof
#Compound_Source NIH Pharmacologically Active Library
#PI Dorrestein
#Data_Collector VP/LMS
#Scan -1
#Precursor_MZ 357.069
#ExactMass 356.058
#Charge 1
#CAS_Number N/A
#Pubmed_ID N/A
#Smiles C[C@@]1(Cc2cc(OCC(=O)O)c(Cl)c(Cl)c2C1=O)C3CCCC3
#INCHI_AUX N/A
#Library_Class 1
#SpectrumID CCMSLIB00000085818
#IonMode Positive
#UpdateWorkflowName UPDATE-SINGLE-ANNOTATED-GOLD
#LibraryQualityString Gold
#TaskID d252d724072548979f1f6f1ced849daf
##Scan# 2320
#SpectrumFile p4-F09_GF9_01_18393.mzXML
#LibraryName Pharm_Active_Library.mgf
#MQScore -1
#Organism Pharm_Active_Library
#TIC_Query 0
#RT_Query -1
#MZErrorPPM -1
#SharedPeaks 0
#MassDiff 0
#LibMZ -1
#SpecMZ 357.069
#SpecCharge 0
#internalFilename spec-00000.mgf

>collision 10
45.106026 156.0
45.196972 244.0
45.249172 52.0
45.300064 260.0
45.538834 164.0
45.568386 136.0
45.583168 84.0
45.767456 156.0
45.833462 64.0
46.200714 148.0
46.314426 80.0
47.271572 40.0
47.286625 188.0
47.415371 144.0
47.436932 148.0
47.677509 156.0
47.739372 132.0
47.868732 124.0
47.959663 52.0
48.130737 216.0
48.346394 188.0
48.489044 56.0
48.515381 148.0
48.633293 84.0
48.684666 172.0
48.715221 132.0
48.759689 40.0
48.973961 120.0
49.01297 152.0
49.086849 144.0
49.346569 96.0
49.364746 208.0
49.501892 52.0
49.758492 132.0
49.876499 132.0
50.012943 188.0
50.05518 176.0
50.134071 188.0
50.204559 244.0
50.420567 140.0
50.571907 176.0
50.60022 80.0
50.652618 156.0
50.662533 164.0
50.876682 180.0
51.035812 92.0
51.381924 208.0
51.436153 132.0
51.744953 168.0
51.77932 192.0
51.97142 196.0
51.99725 116.0
52.162434 168.0
52.306286 108.0
52.3466 212.0
52.568604 156.0
52.585461 200.0
52.698566 224.0
52.788185 172.0
52.857624 136.0
52.892361 216.0
52.977798 92.0
53.096661 148.0
53.134377 156.0
53.315887 44.0
53.372581 124.0
53.390034 40.0
53.452587 200.0
53.470051 104.0
53.525372 164.0
53.580723 220.0
53.617153 124.0
53.720085 176.0
53.923649 196.0
54.024548 124.0
54.125538 116.0
54.175339 128.0
54.298466 76.0
54.320469 148.0
54.577492 104.0
54.771759 112.0
54.832172 228.0
54.904415 204.0
54.933914 156.0
54.985558 48.0
55.675488 132.0
55.819637 160.0
55.944622 184.0
56.025043 148.0
56.066765 132.0
56.304317 196.0
56.38765 188.0
56.489326 132.0
56.725285 120.0
56.829422 196.0
56.945015 164.0
57.096817 192.0
57.1269 180.0
57.657665 124.0
57.698483 100.0
57.960335 120.0
57.996708 148.0
58.008835 88.0
58.052803 164.0
58.354984 72.0
58.417339 216.0
58.502563 136.0
58.711315 112.0
58.743347 136.0
58.769283 232.0
58.906689 160.0
59.001442 180.0
59.342869 68.0
59.537754 132.0
59.654533 88.0
59.743729 208.0
59.879189 132.0
59.902294 180.0
59.934647 212.0
60.198433 52.0
60.284943 192.0
60.414825 216.0
60.515427 88.0
60.560337 116.0
60.676563 52.0
60.814629 204.0
61.001034 144.0
61.06012 172.0
61.119236 252.0
61.243782 176.0
61.271824 160.0
61.426163 48.0
61.480774 208.0
61.491699 132.0
61.568203 184.0
61.765141 164.0
61.785477 140.0
62.155254 124.0
62.280853 100.0
62.294991 168.0
62.349987 180.0
62.364132 188.0
62.466343 76.0
62.505676 104.0
62.686771 92.0
62.764015 164.0
62.850769 184.0
62.991287 152.0
63.002346 216.0
63.112217 188.0
63.388416 220.0
63.677155 212.0
64.063698 172.0
64.176857 76.0
64.307671 192.0
64.349174 184.0
64.801819 192.0
65.09536 100.0
65.151581 44.0
65.408882 196.0
65.597359 148.0
65.842621 120.0
65.855537 144.0
66.290749 176.0
66.303719 204.0
66.352348 164.0
66.509705 124.0
66.613632 164.0
66.742027 84.0
66.777809 188.0
66.828239 136.0
66.891708 140.0
67.439796 224.0
67.686836 156.0
67.790039 252.0
67.908081 220.0
67.942535 160.0
67.967148 196.0
68.090271 140.0
68.124763 188.0
68.142838 164.0
68.457016 180.0
68.4916 192.0
68.606537 204.0
69.128914 196.0
69.219955 188.0
69.231552 164.0
69.269646 240.0
69.31604 176.0
69.531631 136.0
69.807411 184.0
69.824043 92.0
69.935516 152.0
70.130402 92.0
70.145409 152.0
70.18042 204.0
70.41906 128.0
70.562775 192.0
70.607925 144.0
70.843941 156.0
70.916 168.0
71.014923 32.0
71.097137 136.0
71.384407 144.0
71.643616 208.0
71.734619 136.0
72.232788 148.0
72.510483 200.0
72.559639 136.0
72.747955 220.0
72.849854 188.0
72.97052 116.0
73.123619 160.0
73.183205 208.0
73.304146 140.0
73.328003 136.0
73.573639 200.0
73.65049 188.0
73.706871 108.0
73.817978 212.0
73.963409 124.0
73.990799 136.0
74.362785 116.0
74.914764 80.0
75.08197 176.0
75.194115 148.0
75.249352 124.0
75.276978 164.0
75.333977 108.0
75.499916 188.0
75.524132 224.0
75.80114 172.0
75.899948 112.0
76.014435 56.0
76.122063 92.0
76.142906 124.0
76.299301 104.0
76.346245 188.0
76.433228 144.0
76.468033 200.0
76.549858 96.0
76.603851 180.0
76.793854 164.0
76.840958 200.0
76.994568 192.0
77.027756 120.0
77.15358 112.0
77.209541 140.0
77.316261 140.0
77.452827 168.0
78.211403 136.0
78.260696 160.0
78.311768 216.0
78.428062 160.0
78.58149 200.0
78.895866 180.0
79.005516 128.0
79.409393 156.0
79.450195 172.0
79.48568 200.0
79.551353 172.0
79.609947 124.0
79.718315 208.0
79.74675 188.0
79.942383 148.0
79.954842 132.0
80.230942 224.0
80.250557 140.0
80.311188 112.0
80.361137 88.0
80.428955 152.0
80.516449 204.0
80.97789 120.0
81.261131 156.0
81.275482 184.0
81.329323 172.0
81.372414 156.0
81.438858 164.0
81.672523 184.0
81.964188 136.0
81.982208 156.0
82.048904 232.0
82.121033 128.0
82.941948 156.0
83.06707 132.0
83.132393 180.0
83.214073 248.0
83.401192 148.0
83.568504 224.0
83.814323 132.0
83.839836 108.0
83.982048 176.0
84.044075 52.0
84.172493 240.0
84.4104 96.0
84.433182 204.0
84.62899 104.0
84.82869 196.0
84.858025 136.0
85.019447 132.0
85.155312 128.0
85.175514 144.0
85.210419 156.0
85.440239 80.0
85.786469 80.0
85.873138 72.0
85.96907 116.0
86.053986 240.0
86.077988 144.0
86.288635 196.0
86.305275 84.0
86.342262 28.0
86.442162 188.0
86.896141 164.0
86.974083 152.0
87.254601 132.0
87.362465 100.0
87.38665 44.0
87.448067 232.0
87.652924 160.0
88.123146 180.0
88.156776 176.0
88.239029 88.0
88.521576 160.0
88.607735 160.0
88.648643 120.0
88.881493 128.0
89.03167 120.0
89.084259 176.0
89.242134 56.0
89.617531 200.0
89.784477 196.0
89.855995 140.0
89.99205 72.0
90.032806 200.0
90.235786 132.0
90.44767 184.0
90.574547 92.0
90.638962 124.0
90.893059 64.0
90.925316 116.0
91.052521 108.0
91.164612 184.0
91.356659 56.0
91.539383 196.0
91.604141 152.0
91.646057 96.0
91.796646 136.0
92.199463 208.0
92.530388 36.0
92.597412 92.0
92.639557 184.0
92.729614 168.0
92.787125 148.0
92.97319 140.0
93.044212 152.0
93.101822 136.0
93.13488 168.0
93.253601 212.0
93.388191 232.0
93.912102 136.0
94.323395 204.0
94.354324 216.0
94.472298 176.0
94.987602 196.0
95.098206 128.0
95.354584 184.0
95.50975 180.0
95.701233 148.0
95.817726 128.0
95.889824 156.0
95.952202 140.0
95.993149 148.0
96.010284 148.0
96.194115 140.0
96.227303 156.0
96.317139 208.0
96.354256 176.0
96.385521 168.0
96.451973 172.0
96.532135 104.0
96.776733 144.0
96.962837 164.0
97.033401 188.0
97.744453 184.0
97.890121 108.0
98.012253 124.0
98.063492 224.0
98.160095 116.0
98.365288 144.0
98.580261 176.0
98.713028 184.0
98.752586 188.0
98.788193 128.0
98.813911 164.0
98.869316 172.0
98.932655 96.0
98.976212 48.0
99.571152 80.0
99.58506 140.0
99.600952 248.0
99.706253 168.0
99.837471 136.0
99.97673 112.0
99.992653 184.0
100.37117 152.0
100.522774 108.0
100.560692 60.0
100.57666 108.0
100.756393 184.0
100.788361 124.0
100.870308 164.0
100.992279 124.0
101.030289 144.0
101.044296 116.0
101.154366 124.0
101.174385 120.0
101.342628 140.0
101.422791 52.0
102.043251 196.0
102.079315 148.0
102.268433 80.0
102.33889 176.0
102.361046 40.0
102.377151 140.0
102.457726 68.0
102.572594 168.0
102.716995 112.0
102.729187 196.0
103.050972 172.0
103.309685 124.0
103.544495 96.0
103.587029 132.0
104.0616 136.0
104.169235 156.0
104.254578 156.0
104.425354 164.0
104.742889 156.0
104.944656 132.0
104.989517 196.0
105.009911 48.0
105.040512 196.0
105.085396 172.0
105.23848 44.0
105.262978 40.0
105.514305 140.0
105.565422 96.0
105.684067 148.0
105.720901 144.0
106.188026 204.0
106.255722 72.0
106.360382 148.0
106.627396 184.0
106.645897 92.0
107.108871 140.0
107.170677 128.0
107.265488 112.0
107.409836 112.0
107.523315 140.0
107.546638 120.0
107.669899 156.0
107.715347 176.0
107.760796 124.0
107.777321 164.0
107.802124 208.0
107.823288 200.0
107.874466 148.0
108.097839 200.0
108.122681 92.0
108.141304 120.0
108.296593 60.0
108.333649 176.0
108.393967 212.0
108.416763 152.0
108.661453 64.0
109.467957 80.0
109.757614 148.0
109.920319 88.0
109.945366 80.0
110.285805 208.0
110.402893 168.0
110.589104 172.0
110.741951 124.0
110.784004 104.0
110.876038 208.0
110.899094 40.0
110.972099 160.0
110.980347 132.0
110.985703 128.0
111.003967 176.0
111.150764 92.0
111.661148 148.0
111.703331 156.0
111.804329 140.0
111.937531 204.0
112.018639 240.0
112.120239 84.0
112.202446 176.0
112.274139 140.0
112.453476 204.0
112.565369 184.0
112.620285 28.0
112.709015 160.0
113.157433 176.0
113.454041 136.0
113.511292 152.0
113.920929 168.0
113.946426 116.0
114.316414 160.0
114.369621 208.0
114.642242 176.0
114.712578 144.0
114.964836 164.0
115.01976 112.0
115.053436 1524.0
115.126518 36.0
115.318802 144.0
115.447083 212.0
115.51339 92.0
115.798073 132.0
115.847343 140.0
116.061638 1700.0
116.09169 168.0
116.113136 96.0
116.138878 32.0
116.398567 120.0
116.523148 76.0
116.557526 88.0
116.604805 48.0
116.669289 108.0
116.772507 224.0
117.028595 116.0
117.066498 188.0
117.116898 176.0
117.168594 196.0
117.341019 48.0
117.763985 172.0
118.036293 60.0
118.074165 164.0
118.345726 220.0
118.488678 180.0
118.506004 208.0
118.59269 244.0
118.666397 176.0
118.796524 152.0
119.046135 328.0
119.076546 180.0
119.141708 84.0
119.161034 188.0
119.176476 144.0
119.33297 208.0
119.374283 124.0
119.67675 152.0
120.031937 124.0
120.058105 192.0
120.420403 140.0
120.649849 172.0
120.791992 140.0
120.978004 100.0
121.284691 164.0
121.387733 152.0
121.532509 164.0
121.758621 168.0
122.380959 152.0
122.475655 104.0
122.493279 140.0
122.533875 188.0
122.660751 136.0
122.909981 96.0
122.965149 108.0
122.985016 140.0
123.026955 168.0
123.084366 164.0
123.267708 112.0
123.633926 160.0
123.827431 164.0
124.128838 148.0
124.412842 228.0
124.470573 176.0
124.657166 160.0
124.826332 204.0
124.992958 104.0
125.014015 192.0
125.206184 184.0
125.311371 128.0
125.381081 196.0
125.433945 132.0
125.558807 108.0
125.654724 196.0
125.788628 44.0
125.813187 180.0
126.016426 232.0
126.044617 296.0
126.061119 224.0
126.416695 172.0
126.557716 176.0
126.739151 136.0
126.783974 104.0
126.860184 92.0
127.010429 136.0
127.026131 148.0
127.360596 160.0
127.677513 156.0
127.780983 128.0
127.873245 128.0
127.927269 104.0
127.956543 184.0
127.976807 164.0
128.071396 176.0
128.114197 68.0
128.154739 176.0
128.32605 200.0
128.407227 120.0
128.472641 176.0
128.517776 232.0
128.833862 68.0
129.009369 236.0
129.035004 180.0
129.051804 344.0
129.06749 504.0
129.349472 140.0
129.440033 120.0
129.648453 44.0
130.065781 172.0
130.138428 72.0
130.215637 204.0
130.49971 92.0
130.677109 156.0
130.925232 184.0
130.952576 160.0
131.048203 200.0
131.255676 104.0
131.417328 156.0
131.801239 248.0
131.888077 152.0
131.947525 196.0
132.006973 132.0
132.056839 676.0
132.661804 308.0
132.859894 192.0
133.059906 344.0
133.127594 160.0
133.336655 152.0
133.355042 112.0
133.437805 124.0
133.456192 180.0
133.785202 148.0
133.84967 164.0
134.033951 144.0
134.077744 100.0
134.216064 140.0
134.260895 144.0
134.400589 88.0
134.846298 112.0
134.991959 180.0
135.045151 168.0
135.223312 92.0
135.311279 188.0
135.508148 172.0
135.997803 188.0
136.092651 44.0
136.132126 188.0
136.215729 148.0
136.266846 124.0
136.371414 124.0
136.443481 132.0
136.520218 52.0
136.852982 164.0
137.012878 1008.0
137.106903 80.0
137.286407 44.0
137.818649 156.0
137.900436 144.0
138.023758 240.0
138.255112 280.0
138.33786 172.0
138.499435 124.0
138.691589 120.0
138.712677 128.0
138.759567 108.0
138.836945 44.0
138.896881 196.0
138.995743 208.0
139.001617 144.0
139.029251 240.0
139.050446 180.0
139.066879 132.0
139.235931 156.0
139.654297 108.0
139.689575 220.0
139.793106 344.0
139.882538 192.0
140.019119 160.0
140.042664 160.0
140.122757 176.0
140.226883 108.0
140.41507 208.0
140.443375 216.0
140.484894 160.0
140.516495 224.0
141.007996 152.0
141.066772 100.0
141.125885 112.0
141.177902 140.0
141.383728 224.0
141.729477 152.0
141.987869 192.0
142.05191 216.0
142.120712 156.0
142.57428 112.0
142.659851 144.0
142.835831 160.0
142.869141 168.0
143.011917 144.0
143.046249 340.0
143.238129 136.0
143.695862 144.0
143.756561 236.0
143.898727 208.0
143.999023 60.0
144.055603 472.0
144.161484 48.0
144.261871 160.0
144.350342 148.0
144.577606 124.0
144.747574 44.0
144.778717 200.0
144.872086 228.0
144.948807 124.0
144.996735 172.0
145.064285 8464.0
145.105209 64.0
145.269394 208.0
145.294067 52.0
145.363663 208.0
145.433258 124.0
145.928146 228.0
145.966614 160.0
146.0681 740.0
146.118149 140.0
146.216812 128.0
146.301056 48.0
146.341995 184.0
146.52504 136.0
146.617783 132.0
146.635895 96.0
146.669357 104.0
146.754013 76.0
146.867355 88.0
146.910782 40.0
146.951797 240.0
147.009705 92.0
147.041153 180.0
147.06192 88.0
147.195587 40.0
147.218948 184.0
147.355011 92.0
147.434753 180.0
147.574951 160.0
147.751526 128.0
147.908813 204.0
148.039566 100.0
148.194595 100.0
148.286682 72.0
148.32196 108.0
148.371521 144.0
148.558258 160.0
148.924805 164.0
148.941818 120.0
149.014053 1496.0
149.060867 160.0
149.437759 36.0
149.537537 192.0
149.949158 156.0
149.991608 184.0
150.022537 1548.0
150.144196 152.0
150.207611 68.0
150.288132 136.0
150.537109 76.0
150.769196 116.0
151.028732 2236.0
151.07045 196.0
151.204529 116.0
151.297546 132.0
151.412643 216.0
151.696869 92.0
151.991196 128.0
152.018845 476.0
152.053345 160.0
152.057907 196.0
152.357025 180.0
152.411087 96.0
152.592972 88.0
152.762665 104.0
152.895538 180.0
152.997284 132.0
153.024704 380.0
153.064178 164.0
153.114655 64.0
153.136826 148.0
153.269867 196.0
153.319153 140.0
153.358582 212.0
153.395554 172.0
153.459656 96.0
154.017395 176.0
154.038971 212.0
154.077393 212.0
154.118698 44.0
154.274399 56.0
155.007721 344.0
155.017883 232.0
155.024872 160.0
155.050598 476.0
155.155746 312.0
155.634613 184.0
156.007294 424.0
156.047073 144.0
156.114212 144.0
156.268448 124.0
156.335632 240.0
156.470047 108.0
156.59465 104.0
157.062622 184.0
157.377609 164.0
157.512482 124.0
157.564941 192.0
157.617416 208.0
157.673889 212.0
157.817383 188.0
157.939926 324.0
158.255249 180.0
158.285309 172.0
158.65863 156.0
158.921982 168.0
158.974762 1776.0
158.996017 184.0
159.019867 204.0
159.04245 180.0
159.060028 80.0
159.140366 112.0
159.213181 180.0
159.464432 180.0
159.514694 116.0
159.615265 188.0
159.899551 152.0
159.984497 184.0
159.996201 120.0
160.007248 112.0
160.01651 208.0
160.054077 344.0
160.111038 152.0
160.173996 120.0
160.259659 68.0
160.320145 140.0
160.383148 112.0
160.496597 132.0
160.642883 196.0
160.753891 160.0
160.917969 200.0
160.973602 1028.0
161.015335 244.0
161.055984 364.0
161.15332 68.0
161.415756 52.0
161.446106 56.0
161.845932 152.0
161.957779 196.0
161.986145 208.0
162.022079 3072.0
162.062576 128.0
162.152466 112.0
162.24118 60.0
162.307098 96.0
162.451675 152.0
162.47197 136.0
162.553162 156.0
162.80957 204.0
162.971497 200.0
162.995178 124.0
163.027817 788.0
163.241592 148.0
163.523987 176.0
163.57988 200.0
163.974808 140.0
164.018921 1180.0
164.178772 108.0
164.330551 104.0
164.492599 208.0
164.515579 40.0
164.980545 232.0
165.006073 1684.0
165.04895 164.0
165.068893 624.0
165.105835 36.0
165.328415 60.0
166.014877 500.0
166.07782 376.0
166.10733 132.0
166.261276 32.0
166.297211 72.0
166.361389 84.0
166.458954 200.0
166.518021 108.0
166.551422 108.0
166.726135 100.0
167.022552 1016.0
167.081238 472.0
167.111862 76.0
167.464539 84.0
167.52121 204.0
167.616547 96.0
168.016647 276.0
168.038849 164.0
168.091019 144.0
168.149353 100.0
168.232986 40.0
168.258804 172.0
168.480911 104.0
168.584259 168.0
168.713501 100.0
168.824692 140.0
169.002045 432.0
169.024155 360.0
169.063766 292.0
169.101517 200.0
169.637711 36.0
169.808853 204.0
169.977478 168.0
170.330582 220.0
170.639847 200.0
170.702255 76.0
170.964996 164.0
171.037552 256.0
171.101593 236.0
171.220139 48.0
171.666077 180.0
172.050018 528.0
172.080673 144.0
172.409821 176.0
172.762817 176.0
172.796829 120.0
172.955353 684.0
172.984894 204.0
173.015457 104.0
173.052414 184.0
173.092606 188.0
173.226181 124.0
173.247131 168.0
173.530197 84.0
173.603607 112.0
173.724274 160.0
174.019684 128.0
174.081238 204.0
174.267731 200.0
174.291382 268.0
174.546356 168.0
174.767319 200.0
174.953949 328.0
174.975647 316.0
175.003738 156.0
175.030014 140.0
175.075317 168.0
175.78447 68.0
175.970123 120.0
176.039017 224.0
176.302063 180.0
176.402512 140.0
176.4263 120.0
176.751633 152.0
176.960327 132.0
177.005493 592.0
177.034317 132.0
177.101105 76.0
177.211609 140.0
177.358124 112.0
177.376678 252.0
177.429703 92.0
177.482727 164.0
177.554321 52.0
177.596771 264.0
177.901932 164.0
177.962997 168.0
178.016678 3368.0
178.079727 168.0
178.148911 44.0
178.499756 200.0
178.61145 40.0
178.824326 132.0
178.949738 184.0
179.024506 3552.0
179.086243 740.0
179.133209 124.0
179.317062 104.0
179.359528 56.0
179.437027 40.0
179.488571 252.0
179.839844 60.0
179.909256 140.0
179.935944 144.0
179.984009 120.0
180.031906 11412.0
180.091293 224.0
180.244827 168.0
180.30191 68.0
180.430222 100.0
180.481018 40.0
180.67894 112.0
180.748505 96.0
180.860916 200.0
180.962646 132.0
181.033401 600.0
181.061005 208.0
181.102554 488.0
181.180832 164.0
181.196457 108.0
181.289444 68.0
181.385941 76.0
181.541443 160.0
181.58168 120.0
181.809723 140.0
181.930511 76.0
181.957367 216.0
182.028412 1948.0
182.105545 312.0
182.234009 68.0
182.254822 128.0
182.348938 224.0
182.481277 104.0
182.806763 188.0
182.973923 320.0
183.004044 324.0
183.034073 200.0
183.075104 148.0
183.116364 40.0
183.181015 48.0
183.251068 68.0
183.326508 108.0
183.345383 224.0
183.396591 100.0
183.512512 116.0
183.82811 128.0
183.941284 120.0
183.980804 232.0
184.01976 188.0
184.143982 44.0
184.168289 112.0
184.195587 156.0
184.243927 48.0
184.411469 152.0
184.473648 176.0
184.898315 184.0
184.955154 180.0
184.989609 444.0
185.095932 136.0
185.483368 164.0
185.599945 56.0
185.846786 96.0
185.911194 136.0
185.966202 168.0
185.993729 164.0
186.023834 104.0
186.145386 104.0
186.997452 488.0
187.028656 164.0
187.129715 208.0
187.195068 56.0
187.393906 168.0
187.500183 100.0
187.797379 60.0
187.965057 260.0
187.988358 156.0
188.036469 460.0
188.198547 144.0
188.258621 84.0
188.27774 160.0
188.332367 112.0
188.411591 72.0
188.550949 48.0
188.979645 188.0
189.009308 848.0
189.080551 112.0
189.379974 184.0
189.974823 148.0
190.017365 964.0
190.052719 276.0
190.403015 36.0
190.529373 236.0
190.578842 72.0
190.768478 164.0
190.867462 124.0
190.980743 372.0
191.014328 620.0
191.087677 244.0
191.178314 112.0
191.340714 76.0
191.409546 116.0
191.866943 192.0
191.972229 212.0
192.012512 644.0
192.033386 580.0
192.090591 124.0
192.385605 328.0
192.554047 188.0
192.587189 124.0
193.004135 460.0
193.102081 540.0
193.17598 180.0
193.214706 152.0
193.306015 60.0
193.51915 140.0
193.593918 52.0
193.77951 120.0
193.829391 164.0
193.940247 36.0
194.009811 940.0
194.078857 76.0
194.109711 472.0
194.309082 180.0
194.79213 148.0
194.839371 52.0
194.85881 100.0
194.939392 128.0
194.976929 416.0
195.019058 7328.0
195.075211 288.0
195.116943 492.0
195.250763 188.0
195.309174 132.0
195.755264 244.0
195.779541 124.0
195.835251 92.0
195.904251 160.0
195.985016 416.0
195.99295 188.0
196.026749 2948.0
196.05574 232.0
196.091583 160.0
196.113892 108.0
196.158478 120.0
196.208664 40.0
196.320206 56.0
196.456879 64.0
196.546158 128.0
196.635468 148.0
196.853226 72.0
196.990067 2216.0
197.016373 1264.0
197.098709 196.0
197.216431 44.0
197.320328 72.0
197.459686 136.0
197.507233 84.0
197.543594 72.0
197.680695 48.0
197.703079 64.0
197.770248 164.0
197.809448 136.0
197.987015 668.0
198.023026 880.0
198.139908 212.0
198.246384 36.0
198.341675 164.0
198.712921 160.0
198.985977 1164.0
199.059921 136.0
199.433594 52.0
199.4617 88.0
199.537598 96.0
199.81604 84.0
199.977158 420.0
200.034042 468.0
200.148178 172.0
200.167892 180.0
200.345337 116.0
200.573593 44.0
200.601791 164.0
200.641251 72.0
200.986877 1500.0
201.040604 632.0
201.098251 64.0
201.321289 140.0
201.485123 116.0
201.673508 176.0
201.818634 136.0
201.951553 172.0
201.978058 384.0
201.998978 348.0
202.053925 396.0
202.08812 44.0
202.109985 84.0
202.312271 136.0
202.378891 180.0
202.424194 128.0
202.503494 108.0
202.534653 156.0
202.866196 108.0
202.981689 836.0
203.030258 256.0
203.072815 180.0
203.300171 44.0
203.385315 216.0
203.418182 120.0
203.558502 64.0
203.683472 68.0
203.71756 116.0
203.987534 236.0
204.026047 176.0
204.059128 376.0
204.088364 164.0
204.16098 116.0
204.186569 132.0
204.488159 180.0
204.93811 216.0
204.995392 368.0
205.025055 296.0
205.100555 192.0
205.131912 88.0
205.208893 168.0
205.685318 232.0
205.782379 40.0
206.017227 156.0
206.070862 248.0
206.285217 208.0
206.974731 180.0
207.020493 556.0
207.076233 140.0
207.255447 216.0
207.447479 76.0
208.027679 876.0
208.086182 324.0
208.133194 52.0
208.943741 68.0
208.990326 816.0
209.02179 312.0
209.101746 132.0
209.479218 40.0
209.527496 192.0
209.735672 136.0
209.905777 44.0
210.001465 156.0
210.026108 452.0
210.106522 292.0
210.393402 196.0
210.566666 136.0
210.980957 336.0
210.995987 424.0
211.037704 100.0
211.08107 144.0
211.399292 72.0
211.451385 36.0
211.764084 132.0
211.801727 64.0
211.853882 116.0
211.907425 108.0
211.980392 144.0
212.030792 152.0
212.137878 128.0
212.319168 48.0
212.340851 92.0
212.372757 116.0
212.752914 100.0
212.816788 52.0
212.885223 96.0
212.984879 4016.0
213.042511 472.0
213.121765 196.0
213.351379 52.0
213.438614 64.0
213.570221 140.0
213.758591 84.0
213.799332 144.0
213.892471 92.0
213.921585 36.0
213.992844 644.0
214.057419 536.0
214.175934 112.0
214.262314 132.0
214.297806 224.0
214.358475 48.0
214.442993 152.0
214.547928 192.0
214.580002 180.0
214.769562 40.0
214.923996 288.0
214.98735 2864.0
215.058823 684.0
215.143082 76.0
215.189804 128.0
215.277405 88.0
215.33873 84.0
215.365021 44.0
215.420929 116.0
215.449738 196.0
215.476639 120.0
215.56369 140.0
215.619217 144.0
215.637802 64.0
215.70105 64.0
215.747833 68.0
215.832626 36.0
215.917709 168.0
215.972946 304.0
215.981339 396.0
216.012161 456.0
216.03186 328.0
216.065826 420.0
216.126358 96.0
216.166092 120.0
216.279266 84.0
216.373917 172.0
216.448364 108.0
216.690231 100.0
216.716599 152.0
216.833832 72.0
216.969742 864.0
216.992477 1224.0
217.036621 712.0
217.071457 656.0
217.135803 56.0
217.235535 56.0
217.267807 92.0
217.352905 80.0
217.440948 56.0
217.602402 52.0
217.637634 60.0
217.752167 156.0
217.966034 476.0
217.998138 132.0
218.02771 248.0
218.033829 124.0
218.043823 284.0
218.073883 312.0
218.084244 236.0
218.254684 72.0
218.49881 124.0
218.616516 96.0
218.803543 164.0
218.96637 312.0
218.990219 220.0
219.064224 1252.0
219.25264 32.0
219.531616 140.0
219.615295 124.0
219.753952 180.0
219.984161 184.0
220.016632 128.0
220.071808 508.0
220.134735 140.0
220.211533 144.0
220.329681 104.0
220.365143 68.0
220.397644 236.0
220.436066 40.0
220.583847 100.0
220.976868 76.0
221.001328 168.0
221.068909 280.0
221.099167 124.0
221.658218 172.0
221.859772 160.0
221.951675 168.0
221.975403 148.0
222.099701 356.0
222.375916 32.0
223.005127 424.0
223.120651 120.0
223.243439 44.0
223.267242 104.0
223.645096 88.0
223.981583 160.0
224.009369 452.0
224.108322 128.0
224.145447 172.0
224.330231 204.0
224.416687 76.0
224.604584 92.0
224.762695 104.0
224.879089 56.0
224.908936 136.0
224.985764 3216.0
225.029953 424.0
225.162735 72.0
225.560135 56.0
225.921982 200.0
225.988235 1020.0
226.101517 64.0
226.36496 60.0
226.469788 132.0
226.559647 136.0
226.847351 180.0
226.982071 2480.0
227.055893 160.0
227.087234 32.0
227.229645 76.0
227.351257 64.0
227.38916 184.0
227.435303 192.0
227.477325 60.0
227.516342 84.0
227.908356 108.0
227.980942 416.0
228.034271 192.0
228.06665 604.0
228.147247 56.0
228.321655 60.0
228.372787 80.0
228.43222 140.0
228.610458 52.0
228.649582 36.0
228.70076 128.0
228.924408 56.0
228.980103 3576.0
229.044037 528.0
229.076035 644.0
229.137421 32.0
229.194672 52.0
229.263977 64.0
229.312195 72.0
229.556396 92.0
229.604645 80.0
229.641907 132.0
229.730942 152.0
229.815811 52.0
229.858063 124.0
229.986969 1828.0
230.046158 688.0
230.084763 968.0
230.184082 52.0
230.25354 120.0
230.336197 164.0
230.422699 232.0
230.625183 108.0
230.661453 108.0
230.682617 64.0
230.717651 64.0
230.994965 9596.0
231.056183 288.0
231.139313 36.0
231.31485 48.0
231.345123 72.0
231.463211 44.0
231.517715 96.0
231.626755 112.0
231.658661 68.0
231.923721 156.0
231.990723 952.0
232.043716 516.0
232.077179 148.0
232.430191 92.0
232.457504 56.0
232.496964 148.0
232.578903 92.0
232.785355 196.0
232.83699 132.0
232.869812 124.0
232.906845 160.0
232.993439 6252.0
233.050613 360.0
233.095215 148.0
233.171188 76.0
233.262375 36.0
233.417435 144.0
233.57489 188.0
233.621216 136.0
233.837265 116.0
233.885971 40.0
233.913361 68.0
233.993103 560.0
234.053421 60.0
234.327545 80.0
234.431152 96.0
234.98558 400.0
235.010757 208.0
235.077667 168.0
235.282181 72.0
235.404312 32.0
235.718964 100.0
236.018723 324.0
236.18367 60.0
236.389877 128.0
236.416199 68.0
236.68866 132.0
236.987595 844.0
237.571365 124.0
238.001572 280.0
238.016815 204.0
238.023666 188.0
238.084427 164.0
238.203766 124.0
238.452652 260.0
238.501831 164.0
238.541794 212.0
239.005493 2636.0
239.169327 220.0
239.270905 104.0
239.769928 188.0
239.850067 92.0
239.927139 140.0
240.003937 172.0
240.07515 168.0
240.547226 40.0
240.992538 916.0
241.149567 68.0
241.332993 88.0
241.421631 144.0
241.737183 48.0
241.99823 180.0
242.04364 136.0
242.079758 284.0
242.164429 112.0
242.220184 76.0
242.393692 92.0
242.939789 152.0
242.995392 4088.0
243.053207 500.0
243.103836 48.0
243.153488 48.0
243.200043 56.0
243.460846 140.0
243.510544 192.0
243.560242 116.0
243.678284 56.0
243.723343 104.0
243.83989 68.0
243.930023 52.0
243.997284 744.0
244.061203 144.0
244.116577 48.0
244.140869 84.0
244.315643 104.0
244.52594 192.0
244.538803 112.0
244.549957 160.0
244.598831 152.0
244.71402 48.0
244.735825 128.0
244.875961 120.0
244.932022 168.0
244.991913 3348.0
245.072159 612.0
245.18129 104.0
245.228043 168.0
245.329773 112.0
245.585663 92.0
245.614685 124.0
245.645874 132.0
245.692673 36.0
245.883026 52.0
245.972321 124.0
246.005966 460.0
246.058594 172.0
246.213959 36.0
246.787125 48.0
246.863998 224.0
246.966858 136.0
246.993011 240.0
247.071106 496.0
247.211243 48.0
247.458542 40.0
247.593185 160.0
247.83754 104.0
247.893936 132.0
248.016174 164.0
248.068283 180.0
248.116486 52.0
248.147842 76.0
248.26387 32.0
248.335999 184.0
248.436386 40.0
248.546188 40.0
248.573868 112.0
248.957428 164.0
248.991974 148.0
249.017105 148.0
249.145889 56.0
249.56076 196.0
249.919342 52.0
249.9814 100.0
250.011581 340.0
250.038925 280.0
250.271881 48.0
250.694 120.0
251.001862 192.0
251.023346 304.0
251.20163 184.0
251.302582 100.0
251.351242 184.0
251.488785 164.0
251.908752 48.0
251.971024 164.0
252.002396 284.0
252.167862 168.0
252.47139 164.0
252.667496 140.0
253.023499 1096.0
253.094803 164.0
253.297485 116.0
253.5383 124.0
253.563644 80.0
253.829956 68.0
254.030396 3388.0
254.084976 120.0
254.305832 60.0
254.509018 36.0
254.620163 40.0
254.664627 112.0
254.74086 88.0
255.034546 476.0
256.028473 872.0
256.076843 96.0
256.328522 124.0
256.376343 96.0
256.624969 64.0
256.90564 40.0
256.934357 132.0
257.07077 800.0
257.250305 76.0
257.480194 80.0
257.528107 140.0
257.676025 172.0
258.075958 684.0
258.644043 236.0
258.740082 136.0
258.972076 440.0
258.99176 68.0
259.021912 160.0
259.049408 312.0
259.057617 184.0
259.083405 340.0
259.121216 72.0
260.075043 268.0
260.208496 168.0
260.968384 112.0
260.999084 296.0
261.053589 148.0
261.105042 92.0
261.265869 48.0
261.529755 40.0
261.764771 128.0
261.890381 76.0
262.014343 136.0
262.039551 252.0
262.296387 40.0
263.003845 372.0
263.039246 336.0
263.17392 40.0
264.011047 140.0
264.050598 356.0
264.985504 88.0
265.02063 904.0
265.396851 108.0
265.439026 48.0
265.662811 116.0
265.902924 44.0
266.007629 316.0
266.059937 88.0
266.308777 44.0
266.936035 120.0
267.01355 592.0
267.635651 68.0
267.980927 120.0
268.013733 172.0
268.140594 100.0
268.297058 52.0
268.495972 148.0
268.988678 144.0
269.027832 352.0
269.114655 212.0
269.236816 60.0
269.81192 108.0
269.867493 144.0
269.988495 132.0
270.125885 176.0
270.174957 136.0
270.518585 140.0
270.715027 236.0
270.992462 1180.0
271.032776 144.0
271.091766 236.0
271.988831 124.0
272.354919 60.0
273.005341 640.0
273.272125 156.0
273.80542 28.0
273.920715 80.0
273.983368 240.0
274.017487 224.0
274.999451 304.0
275.036346 392.0
275.966309 176.0
276.016357 192.0
276.028381 168.0
276.066101 184.0
276.185181 60.0
277.004669 164.0
277.035645 140.0
278.025543 556.0
278.062897 124.0
279.024597 516.0
280.034607 424.0
281.012268 80.0
281.045868 376.0
281.987396 160.0
282.042145 368.0
282.091003 128.0
282.723175 128.0
282.991852 808.0
283.037842 116.0
283.9935 284.0
284.278168 88.0
284.449341 148.0
284.529907 216.0
284.990875 1188.0
285.043823 236.0
285.447205 180.0
285.756683 60.0
285.991577 164.0
286.110077 104.0
286.921997 172.0
286.984589 992.0
287.104095 36.0
287.168182 116.0
287.249146 44.0
287.775635 96.0
287.993408 156.0
288.096466 56.0
288.207977 124.0
288.328369 96.0
288.48172 108.0
288.654175 48.0
288.745483 100.0
288.835449 168.0
288.942932 320.0
289.00119 11952.0
289.055145 276.0
289.188721 40.0
289.219177 136.0
289.371521 164.0
289.39859 56.0
289.483246 100.0
289.609222 84.0
289.639069 52.0
289.866058 48.0
290.003326 1432.0
290.070953 124.0
290.205017 72.0
290.22876 72.0
290.493317 144.0
290.518646 76.0
290.587891 136.0
290.679901 148.0
290.886963 56.0
290.931091 80.0
290.998322 6072.0
291.057129 324.0
291.109131 92.0
291.157532 156.0
291.192535 76.0
291.25708 56.0
291.566284 64.0
291.627472 80.0
291.736237 52.0
291.780426 108.0
291.902832 76.0
291.936859 144.0
292.00238 372.0
292.324677 44.0
292.791077 28.0
292.998444 624.0
293.048737 912.0
293.128326 92.0
293.19989 44.0
293.619263 56.0
293.864868 44.0
294.039917 200.0
294.096924 72.0
294.271027 116.0
294.981659 40.0
295.046021 424.0
295.299652 96.0
295.412537 28.0
295.528839 40.0
295.901917 116.0
295.994385 136.0
296.019562 176.0
296.043915 324.0
296.179321 28.0
296.545959 176.0
297.008728 428.0
297.472107 128.0
297.85672 60.0
298.013123 136.0
299.004913 528.0
299.046448 244.0
299.390747 92.0
300.01358 164.0
301.004669 76.0
301.066833 152.0
302.491364 92.0
303.073212 88.0
303.957428 68.0
304.083893 1144.0
305.081726 428.0
305.670593 140.0
306.079865 328.0
306.30426 44.0
306.837463 68.0
307.032745 28.0
307.098999 120.0
307.165283 64.0
307.322296 104.0
308.663605 64.0
308.960907 124.0
309.520935 56.0
310.007172 144.0
310.042908 212.0
310.319855 128.0
311.010956 156.0
311.063599 164.0
311.103485 88.0
312.005096 76.0
313.010254 156.0
315.955139 112.0
318.93042 40.0
319.865967 136.0
320.471405 128.0
322.091095 184.0
324.036835 144.0
325.935364 92.0
326.028809 232.0
328.015625 140.0
333.005493 140.0
337.040283 276.0
339.048798 588.0
340.058197 144.0
340.897064 112.0
341.03894 100.0
341.4375 32.0
342.048309 148.0
355.289795 132.0
355.811493 80.0
355.92038 60.0
357.061218 708.0
357.469116 40.0
357.544373 76.0
358.067871 256.0
359.060333 596.0
359.326752 36.0
360.043976 140.0
360.074188 124.0
372.557312 52.0
380.827942 36.0
386.562988 100.0
387.514526 100.0
392.648468 116.0
394.13678 48.0
407.260376 140.0
412.026001 40.0
419.293671 100.0
423.420135 88.0
425.729126 44.0
440.407959 104.0
442.750153 80.0
443.625885 108.0
447.773254 96.0
463.188171 92.0
463.796661 72.0
466.453766 48.0
473.144897 52.0
473.898529 68.0
488.709625 52.0
492.293457 116.0
497.278625 80.0
498.073425 56.0
504.7677 72.0
507.225708 56.0
511.353638 72.0
513.583984 60.0
517.235046 116.0
518.961182 84.0
523.172913 36.0
524.361816 56.0
524.452942 96.0
534.956848 76.0
543.581604 120.0
552.289307 96.0
579.316223 76.0
589.71991 144.0
593.976135 100.0
600.15271 112.0
601.792175 60.0
613.48877 88.0
625.865479 64.0
634.068359 112.0
635.382141 132.0
653.678894 64.0
656.409363 92.0
660.771545 108.0
704.48999 104.0
721.806824 68.0
739.80481 80.0
751.80658 88.0
755.057251 92.0
770.957031 28.0
795.117432 160.0
795.246521 116.0
799.692505 68.0
800.756653 100.0
801.844055 72.0
823.998413 116.0
827.075134 44.0
827.143799 92.0
846.512573 84.0
856.89856 56.0
863.547668 68.0
876.168701 40.0
895.867615 96.0
914.346497 56.0
922.423035 96.0
925.326965 248.0
969.960144 180.0
983.02771 80.0
1009.121582 168.0
1019.542969 116.0
1031.442871 128.0
1031.602783 132.0
1045.734131 196.0
1065.009277 76.0
1074.605103 204.0
1087.156006 112.0
1097.041992 108.0
1104.008057 192.0
1108.4104 108.0
1114.116577 180.0
1126.581299 164.0
1141.52832 152.0
1145.115479 188.0
1148.377686 84.0
1155.152832 160.0
1158.544556 236.0
1166.307739 200.0
1173.374146 136.0
1179.326904 116.0
1186.994873 140.0
1189.519653 156.0
1192.59021 160.0
1193.759033 196.0
1203.28186 48.0
1218.039917 156.0
1228.523804 84.0
1231.644165 168.0
1247.418091 132.0
1248.796265 196.0
1257.130981 44.0
1263.985718 180.0
1264.636841 132.0
1266.052856 164.0
1274.196167 136.0
1275.31897 136.0
1275.830811 180.0
1277.402466 168.0
1289.874756 180.0
1295.520996 104.0
1300.296631 256.0
1305.721069 140.0
1306.828979 120.0
1311.574951 176.0
1311.70459 132.0
1315.737427 188.0
1317.326172 180.0
1317.868042 140.0
1319.046143 124.0
1320.579102 108.0
1321.577393 136.0
1325.661499 64.0
1334.50293 216.0
1334.611938 220.0
1338.140869 76.0
1340.705078 28.0
1344.533936 180.0
1345.490112 60.0
1345.935547 176.0
1347.228394 164.0
1349.150391 164.0
1359.265503 140.0
1361.585449 148.0
1373.17749 44.0
1375.53125 212.0
1375.774902 36.0
1378.803467 136.0
1379.150879 72.0
1384.685303 132.0
1396.546143 128.0
1397.744019 148.0
1397.967285 60.0
1398.086304 152.0
1399.843262 144.0
1400.662476 84.0
1402.75647 180.0
1403.084473 92.0
1403.499146 156.0
1404.12854 104.0
1405.687744 148.0
1407.359741 196.0
1411.462036 64.0
1413.489258 132.0
1416.619019 136.0
1423.684692 220.0
1423.857422 140.0
1424.548462 252.0
1426.179077 184.0
1431.008789 116.0
1433.607666 108.0
1434.014648 132.0
1435.047485 140.0
1437.604614 72.0
1439.084106 144.0
1439.522095 160.0
1445.880127 132.0
1447.46228 196.0
1448.151489 152.0
1454.384277 148.0
1454.657593 180.0
1454.733521 172.0
1455.424438 152.0
1458.356934 112.0
1461.642334 144.0
1463.910889 152.0
1468.674438 152.0
1472.796265 188.0
1476.595093 108.0
1477.084595 168.0
1479.625366 200.0
1479.709595 124.0
1483.049683 112.0
1489.641235 168.0
1492.238892 176.0
1497.964844 148.0
1502.235596 192.0
