>compound Dexamethazone
>formula C22H29FO5 
>ionization [M+H]+
>parentmass 393.209
#inchi InChI=1S/C22H29FO5/c1-12-8-16-15-5-4-13-9-14(25)6-7-19(13,2)21(15,23)17(26)10-20(16,3)22(12,28)18(27)11-24/h6-7,9,12,15-17,24,26,28H,4-5,8,10-11H2,1-3H3/t12-,15+,16+,17+,19+,20+,21+,22+/m1/s1
#inchikey UREBDLICKHMUKA
#Ion_Source LC-ESI
#Instrument qTof
#Compound_Source Isolated
#PI Sirenas
#Data_Collector Ed Esquenazi 
#Scan -1
#Precursor_MZ 393.209
#ExactMass 0.0
#Charge 1
#CAS_Number N/A
#Pubmed_ID N/A
#Smiles N/A
#INCHI_AUX N/A
#Library_Class 3
#SpectrumID CCMSLIB00000004678
#IonMode Positive
#UpdateWorkflowName UPDATE-SINGLE-ANNOTATED-BRONZE
#LibraryQualityString Bronze
#TaskID d19310cd93df49b68e9fcbec27720eb5
##Scan# 5
#SpectrumFile Dexamethazone.mgf
#LibraryName fda_library.mgf
#MQScore -1
#Organism fda_library
#TIC_Query 0
#RT_Query -1
#MZErrorPPM -1
#SharedPeaks 0
#MassDiff 0
#LibMZ -1
#SpecMZ 393.209
#SpecCharge 0
#internalFilename spec-00000.mgf

>collision 10
101.023582 7.854167
101.055557 6.740942
101.064766 28.11132
101.125298 8.897436
101.45063 5.335318
101.892616 17.6875
102.046242 63.01503
103.63121 9.363334
105.071938 205.501495
105.116943 2.083333
106.845276 10.95833
107.085388 1369.383057
107.130539 13.51944
107.13813 1.666667
107.159996 7.061274
107.177742 6.017857
107.249786 4.694444
107.27861 6.125
107.375832 11.88158
107.386742 12.68182
107.448402 4.125
107.476242 5.666667
108.091431 66.887207
108.572357 7.260803
109.065514 262.5065
109.101509 330.764587
109.127174 5.157052
109.255814 9.357142
109.29866 7.678764
109.347092 6.15
109.587654 13.64209
109.819374 5.007576
110.238991 17.35227
110.579079 4.481482
111.075813 89.333344
111.081459 166.446304
111.117325 27.683331
111.271492 11.875
113.059044 83.901031
113.073853 23.271669
113.092171 34.709179
113.417503 8.039474
114.65107 6.88587
115.053032 26.89167
115.075317 325.247711
115.285011 1.6875
115.449631 10.8375
115.628098 18.19813
116.511269 8.049603
117.053658 190.695602
117.41362 14.38043
117.654037 9.355556
118.251076 20.41667
118.663719 4.416667
119.046837 38.768291
119.08429 837.122498
119.488602 5.518939
119.631981 10.10887
119.832954 8.136111
120.369301 4.266667
120.432449 9.0
120.457985 6.125
120.658569 10.37255
121.063972 1149.600952
121.101151 660.228699
121.139778 3.675926
121.151237 10.01389
121.177124 5.88587
121.18956 5.702587
121.228973 12.75076
121.258507 8.34543
121.305992 5.884804
121.323639 9.109649
121.341576 6.669445
121.517792 1.671296
122.3797 6.334524
122.414902 85.203484
122.597244 3.541667
123.080215 758.12323
123.114578 76.356361
123.169922 13.9679
123.193115 1.720238
123.363045 8.360043
123.486748 8.745155
123.660751 4.382936
124.40123 12.93895
125.059547 598.302429
125.095848 236.220306
125.154663 2.722222
125.263657 10.50347
125.380119 9.097222
125.477806 6.721491
125.490135 12.30682
127.052391 35.00185
127.108505 9.375
127.441818 7.378623
128.061584 81.748863
129.013565 6.506945
130.281189 3.0
131.084763 647.18103
131.136322 3.010417
131.191742 11.77885
131.204056 5.009259
132.057663 37.90667
132.173477 11.86833
132.354202 8.670455
132.417679 3.027778
132.446655 5.633333
133.064087 383.021088
133.101562 465.982605
133.135788 4.741667
133.178619 29.53178
133.215302 11.92647
133.315353 5.75
133.396851 11.8125
133.517349 1.666667
134.391144 8.666667
135.080139 1679.18103
135.11702 80.827164
135.16925 3.893518
135.230118 8.629902
135.23941 4.335526
135.301376 10.54688
135.360611 3.490385
135.41748 12.67816
135.457962 8.672222
135.539185 8.388441
135.68898 27.737789
136.333054 8.746795
136.569656 5.382936
136.938705 5.592949
137.059647 81.707237
137.095459 756.805725
137.127197 3.025
137.146652 11.04762
137.160904 8.151515
137.196579 9.805555
137.213287 19.230631
137.265823 4.760417
137.375824 7.719017
137.404526 10.36687
137.441177 7.291667
137.829132 5.939394
138.435196 10.17339
138.650848 6.703703
139.075348 135.575607
139.109695 42.737789
139.319519 28.754101
141.051987 127.700104
141.067719 215.725693
141.088135 126.690399
141.385193 17.037359
143.069626 32.74094
143.084763 271.647614
143.147812 10.00417
143.161987 24.09375
143.397888 8.388441
143.491409 8.416667
143.651047 21.891371
144.056396 36.37606
144.336533 9.396825
145.062332 212.512604
145.102814 132.862595
145.295471 9.242816
145.509171 15.0
145.761078 11.71605
145.824081 7.001812
146.069763 80.896629
146.174515 22.1201
146.249451 9.630208
146.290909 3.005953
146.307648 7.242816
146.337067 7.520833
146.391769 4.682971
146.417038 9.00119
146.436859 19.65661
146.687637 4.888889
146.787704 3.333333
147.080002 4548.097168
147.114014 53.200291
147.133484 12.725
147.163467 15.2027
147.215576 31.906839
147.246094 15.18534
147.263931 47.17495
147.272308 12.89382
147.295914 3.408334
147.317749 41.973228
147.339096 14.79167
147.38092 6.854167
147.404572 12.21905
147.417068 14.52
147.425003 6.615
147.48822 17.101971
147.509338 7.742424
147.54306 21.001539
147.581223 12.08681
147.652649 12.10526
147.83902 26.83243
147.851776 15.1875
147.872543 23.706141
147.897369 6.094697
148.037399 15.6
148.203094 15.00577
148.385391 14.25621
148.41069 5.358974
148.979691 21.787041
149.060654 29.762791
149.095734 1457.605957
149.129166 8.25
149.149033 4.721491
149.166016 5.480072
149.174805 2.041667
149.433838 4.037037
149.463715 13.42455
149.476364 12.33333
149.493408 10.68314
149.591232 3.335784
149.741577 2.416667
149.808304 13.36574
149.825333 15.00053
150.686752 16.01255
150.909607 3.185606
151.072632 146.624207
151.081009 35.512138
151.111923 129.621506
151.263809 11.8125
151.295151 3.640152
152.463562 29.612341
152.564224 18.52
153.071289 9.518678
153.090714 836.791504
153.126236 4.671297
153.135071 3.055556
153.151398 2.14881
153.274155 27.483971
153.522766 10.92287
153.600372 8.560185
153.82106 2.449074
153.910965 3.337121
154.079346 10.5375
154.4077 3.003205
154.779678 5.351191
155.068115 41.25845
155.083115 43.942009
155.095795 4.061275
155.117157 2.0
155.487289 1.833333
155.83754 5.041667
156.198914 27.98245
156.310944 12.34375
156.459198 8.696428
157.064896 16.94286
157.098465 174.170303
157.876633 8.462607
158.076218 15.72115
158.31842 9.176471
158.339676 15.30876
158.527115 3.413462
159.006424 7.810714
159.080719 1313.524048
159.114014 146.420898
159.335617 16.148809
159.350281 11.8
159.38385 1.671296
159.55101 6.025
159.581619 8.765873
159.911591 17.002781
160.152817 4.891667
160.176239 21.02722
160.193069 13.36594
160.237915 7.388889
160.307983 2.816667
160.339172 7.041667
160.372604 4.518939
160.422119 9.020833
160.766388 23.827221
161.095581 1653.843994
161.130371 66.143173
161.151794 5.003788
161.167648 5.408333
161.221054 4.225
161.357605 7.355556
161.382492 4.560185
161.569672 12.33974
161.614807 9.630208
161.987946 7.166667
162.273666 6.03592
163.073822 208.490204
163.110367 176.128693
163.17453 5.666667
163.226822 21.92004
163.293442 15.375
163.410141 5.001437
163.504791 8.680555
163.528488 5.6
163.922287 3.857143
165.071976 8.755208
165.089172 238.841797
165.314438 2.008333
165.565536 5.19853
165.623367 21.193911
166.264694 10.22685
166.315811 10.58333
167.077744 49.02272
167.10614 600.167114
167.159988 2.666667
167.230072 10.92287
167.548172 2.375
168.090775 47.714211
168.153595 2.003788
168.819061 13.91159
169.062775 296.216187
169.087555 104.888496
169.3004 4.115741
169.369308 12.33621
170.035538 6.201666
170.068787 111.227303
170.171631 9.046875
170.326004 5.522727
170.425385 11.6
170.484909 10.66667
170.516708 5.801667
171.079468 2362.784912
171.114563 297.783691
171.166946 7.334877
171.254578 16.85051
171.290527 19.551741
171.335388 8.429762
171.344681 14.64031
171.376373 5.121212
171.400864 21.191441
171.444702 2.367424
171.462921 3.666667
171.49501 8.022223
171.628998 15.6049
171.687469 2.893518
171.732529 3.518939
171.778229 7.815
172.014313 7.703703
172.236313 13.53333
172.951233 13.92628
173.019836 10.35294
173.095993 1707.666992
173.131836 5.333333
173.152557 6.353071
173.182312 2.125
173.21666 5.742284
173.239548 12.08333
173.262451 7.668478
173.28537 3.440476
173.367096 6.020833
173.38504 10.8443
173.43045 11.1875
173.445038 7.402778
173.460785 22.408541
173.54155 10.81548
173.569397 6.383333
173.601471 12.34783
173.697769 4.028846
173.72525 4.688725
173.821564 17.497971
173.991394 17.0744
174.335648 3.375
174.400421 16.377781
175.075058 183.622192
175.110138 226.836807
175.17392 15.55254
175.310822 8.601191
175.42598 4.025
176.140182 13.29348
176.187088 8.035714
176.237885 5.0625
176.364136 11.66786
177.090027 1438.744019
177.125916 16.47414
177.326508 4.387821
177.416656 19.630951
177.436081 2.041667
177.482468 4.402778
178.801086 4.003788
178.861588 3.666667
179.105789 144.961197
179.140854 3.080128
179.900467 10.33578
180.093872 97.748833
180.14801 7.708333
180.334839 3.025
181.10228 51.06649
181.117569 68.8181
183.08194 491.019196
183.116562 71.798607
183.981583 12.64394
185.055664 15.47704
185.095535 1178.572998
185.147095 32.52137
185.214661 16.108971
185.287277 23.317459
185.330383 5.357143
185.396729 25.410379
185.52446 9.17385
185.573334 2.708333
185.629532 4.963235
186.268097 13.03439
186.359528 6.030303
186.41156 17.91325
186.453949 11.60556
186.934616 4.675926
187.075104 782.068481
187.113251 561.628174
187.148727 6.030303
187.177353 13.49709
187.390594 3.816667
187.402649 4.458333
187.429672 16.35294
187.447922 12.90948
187.501068 8.338542
187.530334 6.740942
187.551086 6.333333
187.715164 2.0
187.735153 4.354167
187.753677 13.30697
187.77211 14.64209
188.868347 2.625
189.08905 169.794693
189.12793 18.8652
189.248627 5.027778
189.277344 14.91177
189.837326 7.691667
190.0793 46.410629
190.215637 9.573413
191.104507 142.962006
191.269165 17.597639
191.403671 20.449909
193.098434 125.331299
193.117157 10.93939
193.527161 3.686404
194.019516 16.006941
194.069351 31.02722
194.098938 56.863289
194.724869 13.26786
195.07605 17.17729
195.103958 244.619904
195.166412 2.333333
195.500137 6.833333
195.760025 13.59559
195.936646 2.482143
195.951187 16.575979
196.087051 81.990639
196.121887 204.809204
196.159134 3.016667
196.310196 16.54701
197.063217 33.852268
197.09552 580.816711
197.41333 4.340909
197.459305 15.30616
197.599121 6.333333
197.648026 11.03125
198.078995 12.73707
198.936539 10.05235
199.076447 35.427078
199.109909 507.97879
199.15239 2.671296
199.176926 16.578329
199.289474 3.733333
200.007263 3.354167
200.145706 5.265351
201.093063 92.786461
201.127533 237.372498
201.481323 3.342592
201.67424 9.272223
202.158417 6.408951
202.549362 12.60682
202.742661 2.053571
203.070374 77.427231
203.106827 260.305786
203.815628 8.775641
204.088623 37.455811
204.705093 4.349638
205.098495 37.195969
205.466125 1.666667
205.547852 6.446428
207.09671 89.480461
207.116211 207.980606
207.173798 5.440476
208.087021 68.950546
208.147675 2.695513
208.549393 7.041667
208.765488 4.66886
208.878311 10.75556
209.095474 429.335999
209.131058 171.770905
209.174316 7.714285
209.807281 15.33402
210.106842 112.311897
210.791138 17.3382
210.861786 4.678571
210.910629 18.3344
211.077072 66.032768
211.111237 1444.176025
211.148499 57.186779
211.215683 25.368231
211.376801 61.013062
211.438065 6.399193
211.499252 5.633333
211.529419 29.024019
211.701218 22.466499
211.788406 7.852564
211.827759 14.91177
211.853546 12.64015
211.893585 4.388158
212.527222 22.804661
212.562576 10.5873
213.092422 187.162903
213.126602 703.893677
213.194443 8.908334
213.283417 2.722222
213.313293 11.11111
213.33522 11.9631
213.374176 10.50694
213.395203 12.69551
213.471436 7.702587
213.483612 6.25926
213.567978 22.679529
213.613098 9.375
213.78949 2.416667
213.972076 10.38075
215.104507 490.758698
215.14032 91.440918
215.158249 2.14881
215.288452 2.854167
215.356232 14.62069
215.417923 19.36364
216.649094 4.891667
217.115524 39.333969
217.423721 6.0
217.783264 7.347222
218.070801 55.686401
219.081726 84.782387
219.114685 308.560791
219.145401 3.005953
219.336166 7.03592
219.559052 7.5625
219.796661 18.823721
219.92392 6.76923
220.362595 24.33847
221.097046 431.851715
221.13269 184.776901
221.305298 11.66786
221.327225 7.190217
221.386383 12.66987
221.746704 4.125
221.77005 15.93817
221.847305 14.33621
222.016617 4.408333
222.101624 225.274506
222.168686 1.666667
222.673355 8.307693
223.072815 27.471741
223.111786 1468.963013
223.165497 9.123303
223.200684 31.967159
223.212173 9.68632
223.228256 18.81373
223.264618 30.54953
223.310944 5.025641
223.406052 3.375
223.488831 7.615
223.523026 19.390961
223.560547 9.561992
223.613144 10.33333
223.63858 28.13632
223.667511 10.215
223.679626 4.375
223.784271 3.727941
223.936554 30.7654
225.006821 9.229167
225.091766 217.363998
225.126755 963.556885
225.202789 12.33333
225.224899 41.854172
225.238617 7.442204
225.416168 3.00463
225.478943 12.76552
225.495346 3.555556
225.530396 7.008333
225.738724 16.6
225.828979 4.054824
225.855133 7.2
226.022461 8.789216
226.137802 797.344116
226.288803 5.034091
227.108582 239.163498
227.280594 10.51868
227.306015 20.325199
227.373856 8.363095
227.395096 7.927469
227.595963 18.97917
227.83461 2.111111
227.956543 11.00093
228.144058 23.554079
228.613739 14.21894
229.08316 10.60606
229.119308 172.650101
231.080933 5.59375
231.098465 58.289009
231.115051 34.24324
231.166519 1.672619
232.088654 15.49167
232.271072 7.802778
232.33165 13.08681
233.096527 17.512409
233.126953 19.08333
233.866653 6.694445
235.112106 1106.785034
235.14798 251.841293
235.16124 3.028846
235.180801 7.573412
235.321671 16.979799
235.358673 10.39167
235.700623 10.72436
235.715591 21.92421
235.770813 48.884708
235.828644 13.68519
235.884247 15.92167
235.932358 15.55864
235.956802 6.700269
236.019333 8.59375
236.053864 37.94455
236.072906 6.408333
236.340881 13.80449
236.455688 14.00833
236.641891 7.410257
236.6931 6.518939
236.786362 23.61335
236.920792 10.00126
237.127655 5635.723145
237.165741 85.958229
237.193176 31.26153
237.214264 36.343491
237.273956 13.11204
237.29483 18.05192
237.313126 3.0
237.36882 12.71429
237.386398 8.522727
237.418167 28.695431
237.434021 6.674242
237.461166 12.09649
237.497391 33.219879
237.539703 22.108521
237.551971 10.6768
237.590057 30.543489
237.605591 7.698232
237.638016 14.10965
237.741196 12.12298
237.806946 19.057249
237.848007 26.70756
237.87912 15.00872
238.035385 13.62963
238.065582 46.477581
238.271011 6.012097
238.368195 8.45
238.447617 5.347222
238.52887 10.9467
238.683609 9.673612
238.849792 17.39706
239.104675 560.313477
239.1436 2043.753052
239.214294 6.032738
239.233215 4.35307
239.295914 36.087921
239.406372 13.11111
239.42215 21.305559
239.502579 15.19947
239.624359 24.69961
239.64238 14.17565
239.680542 29.56863
239.706818 10.02373
239.737534 3.560185
239.760925 8.533334
239.781021 11.14815
239.868256 39.07748
239.885086 15.42702
239.913162 16.098631
240.057709 4.225
240.316055 2.761364
240.332642 5.080128
240.793518 7.166667
240.807541 9.753472
241.12355 624.972473
241.155472 205.934692
241.271515 6.0625
241.308899 8.958333
241.363388 5.801667
241.501221 4.375
241.530792 3.066667
241.60878 5.721154
242.521393 2.020833
243.07872 39.74614
243.103943 99.757057
243.357178 4.963235
243.379471 4.720238
243.74736 3.440476
243.823624 3.773809
244.118973 18.673479
244.634659 28.83494
245.096283 191.997192
245.122604 246.599701
245.428528 3.686404
245.832001 8.6875
247.144958 28.992701
247.454697 20.347219
247.505692 8.333333
247.777664 6.005556
247.799576 15.00577
247.942047 10.36687
248.035202 33.796989
248.118835 827.702087
248.332642 11.71102
248.519928 14.76587
248.889984 4.094697
249.093445 32.370369
249.163376 124.615799
249.225464 5.366667
249.247437 11.32003
249.896042 19.025
250.134918 35.450329
250.417908 2.367424
250.435715 9.146739
250.561371 12.52083
251.019104 4.037037
251.08197 16.53125
251.106201 175.465698
251.143173 695.872192
251.179047 17.884661
251.201691 3.333333
251.239532 2.672619
251.285324 14.42424
251.314011 3.375
251.399551 12.76344
251.542999 10.4563
251.692047 11.72429
251.7258 7.673611
251.780304 16.443689
251.885345 5.208333
252.247314 21.979839
252.592422 2.722222
252.631027 3.722222
253.122833 849.177185
253.158691 572.039673
253.29332 8.368768
253.318069 16.53178
253.35585 5.003788
253.41803 5.408333
253.472305 11.73611
253.501892 3.973485
253.709198 9.107142
253.799454 19.08276
253.865707 7.130208
254.8311 9.738475
254.926285 17.830429
255.069962 4.673077
255.139267 598.650024
255.175995 19.08333
255.215393 10.2192
255.353378 3.440476
255.370178 3.683333
255.482483 4.185606
255.515305 7.148148
255.532684 9.519231
255.603622 8.001344
257.11908 17.26882
257.152893 27.97436
257.894928 4.531863
258.099335 18.410721
258.136414 31.27128
259.107269 167.031601
259.141907 77.767311
259.438934 2.375
259.472565 7.789216
259.960327 6.732527
260.117371 144.878006
260.154419 50.054218
261.126892 753.27887
261.164154 110.124802
261.684448 14.66667
261.713654 7.314103
261.792328 3.703704
261.966675 10.21491
261.99762 1.708333
262.073517 15.14371
262.407227 5.265351
262.603302 1.666667
262.849762 2.741667
263.079346 18.85368
263.103943 174.433701
263.143799 1302.130981
263.195587 3.347222
263.345428 12.25926
263.370605 6.482143
263.483856 3.080128
263.497345 2.893518
263.547058 18.74082
263.575073 20.010099
263.681183 5.041667
263.695709 43.720539
263.991974 2.35
264.071228 32.023811
264.684845 3.291667
264.744476 22.15457
265.118927 114.567802
265.160248 480.383911
265.304962 9.150001
265.412659 4.375
265.594055 4.033333
265.686035 24.776951
265.724457 13.41987
265.764191 7.560484
266.063843 18.46944
267.051086 25.353861
267.137787 725.536682
267.173248 253.771698
267.21994 1.720238
267.332062 15.39394
267.478058 2.815476
267.612732 8.401667
267.982391 23.77829
268.447815 2.354167
268.664429 1.666667
269.152435 46.15781
269.184906 80.830994
269.200134 43.897129
270.681091 9.72
271.116241 3.388889
271.143005 327.756989
271.328247 2.016667
271.574707 16.398439
271.688324 5.558333
272.118958 153.367294
272.77713 6.708333
273.159576 226.095306
273.198669 5.260417
273.253296 8.484849
273.357971 13.92593
273.469482 29.075621
273.557281 15.25962
273.605835 9.94697
274.016724 9.022223
274.133179 141.951797
275.142365 817.744385
275.236908 1.666667
275.27359 5.480072
275.331299 11.34347
275.365936 12.32051
275.389038 10.72853
275.591156 18.258551
275.613708 16.14286
275.719574 28.16667
276.148865 454.133514
276.256317 42.695862
276.337555 7.111111
276.370026 22.37776
276.490417 16.70833
276.568146 12.00602
276.793701 10.17754
277.123901 275.654907
277.158508 2564.080078
277.296509 8.639493
277.322388 21.810301
277.347534 31.095209
277.471283 6.04529
277.505615 8.37037
277.532745 17.56863
277.558258 12.47619
277.662659 9.658784
277.681885 15.0625
277.703156 2.893518
277.736359 22.598289
277.767487 24.973551
277.815857 15.67907
277.883606 4.490385
277.946808 4.363636
277.993103 10.68333
278.06189 14.35526
278.134827 191.877106
278.206207 10.1131
278.230835 21.75028
278.36377 18.76136
278.420929 25.04859
278.509674 8.415
278.594452 9.669444
278.71936 20.604839
278.962585 44.969059
279.020752 7.186728
279.174103 2913.301025
279.226807 29.53561
279.248474 4.361111
279.264832 6.001667
279.347076 11.74228
279.382416 22.47588
279.436371 9.5
279.48175 17.451799
279.513885 31.028799
279.559631 18.370899
279.578857 11.05833
279.661804 26.56094
279.689362 14.09058
279.753387 9.66821
279.776672 8.685185
279.811584 3.0
279.898834 18.69808
280.254089 10.45588
280.355042 37.207561
280.597137 4.157052
280.942017 10.7877
281.111542 49.547958
281.158722 320.987488
281.187561 519.212219
281.24176 7.412037
281.267181 11.80934
281.841888 17.94569
283.171021 59.799599
284.533356 2.337121
285.520081 3.025
286.13269 327.725586
286.161194 2.339286
286.19812 6.0
286.490845 3.335784
286.562103 9.7
287.173035 6.296568
287.309906 5.002193
287.448059 16.264509
287.646271 10.38656
288.024139 29.02825
288.094727 4.340278
288.124451 8.033334
288.715057 6.081667
289.117493 55.897621
289.157379 650.830505
289.238464 1.833333
289.28714 25.558241
289.401184 4.019737
289.503326 12.50521
289.531769 4.833333
289.567596 9.1875
289.703339 5.510965
289.851105 8.819445
290.130646 50.865631
290.877777 28.184731
291.140259 219.522293
291.174133 2232.184082
291.262482 6.006945
291.286621 10.22165
291.326874 4.733333
291.351562 10.51389
291.388824 2.893518
291.404022 10.52083
291.428711 8.681666
291.526459 11.33333
291.562042 9.964506
291.690125 7.34543
291.820984 6.688726
291.987274 7.001263
292.067108 8.798913
292.791443 3.926282
292.914795 5.633333
293.111877 10.5328
293.152313 258.676392
293.228607 2.666667
293.52002 9.458333
293.583466 12.7963
293.611908 14.86364
293.880707 10.72464
294.184875 6.480072
294.202026 3.083333
295.131866 109.5616
295.16864 999.295227
295.23111 15.19813
295.334717 4.416667
295.410248 11.3344
295.660645 13.0119
295.947906 17.667681
296.202759 13.90064
296.247681 6.510965
296.493164 5.265351
297.122589 9.858334
297.147797 147.112701
297.179443 303.211914
297.235992 5.160714
297.265961 6.033602
297.30127 13.60119
297.434418 14.32143
297.530792 6.740942
297.66275 11.3344
297.745972 8.371913
297.806427 17.51042
297.908142 5.522727
298.376617 5.334877
299.254639 2.666667
299.350922 11.66779
299.399078 9.129273
299.462646 14.65539
299.502563 7.704545
300.320831 9.469697
300.580017 16.00119
300.97226 5.673077
301.158142 1318.543945
301.237885 2.0
301.388702 17.45594
301.473511 10.02564
301.623474 8.240079
301.684875 3.680555
301.727142 2.35
301.935669 3.625
301.969299 18.6509
302.101929 2.722222
302.689026 11.5126
302.719025 6.667793
303.379425 6.98077
304.142303 110.182198
304.616516 3.347222
305.248871 16.76115
305.372925 5.875
305.649597 4.09375
306.159393 58.47052
307.168945 1261.491943
307.245178 4.375
307.27301 9.510417
307.338318 14.47904
307.401489 12.86132
307.458344 4.413462
307.479004 8.027778
307.550262 9.027778
307.623383 10.56522
307.708862 12.76552
307.802917 15.94872
307.873596 2.003788
307.922424 4.366667
308.179016 14.22222
309.146271 65.260033
309.183899 1583.13501
309.248627 18.640711
309.291321 8.829301
309.389526 6.615
309.414276 5.939394
309.566681 27.064791
309.609619 3.666667
309.807281 5.75
309.84314 4.711957
309.934601 17.405001
310.019897 4.001812
310.11795 8.962963
310.638763 1.666667
310.786346 12.3375
311.162811 321.933502
313.177612 46.366791
313.577301 10.22685
313.601532 3.666667
314.064941 4.669445
314.347198 18.74951
315.177002 30.09358
317.104279 5.75
317.158905 17.934259
317.183136 4.964286
317.271545 7.969086
317.482147 12.34017
317.621796 4.763889
317.847992 2.336539
317.922424 8.41565
319.038574 6.190476
319.059326 41.329891
319.142609 120.983498
319.170044 2202.324951
319.242004 23.12685
319.268311 34.976189
319.311554 17.323271
319.369995 6.844298
319.408295 5.414216
319.426239 12.82996
319.458344 84.530693
319.574554 2.4
319.715637 5.075
319.747375 33.136761
319.879883 30.66016
319.996552 6.865196
320.322998 10.96695
320.431427 7.782407
320.654785 37.41975
320.950439 5.705246
322.64859 8.818548
322.916687 6.449713
323.164215 7.387821
324.174408 16.336809
325.180298 660.400391
325.41687 22.335649
325.541016 9.160256
325.853271 6.518939
327.196594 335.171204
327.554108 1.741667
328.51712 9.057971
335.112823 10.78333
335.312866 11.29688
335.571503 11.5663
335.757477 3.703704
337.179352 2402.36499
337.259583 15.08681
337.292511 8.987319
337.390839 4.166667
337.503174 6.541667
337.526581 12.29825
337.552368 7.564815
337.595856 5.333333
337.627716 17.003969
337.660736 13.67281
337.678955 16.4902
337.755829 23.375
337.815552 9.926471
337.888367 4.964286
337.966705 8.690476
337.985992 4.844298
338.228973 7.341666
338.497742 6.0
339.279053 2.0
339.651825 1.777778
341.300079 22.76042
343.193665 16.07
344.954498 7.160257
345.194885 20.09886
345.251709 5.049603
345.829376 7.653986
353.233734 6.523809
353.437988 11.00076
353.922119 12.87076
354.030121 3.0
355.148071 55.614841
355.191254 3176.065918
355.258118 6.121212
355.281738 11.26482
355.310974 3.335784
355.366333 38.37674
355.428467 24.681049
355.46048 26.92222
355.493439 12.41288
355.553131 31.570511
355.602051 21.821659
355.633942 81.429932
355.681732 15.82479
355.710266 5.666667
355.74762 9.136111
355.789978 10.7002
355.832184 32.943939
355.855713 37.264301
355.977997 3.520833
356.03537 58.080231
356.243805 30.77335
356.769165 9.926471
356.813263 4.013889
357.266083 15.27431
357.300293 10.48214
358.392517 9.121212
358.933411 4.358333
360.794464 10.11204
370.908539 17.02206
373.196503 159.0271
393.192413 27.993401
971.079834 3.010417
1252.804077 12.62976
1373.099731 10.82315
