>compound Coproporphyrin I
>formula C36H38N4O8 
>ionization [M+H]+
>parentmass 655.275574
#inchi InChI=1S/C36H38N4O8/c1-17-21(5-9-33(41)42)29-14-26-19(3)23(7-11-35(45)46)31(39-26)16-28-20(4)24(8-12-36(47)48)32(40-28)15-27-18(2)22(6-10-34(43)44)30(38-27)13-25(17)37-29/h13-16,37-38H,5-12H2,1-4H3,(H,41,42)(H,43,44)(H,45,46)(H,47,48)
#inchikey VCCUOZSDXVZCSK
#Ion_Source DI-ESI
#Instrument LTQ-FT-ICR
#Compound_Source Standard
#PI Dorrestein
#Data_Collector J Watrous
#Scan -1
#Precursor_MZ 655.278
#ExactMass 0.0
#Charge 1
#CAS_Number N/A
#Pubmed_ID N/A
#Smiles N/A
#INCHI_AUX N/A
#Library_Class 1
#SpectrumID CCMSLIB00000072099
#IonMode Positive
#UpdateWorkflowName UPDATE-SINGLE-ANNOTATED-GOLD
#LibraryQualityString Gold
#TaskID 3bbf0c46eeeb406782b2f3cd0ad9b2b3
##Scan# 1
#SpectrumFile Coproporphyrin_I_standard_1H_FTMS_655_2780.mzXML
#LibraryName gnps_library.mgf
#MQScore -1
#Organism GNPS_JDW_Batch_Library_Centroid
#TIC_Query 0
#RT_Query -1
#MZErrorPPM -1
#SharedPeaks 0
#MassDiff 0
#LibMZ -1
#SpecMZ 655.278
#SpecCharge 0
#internalFilename spec-00000.mgf

>collision 10
191.180695 1016.0
192.208008 1041.0
202.784012 2105.0
203.004959 1217.0
203.02562 1678.0
203.032959 1233.0
203.040833 1263.0
203.041916 1179.0
203.043823 1917.0
203.045181 1770.0
203.046005 2010.0
203.048172 3576.0
203.048996 4152.0
203.050354 8267.0
203.051987 6132.0
203.053879 9169.0
203.054977 7836.0
203.055786 7958.0
203.057419 4738.0
203.058502 4819.0
203.059586 2265.0
203.060684 3820.0
203.062576 2709.0
203.064484 1163.0
203.066116 2512.0
203.067474 1210.0
203.068832 2540.0
203.07373 2029.0
203.075912 1280.0
203.077271 1407.0
206.748444 1313.0
218.759491 2856.0
232.991104 1150.0
233.74736 1024.0
240.389297 1192.0
241.631348 1071.0
243.291916 1010.0
258.752625 1078.0
261.613678 1883.0
263.124664 1062.0
265.156189 1022.0
276.45166 1320.0
284.800507 1035.0
293.181641 1230.0
295.144348 1206.0
297.623291 1414.0
298.127625 22154.0
314.158112 1052.0
327.633209 3723.0
327.636749 4486.0
328.135071 16397.0
328.636353 1569.0
328.639923 1486.0
367.511719 1377.0
398.769073 1314.0
406.105835 1311.0
407.394196 1044.0
465.227814 5616.0
479.161987 1105.0
479.243774 3346.0
503.03653 6230.0
503.041534 6403.0
505.223389 1308.0
509.216553 1096.0
509.336273 1220.0
522.225159 1339.0
523.207031 7333.0
523.219666 44939.0
523.234131 287967.0
523.244934 1814.0
524.221619 1857.0
524.236084 24532.0
526.036194 1256.0
534.802795 1263.0
536.24176 9096.0
536.287292 1418.0
536.310059 2382.0
537.220032 2043.0
537.235229 19130.0
537.248535 130573.0
538.251526 11552.0
538.259155 1983.0
545.42334 1488.0
545.863098 1059.0
550.257812 2603.0
551.247864 2015.0
551.265869 21075.0
552.273621 2670.0
559.880371 1475.0
560.420349 1407.0
564.23584 1973.0
565.245239 4306.0
566.300598 1062.0
569.697754 1056.0
569.849731 1738.0
569.873291 2156.0
571.725159 1210.0
572.900024 1781.0
572.923828 1761.0
573.001709 3610.0
573.042847 1776.0
573.155457 1410.0
573.179321 2743.0
573.855957 1144.0
574.284058 2199.0
575.725037 1117.0
576.501953 1026.0
576.517334 1126.0
576.526062 1936.0
577.243652 10886.0
578.251648 4376.0
581.221191 5008.0
581.239014 30889.0
582.229736 12473.0
582.24762 107406.0
583.057922 2122.0
583.069153 2512.0
583.239563 2651.0
583.255249 27257.0
583.607605 1034.0
584.257385 2503.0
586.532776 2733.0
588.241211 1022.0
590.014771 1935.0
590.037781 2001.0
593.310913 1257.0
593.835938 1190.0
593.861511 1563.0
594.224487 4580.0
594.250061 1319.0
594.254761 1295.0
594.264038 1363.0
594.275696 1085.0
595.222656 2638.0
595.236633 19096.0
595.25531 148911.0
595.601318 3260.0
596.214783 2123.0
596.228821 33554.0
596.24292 129931.0
596.261658 1491672.0
596.282776 3266.0
596.296814 2379.0
597.233765 1766.0
597.247864 14568.0
597.266663 107692.0
597.822266 3030.0
597.857666 1257.0
597.871765 1168.0
599.941223 1049.0
599.955444 1508.0
600.49707 1065.0
600.523193 1029.0
601.745544 2662.0
601.783752 1336.0
603.890015 1016.0
603.911621 1818.0
604.458008 2543.0
604.484497 3614.0
605.435303 5299.0
605.478821 2274.0
606.340576 1756.0
608.208069 1123.0
609.270935 7944.0
611.365906 1046.0
611.390564 2540.0
615.197449 1545.0
617.077271 4914.0
617.119934 1597.0
617.165161 1297.0
618.728699 2565.0
618.753967 3193.0
619.031799 2173.0
619.054504 3432.0
620.05426 1023.0
621.550964 1097.0
622.364624 1235.0
622.630371 3032.0
622.655945 2794.0
623.236755 1841.0
623.264954 2307.0
624.887939 1340.0
626.581543 1685.0
626.607422 2528.0
627.195618 2497.0
627.211182 1571.0
627.221558 3971.0
627.639465 2377.0
629.178345 10937.0
629.191406 1890.0
629.217529 5250.0
630.106323 1776.0
630.119446 1912.0
630.297485 1082.0
630.724731 1732.0
630.8927 1383.0
630.92157 2317.0
631.205139 2600.0
631.231384 3945.0
634.976318 1447.0
636.981873 1279.0
637.244141 4717.0
637.265564 48413.0
638.268616 3739.0
638.739014 1386.0
638.76593 1287.0
639.059326 1071.0
639.086243 1779.0
640.25177 11775.0
641.760803 4134.0
641.807007 2900.0
642.598328 1188.0
642.897949 3046.0
642.925232 3722.0
645.703552 1447.0
645.956604 1272.0
646.515564 1454.0
647.437378 1946.0
647.467773 2494.0
648.13739 1180.0
653.189941 2357.0
655.23877 3511.0
655.25293 14518.0
655.275574 155402.0
656.222534 1479.0
656.236755 15343.0
656.256653 67062.0
656.279358 799738.0
656.296387 2386.0
656.304932 1705.0
656.316284 1175.0
657.260559 20383.0
657.283386 172809.0
658.264771 2045.0
658.284729 20581.0
659.13446 2600.0
659.145935 3856.0
660.086914 2539.0
660.112732 3125.0
661.760315 1101.0
663.889465 1235.0
663.901123 1682.0
664.52655 1477.0
664.555664 2942.0
666.761475 1158.0
668.498413 4469.0
668.542664 2204.0
668.707703 1733.0
673.264465 1684.0
677.692932 1062.0
677.88678 1143.0
682.179993 2706.0
682.207642 2930.0
686.925964 1862.0
686.953979 3482.0
691.763672 1225.0
695.973083 1043.0
696.615662 1672.0
696.631653 1267.0
696.647644 2945.0
697.025452 1676.0
697.564026 1190.0
699.462158 1493.0
701.179321 1094.0
702.211731 1101.0
706.174622 2418.0
706.194336 7446.0
706.223938 9339.0
706.585876 1194.0
706.615479 1695.0
707.261353 1048.0
710.914795 1105.0
711.088135 1104.0
712.096436 1310.0
713.064026 1521.0
716.0401 1048.0
716.070557 1152.0
721.294739 1734.0
722.118958 1368.0
725.952271 1020.0
730.835876 1053.0
737.029968 1589.0
737.854675 1578.0
737.883423 2122.0
738.868408 1037.0
742.543823 2172.0
742.572937 3966.0
742.976685 1404.0
743.005798 1770.0
745.16333 1285.0
748.639343 1445.0
753.908997 1725.0
759.68689 1086.0
760.132385 1255.0
760.162842 2103.0
763.992188 1462.0
765.569519 2183.0
765.600403 2078.0
772.019165 1916.0
772.050598 2664.0
795.476807 1055.0
801.903687 1244.0
801.937561 2893.0
802.19635 1038.0
815.144104 1845.0
815.179199 1017.0
815.898376 1134.0
823.07605 1021.0
829.364014 1257.0
829.400269 1610.0
859.263123 1031.0
863.967163 1538.0
865.130249 1177.0
865.169739 2716.0
866.603394 1056.0
871.25824 1250.0
871.588745 3504.0
871.623779 4495.0
872.180176 2025.0
872.215271 4089.0
879.345947 1944.0
879.386719 2473.0
891.503479 1199.0
893.120422 1066.0
911.209351 1393.0
912.486755 1644.0
912.519714 1381.0
934.090271 1036.0
937.149414 1569.0
940.036316 1119.0
946.088074 2418.0
946.129395 2173.0
951.590881 1233.0
953.835205 1147.0
955.198914 1698.0
955.247009 8344.0
955.283142 14192.0
955.95752 2729.0
955.999695 5427.0
956.289062 1084.0
964.572815 2197.0
964.609619 3238.0
974.126221 1443.0
997.708862 1048.0
1022.978882 1497.0
1023.800659 1507.0
1023.842163 2614.0
1033.688477 2007.0
1033.723755 2205.0
1043.460327 1036.0
1045.5177 1446.0
1053.982422 1030.0
1055.787476 1516.0
1055.831543 1306.0
1056.662842 2807.0
1056.706909 2749.0
1059.297607 1501.0
1074.845459 1023.0
1075.622925 1218.0
1087.812744 1148.0
1117.33728 1178.0
1123.154419 1064.0
1126.215332 1215.0
1127.203003 1478.0
1153.532227 1525.0
1156.9729 1202.0
1160.807373 1215.0
1171.341675 1072.0
1180.07312 1120.0
1180.504761 1027.0
1189.999146 1112.0
1191.869507 1070.0
1192.10376 2646.0
1193.154053 2293.0
1193.19165 2376.0
1194.309814 1667.0
1195.844727 1029.0
1196.882935 1150.0
1202.119629 1108.0
1225.738403 1258.0
1225.84729 1249.0
1227.335327 1033.0
1230.661743 1249.0
1238.025513 1192.0
1239.219238 2724.0
1239.279907 3267.0
1249.170898 1109.0
1266.846924 1057.0
1284.040405 1088.0
1286.392822 1267.0
1286.447388 1377.0
1298.130371 1049.0
1311.318726 1034.0
1334.699341 1009.0
1353.072998 1296.0
1357.943237 1131.0
1364.995361 1202.0
1372.965576 1147.0
1395.079834 2622.0
1395.169556 1216.0
1397.342041 1087.0
1412.33252 2520.0
1412.398315 4050.0
1416.805298 1258.0
1421.639526 1317.0
1449.493286 1034.0
1452.311035 1625.0
1452.366699 1980.0
1452.436279 1266.0
1453.926147 2011.0
1453.981812 2272.0
1469.79187 1023.0
1469.962891 36079.0
1470.076904 24389.0
1470.604248 1129.0
1473.533325 1476.0
1486.488403 1187.0
1489.086304 1075.0
1496.344116 1982.0
1498.058716 1351.0
1505.23999 1082.0
1506.570801 1451.0
1512.671631 1096.0
1516.392212 1240.0
1519.613403 3358.0
1527.926392 4129.0
1528.03418 2868.0
1530.177124 1028.0
1536.439819 1123.0
1536.813477 1229.0
1541.625 2081.0
1550.022827 1173.0
1568.052002 1055.0
1578.119263 1105.0
1582.334351 1206.0
1589.431885 2190.0
1590.815674 1093.0
1592.03479 1049.0
1592.452637 9607.0
1592.887451 1674.0
1597.181885 1264.0
1598.292847 1176.0
1604.328735 2356.0
1606.708252 2623.0
1615.298706 1101.0
1619.542114 1042.0
1641.044312 1078.0
1645.90625 1364.0
1668.119019 1352.0
1672.349609 1011.0
1687.271118 1084.0
1695.192017 1377.0
1696.671265 1155.0
1698.191162 3726.0
1698.799805 11434.0
1702.231934 2543.0
1714.877686 1157.0
1723.667603 1040.0
1725.05957 1308.0
1726.316284 3548.0
1727.870117 2603.0
1740.581299 1081.0
1755.612305 1329.0
1758.625244 2786.0
1758.686401 2796.0
1761.034912 1091.0
1761.075806 1131.0
1765.77124 1161.0
1774.074585 1038.0
1788.868896 1787.0
1814.79126 1319.0
1821.876587 2697.0
1833.661255 1122.0
1844.40979 1112.0
1845.037964 1133.0
1847.802979 1086.0
1856.125122 3467.0
1860.268799 1064.0
1861.31897 1207.0
1877.564331 1041.0
1887.424927 2537.0
1887.542358 1530.0
1889.047119 4976.0
1891.686035 1304.0
1893.575562 1453.0
1910.174927 1434.0
1927.582153 1503.0
1937.382324 1150.0
1937.803223 1324.0
1939.463501 1036.0
1940.778931 1143.0
1943.464844 1098.0
1952.673218 1083.0
1955.467896 1347.0
1960.675537 1073.0
1967.033081 1178.0
1983.341919 1095.0
1984.587646 1232.0
1991.859741 1269.0
1998.131714 1090.0
