>compound MLS001146623-01!
>formula C21H20ClN3O2S
>ionization [M+H]+
>parentmass 414.104156
#inchi InChI=1S/C21H20ClN3O2S/c22-17-7-4-14(5-8-17)6-9-19(26)23-21(28)24-11-15-10-16(13-24)18-2-1-3-20(27)25(18)12-15/h1-9,15-16H,10-13H2,(H,23,26,28)/b9-6+/t15-,16-/m1/s1
#inchikey HLARKQDFTHYYRL
#Ion_Source LC-ESI
#Instrument qTof
#Compound_Source NIH Natural Product Library
#PI Dorrestein
#Data_Collector VVP/LMS
#Scan -1
#Precursor_MZ 414.104
#ExactMass 413.096
#Charge 1
#CAS_Number N/A
#Pubmed_ID N/A
#Smiles Clc1ccc(/C=C/C(=O)NC(=S)N2C[C@H]3C[C@H](C2)c4cccc(=O)n4C3)cc1
#INCHI_AUX N/A
#Library_Class 1
#SpectrumID CCMSLIB00000080144
#IonMode Positive
#UpdateWorkflowName UPDATE-SINGLE-ANNOTATED-GOLD
#LibraryQualityString Gold
#TaskID b1d8e8f6646f4e71acdff9ca3d919d08
##Scan# 1958
#SpectrumFile p2-F04_GF4_01_18040.mzXML
#LibraryName NIH_Natural_Products_Library.mgf
#MQScore -1
#Organism NIH_Natural_Products_Library
#TIC_Query 0
#RT_Query -1
#MZErrorPPM -1
#SharedPeaks 0
#MassDiff 0
#LibMZ -1
#SpecMZ 414.104
#SpecCharge 0
#internalFilename spec-00000.mgf

>collision 10
94.970673 132.0
95.118149 108.0
95.386215 172.0
95.465927 52.0
95.972214 144.0
96.001465 196.0
96.042427 116.0
96.083389 176.0
96.460297 176.0
96.487663 212.0
96.520905 108.0
96.732201 180.0
97.022133 164.0
97.206512 44.0
97.614037 140.0
97.660339 216.0
97.876816 140.0
97.898476 164.0
98.07383 172.0
98.917282 208.0
98.962814 124.0
99.271935 152.0
99.386986 40.0
99.446518 48.0
99.521957 112.0
99.684845 92.0
99.742477 180.0
99.76236 128.0
99.931404 188.0
100.014992 164.0
100.036888 68.0
100.078506 208.0
100.160347 184.0
100.728851 104.0
100.926704 148.0
100.970703 328.0
101.000702 168.0
101.038673 720.0
101.122757 152.0
101.345047 120.0
101.545509 52.0
101.679932 172.0
101.814445 92.0
102.003311 236.0
102.045845 2836.0
102.077705 44.0
102.132004 76.0
102.248703 56.0
102.343315 164.0
102.357414 56.0
102.377548 52.0
102.464165 156.0
102.526413 148.0
102.579033 108.0
102.891724 44.0
102.948265 216.0
103.051147 360.0
103.115944 192.0
103.146263 84.0
103.17659 168.0
103.239273 104.0
103.445442 192.0
103.486137 48.0
103.56028 72.0
103.772224 224.0
103.865112 164.0
104.049782 176.0
104.106323 236.0
104.135071 40.0
104.22242 136.0
104.342339 48.0
104.523361 112.0
104.759537 88.0
104.965393 212.0
105.032532 152.0
105.056908 352.0
105.069786 200.0
105.189819 68.0
105.206154 168.0
105.349106 96.0
105.375664 104.0
105.819489 168.0
105.846107 192.0
105.952347 152.0
106.068993 152.0
106.151428 264.0
106.362755 248.0
106.539352 208.0
106.617439 156.0
107.055626 168.0
107.18129 76.0
107.269913 44.0
107.294647 188.0
107.434883 220.0
107.684654 80.0
107.715637 268.0
108.042259 200.0
108.419113 128.0
108.489594 188.0
108.508247 216.0
108.562157 44.0
108.647202 140.0
108.744728 128.0
108.815308 132.0
108.835579 168.0
108.979393 188.0
109.053566 328.0
109.414078 136.0
109.534866 164.0
109.90596 124.0
109.930412 212.0
110.039543 128.0
110.058334 172.0
110.08757 176.0
110.208725 160.0
110.237984 164.0
110.50563 176.0
110.53492 168.0
110.694016 196.0
110.844833 136.0
110.886749 172.0
110.993668 148.0
111.075462 160.0
111.117416 124.0
111.27652 248.0
111.451256 168.0
111.671997 300.0
111.846634 40.0
111.958221 100.0
111.979286 164.0
112.021492 400.0
112.053009 196.0
112.093048 192.0
112.179459 244.0
112.346062 124.0
112.398804 108.0
112.574013 120.0
112.821228 196.0
112.850471 216.0
113.144913 172.0
113.197845 96.0
113.235962 132.0
113.572968 156.0
113.929596 152.0
113.997589 172.0
114.222961 152.0
114.369781 144.0
114.425133 148.0
114.738312 132.0
114.847069 156.0
114.898819 124.0
114.960144 104.0
115.05661 208.0
115.160828 192.0
115.581985 108.0
115.751091 168.0
115.783211 176.0
116.400833 120.0
116.564087 156.0
116.602768 124.0
116.837151 176.0
117.060776 176.0
117.431686 180.0
117.556816 112.0
117.910995 164.0
117.954224 212.0
118.068336 144.0
118.263535 92.0
118.590599 168.0
118.72068 196.0
119.051697 200.0
119.287369 108.0
119.393913 212.0
119.583191 252.0
119.672447 188.0
120.047241 164.0
120.079956 140.0
120.19558 172.0
120.274147 84.0
120.363358 176.0
120.868599 72.0
120.971458 164.0
121.107224 196.0
121.385559 188.0
121.52594 208.0
121.763023 164.0
121.778397 192.0
121.945381 184.0
121.978348 124.0
122.011322 168.0
122.062401 260.0
122.207069 196.0
122.240074 72.0
122.554955 68.0
122.673317 176.0
122.735703 40.0
122.753342 76.0
122.927612 120.0
122.976166 160.0
123.113045 36.0
123.254425 148.0
123.409149 76.0
123.594948 148.0
123.774246 112.0
124.084442 168.0
124.226379 108.0
124.297379 128.0
124.339539 116.0
124.397247 156.0
124.599342 148.0
124.779366 152.0
124.810493 184.0
124.910576 140.0
125.02182 176.0
125.38929 152.0
125.445015 112.0
125.681427 164.0
125.705971 192.0
125.721588 216.0
125.793015 80.0
126.034218 56.0
126.063271 136.0
126.090088 128.0
126.152672 160.0
126.230927 168.0
126.391983 176.0
126.436737 168.0
126.649437 200.0
126.774902 196.0
126.81076 196.0
127.059669 160.0
127.40316 120.0
127.457085 132.0
127.528999 148.0
127.549232 164.0
127.738121 192.0
127.868622 156.0
127.884377 100.0
127.900131 252.0
127.9384 144.0
128.030716 176.0
128.048737 196.0
128.411606 160.0
128.479279 104.0
128.638916 156.0
128.804352 116.0
128.894714 68.0
129.042847 348.0
129.072174 444.0
129.202209 220.0
129.374207 200.0
129.820572 208.0
129.881805 188.0
129.934464 228.0
129.978394 244.0
130.045181 188.0
130.061951 312.0
130.083771 168.0
130.204102 176.0
130.281342 124.0
130.317688 200.0
130.863556 48.0
130.925049 208.0
131.072449 164.0
131.193909 164.0
131.798737 100.0
132.044403 1140.0
132.066208 172.0
132.082657 172.0
132.411819 68.0
132.663879 84.0
132.886337 120.0
133.006821 192.0
133.050522 1064.0
133.239899 188.0
133.288147 96.0
133.890869 144.0
133.994522 200.0
134.058914 444.0
134.195038 156.0
134.30574 144.0
134.560318 188.0
134.765137 160.0
134.82753 144.0
134.871445 200.0
134.977798 236.0
135.049484 196.0
135.111954 144.0
135.185989 128.0
135.229965 180.0
135.319153 196.0
135.343399 132.0
135.556503 136.0
135.630341 168.0
135.73732 52.0
135.8069 168.0
135.870895 108.0
135.922897 104.0
136.02269 164.0
136.05983 164.0
136.124847 152.0
136.164322 188.0
136.471069 176.0
136.503616 204.0
136.703674 160.0
136.724625 140.0
136.808426 156.0
136.960571 152.0
137.015564 15332.0
137.164841 56.0
137.183487 48.0
137.230118 108.0
137.274414 52.0
137.297729 148.0
137.456375 200.0
137.561401 212.0
137.589417 68.0
137.647354 44.0
137.689819 56.0
137.743546 132.0
138.018326 1820.0
138.094147 76.0
138.454575 40.0
138.473312 56.0
138.515472 80.0
138.555298 212.0
138.574051 64.0
138.770721 140.0
138.843613 116.0
138.87645 180.0
138.949173 112.0
139.012955 4200.0
139.078247 140.0
139.101715 140.0
139.186234 32.0
139.289566 104.0
139.405289 144.0
139.472855 160.0
139.55043 64.0
139.602158 200.0
139.858612 80.0
139.889206 120.0
139.94101 128.0
140.015945 484.0
140.051682 200.0
140.068176 188.0
140.14592 68.0
140.487778 36.0
140.541275 136.0
140.593964 76.0
140.716705 40.0
141.012451 164.0
141.054535 168.0
141.122696 188.0
141.18457 64.0
141.423538 160.0
141.468506 200.0
141.745621 108.0
141.880722 116.0
141.989792 176.0
142.008774 108.0
142.064316 332.0
142.089432 72.0
142.324402 144.0
142.371887 132.0
142.428894 120.0
143.268616 236.0
143.309128 116.0
143.335327 64.0
143.353806 80.0
143.402069 184.0
143.65004 196.0
143.719238 96.0
143.938843 156.0
144.083786 116.0
144.467041 136.0
144.493362 176.0
144.759048 140.0
144.857239 136.0
145.013 136.0
145.047562 296.0
145.084915 136.0
145.130463 232.0
145.514359 176.0
145.747345 288.0
146.059509 1536.0
146.096054 388.0
146.194611 208.0
146.2957 168.0
146.399231 236.0
146.57991 216.0
146.924698 40.0
147.066055 472.0
147.100861 168.0
147.4366 136.0
147.610657 44.0
147.840469 144.0
148.005081 88.0
148.075928 13976.0
148.140701 100.0
148.257004 92.0
148.337936 72.0
148.474808 188.0
148.564941 224.0
148.60376 236.0
148.705688 136.0
148.880493 108.0
148.941208 112.0
149.077957 1364.0
149.164764 68.0
149.257141 184.0
149.276596 124.0
149.427414 84.0
149.610733 136.0
149.663498 88.0
149.719513 228.0
149.776199 132.0
149.914398 72.0
150.080154 160.0
150.203842 224.0
150.307007 100.0
150.331406 148.0
150.609741 80.0
150.777649 188.0
150.851654 52.0
150.944565 140.0
151.294449 80.0
151.370346 144.0
151.767303 200.0
151.794281 148.0
151.855591 52.0
152.010147 132.0
152.069046 176.0
152.219162 136.0
152.304764 172.0
152.324402 160.0
152.508698 208.0
152.61441 68.0
152.675888 208.0
152.761978 212.0
152.85054 136.0
152.966217 156.0
153.052383 116.0
153.23465 224.0
153.328293 260.0
153.440033 108.0
153.513184 228.0
153.579773 168.0
153.804321 148.0
153.915421 152.0
154.068542 140.0
154.115494 116.0
154.132782 184.0
154.518509 212.0
154.610062 96.0
154.808105 240.0
154.924515 48.0
155.070724 324.0
155.174835 92.0
155.256668 244.0
155.574265 208.0
155.812683 160.0
156.085312 492.0
156.195511 76.0
156.382126 132.0
156.446854 40.0
156.965088 148.0
157.017456 168.0
157.057541 168.0
157.089798 120.0
157.469208 272.0
158.021652 104.0
158.060074 1252.0
158.096725 116.0
158.296997 124.0
158.317032 224.0
158.349579 76.0
158.901062 144.0
158.943726 136.0
159.031555 176.0
159.069382 376.0
159.087952 188.0
159.12645 200.0
159.159592 52.0
159.46106 68.0
159.528915 128.0
159.682556 204.0
159.800537 84.0
159.971664 216.0
160.013626 132.0
160.044678 140.0
160.076767 8960.0
160.13031 64.0
160.276413 108.0
160.362732 160.0
160.399902 148.0
160.455368 108.0
160.586502 128.0
160.637863 88.0
160.730301 32.0
160.975143 136.0
161.08107 1960.0
161.124176 200.0
161.177231 184.0
161.200928 80.0
161.44519 40.0
161.586212 208.0
161.715897 136.0
161.786774 64.0
162.012161 216.0
162.089767 668.0
162.123657 100.0
162.219971 44.0
162.247864 104.0
162.270676 44.0
162.336609 96.0
162.364502 76.0
162.478638 140.0
162.613129 64.0
163.110977 448.0
163.199951 76.0
163.467041 124.0
163.892288 68.0
163.925415 48.0
164.100128 184.0
164.310425 136.0
164.626938 148.0
164.708664 184.0
164.749542 168.0
164.841522 212.0
164.869629 156.0
164.933533 76.0
164.973938 316.0
165.010788 23024.0
165.063919 176.0
165.08046 36.0
165.12529 52.0
165.150864 136.0
165.212265 40.0
165.250977 132.0
165.294144 40.0
165.33252 52.0
165.490067 88.0
165.532196 56.0
165.565491 172.0
165.596222 76.0
165.677338 60.0
165.783249 136.0
165.842194 44.0
165.881973 132.0
165.952423 144.0
166.014572 2468.0
166.088348 152.0
166.142227 144.0
166.360352 68.0
166.378326 200.0
166.570923 56.0
166.627441 76.0
166.766205 72.0
166.917892 92.0
167.007721 5812.0
167.062881 160.0
167.1073 56.0
167.1353 100.0
167.198303 76.0
167.25235 184.0
167.27037 100.0
167.345016 108.0
167.386215 48.0
167.486664 112.0
167.538177 96.0
167.556213 60.0
167.592102 56.0
167.723724 176.0
167.756607 100.0
167.888733 120.0
167.940308 28.0
168.010895 716.0
168.053818 84.0
168.086777 160.0
168.41008 44.0
168.681396 152.0
168.702072 192.0
168.810669 104.0
168.906357 236.0
169.009842 76.0
169.266098 112.0
169.556244 100.0
169.724747 76.0
169.903717 48.0
169.953003 124.0
170.043839 112.0
170.06459 156.0
170.113922 188.0
170.171036 168.0
170.319061 44.0
170.472351 172.0
170.49054 220.0
170.721909 32.0
170.812943 72.0
171.072021 336.0
171.079315 188.0
171.086517 216.0
171.390915 124.0
171.519073 112.0
171.685471 44.0
171.76355 120.0
172.075531 888.0
172.191788 160.0
172.215286 76.0
172.251862 80.0
172.897675 224.0
173.020706 172.0
173.086197 324.0
173.11496 200.0
173.993347 128.0
174.035889 220.0
174.091873 6840.0
174.156158 76.0
174.192932 156.0
174.521454 128.0
174.578156 92.0
174.745026 180.0
174.93187 48.0
174.987152 200.0
175.063522 104.0
175.092926 1424.0
175.126724 64.0
175.208389 76.0
175.350677 136.0
175.493027 88.0
175.862366 204.0
175.92308 40.0
175.999634 80.0
176.089432 204.0
176.234726 132.0
176.287567 188.0
176.388 152.0
176.414429 104.0
176.462021 104.0
176.496399 200.0
176.583038 184.0
176.612762 156.0
176.919724 132.0
177.298492 68.0
177.409821 60.0
177.468155 104.0
177.651138 184.0
178.041321 120.0
178.105072 136.0
178.663315 184.0
178.724503 68.0
178.801682 76.0
179.369003 216.0
179.753052 168.0
179.78775 64.0
179.843796 204.0
180.918228 132.0
181.548065 80.0
182.057953 164.0
182.160019 116.0
182.42337 176.0
182.625046 168.0
182.973923 192.0
183.082581 108.0
184.029068 148.0
184.059799 144.0
184.083069 132.0
184.101974 144.0
184.856201 136.0
185.070709 356.0
185.405945 204.0
185.430344 128.0
185.582153 152.0
185.929367 172.0
186.815155 148.0
186.940002 168.0
187.043747 188.0
187.085449 760.0
187.386887 220.0
187.586243 108.0
187.866699 92.0
188.088303 248.0
188.125961 140.0
188.262482 144.0
188.306183 104.0
188.705139 176.0
188.768036 124.0
188.789917 48.0
189.104721 372.0
189.137375 48.0
189.304398 168.0
189.613968 104.0
189.652328 124.0
189.761993 216.0
189.800369 148.0
189.890869 56.0
190.028503 196.0
190.307983 152.0
190.464523 144.0
190.618378 208.0
190.667847 120.0
190.736557 128.0
190.815781 176.0
190.85202 264.0
190.90152 232.0
191.044556 296.0
191.118256 30352.0
191.162033 352.0
191.231659 72.0
191.256439 44.0
191.288086 136.0
191.33902 80.0
191.380325 64.0
191.407852 64.0
191.449158 72.0
191.471191 56.0
191.518021 112.0
191.540054 76.0
191.559341 96.0
191.603409 44.0
191.655762 108.0
191.724655 76.0
191.752213 80.0
191.82663 104.0
191.874268 200.0
191.898315 52.0
192.000336 104.0
192.120605 3540.0
192.207245 92.0
192.240356 84.0
192.328674 40.0
192.487747 116.0
192.555069 76.0
192.665573 56.0
192.872818 72.0
193.016586 64.0
193.051498 96.0
193.123032 548.0
193.157639 180.0
193.265533 36.0
193.434357 128.0
193.544617 92.0
193.606018 124.0
193.644791 104.0
193.752823 92.0
193.783295 132.0
193.85257 40.0
193.874741 56.0
193.94957 164.0
194.518219 80.0
194.610443 128.0
194.773682 92.0
196.21521 96.0
196.485733 152.0
196.56665 80.0
196.784363 248.0
197.270477 136.0
197.726395 128.0
197.866364 132.0
198.02597 96.0
198.124023 124.0
198.449127 96.0
198.638275 108.0
199.084442 360.0
200.085892 440.0
200.132172 172.0
200.952362 60.0
201.887344 60.0
202.033539 176.0
202.141953 64.0
202.447678 112.0
203.031479 180.0
204.053268 648.0
204.113434 48.0
204.469025 44.0
204.64267 236.0
204.964539 124.0
205.04718 108.0
206.037338 152.0
206.067154 340.0
207.047058 48.0
207.121521 124.0
207.267639 180.0
208.062119 160.0
208.875381 188.0
208.941544 28.0
210.460464 64.0
212.248672 208.0
212.669327 80.0
212.994537 144.0
213.875595 220.0
214.913071 128.0
214.936417 176.0
215.134888 48.0
215.409378 76.0
216.036453 252.0
216.113434 764.0
216.157852 36.0
216.424225 108.0
216.46814 144.0
216.523788 124.0
216.556 112.0
217.09494 632.0
218.104416 176.0
218.20813 140.0
218.493408 80.0
218.640533 48.0
218.911377 136.0
219.099884 40.0
219.601013 228.0
220.412857 160.0
221.021988 72.0
221.41275 176.0
222.322891 152.0
223.806213 132.0
224.837646 248.0
225.076462 176.0
225.988113 176.0
226.029999 140.0
226.538971 48.0
226.907593 152.0
227.435577 140.0
228.120453 120.0
228.839478 88.0
229.017151 168.0
229.107529 140.0
229.966919 120.0
230.770477 164.0
230.991257 128.0
231.054245 156.0
231.06395 128.0
231.073532 160.0
231.154633 60.0
231.236343 132.0
231.30899 68.0
232.026947 80.0
232.07547 168.0
232.22406 84.0
232.30899 88.0
232.387878 80.0
232.457657 128.0
232.627625 48.0
232.663635 296.0
232.73085 136.0
232.840179 196.0
232.913071 136.0
232.937363 88.0
232.974823 208.0
233.039642 56.0
233.075363 17500.0
233.128845 212.0
233.17627 96.0
233.262512 84.0
233.283798 112.0
233.317871 136.0
233.346359 76.0
233.393372 100.0
233.463181 48.0
233.488861 76.0
233.527054 32.0
233.54834 104.0
233.654816 72.0
233.676117 60.0
233.728195 68.0
233.813049 76.0
233.840439 96.0
234.036133 112.0
234.077576 3564.0
234.120224 204.0
234.166214 40.0
234.236267 64.0
234.367264 44.0
234.49527 56.0
234.696457 92.0
234.84285 88.0
234.936066 76.0
235.071579 592.0
235.109512 484.0
235.3647 64.0
235.431885 96.0
235.483795 176.0
235.526566 124.0
235.569321 56.0
235.630341 132.0
235.667084 76.0
235.920761 140.0
235.954391 32.0
236.072159 240.0
236.125626 32.0
236.659149 104.0
237.506989 64.0
237.66037 116.0
238.084 120.0
238.612518 56.0
240.149139 40.0
243.682266 140.0
245.951523 68.0
246.718338 80.0
247.339371 112.0
248.555374 116.0
248.853561 60.0
248.916351 144.0
249.661133 60.0
249.959976 180.0
250.101624 4840.0
250.255859 48.0
250.510956 32.0
250.996323 148.0
251.103775 900.0
251.144547 124.0
252.108505 348.0
252.55011 136.0
252.651337 64.0
253.103943 112.0
253.693253 56.0
258.736389 64.0
265.237335 84.0
265.775696 116.0
269.968079 76.0
270.072754 136.0
273.113342 148.0
275.883301 104.0
276.080444 792.0
277.071045 120.0
277.160828 80.0
279.069397 152.0
279.358734 56.0
280.637604 40.0
284.159546 100.0
284.48172 56.0
286.334442 36.0
288.027618 160.0
289.88504 76.0
317.426514 44.0
326.14502 60.0
333.126373 84.0
333.736938 76.0
335.273102 72.0
338.51712 72.0
361.045776 44.0
363.868744 104.0
370.903351 88.0
375.555939 96.0
387.619843 92.0
389.004333 40.0
389.102478 72.0
391.138794 40.0
391.973755 160.0
394.740906 100.0
402.833069 180.0
414.104156 196.0
423.561951 52.0
430.471497 120.0
444.110107 116.0
448.550415 64.0
453.000092 80.0
461.802795 84.0
463.746643 80.0
472.029755 120.0
476.020752 88.0
486.398682 48.0
487.057343 128.0
493.823151 92.0
507.669678 68.0
565.022217 36.0
599.78894 44.0
601.608459 136.0
608.99762 88.0
612.90863 80.0
616.382446 36.0
639.442932 104.0
656.608215 40.0
677.555298 36.0
683.198425 84.0
722.456909 84.0
816.427856 188.0
879.166992 88.0
896.507263 56.0
910.205994 140.0
912.375 204.0
933.087646 176.0
948.262878 148.0
954.825989 136.0
958.710632 148.0
965.012939 192.0
975.490112 48.0
991.142822 116.0
995.52124 148.0
1010.864868 156.0
1013.403992 168.0
1015.223206 144.0
1020.417236 136.0
1020.868713 148.0
1047.797119 128.0
1049.053833 52.0
1056.36377 196.0
1065.692871 268.0
1069.477661 212.0
1078.014648 152.0
1078.897095 152.0
1083.989136 148.0
1090.650513 132.0
1095.862549 176.0
1097.279541 152.0
1104.642944 104.0
1109.079346 72.0
1110.60437 80.0
1111.692383 148.0
1121.515503 208.0
1122.188721 40.0
1124.31665 52.0
1144.231323 140.0
1158.372559 188.0
1167.175049 100.0
1171.721558 152.0
1171.810181 196.0
1175.109985 140.0
1175.85376 188.0
1178.503296 180.0
1178.961182 248.0
1179.473755 176.0
1179.815552 164.0
1181.655273 36.0
1186.408081 156.0
1189.364624 152.0
1190.88208 132.0
1192.579102 124.0
1194.648926 188.0
1198.304565 168.0
1203.463501 144.0
1204.230103 124.0
1210.897339 188.0
1214.716431 88.0
1216.298584 172.0
1216.916382 228.0
1221.148315 96.0
1221.203979 168.0
1226.656006 144.0
1226.8302 152.0
1227.004517 180.0
1229.634277 128.0
1231.226074 40.0
1234.06311 124.0
1234.832275 128.0
1236.616333 188.0
1237.981567 56.0
1248.97229 52.0
1252.400024 152.0
1255.402344 144.0
1266.39917 212.0
1266.717896 160.0
1269.716064 188.0
1272.391113 136.0
1272.980469 68.0
1273.207764 132.0
1274.301636 108.0
1280.177002 68.0
1285.230835 192.0
1286.015869 168.0
1288.47229 172.0
1290.030151 220.0
1292.282959 168.0
1292.44751 232.0
1299.081665 64.0
1303.202637 172.0
1305.574707 52.0
1311.672974 200.0
1311.903687 120.0
1313.504517 180.0
1316.42749 140.0
1318.515259 100.0
1320.279297 40.0
1320.720459 140.0
1324.107666 148.0
1331.2146 188.0
1332.769043 132.0
1333.481201 152.0
1337.030396 156.0
1341.087036 208.0
1343.04834 152.0
1344.828735 64.0
1346.018677 140.0
1352.430054 96.0
1353.140137 136.0
1354.062866 112.0
1359.443848 152.0
1360.867798 180.0
1361.770996 144.0
1366.512451 128.0
1367.940186 124.0
1374.492065 76.0
1375.466187 112.0
1376.965088 192.0
1383.908691 136.0
1384.901123 236.0
1387.494629 112.0
1389.407959 148.0
1396.866455 200.0
1399.932739 172.0
1402.272095 100.0
1403.285889 164.0
1405.53833 180.0
1406.844482 124.0
1408.001831 180.0
1408.121338 200.0
1410.280518 200.0
1411.155151 156.0
1414.499146 196.0
1417.150269 196.0
1418.416748 192.0
1420.801392 96.0
1421.416626 176.0
1422.722656 160.0
1423.571045 128.0
1424.284546 200.0
1425.907471 192.0
1428.83252 220.0
1429.863281 200.0
1430.013916 188.0
1432.408203 156.0
1434.375 148.0
1437.255859 204.0
1438.848389 284.0
1440.13208 136.0
1440.471924 60.0
1442.822144 192.0
1444.31189 180.0
1446.740967 156.0
1448.141724 176.0
1450.39209 124.0
1451.938721 60.0
1454.169312 156.0
1456.58374 192.0
1457.852539 308.0
1463.824097 272.0
1463.97644 108.0
1465.027466 180.0
1465.812256 136.0
1469.166992 184.0
1471.92981 184.0
1472.181885 108.0
1473.23584 172.0
1476.453735 136.0
1478.603516 228.0
1479.453125 136.0
1479.966064 132.0
1482.585815 176.0
1484.65564 168.0
1484.855103 156.0
1485.039185 128.0
1485.921265 172.0
1486.688599 196.0
1487.22583 180.0
1488.331299 64.0
1489.805908 220.0
1490.712524 96.0
1491.811646 52.0
1492.242188 184.0
1494.057129 176.0
1498.021729 108.0
1498.083374 176.0
1498.491577 140.0
1500.032959 136.0
1501.682983 52.0
1502.084106 156.0
