>compound MLS000859956-01!U-74389G
>formula C37H50N6O2
>ionization [M+H]+
>parentmass 611.405151
#inchi InChI=1S/C37H50N6O2/c1-36-13-11-27(44)23-26(36)7-8-28-29-9-10-31(37(29,2)14-12-30(28)36)32(45)25-40-19-21-42(22-20-40)34-24-33(41-15-3-4-16-41)38-35(39-34)43-17-5-6-18-43/h11-13,23-24,28-29,31H,3-10,14-22,25H2,1-2H3/t28-,29-,31+,36-,37-/m0/s1
#inchikey LBGLGTAQLROFTM
#origInchi InChI=1S/C37H50N6O2.C4H4O4/c1-36-13-11-27(44)23-26(36)7-8-28-29-9-10-31(37(29,2)14-12-30(28)36)32(45)25-40-19-21-42(22-20-40)34-24-33(41-15-3-4-16-41)38-35(39-34)43-17-5-6-18-43;5-3(6)1-2-4(7)8/h11-13,23-24,28-29,31H,3-10,14-22,25H2,1-2H3;1-2H,(H,5,6)(H,7,8)/b;2-1-/t28-,29-,31+,36-,37-;/m0./s1
#Ion_Source LC-ESI
#Instrument qTof
#Compound_Source NIH Pharmacologically Active Library
#PI Dorrestein
#Data_Collector VP/LMS
#Scan -1
#Precursor_MZ 611.411
#ExactMass 610.4
#Charge 1
#CAS_Number N/A
#Pubmed_ID N/A
#Smiles C[C@@]12CC=C3[C@@H](CCC4=CC(=O)C=C[C@@]43C)[C@@H]2CC[C@@H]1C(=O)CN5CCN(CC5)c6cc(nc(n6)N7CCCC7)N8CCCC8.OC(=O)/C=C\C(=O)O
#INCHI_AUX N/A
#Library_Class 3
#SpectrumID CCMSLIB00000086020
#IonMode Positive
#UpdateWorkflowName UPDATE-SINGLE-ANNOTATED-BRONZE
#LibraryQualityString Bronze
#TaskID d252d724072548979f1f6f1ced849daf
##Scan# 1704
#SpectrumFile p5-B03_GB3_01_18442.mzXML
#LibraryName Pharm_Active_Library.mgf
#MQScore -1
#Organism Pharm_Active_Library
#TIC_Query 0
#RT_Query -1
#MZErrorPPM -1
#SharedPeaks 0
#MassDiff 0
#LibMZ -1
#SpecMZ 611.411
#SpecCharge 0
#internalFilename spec-00000.mgf

>collision 10
53.026741 88.0
62.621227 200.0
85.327362 96.0
99.091522 168.0
121.077896 192.0
130.302841 252.0
134.016205 104.0
156.951599 152.0
165.074066 124.0
189.078995 156.0
189.862503 164.0
196.258652 160.0
198.602112 120.0
206.138672 80.0
208.879517 124.0
212.798203 152.0
216.568741 120.0
217.134399 116.0
218.150314 116.0
220.996246 160.0
225.077225 200.0
231.146133 120.0
233.167389 160.0
239.918167 100.0
245.131851 144.0
246.161194 320.0
246.180618 208.0
247.179825 156.0
249.157806 152.0
256.143097 188.0
256.168579 188.0
258.160187 152.0
260.143433 52.0
260.188354 292.0
269.104797 136.0
274.185913 164.0
279.950195 240.0
280.18335 116.0
280.940094 48.0
285.40451 152.0
290.198975 96.0
294.828308 108.0
301.215973 764.0
303.204895 148.0
303.243042 96.0
303.430206 36.0
303.891479 44.0
304.165649 188.0
310.92627 120.0
313.204559 120.0
315.233246 276.0
316.238281 144.0
317.569672 128.0
320.983673 212.0
329.204803 208.0
330.239655 160.0
330.853516 144.0
337.178925 180.0
338.067596 204.0
338.093201 124.0
339.228607 104.0
340.310852 64.0
340.909576 140.0
352.019257 72.0
353.248871 156.0
365.343262 104.0
366.070221 124.0
366.157806 212.0
368.759766 136.0
371.255859 240.0
387.164734 144.0
389.15274 164.0
393.874481 180.0
395.250244 160.0
399.76593 68.0
401.638397 232.0
413.252411 112.0
421.249054 104.0
425.298676 104.0
426.316437 176.0
428.151947 168.0
431.593414 184.0
436.856354 120.0
437.280762 96.0
457.260345 68.0
460.949127 152.0
463.752197 164.0
471.896759 64.0
475.843689 108.0
477.294861 52.0
478.621948 160.0
481.163788 76.0
486.342316 108.0
489.970093 160.0
492.268036 108.0
492.771576 216.0
493.730774 80.0
494.146545 92.0
499.06076 116.0
507.602539 144.0
511.290619 128.0
522.680664 104.0
523.618408 124.0
525.31366 120.0
526.286011 120.0
530.875549 160.0
535.075134 188.0
538.307251 112.0
538.3396 88.0
540.303955 128.0
546.171997 152.0
560.549561 116.0
560.752197 136.0
561.76123 100.0
563.205627 72.0
567.246521 156.0
567.393433 144.0
567.744324 168.0
568.395203 228.0
568.73114 180.0
569.338867 124.0
569.385742 156.0
570.022888 164.0
570.331787 80.0
573.630432 120.0
577.158508 140.0
578.186951 164.0
578.368835 164.0
579.369629 124.0
580.002136 112.0
581.369019 112.0
582.362793 176.0
582.468445 64.0
583.857483 92.0
584.554993 104.0
591.054688 44.0
591.896912 76.0
594.805725 312.0
596.000366 152.0
596.382324 4080.0
596.486389 172.0
596.709961 64.0
596.899597 108.0
597.137878 112.0
597.220581 116.0
597.303284 124.0
597.386353 1640.0
597.561096 48.0
597.784912 80.0
597.907776 48.0
597.960083 44.0
598.028259 104.0
598.213196 72.0
598.349487 132.0
598.391541 584.0
598.4245 160.0
598.758545 72.0
599.388977 96.0
599.518494 96.0
599.606201 160.0
599.871765 108.0
600.098572 36.0
600.571594 104.0
600.781311 132.0
600.854492 136.0
601.322937 64.0
601.440063 92.0
603.398926 124.0
603.799866 84.0
608.376282 92.0
609.359741 140.0
609.397766 112.0
609.528076 132.0
609.618896 92.0
609.8302 108.0
610.262817 80.0
610.380676 160.0
610.690613 40.0
610.749634 64.0
611.063416 164.0
611.182556 160.0
611.31543 116.0
611.405151 3440.0
612.006653 140.0
612.223083 124.0
612.283813 140.0
612.406494 1288.0
612.55304 84.0
612.66449 108.0
613.305054 116.0
613.408142 460.0
614.14325 80.0
614.182739 76.0
614.266541 80.0
615.258423 68.0
616.009033 60.0
616.290649 88.0
616.755188 60.0
617.140747 64.0
617.388 72.0
618.045898 64.0
618.857605 60.0
619.357788 56.0
677.975647 132.0
687.38269 128.0
730.497681 72.0
770.382019 108.0
816.385376 128.0
857.457947 72.0
866.187012 104.0
874.253967 108.0
930.336304 96.0
1005.959473 96.0
1139.634155 180.0
1153.685913 160.0
1298.01355 64.0
1324.303223 56.0
1404.5896 40.0
