>compound MLS002472952-01!3-hydroxy-1-(4-hydroxyphenyl)-5-phenylpentan-1-one
>formula C17H18O3
>ionization [M+H]+
>parentmass 271.133
#inchi InChI=1S/C17H18O3/c18-15-10-7-14(8-11-15)17(20)12-16(19)9-6-13-4-2-1-3-5-13/h1-5,7-8,10-11,16,18-19H,6,9,12H2
#inchikey NNPDNNXUSPXBRO
#Ion_Source LC-ESI
#Instrument qTof
#Compound_Source NIH Natural Product Library
#PI Dorrestein
#Data_Collector VVP/LMS
#Scan -1
#Precursor_MZ 271.133
#ExactMass 270.126
#Charge 1
#CAS_Number N/A
#Pubmed_ID N/A
#Smiles OC(CCc1ccccc1)CC(=O)c2ccc(O)cc2
#INCHI_AUX N/A
#Library_Class 3
#SpectrumID CCMSLIB00000079412
#IonMode Positive
#UpdateWorkflowName UPDATE-SINGLE-ANNOTATED-BRONZE
#LibraryQualityString Bronze
#TaskID b1d8e8f6646f4e71acdff9ca3d919d08
##Scan# 2009
#SpectrumFile p1-A06_GA6_01_17879.mzXML
#LibraryName NIH_Natural_Products_Library.mgf
#MQScore -1
#Organism NIH_Natural_Products_Library
#TIC_Query 0
#RT_Query -1
#MZErrorPPM -1
#SharedPeaks 0
#MassDiff 0
#LibMZ -1
#SpecMZ 271.133
#SpecCharge 0
#internalFilename spec-00000.mgf

>collision 10
95.27063 160.0
95.955658 140.0
96.676407 200.0
97.787178 48.0
101.720833 172.0
104.026085 224.0
104.125572 148.0
104.994568 168.0
107.046913 152.0
108.115181 200.0
109.026855 316.0
110.520668 228.0
111.042274 128.0
111.298286 140.0
112.205078 212.0
113.747223 132.0
114.998764 220.0
115.017975 96.0
115.054062 2968.0
115.14608 52.0
115.178116 128.0
115.27639 80.0
115.423882 68.0
115.708443 152.0
115.744835 180.0
116.06488 168.0
116.463249 132.0
116.731888 112.0
116.787048 232.0
116.875664 128.0
117.041733 184.0
117.069725 3640.0
117.117111 48.0
117.17527 32.0
117.27224 128.0
117.321815 72.0
117.444725 48.0
117.891617 56.0
117.926201 44.0
118.072159 372.0
118.72506 156.0
118.855209 164.0
118.987602 68.0
119.050575 152.0
119.979637 112.0
120.363625 132.0
120.844475 148.0
120.986732 188.0
121.028679 8160.0
121.075218 184.0
121.192596 52.0
121.23642 52.0
121.278549 108.0
121.361366 72.0
121.642174 100.0
121.723404 120.0
122.032547 624.0
122.607719 100.0
123.033409 152.0
123.913605 48.0
125.366753 104.0
135.402908 244.0
137.060669 188.0
138.066513 200.0
142.078934 148.0
147.041702 136.0
149.024902 144.0
149.056488 220.0
150.913803 156.0
153.528915 112.0
160.529129 264.0
161.064163 224.0
163.521011 280.0
167.077744 180.0
172.082275 176.0
173.033936 48.0
175.029343 220.0
179.025192 60.0
179.089111 184.0
180.53688 196.0
181.137787 280.0
189.06842 160.0
190.536575 228.0
192.087936 84.0
194.533554 232.0
202.072937 64.0
203.549637 196.0
205.034546 148.0
223.036652 128.0
229.002823 156.0
235.108765 164.0
241.446548 124.0
250.907913 188.0
269.084991 76.0
271.175201 92.0
289.273712 144.0
314.130981 144.0
452.648285 80.0
638.128052 48.0
764.483337 48.0
867.605896 196.0
919.230042 228.0
979.141663 228.0
988.148926 148.0
998.769226 196.0
999.920593 216.0
1016.686829 204.0
1031.891113 188.0
1036.845459 248.0
1108.213623 180.0
1154.387451 268.0
1155.807983 228.0
1159.905151 180.0
1172.287964 200.0
1206.558838 136.0
1211.19519 212.0
1217.645386 180.0
1225.540649 152.0
1230.750732 132.0
1243.266602 156.0
1271.609009 160.0
1272.915161 176.0
1279.577271 160.0
1282.797241 144.0
1290.006958 172.0
1297.487671 108.0
1301.541382 160.0
1315.92688 224.0
1333.100586 184.0
1343.038086 88.0
1347.907349 176.0
1375.861084 136.0
1376.916992 220.0
1378.963379 180.0
1381.906494 196.0
1389.93811 116.0
1404.407471 68.0
1410.223633 136.0
1411.973145 160.0
1425.59436 196.0
1426.533936 168.0
1453.010376 116.0
1461.215332 144.0
1477.08252 196.0
1483.675781 136.0
1485.286133 48.0
1493.17395 164.0
