>compound MLS001140908-01!4-[[[2-(8-methyl-2-oxo-4-phenylchromen-7-yl)oxyacetyl]amino]methyl]cyclohexane-1-carboxylic acid
>formula C26H27NO6
>ionization [M+H]+
>parentmass 450.192
#inchi InChI=1S/C26H27NO6/c1-16-22(32-15-23(28)27-14-17-7-9-19(10-8-17)26(30)31)12-11-20-21(13-24(29)33-25(16)20)18-5-3-2-4-6-18/h2-6,11-13,17,19H,7-10,14-15H2,1H3,(H,27,28)(H,30,31)/t17-,19-
#inchikey GSYNRNQTBJWZIV
#Ion_Source LC-ESI
#Instrument qTof
#Compound_Source NIH Natural Product Library
#PI Dorrestein
#Data_Collector VVP/LMS
#Scan -1
#Precursor_MZ 450.192
#ExactMass 449.184
#Charge 1
#CAS_Number N/A
#Pubmed_ID N/A
#Smiles Cc1c(OCC(=O)NC[C@H]2CC[C@@H](CC2)C(=O)O)ccc3c(cc(=O)oc13)c4ccccc4
#INCHI_AUX N/A
#Library_Class 1
#SpectrumID CCMSLIB00000080406
#IonMode Positive
#UpdateWorkflowName UPDATE-SINGLE-ANNOTATED-GOLD
#LibraryQualityString Gold
#TaskID b1d8e8f6646f4e71acdff9ca3d919d08
##Scan# 2086
#SpectrumFile p2-E08_GE8_01_18032.mzXML
#LibraryName NIH_Natural_Products_Library.mgf
#MQScore -1
#Organism NIH_Natural_Products_Library
#TIC_Query 0
#RT_Query -1
#MZErrorPPM -1
#SharedPeaks 0
#MassDiff 0
#LibMZ -1
#SpecMZ 450.192
#SpecCharge 0
#internalFilename spec-00000.mgf

>collision 10
95.097557 80.0
95.119514 768.0
95.231544 68.0
95.289833 236.0
95.84446 124.0
96.123352 136.0
96.242439 148.0
96.326431 260.0
96.512131 96.0
96.629501 216.0
97.111488 124.0
98.183556 84.0
98.742569 208.0
99.104897 88.0
100.674652 140.0
100.774551 52.0
102.069626 120.0
103.421547 148.0
103.761932 176.0
103.926247 216.0
103.990807 104.0
104.218681 112.0
105.730003 160.0
108.107391 184.0
108.75621 240.0
109.58194 44.0
109.771652 104.0
110.009544 108.0
110.098175 344.0
110.134758 216.0
110.417068 124.0
110.563538 176.0
110.953209 76.0
111.116829 200.0
111.142647 144.0
111.37088 96.0
112.065216 168.0
112.115799 148.0
112.152771 160.0
112.744812 152.0
113.30352 144.0
114.849228 172.0
114.936714 48.0
115.723427 140.0
118.002342 128.0
118.078041 172.0
121.375732 136.0
122.122536 144.0
122.300789 148.0
122.556297 188.0
122.684151 136.0
123.127739 164.0
123.24926 152.0
123.53672 132.0
123.585403 120.0
123.995148 184.0
124.117096 192.0
124.156715 484.0
124.181419 188.0
125.128227 80.0
125.852974 160.0
126.425323 156.0
126.531921 184.0
126.561897 144.0
126.705269 124.0
126.886833 204.0
127.77636 148.0
129.920731 192.0
131.87941 128.0
134.078552 84.0
134.593063 192.0
135.129395 140.0
137.185089 64.0
137.278366 168.0
138.843155 116.0
139.033218 240.0
139.101303 136.0
140.058502 124.0
140.157654 532.0
141.156128 200.0
142.267532 136.0
143.757782 144.0
144.915298 68.0
145.504486 52.0
146.354294 112.0
146.592804 160.0
146.949738 188.0
147.394089 108.0
147.948044 124.0
148.670486 164.0
149.667313 188.0
149.896317 92.0
151.092163 472.0
151.455292 196.0
151.482239 84.0
152.156876 524.0
152.55481 208.0
152.697449 48.0
153.172409 380.0
153.47084 152.0
154.001511 236.0
154.127518 172.0
154.179489 304.0
154.36734 104.0
154.721222 160.0
154.968933 204.0
155.144928 312.0
157.070007 104.0
157.579361 184.0
158.202209 40.0
158.931656 88.0
159.474182 156.0
160.015121 136.0
161.082077 164.0
161.1604 216.0
161.691528 224.0
162.385849 124.0
162.771667 108.0
163.132507 156.0
163.152847 180.0
163.880859 108.0
165.125305 180.0
166.139496 332.0
166.236313 172.0
167.138412 168.0
167.867523 84.0
168.110062 168.0
169.130859 160.0
169.841202 168.0
170.174561 176.0
170.472198 112.0
170.989822 160.0
171.172089 140.0
174.041077 172.0
174.821915 152.0
175.736435 68.0
175.820892 60.0
175.923843 236.0
177.135208 276.0
177.328659 120.0
178.137238 744.0
178.196548 28.0
178.515579 104.0
179.146652 460.0
180.161057 336.0
180.534668 72.0
180.772797 88.0
181.064636 140.0
181.129364 332.0
181.162659 272.0
182.132935 244.0
182.220978 120.0
182.29892 56.0
182.562408 196.0
182.670013 108.0
182.893387 136.0
183.33786 160.0
184.387878 52.0
186.164017 172.0
187.103607 160.0
187.307892 108.0
188.044205 164.0
189.128937 180.0
189.608353 104.0
189.962646 156.0
190.149445 188.0
190.566727 204.0
190.627197 244.0
191.152863 388.0
191.601395 132.0
192.172195 156.0
192.9263 180.0
193.219498 128.0
193.496307 232.0
194.143372 400.0
194.666626 92.0
195.072342 96.0
195.14975 200.0
195.222504 196.0
195.887817 48.0
197.133759 264.0
197.165024 644.0
198.128662 116.0
198.189285 196.0
198.55481 32.0
199.824707 40.0
200.052704 136.0
200.263916 96.0
200.46962 140.0
201.152283 132.0
201.488403 168.0
202.144485 140.0
202.881027 112.0
202.95192 128.0
203.158997 120.0
203.59903 152.0
204.765274 144.0
205.127197 152.0
205.526535 156.0
205.580765 180.0
206.480835 236.0
207.036133 116.0
207.107742 128.0
207.152313 2676.0
207.187973 36.0
207.265335 132.0
207.37999 72.0
207.583572 104.0
207.638077 48.0
207.838913 100.0
208.161148 692.0
208.226532 88.0
208.439148 36.0
208.928024 76.0
209.111816 144.0
209.130707 368.0
209.173828 612.0
209.270569 84.0
209.431854 64.0
209.6595 88.0
209.745987 100.0
210.005539 68.0
210.139389 336.0
210.172302 216.0
211.143295 152.0
211.742874 60.0
212.166 172.0
213.155899 60.0
215.098831 112.0
217.135635 152.0
219.159973 180.0
219.981445 232.0
221.107788 68.0
221.168655 200.0
221.315033 120.0
223.143036 192.0
223.166824 112.0
224.16275 1880.0
224.244644 152.0
224.510025 36.0
224.763626 176.0
224.826309 84.0
225.171494 160.0
225.280228 132.0
226.177475 92.0
226.782623 176.0
226.848587 120.0
228.335144 64.0
228.681198 120.0
230.884003 104.0
232.110657 208.0
233.498718 128.0
233.541306 208.0
233.952179 124.0
234.156219 180.0
235.160492 288.0
235.278549 56.0
235.614548 124.0
236.158005 360.0
236.489258 152.0
236.578049 128.0
236.95787 44.0
237.175125 496.0
238.046936 164.0
239.646713 180.0
240.553574 140.0
240.914948 104.0
241.267303 140.0
242.449921 104.0
243.573273 180.0
246.830688 84.0
247.155899 124.0
248.167923 136.0
248.34671 136.0
248.440826 192.0
248.899139 76.0
249.156738 212.0
249.178726 148.0
249.439621 60.0
250.138062 188.0
250.166397 204.0
251.007767 40.0
251.16153 336.0
251.301163 120.0
251.484222 68.0
251.809494 80.0
251.95166 236.0
252.162216 1260.0
252.438492 192.0
252.647034 148.0
252.843491 132.0
253.011292 264.0
253.090454 120.0
253.17572 11260.0
253.264664 44.0
253.304611 192.0
253.33226 88.0
253.397736 156.0
253.480133 32.0
253.548248 132.0
253.87645 40.0
253.933548 60.0
254.08902 60.0
254.114395 84.0
254.179489 2456.0
254.288956 156.0
254.317535 60.0
254.647797 64.0
254.717682 72.0
254.806656 116.0
254.905167 80.0
254.987808 88.0
255.099075 96.0
255.180511 304.0
255.213547 36.0
255.254883 80.0
255.348999 68.0
255.47757 72.0
255.706711 108.0
255.728989 104.0
255.809723 112.0
255.853165 76.0
255.923218 100.0
256.098389 140.0
256.139587 200.0
256.164246 232.0
256.172821 156.0
256.334198 88.0
256.525452 88.0
256.54776 68.0
256.721191 84.0
256.873108 76.0
256.949677 132.0
257.872681 48.0
257.959015 60.0
258.518829 120.0
259.040802 84.0
259.168976 60.0
259.489532 100.0
260.870239 108.0
263.045013 80.0
263.122498 156.0
263.678192 264.0
264.192413 144.0
264.28949 72.0
264.532257 72.0
264.645599 216.0
264.801056 120.0
264.833466 180.0
264.864044 136.0
264.87793 60.0
264.883667 120.0
264.917694 140.0
265.089447 60.0
265.180878 8584.0
265.24826 52.0
265.28717 52.0
265.316376 104.0
265.37442 44.0
265.380554 40.0
265.392487 76.0
265.48175 68.0
265.520691 108.0
265.566101 76.0
265.681183 92.0
265.838654 64.0
265.925568 124.0
265.958771 56.0
266.010712 32.0
266.062653 168.0
266.140594 120.0
266.184418 2084.0
266.244537 128.0
266.34198 96.0
266.546692 44.0
266.656372 172.0
266.836029 132.0
266.909119 64.0
267.184906 424.0
267.535614 100.0
267.978607 136.0
268.177704 144.0
268.226318 128.0
270.89325 68.0
271.417725 208.0
272.228394 88.0
274.496094 56.0
275.562408 136.0
276.18399 160.0
276.985168 96.0
277.187286 184.0
279.162384 136.0
284.167389 64.0
285.121216 140.0
285.178345 172.0
287.090973 124.0
287.718658 196.0
290.585754 104.0
293.185608 2368.0
293.497772 68.0
293.685364 116.0
293.934448 100.0
294.050507 92.0
294.193817 288.0
294.559326 52.0
295.190887 132.0
296.150146 76.0
296.232391 64.0
296.82196 140.0
297.714355 88.0
298.883301 92.0
305.110077 56.0
305.90686 112.0
306.234253 44.0
310.032562 124.0
310.10968 92.0
310.216034 2568.0
310.948059 32.0
311.042847 144.0
311.218506 1176.0
312.216644 280.0
313.19519 100.0
314.341187 36.0
319.255463 64.0
322.223022 328.0
323.21933 172.0
332.93631 132.0
333.088867 176.0
347.493927 124.0
349.19928 120.0
352.132996 132.0
352.446838 132.0
363.227539 96.0
372.470612 124.0
372.954834 120.0
374.59433 52.0
375.292023 104.0
376.156342 224.0
401.183624 68.0
404.327576 1196.0
404.403717 208.0
404.527832 80.0
404.635956 116.0
405.322021 288.0
406.326599 176.0
408.103058 68.0
428.841125 168.0
433.31723 112.0
446.725067 72.0
447.457458 220.0
451.906708 64.0
455.634064 104.0
472.304504 120.0
473.360687 160.0
486.447296 80.0
551.733765 80.0
578.420532 84.0
583.097839 80.0
608.386047 72.0
641.773193 56.0
663.953857 48.0
664.071838 56.0
670.654236 52.0
696.541077 44.0
699.365173 92.0
702.36377 88.0
782.974792 92.0
795.344421 52.0
876.464783 120.0
982.231995 172.0
1002.625122 192.0
1033.77417 152.0
1058.750122 236.0
1064.490234 180.0
1068.774536 208.0
1071.125122 120.0
1080.736572 176.0
1086.85083 80.0
1100.154297 128.0
1115.844849 152.0
1122.084106 172.0
1142.816772 164.0
1143.516724 60.0
1175.523682 216.0
1177.674561 176.0
1178.446655 60.0
1191.679077 172.0
1238.381836 168.0
1278.141724 124.0
1293.645996 124.0
1311.239502 244.0
1317.113647 112.0
1378.445557 184.0
1379.39917 200.0
1385.779419 168.0
1396.612183 200.0
1402.286499 36.0
1410.191772 184.0
1413.909424 192.0
1420.098877 84.0
1436.363403 184.0
1440.070068 176.0
1481.985962 164.0
1502.609863 120.0
1504.70166 164.0
