>compound MLS001146918-01!
>formula C12H17NO3
>ionization [M+H]+
>parentmass 224.127762
#inchi InChI=1S/C12H17NO3/c1-4-13(5-2)12(15)9-6-7-10(14)11(8-9)16-3/h6-8,14H,4-5H2,1-3H3
#inchikey BQJODPIMMWWMFC
#Ion_Source LC-ESI
#Instrument qTof
#Compound_Source NIH Pharmacologically Active Library
#PI Dorrestein
#Data_Collector VP/LMS
#Scan -1
#Precursor_MZ 224.131
#ExactMass 223.121
#Charge 1
#CAS_Number N/A
#Pubmed_ID N/A
#Smiles CCN(CC)C(=O)c1ccc(O)c(OC)c1
#INCHI_AUX N/A
#Library_Class 1
#SpectrumID CCMSLIB00000085813
#IonMode Positive
#UpdateWorkflowName UPDATE-SINGLE-ANNOTATED-GOLD
#LibraryQualityString Gold
#TaskID d252d724072548979f1f6f1ced849daf
##Scan# 1507
#SpectrumFile p4-F09_GF9_01_18393.mzXML
#LibraryName Pharm_Active_Library.mgf
#MQScore -1
#Organism Pharm_Active_Library
#TIC_Query 0
#RT_Query -1
#MZErrorPPM -1
#SharedPeaks 0
#MassDiff 0
#LibMZ -1
#SpecMZ 224.131
#SpecCharge 0
#internalFilename spec-00000.mgf

>collision 10
44.943115 184.0
45.266609 176.0
45.349674 200.0
45.387211 192.0
45.661175 192.0
45.968342 144.0
46.458149 208.0
46.962833 160.0
47.046074 140.0
47.07338 108.0
47.622581 120.0
47.641811 116.0
47.681664 176.0
48.130768 148.0
48.27742 164.0
48.447506 236.0
49.061783 136.0
49.52153 184.0
49.736065 84.0
49.807678 200.0
50.029869 184.0
50.180622 120.0
50.414948 172.0
51.047222 140.0
51.15963 140.0
51.227985 128.0
51.287838 256.0
51.486164 160.0
51.660549 68.0
51.724945 112.0
51.883961 116.0
51.931282 72.0
52.15097 180.0
52.172531 152.0
52.516701 156.0
53.047394 244.0
53.063343 136.0
53.201172 132.0
53.221497 176.0
53.289764 252.0
53.852093 88.0
54.232521 152.0
54.346912 188.0
54.612823 144.0
54.667259 72.0
54.869061 124.0
55.167282 60.0
55.660671 136.0
55.699287 224.0
56.338371 188.0
56.619587 156.0
56.921021 136.0
57.123928 248.0
57.137466 160.0
57.392014 196.0
57.760521 164.0
57.898258 168.0
57.993713 164.0
58.725079 164.0
59.00148 172.0
59.140686 228.0
59.16671 180.0
59.249413 148.0
59.616146 224.0
59.923901 140.0
60.113567 168.0
60.453548 168.0
60.65955 40.0
60.896961 100.0
61.16441 120.0
61.435562 120.0
61.585423 152.0
61.818378 148.0
62.043934 68.0
62.056477 92.0
62.486835 196.0
63.095631 196.0
63.225342 164.0
63.266495 132.0
63.344093 128.0
63.720089 140.0
63.731213 160.0
63.759815 184.0
63.770943 112.0
63.785248 124.0
64.62413 116.0
64.694557 252.0
65.220726 140.0
65.534546 192.0
65.749023 280.0
65.897583 216.0
66.23085 216.0
66.26487 152.0
67.13942 120.0
67.269958 152.0
67.287918 204.0
67.860573 196.0
68.164238 176.0
68.213547 172.0
68.44059 136.0
68.494942 172.0
69.327682 204.0
69.420525 196.0
69.854027 244.0
70.14212 176.0
70.228828 64.0
70.36734 64.0
70.467552 240.0
71.068649 176.0
71.154251 192.0
71.189514 196.0
71.298714 156.0
71.386139 164.0
71.778503 88.0
72.087425 168.0
72.253136 124.0
72.546127 212.0
72.561386 128.0
72.956161 152.0
73.023285 192.0
73.077721 192.0
73.580521 204.0
73.954903 128.0
74.076477 168.0
74.448685 184.0
74.465858 168.0
74.830429 180.0
75.309845 124.0
75.553589 160.0
76.01796 132.0
76.109962 148.0
76.215919 264.0
76.614357 152.0
76.741585 116.0
77.099442 160.0
77.327522 236.0
77.360069 212.0
77.547501 156.0
77.661469 152.0
78.049599 256.0
78.10939 180.0
78.781044 228.0
78.989647 180.0
79.072807 148.0
79.311928 192.0
79.533653 144.0
80.364761 160.0
80.573662 60.0
81.471245 152.0
81.812943 156.0
82.016502 172.0
82.478607 136.0
83.150597 228.0
83.259529 216.0
83.406372 244.0
83.466698 200.0
83.521263 196.0
83.991226 176.0
84.03318 136.0
84.532028 56.0
84.59243 180.0
85.171898 164.0
85.545197 128.0
85.814178 260.0
86.219887 180.0
86.24617 64.0
86.35157 176.0
86.972282 128.0
87.148712 192.0
87.260231 136.0
87.658569 204.0
87.817039 188.0
87.87114 120.0
88.070892 172.0
88.089569 112.0
88.405563 136.0
88.889053 236.0
89.056145 184.0
89.146324 156.0
89.579079 196.0
90.018547 152.0
90.701561 192.0
91.354813 228.0
91.979866 152.0
92.019958 136.0
92.425179 204.0
92.894577 220.0
93.033493 200.0
93.184479 176.0
93.334404 32.0
93.399796 164.0
93.50177 236.0
93.948814 132.0
94.528473 156.0
94.766647 188.0
95.014435 180.0
95.04921 508.0
95.535492 160.0
95.903534 192.0
96.014664 172.0
96.051727 200.0
96.160995 184.0
96.196129 180.0
96.336739 132.0
96.367996 100.0
96.665222 208.0
97.445641 220.0
97.630417 116.0
98.545074 112.0
99.045601 176.0
99.073334 36.0
99.44812 240.0
99.839523 120.0
100.074905 608.0
100.29747 72.0
100.872368 104.0
100.948349 64.0
100.97435 108.0
101.074371 164.0
101.114395 200.0
102.506149 172.0
102.602898 64.0
102.661377 152.0
102.77636 204.0
104.031212 128.0
104.959 148.0
105.175255 192.0
106.16835 220.0
106.559654 136.0
106.68502 76.0
107.03849 172.0
107.080109 160.0
107.564667 100.0
107.597702 40.0
107.649323 128.0
107.734009 72.0
107.80426 220.0
107.942764 156.0
107.995468 132.0
108.019691 6536.0
108.14946 128.0
108.230392 172.0
108.414764 220.0
108.48938 52.0
108.678123 88.0
108.737808 84.0
108.91687 136.0
109.023293 864.0
109.047775 192.0
109.732666 84.0
109.768112 64.0
109.844032 140.0
109.876572 100.0
109.932915 140.0
110.034256 276.0
110.053673 224.0
110.359047 236.0
110.553589 196.0
111.042107 164.0
111.146637 208.0
111.280975 144.0
111.297775 196.0
111.579323 68.0
111.64241 136.0
111.665543 136.0
112.013046 152.0
112.377579 188.0
113.439278 192.0
114.614616 152.0
114.923798 184.0
114.951538 156.0
115.318878 44.0
115.402252 72.0
115.682518 92.0
115.82814 80.0
116.362137 176.0
116.533966 156.0
116.680115 168.0
117.509323 88.0
117.671204 200.0
117.774864 148.0
117.822388 104.0
117.917465 176.0
118.18779 124.0
119.398285 176.0
119.539696 172.0
119.639816 188.0
119.757408 176.0
119.792259 140.0
119.877235 220.0
120.75489 208.0
121.008736 136.0
121.035118 160.0
121.063477 156.0
121.146713 132.0
121.447029 84.0
121.637939 148.0
121.730148 140.0
122.381035 228.0
122.912262 204.0
123.043121 2884.0
123.080025 80.0
123.150696 76.0
123.166161 80.0
123.210342 60.0
123.429161 64.0
123.508781 144.0
123.814224 160.0
124.048309 116.0
124.408485 72.0
124.763939 136.0
125.137718 208.0
125.476379 192.0
126.459297 128.0
127.028458 292.0
127.044159 248.0
128.544937 196.0
129.677994 100.0
129.875259 184.0
130.056793 192.0
130.181656 140.0
130.954926 140.0
131.292252 140.0
132.283905 72.0
132.992218 140.0
133.658707 64.0
133.819824 136.0
133.981049 176.0
134.405304 68.0
135.031769 180.0
135.193314 176.0
135.95578 76.0
136.015182 2016.0
136.345947 120.0
136.380814 64.0
136.499374 60.0
137.025421 176.0
137.274841 72.0
138.101791 220.0
138.267731 160.0
138.305176 48.0
139.0336 332.0
139.20079 72.0
139.287689 160.0
139.440414 136.0
139.943848 172.0
140.523666 160.0
141.054077 776.0
141.109421 56.0
141.274979 188.0
141.442993 116.0
141.542435 212.0
141.864655 80.0
141.921555 60.0
141.999817 176.0
142.05191 192.0
142.170639 188.0
143.064377 180.0
143.121521 104.0
143.278717 256.0
144.666275 172.0
144.690216 172.0
144.886597 184.0
144.956085 212.0
146.262634 128.0
146.356537 128.0
146.770981 212.0
147.142563 156.0
147.833878 164.0
148.15834 168.0
148.340103 180.0
148.555939 88.0
148.912766 164.0
149.009933 236.0
149.238403 80.0
149.313797 84.0
149.971191 176.0
150.044312 140.0
150.14917 44.0
150.393158 160.0
150.56163 136.0
150.605591 84.0
150.686218 132.0
150.717972 148.0
150.769302 160.0
150.810852 232.0
150.830399 112.0
150.93309 204.0
150.95372 152.0
150.984879 200.0
151.038986 39032.0
151.089432 52.0
151.113937 80.0
151.139557 116.0
151.180527 160.0
151.221771 144.0
151.265823 64.0
151.320389 124.0
151.34906 92.0
151.439987 128.0
151.522964 44.0
151.586685 48.0
151.608734 52.0
151.733749 96.0
151.770523 48.0
151.807312 84.0
151.949585 56.0
152.006012 84.0
152.041321 3112.0
152.10173 180.0
152.126282 28.0
152.160645 44.0
152.185211 60.0
152.288345 68.0
152.330109 60.0
152.357132 40.0
152.376785 40.0
152.605362 104.0
152.647171 96.0
152.757263 84.0
152.816895 36.0
153.014359 104.0
153.037537 288.0
153.051315 324.0
153.168945 72.0
153.23053 56.0
153.306931 136.0
153.335648 68.0
154.242371 60.0
154.36351 32.0
155.542862 88.0
156.965988 132.0
160.108612 76.0
160.191742 60.0
160.635422 76.0
160.791855 104.0
161.014038 112.0
163.969818 124.0
165.031784 84.0
166.957626 192.0
171.157745 44.0
200.737259 52.0
208.098877 164.0
208.854691 192.0
209.100464 384.0
210.11647 212.0
222.046722 84.0
224.127762 476.0
225.022522 48.0
225.138992 148.0
226.0448 184.0
233.517944 68.0
237.976654 112.0
241.539322 100.0
252.070068 60.0
296.755249 56.0
299.50116 56.0
308.006744 40.0
345.151337 44.0
462.344971 72.0
523.860901 64.0
542.464172 164.0
628.981873 88.0
747.148193 148.0
789.845398 160.0
797.521851 112.0
802.690186 84.0
824.507507 152.0
824.976257 140.0
877.377441 232.0
880.475403 152.0
893.123901 116.0
918.558899 152.0
934.857666 96.0
949.655273 124.0
952.208557 232.0
952.251587 80.0
967.501404 232.0
970.518738 164.0
975.230774 180.0
978.0672 68.0
983.515137 200.0
988.515137 96.0
1008.882019 204.0
1009.672424 216.0
1010.260681 164.0
1012.032837 160.0
1014.022034 216.0
1015.137817 220.0
1022.914795 176.0
1024.226562 36.0
1029.086182 168.0
1037.018799 196.0
1063.178955 144.0
1063.743652 176.0
1073.07959 260.0
1079.498413 72.0
1079.681519 120.0
1080.976807 216.0
1097.695557 168.0
1100.849854 144.0
1108.682861 176.0
1117.940552 200.0
1119.005615 216.0
1119.638184 168.0
1121.263916 200.0
1126.101074 32.0
1128.854614 216.0
1138.283325 164.0
1143.150391 124.0
1143.325317 208.0
1149.680664 268.0
1151.233398 212.0
1151.929077 212.0
1153.375122 140.0
1156.033203 240.0
1162.939453 116.0
1166.464844 196.0
1167.940552 84.0
1170.86731 116.0
1172.284302 188.0
1176.226562 168.0
1177.05957 176.0
1181.344971 168.0
1184.36377 160.0
1189.870605 124.0
1192.467285 192.0
1197.483154 208.0
1201.046631 108.0
1201.536499 176.0
1202.902954 156.0
1204.898804 172.0
1210.86853 196.0
1223.27002 112.0
1225.965576 144.0
1232.602173 188.0
1233.538696 168.0
1233.699463 64.0
1233.860352 84.0
1235.713745 236.0
1239.663086 204.0
1240.770508 132.0
1243.990723 212.0
1245.282715 136.0
1245.964111 132.0
1250.380127 144.0
1251.203735 128.0
1257.117676 164.0
1261.185791 208.0
1264.248291 212.0
1268.547729 120.0
1274.412476 208.0
1274.893311 180.0
1276.343506 256.0
1281.603882 136.0
1283.671021 216.0
1287.024902 168.0
1287.503418 120.0
1287.924805 220.0
1289.811279 228.0
1290.34021 180.0
1290.533325 136.0
1290.833618 120.0
1292.142578 192.0
1294.196777 160.0
1294.311401 196.0
1295.056152 236.0
1296.152344 172.0
1299.292847 84.0
1300.821411 200.0
1307.930908 228.0
1312.318359 240.0
1313.356812 168.0
1314.309082 160.0
1321.505859 136.0
1321.932861 160.0
1323.453003 136.0
1323.952637 152.0
1324.619019 204.0
1325.00293 72.0
1328.025879 164.0
1331.21936 144.0
1333.173584 132.0
1333.267944 52.0
1333.769531 140.0
1334.169312 164.0
1339.700317 192.0
1342.667114 200.0
1345.848755 200.0
1346.542603 172.0
1350.123779 252.0
1352.948242 96.0
1353.709717 84.0
1355.33606 164.0
1355.863647 180.0
1356.889893 92.0
1357.021851 112.0
1357.124512 88.0
1361.924194 156.0
1362.408936 156.0
1366.371704 220.0
1366.423218 76.0
1367.063354 128.0
1367.696411 148.0
1368.704956 192.0
1371.180298 160.0
1371.320312 200.0
1376.410767 252.0
1380.770996 136.0
1384.612183 144.0
1384.760376 176.0
1387.175903 180.0
1390.061157 140.0
1390.825562 204.0
1392.466553 84.0
1398.407227 204.0
1405.539429 116.0
1412.353027 144.0
1414.740112 160.0
1415.885864 152.0
1416.559937 136.0
1417.301636 132.0
1425.323242 188.0
1427.420532 184.0
1428.255371 180.0
1428.654053 128.0
1430.377441 204.0
1433.465454 232.0
1433.72168 180.0
1433.955322 216.0
1438.216919 140.0
1439.062378 156.0
1441.99353 124.0
1446.993774 132.0
1447.857056 184.0
1449.28125 136.0
1451.267212 176.0
1453.838745 156.0
1457.46106 180.0
1462.335815 204.0
1462.411987 176.0
1462.564209 136.0
1464.117432 212.0
1470.094482 220.0
1470.27002 180.0
1473.354858 168.0
1474.416992 168.0
1476.328369 172.0
1485.550415 172.0
1485.8573 212.0
1495.37085 144.0
1495.824951 136.0
1500.601562 212.0
1503.417114 152.0
1504.767944 128.0
