>compound MLS002695927-01!26155-31-7
>formula C12H16N2S
>ionization [M+H]+
>parentmass 221.110764
#inchi InChI=1S/C12H16N2S/c1-10-6-9-15-11(10)4-5-12-13-7-3-8-14(12)2/h4-6,9H,3,7-8H2,1-2H3/b5-4+
#inchikey NVEPPWDVLBMNMB
#origInchi InChI=1S/C12H16N2S.C4H6O6.H2O/c1-10-6-9-15-11(10)4-5-12-13-7-3-8-14(12)2;5-1(3(7)8)2(6)4(9)10;/h4-6,9H,3,7-8H2,1-2H3;1-2,5-6H,(H,7,8)(H,9,10);1H2/b5-4+;;
#Ion_Source LC-ESI
#Instrument qTof
#Compound_Source NIH Pharmacologically Active Library
#PI Dorrestein
#Data_Collector VP/LMS
#Scan -1
#Precursor_MZ 221.114
#ExactMass 220.103
#Charge 1
#CAS_Number N/A
#Pubmed_ID N/A
#Smiles CN1CCCN=C1/C=C/c2sccc2C.O.OC(C(O)C(=O)O)C(=O)O
#INCHI_AUX N/A
#Library_Class 1
#SpectrumID CCMSLIB00000085640
#IonMode Positive
#UpdateWorkflowName UPDATE-SINGLE-ANNOTATED-GOLD
#LibraryQualityString Gold
#TaskID d252d724072548979f1f6f1ced849daf
##Scan# 1365
#SpectrumFile p4-D08_GD8_01_18368.mzXML
#LibraryName Pharm_Active_Library.mgf
#MQScore -1
#Organism Pharm_Active_Library
#TIC_Query 0
#RT_Query -1
#MZErrorPPM -1
#SharedPeaks 0
#MassDiff 0
#LibMZ -1
#SpecMZ 221.114
#SpecCharge 0
#internalFilename spec-00000.mgf

>collision 10
44.950233 216.0
44.965679 204.0
44.975021 84.0
45.024361 172.0
45.048466 196.0
45.113945 128.0
45.241035 236.0
45.257828 212.0
45.279869 180.0
45.324074 152.0
45.382214 208.0
45.396461 136.0
45.469673 240.0
45.499779 200.0
45.515892 180.0
45.532005 160.0
45.544094 136.0
45.697346 32.0
45.943897 204.0
45.968182 124.0
45.988426 188.0
46.037029 116.0
46.065395 128.0
46.158104 264.0
46.201931 64.0
46.455265 176.0
46.467476 36.0
46.554348 172.0
46.658974 148.0
46.791378 212.0
46.829071 132.0
46.934002 156.0
46.947639 104.0
46.979012 212.0
46.995384 208.0
47.02404 180.0
47.048611 148.0
47.069092 156.0
47.099136 180.0
47.119629 32.0
47.203316 176.0
47.218048 156.0
47.231728 96.0
47.269646 184.0
47.361763 164.0
47.391899 232.0
47.415195 76.0
47.54274 120.0
47.578426 124.0
47.625118 64.0
47.783207 160.0
47.831371 204.0
47.912621 228.0
47.951202 156.0
47.977394 160.0
47.997894 152.0
48.082226 104.0
48.110279 136.0
48.183025 156.0
48.195461 80.0
48.329582 228.0
48.351723 148.0
48.37664 160.0
48.419563 132.0
48.451424 148.0
48.479134 224.0
48.583782 152.0
48.606712 160.0
48.642796 160.0
48.681736 244.0
48.698338 256.0
48.730289 152.0
48.745575 212.0
48.763641 48.0
48.797001 172.0
48.810905 160.0
48.83733 248.0
48.862949 144.0
48.984879 208.0
49.016922 72.0
49.11591 108.0
49.143368 176.0
49.269466 180.0
49.354721 160.0
49.390652 220.0
49.441517 172.0
49.458141 156.0
49.586952 144.0
49.686665 148.0
49.796158 160.0
49.856567 116.0
49.888897 184.0
50.046471 52.0
50.135685 304.0
50.181732 156.0
50.207115 212.0
50.266258 160.0
50.363777 156.0
50.493813 144.0
50.53059 212.0
50.5504 196.0
50.57729 212.0
50.631092 72.0
50.642422 176.0
50.653755 196.0
50.75359 216.0
50.789833 152.0
50.799763 80.0
50.81395 124.0
50.995716 160.0
51.081436 168.0
51.217682 192.0
51.254723 220.0
51.293903 228.0
51.361649 116.0
51.373058 44.0
51.428711 140.0
51.485821 124.0
51.510101 192.0
51.558681 228.0
51.602993 240.0
51.72916 148.0
51.779003 168.0
51.832611 280.0
51.939533 208.0
51.968224 176.0
52.067272 188.0
52.107494 148.0
52.16996 188.0
52.212429 144.0
52.231125 180.0
52.248386 88.0
52.264214 140.0
52.321785 72.0
52.402439 184.0
52.535076 176.0
52.601456 160.0
52.72567 136.0
52.780605 192.0
52.920956 164.0
53.019459 176.0
53.186253 92.0
53.286457 80.0
53.372211 232.0
53.506069 156.0
53.688206 176.0
53.72467 156.0
53.765526 152.0
53.863354 128.0
53.873577 156.0
54.059269 236.0
54.144176 240.0
54.177868 136.0
54.242344 52.0
54.267269 324.0
54.358212 136.0
54.51387 152.0
54.582958 140.0
54.700932 216.0
54.744827 60.0
54.777229 176.0
54.853859 208.0
54.903988 132.0
54.924637 152.0
54.949715 124.0
54.967422 116.0
54.981274 228.0
54.993351 204.0
55.096294 184.0
55.177162 120.0
55.208214 172.0
55.301418 140.0
55.408039 76.0
55.533787 212.0
55.565189 76.0
55.618614 80.0
55.65276 128.0
55.749313 160.0
55.777554 168.0
55.81918 156.0
55.851898 136.0
55.963512 188.0
56.061829 112.0
56.081921 216.0
56.109398 140.0
56.153889 48.0
56.212444 52.0
56.243786 152.0
56.34832 160.0
56.391655 132.0
56.412582 220.0
56.499317 168.0
56.532238 168.0
56.575642 184.0
56.593609 168.0
56.65052 100.0
56.848434 48.0
56.861942 96.0
56.943016 124.0
56.97456 64.0
57.006115 152.0
57.027153 176.0
57.045193 60.0
57.066238 136.0
57.087585 184.0
57.343224 216.0
57.403526 68.0
57.466881 148.0
57.560463 148.0
57.646568 152.0
57.731224 68.0
57.811401 220.0
57.865894 92.0
57.902237 140.0
57.962833 208.0
57.991627 180.0
58.024975 200.0
58.040138 88.0
58.138741 36.0
58.187313 140.0
58.24966 144.0
58.336193 152.0
58.346836 48.0
58.491356 116.0
58.5812 68.0
58.60685 148.0
58.623859 216.0
58.652817 180.0
58.770248 160.0
58.796188 208.0
58.861832 148.0
58.910706 192.0
58.962658 184.0
58.980999 108.0
59.000618 144.0
59.065098 84.0
59.083454 88.0
59.127831 40.0
59.189064 136.0
59.265652 144.0
59.397495 152.0
59.580173 228.0
59.630882 116.0
59.660088 48.0
59.735443 180.0
59.809303 188.0
59.983364 228.0
60.049664 144.0
60.07597 152.0
60.109833 188.0
60.21172 184.0
60.282784 280.0
60.341518 116.0
60.425037 216.0
60.521 140.0
60.539581 180.0
60.590694 116.0
60.637665 180.0
60.705395 188.0
60.7752 132.0
60.796925 164.0
60.811329 132.0
60.862122 52.0
60.893177 136.0
60.916477 132.0
60.984848 72.0
61.059475 144.0
61.07814 128.0
61.12326 48.0
61.20536 204.0
61.260269 140.0
61.374043 120.0
61.423313 108.0
61.537872 196.0
61.551926 144.0
61.572224 160.0
61.588993 136.0
61.60815 160.0
61.661278 64.0
61.720684 220.0
61.773857 140.0
61.819233 216.0
61.831753 196.0
61.881844 152.0
61.949184 132.0
61.978954 152.0
62.027225 176.0
62.129467 172.0
62.17968 52.0
62.247185 156.0
62.40274 192.0
62.41375 180.0
62.454639 120.0
62.528587 156.0
62.564827 168.0
62.580536 164.0
62.643532 36.0
62.678192 192.0
62.807468 148.0
62.868912 144.0
62.895832 176.0
62.949509 160.0
63.004791 32.0
63.192932 36.0
63.215084 196.0
63.276814 132.0
63.327488 180.0
63.379768 124.0
63.427311 104.0
63.467739 184.0
63.597031 124.0
63.703423 164.0
63.720898 128.0
63.79718 152.0
63.849651 80.0
63.876579 168.0
63.980129 172.0
64.011978 152.0
64.023125 140.0
64.053383 220.0
64.083656 76.0
64.125084 108.0
64.2183 172.0
64.249985 184.0
64.311699 228.0
64.334045 132.0
64.407501 152.0
64.530556 104.0
64.554535 200.0
64.695335 164.0
64.720955 160.0
64.744972 176.0
64.770599 160.0
64.794632 100.0
64.866745 136.0
64.98703 84.0
65.043198 208.0
65.076912 180.0
65.100998 156.0
65.13633 40.0
65.216675 60.0
65.287415 132.0
65.305107 116.0
65.369453 112.0
65.388771 188.0
65.404861 180.0
65.515976 112.0
65.541756 156.0
65.567535 132.0
65.585266 204.0
65.607834 112.0
65.644623 176.0
65.650475 144.0
65.653625 240.0
65.670723 176.0
65.690079 128.0
65.757851 232.0
65.773987 216.0
65.794975 140.0
65.891876 100.0
65.91288 36.0
65.985619 132.0
66.037361 108.0
66.082657 128.0
66.139297 104.0
66.194344 192.0
66.234833 168.0
66.310989 172.0
66.403404 172.0
66.481277 104.0
66.500748 200.0
66.575432 172.0
66.625786 180.0
66.645279 224.0
66.697289 116.0
66.728172 48.0
66.767197 152.0
66.926674 120.0
66.983673 140.0
67.004852 164.0
67.109161 168.0
67.140144 84.0
67.174393 140.0
67.282104 92.0
67.434837 120.0
67.537582 164.0
67.55175 172.0
67.684311 108.0
67.726898 44.0
68.046677 132.0
68.058167 152.0
68.087723 216.0
68.225746 208.0
68.263565 160.0
68.286591 196.0
68.314552 84.0
68.326073 140.0
68.380371 164.0
68.403671 180.0
68.418228 132.0
68.489037 52.0
68.557076 176.0
68.662102 184.0
68.67765 168.0
68.767387 196.0
68.807312 156.0
68.862892 196.0
68.884926 236.0
68.916313 148.0
68.936142 76.0
68.972504 168.0
69.073372 136.0
69.219017 176.0
69.2687 164.0
69.293549 184.0
69.339951 220.0
69.357605 208.0
69.374756 92.0
69.454353 212.0
69.560555 184.0
69.585457 168.0
69.663506 200.0
69.680977 168.0
69.696739 200.0
69.766541 64.0
69.859673 160.0
69.906258 176.0
70.181107 100.0
70.276176 96.0
70.347939 200.0
70.416397 176.0
70.433105 268.0
70.451477 136.0
70.479881 132.0
70.514977 144.0
70.538376 160.0
70.563454 156.0
70.601913 116.0
70.663803 204.0
70.707306 148.0
70.742462 212.0
70.889854 124.0
70.906609 152.0
70.940132 60.0
70.955223 184.0
71.072144 208.0
71.286499 132.0
71.343033 164.0
71.393471 116.0
71.470856 244.0
71.482635 200.0
71.539856 92.0
71.60553 148.0
71.703247 104.0
71.745384 168.0
71.758873 108.0
71.801025 188.0
71.856697 156.0
71.94445 200.0
71.986664 104.0
72.052536 140.0
72.077881 104.0
72.213127 240.0
72.230042 160.0
72.294067 152.0
72.363731 164.0
72.397598 120.0
72.556877 152.0
72.578918 140.0
72.626404 64.0
72.724815 128.0
72.751968 160.0
73.105804 160.0
73.144653 156.0
73.263855 128.0
73.316681 156.0
73.384865 124.0
73.424088 124.0
73.461609 196.0
73.519623 172.0
73.53669 80.0
73.565704 136.0
73.624374 212.0
73.644257 172.0
73.69352 148.0
73.697708 124.0
73.704605 184.0
73.736511 80.0
73.792923 100.0
73.811737 164.0
73.849358 48.0
73.863045 132.0
73.940033 176.0
73.952019 140.0
74.23027 216.0
74.277573 48.0
74.317032 100.0
74.474968 92.0
74.490433 232.0
74.537323 204.0
74.624481 144.0
74.651993 184.0
74.67263 168.0
74.842995 128.0
74.90155 152.0
74.996323 196.0
75.037689 188.0
75.080803 192.0
75.13427 48.0
75.208473 196.0
75.365631 68.0
75.384636 384.0
75.429573 132.0
75.602531 140.0
75.619835 208.0
75.713326 128.0
75.767029 92.0
75.817276 144.0
76.009766 64.0
76.047943 156.0
76.09481 204.0
76.155594 124.0
76.223343 128.0
76.237251 144.0
76.369377 80.0
76.381554 176.0
76.397209 196.0
76.418091 184.0
76.452888 212.0
76.625275 116.0
76.661865 156.0
76.674065 152.0
76.865891 76.0
76.879852 108.0
76.946579 160.0
77.017784 144.0
77.110382 180.0
77.234528 120.0
77.30101 156.0
77.344757 244.0
77.407791 76.0
77.48661 108.0
77.575989 164.0
77.605789 156.0
77.677696 164.0
77.768143 140.0
77.88131 188.0
77.903603 152.0
77.969162 88.0
78.058144 168.0
78.065102 104.0
78.102783 112.0
78.139725 128.0
78.259407 216.0
78.312241 228.0
78.389755 228.0
78.476128 156.0
78.544907 160.0
78.753189 172.0
78.783058 176.0
78.853897 56.0
78.875107 128.0
78.905159 140.0
78.965279 176.0
79.043121 180.0
79.101524 200.0
79.124626 168.0
79.188286 228.0
79.216194 164.0
79.289276 300.0
79.390327 220.0
79.425362 164.0
79.475471 232.0
79.564217 124.0
79.644127 164.0
79.661888 120.0
79.709862 96.0
79.727631 168.0
79.744759 176.0
79.960609 204.0
79.981964 120.0
80.040718 92.0
80.065643 192.0
80.186798 212.0
80.199272 172.0
80.279503 44.0
80.324089 140.0
80.349068 144.0
80.399025 228.0
80.622108 144.0
80.627838 132.0
80.633293 160.0
80.665154 40.0
80.824326 160.0
80.848099 156.0
80.871346 176.0
80.882698 124.0
80.912033 148.0
80.94426 140.0
81.010529 192.0
81.103706 188.0
81.126663 164.0
81.34407 184.0
81.397934 160.0
81.530869 160.0
81.593781 116.0
81.662109 164.0
81.678299 80.0
81.851074 136.0
81.874481 160.0
81.92131 180.0
81.986176 148.0
82.112381 92.0
82.168297 148.0
82.180923 128.0
82.244087 184.0
82.524101 140.0
82.81002 84.0
82.851685 192.0
82.906044 248.0
83.103691 132.0
83.134544 136.0
83.178101 96.0
83.198067 136.0
83.245277 200.0
83.334282 132.0
83.37426 56.0
83.451447 148.0
83.66893 112.0
83.736305 208.0
83.810989 52.0
83.942352 184.0
84.000595 112.0
84.051682 124.0
84.173981 108.0
84.219643 164.0
84.31282 140.0
84.341301 224.0
84.354546 236.0
84.413368 116.0
84.446281 132.0
84.481995 216.0
84.504822 188.0
84.520782 144.0
84.578026 176.0
84.719025 264.0
84.843643 64.0
84.88765 120.0
84.905983 124.0
84.962845 132.0
84.989639 212.0
85.039917 136.0
85.052765 160.0
85.096825 148.0
85.110184 188.0
85.195999 196.0
85.271339 160.0
85.337517 172.0
85.600639 152.0
85.622742 180.0
85.75621 184.0
85.871544 156.0
85.923195 188.0
85.961945 132.0
86.04969 156.0
86.074547 220.0
86.11702 64.0
86.139191 180.0
86.235268 188.0
86.268539 160.0
86.33387 216.0
86.401695 308.0
86.490517 136.0
86.542358 216.0
86.559021 76.0
86.668304 200.0
86.694084 136.0
86.881523 44.0
86.895508 144.0
86.910461 180.0
86.953888 188.0
86.981148 172.0
87.057854 164.0
87.078285 160.0
87.21949 208.0
87.342216 168.0
87.41291 124.0
87.617729 120.0
87.673622 144.0
87.80368 168.0
87.861954 44.0
87.947792 188.0
87.981392 96.0
87.994461 184.0
88.091576 168.0
88.215385 188.0
88.246689 148.0
88.267258 76.0
88.288979 156.0
88.355164 192.0
88.390717 252.0
88.480553 208.0
88.542351 204.0
88.58168 256.0
88.606033 144.0
88.750351 136.0
88.770981 148.0
88.78598 184.0
88.800987 248.0
88.874146 136.0
88.894791 156.0
89.005539 140.0
89.038612 188.0
89.127632 188.0
89.212212 180.0
89.389008 124.0
89.428528 128.0
89.466179 160.0
89.543381 68.0
89.693153 228.0
89.712967 188.0
89.826111 148.0
89.848747 148.0
90.035614 140.0
90.090393 188.0
90.211334 156.0
90.251984 124.0
90.290054 152.0
90.319122 188.0
90.34182 204.0
90.381554 136.0
90.39669 108.0
90.498909 136.0
90.517838 192.0
90.65992 188.0
90.728149 104.0
90.769867 156.0
90.792625 100.0
90.90834 128.0
91.054344 456.0
91.090614 224.0
91.217926 120.0
91.314903 248.0
91.867294 104.0
91.99897 192.0
92.038849 144.0
92.061974 196.0
92.193794 208.0
92.270248 88.0
92.310402 168.0
92.329529 140.0
92.400299 124.0
92.432831 152.0
92.486412 188.0
92.540016 140.0
92.639603 124.0
92.653015 240.0
92.692833 384.0
92.840027 276.0
92.954041 252.0
92.971313 180.0
93.053673 172.0
93.099937 148.0
93.151794 248.0
93.186378 72.0
93.209435 84.0
93.253632 124.0
93.582588 132.0
93.613396 140.0
93.700073 144.0
93.760918 208.0
93.813774 52.0
93.917908 140.0
93.954559 132.0
94.027878 188.0
94.067879 344.0
94.085785 88.0
94.244164 172.0
94.352394 124.0
94.547829 220.0
94.617439 180.0
94.632935 188.0
94.694901 188.0
94.712334 160.0
94.822769 68.0
94.83828 96.0
94.870453 252.0
95.00116 188.0
95.063644 196.0
95.162247 76.0
95.375938 132.0
95.477036 248.0
95.728081 128.0
95.864441 120.0
95.901474 148.0
96.037956 156.0
96.07502 140.0
96.10038 92.0
96.21553 140.0
96.356148 116.0
96.391319 120.0
96.428452 152.0
96.457771 204.0
96.5438 192.0
96.563354 172.0
96.608345 188.0
96.823654 132.0
96.837364 168.0
96.917679 132.0
96.933357 180.0
97.011162 2052.0
97.07373 236.0
97.211815 156.0
97.360954 140.0
97.430267 232.0
97.45137 152.0
97.480843 152.0
97.624352 180.0
97.905769 112.0
97.940628 160.0
98.01458 168.0
98.085213 208.0
98.2369 196.0
98.260574 120.0
98.286224 116.0
98.337532 72.0
98.351349 180.0
98.46389 156.0
98.503395 76.0
98.533028 56.0
98.617996 160.0
98.635788 208.0
98.68409 212.0
98.71685 100.0
98.888969 44.0
98.976074 120.0
99.005188 540.0
99.02787 184.0
99.086739 128.0
99.152382 172.0
99.176163 116.0
99.23365 168.0
99.299088 168.0
99.368523 156.0
99.445908 116.0
99.479652 144.0
99.533264 152.0
99.590851 168.0
99.747826 68.0
99.785599 76.0
99.805481 52.0
99.841278 140.0
99.857185 148.0
99.976555 188.0
100.002426 48.0
100.249382 204.0
100.320992 168.0
100.382942 112.0
100.622383 180.0
100.662315 216.0
100.689529 160.0
100.846115 148.0
100.929688 144.0
101.014076 92.0
101.128128 188.0
101.151138 140.0
101.256271 112.0
101.424568 148.0
101.500397 156.0
101.546883 128.0
101.568939 192.0
101.661232 140.0
101.791718 60.0
101.930084 168.0
101.935791 208.0
102.010712 152.0
102.024788 108.0
102.058968 172.0
102.111252 64.0
102.198853 212.0
102.232697 164.0
102.328575 104.0
102.427925 180.0
102.451424 100.0
102.468315 220.0
102.62072 168.0
102.907227 160.0
102.943573 76.0
102.990021 224.0
103.054611 440.0
103.097099 224.0
103.268951 156.0
103.355942 160.0
103.440941 328.0
103.586739 128.0
103.606995 136.0
103.773186 128.0
103.888191 136.0
103.922569 160.0
103.951683 180.0
104.048409 296.0
104.074066 180.0
104.107994 116.0
104.152679 152.0
104.166901 128.0
104.205498 168.0
104.250198 240.0
104.289177 136.0
104.386398 140.0
104.408768 124.0
104.425041 152.0
104.462875 100.0
104.614273 192.0
104.69165 128.0
104.81591 140.0
104.832214 180.0
104.90966 148.0
105.055183 240.0
105.089134 108.0
105.115662 208.0
105.142189 224.0
105.162598 48.0
105.229965 104.0
105.253006 168.0
105.481247 168.0
105.585518 176.0
105.74472 192.0
105.810608 180.0
105.83313 112.0
105.865891 124.0
106.065506 4852.0
106.124077 112.0
106.199959 156.0
106.248657 200.0
106.265602 224.0
106.392845 40.0
106.581802 168.0
106.602676 152.0
106.653732 212.0
106.723625 124.0
106.756531 208.0
106.966385 172.0
107.065216 596.0
107.135246 76.0
107.308365 260.0
107.370232 164.0
107.417671 100.0
107.440018 136.0
107.458931 164.0
107.477501 124.0
107.591408 212.0
107.619919 120.0
107.684402 192.0
107.73764 216.0
107.774834 176.0
107.793427 152.0
107.884369 204.0
107.902977 244.0
107.937263 96.0
107.962944 116.0
107.999306 180.0
108.04361 108.0
108.076523 172.0
108.103615 100.0
108.161568 152.0
108.213318 180.0
108.447403 192.0
108.546913 180.0
108.609131 112.0
108.669296 148.0
108.740913 180.0
109.011459 1628.0
109.033005 180.0
109.074341 292.0
109.248932 132.0
109.317596 152.0
109.382118 172.0
109.46331 172.0
109.486221 168.0
109.525795 56.0
109.550789 32.0
109.579956 176.0
109.684151 212.0
109.748779 152.0
109.836372 140.0
110.017662 628.0
110.055504 52.0
110.084732 184.0
110.166191 104.0
110.210068 200.0
110.260216 224.0
110.295753 124.0
110.368919 144.0
110.38356 112.0
110.452576 140.0
110.506966 188.0
110.540443 124.0
110.651382 140.0
110.733047 128.0
110.77494 124.0
110.848312 196.0
110.892281 192.0
110.934128 108.0
110.95517 180.0
110.97773 232.0
111.02652 17792.0
111.091408 1200.0
111.170303 148.0
111.20269 80.0
111.235222 80.0
111.307655 224.0
111.383263 188.0
111.437889 40.0
111.460999 192.0
111.505127 84.0
111.536659 136.0
111.553474 76.0
111.70488 100.0
111.766731 140.0
111.783493 88.0
111.88549 160.0
111.930077 64.0
112.029472 728.0
112.05645 72.0
112.087502 228.0
112.182899 136.0
112.218742 52.0
112.365929 112.0
112.457115 116.0
112.488777 92.0
112.539444 180.0
112.575348 136.0
112.6968 160.0
112.723946 128.0
112.871185 156.0
113.000206 180.0
113.022301 1368.0
113.053108 44.0
113.09967 76.0
113.137772 216.0
113.48735 220.0
113.618843 176.0
113.635391 220.0
113.699478 68.0
113.733437 136.0
113.758911 132.0
113.807739 160.0
113.865074 168.0
113.882065 200.0
113.911804 112.0
114.22641 176.0
114.260445 164.0
114.289505 292.0
114.313644 156.0
114.481812 224.0
114.55423 96.0
114.59684 120.0
114.611755 184.0
114.690605 256.0
114.746033 48.0
114.760956 108.0
114.833466 160.0
114.8629 160.0
114.896095 188.0
114.975067 156.0
115.045517 412.0
115.194191 172.0
115.251877 144.0
115.273247 52.0
115.2882 204.0
115.318123 216.0
115.457092 176.0
115.572609 168.0
115.611122 60.0
115.691505 188.0
115.739563 128.0
115.818802 40.0
115.840218 152.0
115.870216 168.0
115.900208 164.0
115.953781 128.0
115.996651 168.0
116.049667 748.0
116.090988 176.0
116.151039 168.0
116.181076 196.0
116.213257 104.0
116.307678 144.0
116.453979 208.0
116.647072 100.0
116.674057 144.0
116.836311 352.0
116.912697 124.0
117.008484 196.0
117.032166 200.0
117.05761 7560.0
117.163551 48.0
117.185089 140.0
117.258362 32.0
117.423248 252.0
117.443779 56.0
117.463196 144.0
117.504181 128.0
117.592659 156.0
117.691963 156.0
117.810745 208.0
117.834511 152.0
117.961906 156.0
118.014702 140.0
118.035522 164.0
118.063965 1216.0
118.089592 100.0
118.122032 100.0
118.193428 176.0
118.288658 68.0
118.340614 200.0
118.364433 76.0
118.418571 164.0
118.470558 96.0
118.741508 188.0
118.869499 124.0
118.910736 192.0
118.984535 256.0
119.017105 204.0
119.073471 180.0
119.269112 44.0
119.447418 48.0
119.503983 164.0
119.562737 264.0
119.582321 76.0
119.695526 132.0
119.712944 96.0
119.804428 48.0
119.837105 152.0
119.923828 140.0
119.95697 180.0
120.046364 188.0
120.075058 452.0
120.122696 60.0
120.163086 140.0
120.264534 200.0
120.357399 52.0
120.426834 156.0
120.454498 172.0
120.572647 160.0
120.611824 124.0
120.677414 120.0
120.813011 156.0
120.898338 124.0
121.011299 992.0
121.075439 1024.0
121.124741 164.0
121.235596 140.0
121.294769 164.0
121.310112 176.0
121.336426 96.0
121.360542 56.0
121.384659 160.0
121.41317 116.0
121.492134 132.0
121.656723 120.0
121.674286 120.0
121.696243 220.0
121.759918 148.0
121.781883 124.0
121.830208 116.0
121.964935 116.0
122.016701 4336.0
122.058334 212.0
122.084389 112.0
122.103287 408.0
122.280983 164.0
122.309593 92.0
122.353622 128.0
122.406738 64.0
122.421875 168.0
122.437294 136.0
122.462151 168.0
122.481346 124.0
122.551842 144.0
122.666794 176.0
122.774475 100.0
122.814178 164.0
122.83844 184.0
122.866753 216.0
122.875259 180.0
122.913452 176.0
122.943932 192.0
122.972031 140.0
123.026993 41284.0
123.091537 744.0
123.154091 48.0
123.172455 140.0
123.203293 44.0
123.224167 72.0
123.264549 128.0
123.371719 180.0
123.389755 372.0
123.432549 40.0
123.466202 92.0
123.516594 128.0
123.561165 80.0
123.585175 68.0
123.602875 64.0
123.684761 124.0
123.782173 44.0
123.815674 124.0
123.866333 28.0
123.91729 84.0
123.943878 152.0
123.977112 156.0
124.030159 3988.0
124.10125 108.0
124.150032 40.0
124.229164 92.0
124.2565 60.0
124.345261 40.0
124.49617 152.0
124.52066 48.0
124.536201 76.0
124.556198 152.0
124.571747 268.0
124.620621 224.0
124.66951 44.0
124.687286 140.0
124.707291 40.0
124.732079 156.0
124.778419 60.0
124.816223 196.0
124.840294 296.0
124.859886 88.0
124.891838 68.0
124.924675 136.0
124.945221 80.0
124.965248 88.0
125.022682 1644.0
125.061615 100.0
125.085419 148.0
125.145531 156.0
125.196747 52.0
125.216789 140.0
125.343773 100.0
125.392799 80.0
125.461899 176.0
125.631386 140.0
125.684929 68.0
125.722343 184.0
125.834473 124.0
125.874596 124.0
125.96624 64.0
126.020927 224.0
126.026215 52.0
126.043419 176.0
126.12265 276.0
126.149475 40.0
126.24115 140.0
126.462631 108.0
126.543938 228.0
126.684311 124.0
126.859108 124.0
127.251717 196.0
127.29213 76.0
127.440376 128.0
127.595459 364.0
127.611198 212.0
127.635933 176.0
127.714645 100.0
127.775383 120.0
127.795631 180.0
127.971191 248.0
128.055099 204.0
128.115326 100.0
128.142365 200.0
128.180664 160.0
128.207703 168.0
128.228668 224.0
128.333939 160.0
128.397079 68.0
128.554993 160.0
128.76947 164.0
128.812393 156.0
128.927612 144.0
128.961517 180.0
129.037582 252.0
129.25325 164.0
129.269089 128.0
129.441132 52.0
129.466034 68.0
129.69487 124.0
129.799164 160.0
129.987427 180.0
130.065353 2148.0
130.246246 132.0
130.305313 72.0
130.741898 132.0
130.766937 48.0
130.821564 200.0
130.864822 92.0
130.894424 176.0
130.939957 144.0
130.969574 172.0
131.01741 128.0
131.040192 128.0
131.070618 1392.0
131.277252 76.0
131.316574 164.0
131.427795 208.0
131.482574 148.0
131.500824 172.0
131.674438 188.0
131.831985 112.0
131.880936 152.0
131.92569 104.0
132.001144 252.0
132.077942 696.0
132.415359 124.0
132.490952 232.0
132.623856 120.0
132.756836 152.0
132.795822 176.0
132.903641 160.0
133.010483 784.0
133.052826 120.0
133.074387 376.0
133.112518 40.0
133.207031 164.0
133.279984 84.0
133.312378 180.0
133.346848 188.0
133.399719 152.0
133.6297 108.0
133.645798 124.0
133.733246 76.0
133.800003 180.0
133.846054 92.0
134.01593 988.0
134.044159 140.0
134.09584 236.0
134.293137 48.0
134.498489 180.0
134.535431 104.0
134.673981 140.0
134.831085 128.0
134.849579 160.0
134.905869 192.0
134.944351 312.0
134.981339 132.0
135.01564 1876.0
135.091537 888.0
135.159454 32.0
135.209274 304.0
135.233047 208.0
135.367783 188.0
135.523987 148.0
135.562378 76.0
135.590179 112.0
135.615677 160.0
135.929214 168.0
136.022675 648.0
136.069504 188.0
136.099625 2120.0
136.175018 52.0
136.239883 36.0
136.258469 80.0
136.279388 112.0
136.308365 184.0
136.342117 180.0
136.360718 160.0
136.388611 152.0
136.47229 64.0
136.509506 48.0
136.639755 100.0
136.686783 76.0
136.7724 148.0
136.893463 180.0
136.961014 144.0
137.003967 392.0
137.041916 1440.0
137.09996 176.0
137.331604 128.0
137.385269 120.0
137.429596 36.0
137.564957 160.0
137.613983 140.0
137.63266 64.0
137.69104 76.0
137.747101 176.0
137.97377 112.0
138.037964 3636.0
138.233398 204.0
138.280212 44.0
138.397247 80.0
138.455795 60.0
138.505463 136.0
138.540115 116.0
138.661957 144.0
138.783859 104.0
138.830765 172.0
138.945694 40.0
138.966812 344.0
139.042297 552.0
139.098236 176.0
139.119354 200.0
139.175705 152.0
139.615128 120.0
139.676895 168.0
139.719803 64.0
139.775101 180.0
139.791565 160.0
139.838638 128.0
139.986954 212.0
140.032562 436.0
140.050537 132.0
140.128281 188.0
140.288544 144.0
140.415863 132.0
140.616409 148.0
140.673065 40.0
140.805283 124.0
140.854889 72.0
140.892685 112.0
141.04155 124.0
141.296951 52.0
141.429474 108.0
141.479187 172.0
141.656799 176.0
141.73024 196.0
141.763412 152.0
141.931717 228.0
141.955429 144.0
142.036057 68.0
142.157059 60.0
142.197403 148.0
142.247253 120.0
142.311356 104.0
142.446716 44.0
142.670105 200.0
142.739685 180.0
142.991226 220.0
143.026917 128.0
143.074539 172.0
143.675095 180.0
143.732361 96.0
143.787247 156.0
144.056259 60.0
144.078278 708.0
144.219543 140.0
144.317566 176.0
144.379211 184.0
144.441925 196.0
144.465836 148.0
144.592651 136.0
144.985428 160.0
145.074005 1048.0
145.162827 164.0
145.183945 188.0
145.204819 132.0
145.381119 208.0
145.50708 136.0
145.539551 180.0
145.89032 64.0
145.957642 100.0
146.008148 136.0
146.090836 320.0
146.166916 148.0
146.188568 188.0
146.371521 128.0
146.390778 128.0
146.612411 36.0
146.634109 204.0
146.701263 404.0
146.764282 188.0
146.887283 160.0
146.949997 204.0
147.02562 560.0
147.092026 324.0
147.232422 108.0
147.274368 104.0
147.430527 228.0
147.459518 180.0
147.515121 152.0
147.640854 180.0
147.79248 164.0
147.906982 52.0
147.923935 152.0
148.022003 1680.0
148.097549 348.0
148.114883 412.0
148.142822 272.0
148.355133 148.0
148.372101 48.0
148.607361 240.0
148.685013 208.0
148.701996 176.0
148.800232 160.0
148.828232 40.0
148.865601 168.0
148.925369 108.0
148.973953 168.0
149.00032 108.0
149.029984 20908.0
149.069992 156.0
149.105942 784.0
149.153778 56.0
149.19632 48.0
149.306946 40.0
149.323975 44.0
149.383881 216.0
149.440735 72.0
149.500946 188.0
149.5186 120.0
149.535645 52.0
149.630585 48.0
149.667099 208.0
149.711212 176.0
149.764511 120.0
149.808365 52.0
149.847809 208.0
149.887939 144.0
149.915558 60.0
149.959427 212.0
149.990433 156.0
150.03714 34372.0
150.09108 128.0
150.12027 216.0
150.178284 100.0
150.226349 172.0
150.231689 72.0
150.240952 212.0
150.281326 60.0
150.310608 68.0
150.332565 52.0
150.361862 84.0
150.381378 84.0
150.413116 48.0
150.437851 76.0
150.454605 148.0
150.476776 100.0
150.552277 140.0
150.571823 48.0
150.591354 96.0
150.634979 84.0
150.662201 104.0
150.713318 68.0
150.739288 80.0
150.908981 152.0
150.940826 48.0
151.040573 2076.0
151.129166 44.0
151.206558 108.0
151.235779 128.0
151.276016 92.0
151.310287 60.0
151.331451 56.0
151.459671 80.0
151.650208 172.0
151.707169 88.0
151.743942 224.0
151.773361 44.0
151.954163 100.0
151.986755 104.0
152.034302 1844.0
152.10556 76.0
152.212585 48.0
152.229767 108.0
152.306488 84.0
152.391891 72.0
152.613098 92.0
152.662277 148.0
152.70163 72.0
152.736053 40.0
152.863998 116.0
152.940292 120.0
153.032379 148.0
153.03714 140.0
153.05983 404.0
153.11264 200.0
153.132339 56.0
153.168686 136.0
153.234909 176.0
153.329437 88.0
153.353699 76.0
153.487564 56.0
153.627792 116.0
153.765976 176.0
154.044983 144.0
154.250244 60.0
154.376175 132.0
154.529541 80.0
154.650803 128.0
154.779526 208.0
154.999985 32.0
155.057144 128.0
155.074326 200.0
155.148697 156.0
155.175751 136.0
155.364456 124.0
155.652359 152.0
156.067322 120.0
156.084732 192.0
156.330994 180.0
156.592407 36.0
157.076248 648.0
157.183228 168.0
157.915207 220.0
158.0811 192.0
158.126038 104.0
158.17543 56.0
158.227997 40.0
158.36322 164.0
158.440872 204.0
158.576187 184.0
158.598755 160.0
158.759201 156.0
158.786041 184.0
158.816895 36.0
158.862045 68.0
158.887131 148.0
158.907196 60.0
158.932297 104.0
158.969925 76.0
159.00679 116.0
159.0896 1248.0
159.426987 112.0
159.577805 84.0
159.635635 176.0
159.66832 140.0
159.859512 144.0
160.026566 208.0
160.098572 1004.0
160.181213 176.0
160.206985 68.0
160.254852 84.0
160.293259 148.0
160.360687 188.0
160.411102 44.0
160.499908 196.0
160.564911 44.0
160.587601 124.0
160.670853 116.0
160.875259 184.0
161.018433 696.0
161.056046 128.0
161.107834 1168.0
161.14801 140.0
161.188446 188.0
161.451355 64.0
161.562637 48.0
161.640167 224.0
161.704346 128.0
161.848648 264.0
162.037552 772.0
162.112854 768.0
162.17038 168.0
162.210922 28.0
162.269241 240.0
162.346893 140.0
162.456909 228.0
162.548248 120.0
162.573624 140.0
162.751312 164.0
162.832581 168.0
162.865601 64.0
162.964676 132.0
163.042206 1600.0
163.12088 212.0
163.167862 80.0
163.267166 164.0
163.371445 252.0
163.407059 64.0
163.452866 88.0
163.470673 60.0
163.526672 144.0
163.562302 92.0
163.628494 132.0
163.730347 52.0
163.760147 176.0
163.84462 176.0
163.89592 148.0
163.967331 204.0
164.053024 41868.0
164.099823 36.0
164.126846 248.0
164.145355 56.0
164.181824 76.0
164.211044 144.0
164.263046 40.0
164.293655 104.0
164.337036 108.0
164.365097 100.0
164.410889 72.0
164.47467 72.0
164.570877 148.0
164.611526 84.0
164.64299 56.0
164.974228 168.0
165.009094 120.0
165.055664 5192.0
165.164749 48.0
165.192886 44.0
165.272186 168.0
165.325928 152.0
165.351517 64.0
165.40271 172.0
165.499329 92.0
165.576813 148.0
165.667801 100.0
165.722824 28.0
165.894547 60.0
165.912491 128.0
165.96376 164.0
166.049377 2068.0
166.178879 92.0
166.201172 156.0
166.245926 64.0
166.29213 64.0
166.321548 112.0
166.356293 72.0
166.391006 92.0
166.438461 188.0
166.52063 72.0
166.59256 84.0
166.903534 168.0
166.962677 36.0
167.060913 196.0
167.140182 52.0
167.369263 112.0
167.415619 72.0
167.626862 56.0
167.758301 56.0
167.848892 88.0
168.008453 188.0
168.041992 116.0
168.070526 140.0
168.204575 180.0
168.24588 140.0
168.424057 48.0
168.504135 84.0
168.922943 168.0
169.073013 152.0
169.640244 72.0
170.00856 104.0
170.042969 184.0
170.161697 52.0
170.198059 104.0
170.224014 128.0
170.247391 136.0
170.411041 188.0
170.538376 68.0
170.707352 88.0
171.087204 156.0
171.095734 152.0
171.10083 316.0
171.214828 168.0
171.298172 100.0
171.61351 208.0
172.100891 392.0
172.475006 128.0
172.828064 44.0
173.013885 60.0
173.108017 7880.0
173.191956 64.0
173.288101 108.0
173.359634 40.0
173.389679 60.0
173.459229 84.0
173.582458 156.0
173.654572 104.0
173.737198 76.0
173.878891 52.0
173.897263 72.0
173.965515 36.0
173.994385 32.0
174.039017 72.0
174.112213 872.0
174.192703 140.0
174.304321 60.0
174.348999 172.0
174.37265 36.0
174.443619 144.0
174.52774 164.0
174.635559 48.0
174.896057 120.0
175.113358 692.0
175.14357 200.0
175.364883 100.0
175.633835 148.0
175.683945 176.0
175.707703 44.0
175.823792 204.0
176.052597 1184.0
176.130829 440.0
176.317657 68.0
176.396957 48.0
176.468338 196.0
177.048157 2040.0
177.136734 300.0
177.328888 144.0
177.424088 156.0
177.477127 32.0
177.561981 60.0
177.734406 120.0
177.768906 144.0
177.912231 80.0
178.056976 912.0
178.143265 144.0
178.161865 52.0
178.331924 152.0
178.470169 212.0
179.033493 184.0
179.060776 280.0
179.064682 264.0
179.220764 52.0
179.239426 100.0
179.308701 84.0
179.447327 128.0
179.950714 100.0
180.039703 188.0
180.078506 492.0
180.405762 136.0
180.459229 192.0
180.742752 120.0
180.780212 172.0
181.06131 136.0
181.086121 180.0
181.294388 136.0
181.42572 76.0
181.734146 100.0
181.881744 68.0
182.053574 40.0
182.082657 164.0
182.142212 80.0
182.252365 84.0
182.545349 140.0
183.70079 152.0
183.725082 196.0
184.232605 148.0
184.581268 68.0
184.632645 184.0
185.103516 148.0
185.648193 176.0
185.688873 196.0
186.209976 176.0
186.45993 116.0
186.584961 104.0
186.927673 160.0
186.973938 224.0
187.036545 56.0
187.123444 5016.0
187.163864 224.0
187.197174 48.0
187.292496 124.0
187.348267 68.0
187.442337 88.0
187.532135 156.0
187.594971 44.0
187.614044 48.0
187.6604 44.0
187.960434 180.0
188.050491 136.0
188.128845 5532.0
188.186981 32.0
188.391815 176.0
188.599487 84.0
188.725235 52.0
188.818222 52.0
188.960464 128.0
189.048019 220.0
189.134521 2228.0
189.182129 56.0
190.070724 340.0
190.138672 148.0
190.166183 56.0
190.229324 152.0
190.572617 56.0
190.635818 148.0
190.847473 88.0
190.943726 152.0
191.062775 1572.0
191.128036 148.0
191.188568 40.0
191.458359 160.0
191.681503 184.0
191.91304 176.0
192.071609 1636.0
192.103333 108.0
192.224731 84.0
192.356354 44.0
192.408905 220.0
192.470673 184.0
192.647171 264.0
192.738342 36.0
192.790848 164.0
192.879288 120.0
193.000931 192.0
193.078705 1188.0
193.206512 60.0
193.280304 136.0
193.485107 212.0
194.081604 568.0
194.249969 200.0
194.4664 120.0
194.627411 192.0
194.88295 172.0
194.930191 60.0
195.074722 112.0
195.46965 240.0
195.550354 172.0
195.842712 52.0
195.995926 188.0
196.085342 184.0
196.213333 44.0
196.458755 120.0
197.251816 112.0
197.570618 168.0
198.141663 160.0
198.520126 112.0
198.609879 60.0
198.775406 184.0
198.819778 148.0
199.039261 184.0
199.182495 124.0
199.379181 84.0
199.447876 156.0
199.508469 176.0
199.547836 160.0
199.719376 160.0
199.966965 116.0
200.169662 172.0
200.778366 112.0
201.153625 128.0
202.10321 268.0
202.545944 168.0
203.18837 148.0
203.264969 88.0
203.807312 120.0
203.960785 192.0
204.079651 192.0
204.219528 204.0
204.70903 192.0
204.862839 48.0
204.95401 100.0
204.975052 164.0
205.078522 6412.0
205.44725 84.0
205.521423 64.0
205.655548 180.0
205.83255 88.0
205.941071 232.0
206.029099 192.0
206.085098 2584.0
206.222 100.0
206.266815 172.0
206.515289 176.0
206.655746 188.0
206.714676 188.0
206.738739 52.0
206.77594 196.0
207.039322 76.0
207.082428 404.0
207.460526 128.0
207.601013 188.0
207.8965 48.0
207.988342 208.0
208.075485 156.0
208.476593 72.0
208.502457 88.0
208.833084 60.0
208.873352 144.0
208.976929 132.0
209.855392 44.0
209.936127 160.0
210.051498 136.0
210.562378 52.0
211.192459 176.0
211.444168 160.0
211.643921 176.0
211.968338 220.0
212.087158 204.0
212.145126 96.0
212.249512 156.0
212.455429 196.0
212.722412 176.0
212.96051 32.0
213.64653 184.0
213.698898 68.0
214.249146 196.0
214.578476 152.0
215.004349 52.0
215.223282 152.0
215.287521 128.0
215.75795 120.0
217.116592 80.0
217.345413 116.0
217.486282 200.0
217.88858 132.0
217.997299 200.0
218.076645 144.0
219.09198 664.0
219.177292 164.0
219.469101 152.0
219.672592 164.0
219.740448 108.0
219.823059 192.0
219.958832 64.0
220.011963 52.0
220.074814 204.0
220.094635 512.0
220.165497 104.0
220.336823 144.0
220.387054 192.0
220.579147 100.0
220.641235 52.0
220.68428 128.0
220.718109 116.0
220.759506 56.0
220.794937 404.0
220.836395 224.0
220.863022 152.0
220.892593 164.0
220.91922 148.0
220.982071 212.0
221.003555 252.0
221.026611 252.0
221.110764 66768.0
221.153549 148.0
221.202896 172.0
221.243561 220.0
221.272797 76.0
221.308411 56.0
221.399063 208.0
221.437912 120.0
221.460266 92.0
221.513672 64.0
221.555893 192.0
221.595566 236.0
221.62088 76.0
221.645203 96.0
221.683105 100.0
221.843994 100.0
221.881699 60.0
221.964584 88.0
221.976303 84.0
221.981674 112.0
222.113266 8912.0
222.15332 136.0
222.212173 68.0
222.249481 76.0
222.277802 88.0
222.372162 176.0
222.439423 64.0
222.463165 100.0
222.485046 48.0
222.608658 32.0
222.709625 40.0
222.730423 72.0
222.777954 48.0
222.810623 68.0
222.89679 88.0
222.944336 96.0
223.000809 88.0
223.054306 160.0
223.106354 2152.0
223.229721 52.0
223.262619 124.0
223.314911 56.0
223.345718 64.0
223.378433 60.0
223.42305 200.0
223.449081 132.0
223.470657 68.0
223.508698 132.0
223.572876 240.0
223.635986 132.0
223.684937 108.0
223.720657 116.0
223.792099 124.0
223.830811 112.0
223.86409 92.0
223.905258 112.0
223.961853 140.0
224.111557 264.0
224.143585 48.0
224.244904 32.0
224.322403 44.0
224.423767 116.0
224.59375 100.0
224.64447 136.0
224.745895 136.0
224.853333 152.0
225.110077 104.0
225.220566 32.0
226.02478 152.0
226.452866 52.0
226.668564 56.0
226.722504 64.0
229.153458 64.0
229.889191 68.0
232.321854 96.0
232.989731 56.0
233.609909 44.0
237.925034 100.0
238.358093 44.0
239.96788 64.0
249.32225 112.0
249.425964 80.0
252.263 136.0
256.924927 128.0
257.017456 128.0
257.343018 88.0
258.973969 76.0
262.502716 72.0
266.347626 80.0
266.740814 100.0
267.147308 52.0
267.296967 44.0
268.818726 108.0
271.402893 60.0
272.492584 80.0
273.989532 60.0
274.203705 172.0
275.398071 76.0
275.596283 96.0
276.634766 96.0
280.634796 80.0
282.37793 32.0
282.515076 76.0
285.348969 108.0
295.914551 148.0
296.435211 104.0
296.89798 92.0
298.443237 76.0
298.608307 88.0
313.059082 60.0
315.582062 64.0
316.208191 104.0
320.886505 84.0
323.433624 104.0
325.132507 72.0
328.973022 52.0
339.884674 128.0
340.031464 36.0
341.181183 176.0
341.409149 40.0
342.388092 96.0
342.465424 80.0
342.738037 108.0
346.710541 36.0
347.460327 96.0
355.669495 156.0
356.570923 72.0
356.800201 108.0
361.375092 56.0
369.704742 96.0
377.270599 36.0
377.653442 164.0
378.067413 132.0
380.680237 120.0
381.26297 32.0
395.908447 108.0
409.902588 84.0
420.785309 68.0
424.111115 108.0
425.592072 100.0
431.471497 84.0
471.135132 60.0
471.5802 80.0
477.389679 44.0
482.508667 72.0
491.446594 68.0
501.063324 72.0
515.715149 100.0
520.185913 32.0
533.130188 88.0
548.314819 44.0
549.382629 92.0
572.126953 128.0
580.191162 80.0
584.716003 36.0
605.990784 60.0
608.374268 76.0
635.42334 112.0
659.789856 48.0
684.333679 60.0
693.480835 120.0
701.307068 72.0
726.062561 68.0
727.790527 184.0
747.145264 40.0
753.436584 60.0
772.479919 152.0
774.993347 80.0
791.357666 48.0
791.41925 124.0
794.440125 84.0
805.569519 132.0
806.360596 152.0
806.863647 88.0
818.153503 156.0
827.596741 52.0
829.344055 44.0
837.894836 188.0
842.77594 264.0
844.012878 52.0
846.420044 68.0
851.43042 140.0
851.871826 32.0
857.947327 168.0
860.023987 196.0
880.656921 40.0
881.484009 124.0
886.905151 164.0
891.891113 220.0
892.426147 56.0
896.247437 136.0
925.827148 160.0
949.522705 188.0
950.498108 148.0
952.622375 132.0
955.425659 164.0
965.337585 148.0
967.212219 180.0
968.215271 132.0
970.340637 148.0
979.426086 156.0
983.110779 104.0
983.260559 200.0
986.514832 156.0
989.273621 148.0
990.507263 152.0
992.243103 164.0
993.102234 148.0
993.484863 232.0
995.575012 44.0
998.528809 64.0
1006.557434 152.0
1007.997681 172.0
1008.914124 148.0
1013.825928 92.0
1013.956787 136.0
1015.544067 72.0
1016.070557 208.0
1016.793945 100.0
1018.222412 152.0
1019.27063 64.0
1019.918884 172.0
1020.268494 216.0
1022.354797 256.0
1029.3479 128.0
1029.679932 196.0
1032.127563 240.0
1035.352783 152.0
1037.127441 116.0
1039.917603 132.0
1040.771362 148.0
1042.794922 196.0
1044.550293 80.0
1048.716431 192.0
1053.465576 180.0
1055.022949 152.0
1055.158813 120.0
1058.478027 136.0
1059.825317 112.0
1061.225342 180.0
1066.210693 128.0
1066.737183 56.0
1066.886719 116.0
1067.471924 144.0
1067.855591 72.0
1068.922485 136.0
1069.078735 168.0
1070.243896 168.0
1073.906372 72.0
1075.335205 192.0
1080.203125 152.0
1081.282715 216.0
1081.328491 180.0
1082.467651 96.0
1083.201172 76.0
1085.895142 156.0
1086.728271 172.0
1087.1875 76.0
1088.763184 148.0
1094.866211 92.0
1095.195435 204.0
1097.792236 140.0
1101.554321 84.0
1102.248047 204.0
1102.466064 56.0
1102.968384 236.0
1103.246826 168.0
1107.785767 132.0
1108.269409 48.0
1108.494629 180.0
1109.641357 192.0
1110.88147 220.0
1112.009521 168.0
1114.134399 200.0
1114.845337 248.0
1115.250732 264.0
1116.553955 164.0
1116.749268 216.0
1118.822876 108.0
1119.64856 160.0
1120.028198 124.0
1120.821045 168.0
1121.214233 148.0
1121.700806 208.0
1122.354126 224.0
1122.640869 124.0
1123.901611 68.0
1124.755859 192.0
1124.822632 112.0
1125.577026 160.0
1126.405151 140.0
1127.781616 168.0
1130.24939 100.0
1130.757935 176.0
1131.521118 140.0
1132.532227 168.0
1132.960938 112.0
1133.436646 208.0
1134.133667 76.0
1135.266724 172.0
1139.495483 156.0
1139.623169 180.0
1143.321655 192.0
1144.856567 188.0
1145.287598 136.0
1146.763184 132.0
1147.572144 148.0
1150.608154 104.0
1151.391479 220.0
1151.708862 72.0
1154.690674 176.0
1154.824097 192.0
1155.196899 184.0
1156.421631 72.0
1159.903198 112.0
1160.425171 180.0
1160.852295 180.0
1161.503418 176.0
1161.564453 152.0
1163.043701 84.0
1163.512085 224.0
1163.973755 168.0
1164.428833 156.0
1164.591797 172.0
1164.99939 188.0
1166.440063 184.0
1168.820435 144.0
1169.418823 176.0
1169.514526 252.0
1172.572632 232.0
1172.695312 188.0
1172.927124 140.0
1173.165649 156.0
1173.861084 236.0
1174.911499 184.0
1177.368774 248.0
1178.837524 28.0
1178.89856 156.0
1179.288574 152.0
1181.894165 216.0
1182.386841 120.0
1182.865967 160.0
1183.74231 168.0
1184.45459 160.0
1184.968384 168.0
1186.8396 208.0
1186.894409 144.0
1189.096558 124.0
1189.652466 172.0
1190.977783 164.0
1191.644165 204.0
1194.559082 64.0
1195.494873 124.0
1196.630615 128.0
1197.422485 200.0
1197.573975 212.0
1197.711792 176.0
1198.111328 140.0
1199.200073 216.0
1199.916992 204.0
1200.275513 224.0
1200.716797 140.0
1201.089355 180.0
1202.683228 176.0
1203.180298 116.0
1203.898315 180.0
1205.224609 128.0
1206.040161 116.0
1206.427246 200.0
1206.669189 120.0
1207.485107 164.0
1207.678833 128.0
1207.983154 48.0
1208.17688 76.0
1209.927734 172.0
1210.163208 44.0
1211.091187 176.0
1211.21582 152.0
1211.395996 124.0
1213.897949 204.0
1214.163818 244.0
1214.952271 220.0
1215.181274 132.0
1216.347046 216.0
1216.52063 176.0
1216.687256 200.0
1216.77063 140.0
1217.659424 140.0
1219.827271 164.0
1223.535156 168.0
1223.952881 56.0
1224.530884 140.0
1226.210083 168.0
1228.259888 68.0
1228.748291 200.0
1230.716553 172.0
1231.303101 120.0
1233.783691 236.0
1233.942993 172.0
1234.860474 220.0
1234.909424 72.0
1234.97937 64.0
1235.539062 220.0
1235.86792 132.0
1236.973633 144.0
1238.353027 172.0
1238.86438 88.0
1239.151611 100.0
1239.396851 160.0
1239.950439 152.0
1242.348511 176.0
1242.762451 132.0
1244.124023 104.0
1244.404907 144.0
1245.029785 204.0
1245.107056 140.0
1245.978027 116.0
1246.333862 164.0
1246.807251 148.0
1248.881348 208.0
1250.837402 116.0
1251.287964 144.0
1251.682251 48.0
1252.344238 84.0
1252.759888 232.0
1252.985352 48.0
1253.513794 192.0
1253.598267 152.0
1254.542725 176.0
1255.706299 156.0
1256.284668 160.0
1256.580933 196.0
1257.406616 180.0
1258.832642 116.0
1259.044434 172.0
1259.673096 176.0
1259.927368 144.0
1259.990967 120.0
1264.39624 140.0
1264.552002 164.0
1266.683228 172.0
1267.809814 144.0
1269.567993 168.0
1269.695557 184.0
1269.787842 132.0
1270.050171 200.0
1270.149536 104.0
1270.639038 236.0
1270.887329 68.0
1271.433716 220.0
1271.710571 196.0
1272.768311 48.0
1273.144653 72.0
1273.528687 136.0
1274.089355 408.0
1276.23584 140.0
1276.342407 160.0
1276.648193 96.0
1277.181641 196.0
1277.387939 172.0
1277.651123 180.0
1278.070923 212.0
1279.266602 216.0
1279.601196 180.0
1279.651001 160.0
1280.142334 224.0
1280.327515 48.0
1281.061157 180.0
1281.210693 224.0
1281.51709 100.0
1282.308105 148.0
1282.58606 88.0
1283.36731 136.0
1283.491455 156.0
1284.639771 160.0
1286.359497 164.0
1286.44519 168.0
1287.959106 136.0
1288.687744 168.0
1288.744873 52.0
1290.631836 176.0
1291.411377 184.0
1291.561523 152.0
1292.012207 204.0
1293.164307 212.0
1294.73938 224.0
1296.143433 68.0
1296.30835 140.0
1296.530396 124.0
1297.383423 36.0
1297.641479 136.0
1298.050171 144.0
1298.803223 208.0
1299.146484 188.0
1299.262329 208.0
1299.355591 128.0
1300.037231 136.0
1300.40332 168.0
1301.602173 216.0
1301.810425 140.0
1302.370605 192.0
1302.528687 116.0
1302.679565 164.0
1303.433838 228.0
1303.994385 160.0
1304.979248 180.0
1305.302856 168.0
1306.791748 140.0
1307.554565 168.0
1307.669678 176.0
1308.14209 184.0
1308.958374 180.0
1309.260742 128.0
1309.606445 188.0
1309.81543 136.0
1310.204346 160.0
1311.112305 136.0
1311.667236 132.0
1312.092651 136.0
1312.150269 160.0
1312.265625 48.0
1312.59729 112.0
1314.241943 144.0
1314.516113 104.0
1315.064575 184.0
1315.808105 56.0
1316.039185 228.0
1316.35791 164.0
1316.406006 124.0
1316.903809 216.0
1317.093506 184.0
1317.967651 180.0
1318.162842 136.0
1320.056763 172.0
1321.879639 160.0
1322.979858 176.0
1323.356323 192.0
1323.566284 108.0
1323.725586 176.0
1324.268677 160.0
1324.420776 160.0
1324.681641 156.0
1325.377075 128.0
1325.742188 204.0
1326.457031 56.0
1326.515015 164.0
1327.007935 124.0
1327.218262 164.0
1327.551758 172.0
1328.639771 136.0
1329.024292 152.0
1329.728271 148.0
1330.642822 156.0
1330.955078 68.0
1331.180176 184.0
1332.138916 80.0
1333.294189 88.0
1334.420898 152.0
1334.471802 68.0
1335.01709 100.0
1335.082642 232.0
1335.19165 128.0
1335.424438 40.0
1335.977295 152.0
1336.151855 260.0
1338.320801 200.0
1340.46228 128.0
1340.549805 200.0
1340.972412 156.0
1341.336914 200.0
1341.803467 196.0
1341.890991 224.0
1343.240112 168.0
1344.268799 248.0
1344.940308 124.0
1346.407837 128.0
1346.717896 200.0
1348.329224 120.0
1348.767822 144.0
1349.732788 72.0
1350.486084 180.0
1352.117676 108.0
1353.193726 84.0
1353.618408 120.0
1353.706177 136.0
1354.174927 92.0
1354.848877 104.0
1355.046631 224.0
1355.728149 152.0
1356.336426 112.0
1356.922852 148.0
1357.018188 220.0
1357.150146 128.0
1358.198975 144.0
1358.264893 168.0
1358.536377 164.0
1358.587646 100.0
1359.255859 180.0
1360.348999 200.0
1361.369507 212.0
1362.324341 188.0
1363.00769 80.0
1363.661743 108.0
1364.168823 160.0
1364.455566 204.0
1365.573364 204.0
1365.933716 212.0
1367.025757 132.0
1367.206665 124.0
1367.36853 188.0
1367.729126 184.0
1368.5979 256.0
1369.79834 164.0
1369.923584 72.0
1370.874023 144.0
1372.127075 172.0
1372.193481 164.0
1372.857056 172.0
1372.967651 152.0
1373.137329 200.0
1373.542969 208.0
1373.882324 152.0
1373.93396 156.0
1374.974365 128.0
1375.424561 172.0
1376.066895 204.0
1376.421143 200.0
1376.664917 156.0
1377.15979 196.0
1377.735962 168.0
1379.598267 200.0
1380.88562 224.0
1380.951416 144.0
1381.262085 176.0
1381.387939 180.0
1383.215698 144.0
1383.32666 180.0
1383.800537 152.0
1385.229858 144.0
1385.400146 140.0
1387.178711 116.0
1388.454102 204.0
1388.698853 204.0
1389.396118 88.0
1389.507324 204.0
1389.78186 124.0
1390.041626 172.0
1391.295898 48.0
1391.815674 136.0
1392.268677 228.0
1393.152588 212.0
1393.977295 144.0
1394.029297 172.0
1394.36377 176.0
1395.196289 208.0
1395.441528 128.0
1395.642334 172.0
1396.155396 192.0
1396.847168 52.0
1397.345581 168.0
1397.605957 152.0
1397.948242 128.0
1398.193848 68.0
1399.049927 180.0
1399.28064 148.0
1400.077393 172.0
1401.135132 132.0
1401.261841 148.0
1402.245361 84.0
1403.139893 196.0
1403.63208 116.0
1403.69165 80.0
1404.012329 136.0
1404.273438 180.0
1404.400146 208.0
1404.952148 140.0
1406.228149 92.0
1406.765381 152.0
1406.828979 228.0
1407.17627 160.0
1407.243408 60.0
1407.333008 148.0
1407.467407 136.0
1410.493164 180.0
1411.450073 136.0
1412.347534 184.0
1412.616821 180.0
1413.095581 92.0
1414.540039 176.0
1415.565552 180.0
1415.940186 148.0
1416.17981 136.0
1416.307129 164.0
1416.71167 40.0
1417.033813 164.0
1417.14624 196.0
1417.198608 124.0
1417.333496 172.0
1417.712158 208.0
1418.277832 68.0
1418.472656 120.0
1418.562622 120.0
1418.765015 140.0
1419.86731 216.0
1420.669922 168.0
1421.532715 264.0
1421.79541 164.0
1422.320801 80.0
1422.380859 64.0
1422.733521 196.0
1422.988892 220.0
1423.19165 252.0
1423.890015 132.0
1424.573608 100.0
1424.716309 104.0
1425.091919 176.0
1425.580322 196.0
1425.993652 72.0
1426.760498 64.0
1426.978516 144.0
1427.587524 124.0
1427.865845 92.0
1427.971069 132.0
1428.459961 124.0
1429.483276 216.0
1429.671387 76.0
1429.814331 140.0
1430.55957 56.0
1431.154297 140.0
1432.110718 72.0
1432.91333 184.0
1433.5271 120.0
1435.125122 172.0
1435.426758 176.0
1435.826416 164.0
1436.822021 160.0
1437.161621 192.0
1438.172852 44.0
1438.535156 452.0
1438.731445 196.0
1439.44873 148.0
1439.501587 188.0
1439.848999 204.0
1440.793213 128.0
1440.876221 188.0
1441.216309 116.0
1441.314453 188.0
1441.757202 152.0
1441.810547 144.0
1441.987061 164.0
1442.591797 124.0
1442.7052 192.0
1442.765625 196.0
1442.856323 52.0
1444.149414 156.0
1444.353638 148.0
1445.074097 160.0
1445.148071 116.0
1445.51123 116.0
1445.602051 228.0
1447.638428 144.0
1447.73291 212.0
1447.82019 92.0
1448.592773 220.0
1448.842773 172.0
1449.069946 208.0
1449.471558 188.0
1449.524658 172.0
1449.645874 108.0
1450.047485 52.0
1450.866211 108.0
1451.123901 172.0
1451.862915 200.0
1451.965698 148.0
1452.61792 152.0
1452.974487 124.0
1453.293213 160.0
1454.310059 72.0
1454.902222 208.0
1455.038818 156.0
1455.7146 64.0
1455.7677 184.0
1456.223389 56.0
1457.393311 168.0
1457.704834 148.0
1457.970825 96.0
1458.130493 88.0
1458.495239 68.0
1458.974121 200.0
1459.742065 144.0
1459.947388 128.0
1460.046265 140.0
1460.244019 192.0
1460.540649 144.0
1460.670044 96.0
1462.412476 164.0
1463.523926 204.0
1463.851318 188.0
1464.156006 96.0
1464.361572 160.0
1465.5271 200.0
1465.61853 236.0
1466.289185 112.0
1467.29541 168.0
1467.562256 200.0
1469.003662 128.0
1469.087524 132.0
1469.171509 112.0
1469.423218 184.0
1469.598755 220.0
1469.797119 164.0
1469.919189 160.0
1470.262573 132.0
1470.476318 148.0
1470.728149 188.0
1470.995361 168.0
1472.171143 140.0
1472.904297 48.0
1473.102905 72.0
1473.416138 76.0
1473.637695 172.0
1473.836426 188.0
1473.989258 104.0
1474.570068 168.0
1474.669434 156.0
1474.94458 136.0
1475.189209 120.0
1475.81604 112.0
1476.331909 156.0
1476.397217 68.0
1476.619019 132.0
1477.047363 108.0
1477.628784 148.0
1478.599731 144.0
1480.376953 176.0
1480.744263 124.0
1481.333984 128.0
1481.410645 124.0
1481.701782 124.0
1481.755371 124.0
1482.00061 132.0
1482.851196 120.0
1482.943115 160.0
1483.449097 168.0
1483.556396 188.0
1483.648438 112.0
1484.254028 164.0
1484.422729 192.0
1485.450562 192.0
1486.363525 188.0
1486.875366 172.0
1487.130981 144.0
1487.821777 160.0
1487.990723 112.0
1488.082886 176.0
1488.612671 156.0
1488.896851 176.0
1489.142578 196.0
1490.871216 196.0
1491.339966 80.0
1491.778198 112.0
1492.108765 136.0
1492.631592 188.0
1492.939209 136.0
1493.062256 156.0
1493.900635 208.0
1494.246826 140.0
1494.608398 76.0
1494.931641 176.0
1495.378052 148.0
1495.655029 164.0
1496.170898 84.0
1496.678955 100.0
1496.786743 120.0
1497.210327 204.0
1497.86499 164.0
1498.334961 208.0
1498.519897 188.0
1498.67395 220.0
1499.490845 164.0
1500.338745 116.0
1500.462036 152.0
1500.670288 188.0
1500.863037 132.0
1500.955566 44.0
1501.287109 76.0
1501.587891 120.0
1501.742188 212.0
1502.004395 212.0
1502.202881 168.0
1502.297485 124.0
1503.13855 136.0
1503.555176 144.0
1503.66333 108.0
1504.906128 44.0
1505.045044 196.0
1505.106812 232.0
