>compound NCGC00160329-01!4-Hydroxy-3-(4-methoxy-6-methyl-5,6,7,8-tetrahydro-[1,3]dioxolo[4,5-g]isoquinolin-5-yl)-chromen-2-one
>formula C21H19NO6
>ionization [M+H]+
>parentmass 382.12851378009054
#inchi InChI=1S/C21H19NO6/c1-22-8-7-11-9-14-19(27-10-26-14)20(25-2)15(11)17(22)16-18(23)12-5-3-4-6-13(12)28-21(16)24/h3-6,9,17,23H,7-8,10H2,1-2H3
#inchikey VJLLAJFALOGHNM
#Ion_Source LC-ESI
#Instrument qTOF
#Compound_Source Prestwick Phytochem Lib
#PI Dorrestein
#Data_Collector VVP/LMS
#Scan -1
#Precursor_MZ 382.129
#ExactMass 381.121
#Charge 1
#CAS_Number N/A
#Pubmed_ID N/A
#Smiles COC1=C2C(N(C)CCC2=CC3=C1OCO3)C4=C(O)C5=CC=CC=C5OC4=O
#INCHI_AUX N/A
#Library_Class 1
#SpectrumID CCMSLIB00000078718
#IonMode Positive
#UpdateWorkflowName UPDATE-SINGLE-ANNOTATED-GOLD
#LibraryQualityString Gold
#TaskID 67c915c6594c435cadc1fe2b5358144d
##Scan# 1622
#SpectrumFile p1-G02_GG2_01_17946.mzXML
#LibraryName phytochem_lib.mgf
#MQScore -1
#Organism phytochem_lib
#TIC_Query 0
#RT_Query -1
#MZErrorPPM -1
#SharedPeaks 0
#MassDiff 0
#LibMZ -1
#SpecMZ 382.129
#SpecCharge 0
#internalFilename spec-00000.mgf

>collision 10
94.959839 124.0
94.985054 192.0
95.018036 136.0
95.142242 188.0
95.159714 44.0
95.196609 132.0
95.317047 80.0
95.435616 156.0
95.494827 172.0
95.525078 208.0
95.558144 80.0
95.665184 148.0
95.67881 220.0
95.700226 208.0
95.801498 224.0
95.848259 116.0
95.924271 196.0
95.957413 100.0
96.004211 152.0
96.144669 56.0
96.324295 64.0
96.404404 184.0
96.768227 188.0
96.832848 148.0
96.88929 108.0
96.905327 116.0
96.977829 152.0
96.995476 160.0
97.030762 220.0
97.19944 124.0
97.385941 208.0
97.564758 176.0
97.609978 160.0
97.645378 172.0
97.895309 168.0
97.920914 176.0
97.97213 48.0
98.021385 180.0
98.064743 200.0
98.086418 160.0
98.220505 156.0
98.510681 220.0
98.755783 140.0
98.80722 148.0
98.920021 216.0
99.028923 172.0
99.042786 148.0
99.120049 48.0
99.217171 188.0
99.24691 60.0
99.328224 176.0
99.395676 132.0
99.447273 216.0
99.518738 120.0
99.705467 100.0
99.816071 188.0
100.058029 196.0
100.089394 120.0
100.103333 180.0
100.275978 164.0
100.420204 140.0
100.470078 148.0
100.486038 64.0
100.535919 148.0
100.757561 164.0
100.942284 208.0
101.061455 148.0
101.12149 224.0
101.211578 112.0
101.586357 116.0
101.783043 88.0
101.817184 148.0
101.996002 188.0
102.048515 184.0
102.086472 180.0
102.100548 152.0
102.299744 196.0
102.408478 148.0
102.454811 56.0
102.517273 32.0
102.688637 176.0
102.892441 200.0
103.033813 212.0
103.053139 968.0
103.120705 160.0
103.324936 128.0
103.403854 232.0
103.430168 48.0
103.557724 92.0
103.817139 68.0
103.835388 208.0
103.912476 176.0
103.979439 148.0
104.00988 132.0
104.049484 160.0
104.2089 88.0
104.227188 160.0
104.29425 124.0
104.363373 172.0
104.397942 164.0
104.430481 104.0
104.583076 76.0
104.709312 160.0
104.798943 152.0
104.972198 168.0
105.01503 132.0
105.029305 264.0
105.069138 520.0
105.176216 220.0
105.378395 160.0
105.449913 116.0
105.496925 64.0
105.654396 208.0
105.965584 88.0
106.042618 404.0
106.062759 988.0
106.19928 200.0
106.217735 76.0
106.359322 180.0
106.581123 232.0
106.650993 280.0
106.817551 64.0
107.049629 2300.0
107.070755 580.0
107.230255 164.0
107.322113 288.0
107.500565 180.0
107.523064 164.0
107.555237 212.0
107.588264 128.0
107.644012 56.0
107.66053 296.0
107.68531 192.0
107.929161 152.0
107.999481 200.0
108.023262 168.0
108.048019 500.0
108.079353 164.0
108.206413 152.0
108.456474 152.0
108.548294 116.0
108.747452 136.0
108.780663 136.0
108.797272 68.0
108.87825 168.0
109.03199 204.0
109.06411 724.0
109.167694 72.0
109.42305 112.0
109.463135 220.0
109.564667 176.0
109.585503 180.0
109.625092 80.0
109.702209 220.0
109.718887 64.0
109.810638 48.0
109.979637 64.0
110.019302 36.0
110.063148 168.0
110.12162 156.0
110.264519 164.0
110.476967 132.0
110.495796 120.0
110.931389 260.0
111.233459 180.0
111.483391 140.0
111.542244 220.0
111.73571 72.0
111.870399 164.0
111.893555 340.0
111.992531 104.0
112.161095 28.0
112.466942 140.0
112.538719 176.0
112.583061 212.0
112.659103 140.0
112.707695 164.0
112.878914 80.0
113.259857 116.0
113.376389 184.0
113.429375 208.0
113.520538 164.0
113.541748 212.0
113.571442 244.0
113.666908 168.0
113.849472 192.0
113.942932 108.0
114.166115 148.0
114.523666 200.0
114.694122 164.0
114.747421 116.0
114.787933 172.0
114.918045 224.0
115.056129 332.0
115.227623 172.0
115.387917 164.0
115.456345 164.0
115.67672 48.0
115.7174 160.0
115.734528 60.0
115.878029 144.0
116.041389 168.0
116.115967 132.0
116.352005 136.0
116.373474 168.0
116.405685 172.0
116.493744 144.0
116.562492 100.0
116.622818 116.0
116.639862 128.0
116.747368 36.0
116.798981 160.0
116.839851 120.0
116.981888 108.0
117.056046 352.0
117.115395 56.0
117.214493 128.0
117.402039 80.0
117.645851 152.0
117.695511 200.0
117.803497 196.0
117.946114 268.0
118.030815 156.0
118.03849 280.0
118.065399 1700.0
118.085693 180.0
118.149384 44.0
118.179672 144.0
118.307091 156.0
118.34417 212.0
118.391808 248.0
118.44162 152.0
118.480614 120.0
118.953369 132.0
119.014153 160.0
119.049942 1448.0
119.068329 344.0
119.259636 236.0
119.344421 112.0
119.48362 168.0
119.699097 52.0
119.742653 228.0
119.762253 140.0
119.779678 128.0
119.82325 72.0
119.85157 192.0
119.906052 128.0
120.021591 344.0
120.048157 300.0
120.078522 1076.0
120.143723 100.0
120.224457 148.0
120.438416 244.0
120.578247 236.0
120.840652 72.0
120.943504 88.0
120.976341 128.0
121.001976 152.0
121.027985 2416.0
121.06443 4248.0
121.110069 112.0
121.153725 128.0
121.221649 148.0
121.243561 100.0
121.43869 148.0
121.462814 56.0
121.505363 272.0
121.583488 76.0
121.787674 128.0
121.805244 156.0
121.89093 176.0
122.033264 384.0
122.067276 596.0
122.104408 180.0
122.196556 140.0
122.222961 148.0
122.333 220.0
122.423271 156.0
122.454109 72.0
122.511375 36.0
122.581879 84.0
122.706581 188.0
122.759254 216.0
122.864105 104.0
122.919266 116.0
122.94133 212.0
123.018585 84.0
123.040657 176.0
123.074959 92.0
123.212921 68.0
123.458275 116.0
123.575508 116.0
124.052849 156.0
124.082695 140.0
124.171387 100.0
124.446556 160.0
124.497627 144.0
124.517616 152.0
124.977768 160.0
125.10463 264.0
125.151382 212.0
125.242691 116.0
125.501198 112.0
125.664017 180.0
125.711121 164.0
125.735428 136.0
125.876068 232.0
125.900635 224.0
125.922966 56.0
125.994446 64.0
126.010086 120.0
126.050301 160.0
126.54686 52.0
126.714836 176.0
126.755173 120.0
126.950195 188.0
127.185768 288.0
127.284554 320.0
127.43055 144.0
127.453018 108.0
127.47998 196.0
127.69355 164.0
127.718292 204.0
127.80603 212.0
127.918564 152.0
127.934319 68.0
127.959084 156.0
128.015381 196.0
128.055023 272.0
128.24292 116.0
128.48645 188.0
128.590256 80.0
128.739258 96.0
129.025925 156.0
129.033066 136.0
129.062393 148.0
129.219498 192.0
129.238815 144.0
129.524063 56.0
129.57164 52.0
129.598831 180.0
129.961426 152.0
130.038895 152.0
130.07251 152.0
130.493088 80.0
130.54538 160.0
131.049179 560.0
131.070724 312.0
131.607239 64.0
131.895096 152.0
132.013977 168.0
132.048676 524.0
132.084854 340.0
132.140991 160.0
132.164948 160.0
132.180969 144.0
132.375549 188.0
132.629852 124.0
132.666519 52.0
132.804108 124.0
132.905045 48.0
132.939468 156.0
133.001434 160.0
133.031693 188.0
133.043335 332.0
133.064148 1028.0
133.111633 196.0
133.159866 68.0
133.263229 152.0
133.328156 128.0
133.359756 164.0
133.502289 156.0
133.610397 152.0
133.638 184.0
133.713943 204.0
133.981049 164.0
134.034805 556.0
134.061584 2092.0
134.090897 256.0
134.197693 40.0
134.292236 216.0
134.439896 180.0
134.511444 168.0
134.580704 200.0
134.751617 192.0
134.783966 208.0
134.816315 68.0
134.837112 104.0
135.008194 184.0
135.043777 700.0
135.06842 1344.0
135.140045 88.0
135.292786 188.0
135.30899 208.0
135.350052 132.0
135.5522 208.0
135.88739 228.0
135.951065 88.0
135.999802 96.0
136.051025 868.0
136.074982 1396.0
136.099625 48.0
136.273819 140.0
136.322617 64.0
136.458405 276.0
136.517883 60.0
136.536499 92.0
136.729584 148.0
136.81572 72.0
137.013672 248.0
137.057816 1272.0
137.080353 164.0
137.330688 156.0
137.755524 136.0
137.933105 220.0
138.012604 40.0
138.062256 372.0
138.136551 256.0
138.365891 120.0
138.41272 160.0
138.828857 208.0
138.867355 128.0
139.048004 84.0
139.077255 136.0
139.840057 212.0
139.950699 144.0
139.993073 236.0
140.056671 228.0
140.183899 100.0
140.485687 40.0
140.506439 156.0
140.672119 156.0
140.7146 68.0
140.834122 72.0
140.946075 160.0
140.972076 144.0
141.007523 192.0
141.075653 216.0
141.168274 116.0
141.187195 180.0
141.357529 100.0
141.47113 136.0
141.608459 176.0
142.077805 140.0
142.602585 164.0
142.659637 120.0
142.85463 164.0
142.876038 164.0
143.055267 392.0
143.137848 160.0
143.500031 180.0
143.559631 208.0
143.609726 200.0
143.838791 112.0
144.015472 284.0
144.062607 168.0
144.080399 228.0
144.111038 208.0
144.287903 148.0
144.506378 148.0
144.620407 224.0
144.744888 164.0
144.946106 128.0
144.994034 196.0
145.063217 152.0
145.085114 236.0
145.121078 128.0
145.226593 176.0
145.310547 84.0
145.468948 140.0
145.524155 100.0
145.610611 220.0
145.927811 164.0
145.954254 84.0
145.980698 160.0
146.059219 2804.0
146.170746 120.0
146.319962 28.0
146.399429 88.0
146.527084 56.0
146.871811 172.0
146.936951 192.0
147.067032 1672.0
147.129745 144.0
147.245926 272.0
147.270065 152.0
147.511703 52.0
147.642273 176.0
147.724503 184.0
147.841156 112.0
147.860001 40.0
148.075714 752.0
148.106964 144.0
148.177216 56.0
148.259598 68.0
148.378372 168.0
148.455963 152.0
148.863647 172.0
148.985092 228.0
149.022812 1312.0
149.058853 1280.0
149.079788 1072.0
149.145477 180.0
149.169785 124.0
149.271896 136.0
149.344406 108.0
149.393509 40.0
149.429993 164.0
149.466492 104.0
149.488388 168.0
149.524902 156.0
149.61496 92.0
149.683136 108.0
149.714783 160.0
149.82196 60.0
149.96817 148.0
150.026001 332.0
150.060089 660.0
150.09111 5056.0
150.34375 76.0
150.552902 172.0
150.617203 112.0
150.670944 48.0
150.785797 52.0
150.835297 172.0
150.893341 192.0
150.912903 228.0
150.972855 132.0
151.000946 176.0
151.039108 304.0
151.094131 660.0
151.115906 116.0
151.549286 44.0
151.703674 164.0
151.816467 164.0
152.007812 248.0
152.045883 1292.0
152.137894 68.0
152.331894 196.0
152.415421 156.0
152.440002 60.0
152.511276 148.0
152.553055 68.0
152.68338 120.0
152.789139 100.0
153.047577 160.0
153.072189 156.0
153.454117 204.0
153.471375 28.0
153.644012 216.0
153.671158 176.0
153.779739 112.0
153.890823 76.0
154.303421 164.0
154.419647 64.0
154.464508 176.0
154.640793 136.0
154.741333 220.0
154.788376 152.0
155.054245 176.0
155.125336 180.0
155.405579 276.0
155.760574 192.0
155.969299 68.0
156.138062 160.0
156.250305 128.0
156.33989 76.0
156.359802 176.0
156.439453 216.0
156.544022 168.0
156.733337 220.0
156.965149 260.0
157.027298 204.0
157.339401 164.0
157.361877 192.0
157.406815 204.0
157.551682 140.0
157.581024 140.0
157.589447 104.0
157.59494 152.0
157.644135 104.0
157.719101 144.0
157.784103 176.0
158.039764 180.0
158.059235 324.0
158.100327 160.0
158.15683 64.0
158.251968 148.0
158.735565 208.0
158.931213 252.0
159.043762 756.0
159.06601 264.0
159.152084 136.0
159.51387 88.0
159.687363 188.0
159.932648 204.0
160.001892 180.0
160.051529 600.0
160.071426 540.0
160.095062 212.0
160.286514 120.0
160.32431 172.0
160.384796 180.0
160.571381 244.0
160.69751 164.0
160.972626 204.0
161.058945 1236.0
161.119125 40.0
161.307968 176.0
161.591904 188.0
161.665283 232.0
161.710831 172.0
161.756393 156.0
162.054459 524.0
162.090668 3448.0
162.133789 152.0
162.21489 144.0
162.263062 120.0
162.302109 80.0
162.699417 76.0
162.872101 60.0
163.014374 176.0
163.063766 948.0
163.089615 584.0
163.151627 80.0
163.352524 88.0
163.561188 128.0
163.706299 88.0
163.800537 176.0
163.971252 76.0
164.048996 1336.0
164.071991 3376.0
164.241516 76.0
164.343567 72.0
164.371628 180.0
164.443085 144.0
164.709274 112.0
164.777603 132.0
164.836365 56.0
164.951385 68.0
165.005066 128.0
165.054016 2592.0
165.150818 96.0
165.171295 36.0
165.196869 192.0
165.342712 156.0
165.370667 52.0
165.486069 164.0
165.537277 80.0
165.634598 52.0
165.719131 160.0
165.842148 124.0
166.059875 784.0
166.084473 212.0
166.108887 144.0
166.131897 144.0
166.154984 64.0
166.206833 136.0
166.324356 152.0
166.373123 128.0
166.606827 96.0
166.683914 144.0
166.761002 220.0
166.794342 140.0
166.843262 100.0
167.005264 236.0
167.069901 836.0
167.587067 36.0
167.627762 176.0
167.826767 128.0
167.91217 168.0
168.078323 432.0
168.175034 192.0
168.195679 144.0
168.28862 156.0
168.769196 144.0
168.968353 136.0
168.986465 80.0
169.02269 164.0
169.28154 204.0
169.566513 220.0
169.805038 148.0
169.999603 196.0
170.747803 152.0
170.82843 232.0
171.0392 204.0
171.190216 184.0
171.283966 156.0
171.492416 60.0
171.557587 188.0
171.604523 148.0
172.050156 148.0
172.079453 224.0
172.599319 112.0
172.693466 128.0
172.745773 52.0
172.774551 44.0
172.860901 224.0
173.022232 188.0
173.058136 756.0
173.196014 120.0
173.21434 144.0
173.421341 64.0
173.523575 284.0
173.568146 224.0
173.626434 88.0
173.72551 160.0
174.029297 112.0
174.056076 440.0
174.082016 208.0
174.086716 136.0
174.174393 88.0
174.313629 188.0
174.86853 148.0
174.94223 156.0
175.038254 9184.0
175.131821 40.0
175.191299 76.0
175.30043 52.0
175.349152 120.0
175.52977 44.0
175.585159 52.0
175.62735 36.0
175.666916 136.0
175.706497 40.0
175.809402 56.0
175.838425 84.0
176.044647 900.0
176.069351 1252.0
176.123581 56.0
176.234528 184.0
176.361374 188.0
176.379883 172.0
176.409454 148.0
176.546448 180.0
176.80571 196.0
176.840118 72.0
176.896164 228.0
177.050949 868.0
177.07663 1540.0
177.163162 164.0
177.311554 180.0
177.356598 112.0
177.44458 88.0
177.566071 128.0
177.63237 48.0
177.65625 88.0
177.79422 176.0
177.950836 196.0
178.085327 4132.0
178.144699 164.0
178.19252 92.0
178.235031 136.0
178.258957 84.0
178.304123 32.0
178.346649 44.0
178.442352 148.0
178.567337 184.0
178.592056 176.0
178.617874 128.0
178.649796 40.0
178.947861 120.0
179.001617 172.0
179.033615 252.0
179.070953 11536.0
179.179565 56.0
179.30481 100.0
179.371445 120.0
179.44075 40.0
179.462082 88.0
179.50209 160.0
179.55275 136.0
179.603424 48.0
179.838226 92.0
179.904968 60.0
180.07309 1608.0
180.119843 244.0
180.145309 76.0
180.305618 104.0
180.375107 168.0
180.40184 220.0
180.506119 64.0
180.720108 80.0
180.744186 120.0
180.923508 72.0
181.043991 96.0
181.084747 168.0
181.121674 160.0
181.167206 64.0
181.210068 60.0
181.259293 152.0
181.397919 84.0
181.596085 76.0
181.62291 68.0
181.78656 76.0
182.068436 148.0
182.092606 140.0
182.15976 184.0
182.373672 164.0
182.409668 168.0
182.433853 112.0
182.466125 168.0
182.788879 112.0
183.602432 132.0
184.098984 152.0
184.188126 180.0
184.293472 148.0
184.371841 168.0
184.690872 76.0
185.064331 184.0
185.880219 96.0
186.032196 144.0
186.154373 100.0
186.382553 144.0
186.472229 164.0
186.918228 164.0
187.04361 348.0
187.190445 184.0
187.699997 68.0
187.732727 112.0
187.792725 64.0
187.90184 132.0
188.047943 800.0
188.069031 708.0
188.124451 208.0
188.333145 160.0
188.403442 196.0
188.62825 268.0
188.745819 212.0
188.792297 124.0
189.053955 3372.0
189.379044 124.0
189.476593 72.0
189.662949 108.0
189.758896 44.0
190.011215 92.0
190.084549 2324.0
190.192322 240.0
190.510864 108.0
190.543259 172.0
190.661987 72.0
190.749939 40.0
190.868149 68.0
190.972656 184.0
191.038742 176.0
191.065323 648.0
191.073563 548.0
191.082809 884.0
191.242294 88.0
191.280838 180.0
191.327637 168.0
191.396469 84.0
191.616409 84.0
191.682938 192.0
191.903442 232.0
191.97789 132.0
192.06543 3592.0
192.165192 40.0
192.238586 212.0
192.465485 80.0
192.491165 104.0
192.607162 144.0
192.648605 132.0
192.717667 172.0
192.753586 132.0
192.891769 240.0
192.997833 188.0
193.071716 5860.0
193.135101 96.0
193.171066 40.0
193.254059 124.0
193.306641 56.0
193.411804 48.0
193.7164 84.0
194.004608 104.0
194.0755 1700.0
194.5289 76.0
194.817703 128.0
195.045578 152.0
195.07843 272.0
195.128967 124.0
195.359802 176.0
195.387619 40.0
195.457169 92.0
195.560135 68.0
195.663132 44.0
195.791229 84.0
196.253799 156.0
196.301193 180.0
196.479706 228.0
196.661087 100.0
196.972488 168.0
197.026901 172.0
197.085571 148.0
197.353897 148.0
197.460159 220.0
197.507706 64.0
197.608414 184.0
197.924698 108.0
198.717911 56.0
198.841385 188.0
199.042267 236.0
199.08844 148.0
199.636429 224.0
199.945892 172.0
200.03595 156.0
200.069733 184.0
200.48378 104.0
201.022415 100.0
201.056808 472.0
201.592834 164.0
201.635223 224.0
201.983002 188.0
202.040436 132.0
202.062973 148.0
202.458496 120.0
202.727615 60.0
202.755951 248.0
203.060471 868.0
203.099014 164.0
203.229523 136.0
203.453735 140.0
203.47644 76.0
203.581497 72.0
204.061615 1260.0
204.19252 96.0
204.260071 48.0
204.30629 124.0
204.508331 284.0
204.693375 104.0
204.724701 72.0
204.81015 44.0
204.901306 164.0
204.935486 132.0
204.972534 152.0
205.009583 116.0
205.040482 716.0
205.072388 6076.0
205.186295 148.0
205.217667 220.0
205.268982 92.0
205.414444 72.0
205.520004 196.0
205.565659 100.0
205.936798 80.0
205.965363 120.0
206.079773 2752.0
206.142487 52.0
206.18364 80.0
206.224472 76.0
206.296829 104.0
206.419769 60.0
206.479828 68.0
206.587952 80.0
206.645737 36.0
206.674347 68.0
206.74588 80.0
206.805984 212.0
206.846054 148.0
206.914291 144.0
206.966309 176.0
206.989212 88.0
207.029465 200.0
207.088425 30280.0
207.181625 128.0
207.221222 64.0
207.249863 72.0
207.293274 136.0
207.303787 56.0
207.313171 124.0
207.346512 44.0
207.375961 48.0
207.411392 44.0
207.448029 84.0
207.499222 152.0
207.53363 124.0
207.558716 80.0
207.591339 156.0
207.616791 76.0
207.646164 180.0
207.688492 48.0
207.745865 48.0
207.806107 88.0
207.84375 132.0
207.889313 48.0
207.920883 204.0
207.978287 160.0
208.005829 108.0
208.013321 136.0
208.04895 228.0
208.096191 19656.0
208.175934 136.0
208.217545 60.0
208.236069 92.0
208.260818 72.0
208.281937 80.0
208.300949 140.0
208.331482 80.0
208.359955 184.0
208.394684 40.0
208.42836 176.0
208.475143 200.0
208.498779 36.0
208.574951 44.0
208.593903 88.0
208.745361 64.0
208.77269 48.0
208.817261 64.0
208.923691 140.0
208.946701 60.0
209.001373 40.0
209.05838 156.0
209.098068 2164.0
209.239243 132.0
209.262787 68.0
209.286911 196.0
209.315125 136.0
209.419952 180.0
209.431595 72.0
209.442703 136.0
209.472122 148.0
209.528259 100.0
209.57724 116.0
209.632965 212.0
209.663696 120.0
209.686752 52.0
209.874115 124.0
209.940445 168.0
210.071152 164.0
210.098999 308.0
210.130814 76.0
210.197189 116.0
210.355911 96.0
210.410767 184.0
210.442535 56.0
210.494507 176.0
210.607132 68.0
210.690903 136.0
210.725571 76.0
210.763138 148.0
210.901855 64.0
210.939423 56.0
210.971222 40.0
211.338531 64.0
211.575851 76.0
211.607697 84.0
211.764069 84.0
211.891525 136.0
212.056702 96.0
212.14946 192.0
212.352432 56.0
212.541 152.0
212.593231 64.0
213.040741 216.0
213.06015 148.0
213.24086 88.0
213.66832 136.0
213.738144 148.0
213.799255 192.0
214.725708 156.0
214.859879 136.0
215.023621 140.0
215.05188 176.0
215.110855 76.0
215.472977 64.0
215.578171 44.0
215.733078 132.0
215.800308 56.0
216.040756 1064.0
216.072891 220.0
216.227402 140.0
216.280075 196.0
216.511383 60.0
216.574417 176.0
216.789688 88.0
216.813126 140.0
216.877609 44.0
217.045349 500.0
217.072479 196.0
217.176682 88.0
217.211884 88.0
217.31456 48.0
217.396713 36.0
217.467148 144.0
217.64035 116.0
217.978149 160.0
218.076523 916.0
218.130981 140.0
218.28093 136.0
218.319153 36.0
218.410797 228.0
218.530945 116.0
218.704575 64.0
219.019623 172.0
219.064362 1888.0
219.284805 104.0
219.44693 144.0
219.491165 176.0
219.538345 160.0
219.780228 92.0
219.93074 52.0
219.954346 156.0
219.975006 184.0
220.005325 180.0
220.096268 12032.0
220.146255 288.0
220.187775 392.0
220.28212 36.0
220.335297 60.0
220.453476 92.0
220.518494 68.0
220.565796 44.0
220.633789 40.0
220.689957 48.0
220.728394 140.0
220.75206 88.0
220.799896 68.0
220.867401 100.0
220.917679 136.0
220.979813 68.0
221.068146 256.0
221.101761 1684.0
221.134186 52.0
221.163467 68.0
221.444565 36.0
221.512695 80.0
221.669724 136.0
221.734909 56.0
221.844589 76.0
222.065857 140.0
222.100952 196.0
222.359604 140.0
222.567017 128.0
222.779373 176.0
222.800171 76.0
223.0914 32.0
223.114151 208.0
223.243042 64.0
224.28508 100.0
224.350647 72.0
224.848785 44.0
225.096558 136.0
225.676239 36.0
225.975327 68.0
226.086044 132.0
226.616058 80.0
227.008713 124.0
227.032486 332.0
227.149689 116.0
228.03125 248.0
228.074524 140.0
228.369186 80.0
228.760361 72.0
228.829605 44.0
229.04538 416.0
230.053604 152.0
231.014572 168.0
231.064651 2336.0
231.810867 36.0
232.069366 336.0
232.526566 64.0
232.736023 52.0
233.039261 144.0
233.064972 248.0
233.550476 180.0
233.705627 128.0
233.827347 56.0
234.069794 152.0
234.107437 188.0
234.579697 108.0
234.838867 92.0
234.860229 232.0
235.074158 164.0
236.060471 216.0
237.044327 120.0
237.074921 172.0
238.054733 212.0
239.071472 152.0
240.672775 168.0
241.745392 80.0
242.079727 92.0
242.341019 280.0
243.301361 92.0
244.516724 208.0
244.756424 220.0
244.812485 96.0
245.051773 176.0
245.173859 52.0
245.700806 52.0
246.034744 168.0
246.0737 220.0
247.077118 168.0
248.058746 56.0
248.099503 100.0
248.836761 68.0
248.915268 72.0
249.053925 216.0
250.061584 336.0
250.091049 296.0
251.026733 156.0
251.074722 280.0
251.843781 180.0
252.047104 304.0
252.071976 204.0
252.976151 100.0
253.033142 120.0
253.087006 208.0
253.204132 40.0
253.463898 100.0
254.045807 200.0
254.088516 172.0
254.313812 44.0
254.691666 100.0
256.381073 232.0
256.508575 132.0
257.973785 192.0
259.084259 136.0
260.04303 168.0
260.092041 264.0
261.047577 300.0
261.103241 116.0
261.177216 28.0
261.624512 152.0
261.853119 180.0
261.936859 60.0
262.061066 392.0
262.106842 1248.0
263.066925 624.0
263.114288 128.0
263.766479 92.0
264.028381 64.0
264.075409 44.0
265.046143 376.0
265.085144 780.0
265.242523 136.0
266.055206 380.0
266.091461 340.0
266.227478 104.0
267.018555 160.0
267.045258 156.0
267.106384 164.0
267.535919 92.0
268.151581 56.0
268.268921 68.0
268.327606 56.0
268.829895 176.0
270.572052 56.0
271.073212 120.0
272.677979 172.0
274.792023 104.0
275.080841 192.0
276.047211 160.0
276.080261 160.0
277.046021 288.0
277.089844 184.0
277.305206 36.0
277.839081 48.0
277.947601 144.0
278.054352 448.0
278.091217 224.0
278.320343 60.0
278.961548 80.0
279.062866 628.0
279.124451 140.0
279.813202 116.0
280.059998 144.0
280.176208 104.0
281.086121 316.0
281.18988 48.0
282.081696 136.0
282.606781 112.0
282.733917 132.0
285.787567 76.0
287.124908 36.0
288.059845 204.0
289.035217 172.0
289.520996 48.0
289.666626 52.0
289.751312 144.0
289.791992 72.0
290.012238 116.0
290.038086 96.0
290.045685 60.0
290.058319 148.0
290.517487 64.0
290.612488 116.0
290.975647 172.0
291.067017 556.0
291.383209 76.0
291.794434 40.0
291.957642 92.0
292.066895 296.0
292.28421 152.0
292.600769 64.0
293.033051 200.0
293.076263 856.0
293.183228 48.0
293.530914 92.0
294.062134 512.0
295.084503 180.0
296.073395 108.0
296.1008 124.0
297.379639 192.0
298.413635 176.0
299.081024 108.0
301.802948 76.0
302.072693 148.0
303.052429 160.0
305.002777 156.0
305.056122 268.0
305.081665 300.0
305.830627 56.0
306.050629 724.0
306.083679 192.0
307.057526 1804.0
307.126801 60.0
307.248871 104.0
308.066742 404.0
308.604004 92.0
309.082855 156.0
309.174164 40.0
309.776398 72.0
310.018158 96.0
310.085449 220.0
310.186401 80.0
311.077393 188.0
312.440887 80.0
315.622253 40.0
318.052246 140.0
319.062134 140.0
320.018463 40.0
320.559875 108.0
321.030426 160.0
321.071411 680.0
321.791107 88.0
322.008301 96.0
322.070953 328.0
322.095123 164.0
322.183319 112.0
322.962585 112.0
323.089325 4368.0
323.220184 132.0
323.25119 60.0
323.334686 60.0
323.366882 40.0
323.467102 68.0
323.599579 180.0
323.638947 132.0
323.667603 52.0
323.853821 76.0
323.893219 92.0
324.011444 160.0
324.092102 1576.0
324.17627 56.0
324.746307 56.0
324.846741 112.0
324.990234 44.0
325.099609 308.0
326.063934 144.0
326.115417 160.0
326.319153 84.0
326.574463 36.0
327.15741 92.0
327.348236 104.0
327.387848 96.0
327.42746 132.0
329.664154 124.0
329.859344 88.0
330.275177 84.0
330.300476 60.0
332.942688 68.0
333.062561 152.0
333.086365 168.0
333.411346 44.0
334.036713 184.0
334.081604 132.0
335.639191 180.0
336.06781 236.0
337.048157 124.0
337.077393 132.0
337.1651 132.0
339.085632 896.0
339.676819 60.0
339.9263 84.0
340.092804 152.0
341.138306 52.0
341.417755 92.0
342.776123 72.0
344.42157 112.0
347.215973 84.0
348.102264 92.0
349.087677 152.0
349.567535 88.0
349.593597 80.0
350.777985 128.0
351.087341 660.0
351.162018 64.0
352.110016 104.0
353.066742 108.0
353.463287 76.0
355.122894 44.0
355.254181 96.0
357.9151 140.0
360.204346 36.0
362.084167 220.0
364.10556 160.0
364.386658 60.0
364.762878 84.0
365.101288 120.0
370.467865 76.0
374.539703 64.0
380.105011 116.0
382.126434 1016.0
382.170135 60.0
383.129272 280.0
383.16687 192.0
385.543152 88.0
385.711243 80.0
388.197357 68.0
393.931915 76.0
394.133392 92.0
404.573822 56.0
409.762634 60.0
411.186066 120.0
416.811005 88.0
421.215118 52.0
422.55191 80.0
429.593445 64.0
433.102905 96.0
447.405579 64.0
450.2771 64.0
453.86142 68.0
455.941467 68.0
458.759216 80.0
464.721008 116.0
473.79657 60.0
476.768829 64.0
482.881134 52.0
483.318604 112.0
491.672363 104.0
492.608429 120.0
510.832397 44.0
526.278015 148.0
532.381958 32.0
536.896545 84.0
548.105591 72.0
560.805908 140.0
561.753723 40.0
568.059448 60.0
574.39563 108.0
581.928223 196.0
589.234497 104.0
597.364441 64.0
619.89624 64.0
624.294495 48.0
627.690674 76.0
640.697205 124.0
647.339111 108.0
649.755554 80.0
652.011353 112.0
665.081421 64.0
693.307556 104.0
711.834717 64.0
712.259644 32.0
734.128784 20.0
743.438965 112.0
756.717346 76.0
771.749023 36.0
794.742065 52.0
811.556152 132.0
815.609558 148.0
821.799805 64.0
838.371765 140.0
839.593933 124.0
855.38269 128.0
871.271545 100.0
885.120239 76.0
895.542725 120.0
900.749939 88.0
909.606262 76.0
909.99646 76.0
916.215149 104.0
921.717712 40.0
934.06134 176.0
941.014771 40.0
960.511719 148.0
967.445068 148.0
978.15332 212.0
985.488342 124.0
990.091248 204.0
990.254089 240.0
993.369324 164.0
1009.778259 216.0
1025.58728 160.0
1030.462769 212.0
1032.75769 188.0
1033.851685 56.0
1035.356201 120.0
1054.677246 156.0
1055.550049 124.0
1064.713257 144.0
1067.839233 160.0
1070.904785 172.0
1073.863892 120.0
1074.927246 148.0
1081.933838 132.0
1082.680298 160.0
1088.549561 92.0
1091.184326 180.0
1097.623779 272.0
1098.527344 128.0
1099.880005 172.0
1100.771362 68.0
1110.307373 52.0
1115.758911 208.0
1132.093018 132.0
1135.309692 140.0
1140.230713 136.0
1156.71521 180.0
1157.669922 144.0
1166.089111 144.0
1171.825562 132.0
1176.865967 200.0
1177.275635 112.0
1177.890381 192.0
1178.471069 104.0
1178.928833 140.0
1186.691162 80.0
1195.6073 80.0
1196.928955 152.0
1203.928223 140.0
1211.675171 244.0
1214.059692 184.0
1218.620117 140.0
1227.425049 128.0
1230.390381 180.0
1231.095581 152.0
1234.142212 148.0
1235.534058 96.0
1240.393188 148.0
1245.846436 180.0
1249.90332 176.0
1250.043945 124.0
1251.557373 224.0
1255.024048 168.0
1255.799805 196.0
1260.268311 180.0
1261.194092 144.0
1265.686401 60.0
1266.748779 152.0
1267.598999 196.0
1268.619507 160.0
1269.286011 100.0
1269.54834 176.0
1271.101929 136.0
1271.492188 208.0
1272.564087 60.0
1273.899292 164.0
1275.697144 180.0
1276.63562 160.0
1277.460693 248.0
1278.107544 148.0
1280.336304 136.0
1281.062744 156.0
1281.525879 160.0
1286.296875 180.0
1286.561035 148.0
1286.946533 224.0
1287.025024 160.0
1292.013794 160.0
1292.271362 196.0
1292.378662 152.0
1292.83667 196.0
1295.156372 180.0
1298.252441 196.0
1301.725708 180.0
1302.099121 196.0
1307.620728 152.0
1308.210938 52.0
1309.082153 148.0
1311.171265 152.0
1311.287231 208.0
1311.677124 152.0
1312.677979 192.0
1313.355957 160.0
1314.156616 156.0
1316.408691 252.0
1316.509888 204.0
1317.78833 96.0
1317.882324 160.0
1322.655273 132.0
1323.299561 172.0
1325.675415 176.0
1326.436523 84.0
1328.067993 248.0
1328.394287 192.0
1328.786133 148.0
1331.675171 132.0
1334.502075 228.0
1336.400391 216.0
1337.244507 144.0
1337.52832 180.0
1338.736938 204.0
1339.858643 180.0
1339.989746 152.0
1341.046387 128.0
1345.247925 164.0
1345.656738 132.0
1349.697266 196.0
1350.41394 148.0
1351.577148 160.0
1352.089355 104.0
1354.197876 140.0
1355.655762 196.0
1355.773071 56.0
1355.846313 176.0
1356.938599 56.0
1357.107178 28.0
1357.737793 180.0
1357.913818 188.0
1361.230957 232.0
1363.001221 40.0
1363.104126 116.0
1363.206909 180.0
1366.559937 244.0
1370.034912 132.0
1371.206543 208.0
1373.307739 240.0
1373.98645 164.0
1375.189209 96.0
1376.089844 160.0
1377.042358 176.0
1380.175781 120.0
1382.06189 176.0
1383.371826 244.0
1386.853271 132.0
1388.462158 216.0
1390.680542 228.0
1392.28418 128.0
1392.573853 120.0
1397.643799 200.0
1398.283813 176.0
1398.611206 60.0
1399.623779 240.0
1400.56958 136.0
1402.134155 88.0
1404.564819 176.0
1405.340698 104.0
1406.154053 56.0
1406.438599 160.0
1407.475342 132.0
1408.304321 108.0
1408.603149 256.0
1409.275513 188.0
1409.566895 168.0
1411.764648 164.0
1412.026367 180.0
1413.058716 200.0
1417.303955 68.0
1419.522705 64.0
1421.656982 180.0
1422.658936 116.0
1423.259644 156.0
1424.115723 44.0
1424.168335 116.0
1424.596436 268.0
1424.724121 172.0
1425.047241 228.0
1427.384766 160.0
1429.250244 184.0
1431.975342 236.0
1434.33374 156.0
1436.347046 140.0
1436.792114 140.0
1438.135376 196.0
1439.448975 180.0
1443.536987 160.0
1444.081543 124.0
1444.89856 192.0
1445.064941 232.0
1445.155762 120.0
1448.706421 172.0
1448.963989 204.0
1449.517212 208.0
1450.456909 168.0
1451.571411 160.0
1453.452637 140.0
1454.112793 188.0
1454.42395 124.0
1454.477173 152.0
1456.048828 96.0
1456.261475 172.0
1456.61084 160.0
1457.704834 192.0
1459.818115 60.0
1459.985474 308.0
1460.928589 112.0
1461.210083 188.0
1461.445923 64.0
1465.5271 204.0
1467.813721 180.0
1471.231934 124.0
1472.117554 252.0
1473.53064 104.0
1474.218384 172.0
1474.287109 144.0
1475.204346 152.0
1475.792969 196.0
1476.167603 184.0
1476.358887 144.0
1483.556152 160.0
1485.542358 184.0
1485.68811 152.0
1485.925903 160.0
1486.562744 168.0
1487.299561 116.0
1489.418823 44.0
1489.795166 152.0
1490.563477 40.0
1490.655762 156.0
1493.154175 156.0
1493.369507 128.0
1495.31604 104.0
1495.393066 148.0
1496.155151 132.0
1496.617065 152.0
1496.709473 100.0
