>compound NCGC00160190-01!HELIOCURASSAVICINE N-OXYDE
>formula C15H27NO5
>ionization [M+H]+
>parentmass 302.194336
#inchi InChI=1S/C15H27NO5/c1-10(2)15(19,11(3)17)14(18)21-9-12-6-8-16(20)7-4-5-13(12)16/h10-13,17,19H,4-9H2,1-3H3/t11?,12-,13?,15?,16?/m0/s1
#inchikey DLNWZIVYKQXLTN
#Ion_Source LC-ESI
#Instrument qTOF
#Compound_Source Prestwick Phytochem Lib
#PI Dorrestein
#Data_Collector VVP/LMS
#Scan -1
#Precursor_MZ 302.197
#ExactMass 301.189
#Charge 1
#CAS_Number N/A
#Pubmed_ID N/A
#Smiles CC(C)C(O)(C(C)O)C(=O)OC[C@@H]1CC[N+]2([O-])CCCC12
#INCHI_AUX N/A
#Library_Class 1
#SpectrumID CCMSLIB00000078722
#IonMode Positive
#UpdateWorkflowName UPDATE-SINGLE-ANNOTATED-GOLD
#LibraryQualityString Gold
#TaskID 67c915c6594c435cadc1fe2b5358144d
##Scan# 1270
#SpectrumFile p1-G02_GG2_01_17946.mzXML
#LibraryName phytochem_lib.mgf
#MQScore -1
#Organism phytochem_lib
#TIC_Query 0
#RT_Query -1
#MZErrorPPM -1
#SharedPeaks 0
#MassDiff 0
#LibMZ -1
#SpecMZ 302.197
#SpecCharge 0
#internalFilename spec-00000.mgf

>collision 10
94.971191 168.0
95.378944 220.0
95.709671 152.0
95.770042 156.0
96.080353 444.0
96.390434 192.0
96.628975 148.0
96.70388 256.0
96.760101 160.0
96.779678 204.0
96.946182 144.0
97.087135 532.0
97.167747 268.0
97.336548 180.0
97.759186 184.0
97.979713 56.0
98.054588 140.0
98.091599 180.0
98.571632 172.0
98.636848 52.0
98.66848 92.0
98.903885 236.0
99.060318 160.0
99.772743 96.0
100.07074 164.0
100.931137 184.0
101.181236 120.0
101.33345 148.0
101.834946 32.0
101.85704 152.0
101.875122 172.0
101.963531 172.0
101.987648 144.0
102.484718 172.0
102.74279 160.0
102.82148 140.0
102.845703 132.0
102.9729 136.0
102.989059 156.0
103.788437 120.0
103.839134 148.0
103.895927 44.0
104.188271 220.0
104.269547 160.0
104.308167 148.0
104.444397 128.0
105.033066 232.0
105.367859 236.0
105.66021 228.0
105.840324 180.0
105.89357 52.0
106.047234 128.0
106.067726 148.0
106.102577 140.0
106.673279 100.0
106.948914 164.0
107.070389 136.0
108.059143 168.0
108.079277 208.0
108.092567 180.0
108.763725 176.0
108.790718 96.0
109.086365 312.0
109.431046 140.0
109.460197 180.0
109.693535 208.0
109.962608 180.0
110.096962 2520.0
110.190216 240.0
110.365784 40.0
110.528938 216.0
110.943634 180.0
110.975082 132.0
111.097008 348.0
111.136581 48.0
111.346504 56.0
111.531395 152.0
111.630211 156.0
111.947968 148.0
112.069321 196.0
112.6567 168.0
112.783432 112.0
113.08065 260.0
113.11129 144.0
113.403595 160.0
113.450226 112.0
114.19767 192.0
114.448784 88.0
114.546753 268.0
114.62558 208.0
115.028671 176.0
115.956963 40.0
115.978394 132.0
116.14135 52.0
116.270088 128.0
116.551399 96.0
116.744858 180.0
116.876076 236.0
116.949249 124.0
117.328369 120.0
117.410309 108.0
117.468544 148.0
118.402275 148.0
118.543091 172.0
118.5756 148.0
118.883553 204.0
119.078941 224.0
119.526772 216.0
120.019043 168.0
120.053932 116.0
120.083267 184.0
120.12809 268.0
120.261192 220.0
120.636902 172.0
120.656578 196.0
121.004433 176.0
121.188782 120.0
121.289223 180.0
121.436127 32.0
121.745575 208.0
121.807076 64.0
121.905937 120.0
122.095612 952.0
122.116997 132.0
122.196182 56.0
122.262199 148.0
122.53524 180.0
122.612366 92.0
122.905655 192.0
122.960823 48.0
123.10302 392.0
123.453476 84.0
123.475594 128.0
123.798698 160.0
123.86071 176.0
124.111504 7036.0
124.182106 64.0
124.255302 100.0
124.497246 36.0
124.552773 52.0
124.619423 228.0
124.648308 48.0
124.672752 80.0
124.728317 56.0
124.919548 152.0
125.036644 172.0
125.070862 96.0
125.086441 220.0
125.113754 400.0
125.295776 108.0
125.407188 152.0
125.62571 196.0
125.768524 152.0
125.795311 124.0
126.043213 84.0
126.08625 156.0
126.226509 72.0
126.78392 128.0
126.907204 180.0
126.994667 148.0
127.044014 100.0
127.122543 128.0
127.250481 128.0
127.385231 124.0
127.693169 168.0
127.756149 196.0
127.98571 172.0
128.425156 104.0
128.662094 144.0
128.684677 44.0
128.820175 184.0
129.442139 172.0
129.591644 212.0
129.899963 136.0
130.292694 208.0
131.622833 168.0
132.042969 136.0
132.1371 88.0
132.276688 116.0
132.661545 100.0
132.714264 72.0
133.141083 232.0
133.230667 232.0
133.345551 164.0
133.830933 208.0
134.47641 172.0
134.73735 56.0
134.795105 208.0
134.873688 140.0
135.023972 292.0
135.461426 160.0
135.87175 40.0
136.28038 196.0
136.973648 184.0
137.027237 56.0
137.10878 140.0
137.369934 164.0
137.598633 200.0
137.613739 196.0
137.687363 172.0
137.783127 300.0
137.958405 212.0
138.115082 56.0
138.669983 196.0
138.899765 180.0
139.087494 176.0
139.13913 248.0
139.43045 176.0
139.627884 136.0
139.745499 220.0
139.919662 188.0
139.945557 184.0
140.030334 188.0
140.046829 208.0
140.10643 4884.0
140.141373 164.0
140.171692 80.0
140.211746 32.0
140.232956 120.0
140.261246 96.0
140.346115 92.0
140.397995 120.0
140.442795 80.0
140.584351 188.0
140.600876 144.0
140.681122 64.0
140.718903 128.0
140.780289 68.0
140.825165 88.0
140.981094 128.0
141.00946 160.0
141.035446 140.0
141.113724 8156.0
141.184402 60.0
141.2388 56.0
141.269547 144.0
141.312134 68.0
141.333435 48.0
141.505646 240.0
141.828384 108.0
141.899506 44.0
141.963531 136.0
142.053558 104.0
142.11763 696.0
142.445328 156.0
142.54274 172.0
142.628296 68.0
142.801865 80.0
142.87323 168.0
142.90416 224.0
143.042191 164.0
143.123398 180.0
143.185043 104.0
143.308914 108.0
143.587814 160.0
143.792999 160.0
144.048477 172.0
144.67981 56.0
144.75882 116.0
144.921707 40.0
145.833603 192.0
145.912933 204.0
146.004303 144.0
146.095703 208.0
146.136612 68.0
146.360458 180.0
146.678467 104.0
146.76767 252.0
147.115082 144.0
147.465332 172.0
148.02417 84.0
148.35611 176.0
148.450668 148.0
148.919052 172.0
149.346832 148.0
150.172516 204.0
150.194473 60.0
150.306702 140.0
150.438492 180.0
151.467972 116.0
152.088333 136.0
152.255295 204.0
152.469025 172.0
152.759155 192.0
152.796066 208.0
153.199799 124.0
153.278641 72.0
153.485703 172.0
153.749649 160.0
153.791611 144.0
154.090408 128.0
154.626999 116.0
155.732788 216.0
155.77005 208.0
156.284668 76.0
157.02951 160.0
157.236588 48.0
157.371384 120.0
157.498749 196.0
157.561203 176.0
157.61084 124.0
157.72113 96.0
157.789413 164.0
157.876144 180.0
157.908646 184.0
157.93866 172.0
158.038284 180.0
158.068756 164.0
158.117203 48020.0
158.182098 84.0
158.21347 164.0
158.253571 72.0
158.297943 72.0
158.371521 64.0
158.419281 52.0
158.466873 88.0
158.532333 64.0
158.597382 108.0
158.622253 36.0
158.667374 60.0
158.699966 48.0
158.754791 88.0
158.822861 44.0
158.875534 68.0
158.975891 72.0
158.998489 64.0
159.061234 168.0
159.11937 3288.0
159.156967 224.0
159.199326 96.0
159.224426 68.0
159.37767 48.0
159.4021 72.0
159.47316 136.0
159.551086 40.0
159.576233 56.0
159.646637 172.0
159.767365 44.0
159.8806 72.0
159.908279 116.0
159.946625 84.0
160.024078 60.0
160.053131 104.0
160.074432 108.0
160.095932 164.0
160.123703 184.0
160.157547 84.0
160.214661 148.0
160.272797 48.0
160.294708 72.0
160.318787 128.0
160.336426 120.0
160.375565 68.0
160.396912 200.0
160.42395 72.0
160.454895 116.0
160.494019 108.0
160.777771 200.0
161.146423 112.0
161.227127 64.0
161.275314 108.0
161.33345 80.0
161.636948 80.0
161.783752 52.0
162.031937 32.0
162.336105 40.0
163.420715 64.0
163.547958 32.0
163.769485 168.0
163.998795 52.0
166.331558 84.0
167.053635 192.0
167.125671 140.0
168.099762 128.0
168.135803 200.0
168.481812 60.0
169.920441 124.0
170.17041 116.0
172.959824 128.0
174.444519 40.0
177.252716 108.0
179.36557 124.0
180.192841 96.0
181.019348 112.0
181.147903 192.0
181.28186 60.0
184.46048 128.0
186.108063 160.0
190.29332 164.0
190.691635 156.0
194.906021 156.0
197.04306 100.0
198.7117 140.0
201.411407 212.0
202.967941 136.0
207.246368 48.0
208.943192 220.0
212.192307 100.0
213.190811 168.0
215.378845 68.0
216.449234 112.0
221.414276 216.0
221.92099 88.0
225.083939 212.0
225.141922 172.0
225.926773 196.0
226.474564 152.0
227.881592 128.0
228.018463 196.0
228.347443 156.0
230.342804 120.0
233.27002 136.0
233.482864 184.0
233.540649 180.0
233.924042 108.0
236.561523 60.0
240.158371 140.0
240.520767 32.0
241.163239 44.0
241.688965 76.0
243.139206 164.0
243.64534 180.0
246.511871 68.0
247.268692 220.0
250.720184 100.0
251.382431 88.0
252.157211 424.0
253.124191 132.0
257.340454 100.0
257.778046 208.0
258.167969 584.0
258.270386 20.0
259.176392 256.0
261.186066 160.0
262.932373 68.0
267.168427 160.0
268.180084 136.0
273.423706 148.0
276.02652 128.0
277.645874 88.0
280.785339 124.0
283.962616 144.0
284.180786 172.0
284.196625 148.0
284.205139 196.0
284.462555 236.0
284.973022 76.0
285.19342 144.0
285.22171 160.0
286.958801 108.0
287.37027 124.0
289.513336 104.0
300.479187 72.0
301.380341 148.0
301.649902 124.0
301.719055 104.0
301.784729 68.0
302.028137 124.0
302.194336 6976.0
302.365875 112.0
302.424713 112.0
302.516388 100.0
302.590881 56.0
302.677429 136.0
302.764008 76.0
302.981079 72.0
303.199677 1752.0
303.599213 72.0
303.691681 60.0
303.748352 52.0
303.84549 68.0
303.956512 48.0
304.194824 108.0
304.407776 56.0
304.758606 76.0
305.14621 164.0
305.195618 76.0
305.279999 108.0
305.613129 68.0
306.627289 48.0
306.693512 76.0
307.394501 80.0
308.050873 88.0
312.264069 116.0
313.580841 80.0
314.970093 56.0
324.311462 40.0
326.03421 128.0
326.490753 56.0
328.800049 76.0
333.00705 176.0
362.840912 72.0
374.084167 96.0
391.701965 92.0
391.989563 80.0
414.407684 128.0
416.740662 112.0
423.479858 48.0
435.631927 36.0
587.219849 100.0
612.109253 72.0
617.92865 44.0
672.444702 84.0
686.045349 104.0
686.165283 36.0
718.683167 112.0
836.808228 136.0
851.385742 148.0
891.256714 244.0
902.845093 156.0
907.323914 128.0
922.446167 72.0
924.254517 100.0
961.582397 128.0
986.778137 104.0
993.472961 136.0
994.043945 36.0
994.200806 192.0
1006.00238 120.0
1013.813721 64.0
1015.468384 200.0
1020.249817 132.0
1037.691895 132.0
1045.605713 132.0
1047.634033 196.0
1051.528564 196.0
1051.760986 156.0
1081.845459 128.0
1103.397705 188.0
1107.944336 248.0
1113.316895 220.0
1115.010986 108.0
1124.308105 216.0
1130.40271 60.0
1140.301147 164.0
1144.721069 124.0
1147.611694 188.0
1154.844238 180.0
1158.797607 196.0
1164.536499 172.0
1169.601929 208.0
1175.995361 108.0
1177.599854 84.0
1178.617798 88.0
1180.572754 192.0
1186.46814 136.0
1188.793335 176.0
1192.907471 72.0
1197.283447 184.0
1203.116699 104.0
1203.59314 208.0
1209.538696 184.0
1210.473267 172.0
1211.290527 136.0
1226.668457 156.0
1227.567749 180.0
1227.700317 180.0
1229.018677 156.0
1234.671631 224.0
1236.971924 84.0
1237.167847 196.0
1249.32251 120.0
1250.286499 204.0
1254.195435 148.0
1257.044678 164.0
1260.568359 152.0
1261.748779 108.0
1267.83606 244.0
1271.325195 156.0
1280.325195 68.0
1281.201294 164.0
1283.603271 84.0
1284.780151 92.0
1284.965576 32.0
1294.450562 196.0
1295.023438 56.0
1295.266968 112.0
1295.933228 232.0
1296.477783 144.0
1300.343384 152.0
1300.946411 168.0
1303.237427 108.0
1305.65271 148.0
1307.947876 164.0
1308.847778 140.0
1311.340332 124.0
1315.964233 116.0
1317.560425 156.0
1321.240234 176.0
1329.652832 216.0
1330.197144 52.0
1330.327881 200.0
1336.636475 212.0
1338.73291 52.0
1341.144409 92.0
1343.244385 60.0
1347.815552 152.0
1358.144409 164.0
1359.457642 124.0
1363.136719 64.0
1363.783447 180.0
1364.893555 168.0
1365.709839 260.0
1365.842163 140.0
1366.209961 148.0
1366.327759 124.0
1366.872192 236.0
1366.960449 212.0
1367.15918 100.0
1370.200195 164.0
1370.568604 128.0
1371.747803 156.0
1373.089722 188.0
1373.945312 44.0
1375.015259 204.0
1376.137329 212.0
1376.432617 156.0
1377.052979 164.0
1385.011475 112.0
1386.308105 180.0
1387.004761 168.0
1388.361572 100.0
1391.05481 156.0
1398.666626 200.0
1400.751465 72.0
1400.870728 56.0
1401.675293 140.0
1403.866943 188.0
1405.657227 148.0
1408.973022 200.0
1410.242676 236.0
1413.144165 160.0
1415.584351 180.0
1417.831665 160.0
1418.056519 136.0
1419.02356 148.0
1419.795898 132.0
1421.311157 224.0
1421.506348 148.0
1422.241821 164.0
1423.653198 168.0
1423.833496 52.0
1426.673706 156.0
1426.959473 212.0
1427.17749 112.0
1428.674072 188.0
1430.999634 96.0
1432.792114 164.0
1436.833008 120.0
1437.119751 156.0
1439.535156 148.0
1443.857788 132.0
1444.107422 132.0
1446.233521 180.0
1446.311768 132.0
1446.453003 216.0
1447.126831 132.0
1451.475952 72.0
1453.546875 164.0
1456.241821 44.0
1457.039429 108.0
1457.753662 88.0
1458.072876 228.0
1459.281494 168.0
1462.781006 48.0
1463.816406 144.0
1463.930664 188.0
1464.014404 164.0
1466.002686 180.0
1466.719116 140.0
1468.244019 120.0
1468.709229 212.0
1471.685547 152.0
1475.589722 188.0
1476.423218 144.0
1478.136719 112.0
1480.831421 184.0
1482.509277 220.0
1483.796997 136.0
1484.195679 68.0
1484.418091 180.0
1488.869019 156.0
1489.421997 208.0
1490.927856 180.0
1493.080444 136.0
1495.858032 136.0
1496.797363 152.0
1496.851196 56.0
1500.194946 68.0
1504.175415 184.0
