>compound MLS001148106-01!DEXAMETHASONE 21-ACETATE
>formula C24H31FO6
>ionization [M+H]+
>parentmass 435.21774338409057
#inchi InChI=1S/C24H31FO6/c1-13-9-18-17-6-5-15-10-16(27)7-8-21(15,3)23(17,25)19(28)11-22(18,4)24(13,30)20(29)12-31-14(2)26/h7-8,10,13,17-19,28,30H,5-6,9,11-12H2,1-4H3/t13-,17+,18+,19+,21+,22+,23+,24+/m1/s1
#inchikey AKUJBENLRBOFTD
#Ion_Source LC-ESI
#Instrument qTof
#Compound_Source NIH Pharmacologically Active Library
#PI Dorrestein
#Data_Collector VP/LMS
#Scan -1
#Precursor_MZ 435.221
#ExactMass 434.21
#Charge 1
#CAS_Number N/A
#Pubmed_ID N/A
#Smiles C[C@@H]1C[C@H]2[C@@H]3CCC4=CC(=O)C=C[C@]4(C)[C@@]3(F)[C@@H](O)C[C@]2(C)[C@@]1(O)C(=O)COC(=O)C
#INCHI_AUX N/A
#Library_Class 1
#SpectrumID CCMSLIB00000085431
#IonMode Positive
#UpdateWorkflowName UPDATE-SINGLE-ANNOTATED-GOLD
#LibraryQualityString Gold
#TaskID d252d724072548979f1f6f1ced849daf
##Scan# 2059
#SpectrumFile p4-A09_GA9_01_18333.mzXML
#LibraryName Pharm_Active_Library.mgf
#MQScore -1
#Organism Pharm_Active_Library
#TIC_Query 0
#RT_Query -1
#MZErrorPPM -1
#SharedPeaks 0
#MassDiff 0
#LibMZ -1
#SpecMZ 435.221
#SpecCharge 0
#internalFilename spec-00000.mgf

>collision 10
44.903812 192.0
44.956387 180.0
44.993759 160.0
45.016457 196.0
45.154106 92.0
45.17952 216.0
45.196915 148.0
45.229034 112.0
45.30402 208.0
45.39114 232.0
45.434059 156.0
45.486397 84.0
45.540104 76.0
45.55085 68.0
45.579063 160.0
45.638206 132.0
45.737759 100.0
45.759296 100.0
45.954723 164.0
46.014111 156.0
46.058372 180.0
46.097855 148.0
46.176262 256.0
46.195198 164.0
46.369869 180.0
46.406471 112.0
46.551659 80.0
46.630451 140.0
46.669876 160.0
46.709312 136.0
46.774628 36.0
46.844757 48.0
46.87405 148.0
46.916302 120.0
46.958572 196.0
47.017235 88.0
47.052029 196.0
47.114182 120.0
47.137409 32.0
47.155174 140.0
47.174313 144.0
47.190716 136.0
47.237213 40.0
47.24789 144.0
47.296055 164.0
47.357666 132.0
47.374104 140.0
47.443996 164.0
47.675961 108.0
47.750202 204.0
47.776024 212.0
47.781471 164.0
47.79422 184.0
47.816238 196.0
47.831379 200.0
47.995323 144.0
48.036697 176.0
48.079468 132.0
48.127785 124.0
48.137447 144.0
48.164207 160.0
48.181648 204.0
48.223743 172.0
48.234161 164.0
48.411255 260.0
48.588673 120.0
48.626518 116.0
48.687698 184.0
48.781704 60.0
48.828979 156.0
48.906895 80.0
48.947266 80.0
49.093582 224.0
49.139614 172.0
49.156357 120.0
49.2094 132.0
49.30159 156.0
49.347717 176.0
49.381279 184.0
49.391071 152.0
49.427444 76.0
49.472229 156.0
49.515636 172.0
49.529644 176.0
49.596935 168.0
49.699276 104.0
49.731552 188.0
49.829849 196.0
49.88747 172.0
50.011253 120.0
50.026737 192.0
50.149284 128.0
50.178886 148.0
50.445705 192.0
50.462673 224.0
50.632477 84.0
50.711945 132.0
50.78838 160.0
50.860744 204.0
50.944523 160.0
50.999943 184.0
51.024109 120.0
51.049702 176.0
51.135059 40.0
51.184887 120.0
51.21764 132.0
51.258957 156.0
51.320248 164.0
51.347343 44.0
51.415821 296.0
51.502914 160.0
51.595798 112.0
51.818523 192.0
51.949524 144.0
52.031322 132.0
52.180737 180.0
52.209496 168.0
52.228191 168.0
52.2397 76.0
52.285744 148.0
52.451378 116.0
52.50761 136.0
52.533573 160.0
52.745842 164.0
52.784878 56.0
52.900623 116.0
52.945507 124.0
52.978821 152.0
53.020844 92.0
53.057079 200.0
53.075928 132.0
53.136845 200.0
53.202152 204.0
53.34597 184.0
53.425949 124.0
53.492889 124.0
53.536572 184.0
53.590466 180.0
53.61961 216.0
53.661884 180.0
53.69688 168.0
53.752316 164.0
53.775665 168.0
53.825302 168.0
53.920067 216.0
53.937794 148.0
54.147022 196.0
54.319977 168.0
54.362526 88.0
54.503494 188.0
54.604927 120.0
54.616692 132.0
54.656414 148.0
54.681431 112.0
54.741791 72.0
54.781555 236.0
54.940769 220.0
54.977654 180.0
55.007175 92.0
55.091347 184.0
55.188889 160.0
55.247185 260.0
55.323521 132.0
55.378307 180.0
55.479305 200.0
55.514656 192.0
55.535416 88.0
55.562119 144.0
55.758121 36.0
55.798256 164.0
55.832455 168.0
56.069809 260.0
56.093014 160.0
56.140724 48.0
56.151161 48.0
56.225758 152.0
56.286964 172.0
56.470779 152.0
56.638412 164.0
56.713333 224.0
56.732819 140.0
56.750809 104.0
56.770302 44.0
56.845306 164.0
56.860313 152.0
56.909851 248.0
56.978939 96.0
57.004482 160.0
57.100697 184.0
57.121754 168.0
57.203011 80.0
57.220581 268.0
57.25285 196.0
57.266251 128.0
57.380684 64.0
57.53315 120.0
57.570896 228.0
57.700844 108.0
57.797642 220.0
57.847584 128.0
57.915504 248.0
57.986935 220.0
58.136822 168.0
58.175022 224.0
58.202351 136.0
58.231201 196.0
58.279816 128.0
58.299568 144.0
58.362785 136.0
58.376583 236.0
58.451294 232.0
58.469894 200.0
58.632851 156.0
58.717522 156.0
58.730427 108.0
58.839321 156.0
58.881527 216.0
58.904438 160.0
58.915131 116.0
58.959557 160.0
59.026703 156.0
59.055759 204.0
59.138382 164.0
59.256294 160.0
59.267582 228.0
59.288475 136.0
59.329857 220.0
59.369724 140.0
59.394264 156.0
59.504753 140.0
59.624565 144.0
59.701435 144.0
59.721428 212.0
59.764503 120.0
59.781429 204.0
59.907681 196.0
59.98473 208.0
60.02636 148.0
60.063374 132.0
60.165218 152.0
60.188412 180.0
60.219265 204.0
60.231621 136.0
60.250156 176.0
60.276424 132.0
60.293423 76.0
60.379997 112.0
60.716064 112.0
60.802944 208.0
60.820015 156.0
60.863483 48.0
60.917843 152.0
60.941147 192.0
61.054619 140.0
61.068619 152.0
61.19622 156.0
61.207123 176.0
61.29591 228.0
61.358253 224.0
61.400356 208.0
61.453392 156.0
61.525185 168.0
61.626698 196.0
61.643887 128.0
61.776783 204.0
61.878506 88.0
61.948982 116.0
62.01479 252.0
62.08691 152.0
62.209293 76.0
62.520504 132.0
62.544109 172.0
62.638588 144.0
62.69846 288.0
62.712643 132.0
62.799362 164.0
62.846867 176.0
62.881405 72.0
62.906658 156.0
62.933498 172.0
62.963501 228.0
63.064617 180.0
63.118366 140.0
63.371616 124.0
63.398552 140.0
63.444519 136.0
63.471474 168.0
63.500019 148.0
63.73814 116.0
63.788998 184.0
64.023621 104.0
64.036583 120.0
64.058006 148.0
64.233269 148.0
64.290703 160.0
64.388092 124.0
64.455185 180.0
64.46637 148.0
64.60067 164.0
64.693489 200.0
64.810402 180.0
64.894745 212.0
65.001213 256.0
65.038124 76.0
65.083076 200.0
65.145714 264.0
65.162628 196.0
65.176239 204.0
65.356323 32.0
65.382072 128.0
65.457733 100.0
65.473831 284.0
65.518936 128.0
65.557602 120.0
65.661591 160.0
65.688202 116.0
65.729248 172.0
65.77211 156.0
65.796326 136.0
65.920692 52.0
66.017685 156.0
66.029007 212.0
66.062973 124.0
66.122841 144.0
66.155212 104.0
66.296127 116.0
66.343132 148.0
66.365829 220.0
66.503716 224.0
66.516701 148.0
66.563431 148.0
66.713257 248.0
66.726265 156.0
66.845001 108.0
66.895454 168.0
66.921501 212.0
67.020859 184.0
67.087677 156.0
67.103981 88.0
67.342232 124.0
67.36673 148.0
67.46151 180.0
67.559631 172.0
67.600113 172.0
67.626717 148.0
67.677467 172.0
67.713493 168.0
67.762634 168.0
67.867531 148.0
68.026672 148.0
68.056221 92.0
68.075928 92.0
68.177559 184.0
68.269836 148.0
68.320824 136.0
68.383354 180.0
68.400635 160.0
68.427795 112.0
68.468964 60.0
68.521255 156.0
68.556274 156.0
68.599129 176.0
68.683228 168.0
68.703018 116.0
68.717873 76.0
69.046585 204.0
69.059822 160.0
69.079666 124.0
69.175644 152.0
69.431358 204.0
69.454025 128.0
69.483887 52.0
69.629959 160.0
69.673149 176.0
69.702675 124.0
69.73629 240.0
69.887619 172.0
69.939209 224.0
69.96917 160.0
70.122421 184.0
70.212448 124.0
70.345932 100.0
70.407707 160.0
70.446121 216.0
70.477867 140.0
70.504601 188.0
70.541443 192.0
70.604912 68.0
70.648399 140.0
70.686882 184.0
70.728195 204.0
70.755501 132.0
70.80574 172.0
70.844261 204.0
70.87442 148.0
71.042076 176.0
71.053818 108.0
71.068916 224.0
71.280487 160.0
71.386383 196.0
71.578346 156.0
71.73996 252.0
71.764511 180.0
71.910324 160.0
71.959274 128.0
71.979538 72.0
72.063995 80.0
72.172165 224.0
72.415848 140.0
72.524284 112.0
72.583626 220.0
72.603973 168.0
72.712547 124.0
72.812714 92.0
72.831398 120.0
72.885765 180.0
72.910629 248.0
73.028564 104.0
73.12384 232.0
73.246429 220.0
73.268578 152.0
73.374237 228.0
73.457802 248.0
73.490219 104.0
73.567017 108.0
73.596451 216.0
73.631416 128.0
73.717316 176.0
73.729279 52.0
73.74295 164.0
73.829094 156.0
73.910545 180.0
73.932785 80.0
73.973862 172.0
74.009819 188.0
74.140007 152.0
74.186279 176.0
74.36982 116.0
74.404152 212.0
74.471123 144.0
74.484863 204.0
74.522659 192.0
74.583237 192.0
74.613747 240.0
74.761673 404.0
74.804703 148.0
74.818474 180.0
74.848175 208.0
74.894241 136.0
74.928696 172.0
74.949371 236.0
75.004517 192.0
75.094894 172.0
75.107971 92.0
75.325462 128.0
75.347923 212.0
75.489655 216.0
75.517326 192.0
75.543274 36.0
75.607292 200.0
75.669609 200.0
75.769104 224.0
75.816841 152.0
75.856705 160.0
75.936462 172.0
76.02002 184.0
76.162102 220.0
76.193367 132.0
76.219429 180.0
76.306335 128.0
76.492477 112.0
76.516846 200.0
76.555634 188.0
76.638763 92.0
76.675362 88.0
76.691048 44.0
76.72068 160.0
76.734627 184.0
76.835777 216.0
76.934196 172.0
76.947426 140.0
76.958023 184.0
77.005096 48.0
77.078468 124.0
77.208138 160.0
77.234062 224.0
77.323296 368.0
77.445854 156.0
77.48439 128.0
77.519432 52.0
77.572014 104.0
77.616898 180.0
77.645653 176.0
77.71582 148.0
77.743896 204.0
77.780754 120.0
77.8106 88.0
77.868546 64.0
77.906158 120.0
77.97747 124.0
78.13221 168.0
78.197319 184.0
78.2202 120.0
78.232521 152.0
78.265976 128.0
78.330299 160.0
78.352272 116.0
78.459778 128.0
78.493279 48.0
78.567352 80.0
78.592056 144.0
78.606171 52.0
78.634407 160.0
78.670631 92.0
78.712082 388.0
78.752701 104.0
78.823364 176.0
78.867546 148.0
78.907196 140.0
78.93119 136.0
78.998398 192.0
79.01786 228.0
79.060326 160.0
79.299416 216.0
79.467873 196.0
79.545959 180.0
79.59922 108.0
79.645401 196.0
79.718239 128.0
79.933403 224.0
80.036644 192.0
80.113884 208.0
80.205887 192.0
80.239761 140.0
80.262939 188.0
80.287903 116.0
80.320007 196.0
80.375313 132.0
80.394943 160.0
80.482407 168.0
80.589577 152.0
80.618164 224.0
80.795181 156.0
81.080566 168.0
81.199997 68.0
81.239456 144.0
81.282516 248.0
81.343536 44.0
81.392014 196.0
81.438705 164.0
81.453072 200.0
81.471039 188.0
81.681358 224.0
81.787521 176.0
81.805519 112.0
81.833397 204.0
82.022446 196.0
82.068558 92.0
82.11544 276.0
82.243546 100.0
82.263397 168.0
82.333725 168.0
82.476547 160.0
82.599503 144.0
82.731606 188.0
82.885551 188.0
83.008812 236.0
83.390045 44.0
83.410042 76.0
83.493675 164.0
83.586456 212.0
83.721161 152.0
83.881493 196.0
83.917953 160.0
83.938011 152.0
83.959892 120.0
83.986168 188.0
84.146011 116.0
84.189835 140.0
84.266556 168.0
84.315887 144.0
84.391685 188.0
84.491425 128.0
84.722527 208.0
84.738586 144.0
84.756905 128.0
84.773399 164.0
84.825966 188.0
84.852211 52.0
85.05217 164.0
85.197235 44.0
85.210098 68.0
85.331398 120.0
85.344269 164.0
85.386559 176.0
85.520866 120.0
85.63166 160.0
85.682915 168.0
85.72525 172.0
85.810081 232.0
85.865402 48.0
85.896759 112.0
85.992706 148.0
86.073929 168.0
86.10717 144.0
86.13118 132.0
86.188454 208.0
86.221718 144.0
86.382576 160.0
86.410324 176.0
86.452881 220.0
86.491745 208.0
86.663445 308.0
86.72142 60.0
86.747375 184.0
86.764061 196.0
86.887657 192.0
86.923569 188.0
86.943977 184.0
86.986671 104.0
87.051651 168.0
87.142662 400.0
87.430885 40.0
87.443909 140.0
87.479279 188.0
87.529541 128.0
87.553749 184.0
87.570511 180.0
87.648758 232.0
87.89489 400.0
87.930344 192.0
87.963943 28.0
88.077843 132.0
88.292328 124.0
88.385536 156.0
88.442459 228.0
88.470535 200.0
88.485512 172.0
88.52858 44.0
88.564163 200.0
88.616615 172.0
88.689705 168.0
88.736565 232.0
88.841591 124.0
88.907257 132.0
88.978584 144.0
89.166428 144.0
89.215302 168.0
89.320602 116.0
89.3507 64.0
89.366562 208.0
89.425972 132.0
89.537048 176.0
89.631241 144.0
89.661072 164.0
89.702858 176.0
89.744331 120.0
89.764046 176.0
89.90744 176.0
89.927315 224.0
89.949966 184.0
90.04248 172.0
90.089706 128.0
90.109314 200.0
90.305191 128.0
90.34491 148.0
90.467918 76.0
90.706604 112.0
90.740723 172.0
90.788132 152.0
90.805199 136.0
90.818474 72.0
90.846924 156.0
90.870071 200.0
91.008247 104.0
91.055054 1180.0
91.086105 200.0
91.1222 168.0
91.177307 72.0
91.28186 176.0
91.333214 272.0
91.365547 140.0
91.465897 208.0
91.550179 144.0
91.588272 284.0
91.705399 152.0
91.832237 240.0
91.870384 248.0
91.937172 104.0
91.969612 132.0
92.005882 224.0
92.036522 188.0
92.061256 220.0
92.074623 108.0
92.095627 132.0
92.110909 120.0
92.156761 212.0
92.212181 92.0
92.286095 132.0
92.323059 228.0
92.370155 180.0
92.462715 132.0
92.551018 156.0
92.853546 120.0
92.995522 132.0
93.069717 476.0
93.176025 192.0
93.260574 64.0
93.435562 136.0
93.500984 188.0
93.518311 92.0
93.545258 200.0
93.678131 180.0
93.697395 192.0
93.726295 48.0
93.791817 144.0
93.828445 256.0
93.909431 208.0
93.94313 204.0
94.023262 108.0
94.070839 172.0
94.175781 88.0
94.191238 144.0
94.224075 196.0
94.305237 192.0
94.608925 76.0
94.628288 164.0
94.65152 168.0
94.719307 164.0
94.740616 172.0
94.856964 200.0
94.884026 28.0
94.95771 160.0
95.047737 232.0
95.086853 704.0
95.132339 120.0
95.161461 52.0
95.198357 144.0
95.221657 188.0
95.248856 172.0
95.299362 220.0
95.379036 204.0
95.441254 56.0
95.489868 176.0
95.556 208.0
95.659149 176.0
95.686401 180.0
95.708893 116.0
95.716179 164.0
95.766243 168.0
95.824677 108.0
95.929916 76.0
95.949409 192.0
95.998154 160.0
96.05172 224.0
96.10154 128.0
96.204971 112.0
96.238159 72.0
96.326042 240.0
96.386612 172.0
96.41983 96.0
96.488243 208.0
96.541039 176.0
96.632973 52.0
96.652534 308.0
96.70929 104.0
96.754311 176.0
96.773888 140.0
96.815735 140.0
96.834595 88.0
96.961937 168.0
97.007019 156.0
97.020744 196.0
97.069427 196.0
97.097382 188.0
97.183525 216.0
97.210999 44.0
97.27066 392.0
97.322884 136.0
97.446617 216.0
97.523262 136.0
97.613693 116.0
97.717941 196.0
97.741547 188.0
97.755325 184.0
97.946297 220.0
97.993576 152.0
98.210419 92.0
98.247902 272.0
98.314987 104.0
98.405785 228.0
98.441322 72.0
98.492676 136.0
98.571701 136.0
98.680412 200.0
98.696228 104.0
98.87426 128.0
98.890099 168.0
98.931664 128.0
98.998985 184.0
99.040947 192.0
99.056419 188.0
99.076233 208.0
99.125763 160.0
99.193146 184.0
99.326004 140.0
99.377579 100.0
99.409332 36.0
99.488724 244.0
99.59198 136.0
99.617798 180.0
99.661385 192.0
99.78672 172.0
99.818535 108.0
99.8424 52.0
99.882179 164.0
99.900078 224.0
99.931915 48.0
100.000206 200.0
100.029427 112.0
100.111053 176.0
100.158859 132.0
100.26844 76.0
100.417969 160.0
100.459343 360.0
100.675583 232.0
100.765297 172.0
100.890892 128.0
100.949188 124.0
101.025536 348.0
101.061203 164.0
101.091217 228.0
101.231346 164.0
101.481575 264.0
101.497849 220.0
101.53595 160.0
101.584091 172.0
101.63224 120.0
101.71653 88.0
101.764282 176.0
101.792824 168.0
101.955536 224.0
102.041969 144.0
102.062515 148.0
102.267273 160.0
102.410225 168.0
102.565369 148.0
102.608551 152.0
102.669662 176.0
102.779144 52.0
102.843719 56.0
103.052895 608.0
103.108299 56.0
103.156807 128.0
103.375244 56.0
103.472397 140.0
103.676979 164.0
103.760078 128.0
103.87162 124.0
103.93248 248.0
103.983208 84.0
104.06308 236.0
104.145638 184.0
104.188293 188.0
104.214706 148.0
104.281769 216.0
104.30616 116.0
104.326485 196.0
104.399681 76.0
104.42205 72.0
104.561775 276.0
104.64386 200.0
104.676437 196.0
104.725311 156.0
104.778275 164.0
104.808838 204.0
104.97802 196.0
105.029648 268.0
105.047371 92.0
105.070854 2288.0
105.10041 188.0
105.141228 236.0
105.163673 144.0
105.19429 112.0
105.286171 96.0
105.351532 140.0
105.4067 148.0
105.459831 176.0
105.54882 176.0
105.581711 156.0
105.619316 188.0
105.864914 108.0
106.016502 160.0
106.073822 772.0
106.182564 148.0
106.250252 204.0
106.32412 164.0
106.338486 80.0
106.443359 188.0
106.467827 176.0
106.521225 180.0
106.584915 196.0
106.724686 164.0
106.739082 48.0
106.831734 160.0
106.924225 116.0
106.979797 260.0
107.050705 748.0
107.085228 1900.0
107.133713 216.0
107.150726 144.0
107.220787 152.0
107.391907 168.0
107.431099 148.0
107.459984 164.0
107.519676 168.0
107.641678 144.0
107.817207 72.0
107.875755 136.0
107.910225 156.0
107.943314 208.0
108.028107 172.0
108.053581 176.0
108.136322 120.0
108.169876 180.0
108.193665 192.0
108.230927 136.0
108.255775 128.0
108.351059 148.0
108.419434 164.0
108.483688 152.0
108.504417 208.0
108.531372 188.0
108.666183 112.0
108.859222 200.0
108.909729 200.0
108.960999 200.0
109.042038 128.0
109.066528 708.0
109.102066 696.0
109.126572 144.0
109.145981 140.0
109.175095 116.0
109.222931 248.0
109.266609 60.0
109.297821 204.0
109.549736 116.0
109.660172 208.0
109.756065 156.0
109.774834 128.0
109.864517 212.0
109.937996 204.0
109.991814 140.0
110.053978 252.0
110.069054 116.0
110.112915 188.0
110.154686 144.0
110.223633 192.0
110.254143 140.0
110.334404 136.0
110.354111 188.0
110.422226 156.0
110.461967 316.0
110.480797 128.0
110.547745 188.0
110.568672 188.0
110.606346 88.0
110.623093 28.0
110.654495 144.0
110.696373 124.0
110.780151 136.0
110.88282 160.0
110.910065 92.0
110.981346 128.0
110.996025 160.0
111.046165 168.0
111.081741 292.0
111.128273 152.0
111.155441 216.0
111.27298 76.0
111.338074 200.0
111.352776 184.0
111.424194 68.0
111.438904 44.0
111.556587 196.0
111.65744 116.0
111.731133 220.0
111.790047 40.0
111.828506 88.0
111.846878 116.0
111.992157 184.0
112.005798 128.0
112.030075 224.0
112.110138 168.0
112.135429 128.0
112.219749 148.0
112.363167 132.0
112.424355 52.0
112.582169 212.0
112.62281 132.0
112.6744 176.0
112.77494 168.0
112.844696 156.0
112.86161 168.0
112.992744 184.0
113.006775 124.0
113.060394 160.0
113.082039 180.0
113.113365 140.0
113.134537 80.0
113.212875 156.0
113.325142 200.0
113.441704 36.0
113.530754 176.0
113.632568 172.0
113.681374 64.0
113.715919 200.0
114.023285 120.0
114.064606 264.0
114.146584 172.0
114.265694 144.0
114.313011 184.0
114.34655 164.0
114.365707 56.0
114.467781 228.0
114.559479 140.0
114.574387 152.0
114.651093 136.0
114.744034 292.0
114.845108 132.0
114.91124 128.0
114.956604 168.0
115.011536 240.0
115.026474 188.0
115.053627 704.0
115.075371 204.0
115.156052 184.0
115.218666 96.0
115.268723 204.0
115.304138 136.0
115.329788 92.0
115.473038 172.0
115.629219 140.0
115.781219 88.0
115.944038 112.0
116.059181 556.0
116.145576 176.0
116.299103 224.0
116.327965 168.0
116.353729 180.0
116.437469 140.0
116.467537 192.0
116.508354 340.0
116.600746 140.0
116.615791 92.0
116.684578 168.0
116.798553 196.0
116.924225 208.0
116.981461 400.0
117.022362 140.0
117.056099 676.0
117.070702 1316.0
117.201134 136.0
117.22229 176.0
117.466309 196.0
117.487877 164.0
117.556923 156.0
117.580658 72.0
117.60656 192.0
117.656212 76.0
117.800896 148.0
117.945671 64.0
117.999718 88.0
118.058098 152.0
118.076485 348.0
118.170578 104.0
118.306923 88.0
118.352386 112.0
118.404358 168.0
118.420181 180.0
118.653542 192.0
118.669716 180.0
118.729439 160.0
118.811859 192.0
118.831383 232.0
118.872612 128.0
119.000671 100.0
119.020218 140.0
119.048584 176.0
119.086723 3052.0
119.148361 256.0
119.174431 236.0
119.247673 204.0
119.263527 148.0
119.363533 92.0
119.380928 156.0
119.507088 208.0
119.594139 96.0
119.614189 188.0
119.674683 140.0
119.708115 140.0
119.7509 172.0
119.87072 92.0
120.027603 144.0
120.059883 256.0
120.091339 380.0
120.138893 184.0
120.180351 136.0
120.232719 224.0
120.254303 144.0
120.291649 40.0
120.816116 136.0
120.844673 152.0
120.86644 144.0
120.980247 72.0
121.034981 156.0
121.066353 8920.0
121.102455 1400.0
121.154747 76.0
121.199257 152.0
121.29203 228.0
121.350494 172.0
121.459923 80.0
121.513496 124.0
121.60495 144.0
121.635681 152.0
121.753265 188.0
121.837708 28.0
121.895363 168.0
121.958572 132.0
121.98275 284.0
122.069336 1520.0
122.104439 404.0
122.163956 188.0
122.220268 72.0
122.270882 132.0
122.297287 140.0
122.321106 220.0
122.36113 124.0
122.453613 176.0
122.524101 136.0
122.567215 176.0
122.611122 140.0
122.668976 140.0
122.722458 252.0
122.819489 156.0
122.83934 160.0
123.020287 68.0
123.045761 312.0
123.081818 1652.0
123.119568 204.0
123.227882 148.0
123.429016 80.0
123.453346 132.0
123.473244 72.0
123.574997 200.0
123.592697 212.0
123.612617 168.0
123.716637 196.0
123.893806 176.0
123.918175 88.0
124.004593 132.0
124.085533 492.0
124.177528 148.0
124.237419 172.0
124.257385 164.0
124.461578 156.0
124.483788 204.0
124.61261 236.0
124.694832 200.0
124.794861 128.0
125.015076 52.0
125.059387 364.0
125.096382 340.0
125.208755 44.0
125.30899 172.0
125.38784 188.0
125.43602 116.0
125.522964 132.0
125.569801 44.0
125.922432 184.0
126.053047 196.0
126.073051 172.0
126.152573 240.0
126.607353 264.0
126.687408 168.0
126.999611 324.0
127.019173 120.0
127.053055 224.0
127.22113 184.0
127.257057 188.0
127.344635 192.0
127.400787 80.0
127.421005 188.0
127.437737 152.0
127.495155 76.0
127.522125 156.0
127.567078 108.0
127.655624 188.0
127.746979 184.0
127.800972 52.0
127.913498 132.0
127.931511 188.0
128.008057 60.0
128.062714 1740.0
128.235596 140.0
128.339294 144.0
128.406937 52.0
128.461075 96.0
128.506195 100.0
128.707077 48.0
128.874222 132.0
128.967178 172.0
129.02565 72.0
129.071136 1384.0
129.092392 328.0
129.213348 108.0
129.278976 108.0
129.369507 96.0
129.558319 204.0
129.584656 172.0
129.623169 184.0
129.720627 148.0
129.849869 28.0
129.961029 240.0
129.988251 180.0
130.010941 124.0
130.077209 264.0
130.115356 140.0
130.22435 196.0
130.451569 104.0
130.59256 116.0
130.610748 124.0
130.688095 100.0
130.715408 60.0
130.847412 100.0
130.881561 232.0
130.94989 152.0
131.027328 156.0
131.049408 408.0
131.086533 2480.0
131.141266 116.0
131.161789 68.0
131.198257 88.0
131.214218 216.0
131.232452 88.0
131.38298 92.0
131.52446 216.0
131.551849 164.0
131.572388 76.0
131.607178 104.0
131.63176 140.0
131.869339 152.0
131.901337 156.0
131.93335 80.0
131.98822 140.0
132.056915 840.0
132.088547 392.0
132.127731 36.0
132.156433 96.0
132.179123 140.0
132.227234 124.0
132.25589 68.0
132.290222 48.0
132.356613 44.0
132.629227 244.0
132.656738 180.0
132.672791 48.0
132.709473 136.0
132.842484 184.0
132.941147 152.0
132.973267 352.0
133.065887 1068.0
133.100662 1076.0
133.143158 36.0
133.159241 116.0
133.189102 112.0
133.230438 48.0
133.256134 108.0
133.299377 164.0
133.368317 116.0
133.593658 200.0
133.653488 104.0
133.773773 208.0
133.858337 184.0
133.906708 128.0
133.980423 172.0
134.070908 624.0
134.105453 264.0
134.171692 112.0
134.222412 244.0
134.261627 88.0
134.35849 152.0
134.38324 144.0
134.478485 88.0
134.494644 164.0
134.559677 212.0
134.600372 196.0
134.776382 156.0
134.938171 128.0
135.029404 160.0
135.037476 72.0
135.043823 228.0
135.081482 4952.0
135.117142 240.0
135.134766 252.0
135.262054 176.0
135.287506 112.0
135.356964 48.0
135.433395 124.0
135.505203 116.0
135.529846 176.0
135.577042 112.0
135.618759 36.0
135.736984 80.0
135.794968 124.0
135.851639 180.0
135.883118 36.0
135.996811 164.0
136.020035 156.0
136.085693 840.0
136.118851 120.0
136.165283 236.0
136.229019 28.0
136.285965 164.0
136.342865 216.0
136.424225 156.0
136.500946 132.0
136.540482 172.0
136.835999 200.0
136.877914 152.0
136.938461 176.0
136.9897 112.0
137.065002 348.0
137.098389 396.0
137.143494 164.0
137.192444 148.0
137.208755 188.0
137.404663 36.0
137.495667 136.0
137.612381 112.0
137.656738 244.0
137.70578 112.0
137.768845 92.0
137.794556 76.0
137.856522 200.0
137.965149 124.0
138.035294 164.0
138.062576 60.0
138.175629 156.0
138.245834 152.0
138.283279 148.0
138.655655 132.0
138.70665 128.0
138.749344 132.0
138.843201 148.0
138.887772 196.0
138.913574 120.0
139.073563 216.0
139.111282 200.0
139.197556 188.0
139.225739 148.0
139.307938 64.0
139.561768 36.0
139.651123 156.0
139.888702 136.0
139.914673 104.0
140.088882 180.0
140.279816 160.0
140.4095 172.0
140.525085 80.0
140.562836 160.0
140.581955 236.0
140.680832 116.0
140.699722 156.0
140.728058 144.0
141.070068 1732.0
141.107147 144.0
141.210129 48.0
141.264526 196.0
141.300003 104.0
141.326035 192.0
141.397018 168.0
141.524857 152.0
141.57695 128.0
141.683533 132.0
141.738037 144.0
141.761719 104.0
141.806747 204.0
141.941879 60.0
142.078094 560.0
142.10524 124.0
142.145874 156.0
142.283539 164.0
142.428391 52.0
142.604218 244.0
142.670776 140.0
142.706436 204.0
142.73259 64.0
142.752609 212.0
142.87529 88.0
143.001419 216.0
143.029755 172.0
143.085632 3116.0
143.349106 236.0
143.394547 168.0
143.451599 132.0
143.48735 160.0
143.506424 144.0
143.654282 180.0
143.706772 88.0
143.740173 44.0
143.888153 172.0
143.914429 168.0
144.012329 96.0
144.056015 1612.0
144.091354 776.0
144.334106 188.0
144.425827 248.0
144.454529 144.0
144.519119 132.0
144.569382 160.0
144.614853 96.0
144.675842 108.0
144.717789 208.0
144.813568 148.0
145.06575 3448.0
145.101349 1712.0
145.137085 140.0
145.158661 76.0
145.216217 172.0
145.242615 108.0
145.518585 172.0
145.540192 172.0
145.573807 160.0
145.595413 124.0
145.619431 112.0
145.785202 44.0
145.883743 68.0
146.032822 176.0
146.07222 1000.0
146.091858 236.0
146.105042 188.0
146.1483 236.0
146.213272 124.0
146.289474 164.0
146.295502 196.0
146.343262 76.0
146.396225 108.0
146.502213 112.0
146.654007 140.0
146.675705 100.0
146.79866 96.0
146.825195 116.0
146.875839 168.0
146.919266 52.0
147.020309 132.0
147.033142 144.0
147.081802 19392.0
147.114288 308.0
147.155777 36.0
147.220963 164.0
147.236862 152.0
147.300674 68.0
147.368317 164.0
147.406967 56.0
147.481888 20.0
147.585358 156.0
147.599335 76.0
147.603485 108.0
147.745468 140.0
147.776917 68.0
147.798691 184.0
147.939072 136.0
148.011703 240.0
148.084793 2572.0
148.169128 40.0
148.222443 160.0
148.266052 36.0
148.28302 180.0
148.350891 100.0
148.398514 204.0
148.63707 64.0
148.655579 180.0
148.664978 112.0
148.677307 124.0
148.681549 184.0
148.719589 84.0
148.838547 256.0
148.857971 40.0
148.91626 56.0
148.940536 64.0
148.984268 96.0
149.00856 60.0
149.061493 188.0
149.095978 2772.0
149.152374 144.0
149.1884 80.0
149.212051 148.0
149.239639 188.0
149.266205 68.0
149.300247 72.0
149.373215 184.0
149.399963 156.0
149.419434 32.0
149.492432 40.0
149.598969 160.0
149.655518 188.0
149.689606 108.0
149.934784 88.0
150.029434 176.0
150.097198 488.0
150.133118 112.0
150.255066 172.0
150.386841 184.0
150.411255 40.0
150.48204 136.0
150.501572 184.0
150.574844 232.0
150.662766 140.0
150.858276 156.0
150.904724 104.0
150.940689 164.0
150.99765 80.0
151.056992 196.0
151.07637 764.0
151.111084 468.0
151.164001 192.0
151.239868 176.0
151.313309 128.0
151.337784 48.0
151.536179 116.0
151.678314 196.0
151.749405 168.0
151.818054 136.0
151.894089 72.0
152.014313 188.0
152.065491 160.0
152.171402 172.0
152.200867 148.0
152.227875 132.0
152.279449 96.0
152.355591 128.0
152.417007 156.0
152.434219 80.0
152.591522 152.0
152.773514 168.0
152.793198 212.0
153.075027 300.0
153.092072 1020.0
153.238815 184.0
153.295486 152.0
153.412384 220.0
153.756638 132.0
153.781311 176.0
153.801056 168.0
153.878952 72.0
154.079422 520.0
154.136932 144.0
154.173996 116.0
154.300064 152.0
154.3965 156.0
154.549866 128.0
154.569656 100.0
154.861771 116.0
154.911316 196.0
155.05925 348.0
155.085083 1788.0
155.134338 148.0
155.211197 72.0
155.389786 180.0
155.481598 124.0
155.743668 236.0
155.809586 272.0
155.893829 136.0
155.948502 164.0
156.057434 372.0
156.088928 508.0
156.135635 164.0
156.219543 204.0
156.378784 56.0
156.426071 144.0
156.538116 144.0
156.630356 136.0
156.685074 168.0
156.754837 136.0
156.797195 200.0
156.842056 104.0
156.886932 112.0
157.065887 836.0
157.100067 1360.0
157.186218 160.0
157.298538 104.0
157.333481 80.0
157.38591 76.0
157.445847 164.0
157.528259 88.0
157.643188 108.0
157.900681 140.0
157.945709 120.0
158.074585 1912.0
158.10524 448.0
158.393768 44.0
158.448868 88.0
158.476425 108.0
158.519028 148.0
158.554108 104.0
158.609253 196.0
158.639328 172.0
158.65979 176.0
158.729584 224.0
158.770416 272.0
158.842911 172.0
158.998001 104.0
159.080704 7380.0
159.117523 388.0
159.154816 244.0
159.196335 72.0
159.279205 48.0
159.306839 40.0
159.447556 48.0
159.505356 60.0
159.540558 124.0
159.621658 184.0
159.787018 52.0
160.038696 144.0
160.084335 1432.0
160.115494 88.0
160.219452 156.0
160.275818 228.0
160.337204 124.0
160.46701 40.0
160.484665 116.0
160.502319 80.0
160.646072 52.0
160.714188 156.0
160.789886 120.0
160.883286 64.0
160.906006 64.0
160.990128 280.0
161.059647 724.0
161.096512 4564.0
161.1259 328.0
161.161087 80.0
161.232712 76.0
161.254593 128.0
161.282394 144.0
161.300095 92.0
161.320312 76.0
161.35318 164.0
161.383514 100.0
161.477081 136.0
161.53273 160.0
161.603561 104.0
161.983307 136.0
162.1008 880.0
162.132782 36.0
162.150528 180.0
162.178406 128.0
162.221497 80.0
162.452255 52.0
162.480164 164.0
162.525833 152.0
162.567169 216.0
162.680649 224.0
163.03624 204.0
163.054031 160.0
163.074951 1028.0
163.105209 320.0
163.196381 200.0
163.259949 168.0
163.440552 140.0
163.649261 188.0
163.715469 44.0
163.925217 160.0
164.085114 420.0
164.141037 180.0
164.255356 156.0
164.375702 120.0
164.457367 208.0
164.58757 180.0
164.679504 224.0
164.880798 248.0
165.070694 1308.0
165.090393 364.0
165.321198 96.0
165.344238 156.0
165.433823 136.0
165.630997 420.0
165.661728 124.0
166.078629 608.0
166.18985 228.0
166.387482 68.0
166.405457 108.0
166.616043 160.0
166.729111 188.0
166.847336 252.0
166.888474 128.0
166.924469 40.0
167.086578 1604.0
167.155991 136.0
167.31813 168.0
167.367844 196.0
167.578262 56.0
167.676926 208.0
167.712265 232.0
167.766388 48.0
167.815384 116.0
167.835999 168.0
168.058929 196.0
168.069168 316.0
168.092392 344.0
168.181686 100.0
168.235901 124.0
168.284958 196.0
168.455399 200.0
168.605255 144.0
168.654373 136.0
168.827591 52.0
168.943985 232.0
169.037125 148.0
169.064499 788.0
169.1017 1244.0
169.329651 176.0
169.469543 140.0
169.575058 144.0
169.635391 148.0
169.658722 192.0
169.754669 80.0
169.819504 76.0
169.881744 264.0
169.899902 56.0
169.982941 176.0
170.073929 620.0
170.106262 316.0
170.264359 196.0
170.343811 132.0
170.366959 180.0
170.437347 56.0
170.547119 116.0
170.616669 116.0
170.658279 48.0
170.692078 88.0
170.858536 204.0
171.02507 216.0
171.081329 10144.0
171.115356 656.0
171.210663 28.0
171.247757 76.0
171.345367 92.0
171.371429 160.0
171.41832 68.0
171.462631 64.0
171.496506 68.0
171.546036 88.0
171.676407 144.0
171.702484 40.0
171.740005 92.0
171.767685 220.0
171.907379 104.0
172.018188 68.0
172.085373 2368.0
172.1185 304.0
172.171036 104.0
172.200958 60.0
172.234924 76.0
172.284546 136.0
172.318512 92.0
172.339417 176.0
172.453705 120.0
172.483154 80.0
172.59462 132.0
172.619095 32.0
172.681854 120.0
172.802185 168.0
172.846664 144.0
172.888535 56.0
172.90686 64.0
172.953964 48.0
172.988007 104.0
173.064514 248.0
173.096451 6144.0
173.128693 132.0
173.186996 92.0
173.247253 196.0
173.276062 104.0
173.353561 132.0
173.391357 72.0
173.428055 88.0
173.484863 156.0
173.557877 352.0
173.661407 60.0
173.690262 60.0
173.708618 84.0
173.732224 132.0
173.758469 56.0
173.850296 48.0
173.906082 156.0
174.044556 204.0
174.099014 2468.0
174.16272 52.0
174.225769 36.0
174.265182 76.0
174.359772 136.0
174.625305 60.0
174.685806 208.0
175.025314 152.0
175.072052 472.0
175.079391 496.0
175.108978 1388.0
175.301895 152.0
175.332703 52.0
175.365143 72.0
175.515411 112.0
175.533875 80.0
175.634079 188.0
175.955017 212.0
176.029953 36.0
176.065582 172.0
176.120041 204.0
176.279129 116.0
176.354904 32.0
176.42363 168.0
176.513519 164.0
176.706604 160.0
176.762177 144.0
176.854797 152.0
177.090759 1484.0
177.122223 144.0
177.456131 132.0
177.694839 216.0
177.731979 368.0
177.750549 76.0
177.87529 48.0
178.081818 608.0
178.119583 136.0
178.930664 172.0
179.007874 80.0
179.085648 2280.0
179.277756 208.0
179.391541 80.0
179.455521 96.0
179.772934 100.0
179.861008 32.0
180.093033 788.0
180.253601 40.0
180.619873 148.0
180.657318 80.0
180.777725 56.0
181.063751 344.0
181.09964 1016.0
181.126862 128.0
181.37912 116.0
181.479507 172.0
181.543869 152.0
181.605545 68.0
181.667252 216.0
181.699432 92.0
181.718216 96.0
181.744415 168.0
181.774567 128.0
181.814819 136.0
181.857758 116.0
181.881912 176.0
181.957077 144.0
181.997345 72.0
182.026886 140.0
182.074493 384.0
182.114349 432.0
182.177292 188.0
182.292831 176.0
182.443344 52.0
182.540131 92.0
182.653671 148.0
182.822586 40.0
183.081375 3048.0
183.116867 572.0
183.229172 124.0
183.280365 176.0
183.38147 92.0
183.531036 192.0
183.698242 196.0
183.722519 36.0
184.088699 612.0
184.160904 208.0
184.311096 224.0
184.33812 132.0
184.427292 164.0
184.448929 180.0
184.492172 44.0
184.627365 128.0
184.76532 188.0
184.805893 136.0
184.851898 140.0
184.889786 136.0
184.994553 124.0
185.030533 52.0
185.058502 576.0
185.096436 6500.0
185.135422 200.0
185.252594 120.0
185.316391 92.0
185.374527 72.0
185.488358 44.0
185.545273 40.0
185.868042 116.0
185.904541 44.0
186.066162 148.0
186.098511 1292.0
186.140656 148.0
186.204651 128.0
186.258972 192.0
186.30394 196.0
186.329605 120.0
186.451874 80.0
186.56604 100.0
186.585068 160.0
186.65033 60.0
186.715591 116.0
186.802628 80.0
186.96315 64.0
186.982208 52.0
187.040848 204.0
187.074677 2516.0
187.111099 1232.0
187.165924 156.0
187.238113 48.0
187.311661 128.0
187.366135 72.0
187.436981 72.0
187.685013 240.0
187.72319 152.0
187.881393 64.0
188.077026 416.0
188.115616 332.0
188.178864 28.0
188.457458 144.0
188.585892 96.0
188.728043 44.0
188.774536 140.0
188.829224 152.0
189.067886 464.0
189.087479 604.0
189.116806 168.0
189.168518 216.0
189.321838 180.0
189.393051 232.0
189.44783 52.0
189.653351 96.0
189.697205 40.0
189.850739 184.0
189.943985 48.0
189.982391 216.0
190.025772 188.0
190.077911 500.0
190.179962 104.0
190.373566 108.0
190.542435 128.0
190.644104 116.0
190.743042 224.0
190.821884 124.0
190.864014 84.0
190.968506 52.0
191.086502 980.0
191.109665 440.0
191.287689 124.0
191.328979 184.0
191.430298 116.0
191.477676 176.0
191.516235 100.0
191.535522 176.0
191.607132 80.0
191.635864 196.0
191.816574 124.0
191.866669 232.0
191.893768 96.0
192.0513 188.0
192.095276 1208.0
192.255112 200.0
192.522888 160.0
192.60022 140.0
192.696915 116.0
192.879303 76.0
192.915985 192.0
192.992645 108.0
193.102249 1764.0
193.510498 144.0
193.532181 60.0
193.576492 128.0
193.742661 172.0
193.872894 96.0
194.028107 236.0
194.07309 500.0
194.106277 1528.0
194.261063 64.0
194.39978 148.0
194.482422 160.0
194.732925 104.0
194.888489 96.0
194.913498 248.0
195.08165 1632.0
195.116043 1372.0
195.147705 172.0
195.18869 164.0
195.217346 156.0
195.308273 180.0
195.436234 180.0
195.489105 196.0
195.51416 80.0
195.569809 64.0
195.748825 188.0
195.92067 168.0
196.087021 2020.0
196.1259 256.0
196.174271 68.0
196.193787 156.0
196.238388 152.0
196.297546 216.0
196.351425 104.0
196.430817 208.0
196.497772 204.0
196.584259 232.0
196.613449 148.0
196.659622 156.0
196.709213 156.0
196.916473 48.0
196.958374 136.0
197.022629 92.0
197.058945 68.0
197.096207 4428.0
197.130142 324.0
197.307678 172.0
197.385971 60.0
197.447495 172.0
197.531403 92.0
197.617111 92.0
197.802826 128.0
197.9216 84.0
198.057144 136.0
198.068481 112.0
198.073898 164.0
198.103241 1376.0
198.129578 140.0
198.256546 164.0
198.396698 148.0
198.506042 72.0
198.559326 140.0
198.60701 124.0
198.638916 128.0
198.820236 192.0
198.98584 132.0
199.076569 640.0
199.110794 1940.0
199.147293 168.0
199.227371 176.0
199.39595 184.0
199.544937 84.0
199.573044 80.0
199.65741 108.0
199.716476 148.0
200.07103 156.0
200.114532 456.0
200.15831 316.0
200.347015 184.0
200.386459 64.0
200.552719 132.0
200.617554 84.0
200.676758 116.0
200.962006 176.0
201.092422 292.0
201.128281 660.0
201.450027 196.0
201.58847 56.0
201.701508 128.0
201.806107 44.0
201.871155 112.0
201.958817 160.0
201.981445 68.0
202.080856 672.0
202.130417 392.0
202.295547 116.0
202.609879 176.0
202.771393 32.0
202.799744 72.0
202.924469 164.0
203.086166 880.0
203.265457 128.0
203.289948 184.0
203.420929 104.0
203.560547 68.0
203.608322 88.0
203.855469 88.0
203.886734 68.0
204.034546 224.0
204.094131 2976.0
204.250656 240.0
204.324631 152.0
204.899124 176.0
205.003342 140.0
205.060043 156.0
205.100021 1324.0
205.220428 136.0
205.261688 56.0
205.310165 124.0
205.367203 84.0
205.495575 144.0
205.526962 212.0
205.604004 64.0
205.712463 120.0
206.067337 332.0
206.108902 544.0
206.143738 152.0
206.163742 108.0
206.303787 164.0
206.395279 92.0
206.449615 36.0
206.549713 84.0
206.669861 232.0
206.698486 148.0
206.759079 180.0
206.913147 172.0
206.953232 128.0
207.03743 188.0
207.080872 816.0
207.119263 1988.0
207.328476 92.0
207.362869 136.0
207.385803 104.0
207.480392 124.0
207.514801 140.0
208.022583 136.0
208.087936 2380.0
208.121399 524.0
208.189102 84.0
208.344208 56.0
208.456268 184.0
208.507996 72.0
208.611465 48.0
208.64447 100.0
208.74704 192.0
208.783981 160.0
208.838623 168.0
208.95369 144.0
209.016983 104.0
209.09465 4492.0
209.131378 1044.0
209.183914 164.0
209.255875 216.0
209.405624 56.0
209.445938 96.0
209.471863 44.0
209.538132 64.0
209.760025 116.0
209.783081 68.0
210.102173 2576.0
210.191391 84.0
210.2379 64.0
210.279205 156.0
210.46106 48.0
210.482376 136.0
210.539032 180.0
210.63768 104.0
210.703674 124.0
210.752792 188.0
210.801102 148.0
210.888611 156.0
210.908844 116.0
211.030258 36.0
211.078735 680.0
211.112289 5092.0
211.155167 124.0
211.162704 144.0
211.229797 204.0
211.278976 40.0
211.513382 176.0
211.54248 76.0
211.76239 80.0
211.797134 132.0
211.965164 60.0
212.031815 112.0
212.055008 48.0
212.084457 192.0
212.116333 3308.0
212.186569 124.0
212.347839 144.0
212.408737 232.0
212.434845 144.0
212.504471 84.0
212.637955 100.0
212.671768 136.0
212.713425 64.0
212.873108 92.0
212.92247 28.0
213.032852 148.0
213.092392 916.0
213.12561 2236.0
213.210083 36.0
213.235077 40.0
213.255432 60.0
213.329254 100.0
213.406296 120.0
213.567688 72.0
213.838287 144.0
214.095551 396.0
214.127167 276.0
214.248856 76.0
214.557755 36.0
214.785217 104.0
214.858139 88.0
214.969025 160.0
215.105087 832.0
215.130112 152.0
215.348541 48.0
215.497528 92.0
215.558884 120.0
215.599213 100.0
215.903824 108.0
216.012054 108.0
216.044235 72.0
216.095734 308.0
216.251984 148.0
216.319305 136.0
216.692261 148.0
217.102158 1012.0
217.242371 92.0
217.280518 96.0
217.31572 76.0
217.427231 164.0
217.482986 172.0
217.612152 140.0
217.905853 280.0
218.008698 180.0
218.038086 192.0
218.071106 216.0
218.107468 300.0
218.26149 28.0
218.311478 200.0
218.493851 188.0
218.52327 92.0
218.764587 164.0
218.785202 104.0
218.847031 44.0
218.876465 148.0
218.932419 160.0
219.079178 788.0
219.116898 2268.0
219.371429 200.0
219.501144 48.0
219.9673 76.0
220.086823 1008.0
220.123459 952.0
220.354156 48.0
220.419159 156.0
220.717697 160.0
220.738403 164.0
220.800507 48.0
220.954315 152.0
221.095795 3716.0
221.130463 376.0
221.159378 188.0
221.18782 84.0
221.198059 132.0
221.353897 36.0
221.383499 208.0
221.420303 84.0
221.472351 88.0
221.567139 52.0
221.656036 144.0
221.679733 80.0
221.721222 36.0
221.750854 48.0
221.792358 156.0
221.836823 184.0
221.860535 124.0
222.020645 128.0
222.061111 272.0
222.103424 9540.0
222.16774 156.0
222.222397 196.0
222.320267 92.0
222.346985 48.0
222.477585 48.0
222.536957 56.0
222.712173 68.0
222.753754 108.0
222.819107 60.0
222.896362 172.0
222.970657 140.0
223.055481 168.0
223.110901 5356.0
223.196579 64.0
223.235229 140.0
223.437485 108.0
223.5327 92.0
223.598175 28.0
223.62793 100.0
223.651749 100.0
223.678528 120.0
223.775391 60.0
223.875031 32.0
223.973312 56.0
224.018005 132.0
224.038849 144.0
224.083008 336.0
224.118973 2532.0
224.190811 52.0
224.247437 168.0
224.324936 48.0
224.354736 276.0
224.414368 48.0
224.638046 52.0
224.721573 172.0
224.769318 124.0
224.873764 56.0
224.97226 60.0
225.049881 176.0
225.089172 468.0
225.126907 3760.0
225.199203 80.0
225.232056 96.0
225.25296 212.0
225.330627 40.0
225.408325 116.0
225.42923 160.0
225.456131 60.0
225.483032 120.0
225.620529 80.0
225.71022 80.0
225.802917 32.0
225.99736 36.0
226.096024 548.0
226.131348 1112.0
226.338593 128.0
226.384827 100.0
226.461365 136.0
226.548233 160.0
226.575195 104.0
226.699661 52.0
226.751984 88.0
226.818771 212.0
227.104126 292.0
227.142975 6152.0
227.19577 208.0
227.354782 52.0
227.432816 52.0
227.510864 76.0
227.612946 124.0
227.754105 88.0
227.826187 64.0
227.856232 128.0
227.8983 56.0
228.093048 344.0
228.105408 224.0
228.146698 888.0
228.23494 28.0
228.307098 144.0
228.328156 68.0
228.43042 112.0
228.488342 172.0
228.668121 80.0
228.710251 80.0
228.755402 192.0
228.939072 120.0
229.105316 672.0
229.148834 420.0
229.324692 68.0
229.400055 132.0
229.46637 64.0
229.599045 120.0
229.746841 164.0
230.104538 252.0
230.150375 176.0
230.205627 88.0
230.368713 64.0
230.444244 68.0
230.507706 180.0
230.616501 84.0
230.776718 56.0
230.806946 128.0
230.855331 32.0
231.077377 376.0
231.117828 1092.0
231.172958 128.0
231.203217 116.0
231.339432 132.0
231.539261 56.0
231.678604 112.0
231.820999 60.0
231.917984 132.0
232.011948 152.0
232.087158 960.0
232.114883 396.0
232.149902 200.0
232.333405 240.0
232.472977 196.0
232.53064 156.0
232.776535 108.0
232.885864 124.0
232.96875 212.0
233.031677 232.0
233.096756 1308.0
233.134399 484.0
233.177536 60.0
233.499802 200.0
233.600174 88.0
233.621475 104.0
233.682327 256.0
233.761429 64.0
233.974487 180.0
234.103592 2000.0
234.138977 384.0
234.495361 136.0
234.53804 52.0
234.562424 60.0
234.64473 128.0
234.705719 140.0
234.739258 112.0
235.001572 176.0
235.056686 124.0
235.111832 5736.0
235.14563 504.0
235.190781 40.0
235.242661 64.0
235.355453 68.0
235.416199 248.0
235.459457 60.0
235.493042 84.0
235.514435 68.0
235.615234 64.0
235.758835 204.0
235.80162 156.0
235.846542 184.0
235.951401 32.0
236.118134 2300.0
236.148987 712.0
236.196045 64.0
236.349014 48.0
236.394913 28.0
236.483658 72.0
236.560181 176.0
236.599976 156.0
236.673004 80.0
236.863342 156.0
236.893967 156.0
237.006042 124.0
237.037964 36.0
237.091187 508.0
237.127945 12300.0
237.210663 188.0
237.289307 232.0
237.325302 72.0
237.38829 224.0
237.488632 96.0
237.62973 64.0
237.905945 44.0
237.955063 64.0
238.026489 168.0
238.059464 48.0
238.099731 792.0
238.1315 3100.0
238.266785 120.0
238.372787 64.0
238.415817 132.0
238.443466 72.0
238.480347 104.0
238.551056 84.0
238.781662 120.0
238.84317 48.0
238.996994 52.0
239.028534 272.0
239.105652 1228.0
239.142014 3484.0
239.230896 152.0
239.403305 48.0
239.57579 56.0
239.668213 112.0
239.695953 36.0
239.839401 88.0
239.890121 100.0
239.943253 128.0
239.97644 44.0
240.108627 256.0
240.115631 472.0
240.145157 852.0
240.218246 128.0
240.312622 124.0
240.36058 148.0
240.50087 52.0
240.809616 152.0
240.923904 104.0
240.957886 160.0
241.123383 552.0
241.159454 244.0
241.183472 152.0
241.445572 160.0
242.109665 776.0
242.132996 148.0
242.140778 208.0
242.167892 176.0
242.223145 136.0
242.353256 108.0
242.740723 44.0
242.777176 132.0
242.967133 108.0
243.075729 116.0
243.113129 1176.0
243.681198 156.0
244.088226 500.0
244.125839 592.0
244.175446 104.0
244.682648 52.0
244.87944 120.0
244.931763 108.0
244.966034 160.0
245.006531 136.0
245.056381 52.0
245.098557 700.0
245.132767 964.0
245.205948 160.0
245.39299 140.0
245.527069 96.0
245.588593 128.0
245.753189 84.0
245.879593 152.0
246.007568 124.0
246.041916 152.0
246.105438 1504.0
246.139236 752.0
246.210526 128.0
246.24176 28.0
246.285477 56.0
246.337311 168.0
246.460419 44.0
246.87616 116.0
246.898056 52.0
246.92308 88.0
247.004395 168.0
247.110138 1828.0
247.144653 1132.0
247.217148 60.0
247.242188 52.0
247.28746 32.0
247.345474 104.0
247.379898 36.0
247.419128 120.0
247.553085 76.0
248.119553 2420.0
248.48616 124.0
248.991531 76.0
249.024597 108.0
249.084229 188.0
249.126785 3084.0
249.223984 80.0
249.245987 116.0
249.305695 52.0
249.576019 104.0
249.748978 40.0
249.88739 156.0
249.956619 100.0
250.1306 1156.0
250.172363 272.0
250.378448 308.0
250.44458 64.0
250.472931 56.0
250.573746 104.0
250.639908 60.0
250.974014 176.0
251.040237 124.0
251.105103 580.0
251.143005 2072.0
251.261017 252.0
251.649216 100.0
251.690262 128.0
251.768082 56.0
252.088272 184.0
252.11557 172.0
252.147568 460.0
252.390518 136.0
252.409348 196.0
252.698532 136.0
252.741043 64.0
252.961197 76.0
253.02562 156.0
253.119095 2036.0
253.157089 3688.0
253.205002 128.0
253.298752 60.0
253.635895 124.0
253.788071 120.0
253.841965 148.0
253.962479 160.0
254.073502 80.0
254.126236 524.0
254.158188 972.0
254.219849 64.0
254.51149 60.0
254.733795 48.0
254.978455 120.0
255.076904 156.0
255.136154 1140.0
255.407684 92.0
255.929596 100.0
256.085175 172.0
256.12915 252.0
256.181183 136.0
256.270386 32.0
256.330933 176.0
256.404236 76.0
256.442474 164.0
256.754913 124.0
257.096222 296.0
257.129944 1112.0
257.55603 56.0
257.747711 144.0
257.773254 148.0
257.840363 140.0
257.865936 104.0
258.064117 144.0
258.108093 600.0
258.135284 460.0
258.187408 116.0
258.246399 136.0
258.39328 244.0
258.710388 168.0
258.735992 84.0
258.912109 40.0
258.977661 128.0
259.065857 88.0
259.112061 720.0
259.146271 968.0
259.238861 40.0
259.399109 128.0
259.530548 120.0
259.89621 92.0
260.115997 1672.0
260.15332 504.0
260.185059 172.0
260.284607 248.0
260.319916 80.0
260.429108 44.0
260.551178 72.0
260.901459 112.0
260.943268 108.0
260.990173 224.0
261.084869 316.0
261.126556 3556.0
261.445038 140.0
261.481232 84.0
261.557709 36.0
262.018188 80.0
262.099182 344.0
262.133728 2664.0
262.24881 64.0
262.440399 232.0
262.769379 144.0
262.900208 44.0
262.966217 44.0
263.004944 88.0
263.064453 152.0
263.10849 716.0
263.144073 5772.0
263.427948 36.0
263.541016 68.0
263.586273 104.0
263.967682 64.0
264.064697 152.0
264.14859 1464.0
264.410889 148.0
264.513336 68.0
264.581451 168.0
264.859833 140.0
264.987274 52.0
265.061798 100.0
265.100891 148.0
265.157257 1336.0
265.201996 152.0
265.343781 60.0
265.57724 256.0
266.063995 80.0
266.116669 268.0
266.160736 504.0
266.45047 92.0
266.531677 88.0
266.746185 144.0
266.831787 96.0
266.938019 164.0
267.038818 76.0
267.139679 456.0
267.17218 784.0
267.302338 104.0
267.705963 108.0
268.077332 84.0
268.125854 364.0
268.136902 348.0
268.180359 164.0
268.931793 52.0
269.124725 188.0
269.151917 140.0
269.191315 384.0
269.219116 160.0
269.366089 100.0
269.473877 116.0
269.519623 112.0
269.562103 128.0
270.026306 104.0
270.085205 188.0
270.108093 136.0
270.135742 324.0
270.523682 80.0
270.713562 156.0
271.111115 1404.0
271.150024 124.0
271.267273 36.0
271.389221 120.0
271.933105 84.0
272.120972 1380.0
272.231873 44.0
272.468353 88.0
272.708252 80.0
272.823273 200.0
273.124725 796.0
273.169098 272.0
273.431793 40.0
273.691864 104.0
274.133881 1112.0
274.248596 48.0
274.660736 136.0
274.852081 128.0
275.056702 164.0
275.108063 356.0
275.141632 1808.0
275.565277 160.0
276.150604 3112.0
276.199249 200.0
276.454742 64.0
276.991089 88.0
277.070587 88.0
277.128479 908.0
277.158051 3372.0
277.205963 120.0
277.3125 32.0
277.345642 56.0
277.392059 32.0
277.431824 40.0
277.667236 40.0
278.071991 88.0
278.16568 1580.0
278.254578 192.0
278.294403 68.0
278.699615 56.0
278.952209 40.0
278.998749 124.0
279.038635 60.0
279.135895 652.0
279.170227 1932.0
279.218201 160.0
279.254791 184.0
279.288055 68.0
279.334625 80.0
279.477661 92.0
279.577484 88.0
279.650726 76.0
279.773865 36.0
279.88562 100.0
279.97699 88.0
280.112488 164.0
280.139709 312.0
280.175476 556.0
280.30011 108.0
280.386749 48.0
280.500061 40.0
280.693451 148.0
280.868744 120.0
280.966949 64.0
281.117188 160.0
281.155029 372.0
281.182129 388.0
281.277283 40.0
281.783203 104.0
281.955292 60.0
282.125763 156.0
282.157471 340.0
282.193878 184.0
282.767975 108.0
283.069275 176.0
283.099426 112.0
283.147705 788.0
284.152344 240.0
285.123627 680.0
285.149689 300.0
285.186188 172.0
285.969849 152.0
286.134857 1292.0
286.195404 152.0
286.225708 84.0
286.38736 52.0
286.596222 100.0
286.65686 184.0
287.139984 328.0
287.483032 60.0
287.560669 96.0
287.915161 124.0
288.107697 164.0
288.139893 512.0
289.117828 1024.0
289.160675 972.0
289.426697 76.0
289.511353 140.0
289.985657 68.0
290.13446 280.0
290.165985 272.0
290.256866 56.0
290.42099 80.0
290.860748 80.0
291.074646 56.0
291.174866 3688.0
291.436279 120.0
291.68277 56.0
292.09082 52.0
292.178253 948.0
292.284729 128.0
292.965668 40.0
293.151978 480.0
293.258698 52.0
293.582581 144.0
293.606445 104.0
294.032898 44.0
294.152405 356.0
294.476715 140.0
294.835449 100.0
295.130066 464.0
295.168915 1088.0
295.892395 32.0
296.179047 776.0
296.519257 64.0
297.098724 152.0
297.143341 372.0
297.188965 572.0
297.232544 52.0
297.266846 60.0
297.465912 176.0
297.853943 76.0
298.132233 192.0
298.183777 108.0
298.207825 200.0
299.160065 164.0
299.825378 64.0
300.145844 296.0
300.235626 76.0
300.325317 92.0
301.056976 224.0
301.160461 2428.0
301.862152 56.0
302.123657 160.0
302.158173 420.0
302.197662 184.0
302.246094 36.0
303.087494 196.0
303.147125 156.0
303.171448 156.0
303.882416 132.0
304.054993 64.0
304.147583 336.0
304.204254 56.0
305.152496 304.0
305.243073 112.0
305.31955 48.0
306.156219 392.0
306.558868 60.0
306.970215 100.0
307.127167 160.0
307.163635 748.0
307.629639 68.0
308.177429 136.0
308.950592 80.0
309.184662 1024.0
309.524567 44.0
310.156921 152.0
310.182709 596.0
311.169952 384.0
312.251282 48.0
312.314575 136.0
313.18396 196.0
313.472839 84.0
313.927582 100.0
314.386169 80.0
315.165863 180.0
315.48819 32.0
317.155426 168.0
317.903748 116.0
318.067017 56.0
318.237427 124.0
319.167755 2228.0
320.173676 812.0
321.157928 372.0
321.181122 164.0
321.244659 64.0
322.158813 152.0
322.476532 88.0
323.170197 160.0
323.442261 48.0
323.807465 60.0
324.165405 140.0
325.178864 384.0
326.121613 228.0
326.182739 220.0
327.161774 284.0
327.202209 368.0
327.449249 64.0
328.148315 124.0
328.249268 124.0
328.577637 100.0
328.642426 88.0
329.115265 44.0
329.996857 72.0
330.184875 108.0
331.19104 100.0
333.262482 40.0
336.165436 148.0
336.193756 128.0
336.759613 184.0
337.179901 1232.0
337.311371 60.0
337.439301 104.0
338.185425 516.0
338.507721 44.0
338.925293 44.0
339.173615 236.0
339.563141 64.0
339.893311 80.0
340.414551 92.0
340.565125 84.0
341.178772 136.0
342.054291 68.0
343.627869 56.0
344.484344 104.0
344.717133 52.0
345.046082 116.0
345.31601 40.0
345.722961 64.0
346.444977 72.0
347.208527 100.0
348.032318 104.0
351.042633 64.0
351.147034 124.0
351.193451 256.0
352.188354 112.0
352.969421 56.0
353.1922 128.0
354.144531 72.0
355.104004 156.0
355.181488 280.0
355.193512 112.0
356.195038 136.0
357.184845 232.0
357.211182 96.0
357.376709 176.0
357.666473 36.0
358.152222 52.0
360.411957 80.0
361.171814 104.0
362.186218 144.0
364.641052 108.0
364.823486 60.0
365.173309 220.0
366.955444 64.0
371.168976 100.0
371.483459 120.0
371.832611 48.0
371.863312 80.0
372.216492 148.0
373.192474 72.0
373.438568 96.0
373.580902 60.0
375.198334 112.0
377.240479 164.0
379.198151 324.0
379.245575 84.0
379.354095 80.0
379.765106 60.0
380.184113 284.0
381.042236 132.0
381.613556 96.0
384.41806 32.0
389.048309 92.0
394.00647 84.0
396.542877 88.0
397.199951 320.0
397.52243 52.0
398.198608 148.0
398.380035 132.0
398.435638 56.0
398.566742 40.0
398.884705 84.0
399.206726 124.0
400.65155 60.0
407.006836 104.0
407.079102 68.0
407.629425 40.0
407.806274 80.0
413.145081 84.0
414.023407 60.0
414.22995 120.0
414.391998 84.0
415.238098 180.0
416.997192 56.0
420.242706 112.0
423.038086 72.0
424.582764 112.0
429.897888 124.0
429.951508 40.0
434.544586 180.0
434.785248 160.0
435.154694 92.0
435.341553 76.0
436.442719 64.0
437.208099 100.0
438.557495 84.0
442.47998 76.0
443.191986 36.0
449.53299 48.0
453.038055 60.0
456.012543 84.0
458.540619 76.0
459.51712 56.0
463.129333 64.0
463.712036 92.0
464.719757 104.0
479.003754 80.0
482.783447 176.0
495.792511 72.0
498.850616 108.0
502.899567 104.0
503.256683 72.0
512.852417 80.0
518.406738 48.0
524.237061 76.0
526.458679 116.0
530.095459 48.0
532.384521 48.0
536.327393 104.0
543.880676 60.0
546.752991 44.0
549.110352 48.0
552.927307 104.0
565.403687 88.0
567.521118 80.0
591.921143 44.0
599.806152 80.0
605.708923 64.0
608.391235 96.0
608.499268 44.0
616.286072 52.0
620.522766 88.0
630.623047 68.0
640.054382 116.0
640.940857 64.0
642.115417 64.0
653.035034 40.0
665.637512 60.0
676.759644 176.0
682.929871 88.0
692.334595 96.0
697.418457 172.0
703.30188 80.0
710.026428 44.0
711.347595 128.0
712.919739 52.0
725.923828 92.0
739.326843 96.0
752.956238 164.0
756.061462 76.0
757.874023 160.0
764.63385 68.0
776.257141 84.0
780.338257 92.0
784.959656 80.0
788.132874 76.0
798.405273 56.0
809.114868 40.0
821.594971 80.0
826.022156 136.0
826.983459 180.0
829.807556 116.0
837.577087 164.0
852.492371 136.0
859.643372 184.0
861.050293 36.0
861.126221 108.0
861.669495 160.0
861.990845 180.0
867.574524 72.0
869.1698 164.0
874.953186 232.0
877.586731 224.0
895.16748 108.0
895.596313 220.0
896.031128 100.0
902.871643 172.0
904.780396 100.0
912.501709 100.0
919.030579 224.0
923.621887 76.0
928.788635 176.0
929.504517 108.0
937.671631 196.0
940.727478 108.0
946.927612 152.0
949.520081 224.0
951.931824 76.0
955.066162 124.0
956.407532 104.0
958.144043 152.0
962.826294 232.0
966.689453 108.0
968.138 160.0
977.797974 140.0
978.77533 176.0
984.849487 132.0
990.096863 92.0
995.446045 204.0
996.960022 272.0
997.161133 144.0
1002.182739 136.0
1006.989685 180.0
1009.815308 204.0
1014.151855 144.0
1018.129822 176.0
1023.312134 204.0
1023.694214 132.0
1023.948914 60.0
1025.216675 128.0
1025.97522 148.0
1026.077148 48.0
1033.511597 132.0
1034.02356 184.0
1036.187866 56.0
1037.790161 176.0
1041.737061 212.0
1043.227905 156.0
1044.173096 112.0
1044.546143 208.0
1055.244995 244.0
1056.189087 144.0
1057.153076 164.0
1063.82251 128.0
1064.406738 272.0
1068.57959 112.0
1071.835083 116.0
1075.08252 132.0
1080.10022 152.0
1081.598633 196.0
1085.319824 172.0
1087.917847 112.0
1089.664795 128.0
1092.149658 224.0
1094.294922 216.0
1094.459473 200.0
1098.288452 68.0
1098.35437 68.0
1101.067017 208.0
1103.961548 176.0
1104.841309 100.0
1106.177979 196.0
1109.072632 120.0
1109.172119 192.0
1110.113525 160.0
1112.150269 140.0
1113.106323 144.0
1113.710571 144.0
1115.996704 136.0
1118.025513 232.0
1118.191895 188.0
1120.455811 188.0
1124.650269 148.0
1124.837158 184.0
1125.60498 164.0
1130.993408 220.0
1132.580322 144.0
1134.536987 124.0
1135.965332 160.0
1138.354614 108.0
1141.593628 168.0
1143.033203 128.0
1143.558105 144.0
1146.191284 168.0
1148.537354 212.0
1149.117554 160.0
1149.259155 160.0
1153.236694 152.0
1154.291382 68.0
1154.920288 152.0
1155.840332 172.0
1158.108276 60.0
1158.291138 156.0
1160.202148 176.0
1160.778442 180.0
1163.865845 124.0
1165.407715 120.0
1166.195923 132.0
1166.474609 216.0
1169.182983 216.0
1171.217407 172.0
1172.225708 164.0
1172.893555 128.0
1173.677612 212.0
1173.984375 180.0
1177.963501 172.0
1178.209473 80.0
1181.816162 152.0
1184.516602 172.0
1185.057861 196.0
1185.887085 224.0
1189.783203 172.0
1192.785278 188.0
1193.699585 176.0
1195.164795 212.0
1202.013916 76.0
1203.981323 160.0
1208.218384 200.0
1208.329102 172.0
1209.768555 100.0
1211.291992 128.0
1211.825439 220.0
1213.273926 148.0
1213.447266 108.0
1213.55127 204.0
1215.764038 160.0
1216.041626 88.0
1217.60376 184.0
1218.26355 176.0
1224.42627 140.0
1227.185669 204.0
1230.862793 160.0
1232.511353 108.0
1232.699951 56.0
1234.035034 52.0
1234.762207 148.0
1235.762573 172.0
1235.860474 172.0
1240.594849 68.0
1241.176758 232.0
1241.225952 120.0
1241.822021 176.0
1241.948242 96.0
1242.270874 160.0
1242.726929 76.0
1243.442627 184.0
1243.64624 140.0
1244.85376 68.0
1245.057373 188.0
1247.699341 236.0
1247.783691 204.0
1248.65564 272.0
1249.401245 116.0
1249.914917 232.0
1250.034546 264.0
1253.99231 136.0
1255.254272 52.0
1255.367065 132.0
1255.691528 204.0
1260.152832 132.0
1262.676392 124.0
1264.643188 144.0
1265.740479 160.0
1267.079102 176.0
1271.681274 172.0
1271.7948 176.0
1275.118774 144.0
1275.346191 200.0
1279.343872 72.0
1279.443604 156.0
1279.628662 60.0
1282.24292 176.0
1282.627808 160.0
1283.098267 120.0
1283.347778 128.0
1284.010986 172.0
1285.180908 156.0
1286.329834 176.0
1286.943848 128.0
1294.666626 180.0
1297.188599 144.0
1297.432373 208.0
1300.552734 276.0
1300.818359 56.0
1301.758789 168.0
1302.211304 192.0
1305.553101 92.0
1307.222046 212.0
1307.437988 228.0
1308.380859 156.0
1312.019043 124.0
1313.244873 200.0
1315.416748 156.0
1316.665894 128.0
1317.445923 136.0
1318.450317 160.0
1318.898438 164.0
1319.288696 168.0
1320.445679 112.0
1321.349854 192.0
1321.465576 164.0
1321.740601 120.0
1322.572754 108.0
1322.985352 140.0
1323.231567 136.0
1324.11499 196.0
1324.368408 172.0
1324.824829 236.0
1325.831909 108.0
1327.992432 284.0
1328.137573 124.0
1329.276489 164.0
1330.358032 160.0
1330.793579 140.0
1332.042725 244.0
1334.433594 80.0
1334.637207 116.0
1336.499268 156.0
1337.73645 320.0
1338.064087 124.0
1341.648438 228.0
1344.974854 84.0
1346.413086 252.0
1347.362671 128.0
1347.80835 220.0
1348.064087 144.0
1348.166382 36.0
1349.452881 160.0
1350.110962 176.0
1351.347168 192.0
1351.852051 216.0
1352.422974 184.0
1352.993896 216.0
1354.458496 180.0
1354.641602 172.0
1356.737427 156.0
1356.901489 196.0
1357.822632 188.0
1358.255371 152.0
1359.31189 132.0
1361.213135 164.0
1361.874023 208.0
1362.270752 176.0
1365.806396 116.0
1366.387573 156.0
1367.248413 140.0
1368.146484 140.0
1368.661865 184.0
1369.052124 132.0
1375.532959 100.0
1377.061279 204.0
1379.566284 172.0
1380.031982 412.0
1380.305542 176.0
1380.608765 160.0
1380.71228 180.0
1381.348389 144.0
1381.740479 124.0
1382.598755 168.0
1383.057617 180.0
1384.012695 220.0
1385.145752 176.0
1385.886597 128.0
1386.383057 116.0
1387.36145 136.0
1387.591309 152.0
1387.887817 56.0
1387.976807 176.0
1388.236328 228.0
1389.430542 180.0
1391.107666 68.0
1391.345215 56.0
1391.404663 128.0
1391.560547 136.0
1391.850098 116.0
1392.258545 160.0
1392.60022 144.0
1393.35791 108.0
1394.784668 172.0
1395.238159 176.0
1397.40979 188.0
1397.476685 168.0
1398.146484 116.0
1399.166138 172.0
1399.404419 212.0
1399.486328 144.0
1400.625732 204.0
1401.005615 188.0
1401.378174 216.0
1401.586792 132.0
1402.548218 164.0
1403.860352 120.0
1405.546143 88.0
1405.814819 148.0
1406.523804 132.0
1407.135986 132.0
1408.726685 208.0
1409.428955 184.0
1410.826538 180.0
1411.671509 176.0
1411.955688 76.0
1412.1875 100.0
1412.621338 80.0
1413.596924 184.0
1414.289917 200.0
1414.85144 72.0
1415.772339 116.0
1416.109375 208.0
1417.592773 188.0
1418.179932 196.0
1418.4021 52.0
1420.111694 196.0
1421.792236 180.0
1422.715454 132.0
1424.652954 136.0
1425.028687 116.0
1425.351685 132.0
1425.832642 124.0
1426.200928 112.0
1427.794922 116.0
1428.155884 148.0
1428.223633 156.0
1428.629761 188.0
1428.780273 136.0
1429.10376 176.0
1430.255127 148.0
1431.294067 136.0
1432.310791 176.0
1432.921021 236.0
1433.192139 68.0
1433.84021 176.0
1434.85791 188.0
1435.106689 100.0
1435.393188 216.0
1436.283081 164.0
1437.286499 136.0
1437.369507 224.0
1437.724121 212.0
1439.316895 196.0
1439.483032 128.0
1440.374268 176.0
1440.835083 160.0
1441.107056 108.0
1441.341309 188.0
1441.756958 184.0
1443.55603 44.0
1445.530396 164.0
1449.35437 148.0
1449.892334 200.0
1449.953003 132.0
1450.051514 100.0
1451.097656 164.0
1452.015869 216.0
1453.532349 84.0
1454.46582 200.0
1454.625244 172.0
1454.906128 100.0
1454.974487 144.0
1455.07312 136.0
1455.179443 48.0
1455.832397 196.0
1456.432373 180.0
1457.465576 160.0
1457.609985 172.0
1461.845459 200.0
1463.10144 176.0
1463.489624 148.0
1464.456787 148.0
1465.771118 108.0
1466.460693 368.0
1467.588867 116.0
1468.831909 176.0
1469.297241 192.0
1471.05249 148.0
1472.174805 164.0
1472.812988 208.0
1473.503906 168.0
1474.78772 192.0
1475.423096 164.0
1475.934448 72.0
1476.247925 216.0
1476.408569 200.0
1477.288086 172.0
1477.395264 264.0
1478.007324 104.0
1478.841431 128.0
1479.201172 180.0
1479.76001 160.0
1480.778442 44.0
1481.329956 172.0
1483.889648 164.0
1484.104248 256.0
1484.165649 136.0
1484.28064 152.0
1485.101196 132.0
1486.0448 132.0
1486.835205 100.0
1488.107056 232.0
1489.330444 248.0
1489.606934 260.0
1490.482788 76.0
1491.02063 236.0
1491.996826 224.0
1492.535034 268.0
1492.711914 204.0
1492.842651 72.0
1493.150269 156.0
1493.680908 92.0
1493.965576 236.0
1494.434937 204.0
1495.173584 80.0
1496.974976 28.0
1497.213745 180.0
1497.383179 204.0
1497.460205 180.0
1499.517334 220.0
1499.894897 132.0
1500.74292 140.0
1502.964355 128.0
1504.361206 192.0
1505.032959 172.0
