>compound MLS000863618-01!6,7-dimethoxy-8-(3-methylbut-2-enyl)chromen-2-one
>formula C16H18O4
>ionization [M+H]+
>parentmass 275.128
#inchi InChI=1S/C16H18O4/c1-10(2)5-7-12-15-11(6-8-14(17)20-15)9-13(18-3)16(12)19-4/h5-6,8-9H,7H2,1-4H3
#inchikey NNBURDJZOIAAHY
#Ion_Source LC-ESI
#Instrument qTof
#Compound_Source NIH Natural Product Library
#PI Dorrestein
#Data_Collector VVP/LMS
#Scan -1
#Precursor_MZ 275.128
#ExactMass 274.121
#Charge 1
#CAS_Number N/A
#Pubmed_ID N/A
#Smiles COc1cc2ccc(=O)oc2c(CC=C(C)C)c1OC
#INCHI_AUX N/A
#Library_Class 1
#SpectrumID CCMSLIB00000080280
#IonMode Positive
#UpdateWorkflowName UPDATE-SINGLE-ANNOTATED-GOLD
#LibraryQualityString Gold
#TaskID b1d8e8f6646f4e71acdff9ca3d919d08
##Scan# 2401
#SpectrumFile p2-E06_GE6_01_18030.mzXML
#LibraryName NIH_Natural_Products_Library.mgf
#MQScore -1
#Organism NIH_Natural_Products_Library
#TIC_Query 0
#RT_Query -1
#MZErrorPPM -1
#SharedPeaks 0
#MassDiff 0
#LibMZ -1
#SpecMZ 275.128
#SpecCharge 0
#internalFilename spec-00000.mgf

>collision 10
95.079041 168.0
95.500641 108.0
95.677727 48.0
96.217751 144.0
96.291954 176.0
96.416992 132.0
96.551888 52.0
96.698624 128.0
97.19442 208.0
97.553833 128.0
97.669853 172.0
97.852867 156.0
98.628143 108.0
98.821953 228.0
98.889229 216.0
99.555374 152.0
99.674561 192.0
99.736168 200.0
99.974831 164.0
99.996727 112.0
100.173935 60.0
100.297485 204.0
100.482941 168.0
100.49691 140.0
101.010338 196.0
101.414818 136.0
102.715767 200.0
103.053513 824.0
103.0812 216.0
103.10141 140.0
103.265167 212.0
103.390602 148.0
103.425011 160.0
103.485741 212.0
103.844429 112.0
104.052505 244.0
104.073738 224.0
104.608429 92.0
105.032463 132.0
105.068398 496.0
105.58374 156.0
105.690109 80.0
105.80677 156.0
106.040291 156.0
106.064888 160.0
106.337685 164.0
106.824661 140.0
107.084015 148.0
107.801956 136.0
108.035599 56.0
108.155617 168.0
108.682007 220.0
109.213829 176.0
110.191521 156.0
110.768913 236.0
111.536911 160.0
111.866417 156.0
112.712906 168.0
113.178253 164.0
113.754921 140.0
113.960922 136.0
114.094818 164.0
114.505493 100.0
114.573662 120.0
114.857178 36.0
115.038559 220.0
115.053459 184.0
115.667023 208.0
115.696991 244.0
116.048355 164.0
116.640877 216.0
117.030266 144.0
117.534645 56.0
117.836922 136.0
117.979561 116.0
118.042068 372.0
118.068214 204.0
118.494644 88.0
118.518471 132.0
118.767784 152.0
118.787308 132.0
119.048019 208.0
119.265015 176.0
119.456367 52.0
119.606514 200.0
120.055153 184.0
120.271324 168.0
120.878891 160.0
120.94455 88.0
121.02774 172.0
121.062775 128.0
121.082489 144.0
121.365173 232.0
121.409027 104.0
121.457283 40.0
121.757973 168.0
122.367073 212.0
123.13446 128.0
123.565506 216.0
123.598694 112.0
124.168015 156.0
124.334412 152.0
124.57769 148.0
125.054504 136.0
125.266037 144.0
125.348473 136.0
125.40641 72.0
125.786964 168.0
126.011162 32.0
126.22126 184.0
126.295067 176.0
126.333092 132.0
126.684555 164.0
126.789864 168.0
126.816757 200.0
127.034264 192.0
127.085861 144.0
127.514778 124.0
127.640671 168.0
127.798119 284.0
128.061966 216.0
129.029572 128.0
129.068008 232.0
130.076187 132.0
130.198792 168.0
130.226044 156.0
130.744415 60.0
130.940201 212.0
131.049316 1764.0
131.07399 224.0
131.136459 224.0
131.53302 92.0
131.953354 148.0
131.978516 100.0
132.026535 176.0
132.053436 372.0
132.20726 80.0
132.404144 308.0
132.855698 124.0
133.035843 232.0
133.062927 600.0
133.135712 156.0
133.298828 136.0
133.443634 104.0
133.540207 196.0
134.031769 208.0
135.000076 112.0
135.049591 136.0
135.428238 64.0
135.926666 60.0
136.082184 148.0
136.23082 136.0
137.233887 60.0
138.079224 104.0
138.941223 148.0
139.180634 128.0
139.695328 104.0
140.670914 68.0
140.810226 100.0
140.93779 20.0
141.406021 56.0
141.424957 144.0
141.555161 152.0
141.673599 124.0
141.702026 188.0
142.126434 148.0
142.373306 176.0
142.503952 40.0
142.739273 204.0
143.706329 140.0
144.375168 136.0
144.875412 248.0
145.02298 168.0
146.035553 356.0
146.085327 212.0
146.524994 184.0
147.042328 808.0
147.399323 160.0
147.430725 196.0
147.75032 164.0
147.977402 112.0
148.052567 672.0
148.219604 48.0
148.31897 112.0
148.389282 180.0
149.047043 164.0
149.239059 184.0
149.684341 172.0
149.91333 160.0
150.171753 168.0
150.359619 80.0
150.804123 208.0
151.04129 132.0
151.117142 156.0
151.428024 180.0
151.587265 248.0
152.694443 132.0
152.819901 180.0
153.090668 184.0
153.304993 188.0
153.346878 172.0
153.625519 148.0
153.669922 84.0
153.869843 148.0
154.015533 140.0
154.331863 164.0
154.762711 156.0
154.982834 228.0
155.050278 148.0
155.084442 136.0
155.662491 140.0
155.71463 68.0
155.837982 128.0
156.047623 136.0
156.067505 176.0
156.341141 140.0
156.52037 108.0
157.06366 152.0
157.107452 268.0
157.178421 252.0
157.705704 148.0
158.078003 124.0
159.049988 160.0
159.165909 236.0
159.545303 248.0
159.57547 168.0
159.628265 116.0
159.659866 192.0
159.769119 104.0
160.051559 128.0
160.073669 80.0
160.365906 156.0
160.494476 144.0
161.021698 216.0
161.058289 204.0
161.22905 160.0
161.292236 164.0
161.676682 124.0
161.750076 236.0
161.87413 168.0
162.000778 152.0
162.033707 160.0
162.060898 164.0
162.689194 240.0
163.035614 164.0
163.119858 148.0
163.173248 72.0
163.649033 180.0
163.926666 156.0
164.082153 208.0
164.457138 108.0
164.66394 136.0
165.190491 152.0
165.894699 84.0
167.142914 164.0
167.531677 156.0
167.722366 228.0
168.14537 176.0
168.907578 152.0
169.75708 184.0
170.000931 60.0
170.063217 144.0
170.543716 96.0
171.043137 128.0
171.089981 160.0
171.493744 112.0
171.746658 160.0
172.059799 188.0
172.081253 184.0
172.391525 136.0
172.417664 144.0
172.71048 148.0
172.734024 128.0
173.027328 180.0
173.06662 172.0
173.254974 164.0
173.482956 144.0
173.792435 136.0
174.030273 140.0
174.073303 220.0
174.375412 200.0
174.598892 124.0
174.651489 152.0
174.714615 100.0
174.822495 216.0
174.972534 188.0
175.038818 7372.0
175.091019 44.0
175.146332 144.0
175.42038 68.0
175.496841 132.0
175.55484 172.0
175.597046 152.0
175.662979 120.0
175.713104 176.0
175.744766 172.0
175.813721 124.0
175.836517 188.0
175.887283 60.0
175.947876 176.0
175.983459 156.0
176.046844 31188.0
176.101486 192.0
176.145187 184.0
176.17247 44.0
176.190964 64.0
176.227951 112.0
176.246368 76.0
176.303879 88.0
176.324509 52.0
176.346863 152.0
176.380569 48.0
176.406509 64.0
176.428284 76.0
176.463181 56.0
176.487473 84.0
176.550446 52.0
176.590103 148.0
176.629791 120.0
176.669464 128.0
176.687988 152.0
176.75148 100.0
176.78688 100.0
176.844101 92.0
176.86528 68.0
176.937988 120.0
177.05127 3460.0
177.094208 148.0
177.18306 84.0
177.217834 64.0
177.261734 144.0
177.301819 88.0
177.354172 112.0
177.523453 132.0
177.636383 88.0
177.689438 36.0
177.948975 76.0
178.00264 56.0
178.053848 348.0
178.161224 152.0
178.190659 188.0
178.345352 112.0
178.385132 120.0
178.536774 76.0
178.762894 96.0
178.808136 48.0
178.88266 120.0
178.922592 44.0
179.047745 184.0
179.148956 48.0
179.351471 80.0
179.439453 48.0
179.719498 136.0
180.074539 124.0
181.034653 80.0
181.064102 132.0
181.886414 144.0
182.255157 172.0
182.41098 172.0
183.207581 168.0
184.584076 88.0
184.922241 76.0
184.970963 148.0
185.309479 52.0
186.343185 136.0
186.704712 68.0
187.044418 56.0
188.829254 240.0
188.987915 156.0
189.049927 544.0
189.089157 136.0
190.026321 284.0
190.065308 488.0
191.035217 120.0
191.067581 116.0
191.23819 116.0
191.667313 200.0
191.932419 76.0
192.041626 20.0
192.211014 168.0
193.443665 152.0
193.670715 96.0
193.737198 88.0
194.902466 80.0
197.084198 136.0
197.279831 168.0
197.937332 120.0
199.06459 44.0
199.129181 176.0
199.876968 120.0
200.257019 100.0
200.372513 92.0
200.657166 224.0
200.767136 112.0
200.798157 128.0
200.939194 128.0
201.046417 92.0
202.026871 136.0
202.064453 184.0
202.264572 148.0
202.649719 60.0
202.669556 100.0
202.768738 108.0
203.034119 324.0
203.318924 168.0
203.804153 188.0
203.897705 196.0
203.958481 244.0
204.04277 22872.0
204.084076 168.0
204.206253 124.0
204.2827 60.0
204.336197 100.0
204.418701 72.0
204.447952 72.0
204.475616 128.0
204.578094 72.0
204.951187 68.0
204.985382 148.0
205.045242 2800.0
205.173019 120.0
205.244766 72.0
205.699265 92.0
205.795456 60.0
205.889694 80.0
206.046799 328.0
206.246826 104.0
206.285858 92.0
206.352036 60.0
206.420746 72.0
206.44696 124.0
206.488144 140.0
206.58139 108.0
206.652908 92.0
206.701553 72.0
207.047943 64.0
207.787476 52.0
207.87355 48.0
208.646194 52.0
208.683563 48.0
208.95105 72.0
209.36554 60.0
213.050552 160.0
213.75708 116.0
213.789093 104.0
215.074387 160.0
215.106491 160.0
216.003586 140.0
216.457214 52.0
217.047028 168.0
218.052551 152.0
218.544205 160.0
219.063812 628.0
219.657806 68.0
219.944031 72.0
220.076874 128.0
221.09671 136.0
226.057617 148.0
229.06601 136.0
232.121582 108.0
233.082077 248.0
234.074463 172.0
234.953262 56.0
243.107346 172.0
246.373566 68.0
257.103394 120.0
265.292725 84.0
265.377014 48.0
272.144073 68.0
272.626953 140.0
280.361053 136.0
291.418762 76.0
304.361633 84.0
310.942047 124.0
330.504639 120.0
333.678223 72.0
337.283569 136.0
337.682129 56.0
339.726013 48.0
346.539124 100.0
389.187592 64.0
502.330963 56.0
520.509583 100.0
524.04834 68.0
532.318298 152.0
535.583618 112.0
542.992554 120.0
594.265076 44.0
603.084167 76.0
609.622009 32.0
645.542297 124.0
648.473511 52.0
648.792847 172.0
683.385376 184.0
691.651611 92.0
726.66156 96.0
802.586243 60.0
830.601562 76.0
841.477966 56.0
859.266602 52.0
947.003113 128.0
961.123901 148.0
991.552002 112.0
995.730286 72.0
1008.596069 68.0
1042.740723 124.0
1088.92334 136.0
1117.107788 108.0
1121.382568 128.0
1138.489258 148.0
1139.779053 192.0
1150.933228 144.0
1159.239746 176.0
1165.278564 200.0
1166.549438 280.0
1176.590698 136.0
1181.333374 196.0
1189.755493 184.0
1193.341797 124.0
1198.703613 72.0
1198.903442 112.0
1199.689209 200.0
1204.671509 184.0
1205.265747 140.0
1207.325684 156.0
1234.271851 160.0
1245.526978 60.0
1251.603149 140.0
1256.706177 204.0
1256.910767 56.0
1262.356934 188.0
1264.564087 112.0
1283.367676 220.0
1294.421387 52.0
1295.359619 60.0
1296.921631 88.0
1298.190674 160.0
1301.469849 132.0
1303.75415 28.0
1304.235596 204.0
1305.098267 192.0
1309.891235 236.0
1325.076294 124.0
1335.129395 180.0
1336.205933 180.0
1343.950684 168.0
1346.615112 120.0
1348.266235 164.0
1352.786377 196.0
1353.364746 192.0
1363.664062 180.0
1364.171265 128.0
1365.744751 132.0
1366.40686 188.0
1368.416016 156.0
1386.402222 56.0
1388.099731 176.0
1388.463135 136.0
1398.723755 96.0
1405.863647 152.0
1406.27417 44.0
1406.88623 176.0
1409.403076 128.0
1410.449341 184.0
1421.338379 236.0
1433.497314 144.0
1437.003418 220.0
1438.588257 196.0
1438.942993 136.0
1440.989746 252.0
1441.27771 164.0
1442.516235 196.0
1445.499878 20.0
1447.486816 140.0
1458.403687 212.0
1458.662109 20.0
1461.209595 124.0
1464.604736 136.0
1471.895386 172.0
1472.666748 180.0
1473.759033 196.0
1474.821289 140.0
1475.318115 232.0
1478.201538 192.0
1489.179565 132.0
1491.70752 136.0
1492.161133 128.0
1495.491821 184.0
1496.477173 152.0
1497.955078 196.0
1498.410278 60.0
1500.468018 132.0
1500.99231 172.0
