>compound MLS001333190-01!(S)-(+)-Ketoprofen22071-15-4
>formula C16H14O3
>ionization [M+H]+
>parentmass 255.1015707600905
#inchi InChI=1S/C16H14O3/c1-11(16(18)19)13-8-5-9-14(10-13)15(17)12-6-3-2-4-7-12/h2-11H,1H3,(H,18,19)/t11-/m0/s1
#inchikey DKYWVDODHFEZIM
#Ion_Source LC-ESI
#Instrument qTof
#Compound_Source NIH Pharmacologically Active Library
#PI Dorrestein
#Data_Collector VP/LMS
#Scan -1
#Precursor_MZ 255.107
#ExactMass 254.094
#Charge 1
#CAS_Number N/A
#Pubmed_ID N/A
#Smiles C[C@H](C(=O)O)c1cccc(c1)C(=O)c2ccccc2
#INCHI_AUX N/A
#Library_Class 1
#SpectrumID CCMSLIB00000086078
#IonMode Positive
#UpdateWorkflowName UPDATE-SINGLE-ANNOTATED-GOLD
#LibraryQualityString Gold
#TaskID d252d724072548979f1f6f1ced849daf
##Scan# 1966
#SpectrumFile p5-D04_GD4_01_18455.mzXML
#LibraryName Pharm_Active_Library.mgf
#MQScore -1
#Organism Pharm_Active_Library
#TIC_Query 0
#RT_Query -1
#MZErrorPPM -1
#SharedPeaks 0
#MassDiff 0
#LibMZ -1
#SpecMZ 255.107
#SpecCharge 0
#internalFilename spec-00000.mgf

>collision 10
45.153111 232.0
45.390141 140.0
45.603592 144.0
45.705795 120.0
46.907082 196.0
46.975262 140.0
47.125431 200.0
47.175999 180.0
47.263527 188.0
47.637806 124.0
47.896408 136.0
47.992874 128.0
48.273178 120.0
49.236225 144.0
49.656078 120.0
50.325905 176.0
51.531754 176.0
52.120632 132.0
52.241402 196.0
54.494911 160.0
54.522831 156.0
54.66106 216.0
55.088619 212.0
56.850018 188.0
58.346878 96.0
59.489578 188.0
59.81546 240.0
60.177738 192.0
60.507046 112.0
62.110584 200.0
62.548977 136.0
63.921131 180.0
64.258919 256.0
64.701614 136.0
64.800903 176.0
65.06987 148.0
65.903023 128.0
66.284882 168.0
66.871132 148.0
67.985718 132.0
69.296608 80.0
69.638321 112.0
70.262543 140.0
70.451187 120.0
71.581627 180.0
71.739998 280.0
71.790581 160.0
71.908669 156.0
72.37693 132.0
72.551437 120.0
72.804253 148.0
72.824631 120.0
72.921471 80.0
73.883179 116.0
74.765114 228.0
74.839134 164.0
75.747528 204.0
76.240265 192.0
76.691025 140.0
77.724564 136.0
77.815834 64.0
78.685555 156.0
79.831955 92.0
80.344917 116.0
80.630615 140.0
80.904274 80.0
81.43145 172.0
81.805443 72.0
81.850456 136.0
82.133392 212.0
82.626549 152.0
83.87957 148.0
84.186081 156.0
84.286545 204.0
85.935371 112.0
86.47126 148.0
88.163635 76.0
88.285149 188.0
90.772774 228.0
91.053635 172.0
91.403412 180.0
92.036232 144.0
92.053421 140.0
92.978043 192.0
93.070663 304.0
93.888 168.0
94.753944 64.0
95.052536 220.0
97.045975 168.0
100.487488 212.0
101.070908 176.0
102.887802 152.0
103.032227 184.0
103.05484 2800.0
103.076035 224.0
104.057442 196.0
104.604836 72.0
104.81868 196.0
104.894081 84.0
105.034096 9404.0
105.087051 32.0
105.16436 196.0
105.212311 112.0
105.375694 56.0
105.45948 80.0
105.490135 72.0
105.704887 100.0
105.799034 60.0
105.925995 156.0
106.038475 924.0
106.307335 68.0
106.506485 56.0
106.864174 40.0
106.985603 176.0
107.037071 136.0
107.086494 128.0
107.566917 52.0
108.410751 52.0
109.103996 168.0
109.910011 56.0
110.732689 148.0
112.019112 168.0
112.656166 240.0
112.924614 120.0
113.825264 52.0
115.053757 200.0
115.083649 136.0
117.962463 72.0
119.021873 224.0
119.084846 172.0
119.643677 76.0
120.09256 80.0
121.065201 636.0
122.069794 152.0
123.556732 148.0
130.003494 196.0
131.048431 1416.0
131.083633 216.0
132.056946 176.0
132.346771 36.0
134.036346 152.0
135.039001 180.0
136.29335 172.0
136.569992 156.0
140.137634 116.0
141.067535 248.0
141.244812 132.0
142.522614 184.0
144.076004 108.0
145.709869 56.0
148.051987 216.0
149.06044 168.0
149.917694 168.0
150.137085 164.0
151.790161 156.0
152.052643 164.0
152.954666 84.0
153.067917 448.0
153.092545 120.0
153.634781 196.0
156.983185 308.0
164.448639 52.0
164.875137 160.0
165.069412 1888.0
165.737488 60.0
166.077209 876.0
166.481384 36.0
166.586685 40.0
166.710007 52.0
167.085403 348.0
170.78714 60.0
172.270309 88.0
173.675949 196.0
174.855621 140.0
175.316483 120.0
176.493774 252.0
177.054962 2908.0
177.826263 72.0
178.060699 604.0
179.049225 116.0
179.080673 340.0
180.092026 136.0
180.185516 84.0
181.060043 140.0
181.108398 120.0
184.163879 204.0
185.113129 164.0
188.732117 124.0
189.064911 184.0
190.079605 172.0
191.085083 380.0
192.038483 184.0
192.090881 180.0
192.919312 68.0
193.013306 80.0
193.059174 276.0
193.954575 64.0
193.990616 180.0
194.021103 108.0
194.072449 3144.0
194.820343 128.0
195.042633 52.0
195.076035 572.0
196.211807 112.0
196.725098 88.0
196.87587 144.0
197.012741 184.0
198.129517 136.0
199.371933 116.0
202.064743 148.0
206.239273 40.0
207.275253 148.0
208.101791 168.0
208.701797 108.0
209.096161 1452.0
209.160049 124.0
209.248444 36.0
209.824646 84.0
210.103363 192.0
210.127472 124.0
217.930511 52.0
227.004883 300.0
254.112457 200.0
254.182251 160.0
254.579041 124.0
254.874466 56.0
256.201172 136.0
269.066376 124.0
284.998596 156.0
288.578033 96.0
377.352295 104.0
379.989746 40.0
453.850525 68.0
656.99884 44.0
842.680786 164.0
890.942078 136.0
954.791992 120.0
954.98877 200.0
978.783752 136.0
981.145081 164.0
989.447754 144.0
989.491577 40.0
1002.140564 180.0
1031.818115 136.0
1049.706177 136.0
1065.843262 196.0
1074.489624 68.0
1083.858765 172.0
1096.752563 140.0
1104.960693 236.0
1112.728027 244.0
1134.201538 180.0
1135.36145 152.0
1141.001709 164.0
1141.694214 204.0
1154.331421 184.0
1156.841431 112.0
1159.896484 192.0
1171.175659 236.0
1173.956299 168.0
1176.767456 160.0
1180.450317 168.0
1187.284546 228.0
1190.317627 260.0
1204.877808 172.0
1206.702393 88.0
1210.314087 176.0
1225.984985 160.0
1228.864746 156.0
1232.027344 192.0
1239.170166 180.0
1242.766968 208.0
1245.195679 120.0
1252.99646 164.0
1260.53894 140.0
1284.985352 156.0
1286.905273 116.0
1287.148071 140.0
1295.064575 132.0
1306.333862 144.0
1317.225708 140.0
1327.343384 148.0
1330.942383 168.0
1332.409424 192.0
1333.993652 48.0
1338.781006 144.0
1344.897827 200.0
1345.394165 140.0
1348.096558 172.0
1348.885864 120.0
1362.655762 212.0
1365.647583 160.0
1365.743164 156.0
1370.078735 108.0
1374.229492 144.0
1375.749756 108.0
1376.702148 144.0
1383.252808 264.0
1388.098022 144.0
1392.008545 188.0
1393.813599 84.0
1399.719482 204.0
1419.168823 132.0
1422.146973 156.0
1422.830078 188.0
1423.948853 228.0
1429.594727 208.0
1430.091431 128.0
1436.903442 68.0
1443.209839 256.0
1443.421509 120.0
1446.462891 108.0
1448.636108 192.0
1449.545288 184.0
1452.062134 92.0
1466.888672 228.0
1470.236938 148.0
1474.750488 232.0
1476.914307 164.0
1478.36792 160.0
1478.719971 180.0
1480.67981 72.0
1482.901611 172.0
1485.800049 164.0
1485.976562 96.0
1491.374878 148.0
1498.685547 144.0
1499.240356 188.0
1505.180054 192.0
