>compound ENALAPRILAT
>formula C18H24N2O5
>ionization [M+H]+
>parentmass 349.177521
#inchi InChI=1S/C18H24N2O5/c1-12(16(21)20-11-5-8-15(20)18(24)25)19-14(17(22)23)10-9-13-6-3-2-4-7-13/h2-4,6-7,12,14-15,19H,5,8-11H2,1H3,(H,22,23)(H,24,25)/t12-,14-,15-/m0/s1
#inchikey LZFZMUMEGBBDTC
#Ion_Source LC-ESI
#Instrument qTof
#Compound_Source Commercial
#PI Dorrestein
#Data_Collector Garg_Neha
#Scan -1
#Precursor_MZ 349.176
#ExactMass 348.169
#Charge 1
#CAS_Number N/A
#Pubmed_ID N/A
#Smiles C[C@H](N[C@@H](CCc1ccccc1)C(=O)O)C(=O)N2CCC[C@H]2C(=O)O
#INCHI_AUX N/A
#Library_Class 1
#SpectrumID CCMSLIB00000079116
#IonMode Positive
#UpdateWorkflowName UPDATE-SINGLE-ANNOTATED-GOLD
#LibraryQualityString Gold
#TaskID 278b19f5865741e282cec7349aa7e7a1
##Scan# 1014
#SpectrumFile NCP003512_C2_D11_BD5_01_15729.mzXML
#LibraryName NIHcollectionI_05062014.mgf
#MQScore -1
#Organism NIHcollectionI_05062014
#TIC_Query 0
#RT_Query -1
#MZErrorPPM -1
#SharedPeaks 0
#MassDiff 0
#LibMZ -1
#SpecMZ 349.176
#SpecCharge 0
#internalFilename spec-00000.mgf

>collision 10
49.078381 184.0
49.324089 208.0
53.295261 200.0
56.464973 144.0
63.520847 188.0
65.686806 200.0
69.094788 176.0
70.936668 172.0
71.851509 192.0
73.301201 168.0
78.081467 216.0
78.698219 196.0
78.728241 160.0
83.885422 192.0
85.662941 208.0
90.175034 176.0
91.05513 248.0
91.992821 148.0
92.059647 292.0
94.876579 184.0
97.789093 236.0
98.068771 148.0
102.055023 1536.0
103.055 180.0
105.070129 276.0
106.074219 160.0
111.052979 176.0
114.051422 144.0
115.580338 152.0
116.070885 1424.0
117.070244 3268.0
117.969788 164.0
118.071899 272.0
119.086914 136.0
120.344383 144.0
130.865967 180.0
131.086914 144.0
134.096909 1524.0
134.280411 184.0
135.099106 180.0
140.301376 164.0
142.083328 132.0
144.081436 168.0
154.127396 212.0
154.381989 208.0
158.086151 164.0
158.729935 152.0
159.991577 132.0
160.026443 148.0
160.112198 4504.0
161.114594 1024.0
165.098969 208.0
168.094284 176.0
170.637802 152.0
172.373703 148.0
176.106873 172.0
178.12117 292.0
179.1259 188.0
180.10965 140.0
180.981476 168.0
183.199844 204.0
183.323792 148.0
183.703949 232.0
184.044006 184.0
187.088669 140.0
188.105392 144.0
188.146423 200.0
202.05246 156.0
202.581848 204.0
203.083557 140.0
204.35051 168.0
204.549713 140.0
206.118668 25992.0
206.221176 144.0
206.396713 124.0
207.121475 3824.0
207.159714 192.0
208.124115 640.0
208.690491 112.0
210.256393 200.0
213.18129 152.0
215.945129 124.0
220.709091 156.0
222.115799 224.0
226.635361 200.0
227.94693 152.0
229.041702 144.0
231.910568 176.0
232.135529 188.0
233.13826 264.0
234.059967 148.0
237.332443 160.0
237.461243 156.0
245.449295 180.0
248.414185 164.0
252.113739 152.0
262.029358 152.0
264.640869 148.0
272.087524 152.0
273.925201 132.0
276.789185 144.0
278.653229 176.0
282.032257 144.0
289.585938 188.0
291.621643 172.0
293.916931 176.0
302.394928 176.0
302.772278 196.0
303.104858 164.0
303.171967 9476.0
303.919678 144.0
304.173462 1208.0
304.620972 144.0
305.181061 364.0
310.116608 188.0
311.133881 184.0
316.050507 164.0
318.169922 184.0
318.212524 160.0
322.190643 144.0
322.948456 152.0
326.082031 188.0
326.157501 216.0
333.883972 212.0
345.397247 160.0
346.100403 148.0
347.124573 100.0
347.163605 152.0
347.234344 140.0
348.028473 248.0
348.120209 124.0
348.17395 152.0
348.252411 120.0
348.574036 128.0
348.90564 128.0
348.972717 172.0
349.013092 328.0
349.059265 136.0
349.177521 42688.0
349.26474 272.0
349.324249 136.0
349.853088 160.0
350.020599 244.0
350.09668 120.0
350.178986 6520.0
350.341766 172.0
350.485138 116.0
351.180908 1220.0
351.865234 112.0
352.122345 132.0
352.194641 208.0
352.252747 100.0
352.280945 132.0
352.44632 172.0
352.611908 128.0
353.06427 100.0
397.331635 180.0
527.5177 140.0
702.835388 156.0
1056.14563 140.0
1362.976074 148.0
1559.094482 156.0
1601.557373 180.0
1724.566162 260.0
1749.967041 140.0
1750.291748 144.0
1758.603271 156.0
1770.106689 176.0
1771.547241 152.0
1843.450562 176.0
1850.507202 144.0
1895.31311 140.0
1902.832886 204.0
1906.785156 152.0
1916.235229 148.0
1937.263428 244.0
1938.047363 132.0
1953.494629 228.0
