>compound Racecadotril
>formula C21H23NO4S 
>ionization [M+H]+
>parentmass 386.143
#inchi InChI=1S/C21H23NO4S/c1-16(23)27-15-19(12-17-8-4-2-5-9-17)21(25)22-13-20(24)26-14-18-10-6-3-7-11-18/h2-11,19H,12-15H2,1H3,(H,22,25)
#inchikey ODUOJXZPIYUATO
#Ion_Source LC-ESI
#Instrument qTof
#Compound_Source Isolated
#PI Sirenas
#Data_Collector Ed Esquenazi 
#Scan -1
#Precursor_MZ 386.143
#ExactMass 0.0
#Charge 1
#CAS_Number N/A
#Pubmed_ID N/A
#Smiles N/A
#INCHI_AUX N/A
#Library_Class 3
#SpectrumID CCMSLIB00000005132
#IonMode Positive
#UpdateWorkflowName UPDATE-SINGLE-ANNOTATED-BRONZE
#LibraryQualityString Bronze
#TaskID d19310cd93df49b68e9fcbec27720eb5
##Scan# 5
#SpectrumFile Racecadotril.mgf
#LibraryName fda_library.mgf
#MQScore -1
#Organism fda_library
#TIC_Query 0
#RT_Query -1
#MZErrorPPM -1
#SharedPeaks 0
#MassDiff 0
#LibMZ -1
#SpecMZ 386.143
#SpecCharge 0
#internalFilename spec-00000.mgf

>collision 10
100.995087 1.4
108.192154 3.403125
115.055183 76.589828
116.557922 3.6125
116.658043 1.475
117.069511 599.163574
117.096977 1.289286
117.115944 7.255
117.158485 1.2
117.348373 6.79527
117.446564 4.457143
117.99041 4.849138
119.693077 5.651923
120.081039 245.038406
120.112885 2.825
120.142448 1.80625
120.512619 5.605
127.05442 30.57567
129.06868 158.433197
131.046967 17.25128
133.067551 5.0
135.026184 21.053329
135.291992 8.815001
136.220215 5.803125
136.534164 10.53728
136.974869 6.648529
136.990555 1.232143
137.042145 1179.765991
137.094589 2.632895
137.114075 2.5
137.142563 5.24
137.180115 5.1125
137.22496 3.432143
137.261642 9.634322
137.312317 5.479348
137.329178 11.47368
137.55986 8.671079
137.604248 4.32
137.934982 5.402
138.553741 8.092567
138.757446 3.2
139.557587 5.834615
144.265854 4.225
144.273819 13.91051
144.30307 5.000609
144.352859 3.925
144.365814 3.938462
144.386658 11.42105
144.516602 6.318421
144.574814 2.402273
144.59993 4.210714
144.666931 5.853333
144.697189 2.669445
144.905487 1.820455
144.927399 4.31413
145.064606 4092.993896
145.118195 16.71303
145.132736 21.77948
145.152664 2.401191
145.18187 3.664474
145.193939 4.35
145.225998 10.63589
145.261459 12.17074
145.287216 11.48038
145.310593 16.88101
145.339249 2.775
145.349731 9.215
145.38327 9.703125
145.396271 15.27857
145.408325 1.84
145.42128 7.913043
145.454773 2.719118
145.495117 9.7
145.53038 2.938889
145.547699 5.733333
145.654678 8.111539
146.415131 10.08982
146.429642 4.075
146.518097 4.34569
146.542847 18.404779
146.82019 1.666667
146.838257 4.0
147.686142 2.111364
147.809433 2.048077
149.041077 17.85289
149.727951 4.889286
156.080811 5.014535
156.180786 3.440909
156.315598 5.202941
156.34407 1.202273
156.606445 1.066667
156.668106 3.869828
157.065063 687.56073
157.114563 19.33596
157.139145 5.07
157.195435 3.001191
157.252151 2.804167
157.299866 10.86429
157.313232 4.644444
157.361237 3.288043
157.378693 7.437173
157.424255 5.778704
157.55217 1.425
157.564926 2.384091
157.588989 5.088889
157.774872 1.736111
158.008408 2.914286
158.67337 2.681667
161.038315 25.83477
163.056442 143.042099
163.210068 12.49804
163.516434 1.605
164.974609 8.028125
166.087509 376.9133
166.304565 4.403125
166.461731 8.810526
174.091278 122.069
174.358582 2.88
175.754135 7.29
176.04393 4.026471
177.004501 22.797779
177.034836 293.863403
177.070145 2.236765
177.240616 5.325
177.380432 7.615
177.459213 3.6125
177.487076 4.970454
177.732742 3.811764
178.224701 5.0
178.405884 1.2
178.424469 4.65473
178.777817 3.409783
179.01059 1.25
179.052231 1522.738037
179.08725 96.976936
179.103577 2.4
179.137909 4.592391
179.252579 6.302083
179.275879 5.25473
179.315613 17.73255
179.345749 1.202273
179.41098 4.400806
179.426544 2.408333
179.522842 3.6125
179.541489 6.678261
179.672043 3.266667
179.794968 2.536111
179.909927 4.235
179.941666 4.025
180.428253 7.227222
181.098312 40.973148
181.519165 13.28305
187.077271 17.00036
189.941528 9.711206
190.026978 14.53581
190.303207 5.033065
191.052567 504.010193
191.083145 135.723907
191.16008 7.960526
191.217834 6.56
191.23143 3.914286
191.340973 7.993421
191.442657 3.822727
191.533508 1.801667
191.615372 4.84
193.100983 197.285904
193.296585 17.033239
193.338501 4.481
193.622864 3.714286
201.066772 10.05669
201.664246 15.24971
201.989288 8.041666
202.086075 365.0401
202.142395 3.21
202.333984 4.848529
202.628815 10.42045
205.641296 7.581098
205.675659 2.281667
205.791702 9.40064
205.84877 2.211842
205.879593 3.519118
205.950073 5.600714
205.99501 7.615243
206.036987 8.185256
206.104645 10.05208
206.393082 1.845
206.591248 4.090909
207.081131 191.823303
207.116653 1435.999023
207.170059 2.001471
207.204697 19.267599
207.215378 3.802273
207.250153 4.112037
207.30127 15.72431
207.315598 5.877778
207.335464 9.159782
207.365387 8.80049
207.390793 3.005556
207.445557 2.4
207.495667 2.236765
207.524689 7.032143
207.568329 1.125
207.606125 8.343868
207.661072 8.419445
207.673889 16.15519
207.692291 10.32727
207.717743 18.855
207.741287 3.414286
208.273605 3.38
208.293335 10.32752
208.323334 5.45
208.358994 3.605
208.60463 3.432143
208.62471 5.201087
209.439545 2.8
210.393814 2.233333
214.990723 72.890427
215.024536 2.815
215.203445 8.481382
217.101517 56.44722
217.151886 3.208333
217.413071 4.264474
221.061646 83.428047
223.108109 48.71608
223.128983 2.811842
224.968445 16.09444
230.960693 51.175652
230.981476 3.0
233.547836 6.722561
233.65242 5.938889
233.692032 12.29995
233.707031 6.808
233.736893 6.04853
233.834686 4.642105
233.859955 1.489286
233.887878 6.270349
233.909958 3.949346
234.042175 5.505882
234.066147 1.8
234.106064 9.269262
234.213196 17.57033
234.354385 2.489286
234.582077 3.30625
234.750336 3.241667
234.809723 3.38
234.851868 6.806081
235.001175 5.042857
235.071503 30.94095
235.111664 3772.719971
235.176712 25.30073
235.229126 4.6
235.241226 2.041667
235.257217 8.863726
235.285599 7.455909
235.303329 4.933333
235.321808 33.494732
235.371094 21.6632
235.387024 2.184091
235.427368 20.98564
235.465317 13.25882
235.505051 21.513809
235.525345 13.81218
235.538254 1.032143
235.658997 2.85
235.712814 1.032143
235.733078 9.969622
235.758804 7.83
235.772568 8.006274
235.901917 23.62347
235.956818 27.72714
236.056641 13.18777
236.264114 9.833375
236.491226 8.234574
236.625214 6.864286
236.646347 5.618939
236.678741 5.094737
236.785645 8.64
236.83403 12.80571
237.690659 3.78
238.165649 3.089286
238.179703 2.472059
239.340424 5.640909
240.068054 11.40741
241.104721 641.093079
242.749329 4.628572
247.106964 53.909439
248.967896 26.08416
251.086853 76.184303
251.853394 1.5125
252.308426 1.875
253.098862 18.385
255.575867 2.248077
264.137756 22.049999
266.019379 2.65
267.326202 15.20395
267.411346 1.801923
267.445496 6.430769
267.470276 27.277639
267.512817 24.45606
267.555969 33.25753
267.573822 5.801667
267.604828 12.33344
267.623474 21.62462
267.666351 10.14569
267.711151 24.931629
267.759064 42.457802
267.77948 1.845
267.827362 22.67667
267.906525 6.129049
268.088776 3.203571
268.263855 2.5125
268.385315 6.445371
268.525238 12.7
268.738953 5.473485
268.807007 6.409884
268.846893 3.453261
268.972412 43.681721
269.042694 13.16572
269.05899 47.49699
269.100372 10379.980469
269.171997 4.696429
269.191833 62.953949
269.250763 26.17481
269.293152 56.823818
269.323792 71.015533
269.380493 54.79636
269.399353 13.00424
269.420715 17.48341
269.454529 31.078699
269.491577 15.32509
269.514282 5.805
269.585815 31.423969
269.61673 21.51753
269.641144 13.67882
269.657654 6.801316
269.704651 10.4087
269.779877 4.879348
269.845764 7.821551
269.860748 12.77237
269.932251 19.08182
270.2099 8.569445
270.347198 12.70792
270.479279 5.822727
270.655334 9.89061
270.726837 3.058333
270.768829 2.066667
271.175079 25.739941
271.264221 7.228571
271.282349 3.004167
272.241058 7.253125
273.763336 2.217308
273.849701 1.802778
274.858093 4.647059
275.758575 2.632895
281.100861 32.18605
281.414032 6.801087
285.443604 3.410714
287.105194 7.168243
287.227661 11.97809
298.126404 482.252197
298.244385 5.436364
298.270782 3.755556
298.306274 5.88
299.775848 4.125
299.844635 4.686429
308.973297 40.626572
322.317963 22.049999
324.249939 4.408333
326.120911 224.697693
326.998627 3.064286
343.953583 3.214286
344.132416 709.733521
344.211517 3.913636
344.275787 3.744048
344.320801 8.305882
344.379547 12.37123
344.431305 12.11721
344.533112 34.524689
344.842957 10.12246
344.958801 4.669444
345.169617 9.747222
345.710297 7.653333
346.051025 4.155556
348.112732 5.1
352.281219 5.503049
386.348602 6.013333
582.733032 2.00625
660.184448 5.4125
750.717651 2.025
1052.894409 3.248529
1195.389038 4.5125
1281.192017 4.265323
1358.227173 3.422368
