>compound 4-amino-N-(5-methyl-1,2-oxazol-3-yl)benzenesulfonamide
>formula C10H11N3O3S 
>ionization [M+H]+
>parentmass 254.060486
#inchi InChI=1S/C10H11N3O3S/c1-7-6-10(12-16-7)13-17(14,15)9-4-2-8(11)3-5-9/h2-6H,11H2,1H3,(H,12,13)
#inchikey JLKIGFTWXXRPMT
#Ion_Source LC-ESI
#Instrument qTof
#Compound_Source Commercial
#PI Dorrestein
#Data_Collector Garg_Neha
#Scan -1
#Precursor_MZ 254.061
#ExactMass 253.052
#Charge 1
#CAS_Number N/A
#Pubmed_ID N/A
#Smiles N/A
#INCHI_AUX N/A
#Library_Class 1
#SpectrumID CCMSLIB00000077040
#IonMode Positive
#UpdateWorkflowName UPDATE-SINGLE-ANNOTATED-GOLD
#LibraryQualityString Gold
#TaskID 48f7f52fc6d249b5abbcc6e7b3df5969
##Scan# 1124
#SpectrumFile NCP003017_C2_D11_BA7_01_15702.mzXML
#LibraryName NIH_Clinical_Collection_2.mgf
#MQScore -1
#Organism NIHcollection2_04212014_2_mgf
#TIC_Query 0
#RT_Query -1
#MZErrorPPM -1
#SharedPeaks 0
#MassDiff 0
#LibMZ -1
#SpecMZ 254.061
#SpecCharge 0
#internalFilename spec-00000.mgf

>collision 10
45.688068 148.0
45.705559 144.0
45.784985 160.0
45.926502 200.0
46.663197 140.0
46.895981 140.0
46.9137 148.0
47.632137 172.0
48.421104 160.0
48.731838 228.0
48.78326 144.0
49.065868 204.0
49.385654 144.0
49.510216 160.0
49.845493 212.0
50.597279 140.0
50.960365 200.0
51.363251 156.0
51.789207 144.0
52.13929 180.0
52.355087 156.0
52.538143 252.0
53.606762 192.0
54.354004 152.0
54.84816 180.0
55.050289 200.0
55.600254 144.0
55.614365 232.0
56.533939 144.0
56.761639 184.0
57.338917 180.0
57.863079 196.0
58.005486 168.0
58.554001 148.0
60.277725 176.0
63.182098 156.0
63.613152 176.0
64.008301 156.0
64.67318 180.0
66.081505 184.0
66.372849 156.0
67.809082 168.0
69.726921 140.0
70.006416 148.0
70.331528 172.0
70.667427 140.0
70.945442 188.0
71.213921 192.0
71.60244 188.0
72.205681 176.0
72.770935 180.0
72.922119 180.0
73.126221 156.0
74.753777 164.0
74.814018 140.0
74.894951 156.0
76.221909 160.0
76.648224 140.0
76.78595 148.0
78.212181 164.0
78.453514 148.0
79.468689 156.0
79.839943 152.0
80.717316 204.0
80.917717 212.0
81.31926 180.0
81.538376 224.0
82.197426 116.0
82.464767 216.0
83.689278 176.0
83.927971 196.0
83.9991 176.0
84.501488 168.0
84.996201 188.0
85.047592 208.0
86.093346 172.0
86.135826 144.0
87.608749 164.0
87.724289 260.0
88.020943 184.0
89.158043 196.0
90.10585 220.0
90.76152 212.0
91.776093 156.0
91.987862 156.0
92.049324 1964.0
93.058105 2548.0
93.633003 176.0
93.685013 156.0
94.06543 296.0
95.074135 140.0
95.098541 148.0
95.456001 188.0
97.65815 172.0
98.444504 164.0
98.487953 192.0
98.752815 176.0
99.037834 172.0
99.056206 2744.0
99.099922 116.0
100.05864 236.0
100.111404 196.0
100.457115 156.0
100.518959 244.0
100.536919 192.0
100.666679 156.0
100.682655 160.0
101.124954 176.0
101.19857 248.0
101.693718 264.0
101.92868 172.0
102.161911 200.0
103.075249 144.0
103.236969 168.0
104.049492 156.0
106.108055 216.0
106.99559 204.0
107.061348 896.0
107.338181 220.0
107.661606 168.0
108.044373 15136.0
108.69458 152.0
109.046471 700.0
110.056473 144.0
110.080948 180.0
111.020554 212.0
111.064598 228.0
111.146423 144.0
111.259758 148.0
111.385757 176.0
113.025993 164.0
114.923454 196.0
115.066452 156.0
116.134277 168.0
117.075638 176.0
117.278152 220.0
118.694199 172.0
119.059875 456.0
119.093513 208.0
120.069901 112.0
120.162369 148.0
120.962219 200.0
121.077248 184.0
121.174644 164.0
121.330254 152.0
122.065788 284.0
123.357788 184.0
124.943405 148.0
125.886238 148.0
127.285805 152.0
127.769043 220.0
128.397491 196.0
130.059631 184.0
130.49437 188.0
131.06073 832.0
131.241501 144.0
131.405396 140.0
131.457611 172.0
132.065201 540.0
132.532608 176.0
133.03717 148.0
133.067505 416.0
133.446106 140.0
133.464508 164.0
134.044571 184.0
134.099884 168.0
135.076584 148.0
135.660141 160.0
135.701874 176.0
136.038483 168.0
136.093979 148.0
136.973068 172.0
137.964844 160.0
138.458557 180.0
138.65535 200.0
139.763748 156.0
140.969604 232.0
141.018341 184.0
141.749619 152.0
142.119522 148.0
143.058716 300.0
143.470428 140.0
143.680283 156.0
144.016876 140.0
144.063934 432.0
144.715164 184.0
145.075912 340.0
145.261581 152.0
145.46315 140.0
146.071198 3204.0
146.514053 176.0
146.697205 140.0
146.769531 192.0
146.99144 188.0
147.079071 7920.0
147.143509 148.0
147.588074 184.0
147.984879 184.0
148.086197 2776.0
148.12471 160.0
149.014816 288.0
149.083405 404.0
149.509933 196.0
150.093933 160.0
151.029907 144.0
152.006805 172.0
152.837357 176.0
152.866882 164.0
154.928558 152.0
155.026138 188.0
155.881317 156.0
155.913834 232.0
155.945465 128.0
156.011887 73412.0
156.076981 140.0
156.143402 112.0
156.178589 104.0
156.322006 148.0
156.361679 128.0
157.014099 2864.0
157.141235 140.0
158.007904 2452.0
158.069901 144.0
158.383682 148.0
158.424164 224.0
159.003555 164.0
159.078171 320.0
160.041183 168.0
160.086182 5784.0
160.41153 196.0
160.566971 104.0
161.003799 676.0
161.090042 976.0
161.999573 140.0
162.056763 152.0
162.099838 164.0
163.031158 152.0
163.086685 292.0
163.692566 196.0
164.084961 148.0
164.419113 148.0
165.167725 256.0
167.251266 144.0
167.727798 176.0
171.01738 160.0
171.069427 180.0
172.007874 164.0
172.033966 156.0
172.086182 336.0
173.058777 412.0
174.023529 172.0
174.080399 208.0
174.649139 228.0
175.011871 168.0
175.465485 156.0
176.029007 788.0
176.735901 180.0
177.42186 148.0
178.989456 152.0
180.062851 208.0
181.452942 176.0
182.325333 212.0
184.073669 184.0
185.778809 152.0
187.314697 200.0
187.783524 156.0
187.851715 152.0
188.082184 13564.0
188.207367 152.0
188.887009 172.0
189.023804 168.0
189.084091 1296.0
190.097351 5836.0
191.053635 192.0
191.101044 604.0
194.009827 140.0
194.039017 3180.0
194.286438 156.0
195.040787 448.0
196.044846 304.0
196.116165 140.0
196.668427 156.0
196.799637 200.0
203.052597 152.0
203.333481 208.0
205.556061 216.0
212.049866 176.0
213.052612 200.0
213.926285 220.0
214.459335 140.0
214.927383 140.0
216.939468 108.0
218.524002 180.0
219.145248 144.0
220.405151 156.0
221.206635 176.0
222.329971 176.0
225.214966 184.0
225.663223 224.0
225.950333 204.0
227.041016 160.0
228.858643 172.0
229.159836 244.0
229.376831 224.0
229.786957 216.0
231.988617 152.0
233.430801 160.0
236.004364 148.0
236.049911 2216.0
236.551254 372.0
236.582596 176.0
237.046188 412.0
238.035233 164.0
238.98262 232.0
239.592224 160.0
244.03038 148.0
244.976486 152.0
245.05513 1664.0
245.557236 332.0
246.04808 168.0
246.408432 192.0
252.633301 140.0
252.750366 180.0
252.975067 148.0
253.098541 132.0
253.155869 168.0
253.310745 148.0
253.348755 148.0
253.426254 164.0
253.564224 328.0
253.749191 212.0
253.798798 180.0
253.82814 120.0
253.86676 112.0
253.905502 240.0
253.953796 312.0
254.004608 164.0
254.024292 200.0
254.060486 108844.0
254.150879 232.0
254.237259 236.0
254.290512 216.0
254.330994 180.0
254.36734 116.0
254.48732 104.0
254.582275 776.0
254.775223 96.0
255.062073 10900.0
255.117508 180.0
255.365387 132.0
256.056732 4988.0
256.139587 124.0
256.25412 196.0
256.371368 132.0
256.541931 104.0
256.764648 116.0
256.996521 120.0
257.061096 256.0
257.132507 360.0
257.167572 152.0
257.242371 140.0
257.910492 96.0
258.068604 192.0
260.205627 140.0
272.026428 140.0
288.008057 148.0
292.021149 152.0
294.998413 148.0
356.029083 120.0
357.029175 176.0
357.612732 156.0
374.032349 168.0
375.050964 164.0
387.545441 140.0
392.054291 148.0
394.096619 220.0
736.269958 152.0
1020.442688 188.0
1200.794434 192.0
1238.760742 160.0
1275.192139 140.0
1316.596191 168.0
1319.826416 184.0
1332.357788 188.0
1354.175781 188.0
1379.465942 168.0
1414.098877 160.0
1433.632935 152.0
1438.437378 208.0
1455.145386 188.0
1467.577637 148.0
1488.60498 168.0
1494.154419 196.0
1522.095581 188.0
1525.809448 164.0
1540.030884 144.0
1546.692749 176.0
1554.47522 176.0
1557.804077 192.0
1561.262451 180.0
1565.630249 224.0
1578.651367 172.0
1583.867065 176.0
1584.778076 164.0
1587.282837 144.0
1588.916748 168.0
1600.879272 224.0
1644.186646 188.0
1645.026123 160.0
1648.846558 192.0
1649.83728 148.0
1657.627075 200.0
1664.627563 188.0
1674.068726 148.0
1701.01709 156.0
1705.074585 212.0
1723.211548 164.0
1723.707275 152.0
1727.667725 172.0
1744.186279 148.0
1744.743286 148.0
1760.37439 168.0
1762.512817 160.0
1763.482178 220.0
1764.510376 176.0
1768.115601 240.0
1770.18335 144.0
1773.283081 184.0
1779.154785 180.0
1783.0271 192.0
1783.380127 176.0
1790.624268 212.0
1793.842896 144.0
1796.448608 144.0
1806.357544 176.0
1808.109009 156.0
1823.298218 208.0
1838.730347 204.0
1852.916382 220.0
1853.147705 148.0
1854.613159 220.0
1861.201782 148.0
1861.983154 188.0
1862.060425 188.0
1863.452026 216.0
1863.546631 168.0
1868.240723 184.0
1879.734375 152.0
1881.331177 220.0
1888.693481 164.0
1899.165527 144.0
1917.371582 180.0
1928.770386 148.0
1930.475342 220.0
1941.658691 204.0
1950.825439 172.0
1957.327271 188.0
1964.078125 188.0
1964.766235 148.0
1966.072144 164.0
1968.755859 192.0
1971.158691 176.0
1972.749512 160.0
1974.066895 144.0
1977.809326 200.0
1984.267212 164.0
1994.805054 184.0
1995.009521 212.0
2000.364746 164.0
