>compound MLS002153904-01!Hydrocotarnine hydrobromide5985-00-2
>formula C12H15NO3
>ionization [M+H]+
>parentmass 222.111664
#inchi InChI=1S/C12H15NO3/c1-13-4-3-8-5-10-12(16-7-15-10)11(14-2)9(8)6-13/h5H,3-4,6-7H2,1-2H3
#inchikey XXANNZJIZQTCBP
#origInchi InChI=1S/C12H15NO3.BrH/c1-13-4-3-8-5-10-12(16-7-15-10)11(14-2)9(8)6-13;/h5H,3-4,6-7H2,1-2H3;1H
#Ion_Source LC-ESI
#Instrument qTof
#Compound_Source NIH Pharmacologically Active Library
#PI Dorrestein
#Data_Collector VP/LMS
#Scan -1
#Precursor_MZ 222.118
#ExactMass 221.105
#Charge 1
#CAS_Number N/A
#Pubmed_ID N/A
#Smiles COc1c2OCOc2cc3CCN(C)Cc13.Br
#INCHI_AUX N/A
#Library_Class 1
#SpectrumID CCMSLIB00000085550
#IonMode Positive
#UpdateWorkflowName UPDATE-SINGLE-ANNOTATED-GOLD
#LibraryQualityString Gold
#TaskID d252d724072548979f1f6f1ced849daf
##Scan# 1197
#SpectrumFile p4-C06_GC6_01_18354.mzXML
#LibraryName Pharm_Active_Library.mgf
#MQScore -1
#Organism Pharm_Active_Library
#TIC_Query 0
#RT_Query -1
#MZErrorPPM -1
#SharedPeaks 0
#MassDiff 0
#LibMZ -1
#SpecMZ 222.118
#SpecCharge 0
#internalFilename spec-00000.mgf

>collision 10
45.149628 132.0
45.279446 124.0
45.353134 212.0
45.714405 236.0
45.801918 140.0
45.888165 152.0
46.005535 132.0
46.078461 132.0
46.381588 172.0
46.534885 168.0
46.572906 68.0
46.858578 112.0
47.04678 208.0
47.610905 240.0
47.701584 172.0
47.757961 184.0
47.859798 188.0
47.989311 152.0
48.579849 144.0
48.624249 192.0
48.750626 156.0
48.824303 164.0
49.202538 212.0
49.354198 144.0
49.551548 236.0
49.89539 192.0
49.910858 172.0
50.038891 180.0
50.271465 180.0
50.319454 132.0
50.657448 128.0
50.708458 100.0
50.827579 272.0
50.951103 144.0
51.278381 160.0
52.351425 172.0
52.393196 140.0
52.476788 68.0
52.709167 180.0
52.942066 180.0
52.995663 224.0
53.024643 200.0
53.146454 228.0
53.16967 48.0
53.63509 156.0
53.655499 76.0
53.772194 176.0
53.797005 188.0
53.951855 76.0
54.177223 128.0
54.295952 156.0
54.700001 152.0
55.380699 228.0
55.708515 140.0
55.754574 152.0
56.076038 180.0
56.235626 52.0
56.622852 80.0
56.751724 164.0
57.030949 232.0
57.119659 180.0
57.154263 172.0
57.354557 180.0
57.943909 116.0
58.242752 64.0
58.371933 88.0
59.287861 184.0
59.346111 144.0
59.476509 224.0
59.70697 204.0
59.797741 104.0
60.317532 128.0
60.410309 176.0
60.450539 236.0
60.547096 180.0
60.622425 180.0
60.970371 188.0
61.092876 132.0
61.215832 128.0
61.46212 60.0
61.496452 92.0
61.688576 152.0
62.050205 128.0
62.357872 96.0
62.852352 84.0
62.904434 120.0
62.970749 192.0
63.00708 148.0
63.161999 196.0
63.179398 148.0
63.21104 204.0
63.30127 128.0
63.320274 172.0
63.456547 180.0
63.529499 168.0
63.591911 136.0
63.953766 100.0
63.969681 96.0
64.148094 200.0
64.162437 152.0
64.460907 180.0
64.52005 216.0
64.656006 200.0
65.190025 196.0
65.376564 188.0
65.432907 120.0
65.550484 144.0
65.685913 164.0
65.879623 164.0
66.117302 168.0
66.408928 132.0
66.436501 212.0
66.449478 72.0
66.485176 192.0
67.070686 164.0
67.202782 64.0
67.377472 168.0
67.516403 196.0
67.940636 168.0
68.076866 152.0
68.129425 208.0
68.257622 116.0
68.336571 96.0
68.644585 164.0
68.903351 160.0
69.224602 140.0
69.459946 144.0
69.657478 220.0
70.013405 124.0
70.438713 168.0
70.585785 180.0
70.599167 152.0
70.872009 220.0
70.922287 188.0
71.265015 156.0
71.33017 164.0
71.409195 144.0
71.858955 128.0
72.599831 220.0
72.686348 92.0
72.918999 224.0
73.039719 176.0
73.131599 148.0
73.165642 196.0
73.209908 68.0
73.259308 176.0
73.310417 168.0
73.460457 76.0
73.503113 236.0
73.562843 112.0
73.680679 96.0
73.714851 252.0
74.017616 72.0
74.515015 116.0
74.621574 188.0
74.962379 44.0
75.290146 188.0
75.309143 224.0
75.376518 52.0
75.592667 140.0
75.646324 216.0
76.255135 148.0
76.335106 160.0
76.470802 92.0
76.489944 136.0
76.688515 172.0
76.763474 120.0
76.815796 56.0
77.257759 132.0
77.755379 212.0
78.011826 100.0
78.046989 228.0
78.101501 144.0
78.902092 128.0
79.210007 124.0
79.291504 220.0
79.541595 128.0
79.658791 160.0
79.946815 148.0
80.222893 112.0
80.347725 96.0
80.495865 116.0
80.896355 128.0
81.082626 104.0
81.161507 108.0
81.464806 56.0
81.884247 148.0
82.132629 160.0
82.593224 124.0
83.153084 160.0
83.189384 144.0
83.331039 60.0
83.378281 72.0
83.561935 108.0
83.780403 204.0
84.262032 156.0
84.523491 120.0
84.625992 136.0
84.900848 88.0
85.121056 160.0
85.475822 124.0
85.715195 240.0
85.901405 124.0
86.239311 172.0
86.389084 160.0
86.816933 152.0
87.318359 120.0
87.338814 180.0
87.50444 236.0
87.536293 184.0
87.73172 228.0
87.748497 216.0
87.901443 148.0
87.948105 208.0
88.267563 200.0
88.318054 164.0
88.93074 100.0
89.161751 188.0
89.174904 232.0
89.297112 160.0
89.419403 156.0
89.53801 36.0
89.698166 248.0
90.039665 176.0
90.181366 188.0
90.230515 220.0
90.487808 152.0
90.866859 132.0
91.055359 1704.0
91.085167 120.0
91.159447 84.0
91.570183 176.0
91.633041 156.0
91.758827 92.0
91.940041 120.0
92.045029 156.0
92.062218 136.0
92.203583 140.0
92.32402 180.0
92.628342 156.0
92.733719 152.0
92.910133 132.0
93.029114 60.0
93.071388 476.0
93.105919 220.0
93.34613 168.0
93.359589 136.0
93.573166 132.0
94.068893 192.0
94.19413 124.0
94.337128 152.0
94.464752 148.0
94.630836 184.0
95.073135 152.0
95.086716 216.0
95.183784 52.0
95.677628 164.0
95.794472 76.0
96.289894 164.0
96.393433 80.0
96.491158 152.0
96.542 112.0
96.673065 168.0
96.76506 188.0
96.876686 44.0
97.557632 180.0
97.646118 40.0
97.745323 224.0
97.976807 216.0
98.104897 120.0
99.057381 260.0
99.420212 84.0
99.434105 68.0
99.610817 124.0
99.688301 124.0
99.942818 200.0
100.183716 256.0
100.516678 216.0
100.862183 248.0
100.95015 112.0
101.030151 228.0
101.124199 68.0
101.75563 100.0
101.952477 108.0
102.051567 204.0
102.135437 128.0
102.215904 136.0
102.503853 176.0
102.798553 164.0
103.055099 484.0
103.095108 72.0
103.2164 188.0
103.331688 112.0
103.449059 64.0
103.49765 168.0
103.532074 148.0
103.55233 144.0
103.629303 56.0
103.659698 104.0
103.710365 176.0
103.738739 188.0
103.98214 216.0
104.059273 348.0
104.103943 132.0
104.441315 176.0
104.494209 140.0
104.651787 108.0
105.033241 504.0
105.070396 1516.0
105.389267 48.0
105.450569 144.0
105.507805 208.0
105.786018 108.0
106.039116 160.0
106.066963 828.0
106.122002 88.0
106.198265 188.0
106.394867 80.0
106.435928 200.0
106.562439 128.0
106.620804 168.0
106.64547 192.0
106.888138 196.0
107.049561 1320.0
107.085625 176.0
107.318626 152.0
107.409363 216.0
107.654968 224.0
107.671486 76.0
107.96701 144.0
108.041206 180.0
108.05706 684.0
108.084389 200.0
108.109756 148.0
108.175987 184.0
108.499153 152.0
108.64225 140.0
108.737694 144.0
108.770905 188.0
108.866409 188.0
109.028442 48.0
109.058411 188.0
109.286293 180.0
109.335434 136.0
109.573608 164.0
109.648621 140.0
109.723663 48.0
109.923897 172.0
110.06031 212.0
110.370903 120.0
110.691406 232.0
110.728333 124.0
110.789482 124.0
110.806244 164.0
110.89006 232.0
110.940369 220.0
111.043114 132.0
111.574356 196.0
111.742607 160.0
111.870979 180.0
111.944672 156.0
111.972046 76.0
112.494957 124.0
112.866791 40.0
113.057175 192.0
113.129135 160.0
113.826668 200.0
114.292175 180.0
114.433006 236.0
114.797005 196.0
114.873787 100.0
114.935654 172.0
114.961266 232.0
115.054695 600.0
115.078659 72.0
115.100014 188.0
115.426941 124.0
115.683678 244.0
116.049156 348.0
116.157249 148.0
116.202301 108.0
116.655434 80.0
116.98671 148.0
117.056602 1168.0
117.156837 44.0
117.24733 52.0
117.322769 72.0
117.421959 72.0
117.534134 160.0
117.639885 112.0
117.724091 156.0
118.020119 192.0
118.041977 1048.0
118.065193 408.0
118.128258 200.0
118.390144 176.0
118.409637 208.0
118.457283 56.0
118.48761 80.0
118.652321 192.0
118.797615 72.0
118.817146 120.0
118.832329 208.0
119.048363 912.0
119.089005 200.0
119.227524 168.0
119.288383 188.0
119.386223 260.0
119.732246 132.0
119.845512 232.0
119.865128 188.0
120.020325 200.0
120.057434 932.0
120.081047 424.0
120.128929 60.0
120.264214 72.0
120.331886 116.0
120.417053 88.0
120.526276 196.0
120.904579 180.0
120.983376 72.0
121.027328 312.0
121.063568 2736.0
121.083862 196.0
121.138855 64.0
121.173904 120.0
121.393097 152.0
121.440613 132.0
121.491791 40.0
122.048431 196.0
122.070786 476.0
122.098022 104.0
123.043594 540.0
123.064705 104.0
123.080696 480.0
123.155922 216.0
123.255341 192.0
123.558243 88.0
124.083115 156.0
124.418114 76.0
124.611328 172.0
125.178513 132.0
125.269829 108.0
125.543976 240.0
125.829582 224.0
125.9189 180.0
126.191513 196.0
126.531578 100.0
127.215332 152.0
127.415016 192.0
128.045029 68.0
128.676392 156.0
129.040146 204.0
129.112503 144.0
129.255005 60.0
129.62912 112.0
129.689819 112.0
130.029633 180.0
130.042557 308.0
130.066376 348.0
130.263901 124.0
130.677643 112.0
130.898438 152.0
131.047058 496.0
131.072876 96.0
131.117126 76.0
131.370209 228.0
131.484299 92.0
131.858841 208.0
131.941132 164.0
132.023453 72.0
132.056427 268.0
132.082138 1328.0
132.197311 156.0
132.71727 180.0
133.028931 688.0
133.064774 2412.0
133.107559 172.0
133.229065 168.0
133.371536 156.0
133.449707 36.0
133.474991 96.0
133.74646 104.0
133.905014 180.0
134.034103 1244.0
134.060486 2028.0
134.092438 168.0
134.142654 144.0
134.165695 136.0
134.244095 136.0
134.276382 76.0
134.44017 184.0
134.557892 56.0
134.680283 96.0
134.809662 96.0
134.872055 64.0
134.925232 188.0
134.964539 108.0
135.040375 616.0
135.080444 3608.0
135.274536 40.0
135.330109 136.0
135.3741 192.0
135.42041 168.0
135.473694 140.0
135.520035 72.0
135.723999 80.0
136.053955 1224.0
136.081421 220.0
136.102203 64.0
136.420486 132.0
136.495743 164.0
136.988281 48.0
137.056503 620.0
137.093826 176.0
137.181702 44.0
137.779114 188.0
138.06279 152.0
138.370804 164.0
138.412949 144.0
138.44339 60.0
138.940292 140.0
138.968445 112.0
139.779068 132.0
140.563736 156.0
140.618011 188.0
141.1259 112.0
141.237045 68.0
141.990219 112.0
142.690704 200.0
143.066162 188.0
143.171356 212.0
143.214218 196.0
144.083298 156.0
144.24501 200.0
144.584641 196.0
145.053116 172.0
145.500275 144.0
145.894257 128.0
146.03476 292.0
146.059235 536.0
146.088745 156.0
146.238235 188.0
146.274338 188.0
146.438065 152.0
146.515152 84.0
146.577789 144.0
146.775452 60.0
146.79715 56.0
147.043106 636.0
147.064011 200.0
147.821365 160.0
148.051804 1164.0
148.076202 952.0
148.108566 140.0
148.351776 56.0
148.441483 160.0
148.934143 180.0
148.973007 148.0
149.059845 1932.0
149.082657 1952.0
149.21048 196.0
149.259796 64.0
149.583374 68.0
149.683197 132.0
150.029785 352.0
150.065628 608.0
150.096786 136.0
150.722305 64.0
151.015656 140.0
151.038559 1268.0
151.076065 1676.0
151.184464 48.0
151.306839 44.0
151.375397 132.0
151.838562 68.0
152.045609 256.0
152.07077 180.0
153.109146 116.0
153.829102 132.0
153.848846 152.0
153.962418 164.0
154.753693 100.0
155.026169 112.0
155.16745 40.0
155.301361 220.0
155.517212 144.0
155.601608 256.0
156.01152 164.0
156.387131 160.0
156.479233 220.0
156.765671 36.0
156.865372 164.0
157.047394 128.0
157.38179 48.0
157.601593 360.0
157.90657 156.0
158.011627 148.0
158.054153 160.0
158.963745 112.0
159.518799 172.0
159.674683 116.0
159.703995 136.0
159.760208 88.0
159.835678 104.0
159.951447 92.0
160.048309 168.0
160.076584 1008.0
160.185638 264.0
160.225937 60.0
161.028076 116.0
161.059204 868.0
161.083817 808.0
161.558884 84.0
161.809433 148.0
162.058258 632.0
162.091187 416.0
162.33139 188.0
163.039215 952.0
163.076172 1744.0
163.212494 60.0
163.477036 156.0
163.787643 188.0
163.861526 300.0
163.955261 172.0
163.976181 248.0
164.046432 2972.0
164.106644 2192.0
164.162292 40.0
164.203094 168.0
164.325531 40.0
164.381668 56.0
164.545013 44.0
164.614868 124.0
164.981873 184.0
165.054932 3104.0
165.11412 176.0
165.152832 68.0
165.309265 68.0
165.388596 48.0
165.48587 48.0
165.570374 76.0
165.625137 116.0
165.772751 176.0
165.947052 60.0
165.99736 240.0
166.029114 96.0
166.061005 1728.0
166.121445 56.0
166.360092 148.0
166.483337 48.0
166.60405 124.0
166.624603 124.0
167.017914 196.0
167.066177 304.0
167.26236 76.0
167.553345 76.0
167.898743 184.0
168.061249 108.0
168.347778 60.0
169.859253 96.0
170.37323 212.0
170.947845 68.0
171.192535 164.0
171.330582 116.0
171.528625 148.0
171.893753 268.0
172.076462 64.0
172.259262 76.0
172.45784 116.0
172.643463 140.0
172.871063 132.0
173.085709 292.0
173.109268 132.0
173.172119 164.0
174.042755 172.0
174.091644 304.0
174.931366 156.0
175.040573 284.0
175.066742 356.0
175.098099 136.0
175.192062 220.0
176.043106 192.0
176.069901 756.0
176.104721 144.0
176.197189 56.0
176.927094 180.0
177.077255 864.0
177.860184 164.0
178.063034 1852.0
178.188232 160.0
178.375488 76.0
178.622787 204.0
178.702591 88.0
178.798386 212.0
178.894333 176.0
178.902985 176.0
179.006027 136.0
179.070618 19436.0
179.155457 72.0
179.259094 128.0
179.280411 52.0
179.304398 84.0
179.349701 108.0
179.411011 60.0
179.429672 72.0
179.477661 64.0
179.565674 84.0
179.605682 40.0
179.739059 56.0
179.811111 64.0
179.89119 96.0
179.995316 68.0
180.03804 48.0
180.073166 2448.0
180.331909 28.0
180.350632 48.0
180.527069 56.0
180.585907 104.0
180.668839 44.0
180.743744 40.0
180.810638 44.0
181.032837 72.0
181.084122 348.0
181.345535 128.0
181.404221 144.0
181.544678 112.0
181.815628 64.0
182.041122 56.0
182.084091 148.0
182.194214 140.0
182.360825 48.0
182.71846 164.0
183.971603 128.0
184.81752 144.0
187.467743 152.0
188.075928 124.0
188.365356 216.0
188.47464 28.0
189.051605 196.0
189.077835 296.0
189.106339 76.0
189.281555 68.0
190.038055 48.0
190.070023 252.0
190.093979 396.0
190.994049 132.0
191.070663 712.0
191.093872 1584.0
191.116241 212.0
191.577621 64.0
192.063934 808.0
192.101227 1476.0
192.631378 160.0
193.015533 144.0
193.051483 128.0
193.085449 7268.0
193.148285 40.0
193.198898 68.0
193.621567 44.0
193.652039 64.0
193.743439 76.0
194.091507 872.0
194.175842 32.0
194.403336 92.0
194.644836 112.0
194.686493 148.0
195.103271 240.0
195.440094 148.0
195.537186 100.0
202.086868 172.0
204.894745 40.0
205.083405 216.0
205.590469 40.0
205.947342 56.0
206.080612 616.0
206.115891 188.0
206.576187 56.0
206.896698 152.0
207.089203 1644.0
207.165894 176.0
207.349258 64.0
207.736343 96.0
208.037659 36.0
208.07785 184.0
208.096695 160.0
210.098129 188.0
210.611954 92.0
210.935577 144.0
212.824463 136.0
216.167816 132.0
217.353821 80.0
218.750565 176.0
222.111664 4008.0
222.221252 60.0
222.252701 88.0
222.288315 68.0
222.356842 84.0
222.436707 148.0
222.641571 60.0
222.784134 60.0
223.113464 128.0
224.099106 80.0
224.119965 56.0
224.337524 124.0
224.465729 168.0
224.632736 92.0
224.937561 52.0
225.014725 56.0
227.097427 128.0
233.238968 60.0
237.118271 100.0
238.917618 120.0
250.448303 56.0
252.123596 80.0
254.55014 108.0
259.75238 76.0
262.115387 84.0
265.645874 44.0
277.173767 68.0
293.709137 76.0
325.453674 40.0
327.053406 88.0
346.949097 64.0
458.386719 60.0
546.537964 96.0
629.37262 104.0
644.541992 100.0
651.559265 48.0
660.971252 72.0
662.845337 92.0
670.486816 40.0
686.479858 64.0
788.669678 72.0
809.315979 96.0
843.823975 260.0
860.089783 128.0
866.827087 156.0
894.414062 220.0
908.486633 216.0
919.431396 148.0
933.528381 116.0
934.179138 120.0
956.385376 152.0
956.43457 132.0
958.990723 184.0
967.589355 212.0
969.466125 136.0
969.509521 104.0
984.976746 220.0
991.120239 112.0
995.216003 188.0
997.087952 192.0
1008.343933 204.0
1012.37384 20.0
1016.291138 48.0
1020.165222 32.0
1020.298706 136.0
1029.429199 184.0
1029.7677 176.0
1030.515015 44.0
1032.925171 140.0
1036.856445 160.0
1045.860962 108.0
1050.719727 164.0
1060.451538 180.0
1069.577271 172.0
1070.091553 148.0
1071.420166 68.0
1072.397583 172.0
1072.748901 152.0
1075.782959 168.0
1085.603638 124.0
1089.095093 136.0
1095.98291 232.0
1097.13623 208.0
1097.986816 164.0
1111.740601 52.0
1111.886597 56.0
1114.669067 136.0
1117.628052 176.0
1120.317749 240.0
1120.824097 48.0
1124.36499 80.0
1129.757202 140.0
1134.377808 252.0
1135.423706 112.0
1138.040771 196.0
1141.279297 168.0
1143.505981 176.0
1145.977295 160.0
1147.197144 120.0
1150.455444 184.0
1154.015747 180.0
1159.688599 164.0
1161.078369 192.0
1163.799561 148.0
1168.46875 148.0
1169.496216 192.0
1173.399536 200.0
1182.176636 192.0
1182.292969 184.0
1182.765259 144.0
1182.888428 60.0
1183.703125 124.0
1185.847412 176.0
1188.467041 136.0
1188.720825 164.0
1192.511719 236.0
1193.144165 148.0
1193.804199 156.0
1194.423218 208.0
1194.478271 84.0
1195.097412 216.0
1195.868164 204.0
1200.208984 164.0
1202.001587 164.0
1203.554565 168.0
1204.314209 144.0
1210.296143 168.0
1212.429688 200.0
1212.554443 112.0
1212.970337 136.0
1213.448608 160.0
1219.953613 220.0
1221.622559 172.0
1227.403198 200.0
1227.933105 124.0
1228.07959 176.0
1230.235718 236.0
1231.213257 140.0
1233.036621 156.0
1233.588867 216.0
1235.826782 232.0
1238.619995 156.0
1241.507568 136.0
1243.7948 60.0
1244.026489 176.0
1245.276367 64.0
1246.709473 176.0
1247.503784 48.0
1249.191406 164.0
1249.599487 152.0
1252.936523 116.0
1253.154907 272.0
1255.297729 204.0
1257.886963 204.0
1263.356445 248.0
1263.604126 168.0
1264.977051 60.0
1265.13269 200.0
1268.937134 192.0
1270.064697 148.0
1273.542603 204.0
1278.497925 156.0
1284.846558 120.0
1289.831055 176.0
1290.352905 164.0
1292.656006 220.0
1293.500488 152.0
1293.894287 80.0
1298.874634 184.0
1300.467529 232.0
1303.85022 48.0
1304.475586 44.0
1306.496338 180.0
1308.828247 192.0
1311.652222 112.0
1312.2146 232.0
1312.748169 232.0
1313.310669 44.0
1317.121704 156.0
1317.699707 112.0
1319.448608 168.0
1321.075806 168.0
1322.276855 112.0
1323.739258 176.0
1324.123047 156.0
1326.898315 120.0
1327.114868 140.0
1331.360718 152.0
1334.696167 200.0
1337.365967 148.0
1339.091553 164.0
1341.517944 76.0
1343.618286 232.0
1345.369751 128.0
1346.939697 68.0
1347.173462 116.0
1350.470093 180.0
1351.728394 212.0
1356.188354 220.0
1358.439453 228.0
1358.592651 168.0
1359.18042 180.0
1361.257812 284.0
1362.851685 152.0
1364.681885 148.0
1365.005371 172.0
1368.154419 176.0
1368.957031 188.0
1372.692993 148.0
1378.753784 160.0
1380.461426 152.0
1380.5354 204.0
1383.546753 204.0
1386.63562 144.0
1386.902344 232.0
1389.445923 196.0
1390.640625 196.0
1393.402954 208.0
1395.283203 148.0
1396.584473 240.0
1400.611328 120.0
1401.907715 144.0
1410.520508 188.0
1411.230713 192.0
1413.324951 120.0
1415.091309 212.0
1416.649048 220.0
1418.537476 148.0
1421.402466 144.0
1421.96521 108.0
1423.654419 104.0
1424.142578 172.0
1424.638306 120.0
1425.487305 204.0
1425.539917 132.0
1426.321533 60.0
1426.592163 116.0
1436.321167 180.0
1438.003662 120.0
1438.932129 144.0
1439.422974 104.0
1444.14624 204.0
1448.960571 172.0
1449.869873 212.0
1450.870361 184.0
1451.234253 40.0
1457.53418 60.0
1458.210571 148.0
1459.008667 172.0
1459.522095 184.0
1460.681641 180.0
1462.3479 172.0
1463.37561 220.0
1465.858765 228.0
1467.5979 184.0
1468.26001 188.0
1470.11377 224.0
1472.419312 164.0
1473.549805 184.0
1478.15271 152.0
1480.816895 136.0
1481.667114 100.0
1484.510742 172.0
1485.3927 100.0
1486.436157 108.0
1491.381958 112.0
1492.035278 144.0
1492.481201 104.0
1494.581055 204.0
1494.711914 200.0
1494.996582 140.0
1496.351318 108.0
1497.452393 164.0
1499.255249 144.0
1499.910278 180.0
1501.591187 216.0
