>compound MLS000069512-01!LY 17188388107-10-2
>formula C16H22N4O3
>ionization [M+H]+
>parentmass 319.1764670160905
#inchi InChI=1S/C16H22N4O3/c1-3-6-13-14(9-8-12(11(2)21)16(13)22)23-10-5-4-7-15-17-19-20-18-15/h8-9,22H,3-7,10H2,1-2H3,(H,17,18,19,20)
#inchikey MWYHLEQJTQJHSS
#Ion_Source LC-ESI
#Instrument qTof
#Compound_Source NIH Pharmacologically Active Library
#PI Dorrestein
#Data_Collector VP/LMS
#Scan -1
#Precursor_MZ 319.183
#ExactMass 318.169
#Charge 1
#CAS_Number N/A
#Pubmed_ID N/A
#Smiles CCCc1c(O)c(ccc1OCCCCc2nn[nH]n2)C(=O)C
#INCHI_AUX N/A
#Library_Class 1
#SpectrumID CCMSLIB00000085593
#IonMode Positive
#UpdateWorkflowName UPDATE-SINGLE-ANNOTATED-GOLD
#LibraryQualityString Gold
#TaskID d252d724072548979f1f6f1ced849daf
##Scan# 2125
#SpectrumFile p4-D02_GD2_01_18362.mzXML
#LibraryName Pharm_Active_Library.mgf
#MQScore -1
#Organism Pharm_Active_Library
#TIC_Query 0
#RT_Query -1
#MZErrorPPM -1
#SharedPeaks 0
#MassDiff 0
#LibMZ -1
#SpecMZ 319.183
#SpecCharge 0
#internalFilename spec-00000.mgf

>collision 10
44.939499 128.0
45.031609 208.0
45.061024 200.0
45.102425 76.0
45.117287 136.0
45.175968 176.0
45.226818 232.0
45.307854 132.0
45.337982 136.0
45.354065 164.0
45.453194 212.0
45.519081 124.0
45.615818 192.0
45.697884 164.0
45.80151 80.0
45.83115 172.0
45.958488 172.0
45.971386 68.0
46.056442 80.0
46.106434 140.0
46.233559 176.0
46.268749 120.0
46.286461 200.0
46.515194 232.0
46.548058 116.0
46.658115 228.0
46.724754 40.0
46.84864 160.0
46.93314 176.0
46.957687 204.0
46.975094 140.0
47.068226 200.0
47.157024 184.0
47.230858 180.0
47.274639 184.0
47.307487 140.0
47.325806 168.0
47.360893 136.0
47.42392 40.0
47.433514 228.0
47.563828 144.0
47.621494 152.0
47.725937 148.0
47.87244 200.0
47.892452 132.0
47.925518 152.0
48.009602 132.0
48.107567 216.0
48.17247 52.0
48.207012 212.0
48.331463 160.0
48.826698 140.0
48.855907 64.0
48.946373 232.0
48.996517 124.0
49.077354 176.0
49.221073 164.0
49.320263 164.0
49.573582 148.0
49.594604 188.0
49.649284 56.0
49.75452 148.0
49.920692 316.0
49.949852 116.0
50.155437 128.0
50.379803 176.0
50.659904 152.0
50.669823 180.0
50.715168 144.0
50.891079 188.0
50.904667 140.0
50.95499 204.0
51.0616 164.0
51.108543 176.0
51.127045 256.0
51.23526 180.0
51.262333 232.0
51.347866 180.0
51.4963 68.0
51.519154 156.0
51.630642 200.0
51.707901 176.0
51.902725 236.0
51.951488 128.0
52.099354 148.0
52.207153 192.0
52.25462 160.0
52.317944 132.0
52.330902 164.0
52.485073 136.0
52.60482 176.0
52.747829 156.0
52.757946 164.0
52.767056 160.0
52.928673 112.0
52.966328 148.0
52.979362 272.0
53.130135 132.0
53.295647 100.0
53.446865 212.0
53.503628 164.0
53.567703 180.0
53.707638 108.0
53.849216 176.0
53.950039 132.0
54.081692 144.0
54.136868 128.0
54.171013 180.0
54.201778 160.0
54.253075 196.0
54.361767 116.0
54.390968 208.0
54.417282 248.0
54.446758 128.0
54.518745 120.0
54.776226 160.0
54.882336 32.0
54.94133 72.0
54.967888 184.0
54.978218 144.0
55.0205 124.0
55.103428 256.0
55.205719 148.0
55.248611 224.0
55.300404 76.0
55.352219 148.0
55.429245 108.0
55.487049 172.0
55.882114 204.0
56.030998 144.0
56.071583 220.0
56.197979 184.0
56.241257 144.0
56.561131 60.0
56.671951 192.0
56.694427 196.0
56.715412 168.0
56.819214 180.0
56.851891 160.0
57.065189 244.0
57.116322 220.0
57.218651 148.0
57.316551 156.0
57.520153 180.0
57.610756 128.0
57.67271 96.0
57.78764 48.0
57.82093 124.0
57.8936 56.0
58.014698 104.0
58.09367 184.0
58.117943 128.0
58.143742 104.0
58.198391 76.0
58.272812 104.0
58.309284 176.0
58.32296 88.0
58.425655 200.0
58.531384 236.0
58.740139 140.0
58.931633 244.0
58.978386 32.0
59.031895 136.0
59.076252 136.0
59.096138 328.0
59.14817 176.0
59.201759 128.0
59.368797 180.0
59.726654 116.0
59.837452 156.0
59.983803 120.0
59.994595 144.0
60.043934 212.0
60.266224 52.0
60.277039 164.0
60.312584 60.0
60.380615 44.0
60.513695 228.0
60.63142 160.0
60.681023 120.0
60.704281 116.0
60.743053 144.0
60.774082 56.0
60.81443 140.0
60.871872 40.0
60.888954 196.0
60.933537 120.0
61.077019 204.0
61.192177 136.0
61.206188 140.0
61.276279 36.0
61.288746 128.0
61.347969 148.0
61.358883 132.0
61.391624 52.0
61.435299 200.0
61.472744 128.0
61.568886 212.0
61.616394 132.0
61.632015 152.0
62.08284 96.0
62.144016 188.0
62.252323 180.0
62.31044 52.0
62.327721 204.0
62.368584 144.0
62.484951 64.0
62.529011 264.0
62.543175 144.0
62.574661 212.0
62.648598 152.0
62.716438 132.0
62.743237 100.0
62.788963 212.0
62.811047 228.0
62.985435 204.0
63.049458 116.0
63.074745 136.0
63.092133 132.0
63.207592 176.0
63.2994 168.0
63.395569 192.0
63.413467 156.0
63.437241 188.0
63.481636 168.0
63.495117 160.0
63.540325 232.0
63.572056 168.0
63.740379 252.0
63.823036 184.0
63.923248 164.0
64.115936 160.0
64.636536 128.0
64.734177 36.0
64.775818 152.0
64.81427 168.0
64.915443 136.0
64.985832 144.0
64.998672 124.0
65.048424 40.0
65.205826 132.0
65.263702 152.0
65.286209 160.0
65.308731 172.0
65.590508 176.0
65.98764 212.0
66.076591 144.0
66.183411 64.0
66.194748 88.0
66.248192 44.0
66.385963 136.0
66.416779 196.0
66.473564 168.0
66.515762 152.0
66.640808 208.0
66.684685 152.0
66.751335 48.0
66.762718 112.0
66.793915 132.0
66.805008 204.0
66.819649 152.0
67.001991 132.0
67.029686 140.0
67.096512 220.0
67.181488 192.0
67.22374 200.0
67.272705 216.0
67.315155 168.0
67.342918 180.0
67.391922 180.0
67.496536 204.0
67.534149 124.0
67.907585 172.0
67.993019 208.0
68.097969 120.0
68.148895 168.0
68.173546 136.0
68.193268 188.0
68.207588 140.0
68.229431 164.0
68.324814 196.0
68.453522 184.0
68.5784 76.0
68.882011 32.0
69.007607 172.0
69.083679 148.0
69.178009 92.0
69.378998 160.0
69.753624 148.0
69.773575 80.0
69.835098 116.0
69.899979 92.0
69.96489 128.0
70.014847 136.0
70.059814 108.0
70.07576 140.0
70.129807 208.0
70.229843 156.0
70.334961 192.0
70.35228 108.0
70.47023 84.0
70.547112 100.0
70.560486 160.0
70.611977 176.0
70.672539 36.0
70.742836 172.0
70.781342 136.0
70.917038 172.0
70.962303 224.0
71.057571 184.0
71.136772 372.0
71.225769 212.0
71.24929 160.0
71.338356 132.0
71.39949 224.0
71.425209 260.0
71.488052 160.0
71.560432 164.0
71.765984 140.0
71.798019 268.0
71.858749 188.0
71.880684 80.0
71.939751 192.0
71.973473 148.0
72.159378 124.0
72.330238 180.0
72.431839 152.0
72.601326 124.0
72.613197 152.0
72.835541 192.0
73.075241 144.0
73.087151 192.0
73.357941 164.0
73.429558 180.0
73.458549 264.0
73.57972 76.0
73.624115 200.0
73.820641 108.0
74.056808 132.0
74.075653 160.0
74.096214 96.0
74.113991 212.0
74.142479 120.0
74.265915 112.0
74.410988 176.0
74.439255 168.0
74.48391 188.0
74.552635 84.0
74.588722 152.0
74.616821 228.0
74.674698 236.0
74.722862 232.0
74.748482 180.0
74.754173 224.0
74.78653 216.0
74.834732 216.0
75.036316 112.0
75.08287 68.0
75.18811 136.0
75.215721 176.0
75.365974 204.0
75.381523 188.0
75.42646 232.0
75.540588 140.0
75.606331 148.0
75.687691 72.0
75.880013 120.0
75.914696 180.0
76.211517 120.0
76.370941 68.0
76.446266 176.0
76.481071 152.0
76.525955 200.0
76.683113 168.0
76.831329 260.0
76.906364 184.0
76.943024 80.0
77.079971 196.0
77.150917 144.0
77.227859 116.0
77.289085 188.0
77.327583 172.0
77.366096 64.0
77.762245 140.0
77.802612 108.0
77.848267 176.0
77.941368 96.0
78.083755 228.0
78.145325 88.0
78.19973 232.0
78.250931 200.0
78.384789 112.0
78.495842 156.0
78.511711 184.0
78.654625 104.0
78.689934 240.0
78.755272 172.0
78.767639 188.0
78.822403 140.0
78.844513 196.0
79.002747 48.0
79.061134 44.0
79.124855 100.0
79.266556 196.0
79.306618 184.0
79.420792 124.0
79.465141 384.0
79.48111 228.0
79.541451 116.0
79.5867 156.0
79.633781 212.0
79.724388 172.0
79.738602 168.0
79.775932 160.0
79.816826 184.0
79.86306 176.0
79.893303 164.0
80.005417 180.0
80.046371 124.0
80.106926 176.0
80.192451 136.0
80.244148 196.0
80.261978 176.0
80.32618 124.0
80.447525 168.0
80.545738 200.0
80.62252 160.0
80.679764 80.0
80.745918 188.0
80.823601 236.0
80.856842 176.0
80.876534 172.0
80.93203 212.0
80.980034 104.0
81.206207 372.0
81.233116 144.0
81.247467 156.0
81.2995 112.0
81.574608 140.0
81.81356 204.0
81.829765 244.0
81.84597 88.0
82.112671 124.0
82.201073 180.0
82.34549 112.0
82.482811 172.0
82.528008 144.0
82.804649 196.0
83.031418 120.0
83.069893 172.0
83.272804 96.0
83.321846 36.0
83.381813 164.0
83.405441 244.0
83.700165 84.0
83.722015 124.0
84.055611 168.0
84.223572 160.0
84.320412 160.0
84.399017 184.0
84.488632 196.0
84.525223 136.0
84.559998 216.0
84.649696 116.0
85.016792 208.0
85.031013 192.0
85.135658 144.0
85.304695 148.0
85.376396 180.0
85.54567 132.0
85.567764 124.0
85.685638 136.0
85.858902 184.0
85.892105 132.0
85.918785 184.0
86.039734 112.0
86.217056 124.0
86.242928 52.0
86.333519 164.0
86.662239 144.0
86.770508 116.0
86.852104 36.0
86.993546 248.0
87.017258 104.0
87.035828 40.0
87.076683 164.0
87.104507 224.0
87.151947 176.0
87.186295 112.0
87.303413 124.0
87.325729 184.0
87.361069 212.0
87.381538 208.0
87.43364 200.0
87.495064 252.0
87.556511 184.0
87.726067 148.0
87.892052 144.0
88.002182 144.0
88.060066 176.0
88.119843 208.0
88.175903 148.0
88.196465 196.0
88.235718 184.0
88.283562 164.0
88.336708 156.0
88.542595 172.0
88.559448 112.0
88.572563 212.0
88.58567 80.0
88.626892 196.0
88.711227 104.0
88.788101 168.0
88.803108 132.0
88.891281 124.0
88.932571 60.0
89.144791 180.0
89.161697 312.0
89.188011 196.0
89.280136 156.0
89.317757 128.0
89.391129 148.0
89.425003 144.0
89.453239 136.0
89.496536 144.0
89.50972 172.0
89.688698 168.0
89.765991 176.0
90.04718 148.0
90.069847 188.0
90.188889 204.0
90.353401 192.0
90.374214 148.0
90.481911 200.0
90.698051 160.0
90.796646 160.0
90.808853 128.0
90.836472 184.0
90.950325 136.0
90.971207 104.0
91.053955 632.0
91.079445 52.0
91.100334 160.0
91.115662 176.0
91.140236 132.0
91.25618 156.0
91.379799 192.0
91.50351 148.0
91.694 200.0
91.756905 108.0
92.039284 92.0
92.05265 160.0
92.083206 192.0
92.117584 172.0
92.132866 84.0
92.178719 208.0
92.475899 184.0
92.50386 192.0
92.519173 208.0
92.561295 52.0
92.574699 124.0
92.609169 188.0
92.752876 72.0
92.787384 160.0
92.902451 124.0
92.956711 200.0
92.982239 220.0
93.03447 268.0
93.070526 648.0
93.282677 140.0
93.405739 116.0
93.503868 112.0
93.619377 68.0
93.771576 48.0
93.86657 204.0
94.0401 176.0
94.159363 156.0
94.183357 180.0
94.255959 184.0
94.406731 152.0
94.428009 168.0
94.461113 172.0
94.487976 200.0
94.516998 172.0
94.551826 64.0
94.567314 32.0
94.605804 212.0
94.650551 136.0
94.737709 72.0
94.797775 132.0
94.818291 184.0
94.84816 156.0
94.943169 196.0
95.011055 192.0
95.047264 284.0
95.088669 212.0
95.498619 216.0
95.597839 100.0
95.749687 264.0
95.811028 220.0
95.837349 140.0
95.895813 32.0
95.925049 164.0
95.989388 192.0
96.020592 168.0
96.053864 208.0
96.145447 44.0
96.26844 152.0
96.28746 140.0
96.354378 120.0
96.434494 152.0
96.528336 116.0
96.604614 112.0
96.737679 200.0
96.761177 132.0
96.794456 168.0
96.845375 160.0
96.861046 44.0
96.917862 148.0
96.96489 192.0
97.0755 1132.0
97.09269 216.0
97.255165 100.0
97.272835 172.0
97.433861 40.0
97.583229 172.0
97.669762 56.0
97.905128 156.0
97.943359 72.0
98.014282 196.0
98.078331 140.0
98.091141 168.0
98.185783 156.0
98.252846 140.0
98.390999 204.0
98.661652 136.0
98.722946 164.0
98.86142 128.0
98.902985 108.0
99.047531 104.0
99.091095 356.0
99.164429 188.0
99.2239 124.0
99.28537 220.0
99.495697 136.0
99.519516 116.0
99.670471 96.0
99.755936 240.0
99.817566 204.0
99.845406 148.0
100.008804 128.0
100.092171 116.0
100.231598 152.0
100.379105 248.0
100.718384 180.0
100.886238 204.0
101.037247 188.0
101.362587 160.0
101.396652 144.0
101.518944 140.0
101.543007 76.0
101.574615 100.0
101.67141 136.0
101.687462 136.0
101.908356 168.0
102.044167 188.0
102.302536 152.0
102.362938 120.0
102.38308 152.0
102.407242 124.0
102.655128 156.0
102.729752 116.0
102.763672 212.0
102.828629 136.0
102.973991 168.0
103.055283 1608.0
103.291321 68.0
103.349991 192.0
103.370224 156.0
103.431633 200.0
103.451187 192.0
103.842255 172.0
104.053223 864.0
104.095932 156.0
104.242188 128.0
104.279274 176.0
104.335686 160.0
104.351952 172.0
104.437355 276.0
104.459732 220.0
104.708054 188.0
104.936279 156.0
105.011726 124.0
105.0355 404.0
105.070419 1232.0
105.10965 116.0
105.170876 184.0
105.188904 168.0
105.321968 112.0
105.354652 76.0
105.387344 204.0
105.428207 184.0
105.60421 188.0
105.671539 124.0
105.712463 152.0
106.065681 236.0
106.091377 60.0
106.152885 120.0
106.657936 200.0
106.847122 144.0
106.861526 68.0
106.94384 216.0
106.99942 52.0
107.013832 220.0
107.049377 3864.0
107.072044 168.0
107.091568 184.0
107.137398 240.0
107.176544 60.0
107.193031 208.0
107.221886 224.0
107.275475 144.0
107.489967 188.0
107.51886 76.0
107.543625 140.0
107.617943 60.0
107.810509 196.0
107.991982 204.0
108.025078 208.0
108.056236 384.0
108.080933 140.0
108.283806 216.0
108.391533 200.0
108.41951 76.0
108.449554 124.0
108.546997 72.0
108.609215 136.0
108.69635 56.0
108.779366 196.0
108.812576 228.0
108.862411 100.0
109.026527 112.0
109.064735 1080.0
109.101357 296.0
109.286453 192.0
109.355125 232.0
109.373863 180.0
109.47171 184.0
109.575859 168.0
109.690475 68.0
109.709236 124.0
109.817665 108.0
109.921974 156.0
110.038635 180.0
110.067093 368.0
110.295815 144.0
110.335533 88.0
110.358528 208.0
110.429626 228.0
110.6661 128.0
110.766617 164.0
110.791756 164.0
110.965706 128.0
111.044502 5712.0
111.102028 84.0
111.116714 40.0
111.146088 136.0
111.223732 52.0
111.351814 120.0
111.552406 128.0
111.589264 404.0
111.664963 48.0
111.698624 128.0
111.78067 140.0
111.879593 168.0
111.961708 84.0
112.047516 788.0
112.104965 144.0
112.178734 136.0
112.252525 180.0
112.322121 164.0
112.395966 152.0
112.488823 184.0
112.647202 92.0
112.738052 156.0
112.790886 144.0
112.888138 256.0
112.991783 176.0
113.017174 108.0
113.044678 164.0
113.125107 164.0
113.199211 96.0
113.214035 72.0
113.256393 140.0
113.428024 56.0
113.449226 204.0
113.514954 76.0
113.7547 72.0
113.826881 116.0
113.892715 228.0
113.954323 176.0
114.00415 216.0
114.04995 152.0
114.137115 92.0
114.234726 152.0
114.460732 140.0
114.528419 184.0
114.824951 192.0
115.012711 208.0
115.05381 1304.0
115.115379 44.0
115.217712 140.0
115.262581 272.0
115.357689 164.0
115.478493 140.0
115.572624 52.0
115.638962 148.0
115.703178 136.0
115.735291 128.0
115.754562 160.0
115.793594 160.0
115.812386 160.0
115.874939 200.0
115.891655 172.0
115.951759 160.0
116.003098 32.0
116.051079 1624.0
116.093147 32.0
116.251892 152.0
116.31842 104.0
116.522438 156.0
116.649231 56.0
116.713722 132.0
116.82341 64.0
117.010643 96.0
117.069931 1236.0
117.16497 212.0
117.191559 224.0
117.241119 204.0
117.260513 132.0
117.479149 232.0
117.714294 220.0
117.838829 156.0
117.85611 220.0
117.882042 112.0
117.974983 144.0
118.044167 248.0
118.065346 252.0
118.160965 168.0
118.30246 116.0
118.325447 68.0
118.349266 264.0
118.565887 152.0
118.626572 168.0
118.676437 60.0
118.693787 204.0
118.712524 168.0
118.841278 192.0
118.869484 188.0
118.886848 116.0
119.049301 1068.0
119.085335 772.0
119.109535 152.0
119.232147 52.0
119.288658 64.0
119.497437 108.0
119.623657 204.0
119.695503 148.0
119.723816 124.0
119.880661 88.0
119.978745 164.0
120.049583 292.0
120.078178 580.0
120.113945 160.0
120.205582 40.0
120.321259 68.0
120.4086 140.0
120.526566 144.0
120.867676 224.0
120.918694 216.0
120.972725 112.0
121.030464 140.0
121.064789 1332.0
121.104279 200.0
121.193924 44.0
121.209259 172.0
121.288155 156.0
121.406548 192.0
121.448219 100.0
121.718155 180.0
121.746704 184.0
121.806084 112.0
121.841156 112.0
121.882896 112.0
121.955421 192.0
122.005981 164.0
122.039452 160.0
122.070412 172.0
122.093933 176.0
122.228119 192.0
122.296341 156.0
122.322754 152.0
122.399811 104.0
122.582642 108.0
122.783249 108.0
123.044449 3992.0
123.072197 208.0
123.173912 104.0
123.19738 132.0
123.231354 116.0
123.37722 128.0
123.653717 208.0
123.747734 212.0
123.919441 136.0
123.988136 88.0
124.014732 220.0
124.050285 388.0
124.218727 188.0
124.303032 116.0
124.449532 216.0
124.587105 216.0
124.636055 200.0
124.669441 184.0
124.737152 172.0
124.781555 164.0
124.817619 200.0
124.858406 312.0
124.87397 88.0
124.898911 416.0
124.925133 220.0
124.9496 152.0
125.017464 128.0
125.05661 524.0
125.082695 34036.0
125.165237 64.0
125.174156 72.0
125.23008 52.0
125.308044 52.0
125.32505 76.0
125.372665 52.0
125.40387 92.0
125.444481 144.0
125.467445 176.0
125.495262 156.0
125.555267 176.0
125.584465 228.0
125.696259 36.0
125.740646 84.0
125.760727 40.0
125.778587 128.0
125.809837 32.0
125.912552 48.0
125.988495 60.0
126.022003 236.0
126.056824 360.0
126.086067 1312.0
126.162804 104.0
126.246132 196.0
126.303688 196.0
126.346191 72.0
126.366325 120.0
126.393173 96.0
126.420029 128.0
126.467026 148.0
126.484932 220.0
126.729034 44.0
126.816429 192.0
126.884956 144.0
126.966644 64.0
127.000282 108.0
127.02047 120.0
127.055244 632.0
127.082542 120.0
127.105728 80.0
127.121437 104.0
127.179787 108.0
127.269585 148.0
127.307755 180.0
127.435791 56.0
127.590866 196.0
127.832588 196.0
128.060486 2024.0
128.124237 36.0
128.185074 44.0
128.306778 56.0
128.525558 144.0
128.563919 152.0
128.62648 200.0
128.672272 124.0
128.740005 228.0
128.970444 208.0
129.046585 548.0
129.068329 612.0
129.305191 176.0
129.361771 180.0
129.521408 96.0
129.542419 212.0
129.72876 128.0
129.812637 148.0
129.885223 120.0
129.91127 132.0
129.953278 96.0
129.998657 80.0
130.035446 172.0
130.066055 976.0
130.273392 136.0
130.532486 188.0
130.64949 188.0
130.80777 164.0
130.951218 160.0
131.011063 252.0
131.049301 5560.0
131.080353 612.0
131.140335 32.0
131.208817 184.0
131.22963 168.0
131.299927 164.0
131.315887 68.0
131.383728 168.0
131.474319 80.0
131.589722 36.0
131.718781 176.0
131.767868 124.0
131.927841 196.0
131.955276 64.0
131.987289 204.0
132.046951 1600.0
132.081619 604.0
132.403763 64.0
132.461029 92.0
132.777328 144.0
132.79567 64.0
132.873672 92.0
133.005539 156.0
133.031738 320.0
133.064056 2004.0
133.126144 60.0
133.14682 96.0
133.231812 60.0
133.365082 44.0
133.401855 64.0
133.493835 216.0
133.688492 84.0
133.915375 140.0
133.956451 52.0
134.036072 728.0
134.065491 408.0
134.095398 172.0
134.290665 192.0
134.38295 172.0
134.447556 104.0
134.500641 104.0
134.53064 112.0
134.553726 192.0
134.664566 148.0
134.736664 172.0
134.826294 48.0
135.020493 184.0
135.04483 3768.0
135.081223 328.0
135.107727 56.0
135.145401 72.0
135.307419 64.0
135.335205 68.0
135.39772 180.0
135.446365 76.0
135.488052 188.0
135.715195 100.0
135.947144 96.0
136.046463 160.0
136.100357 112.0
136.121246 104.0
136.200211 64.0
136.537231 144.0
136.586075 112.0
136.700073 204.0
136.814117 56.0
136.830414 188.0
136.925888 108.0
136.987259 192.0
137.02504 452.0
137.059723 7168.0
137.093491 340.0
137.127563 148.0
137.242798 36.0
137.273117 56.0
137.347137 84.0
137.560089 40.0
137.655807 196.0
137.70018 168.0
137.777267 128.0
137.833344 60.0
137.978256 112.0
138.060822 984.0
138.111542 52.0
138.165344 88.0
138.309097 224.0
138.446228 164.0
138.584427 100.0
138.605515 160.0
138.626602 156.0
138.654724 36.0
138.680511 132.0
138.910294 180.0
138.957214 80.0
139.038055 64.0
139.063461 304.0
139.086288 180.0
139.19194 56.0
139.302322 184.0
139.455048 152.0
139.542023 52.0
139.631927 188.0
139.694885 188.0
139.739594 160.0
139.757339 220.0
139.956131 52.0
140.048035 280.0
140.078598 160.0
140.139847 168.0
140.179901 240.0
140.422714 192.0
140.439224 188.0
140.460464 96.0
140.801819 172.0
140.805847 108.0
140.815643 208.0
140.899536 128.0
141.06485 400.0
141.069489 204.0
141.502625 204.0
141.554718 124.0
141.656555 216.0
141.772659 212.0
141.798721 148.0
141.817688 128.0
141.931473 100.0
141.995499 88.0
142.067352 540.0
142.318237 136.0
142.983841 248.0
143.046539 168.0
143.076614 824.0
143.379166 200.0
143.488815 156.0
143.515045 188.0
143.560349 124.0
143.62236 228.0
143.722565 192.0
143.744598 136.0
144.046295 1344.0
144.081573 452.0
144.190598 236.0
144.592392 160.0
144.637863 172.0
144.867752 96.0
144.889313 136.0
144.910873 124.0
144.940643 216.0
145.028931 160.0
145.06398 988.0
145.093842 208.0
145.174545 68.0
145.198517 60.0
145.253693 52.0
145.390442 312.0
145.46965 76.0
145.613724 40.0
145.666565 148.0
145.702591 160.0
146.031403 304.0
146.067627 1000.0
146.095566 208.0
146.178665 152.0
146.217163 212.0
146.373642 256.0
146.592194 204.0
146.820541 196.0
146.891815 184.0
146.961777 172.0
147.007629 212.0
147.044662 16652.0
147.078735 676.0
147.106583 156.0
147.154495 52.0
147.203156 48.0
147.309418 180.0
147.386734 212.0
147.420563 144.0
147.442307 28.0
147.487091 76.0
147.529327 92.0
147.568008 96.0
147.638138 188.0
147.696182 156.0
147.771179 128.0
147.795364 212.0
147.821991 72.0
147.872803 76.0
147.91153 132.0
148.043304 1740.0
148.079941 836.0
148.102814 316.0
148.168228 68.0
148.211838 136.0
148.253036 132.0
148.364532 96.0
148.422714 220.0
148.592499 68.0
148.61676 116.0
148.655579 80.0
148.735672 184.0
148.791504 140.0
148.894974 124.0
148.940689 148.0
148.948593 64.0
148.955826 192.0
149.002792 140.0
149.02211 1204.0
149.059967 5860.0
149.092255 644.0
149.159912 236.0
149.226395 68.0
149.254089 136.0
149.283844 72.0
149.306641 96.0
149.360138 228.0
149.472061 76.0
149.562103 44.0
149.661911 64.0
149.691132 148.0
149.732529 136.0
149.755951 176.0
149.859207 140.0
149.959106 136.0
149.985931 244.0
150.034683 52.0
150.066681 876.0
150.156601 124.0
150.193176 168.0
150.224899 200.0
150.437195 84.0
150.569046 48.0
150.661865 164.0
150.698517 216.0
150.789551 204.0
150.94783 148.0
150.97229 64.0
151.015396 96.0
151.041428 844.0
151.075775 1448.0
151.113998 176.0
151.163101 180.0
151.292816 96.0
151.358917 28.0
151.398102 192.0
151.559769 220.0
151.579376 32.0
151.633286 188.0
151.915268 156.0
151.969238 116.0
152.028137 276.0
152.05043 144.0
152.061462 172.0
152.071716 116.0
152.07518 164.0
152.126312 164.0
152.161972 144.0
152.57341 204.0
152.880875 140.0
152.95224 172.0
153.053772 2104.0
153.091934 1904.0
153.131989 80.0
153.247772 124.0
154.014984 168.0
154.063232 504.0
154.085739 468.0
155.065613 196.0
155.088211 176.0
155.267349 96.0
155.411224 32.0
155.900391 272.0
156.044556 3276.0
156.081161 448.0
156.132278 156.0
156.158951 64.0
156.470001 144.0
156.589523 172.0
156.851135 160.0
156.923431 48.0
157.05188 924.0
157.100647 168.0
157.130447 72.0
157.322601 156.0
157.432465 68.0
157.45993 144.0
158.027374 276.0
158.061493 1268.0
158.088776 220.0
158.485565 188.0
158.553223 136.0
158.601044 152.0
158.638443 148.0
158.836548 144.0
158.992111 72.0
159.046021 1328.0
159.125717 156.0
159.491913 72.0
159.5271 144.0
159.635208 200.0
159.655334 116.0
159.723236 120.0
159.916977 180.0
160.050064 1220.0
160.076309 836.0
160.122391 204.0
160.183884 72.0
160.201523 32.0
160.330017 92.0
160.403107 160.0
160.539703 204.0
160.652756 224.0
160.67041 204.0
160.763062 100.0
160.970535 176.0
161.016235 196.0
161.059891 6220.0
161.092606 692.0
161.152603 192.0
161.281525 60.0
161.327011 44.0
161.519196 76.0
161.567261 52.0
161.645187 80.0
161.693787 128.0
161.719315 88.0
161.860855 92.0
162.026154 152.0
162.056931 1684.0
162.090408 188.0
162.253586 96.0
162.29921 36.0
162.611237 220.0
162.933731 240.0
162.973648 160.0
162.997253 176.0
163.075195 1376.0
163.208221 108.0
163.302307 120.0
163.363358 156.0
163.470215 148.0
163.493118 184.0
163.587296 68.0
163.722244 124.0
163.826675 168.0
163.890366 304.0
163.937576 152.0
164.059692 172.0
164.214111 48.0
164.285538 156.0
164.461609 132.0
164.558609 84.0
164.64032 140.0
164.826126 120.0
165.021057 164.0
165.054443 7612.0
165.090866 2824.0
165.132156 168.0
165.159149 196.0
165.192398 36.0
165.368958 44.0
165.439438 120.0
165.488266 92.0
165.527679 124.0
165.658295 56.0
165.840225 116.0
165.970978 172.0
166.06012 604.0
166.093704 452.0
166.168472 76.0
166.186432 244.0
166.240311 124.0
166.271103 212.0
166.342972 52.0
166.497025 64.0
166.666565 68.0
167.000763 92.0
167.07103 228.0
167.097656 444.0
167.263214 132.0
167.430573 168.0
167.693359 96.0
167.832565 44.0
167.992462 48.0
168.094666 144.0
168.454544 32.0
168.844833 84.0
168.883621 100.0
169.041443 152.0
169.079636 184.0
169.087952 140.0
169.093765 180.0
169.144958 172.0
169.385773 80.0
169.844574 152.0
169.950943 220.0
170.013214 192.0
170.05661 496.0
170.098724 144.0
170.259689 204.0
170.387115 104.0
170.485855 44.0
171.042343 556.0
171.066498 580.0
171.100159 184.0
171.159592 188.0
171.305435 72.0
171.414871 156.0
171.511292 124.0
171.539322 128.0
171.623398 136.0
171.782486 160.0
171.819 208.0
171.85553 168.0
171.92598 140.0
172.039413 10812.0
172.075897 520.0
172.109985 172.0
172.137436 228.0
172.38298 132.0
172.435257 56.0
172.565948 40.0
172.599945 124.0
172.628708 104.0
172.683624 64.0
172.756866 92.0
172.934799 148.0
173.003265 256.0
173.043503 1220.0
173.094498 328.0
173.214966 56.0
173.319763 112.0
173.340729 40.0
173.521576 184.0
173.579269 136.0
173.647446 100.0
173.72876 148.0
173.760239 72.0
173.80484 156.0
173.912445 112.0
174.013168 172.0
174.05748 2348.0
174.138245 108.0
174.209167 132.0
174.243317 48.0
174.527161 60.0
174.587646 100.0
174.737579 92.0
174.790207 56.0
175.037628 292.0
175.075195 2224.0
175.156143 188.0
175.193024 40.0
175.443375 188.0
175.501389 156.0
175.562027 40.0
175.63324 188.0
175.654343 176.0
175.701828 60.0
175.790436 240.0
175.810013 92.0
175.939346 28.0
176.034683 828.0
176.075623 552.0
176.11319 92.0
176.200806 36.0
176.219299 52.0
176.380493 124.0
176.467743 32.0
176.594666 84.0
176.615829 88.0
176.705765 164.0
176.724289 128.0
176.742813 76.0
176.779861 168.0
176.959152 188.0
176.996307 208.0
177.006516 160.0
177.054901 4968.0
177.090759 7388.0
177.145233 48.0
177.175369 40.0
177.259155 60.0
177.298904 28.0
177.428299 108.0
177.447571 144.0
177.617065 208.0
177.686035 88.0
177.72583 36.0
177.744415 40.0
177.893036 36.0
178.056549 968.0
178.093262 1260.0
178.166565 172.0
178.262207 116.0
178.397766 124.0
178.466888 48.0
178.512085 128.0
178.583893 72.0
178.631775 72.0
178.810043 156.0
178.972427 32.0
179.070267 4976.0
179.100479 676.0
179.126892 104.0
179.17485 152.0
179.206818 160.0
179.240067 84.0
179.292084 72.0
179.313416 88.0
179.398697 68.0
179.449356 108.0
179.6147 56.0
179.725418 136.0
179.950943 208.0
180.071747 856.0
180.103638 160.0
180.300873 52.0
180.340195 128.0
180.450562 44.0
180.531204 76.0
180.575333 200.0
180.637772 68.0
180.774216 76.0
180.889297 176.0
181.080032 288.0
181.119583 32.0
181.323212 104.0
181.347504 120.0
181.419708 92.0
181.438477 176.0
182.062546 436.0
182.093201 132.0
182.490906 56.0
182.512421 132.0
183.075043 148.0
183.169083 48.0
183.44664 180.0
183.975372 64.0
184.038895 772.0
184.111893 144.0
184.199509 176.0
184.548126 96.0
185.053909 728.0
185.094299 136.0
185.249069 72.0
185.417068 48.0
185.465851 36.0
185.576996 40.0
185.647507 52.0
185.688187 112.0
185.992065 168.0
186.024628 140.0
186.055038 6304.0
186.090683 784.0
186.125092 124.0
186.179398 44.0
186.220139 72.0
186.266312 60.0
186.374985 144.0
186.421173 116.0
186.627762 64.0
186.649506 104.0
186.891586 176.0
187.019501 164.0
187.060379 572.0
187.111221 236.0
187.136551 168.0
187.452515 196.0
187.515198 208.0
187.749664 116.0
187.849533 104.0
187.962433 104.0
188.011551 112.0
188.074463 800.0
188.100586 116.0
188.111374 272.0
188.205368 140.0
188.270905 136.0
188.601486 72.0
188.970673 104.0
188.992554 368.0
189.055283 672.0
189.091248 7668.0
189.129395 48.0
189.189606 68.0
189.272614 164.0
189.367599 88.0
189.403198 48.0
189.542923 92.0
189.660767 176.0
189.722992 160.0
189.75946 96.0
190.04921 5112.0
190.087387 2128.0
190.223083 140.0
190.253281 80.0
190.278976 92.0
190.332901 100.0
190.419037 76.0
190.604828 96.0
190.676285 184.0
190.794479 156.0
190.882462 160.0
191.069122 1084.0
191.105164 2020.0
191.136536 164.0
191.182312 36.0
191.264877 48.0
191.476883 96.0
191.540222 148.0
191.589813 100.0
191.620117 100.0
191.688995 48.0
191.756516 144.0
191.843353 220.0
191.912277 72.0
191.95639 48.0
191.994995 40.0
192.077133 572.0
192.434433 112.0
192.497238 76.0
192.756897 64.0
192.809402 136.0
192.936554 48.0
193.083023 1700.0
193.182678 80.0
193.268448 60.0
193.304413 108.0
193.334854 176.0
193.356995 40.0
193.463776 104.0
194.08873 728.0
194.199249 228.0
194.390671 68.0
194.523895 32.0
194.812698 164.0
194.948837 224.0
195.007202 164.0
195.101624 14120.0
195.251862 80.0
195.28801 40.0
195.466064 40.0
195.806458 72.0
195.859436 124.0
195.897598 52.0
195.983978 176.0
196.064789 148.0
196.1017 1308.0
196.382614 196.0
196.51651 52.0
196.572327 64.0
196.656036 108.0
196.759323 176.0
196.858139 72.0
196.918488 64.0
197.058167 128.0
197.077728 88.0
197.114395 224.0
197.241211 104.0
197.267761 92.0
197.312485 52.0
197.365616 92.0
197.634125 84.0
197.653717 48.0
197.760056 52.0
198.061569 356.0
198.085297 184.0
198.337051 192.0
198.370697 44.0
198.404327 64.0
198.547333 32.0
198.740891 120.0
198.768951 164.0
198.839111 144.0
199.065445 984.0
199.09642 128.0
199.423294 176.0
199.583527 132.0
199.752274 136.0
199.937973 52.0
200.039291 136.0
200.069855 1092.0
200.264557 180.0
201.071152 280.0
201.113235 176.0
201.460556 160.0
202.050232 632.0
202.086899 3076.0
202.161758 212.0
202.232513 56.0
202.289124 148.0
202.889694 120.0
203.011612 204.0
203.065414 244.0
203.087494 496.0
203.403137 68.0
203.678574 148.0
204.064789 4640.0
204.098618 484.0
204.136948 276.0
204.247055 116.0
204.32103 80.0
204.429138 40.0
204.463303 44.0
204.634094 60.0
204.654022 68.0
204.685333 104.0
204.9189 56.0
204.938843 48.0
205.072403 320.0
205.082611 820.0
205.11348 276.0
205.223862 112.0
205.745972 88.0
206.097519 136.0
206.86087 40.0
207.101227 2020.0
207.136581 620.0
207.210251 84.0
208.103058 188.0
208.133804 312.0
208.495758 52.0
209.093948 208.0
210.013031 48.0
210.093796 252.0
210.630722 64.0
211.079224 416.0
211.119171 116.0
211.553177 96.0
211.695038 60.0
212.070648 344.0
212.108688 304.0
212.257202 88.0
212.289108 64.0
212.674957 188.0
213.011795 72.0
213.077728 696.0
213.082031 104.0
213.174484 80.0
213.65715 92.0
213.732788 132.0
213.811356 40.0
213.90741 176.0
213.980194 80.0
214.086349 1980.0
214.123428 364.0
214.201523 68.0
214.242294 92.0
214.26561 84.0
214.30542 120.0
214.484161 40.0
214.562866 76.0
214.711578 64.0
214.75824 80.0
215.01561 76.0
215.10524 632.0
215.260208 148.0
215.66922 48.0
216.072922 176.0
216.105499 440.0
216.464981 120.0
217.068619 152.0
217.113083 160.0
217.197662 100.0
218.080399 816.0
218.125549 160.0
218.157883 100.0
219.095078 172.0
219.155579 160.0
219.267563 104.0
219.535202 168.0
219.583023 184.0
219.960693 56.0
220.095947 3368.0
220.133179 220.0
220.158508 52.0
220.193939 60.0
220.450958 132.0
220.663788 84.0
221.116989 584.0
221.270294 64.0
222.091125 168.0
222.123764 136.0
222.693649 56.0
224.073914 148.0
225.353912 176.0
226.090668 456.0
226.322937 60.0
227.027115 148.0
227.06311 92.0
227.093872 340.0
227.117096 184.0
227.277054 176.0
227.504181 48.0
227.891617 44.0
228.10257 296.0
228.354553 96.0
229.11998 196.0
229.179382 40.0
230.08316 1072.0
230.130951 180.0
230.165695 140.0
230.624893 84.0
230.661163 112.0
230.933304 76.0
231.048248 136.0
231.120956 940.0
231.220718 48.0
231.353897 64.0
231.438675 60.0
231.523468 48.0
231.735504 132.0
232.099487 1168.0
232.13121 1284.0
232.272079 68.0
232.469284 96.0
232.520874 32.0
232.663544 72.0
233.105301 864.0
233.164734 168.0
233.855118 60.0
234.152634 148.0
234.674576 68.0
235.022278 36.0
235.1474 80.0
235.605423 96.0
237.254944 68.0
237.843918 48.0
237.908371 64.0
238.09874 176.0
238.442841 188.0
239.117722 128.0
240.096069 140.0
241.104797 172.0
242.11412 180.0
242.2659 68.0
242.479691 72.0
244.096863 300.0
244.23703 144.0
244.498383 224.0
245.103226 192.0
246.112335 1140.0
246.150223 176.0
246.306732 56.0
246.459824 48.0
246.606689 116.0
246.841171 88.0
247.104523 140.0
248.140564 204.0
249.100876 112.0
249.156677 576.0
250.107086 148.0
256.131989 368.0
257.060608 188.0
257.121246 384.0
257.165924 144.0
258.114197 328.0
258.402588 92.0
259.121063 288.0
259.417786 56.0
260.107391 152.0
260.148407 164.0
261.167816 92.0
261.39624 52.0
272.123016 156.0
273.130737 136.0
273.161499 160.0
274.145477 568.0
274.416229 36.0
274.779022 52.0
275.033112 100.0
275.128113 196.0
276.155792 168.0
277.089996 40.0
277.202667 140.0
277.507599 84.0
279.084717 116.0
281.507202 56.0
282.603577 32.0
284.184998 72.0
291.177795 136.0
295.826965 36.0
302.162689 52.0
304.776917 48.0
307.147736 80.0
311.063354 96.0
315.113251 124.0
317.796997 76.0
318.2229 128.0
319.203583 48.0
319.345856 52.0
319.566406 76.0
321.062469 108.0
322.43338 92.0
328.656616 96.0
332.115082 112.0
334.404114 56.0
337.753601 72.0
341.649323 84.0
343.989349 96.0
347.493988 44.0
349.273407 40.0
351.210297 72.0
353.219879 40.0
361.569 48.0
368.340668 96.0
376.834686 48.0
381.528046 96.0
382.57843 60.0
388.91098 84.0
390.635956 76.0
391.218384 84.0
392.95636 68.0
428.162567 80.0
428.912445 128.0
437.466461 120.0
455.507324 68.0
461.747345 32.0
467.504639 52.0
471.59317 68.0
471.809296 72.0
473.021179 108.0
479.11322 64.0
485.740417 76.0
492.899048 84.0
515.181519 44.0
516.30249 80.0
520.925598 132.0
524.912537 128.0
532.504761 96.0
544.225159 80.0
555.453735 188.0
565.546753 60.0
573.602661 88.0
579.250854 152.0
583.070068 52.0
593.002625 116.0
600.372986 48.0
614.199219 92.0
637.289429 44.0
647.291809 72.0
650.892029 60.0
683.160522 88.0
689.636841 68.0
699.387512 100.0
715.166077 176.0
726.108215 132.0
729.931824 100.0
730.146912 208.0
737.819885 100.0
744.774292 56.0
754.165344 192.0
755.013367 208.0
767.599976 148.0
767.770935 48.0
777.835205 156.0
798.272827 100.0
809.859314 88.0
812.217224 156.0
814.499084 168.0
815.96521 124.0
828.75 156.0
831.571411 152.0
838.778442 100.0
846.89093 92.0
849.000549 92.0
849.673401 68.0
852.419739 128.0
854.210449 64.0
862.519836 248.0
870.681458 116.0
871.345215 52.0
871.791809 72.0
872.403076 140.0
882.153442 216.0
886.960022 88.0
890.502258 52.0
891.845032 52.0
894.581238 156.0
896.272705 232.0
900.215576 124.0
902.360657 128.0
902.988525 204.0
907.149963 220.0
912.721497 172.0
917.399536 36.0
923.304688 204.0
925.325745 80.0
928.046143 116.0
933.65094 160.0
939.839966 220.0
945.229309 200.0
955.328125 88.0
961.786011 164.0
962.893494 160.0
963.11969 128.0
963.583008 140.0
963.879578 248.0
965.771362 156.0
968.591003 176.0
970.812683 172.0
971.178589 156.0
973.065063 204.0
978.847595 164.0
981.620544 172.0
982.705872 124.0
983.972839 96.0
986.309204 256.0
988.417969 172.0
988.473083 76.0
990.031799 124.0
991.31604 136.0
993.165527 136.0
996.059143 92.0
996.348145 124.0
1001.537842 56.0
1008.389099 212.0
1008.66803 232.0
1011.236023 132.0
1012.489563 156.0
1012.806274 188.0
1015.354187 192.0
1015.671265 132.0
1016.85144 136.0
1021.629761 32.0
1024.819336 136.0
1033.195801 60.0
1038.467651 88.0
1041.741333 136.0
1049.477173 104.0
1049.941406 200.0
1050.399414 136.0
1051.141357 44.0
1055.178223 208.0
1055.410889 240.0
1058.678711 212.0
1061.160522 124.0
1061.984009 276.0
1062.48999 124.0
1066.483643 164.0
1067.725342 168.0
1068.258789 172.0
1070.243774 116.0
1072.028564 52.0
1077.084839 104.0
1081.950195 48.0
1082.002563 124.0
1085.363647 180.0
1089.032104 176.0
1089.327759 176.0
1095.979126 176.0
1096.769897 216.0
1097.079712 128.0
1097.185181 212.0
1098.167725 168.0
1100.682007 160.0
1100.85376 172.0
1104.455688 168.0
1105.209839 184.0
1106.328369 104.0
1107.381226 68.0
1109.647461 300.0
1111.770142 176.0
1113.303589 124.0
1114.592285 148.0
1114.937866 112.0
1115.649048 188.0
1119.408325 172.0
1121.046997 80.0
1121.120361 184.0
1123.720825 60.0
1126.003784 180.0
1134.213379 160.0
1134.582031 112.0
1135.091675 136.0
1137.782104 96.0
1139.360352 248.0
1143.865967 124.0
1145.226074 188.0
1149.554321 80.0
1153.309326 152.0
1154.641235 224.0
1156.677856 196.0
1157.51062 240.0
1158.377563 284.0
1159.671753 172.0
1161.156494 164.0
1163.558594 156.0
1166.0448 184.0
1166.221436 56.0
1168.00293 116.0
1172.019653 176.0
1177.374512 140.0
1178.645142 224.0
1180.559082 152.0
1181.106201 268.0
1182.563599 140.0
1182.933228 40.0
1183.289185 136.0
1185.213867 188.0
1190.756714 184.0
1191.120728 180.0
1191.539795 240.0
1192.350708 176.0
1192.694336 144.0
1193.711792 200.0
1196.704956 172.0
1197.703491 124.0
1198.509521 124.0
1200.15686 164.0
1200.653442 204.0
1200.977539 100.0
1202.309082 80.0
1203.344604 80.0
1205.520386 108.0
1205.907349 148.0
1207.03418 112.0
1211.692383 152.0
1212.274414 184.0
1212.683228 188.0
1213.390381 160.0
1215.034058 156.0
1217.588379 196.0
1218.053711 132.0
1219.464233 96.0
1220.4375 88.0
1221.404175 232.0
1221.626709 252.0
1222.065063 164.0
1222.419922 200.0
1223.505737 140.0
1225.595215 116.0
1226.982178 100.0
1227.030884 120.0
1229.849121 192.0
1232.922241 168.0
1235.396729 196.0
1237.721069 136.0
1237.805054 120.0
1238.155151 144.0
1238.288208 196.0
1239.247925 136.0
1239.4021 152.0
1239.878662 164.0
1240.425293 196.0
1240.656616 144.0
1242.921997 164.0
1243.729126 176.0
1244.641724 144.0
1245.765503 124.0
1248.387085 200.0
1249.990967 208.0
1250.434326 124.0
1250.948242 124.0
1252.398682 208.0
1254.209595 232.0
1254.477417 184.0
1255.147217 64.0
1256.289795 148.0
1256.677856 196.0
1257.362305 240.0
1258.470581 128.0
1259.967896 196.0
1261.911377 152.0
1262.279053 120.0
1264.387207 156.0
1266.45459 144.0
1267.531372 176.0
1267.772339 136.0
1269.736084 124.0
1272.255005 204.0
1273.724976 128.0
1273.895508 148.0
1274.641479 136.0
1274.975464 212.0
1275.899536 180.0
1278.659424 220.0
1283.482178 140.0
1283.596191 80.0
1284.309448 112.0
1286.036133 52.0
1287.713989 212.0
1287.828247 212.0
1289.335693 192.0
1289.993286 176.0
1291.645142 120.0
1292.031494 120.0
1294.149902 172.0
1294.794434 200.0
1295.317261 144.0
1295.969238 152.0
1296.155518 148.0
1296.657104 160.0
1297.510132 188.0
1301.607056 232.0
1301.657227 160.0
1302.921387 224.0
1303.136963 164.0
1304.567017 96.0
1304.638916 100.0
1305.257324 108.0
1305.602417 180.0
1306.271362 176.0
1306.523193 164.0
1307.350586 140.0
1310.216309 156.0
1310.425293 136.0
1314.152832 208.0
1316.202759 220.0
1316.630127 132.0
1317.228271 188.0
1317.372681 152.0
1317.71228 112.0
1318.485474 60.0
1319.157593 76.0
1322.043457 124.0
1322.615234 216.0
1323.288574 200.0
1323.498535 188.0
1323.708496 172.0
1323.773682 136.0
1323.875 116.0
1324.519653 164.0
1325.82373 84.0
1325.983276 132.0
1326.824097 144.0
1326.874756 152.0
1327.0271 148.0
1328.912842 192.0
1329.892456 180.0
1330.088501 204.0
1331.206543 212.0
1332.848267 156.0
1332.906372 52.0
1333.008057 188.0
1334.162354 192.0
1336.425659 204.0
1336.62207 220.0
1338.237915 132.0
1338.733032 172.0
1338.849609 100.0
1338.987915 188.0
1339.18457 136.0
1339.781982 160.0
1340.291992 44.0
1340.546997 164.0
1341.355957 132.0
1341.479858 156.0
1342.427734 184.0
1344.579834 156.0
1344.864502 236.0
1345.14917 204.0
1345.623657 76.0
1347.946411 92.0
1348.618774 184.0
1349.576416 180.0
1349.715332 180.0
1350.32959 160.0
1352.341675 160.0
1353.534912 36.0
1354.670166 148.0
1355.190308 160.0
1355.585938 124.0
1356.120972 228.0
1357.953979 132.0
1360.547852 200.0
1363.893921 212.0
1363.996826 224.0
1365.283447 264.0
1365.717407 52.0
1365.944824 96.0
1366.453003 220.0
1366.614868 120.0
1368.528564 168.0
1368.655762 172.0
1369.117676 160.0
1369.206055 132.0
1369.765747 180.0
1369.935181 168.0
1370.08252 188.0
1370.15625 92.0
1370.340454 140.0
1372.854004 228.0
1374.557983 88.0
1375.421509 136.0
1376.167114 232.0
1378.456909 168.0
1379.203369 248.0
1379.34375 188.0
1380.571167 184.0
1382.368774 176.0
1382.635132 200.0
1382.983032 156.0
1383.930542 128.0
1384.293335 148.0
1385.085815 176.0
1385.5896 172.0
1386.345337 168.0
1388.059326 156.0
1388.376587 168.0
1389.979004 200.0
1390.216431 188.0
1390.483521 192.0
1390.535522 188.0
1392.72583 188.0
1393.379517 196.0
1393.669312 192.0
1394.226562 188.0
1394.360352 136.0
1394.917847 152.0
1395.378784 152.0
1396.516479 228.0
1397.119019 192.0
1397.557983 124.0
1397.647339 196.0
1397.788696 48.0
1398.376587 136.0
1398.436157 200.0
1399.70166 140.0
1400.401733 208.0
1400.751831 104.0
1402.115356 204.0
1403.427246 116.0
1405.374023 164.0
1405.605347 244.0
1405.776978 152.0
1406.560669 244.0
1407.441528 144.0
1409.204224 124.0
1409.764648 176.0
1409.861816 56.0
1409.966431 128.0
1410.190674 236.0
1410.325195 124.0
1412.157104 140.0
1412.92749 76.0
1413.466187 176.0
1413.780518 160.0
1414.723633 212.0
1418.914062 200.0
1419.818726 124.0
1420.216187 176.0
1421.446655 164.0
1421.776733 140.0
1422.046997 164.0
1423.037842 52.0
1423.323242 132.0
1423.593506 180.0
1423.728638 204.0
1424.344604 136.0
1425.321167 204.0
1425.403931 184.0
1425.779663 124.0
1425.862305 180.0
1426.719238 156.0
1427.335693 176.0
1428.772217 164.0
1428.85498 96.0
1430.164429 180.0
1432.679443 212.0
1432.852783 268.0
1433.010986 200.0
1433.681641 188.0
1433.937866 156.0
1437.044678 184.0
1437.452148 156.0
1441.325806 124.0
1442.058838 248.0
1442.482178 128.0
1442.535034 72.0
1442.943237 188.0
1443.200317 172.0
1443.92627 116.0
1444.032227 224.0
1445.378784 152.0
1445.704102 120.0
1446.339844 80.0
1447.679932 196.0
1448.497925 124.0
1451.233765 160.0
1451.453613 92.0
1452.264648 192.0
1453.668579 164.0
1453.957031 188.0
1454.048096 140.0
1454.108765 212.0
1454.321289 132.0
1454.883057 272.0
1456.006836 168.0
1456.17395 200.0
1456.325806 184.0
1456.606812 160.0
1457.416016 228.0
1458.848511 180.0
1459.251465 140.0
1459.456787 204.0
1460.39978 184.0
1461.830078 204.0
1462.789062 156.0
1463.093506 112.0
1463.57312 184.0
1464.433716 100.0
1464.631714 224.0
1465.309692 208.0
1466.003174 200.0
1466.567139 148.0
1467.40564 144.0
1468.557129 168.0
1469.007202 64.0
1469.1521 192.0
1469.281738 216.0
1469.380981 216.0
1469.518311 164.0
1470.182129 188.0
1470.785156 212.0
1472.480103 188.0
1472.607544 192.0
1472.739746 152.0
1473.679443 60.0
1473.885742 168.0
1474.48938 176.0
1475.039795 164.0
1475.192627 60.0
1475.322632 192.0
1475.391357 184.0
1477.578613 164.0
1477.97644 160.0
1478.236694 244.0
1478.734131 152.0
1478.910156 140.0
1479.139771 212.0
1479.239258 164.0
1479.533813 196.0
1479.974243 240.0
1480.119751 196.0
1480.525635 140.0
1481.368164 132.0
1482.080566 208.0
1483.260864 168.0
1483.544434 64.0
1484.219116 140.0
1485.423218 164.0
1486.904053 120.0
1487.287842 176.0
1488.270508 256.0
1488.500854 188.0
1488.577637 124.0
1488.71582 88.0
1489.061401 280.0
1489.514648 268.0
1490.060059 56.0
1490.182983 52.0
1492.158203 168.0
1493.380859 212.0
1494.696411 308.0
1495.212036 124.0
1495.866211 140.0
1495.935547 52.0
1496.300293 248.0
1496.928711 196.0
1497.367676 180.0
1498.030029 144.0
1499.555786 172.0
1500.095337 144.0
1500.451294 196.0
1501.043579 144.0
1501.807129 124.0
1502.185059 164.0
1503.944336 104.0
1504.114136 172.0
1504.361206 168.0
1504.687134 204.0
1505.218262 144.0
