>compound MLS001049080-01!2-[6-(cyclohexylamino)purin-9-yl]-5-(hydroxymethyl)oxolane-3,4-diol
>formula C16H23N5O4
>ionization [M+H]+
>parentmass 350.182831
#inchi InChI=1S/C16H23N5O4/c22-6-10-12(23)13(24)16(25-10)21-8-19-11-14(17-7-18-15(11)21)20-9-4-2-1-3-5-9/h7-10,12-13,16,22-24H,1-6H2,(H,17,18,20)
#inchikey SZBULDQSDUXAPJ
#Ion_Source LC-ESI
#Instrument qTof
#Compound_Source NIH Natural Product Library
#PI Dorrestein
#Data_Collector VVP/LMS
#Scan -1
#Precursor_MZ 350.183
#ExactMass 349.175
#Charge 1
#CAS_Number N/A
#Pubmed_ID N/A
#Smiles OCC1OC(C(O)C1O)n2cnc3c(NC4CCCCC4)ncnc23
#INCHI_AUX N/A
#Library_Class 1
#SpectrumID CCMSLIB00000080074
#IonMode Positive
#UpdateWorkflowName UPDATE-SINGLE-ANNOTATED-GOLD
#LibraryQualityString Gold
#TaskID b1d8e8f6646f4e71acdff9ca3d919d08
##Scan# 1430
#SpectrumFile p2-G03_GG3_01_18051.mzXML
#LibraryName NIH_Natural_Products_Library.mgf
#MQScore -1
#Organism NIH_Natural_Products_Library
#TIC_Query 0
#RT_Query -1
#MZErrorPPM -1
#SharedPeaks 0
#MassDiff 0
#LibMZ -1
#SpecMZ 350.183
#SpecCharge 0
#internalFilename spec-00000.mgf

>collision 10
95.072861 200.0
95.160217 140.0
95.21653 176.0
95.338921 256.0
95.412788 172.0
95.585991 160.0
95.622871 96.0
95.751373 108.0
95.784485 196.0
95.87606 204.0
96.006676 124.0
96.115921 132.0
96.169052 268.0
96.338501 236.0
96.393204 236.0
96.432297 132.0
96.548027 144.0
96.592628 176.0
96.61219 188.0
96.637627 160.0
96.651321 176.0
96.668938 120.0
96.688507 136.0
96.749184 80.0
96.778557 192.0
96.815758 164.0
96.880402 128.0
96.931343 124.0
97.007782 168.0
97.027039 368.0
97.05188 152.0
97.127396 192.0
97.19606 104.0
97.223534 228.0
97.382568 56.0
97.400246 188.0
97.413994 156.0
97.463112 208.0
97.490417 188.0
97.54924 224.0
97.592842 84.0
97.65184 164.0
97.673477 88.0
97.844681 32.0
97.901787 176.0
98.006187 104.0
98.025894 72.0
98.041656 144.0
98.061371 104.0
98.165855 176.0
98.234886 28.0
98.272377 176.0
98.288162 148.0
98.487556 212.0
98.529045 216.0
98.732643 56.0
98.898911 104.0
98.974068 32.0
99.011696 192.0
99.21579 192.0
99.382393 196.0
99.400246 64.0
99.422081 184.0
99.477654 80.0
99.497505 76.0
99.54715 128.0
99.628586 204.0
99.799507 188.0
99.885025 140.0
99.984512 88.0
100.052185 220.0
100.095993 124.0
100.117897 68.0
100.195381 196.0
100.267319 112.0
100.307182 188.0
100.438789 100.0
100.56649 176.0
100.590446 124.0
100.730934 124.0
100.838127 172.0
100.878105 104.0
101.050095 192.0
101.102127 152.0
101.176186 120.0
101.238258 108.0
101.31237 128.0
101.340416 216.0
101.378487 132.0
101.462677 156.0
101.548904 156.0
101.685333 72.0
101.71946 164.0
101.817848 208.0
101.884132 148.0
101.924316 160.0
101.950439 196.0
101.964508 176.0
102.042908 148.0
102.290359 108.0
102.340691 436.0
102.511909 152.0
102.719574 152.0
102.838631 188.0
102.91938 212.0
103.037209 228.0
103.064812 136.0
103.080978 176.0
103.256859 144.0
103.277084 44.0
103.358009 128.0
103.507805 136.0
103.548309 160.0
103.746887 164.0
103.785408 136.0
103.815826 136.0
103.970009 148.0
104.153755 108.0
104.333061 196.0
104.355965 160.0
104.431206 160.0
104.625862 140.0
104.667282 228.0
104.696671 176.0
104.751122 240.0
104.838402 276.0
104.877121 48.0
104.917099 100.0
104.997414 156.0
105.105537 112.0
105.21167 168.0
105.309685 176.0
105.440453 180.0
105.467766 120.0
105.509949 144.0
105.542664 148.0
105.642883 120.0
105.691986 92.0
105.822983 128.0
105.915138 164.0
105.972496 132.0
106.003235 192.0
106.038078 172.0
106.081123 124.0
106.095474 68.0
106.301506 292.0
106.395561 232.0
106.446327 76.0
106.481239 84.0
106.577797 136.0
106.649719 184.0
106.678497 128.0
106.71582 156.0
106.738609 136.0
106.777199 176.0
106.904755 196.0
107.007675 176.0
107.131241 144.0
107.172447 216.0
107.18718 228.0
107.275497 160.0
107.380661 152.0
107.44873 152.0
107.655144 132.0
107.676865 188.0
107.888634 192.0
107.99823 208.0
108.070633 104.0
108.145134 116.0
108.346001 136.0
108.458595 216.0
108.532539 144.0
108.797401 176.0
108.912323 196.0
109.047363 344.0
109.063179 100.0
109.126373 308.0
109.14093 140.0
109.180443 196.0
109.237778 152.0
109.26989 152.0
109.285515 172.0
109.303177 172.0
109.334396 208.0
109.442642 132.0
109.571777 172.0
109.588448 40.0
109.653046 140.0
109.736427 60.0
109.78022 156.0
109.880341 36.0
109.936676 136.0
109.963814 164.0
110.045181 184.0
110.091164 224.0
110.138687 148.0
110.197693 148.0
110.285469 124.0
110.350273 196.0
110.438103 212.0
110.604141 148.0
110.638992 168.0
110.653648 124.0
110.693428 140.0
110.93438 116.0
110.980507 144.0
111.01825 148.0
111.179466 156.0
111.435974 184.0
111.513725 176.0
111.616737 156.0
111.667206 208.0
111.738235 236.0
111.780815 212.0
111.890266 180.0
111.913429 140.0
111.976601 196.0
112.008194 208.0
112.048927 180.0
112.081932 164.0
112.227379 164.0
112.48925 220.0
112.51432 92.0
112.539658 116.0
112.567108 168.0
112.62413 180.0
112.653702 180.0
112.676941 140.0
112.881966 160.0
113.070251 144.0
113.106232 196.0
113.234375 116.0
113.375221 240.0
113.48333 148.0
113.540588 176.0
113.58725 112.0
113.610588 204.0
113.653252 144.0
113.697586 176.0
113.716682 196.0
113.801598 116.0
113.882111 180.0
113.902924 124.0
113.95665 184.0
113.971519 144.0
114.158585 124.0
114.175598 160.0
114.194405 176.0
114.229858 212.0
114.447983 136.0
114.465523 84.0
114.569283 160.0
114.655327 108.0
114.717949 208.0
115.042824 120.0
115.07058 188.0
115.179489 172.0
115.320518 196.0
115.33548 156.0
115.461624 144.0
115.686302 172.0
115.705566 124.0
115.80407 168.0
115.859764 116.0
115.932617 84.0
116.039795 200.0
116.119141 260.0
116.295074 168.0
116.3423 164.0
116.425003 248.0
116.45826 152.0
116.653801 204.0
116.67524 140.0
116.697311 216.0
116.737656 204.0
116.791771 164.0
116.815086 204.0
116.847351 104.0
116.874504 136.0
116.914055 148.0
116.954948 112.0
117.191841 212.0
117.258644 172.0
117.275894 136.0
117.308311 96.0
117.482903 160.0
117.55452 208.0
117.612381 200.0
117.735443 116.0
117.882347 168.0
117.966644 188.0
118.00988 168.0
118.048805 148.0
118.19249 160.0
118.217537 208.0
118.339905 136.0
118.375565 120.0
118.431877 192.0
118.460037 84.0
118.475204 76.0
118.520699 208.0
118.676765 172.0
118.739655 168.0
118.758194 180.0
118.787369 120.0
118.879623 220.0
118.908882 204.0
118.952293 296.0
118.967491 216.0
118.996895 184.0
119.011658 244.0
119.034988 5724.0
119.082573 224.0
119.195541 36.0
119.232491 160.0
119.249878 72.0
119.330307 76.0
119.345528 216.0
119.761192 56.0
119.782974 184.0
119.923149 196.0
120.039085 568.0
120.061966 136.0
120.18631 172.0
120.201584 164.0
120.216858 140.0
120.348465 180.0
120.365295 40.0
120.441742 168.0
120.498535 172.0
120.583763 136.0
120.664642 144.0
120.765236 172.0
120.789299 148.0
120.838768 240.0
120.854065 80.0
121.174599 140.0
121.297325 148.0
121.327202 172.0
121.386322 148.0
121.450813 132.0
121.635139 76.0
121.734474 196.0
121.791039 100.0
121.818756 188.0
121.977814 168.0
122.030579 184.0
122.093948 236.0
122.135757 184.0
122.224144 116.0
122.26815 204.0
122.424461 172.0
122.557556 188.0
122.644783 180.0
122.721939 116.0
122.847656 164.0
123.052902 76.0
123.222229 168.0
123.269371 196.0
123.341446 176.0
123.510353 164.0
123.713943 132.0
123.837944 164.0
123.913261 56.0
123.973091 80.0
124.037369 196.0
124.086136 84.0
124.123451 116.0
124.234734 252.0
124.281326 204.0
124.310173 176.0
124.678818 68.0
124.698822 176.0
124.834732 148.0
124.852226 224.0
124.878914 128.0
124.896706 176.0
124.949471 212.0
125.041336 64.0
125.065819 220.0
125.128754 236.0
125.172684 208.0
125.242729 156.0
125.286278 184.0
125.359802 164.0
125.375404 156.0
125.391006 156.0
125.413292 100.0
125.457558 140.0
125.64521 180.0
125.709915 88.0
125.901909 168.0
125.95079 156.0
126.038177 156.0
126.100746 140.0
126.203636 176.0
126.290802 64.0
126.308693 180.0
126.364624 216.0
126.787842 176.0
126.969315 140.0
127.003082 252.0
127.047951 144.0
127.211769 176.0
127.389175 104.0
127.447037 260.0
127.613922 120.0
127.6409 168.0
127.712868 188.0
127.745636 120.0
127.826553 188.0
127.928894 56.0
128.059494 136.0
128.158615 200.0
128.217209 176.0
128.323151 208.0
128.370514 112.0
128.521637 232.0
128.555496 128.0
128.578064 124.0
128.600632 160.0
128.699966 128.0
128.765121 140.0
128.812881 60.0
128.858063 184.0
129.011749 96.0
129.129089 148.0
129.199448 188.0
129.337494 160.0
129.459763 84.0
129.489197 428.0
129.529968 148.0
129.577545 180.0
129.761124 176.0
129.786072 72.0
129.938034 160.0
130.065109 136.0
130.099167 148.0
130.310379 136.0
130.405823 60.0
130.503571 216.0
130.569519 164.0
130.59227 108.0
130.66507 124.0
130.715118 208.0
130.741425 336.0
130.811218 144.0
130.860794 96.0
130.910889 180.0
131.006561 180.0
131.052124 216.0
131.090866 156.0
131.311996 164.0
131.421494 152.0
131.476273 316.0
131.537888 212.0
131.592682 224.0
131.629929 192.0
131.818817 144.0
131.960953 200.0
132.068024 172.0
132.196136 232.0
132.239624 148.0
132.273956 124.0
132.299133 156.0
132.356384 116.0
132.411346 208.0
132.681732 148.0
132.908798 168.0
133.045609 272.0
133.138351 144.0
133.221054 148.0
133.309723 188.0
133.342834 224.0
133.361221 136.0
133.508362 164.0
133.6763 172.0
133.823624 340.0
133.841385 256.0
133.966415 164.0
134.060333 220.0
134.196884 140.0
134.256836 124.0
134.277588 172.0
134.420624 36.0
134.501404 180.0
134.600677 184.0
134.720779 156.0
134.803955 148.0
134.822586 136.0
134.858841 192.0
134.887161 112.0
134.988892 164.0
135.016647 148.0
135.065216 108.0
135.180893 64.0
135.206345 132.0
135.250336 192.0
135.285049 124.0
135.33136 64.0
135.349884 144.0
135.409134 116.0
135.472626 244.0
135.514328 120.0
135.562988 96.0
135.598862 148.0
135.618622 188.0
135.673996 148.0
135.699753 380.0
135.723465 176.0
135.746185 160.0
135.79715 196.0
135.819946 208.0
135.843277 212.0
135.858749 488.0
135.88707 268.0
135.929794 316.0
135.964584 168.0
135.982712 176.0
136.018997 428.0
136.034439 480.0
136.062897 137784.0
136.148468 204.0
136.169189 96.0
136.187424 56.0
136.216888 116.0
136.232117 172.0
136.256226 100.0
136.264908 112.0
136.281158 180.0
136.317444 108.0
136.341995 220.0
136.371536 128.0
136.397827 72.0
136.419235 40.0
136.444595 1716.0
136.4655 80.0
136.517471 52.0
136.539505 64.0
136.552658 156.0
136.572083 96.0
136.599045 72.0
136.613647 64.0
136.624603 56.0
136.645538 120.0
136.674362 164.0
136.730621 88.0
136.761398 168.0
136.783112 84.0
136.808472 92.0
136.859848 28.0
136.906021 36.0
136.943802 72.0
136.979065 92.0
137.009491 60.0
137.064346 10780.0
137.117767 48.0
137.144989 136.0
137.17337 84.0
137.179535 72.0
137.190796 48.0
137.198074 88.0
137.226334 132.0
137.262299 36.0
137.293884 96.0
137.327606 168.0
137.353699 136.0
137.383575 32.0
137.421524 80.0
137.448914 48.0
137.515366 76.0
137.558716 80.0
137.598297 124.0
137.619308 80.0
137.652267 140.0
137.696121 76.0
137.727936 124.0
137.781494 56.0
137.801483 108.0
137.830307 72.0
137.845306 96.0
137.878036 132.0
137.894165 152.0
137.927872 180.0
137.981506 120.0
138.009628 104.0
138.038788 60.0
138.067566 420.0
138.116409 164.0
138.119888 144.0
138.160309 244.0
138.197632 328.0
138.233444 60.0
138.257477 124.0
138.283218 144.0
138.318329 112.0
138.356613 124.0
138.496292 80.0
138.517365 52.0
138.538452 156.0
138.575943 48.0
138.713654 68.0
138.720703 52.0
138.727142 108.0
138.772812 104.0
138.845276 40.0
138.994293 104.0
139.077789 148.0
139.096573 36.0
139.157608 124.0
139.416 204.0
139.432449 76.0
139.486511 128.0
139.571152 228.0
139.60878 92.0
139.710312 264.0
139.759323 28.0
139.811096 144.0
139.954697 100.0
140.107788 68.0
140.178467 208.0
140.371765 172.0
140.494415 56.0
140.53688 32.0
140.652527 124.0
140.699738 40.0
140.737518 420.0
140.780029 92.0
141.160492 112.0
141.337906 180.0
141.650421 132.0
141.866058 132.0
141.979874 96.0
142.404709 132.0
142.823044 200.0
142.996735 76.0
143.063385 104.0
143.439774 64.0
143.662003 148.0
143.854843 72.0
143.952744 108.0
144.002899 144.0
144.421173 68.0
144.461838 132.0
144.587952 96.0
144.746658 40.0
145.043747 108.0
145.11087 152.0
145.487534 148.0
145.573975 100.0
145.864685 88.0
146.033005 96.0
146.268814 88.0
146.345856 116.0
146.365112 220.0
146.451813 116.0
146.51445 100.0
146.880875 40.0
147.071487 144.0
147.139816 120.0
147.179901 208.0
147.211517 152.0
147.445862 48.0
147.668289 236.0
147.699738 56.0
147.980469 108.0
148.033737 88.0
148.164536 48.0
148.259033 176.0
148.397202 136.0
148.731995 64.0
148.7854 44.0
148.892242 64.0
148.957809 124.0
149.064713 88.0
149.103607 48.0
149.475677 44.0
149.884766 256.0
149.923767 148.0
150.060272 104.0
150.204147 52.0
150.257828 92.0
150.768158 104.0
151.130081 60.0
151.166779 168.0
151.266815 156.0
152.095673 276.0
152.336319 192.0
152.488663 184.0
152.820648 156.0
152.872314 32.0
153.246597 192.0
153.332855 128.0
153.480759 156.0
154.003952 88.0
154.345001 96.0
154.698807 144.0
155.303421 100.0
155.827225 132.0
155.852081 108.0
156.002609 224.0
156.381775 64.0
156.439026 120.0
156.608353 44.0
156.797714 164.0
157.321533 36.0
157.566269 48.0
157.648727 108.0
157.793991 212.0
157.823715 280.0
158.755249 104.0
159.362717 200.0
159.578873 144.0
159.646759 212.0
159.744858 124.0
159.787628 192.0
159.81781 32.0
159.95372 48.0
160.0242 172.0
160.160202 36.0
160.318924 136.0
160.462601 200.0
160.584045 128.0
160.846054 160.0
160.876358 164.0
161.209763 180.0
161.247665 108.0
161.713043 156.0
161.730759 160.0
162.24501 204.0
162.285568 108.0
162.869263 184.0
163.792618 232.0
164.389221 176.0
164.639862 176.0
164.672607 212.0
164.981796 128.0
165.327103 192.0
166.095749 148.0
166.858459 196.0
166.894455 60.0
166.920166 116.0
167.067856 48.0
167.213455 132.0
167.45546 156.0
167.55336 132.0
167.860077 208.0
168.192902 176.0
168.285843 152.0
168.360718 168.0
168.598404 44.0
168.965576 104.0
169.496368 180.0
170.077301 128.0
170.118835 144.0
170.162964 164.0
171.140594 144.0
171.223923 168.0
171.820847 200.0
172.110565 84.0
172.761353 96.0
172.978561 160.0
173.07019 136.0
173.533966 176.0
173.63623 128.0
174.255737 148.0
174.321426 200.0
174.339828 148.0
174.663223 236.0
175.076447 204.0
175.933395 104.0
176.068054 188.0
176.887726 136.0
177.067215 172.0
177.332718 40.0
177.924271 116.0
178.025162 244.0
178.075699 152.0
178.18454 160.0
178.679047 172.0
179.065033 76.0
179.256851 184.0
179.36879 168.0
179.427444 112.0
179.464767 52.0
179.566101 208.0
179.654129 80.0
179.800888 56.0
179.851593 136.0
179.963715 140.0
180.107925 216.0
180.821823 80.0
181.030655 172.0
181.06546 124.0
181.100281 144.0
181.250305 76.0
181.515686 100.0
181.875854 80.0
182.312973 192.0
182.452744 172.0
182.627533 176.0
182.731628 220.0
182.823944 192.0
183.004303 164.0
183.208984 84.0
183.249405 156.0
183.303284 168.0
183.562073 168.0
183.910095 160.0
184.501694 124.0
184.539551 196.0
184.950745 188.0
185.161942 128.0
185.19986 164.0
185.788101 100.0
185.937332 176.0
186.040482 144.0
186.135513 96.0
186.567184 192.0
187.66745 136.0
188.265045 204.0
188.633911 180.0
188.724121 344.0
189.855072 200.0
190.489105 64.0
190.651215 100.0
190.747833 160.0
191.170975 184.0
191.202606 252.0
191.264557 116.0
191.314102 52.0
192.37822 132.0
192.474854 136.0
192.668198 120.0
192.693069 120.0
193.110489 240.0
193.367798 132.0
193.409317 128.0
193.888474 228.0
193.930038 40.0
194.290543 136.0
194.537521 132.0
194.581955 144.0
194.601379 120.0
194.665253 192.0
195.070892 72.0
195.518707 128.0
195.571594 152.0
195.607788 52.0
196.379623 148.0
196.616776 196.0
196.935059 108.0
196.96579 152.0
197.013275 84.0
197.065628 200.0
198.7211 188.0
198.802475 120.0
199.861862 216.0
200.05043 256.0
200.475739 188.0
200.766113 164.0
200.853546 112.0
201.090561 132.0
201.110321 180.0
201.130081 172.0
201.310776 188.0
201.528275 148.0
201.697845 164.0
201.989105 160.0
202.175842 196.0
202.240936 148.0
202.331512 148.0
202.441956 148.0
202.507095 128.0
202.538239 88.0
202.874329 200.0
203.377548 200.0
204.568604 140.0
205.021484 220.0
205.688889 160.0
205.720291 160.0
206.42601 164.0
206.883804 172.0
206.912445 144.0
206.969711 224.0
207.009796 72.0
207.462494 132.0
207.668045 112.0
207.71199 160.0
207.918579 60.0
208.08075 120.0
208.317688 120.0
208.935776 172.0
209.60376 84.0
209.652756 128.0
210.050644 152.0
210.12854 216.0
210.160278 144.0
210.232407 128.0
211.067261 156.0
211.411499 132.0
211.645966 212.0
211.793671 124.0
211.822632 240.0
212.016769 108.0
212.434296 180.0
212.524231 132.0
213.026505 52.0
213.349075 124.0
213.398499 36.0
213.706802 176.0
214.08522 92.0
214.294952 184.0
214.449402 108.0
214.673889 200.0
215.1203 196.0
215.164093 176.0
215.479523 128.0
215.587631 124.0
215.894592 100.0
216.10228 148.0
216.283722 72.0
216.330566 56.0
216.421326 160.0
216.591187 176.0
216.805069 48.0
216.966278 128.0
217.065964 104.0
217.151016 124.0
217.171555 104.0
217.241943 136.0
217.262482 100.0
217.329971 52.0
217.353439 116.0
217.482574 128.0
217.516403 236.0
217.558899 104.0
217.587769 92.0
217.670471 320.0
217.717529 124.0
217.787323 172.0
217.826797 248.0
217.849625 132.0
217.887817 112.0
217.920502 196.0
217.964218 284.0
218.00209 180.0
218.054855 320.0
218.141571 103928.0
218.205093 80.0
218.245773 156.0
218.287445 96.0
218.328613 96.0
218.364639 224.0
218.404358 168.0
218.422501 164.0
218.426926 136.0
218.44751 84.0
218.461578 72.0
218.489578 68.0
218.517395 88.0
218.557526 160.0
218.577805 72.0
218.588684 44.0
218.624329 628.0
218.683151 112.0
218.729462 112.0
218.79364 76.0
218.821121 144.0
218.869034 132.0
218.908401 148.0
218.915268 192.0
218.954132 204.0
218.977692 104.0
219.035599 200.0
219.08815 80.0
219.143738 11320.0
219.198929 164.0
219.226822 132.0
219.268951 100.0
219.310791 108.0
219.355835 72.0
219.386169 128.0
219.450943 300.0
219.490799 72.0
219.545029 100.0
219.587448 104.0
219.647141 32.0
219.693542 44.0
219.73381 44.0
219.805466 120.0
219.848877 72.0
219.899063 88.0
219.940384 80.0
219.988586 120.0
220.049606 56.0
220.096848 64.0
220.147354 416.0
220.194305 88.0
220.248947 72.0
220.327225 76.0
220.402893 72.0
220.413559 128.0
220.452545 68.0
220.48024 280.0
220.503616 136.0
220.551819 128.0
220.64032 136.0
220.662003 120.0
220.689102 92.0
220.708496 120.0
220.738617 108.0
220.771042 72.0
220.801804 120.0
220.811844 72.0
220.86525 204.0
220.909622 120.0
220.965836 168.0
221.019089 44.0
221.056335 116.0
221.140427 56.0
221.164093 40.0
221.187775 76.0
221.208496 52.0
221.306198 48.0
221.375198 40.0
221.397995 128.0
221.424652 48.0
221.475006 148.0
221.556305 104.0
221.590546 124.0
221.70018 112.0
221.729813 60.0
221.803909 36.0
222.061874 96.0
222.091537 84.0
222.305145 52.0
222.634674 56.0
223.074417 48.0
223.410461 100.0
223.455078 88.0
223.580063 52.0
224.062027 100.0
225.285614 76.0
226.494141 116.0
226.518112 76.0
227.636826 48.0
227.955261 164.0
228.689072 108.0
229.396942 100.0
230.03949 132.0
230.205551 80.0
230.467346 84.0
230.586212 52.0
230.837418 84.0
230.942993 56.0
231.863403 48.0
233.26413 56.0
234.474091 96.0
235.493118 48.0
235.584763 52.0
235.615311 132.0
235.659729 56.0
235.685593 136.0
236.284866 76.0
236.869583 112.0
238.71109 108.0
239.828674 72.0
241.134262 80.0
242.83403 88.0
249.585922 64.0
249.887878 72.0
250.123901 128.0
253.668182 96.0
255.074432 52.0
255.869751 80.0
258.387878 152.0
258.87442 60.0
259.483215 68.0
260.153717 404.0
262.141449 92.0
262.918671 112.0
268.019684 96.0
269.10257 172.0
274.345367 120.0
275.11734 116.0
284.005768 92.0
289.326752 68.0
289.353821 40.0
290.160187 256.0
290.909943 56.0
295.401398 96.0
298.274994 56.0
298.505371 44.0
301.366364 80.0
303.588684 148.0
306.452972 80.0
308.075287 56.0
314.173279 76.0
323.699066 56.0
326.591736 48.0
328.096954 76.0
331.588806 140.0
342.572998 152.0
349.12442 116.0
350.182831 548.0
351.22879 92.0
351.77359 40.0
354.965027 36.0
357.534576 120.0
358.031525 80.0
359.784882 92.0
374.512665 88.0
377.801544 100.0
382.057343 80.0
384.898682 108.0
394.015076 124.0
396.504028 120.0
409.420654 28.0
411.255096 60.0
424.797516 76.0
426.017365 108.0
428.588135 28.0
436.577515 72.0
439.739655 68.0
444.875702 52.0
453.095245 32.0
455.649292 120.0
466.134857 32.0
467.330231 76.0
467.894043 88.0
469.62204 32.0
473.555237 36.0
475.015991 56.0
475.38913 36.0
476.648438 64.0
481.269989 76.0
488.928223 52.0
494.285583 56.0
508.259766 60.0
533.132751 136.0
533.574036 88.0
541.196106 60.0
545.994324 56.0
559.381042 68.0
563.115479 84.0
570.464783 52.0
571.944153 80.0
583.857788 108.0
585.609619 88.0
614.253052 76.0
619.611877 44.0
639.950073 84.0
647.266479 112.0
674.94043 36.0
676.24408 100.0
680.806396 164.0
688.122375 56.0
690.045105 172.0
690.829529 112.0
694.910706 156.0
697.899292 72.0
698.725037 272.0
713.863403 40.0
723.761963 40.0
726.302246 64.0
730.954834 132.0
750.514954 124.0
769.306213 180.0
772.378601 76.0
773.596008 72.0
794.410278 172.0
795.381104 152.0
795.959351 188.0
801.640808 84.0
804.240784 96.0
804.415771 64.0
804.511719 192.0
807.252014 120.0
816.166016 196.0
816.808716 136.0
832.595276 52.0
836.102234 108.0
838.653625 116.0
849.925049 68.0
851.904785 164.0
854.590759 96.0
862.294128 180.0
869.480286 76.0
869.562439 36.0
870.390137 88.0
873.863892 64.0
874.405273 196.0
877.397644 176.0
878.71283 188.0
899.131653 224.0
903.320129 68.0
904.738403 160.0
910.344543 164.0
920.769165 188.0
922.430725 144.0
931.411011 132.0
933.653748 68.0
936.98938 116.0
937.885193 164.0
939.891663 116.0
940.410339 152.0
941.655884 124.0
952.700012 108.0
955.343445 208.0
957.109802 132.0
958.397156 240.0
966.578674 220.0
967.983826 72.0
969.049194 88.0
972.403992 196.0
974.09906 144.0
975.428894 144.0
979.77179 148.0
980.208679 224.0
980.856873 152.0
982.397095 116.0
984.706604 36.0
992.25946 208.0
1004.756104 44.0
1012.283997 148.0
1014.165588 68.0
1015.528809 152.0
1018.321472 120.0
1023.211487 140.0
1033.570435 52.0
1037.176025 48.0
1037.259399 144.0
1040.473267 256.0
1046.999756 68.0
1047.669678 184.0
1048.488037 148.0
1049.093872 232.0
1050.209473 204.0
1052.293823 156.0
1053.675903 136.0
1057.342285 152.0
1060.256592 112.0
1060.697388 224.0
1061.481812 120.0
1064.025269 96.0
1067.885132 32.0
1069.017212 140.0
1071.954102 92.0
1079.480591 64.0
1080.056152 164.0
1080.18042 208.0
1080.9198 184.0
1088.385742 144.0
1090.225098 216.0
1090.718018 216.0
1090.776123 124.0
1095.48877 196.0
1095.936768 228.0
1099.473389 220.0
1107.663208 204.0
1107.842163 196.0
1114.363647 144.0
1115.081299 156.0
1115.420288 172.0
1116.397705 200.0
1119.811768 160.0
1122.924316 148.0
1126.474487 156.0
1128.226196 216.0
1130.132202 160.0
1130.266113 44.0
1130.326294 104.0
1132.535522 108.0
1132.843628 184.0
1137.531128 204.0
1137.611572 52.0
1138.74646 112.0
1139.592773 228.0
1140.284912 128.0
1142.685547 188.0
1143.836304 200.0
1145.836426 204.0
1147.737061 128.0
1152.840332 68.0
1156.22168 236.0
1157.487671 180.0
1160.143555 220.0
1161.47937 264.0
1164.350342 72.0
1168.013916 208.0
1168.286011 132.0
1168.870117 140.0
1169.129639 120.0
1170.436646 84.0
1171.403809 168.0
1171.928345 148.0
1172.289551 88.0
1174.580322 156.0
1177.453735 168.0
1179.401001 156.0
1182.684204 200.0
1183.224976 56.0
1186.705444 116.0
1188.722046 136.0
1189.401855 168.0
1189.799683 160.0
1191.585205 208.0
1192.05249 140.0
1192.519775 60.0
1195.263794 188.0
1195.353271 132.0
1196.034546 28.0
1196.571533 144.0
1197.824829 128.0
1199.03064 220.0
1205.814819 36.0
1206.132812 156.0
1206.727295 376.0
1208.228149 128.0
1209.494507 144.0
1209.88208 136.0
1210.255981 168.0
1211.599609 200.0
1215.468506 124.0
1216.905273 96.0
1219.593628 88.0
1220.087158 136.0
1220.233154 52.0
1222.890503 132.0
1225.418335 84.0
1226.19873 168.0
1227.084106 132.0
1231.389526 48.0
1231.696899 144.0
1233.506714 112.0
1234.275757 188.0
1239.259277 164.0
1239.572754 76.0
1240.114258 72.0
1245.172852 204.0
1246.971436 112.0
1247.048706 208.0
1247.252563 184.0
1249.263672 136.0
1250.417603 92.0
1251.938232 88.0
1254.397217 200.0
1255.849731 196.0
1257.035034 124.0
1257.437256 88.0
1259.039795 200.0
1259.166992 148.0
1259.357666 120.0
1261.703735 152.0
1265.13562 168.0
1266.558105 148.0
1266.657349 132.0
1267.082397 208.0
1268.237427 180.0
1268.69104 196.0
1270.02417 124.0
1272.060669 64.0
1272.60022 180.0
1275.292603 200.0
1276.62207 168.0
1277.347534 92.0
1280.279907 120.0
1280.821167 168.0
1282.438599 196.0
1282.988525 148.0
1284.042847 36.0
1285.15564 108.0
1286.347534 172.0
1286.468872 132.0
1287.289917 168.0
1288.025513 188.0
1288.732788 132.0
1289.040039 200.0
1290.10144 192.0
1292.057373 128.0
1292.510986 200.0
1292.901611 72.0
1295.987915 184.0
1297.822876 208.0
1298.375488 208.0
1298.554321 164.0
1299.386475 148.0
1299.529907 156.0
1299.644775 160.0
1300.154175 204.0
1300.663818 140.0
1301.029907 252.0
1301.467896 232.0
1303.277832 200.0
1304.089966 112.0
1304.269653 180.0
1305.096313 172.0
1307.333496 200.0
1307.549316 152.0
1308.053223 160.0
1308.895508 184.0
1310.717896 200.0
1311.156982 168.0
1311.60437 144.0
1313.096924 204.0
1315.333618 44.0
1317.225464 56.0
1318.432129 92.0
1318.602539 160.0
1319.530762 48.0
1319.653687 116.0
1321.592163 220.0
1322.214478 200.0
1322.836914 52.0
1323.763672 192.0
1325.081909 200.0
1329.853394 180.0
1329.918701 160.0
1331.348999 196.0
1332.227905 128.0
1332.409546 172.0
1335.782593 56.0
1336.546509 148.0
1337.638184 156.0
1337.754639 100.0
1338.919678 192.0
1343.854614 208.0
1344.015137 236.0
1344.540527 172.0
1346.372925 68.0
1346.708862 44.0
1348.857178 148.0
1351.63623 96.0
1351.833862 164.0
1353.348999 208.0
1355.846924 172.0
1357.423096 180.0
1358.281128 156.0
1358.780029 176.0
1361.503174 280.0
1363.214844 184.0
1363.670532 204.0
1364.633545 184.0
1365.861694 248.0
1367.973511 148.0
1368.209106 184.0
1369.041138 168.0
1369.18103 188.0
1370.15332 168.0
1371.856812 180.0
1372.497192 164.0
1373.197754 204.0
1376.814087 172.0
1377.175903 112.0
1378.224976 224.0
1379.459106 68.0
1381.189453 156.0
1382.032837 124.0
1382.391357 240.0
1382.565674 180.0
1382.928223 144.0
1383.41687 124.0
1383.572266 108.0
1383.712891 144.0
1386.335083 188.0
1386.401733 148.0
1386.661133 172.0
1387.483887 184.0
1388.143799 112.0
1389.842529 144.0
1389.924072 276.0
1390.413818 132.0
1390.495483 108.0
1391.564453 60.0
1391.836182 148.0
1392.33667 180.0
1392.589233 112.0
1393.814941 252.0
1394.08252 124.0
1395.242065 116.0
1395.728149 168.0
1395.799683 200.0
1396.059937 208.0
1400.651978 168.0
1402.149658 96.0
1403.193237 68.0
1403.52124 168.0
1403.759888 52.0
1404.677246 120.0
1406.960693 92.0
1407.042847 132.0
1408.043457 124.0
1409.290894 92.0
1410.789429 180.0
1410.965088 180.0
1411.959595 80.0
1412.70752 208.0
1413.104126 120.0
1413.388428 152.0
1414.114258 108.0
1414.623291 144.0
1415.050049 88.0
1415.783813 60.0
1416.248169 152.0
1416.405518 204.0
1416.692261 156.0
1418.308716 160.0
1418.473633 100.0
1418.548584 220.0
1418.698486 144.0
1419.410767 84.0
1420.010742 68.0
1423.365234 172.0
1424.536865 136.0
1424.611938 200.0
1426.152344 224.0
1426.921021 80.0
1427.971924 132.0
1428.761719 200.0
1429.280884 128.0
1430.402222 140.0
1431.305664 172.0
1433.625732 36.0
1434.296509 140.0
1434.371948 204.0
1438.03772 96.0
1438.294312 128.0
1439.041626 156.0
1440.506714 148.0
1441.005371 208.0
1441.261353 176.0
1443.265259 224.0
1443.681152 136.0
1443.855103 40.0
1444.082031 176.0
1444.157593 216.0
1444.346802 164.0
1444.717407 208.0
1444.808228 184.0
1445.557251 88.0
1445.950806 192.0
1447.919189 132.0
1447.994873 200.0
1448.123657 140.0
1448.881104 204.0
1449.722168 252.0
1449.873779 172.0
1450.101074 188.0
1450.715088 156.0
1451.223022 316.0
1451.283691 136.0
1451.791748 184.0
1452.102661 232.0
1452.345459 192.0
1455.335449 136.0
1455.768188 148.0
1456.01123 200.0
1456.558105 104.0
1456.710083 128.0
1456.869507 176.0
1458.404541 108.0
1459.0354 112.0
1459.099121 224.0
1459.377563 172.0
1460.525879 168.0
1460.869263 140.0
1461.552979 132.0
1462.670044 168.0
1463.349243 144.0
1465.177002 248.0
1466.327637 132.0
1466.39624 64.0
1466.807861 104.0
1466.914551 184.0
1467.13562 208.0
1467.36438 152.0
1467.760742 168.0
1467.829468 92.0
1468.386108 224.0
1468.538696 180.0
1469.141235 140.0
1469.278564 140.0
1470.11792 228.0
1471.598755 204.0
1471.65979 80.0
1473.080322 128.0
1473.668579 124.0
1474.02771 132.0
1474.356323 56.0
1476.925171 168.0
1477.636597 168.0
1478.401733 188.0
1478.59314 120.0
1479.401978 148.0
1479.9021 172.0
1480.239014 204.0
1481.066162 120.0
1481.893433 112.0
1482.276611 188.0
1483.173218 248.0
1484.077881 176.0
1484.192871 192.0
1484.921387 212.0
1485.037109 148.0
1486.854736 212.0
1487.775879 100.0
1488.52063 32.0
1489.903076 136.0
1490.110474 204.0
1491.119019 136.0
1491.59375 164.0
1491.832031 144.0
1492.154907 212.0
1492.939209 180.0
1493.592896 72.0
1494.100586 240.0
1494.554565 84.0
1495.37793 36.0
1496.278564 168.0
1496.363281 160.0
1497.295044 156.0
1497.787964 80.0
1498.650757 208.0
1501.533813 192.0
1502.104614 176.0
1502.251099 160.0
1503.014893 212.0
1503.508789 168.0
