>compound Piroxicam (Feldene)
>formula C15H13N3O4S
>ionization [M+Na]+
>parentmass 354.052704
#inchi InChI=1S/C15H13N3O4S/c1-18-13(15(20)17-12-8-4-5-9-16-12)14(19)10-6-2-3-7-11(10)23(18,21)22/h2-9,19H,1H3,(H,16,17,20)
#inchikey QYSPLQLAKJAUJT
#Ion_Source LC-ESI
#Instrument qTof
#Compound_Source Commercial
#PI Dorrestein
#Data_Collector Garg_Neha
#Scan -1
#Precursor_MZ 354.052
#ExactMass 331.063
#Charge 1
#CAS_Number 36322-90-4
#Pubmed_ID N/A
#Smiles C1=CN=C(C=C1)NC(C2N(S(C3=C(C=2O)C=CC=C3)(=O)=O)C)=O
#INCHI_AUX N/A
#Library_Class 1
#SpectrumID CCMSLIB00000078248
#IonMode Positive
#UpdateWorkflowName UPDATE-SINGLE-ANNOTATED-GOLD
#LibraryQualityString Gold
#TaskID 77f51c88eb8b467eb4a01dd2d0cb90d2
##Scan# 1264
#SpectrumFile Plate4_21_40_GH3_01_16504.mzXML
#LibraryName FDALibrary_2_04302014.mgf
#MQScore -1
#Organism FDALibrary_2_04302014
#TIC_Query 0
#RT_Query -1
#MZErrorPPM -1
#SharedPeaks 0
#MassDiff 0
#LibMZ -1
#SpecMZ 354.052
#SpecCharge 0
#internalFilename spec-00000.mgf

>collision 10
45.624886 152.0
48.837444 172.0
52.424114 188.0
53.679501 140.0
54.452198 184.0
86.914452 200.0
93.585869 212.0
95.898918 220.0
101.037399 188.0
109.437508 192.0
115.039528 204.0
117.040764 3448.0
117.397545 164.0
118.049858 224.0
132.009094 144.0
145.343719 140.0
148.385193 188.0
148.613174 148.0
157.766052 172.0
168.703903 152.0
169.446655 196.0
171.041138 196.0
172.483597 176.0
179.583984 160.0
186.064423 1240.0
187.062057 176.0
190.856277 252.0
194.786224 164.0
194.8918 152.0
204.504456 252.0
205.590302 216.0
206.410141 196.0
211.149399 144.0
215.626694 212.0
217.533493 168.0
234.018814 888.0
235.021057 164.0
236.020599 152.0
245.961441 168.0
248.83522 160.0
252.024155 128.0
259.996948 5276.0
261.003021 1092.0
261.992218 400.0
262.663666 152.0
267.21524 156.0
275.044281 168.0
278.006989 1116.0
279.011353 308.0
279.99765 140.0
313.301086 168.0
314.298828 164.0
331.286133 200.0
334.408875 212.0
339.575073 144.0
348.144653 156.0
351.240601 120.0
351.827118 204.0
353.056396 140.0
354.052704 6876.0
354.164215 156.0
355.051971 912.0
355.279663 148.0
355.558929 164.0
356.051575 408.0
356.287384 196.0
357.058472 136.0
360.178711 140.0
372.079285 176.0
1457.073242 192.0
1609.582886 212.0
1638.980591 148.0
1703.655273 196.0
1714.376099 152.0
1777.191528 180.0
1836.920898 200.0
1858.445435 192.0
1977.283569 212.0
1985.904053 152.0
