>compound MLS001201763-01!Azithromycin
>formula C38H72N2O12
>ionization [M+H]+
>parentmass 749.515076
#inchi InChI=1S/C38H72N2O12/c1-15-27-38(10,46)31(42)24(6)40(13)19-20(2)17-36(8,45)33(52-35-29(41)26(39(11)12)16-21(3)48-35)22(4)30(23(5)34(44)50-27)51-28-18-37(9,47-14)32(43)25(7)49-28/h20-33,35,41-43,45-46H,15-19H2,1-14H3/t20-,21-,22+,23-,24-,25+,26+,27-,28+,29-,30+,31-,32+,33-,35+,36-,37-,38-/m1/s1
#inchikey MQTOSJVFKKJCRP
#Ion_Source LC-ESI
#Instrument qTof
#Compound_Source NIH Pharmacologically Active Library
#PI Dorrestein
#Data_Collector VP/LMS
#Scan -1
#Precursor_MZ 749.517
#ExactMass 748.509
#Charge 1
#CAS_Number N/A
#Pubmed_ID N/A
#Smiles CC[C@H]1OC(=O)[C@H](C)[C@@H](O[C@H]2C[C@@](C)(OC)[C@@H](O)[C@H](C)O2)[C@H](C)[C@@H](O[C@@H]3O[C@H](C)C[C@@H]([C@H]3O)N(C)C)[C@](C)(O)C[C@@H](C)CN(C)[C@H](C)[C@@H](O)[C@]1(C)O
#INCHI_AUX N/A
#Library_Class 1
#SpectrumID CCMSLIB00000084786
#IonMode Positive
#UpdateWorkflowName UPDATE-SINGLE-ANNOTATED-GOLD
#LibraryQualityString Gold
#TaskID d252d724072548979f1f6f1ced849daf
##Scan# 1453
#SpectrumFile p3-A08_GA8_01_18229.mzXML
#LibraryName Pharm_Active_Library.mgf
#MQScore -1
#Organism Pharm_Active_Library
#TIC_Query 0
#RT_Query -1
#MZErrorPPM -1
#SharedPeaks 0
#MassDiff 0
#LibMZ -1
#SpecMZ 749.517
#SpecCharge 0
#internalFilename spec-00000.mgf

>collision 10
45.065533 148.0
45.325115 200.0
45.394821 196.0
45.538422 168.0
45.886955 192.0
45.907181 200.0
45.974636 28.0
46.021881 192.0
46.112392 172.0
46.665478 224.0
46.771591 260.0
47.08382 36.0
47.135658 148.0
47.47797 160.0
47.990891 164.0
48.19241 160.0
48.247696 48.0
48.492706 44.0
48.960915 252.0
49.408985 184.0
49.555992 232.0
50.016624 48.0
50.098301 204.0
50.710152 84.0
50.722908 148.0
50.969856 208.0
51.038082 84.0
51.998081 188.0
52.53191 84.0
52.67049 72.0
53.067017 176.0
53.253677 268.0
53.324711 240.0
53.357391 52.0
53.497055 124.0
53.950752 152.0
54.701851 68.0
55.249348 188.0
55.347031 88.0
55.790649 200.0
57.201355 172.0
57.320335 148.0
57.841389 164.0
60.581108 228.0
61.378422 136.0
61.517281 100.0
61.567245 184.0
61.721951 164.0
62.126034 216.0
62.337997 172.0
62.651104 188.0
63.013966 140.0
63.040829 236.0
63.45554 252.0
63.776211 236.0
63.892292 204.0
64.362473 164.0
64.43914 156.0
64.527046 156.0
64.832771 164.0
65.578499 136.0
66.06778 124.0
66.469589 136.0
66.716469 160.0
67.777351 156.0
67.84127 172.0
68.39814 128.0
68.544716 140.0
69.683098 164.0
69.844353 180.0
70.334236 96.0
70.501251 212.0
71.092407 160.0
71.258644 200.0
71.686028 320.0
72.897667 220.0
73.054092 68.0
73.481705 208.0
73.934517 180.0
74.429932 156.0
75.479317 268.0
75.652328 212.0
75.678299 184.0
75.830742 152.0
76.200356 196.0
76.558678 196.0
76.595253 188.0
77.200882 216.0
77.664993 228.0
77.780807 184.0
78.028503 236.0
78.295959 120.0
78.788086 128.0
80.022469 188.0
80.21843 196.0
81.343613 160.0
82.880196 80.0
83.04335 212.0
83.357422 200.0
83.566521 116.0
83.639313 196.0
84.014702 112.0
84.350708 88.0
84.707535 152.0
85.050423 344.0
85.063271 148.0
85.990952 152.0
86.715965 180.0
87.03318 196.0
87.857681 172.0
88.07235 160.0
88.845451 156.0
89.946304 168.0
89.978401 144.0
90.318542 184.0
90.373405 180.0
91.008362 248.0
92.133957 144.0
92.361435 184.0
92.556641 124.0
92.723305 200.0
93.206894 88.0
93.714859 48.0
94.308968 204.0
95.056778 160.0
95.083946 144.0
95.163536 184.0
96.439514 44.0
96.703552 132.0
96.942482 168.0
97.305351 264.0
97.428146 200.0
97.552887 136.0
97.714142 60.0
98.097702 1344.0
98.943687 64.0
99.052605 248.0
99.078651 132.0
99.112038 184.0
99.556374 76.0
100.076752 372.0
100.164978 108.0
100.775436 164.0
100.903343 136.0
100.929337 60.0
101.052727 220.0
101.219475 192.0
101.62838 100.0
101.893394 116.0
102.011963 72.0
102.050163 84.0
102.090378 64.0
102.104454 200.0
102.611885 136.0
102.909225 192.0
103.02359 216.0
103.130684 132.0
104.42424 168.0
105.157707 132.0
106.160156 156.0
106.924377 124.0
107.043777 144.0
107.307518 208.0
108.015854 164.0
108.44239 160.0
109.060905 180.0
109.090004 164.0
110.301117 140.0
111.044418 140.0
111.08007 144.0
111.180786 44.0
111.298332 144.0
111.409645 204.0
111.588287 184.0
111.663986 192.0
112.063942 224.0
112.129265 180.0
112.226494 164.0
113.06105 524.0
113.102509 136.0
113.179161 144.0
113.293526 72.0
113.566971 80.0
113.944824 96.0
114.061699 160.0
114.091713 396.0
114.282875 136.0
114.414825 200.0
114.742912 68.0
115.077003 1056.0
115.24411 180.0
115.486031 152.0
115.751404 108.0
115.909912 160.0
116.071617 2984.0
116.107986 6276.0
116.147881 60.0
116.274467 96.0
116.358185 48.0
116.424744 56.0
116.734192 28.0
116.889076 96.0
116.990227 120.0
117.075462 416.0
117.105865 568.0
117.647736 88.0
117.831299 136.0
118.482498 56.0
119.07901 180.0
119.113762 216.0
119.772842 168.0
120.368225 44.0
120.984779 92.0
121.102898 276.0
122.103836 372.0
124.029129 68.0
124.045921 160.0
124.10672 124.0
124.912888 168.0
124.992973 64.0
125.093193 152.0
126.007469 172.0
126.633804 100.0
127.075378 844.0
127.252716 120.0
128.079102 148.0
128.110382 508.0
128.734314 136.0
129.11171 200.0
129.845474 32.0
132.991776 52.0
133.072113 184.0
133.315598 208.0
133.333984 200.0
133.389145 136.0
134.208725 224.0
134.261429 140.0
134.684113 60.0
135.114075 192.0
137.19957 144.0
137.97464 92.0
138.122803 176.0
139.185944 48.0
139.251694 180.0
139.900665 160.0
140.112625 148.0
140.692764 172.0
140.969101 172.0
142.13176 204.0
142.939651 72.0
143.072937 104.0
143.103165 120.0
143.943192 212.0
144.022003 144.0
144.222702 172.0
144.342239 112.0
144.638885 128.0
146.511948 128.0
146.531219 124.0
146.844589 120.0
146.948318 140.0
147.854446 44.0
149.131546 196.0
149.387894 48.0
149.801727 96.0
150.704391 148.0
150.858353 136.0
151.117599 280.0
151.181213 124.0
151.418686 196.0
152.643234 108.0
153.076324 60.0
153.480423 100.0
154.733078 60.0
155.491592 104.0
155.687714 196.0
156.105194 128.0
156.139801 940.0
156.575531 164.0
156.710052 108.0
157.096466 92.0
157.14386 160.0
157.276123 128.0
157.630753 44.0
157.858231 132.0
158.05835 192.0
158.117996 24532.0
158.188492 88.0
158.228851 64.0
158.2686 44.0
158.31868 108.0
158.336212 68.0
158.36322 56.0
158.398514 64.0
158.428894 80.0
158.461456 56.0
158.569199 52.0
158.591766 72.0
158.616821 108.0
158.654999 124.0
158.682007 52.0
158.712097 76.0
158.74971 124.0
158.814911 48.0
158.895187 76.0
158.942856 56.0
159.005585 112.0
159.035706 56.0
159.120316 1836.0
159.218979 60.0
159.550659 48.0
159.716629 108.0
159.80719 40.0
160.048813 116.0
160.131622 320.0
160.182297 36.0
160.30574 92.0
160.32338 56.0
160.346069 48.0
160.429245 108.0
160.469589 76.0
161.254639 104.0
161.325409 80.0
162.110016 196.0
162.137894 176.0
162.579163 84.0
163.018478 252.0
163.15065 156.0
164.426773 112.0
164.781708 152.0
164.837921 208.0
165.165161 68.0
166.302795 152.0
166.639191 72.0
167.104538 68.0
168.135025 204.0
169.138062 156.0
169.653549 48.0
170.15683 196.0
170.219147 88.0
174.125931 176.0
174.150085 560.0
175.156967 208.0
175.21492 48.0
175.29924 44.0
175.736938 68.0
176.14624 196.0
177.127426 428.0
177.204315 184.0
178.334763 64.0
178.994522 100.0
179.138336 168.0
179.882309 96.0
183.447388 68.0
184.140823 132.0
185.550613 84.0
185.851669 268.0
186.095947 84.0
186.147949 1148.0
186.957611 32.0
187.15181 244.0
187.807632 148.0
188.542053 56.0
188.995987 88.0
191.866074 112.0
192.163925 216.0
192.473053 112.0
192.644287 96.0
192.707825 112.0
193.114182 136.0
193.775772 132.0
195.041183 160.0
195.141068 280.0
196.144913 136.0
198.189804 184.0
200.158127 192.0
200.814743 76.0
201.156158 148.0
201.534592 192.0
201.67305 144.0
202.833557 92.0
204.096878 156.0
204.160736 184.0
204.890945 68.0
205.926392 116.0
207.142014 92.0
208.798111 80.0
209.226837 60.0
209.575333 164.0
213.974808 96.0
215.275238 164.0
215.660873 52.0
223.969971 48.0
225.143021 96.0
226.149597 140.0
226.182526 108.0
228.006073 96.0
229.098297 96.0
230.132736 176.0
230.924469 172.0
232.472549 256.0
232.663773 112.0
234.653427 32.0
234.683914 60.0
235.144531 152.0
236.425049 36.0
238.172607 116.0
240.528152 188.0
242.179276 164.0
242.935593 124.0
247.229111 68.0
251.030182 208.0
251.954971 124.0
253.663803 108.0
254.977829 152.0
255.9608 92.0
255.995819 120.0
256.189056 172.0
256.231537 60.0
256.578888 108.0
262.069061 240.0
263.59848 152.0
271.673126 164.0
272.218567 232.0
274.188477 136.0
274.735809 84.0
275.207764 88.0
276.235535 88.0
276.894196 204.0
279.197388 48.0
280.285919 92.0
280.532532 164.0
282.209747 328.0
282.89093 224.0
283.219086 144.0
283.31958 68.0
284.181183 104.0
286.184357 56.0
286.918823 188.0
290.944641 148.0
292.212585 140.0
293.339508 152.0
298.636566 228.0
298.791351 208.0
298.870483 140.0
300.200073 176.0
300.224365 272.0
300.417358 168.0
301.207031 132.0
301.899078 168.0
302.200012 92.0
303.127991 92.0
304.421875 124.0
306.725037 88.0
308.575226 156.0
308.970398 128.0
310.606323 188.0
311.322296 76.0
312.26767 132.0
313.136963 148.0
314.769745 132.0
314.9216 88.0
316.212067 132.0
316.52713 100.0
318.227264 148.0
319.106628 128.0
319.96759 80.0
320.598022 140.0
321.978638 144.0
323.211914 120.0
323.355042 164.0
326.972656 196.0
328.201019 104.0
329.092224 124.0
329.121094 76.0
329.930389 188.0
330.226898 80.0
330.252228 228.0
331.555573 208.0
332.83609 72.0
333.068512 144.0
333.878998 112.0
337.29892 100.0
338.238983 120.0
339.561646 36.0
339.792755 104.0
340.246765 164.0
341.092743 128.0
341.25061 148.0
342.542511 48.0
343.253815 120.0
347.90451 232.0
348.67337 144.0
348.714264 100.0
349.495178 116.0
349.532379 156.0
352.519226 112.0
352.881805 116.0
353.577545 120.0
353.906952 96.0
354.453827 96.0
355.717712 104.0
357.292267 180.0
357.390076 112.0
358.260773 320.0
359.267944 156.0
360.270447 136.0
360.996124 232.0
361.627899 172.0
363.082733 108.0
364.096008 112.0
366.385803 120.0
366.881226 112.0
367.277802 136.0
367.976135 60.0
368.010498 76.0
369.76889 52.0
371.811584 68.0
373.132935 112.0
374.942047 120.0
376.346161 200.0
377.15741 32.0
379.526611 92.0
380.269318 148.0
380.531525 68.0
380.900421 136.0
381.288971 132.0
384.170258 140.0
384.318512 48.0
384.52533 112.0
385.915985 176.0
387.08197 128.0
387.704834 132.0
387.791046 40.0
389.796417 196.0
390.637756 108.0
392.599182 172.0
395.281403 152.0
396.279205 136.0
397.726654 144.0
398.288574 1540.0
398.354034 200.0
398.671875 108.0
399.236359 32.0
399.301178 272.0
399.654053 112.0
400.295593 280.0
401.514313 132.0
406.029449 100.0
406.583069 128.0
407.960754 80.0
409.610596 140.0
409.707275 48.0
411.348541 104.0
412.968811 196.0
413.336945 76.0
414.292419 240.0
414.600372 116.0
416.296844 1292.0
416.373199 204.0
416.698151 72.0
417.307159 332.0
417.698212 176.0
418.300446 148.0
418.907166 128.0
419.078278 180.0
419.538788 128.0
420.301483 52.0
420.615723 104.0
424.06781 156.0
425.347534 148.0
426.09903 124.0
426.135986 176.0
427.29538 132.0
427.558746 96.0
428.81073 52.0
429.623016 72.0
431.196198 144.0
431.305878 216.0
431.65094 140.0
431.750183 100.0
432.274475 156.0
432.283661 116.0
432.307709 176.0
432.639771 68.0
433.289948 132.0
433.385223 36.0
433.575836 100.0
434.311127 1808.0
434.575195 52.0
434.681946 60.0
434.857361 112.0
435.089813 44.0
435.235138 116.0
435.311615 684.0
436.321808 144.0
436.618896 68.0
437.201324 112.0
437.230438 72.0
437.401093 28.0
437.804932 80.0
438.796631 212.0
440.077484 104.0
440.482544 128.0
441.075897 44.0
441.138611 136.0
441.22641 68.0
441.485626 168.0
442.03363 72.0
442.443787 228.0
443.361084 64.0
445.202728 124.0
445.303528 80.0
445.91272 80.0
450.585785 140.0
454.340912 224.0
456.313599 168.0
456.974945 152.0
457.323914 1112.0
457.426056 156.0
457.621887 56.0
458.323395 552.0
458.674103 56.0
458.840363 72.0
459.305176 124.0
461.936432 128.0
462.30011 168.0
462.66391 136.0
462.890839 136.0
463.203461 44.0
463.280579 88.0
463.816223 152.0
464.116302 176.0
466.868805 60.0
467.088135 56.0
467.234406 140.0
467.354858 76.0
468.426819 100.0
469.237 100.0
470.246399 140.0
470.69278 208.0
475.334778 624.0
475.73056 76.0
476.341675 132.0
477.18158 132.0
479.667297 72.0
479.789368 52.0
480.62674 48.0
480.949677 72.0
481.469238 156.0
481.595886 136.0
482.325562 68.0
483.108307 80.0
484.653748 140.0
487.470764 88.0
487.963074 208.0
491.791077 92.0
491.972046 128.0
492.020599 100.0
493.071869 148.0
495.970856 176.0
496.835541 176.0
496.906525 92.0
497.328094 132.0
498.051819 124.0
498.407227 88.0
498.918335 104.0
500.511108 112.0
500.617981 136.0
500.911926 136.0
501.37085 128.0
503.838287 68.0
504.128723 128.0
504.928925 88.0
507.158569 140.0
507.243744 148.0
510.278442 188.0
510.512238 124.0
511.358002 184.0
512.947998 208.0
514.201843 172.0
515.353333 156.0
515.393005 124.0
516.384033 96.0
518.366882 96.0
519.718079 132.0
523.846069 148.0
524.816833 256.0
525.523743 128.0
526.770081 48.0
527.22699 52.0
530.861755 84.0
532.132751 72.0
533.713257 144.0
535.153381 124.0
537.389404 140.0
540.104675 232.0
540.327087 104.0
541.748352 120.0
542.78186 36.0
544.118103 132.0
547.265686 196.0
548.351013 164.0
548.448914 144.0
548.756592 104.0
549.404846 64.0
549.586792 140.0
550.062805 112.0
550.875305 168.0
551.800598 80.0
553.405396 64.0
555.398621 108.0
555.631592 88.0
556.36676 132.0
556.532715 216.0
557.096252 120.0
557.376587 176.0
558.163147 68.0
558.71814 112.0
559.047485 208.0
559.118042 168.0
559.664124 140.0
559.79126 60.0
560.445984 180.0
560.841858 128.0
561.035095 176.0
562.842102 128.0
562.903442 128.0
563.134888 56.0
563.838806 120.0
563.961731 116.0
564.018433 72.0
564.273682 60.0
565.981689 108.0
566.853271 60.0
567.957886 120.0
569.073059 136.0
569.372253 72.0
569.443481 76.0
569.543213 96.0
570.507812 120.0
570.702759 88.0
570.973816 140.0
571.335327 148.0
571.381104 160.0
571.444702 140.0
571.577942 72.0
571.734192 120.0
571.80481 136.0
572.468079 180.0
572.777649 148.0
573.011108 144.0
573.092102 136.0
573.192139 168.0
573.239807 128.0
573.408325 6740.0
573.52771 116.0
573.60199 60.0
573.80719 88.0
573.88324 112.0
573.969116 120.0
574.007263 128.0
574.178894 52.0
574.230957 180.0
574.323914 64.0
574.410767 2284.0
574.574829 32.0
574.655945 80.0
574.732239 72.0
574.932678 108.0
574.985168 76.0
575.023376 108.0
575.071106 32.0
575.140564 72.0
575.402893 360.0
575.479858 132.0
575.63916 48.0
576.212341 52.0
576.274475 88.0
576.393921 116.0
576.427368 216.0
577.206482 108.0
577.412109 84.0
577.641724 72.0
578.450378 152.0
578.507812 76.0
578.6474 132.0
578.718506 76.0
579.81543 92.0
580.457764 36.0
581.32605 44.0
581.498779 40.0
582.207092 88.0
582.271729 64.0
583.141357 112.0
583.43457 120.0
583.824036 84.0
584.362732 120.0
584.602112 140.0
584.887268 140.0
585.296509 160.0
585.729919 96.0
586.028625 128.0
586.110535 56.0
586.173157 112.0
586.216553 40.0
586.40448 176.0
586.54425 104.0
587.161377 192.0
587.291626 72.0
587.527954 96.0
587.64856 92.0
587.687195 64.0
587.749939 88.0
587.904297 48.0
587.989197 48.0
588.058777 32.0
588.314575 140.0
588.966492 56.0
589.077576 72.0
589.156006 140.0
589.203186 40.0
589.407043 484.0
589.567566 96.0
589.678162 144.0
589.778198 56.0
589.826538 48.0
589.860352 100.0
589.901123 92.0
590.189148 96.0
590.261658 164.0
590.334167 96.0
590.409668 256.0
590.466797 124.0
590.587769 164.0
590.629211 100.0
590.692078 140.0
590.798523 192.0
590.837219 136.0
590.93396 92.0
590.967834 60.0
591.016235 120.0
591.108154 72.0
591.175293 160.0
591.233948 136.0
591.287842 152.0
591.419678 26168.0
591.568787 260.0
591.60791 108.0
591.664307 84.0
591.737366 84.0
591.819702 52.0
591.832214 68.0
591.887451 60.0
591.988098 92.0
592.052124 240.0
592.098938 244.0
592.15625 40.0
592.193115 68.0
592.239929 72.0
592.259766 36.0
592.333252 164.0
592.420898 7644.0
592.528564 108.0
592.624207 36.0
592.670227 100.0
592.708557 124.0
592.742371 112.0
592.836914 56.0
592.886536 80.0
592.972595 108.0
593.003113 84.0
593.064819 72.0
593.15271 80.0
593.207947 164.0
593.277039 84.0
593.346863 76.0
593.422119 2616.0
593.523071 72.0
593.62793 68.0
593.704651 112.0
593.822876 52.0
593.87439 116.0
593.932983 48.0
594.015015 72.0
594.184814 144.0
594.22052 136.0
594.286743 76.0
594.330383 40.0
594.382141 132.0
594.420654 560.0
594.505066 192.0
594.577881 48.0
594.674927 72.0
594.708923 48.0
594.883667 56.0
594.93219 100.0
595.136108 120.0
595.223511 28.0
595.393433 32.0
595.429932 120.0
595.542725 148.0
595.613525 152.0
595.666992 124.0
595.738342 108.0
595.772339 116.0
595.844116 164.0
595.986084 132.0
596.07843 32.0
596.122131 36.0
596.297119 68.0
596.428345 64.0
596.588745 36.0
596.642212 68.0
596.705383 116.0
596.783203 80.0
596.865845 44.0
597.19165 84.0
597.488403 100.0
597.639221 92.0
598.099121 112.0
599.080322 36.0
599.319031 96.0
599.796631 160.0
600.064697 60.0
601.860229 96.0
603.462769 84.0
604.186584 68.0
605.302551 52.0
606.551819 72.0
606.919495 60.0
608.528809 100.0
610.51886 116.0
611.724304 64.0
611.788269 92.0
612.236328 116.0
616.058838 96.0
616.404663 56.0
616.740723 72.0
617.665344 60.0
621.306335 112.0
625.47052 88.0
625.913635 52.0
632.50354 92.0
633.725464 84.0
634.419189 212.0
634.888428 140.0
635.39502 112.0
637.564148 56.0
637.880798 84.0
638.021545 144.0
638.448914 60.0
648.820129 104.0
651.347229 104.0
653.670593 40.0
654.199951 112.0
663.307922 112.0
668.098999 68.0
679.941895 120.0
682.341675 104.0
683.043701 60.0
685.094666 104.0
686.267273 56.0
687.910645 100.0
690.721924 60.0
691.74231 76.0
699.932373 132.0
702.752258 172.0
705.614807 152.0
711.30957 76.0
717.059265 80.0
721.377319 148.0
728.982605 80.0
731.504517 300.0
732.50177 136.0
733.476501 44.0
735.240173 60.0
739.645081 52.0
741.307739 144.0
741.535339 60.0
743.031921 120.0
743.129578 100.0
743.634277 56.0
744.302002 64.0
744.420532 120.0
744.486572 132.0
744.801575 160.0
744.855896 80.0
745.007996 72.0
745.171021 56.0
745.82312 80.0
746.671265 148.0
746.774597 44.0
747.02478 116.0
747.079224 96.0
748.118591 136.0
748.271057 80.0
748.385376 108.0
748.878723 260.0
748.919067 40.0
749.060669 28.0
749.153259 188.0
749.273132 92.0
749.344116 144.0
749.515076 7304.0
749.905212 60.0
750.205017 48.0
750.273682 40.0
750.390381 96.0
750.518982 3284.0
750.701172 40.0
750.875671 104.0
751.219482 124.0
751.312012 64.0
751.519531 940.0
751.739624 64.0
751.819458 48.0
751.857666 60.0
752.054138 36.0
752.092346 88.0
752.507751 40.0
752.552917 120.0
752.64917 80.0
752.862122 44.0
752.944031 44.0
753.200745 76.0
753.50293 152.0
753.757996 72.0
754.295349 100.0
754.523193 104.0
754.730957 104.0
755.33252 124.0
758.031616 52.0
759.188232 52.0
760.60376 136.0
762.855896 112.0
762.993347 68.0
765.265503 88.0
765.30957 56.0
765.739075 40.0
765.788635 92.0
766.267883 76.0
766.807922 88.0
778.569763 48.0
783.726257 72.0
801.510864 68.0
814.636597 64.0
823.408203 88.0
843.454773 128.0
861.234924 104.0
862.011902 56.0
866.898071 88.0
875.463013 40.0
876.735474 32.0
877.89093 76.0
886.112793 52.0
887.476013 96.0
889.48114 60.0
902.809143 60.0
904.987244 92.0
907.893433 80.0
912.384705 56.0
931.025208 56.0
942.232788 140.0
948.750427 188.0
967.447388 112.0
976.886108 120.0
978.055908 112.0
982.024841 48.0
1006.537598 192.0
1009.039612 144.0
1014.598083 76.0
1018.475281 172.0
1019.618896 192.0
1022.684448 68.0
1023.932312 68.0
1029.25061 148.0
1030.253418 52.0
1031.186279 220.0
1049.687988 92.0
1061.236084 92.0
1061.618652 48.0
1070.241455 200.0
1070.983887 240.0
1073.336548 64.0
1088.991089 124.0
1104.922607 44.0
1109.346313 76.0
1112.404419 148.0
1128.346069 148.0
1128.820801 224.0
1129.777222 100.0
1133.968994 184.0
1139.457886 172.0
1139.820801 136.0
1141.191895 176.0
1143.431885 72.0
1146.3479 172.0
1157.825439 188.0
1165.85083 36.0
1171.075806 88.0
1171.866089 100.0
1173.454102 44.0
1179.584473 120.0
1191.309204 152.0
1193.315918 92.0
1196.515137 136.0
1200.766602 104.0
1201.373535 48.0
1207.064697 140.0
1208.136719 52.0
1222.290283 72.0
1223.856445 52.0
1227.556396 136.0
1230.291504 180.0
1233.036499 168.0
1236.148438 160.0
1237.121338 56.0
1249.850464 200.0
1254.169556 152.0
1258.550415 152.0
1258.910522 192.0
1265.741455 292.0
1267.193359 148.0
1269.270142 64.0
1270.986694 76.0
1271.575684 232.0
1275.730835 136.0
1275.908569 196.0
1277.75061 112.0
1278.312622 184.0
1278.860596 88.0
1281.716309 84.0
1283.56958 60.0
1285.602661 200.0
1285.995117 168.0
1286.787476 100.0
1294.094482 132.0
1295.440796 164.0
1300.158691 132.0
1303.670288 144.0
1304.259644 204.0
1305.079224 184.0
1306.395264 188.0
1307.543335 180.0
1308.424683 80.0
1313.389648 56.0
1314.875977 232.0
1317.316406 128.0
1328.798096 180.0
1330.866699 52.0
1332.49353 156.0
1332.864136 176.0
1341.415527 172.0
1343.486572 112.0
1347.969482 136.0
1363.042358 44.0
1366.350952 104.0
1370.879272 140.0
1377.423462 64.0
1388.599854 196.0
1398.243164 140.0
1400.588501 200.0
1403.360718 132.0
1404.322754 60.0
1409.107666 76.0
1418.619385 172.0
1429.186279 84.0
1431.301392 92.0
1434.156616 156.0
1439.626343 224.0
1441.11438 184.0
1441.960693 72.0
1446.529175 152.0
1449.770874 188.0
1455.399292 124.0
1455.862427 32.0
1456.006714 156.0
1456.0979 140.0
1456.804321 188.0
1463.024902 216.0
1463.976562 200.0
1465.576294 188.0
1466.437378 100.0
1471.922363 204.0
1472.036987 204.0
1472.403564 124.0
1479.920288 136.0
1481.444336 188.0
1485.422852 124.0
1485.944458 188.0
1486.980469 64.0
1489.721558 124.0
1495.596313 36.0
1497.829224 120.0
1498.391602 152.0
1502.631958 56.0
1503.002319 56.0
