>compound MLS001401420-01!
>formula C12H21N
>ionization [M+H]+
>parentmass 180.17467612409052
#inchi InChI=1S/C12H21N/c1-10-3-9-4-11(2,6-10)8-12(13,5-9)7-10/h9H,3-8,13H2,1-2H3/t9-,10+,11-,12-
#inchikey BUGYDGFZZOZRHP
#origInchi InChI=1S/C12H21N.ClH/c1-10-3-9-4-11(2,6-10)8-12(13,5-9)7-10;/h9H,3-8,13H2,1-2H3;1H/t9-,10+,11-,12-;
#Ion_Source LC-ESI
#Instrument qTof
#Compound_Source NIH Pharmacologically Active Library
#PI Dorrestein
#Data_Collector VP/LMS
#Scan -1
#Precursor_MZ 180.177
#ExactMass 179.167
#Charge 1
#CAS_Number N/A
#Pubmed_ID N/A
#Smiles C[C@@]1(C[C@@H]2C[C@]3(C)C1)C[C@](N)(C2)C3.Cl
#INCHI_AUX N/A
#Library_Class 1
#SpectrumID CCMSLIB00000084751
#IonMode Positive
#UpdateWorkflowName UPDATE-SINGLE-ANNOTATED-GOLD
#LibraryQualityString Gold
#TaskID d252d724072548979f1f6f1ced849daf
##Scan# 1498
#SpectrumFile p3-A03_GA3_01_18225.mzXML
#LibraryName Pharm_Active_Library.mgf
#MQScore -1
#Organism Pharm_Active_Library
#TIC_Query 0
#RT_Query -1
#MZErrorPPM -1
#SharedPeaks 0
#MassDiff 0
#LibMZ -1
#SpecMZ 180.177
#SpecCharge 0
#internalFilename spec-00000.mgf

>collision 10
44.998009 168.0
45.380524 176.0
46.298203 188.0
46.497768 200.0
46.532791 140.0
46.758446 168.0
46.808819 172.0
46.956001 196.0
47.044693 168.0
47.096584 180.0
47.119808 224.0
47.145771 160.0
47.478447 84.0
47.684383 32.0
47.729752 144.0
47.740753 144.0
47.831562 228.0
47.978962 152.0
48.012054 164.0
48.162498 124.0
48.566677 72.0
48.957226 144.0
49.03664 292.0
49.230564 196.0
49.250118 168.0
49.280849 152.0
49.29063 196.0
49.436066 204.0
49.448662 48.0
49.569099 160.0
49.832897 204.0
49.890156 124.0
49.923153 180.0
49.969276 144.0
50.02557 140.0
50.066814 124.0
50.111481 140.0
50.249653 152.0
50.306107 36.0
50.499691 124.0
50.645481 152.0
50.876621 144.0
51.001629 72.0
51.170918 180.0
51.279182 180.0
51.377575 200.0
51.440365 200.0
51.691914 40.0
51.863148 160.0
52.041668 156.0
52.081879 44.0
52.15947 208.0
52.316269 204.0
52.342186 160.0
52.382362 152.0
52.398361 152.0
52.453156 184.0
52.554077 236.0
52.643574 172.0
52.67535 160.0
52.692684 160.0
52.903835 112.0
52.928448 180.0
53.066097 184.0
53.182152 204.0
53.251846 168.0
53.544182 280.0
54.163479 180.0
54.197178 104.0
54.261665 184.0
54.354073 240.0
54.459774 140.0
54.53471 152.0
54.565582 152.0
54.768661 148.0
54.893936 228.0
54.951462 116.0
54.988354 172.0
55.078419 152.0
55.255817 172.0
55.356468 140.0
55.414238 124.0
55.51207 164.0
55.627796 188.0
55.719872 156.0
55.752563 72.0
56.112785 200.0
56.211231 200.0
56.25153 136.0
56.314243 136.0
56.330673 140.0
56.483147 224.0
56.548981 220.0
56.815712 112.0
56.997383 188.0
57.007904 36.0
57.028946 108.0
57.390247 176.0
57.527538 164.0
57.607574 72.0
57.858616 80.0
57.93737 216.0
58.035885 212.0
58.048016 144.0
58.178501 176.0
58.653118 204.0
58.680557 172.0
59.090851 252.0
59.138847 188.0
59.272083 160.0
59.677307 124.0
59.755749 108.0
59.837318 148.0
59.874275 176.0
59.885582 164.0
59.934765 180.0
60.088539 168.0
60.113228 40.0
60.178059 40.0
60.501183 140.0
60.578613 152.0
60.719666 188.0
60.797237 152.0
60.992935 108.0
61.101791 148.0
61.265259 296.0
61.614719 136.0
61.838402 180.0
61.8759 176.0
61.905651 156.0
61.996513 196.0
62.420361 128.0
62.574562 160.0
62.599754 184.0
62.643856 148.0
62.684818 128.0
62.716339 40.0
62.743137 176.0
62.825146 224.0
62.877216 160.0
63.111012 120.0
63.123661 108.0
63.155293 92.0
63.204334 36.0
63.28981 116.0
63.386433 152.0
63.427567 176.0
63.439342 180.0
63.489475 168.0
63.768898 60.0
63.87384 72.0
63.916798 172.0
63.986832 184.0
64.374298 204.0
64.911972 88.0
64.938332 188.0
65.308655 136.0
65.48893 184.0
65.517921 208.0
65.675903 160.0
65.730751 124.0
65.745277 204.0
66.006973 120.0
66.121834 108.0
66.564407 156.0
66.575775 236.0
66.72364 116.0
66.865158 176.0
66.974472 124.0
67.086678 140.0
67.243271 148.0
67.516106 216.0
67.663376 56.0
67.712502 208.0
67.728882 56.0
67.874237 236.0
68.015831 152.0
68.02948 76.0
68.199799 120.0
68.216232 136.0
68.303383 180.0
68.38401 64.0
68.542107 100.0
68.647606 172.0
68.716881 184.0
68.743286 144.0
68.948059 140.0
69.093575 100.0
69.356873 192.0
69.433144 128.0
69.471291 208.0
69.738632 44.0
69.835068 200.0
69.891632 64.0
70.026474 152.0
70.139778 124.0
70.736115 120.0
70.930428 176.0
70.982399 52.0
71.02433 48.0
71.041107 52.0
71.084724 196.0
71.20224 172.0
71.350113 168.0
71.383736 52.0
71.506546 220.0
71.668213 148.0
72.057961 184.0
72.249001 208.0
72.314995 204.0
72.374245 108.0
72.502991 136.0
72.686134 188.0
72.850822 152.0
72.871208 164.0
72.939186 236.0
73.027603 60.0
73.088852 140.0
73.131393 312.0
73.196083 128.0
73.346008 160.0
73.453438 268.0
73.525101 164.0
73.747124 168.0
73.810379 180.0
74.072235 212.0
74.181908 56.0
74.245346 236.0
74.28479 148.0
74.453003 360.0
74.489067 244.0
74.526863 108.0
74.721153 152.0
74.757286 112.0
74.932915 180.0
74.960487 192.0
74.977715 36.0
75.034431 204.0
75.37117 208.0
75.568459 236.0
75.741402 188.0
76.06913 184.0
76.282799 148.0
76.352348 172.0
76.655258 64.0
76.964569 196.0
77.301361 204.0
77.507988 156.0
77.678055 152.0
77.704369 52.0
77.893967 176.0
78.150635 200.0
78.601715 212.0
78.986862 280.0
79.068253 68.0
79.282539 104.0
79.3694 172.0
79.536163 184.0
79.573448 228.0
79.653358 144.0
79.976982 112.0
80.06778 152.0
80.511848 252.0
80.604744 140.0
80.862267 148.0
80.897858 208.0
80.960732 128.0
81.028793 220.0
81.046715 132.0
81.380333 180.0
82.273323 136.0
82.562424 196.0
83.00428 128.0
83.04055 204.0
83.114929 192.0
83.211128 120.0
83.251076 168.0
83.350983 192.0
83.403687 200.0
83.507545 168.0
83.576454 212.0
83.671097 148.0
83.864189 140.0
84.070282 204.0
84.09948 172.0
84.256523 180.0
84.373367 184.0
84.444801 164.0
84.832985 180.0
84.898994 92.0
85.2239 208.0
85.244118 88.0
85.625847 160.0
85.639656 72.0
85.818413 80.0
86.098892 56.0
86.115517 204.0
86.252251 180.0
86.48716 188.0
86.676056 140.0
87.184517 156.0
87.431862 188.0
87.767166 168.0
88.017204 160.0
88.138618 148.0
88.230194 208.0
88.503357 332.0
88.531448 136.0
88.685074 196.0
88.900749 168.0
88.923271 56.0
88.966446 164.0
89.04155 164.0
89.182465 156.0
89.28775 144.0
89.331017 140.0
89.500397 244.0
89.631218 176.0
89.783058 172.0
89.879265 88.0
89.992516 152.0
90.192764 48.0
90.247581 220.0
90.304314 44.0
90.34404 112.0
90.444328 168.0
90.518166 168.0
90.590141 132.0
90.770187 112.0
90.819496 156.0
90.844162 168.0
90.874512 108.0
90.928474 184.0
90.948524 152.0
90.971298 108.0
91.05555 7804.0
91.076691 180.0
91.117531 148.0
91.146034 92.0
91.163132 72.0
91.242966 108.0
91.412247 172.0
91.614067 228.0
91.736031 160.0
91.842812 116.0
92.016472 52.0
92.059387 1016.0
92.089828 112.0
92.169266 176.0
92.212654 216.0
92.318367 132.0
92.350883 100.0
92.38723 164.0
92.502045 144.0
92.538422 176.0
92.693565 136.0
92.737648 132.0
93.071014 1368.0
93.202057 80.0
93.671486 176.0
94.079704 180.0
94.08535 200.0
94.12471 160.0
94.256065 132.0
94.825012 148.0
95.087112 1004.0
95.405396 176.0
95.629089 144.0
95.866692 180.0
95.971954 164.0
96.001198 220.0
96.086609 168.0
96.170937 144.0
96.30761 212.0
96.524536 100.0
96.575386 204.0
96.739754 72.0
96.853325 52.0
96.868996 40.0
97.112053 184.0
97.14344 224.0
97.259209 128.0
97.343628 96.0
97.628571 192.0
97.705284 164.0
97.793831 80.0
97.839111 160.0
97.856827 164.0
97.894241 60.0
97.919838 96.0
98.249023 160.0
98.266777 128.0
98.300323 96.0
98.446404 144.0
98.476021 60.0
98.681541 176.0
98.768555 192.0
98.985359 160.0
99.051613 152.0
99.222038 68.0
99.243843 148.0
99.291435 100.0
99.32119 160.0
99.432297 140.0
99.537514 164.0
99.571266 124.0
99.744133 204.0
99.873375 140.0
100.303467 156.0
100.494919 36.0
100.584724 164.0
100.698532 128.0
100.824402 152.0
100.88636 236.0
100.910843 228.0
100.998344 184.0
101.15242 140.0
101.288582 208.0
101.72773 148.0
101.741783 124.0
101.953918 196.0
102.045151 56.0
102.135643 192.0
102.453697 88.0
102.576622 208.0
102.627029 180.0
102.848938 240.0
102.937767 188.0
102.953918 56.0
103.055275 852.0
103.07917 148.0
103.145859 116.0
103.26516 168.0
103.444244 128.0
103.848465 208.0
104.058701 220.0
104.242317 64.0
104.354111 104.0
104.472069 144.0
104.600266 120.0
104.708183 132.0
104.797813 120.0
104.913979 124.0
104.960876 204.0
105.034294 184.0
105.070641 14032.0
105.117943 104.0
105.301674 128.0
105.53701 148.0
105.663483 180.0
105.677811 76.0
105.841553 104.0
105.898895 40.0
106.073906 1372.0
106.098373 412.0
106.138664 124.0
106.575867 100.0
106.610794 200.0
106.707405 56.0
106.727966 236.0
106.800911 208.0
106.855186 412.0
106.931999 212.0
106.955383 220.0
106.974846 240.0
106.989037 188.0
106.995087 168.0
107.035789 404.0
107.048203 184.0
107.052925 104.0
107.062576 164.0
107.086647 44784.0
107.114876 228.0
107.146675 184.0
107.173523 60.0
107.193161 96.0
107.209061 112.0
107.239532 80.0
107.302406 44.0
107.335396 156.0
107.42614 136.0
107.441879 68.0
107.492165 80.0
107.523117 64.0
107.568527 120.0
107.628395 100.0
107.772987 56.0
107.845314 40.0
107.865982 60.0
107.915596 76.0
108.02166 200.0
108.089745 4196.0
108.122452 88.0
108.144188 72.0
108.203186 36.0
108.267372 112.0
108.377159 40.0
108.420677 132.0
108.447617 228.0
108.464203 156.0
108.632164 76.0
108.659134 84.0
108.735909 100.0
108.774094 212.0
108.796104 104.0
108.922775 116.0
108.939072 68.0
108.989258 112.0
109.022507 52.0
109.104927 408.0
109.217934 36.0
109.43853 76.0
109.480179 128.0
109.723961 92.0
109.988892 112.0
110.584587 140.0
110.850555 144.0
110.881996 140.0
110.993095 108.0
111.146217 132.0
111.860779 72.0
112.077705 76.0
113.004616 96.0
113.055397 144.0
113.59568 212.0
113.781425 136.0
113.83551 176.0
113.960831 32.0
114.122368 80.0
114.167023 60.0
114.40107 160.0
114.462807 40.0
114.658798 92.0
115.181526 124.0
115.200752 236.0
115.357803 268.0
115.407516 188.0
115.527824 80.0
116.711708 172.0
116.821396 172.0
117.318848 40.0
117.569046 148.0
117.623009 72.0
117.661865 188.0
117.959984 164.0
118.098366 188.0
118.290947 112.0
118.986824 112.0
119.060654 44.0
119.085793 748.0
119.690689 88.0
120.090088 172.0
120.214439 128.0
120.414368 216.0
120.670952 52.0
120.850296 176.0
121.101257 6196.0
121.141472 28.0
121.194054 48.0
122.025894 56.0
122.078667 252.0
122.103249 304.0
122.380119 60.0
122.424164 64.0
122.845139 132.0
122.889259 68.0
122.986359 48.0
123.021675 212.0
123.079079 84.0
123.104042 184.0
123.282303 76.0
124.19223 132.0
124.427452 192.0
124.998672 104.0
125.727379 64.0
126.185287 204.0
126.966766 124.0
127.025078 120.0
127.058731 172.0
128.149139 172.0
128.412888 192.0
129.203476 172.0
129.892136 112.0
131.07663 136.0
131.425507 192.0
133.072266 164.0
133.103561 500.0
133.459442 192.0
134.060226 152.0
134.108627 180.0
134.306915 52.0
134.46843 136.0
134.680435 276.0
135.089981 208.0
135.117874 2000.0
135.212616 168.0
136.118286 404.0
136.218903 72.0
136.739731 160.0
138.24733 36.0
138.640762 76.0
138.80954 168.0
140.448761 132.0
140.950714 136.0
144.358032 148.0
144.484787 164.0
145.371323 188.0
146.082504 160.0
146.111359 180.0
146.128204 112.0
146.409836 64.0
147.121124 180.0
147.282913 152.0
147.500381 80.0
148.123703 196.0
149.073318 52.0
149.369934 140.0
149.479416 204.0
150.578873 56.0
151.170486 148.0
151.807404 172.0
152.573456 204.0
153.336517 144.0
153.457306 96.0
154.536636 112.0
154.796524 52.0
155.925323 216.0
156.149033 84.0
156.547302 236.0
158.367844 124.0
158.92186 180.0
159.424072 172.0
161.552094 232.0
162.135254 152.0
162.486908 96.0
162.738159 240.0
162.771179 176.0
162.801651 192.0
162.827042 160.0
162.882919 52.0
162.96167 104.0
162.984543 188.0
163.01503 196.0
163.052139 176.0
163.086975 224.0
163.1492 29124.0
163.195496 164.0
163.219376 72.0
163.240601 140.0
163.291901 132.0
163.326279 76.0
163.386932 60.0
163.420471 68.0
163.44986 68.0
163.553207 104.0
163.617523 64.0
163.681488 36.0
163.74614 156.0
163.843369 56.0
163.873108 104.0
164.01268 76.0
164.035629 32.0
164.152878 4752.0
164.19133 60.0
164.24472 72.0
164.298279 72.0
164.328903 48.0
164.428421 68.0
164.530518 72.0
164.788467 52.0
164.819122 116.0
164.854904 48.0
164.920563 104.0
164.949463 52.0
165.154572 364.0
165.180954 36.0
165.279373 108.0
165.326828 96.0
165.391983 44.0
165.415009 136.0
166.042755 72.0
166.145355 72.0
166.432816 96.0
167.930527 76.0
168.67157 96.0
169.849731 96.0
171.130905 112.0
172.827454 68.0
173.081345 76.0
173.757553 48.0
174.46138 100.0
180.180069 208.0
181.175735 176.0
182.095779 212.0
183.201294 100.0
203.672638 112.0
210.286819 140.0
228.850616 56.0
238.374695 140.0
265.028076 52.0
278.459076 72.0
281.826904 108.0
283.339172 60.0
285.373016 80.0
293.311768 68.0
305.008575 128.0
328.503632 76.0
354.907166 52.0
368.83551 156.0
376.593201 76.0
404.414886 76.0
404.498962 44.0
407.663391 100.0
444.275391 128.0
461.363739 100.0
514.622314 32.0
571.25061 64.0
661.219666 48.0
731.194763 100.0
781.562622 136.0
782.002197 160.0
782.163635 96.0
787.510803 184.0
791.492493 184.0
791.951721 136.0
796.365784 168.0
797.214111 72.0
811.846558 76.0
814.746948 172.0
824.427612 144.0
826.531921 232.0
830.674072 168.0
840.696716 76.0
851.604004 132.0
861.605713 136.0
870.144531 168.0
870.467468 176.0
872.100647 180.0
890.279724 256.0
890.962769 148.0
892.139404 84.0
893.608398 124.0
894.340332 212.0
896.567749 200.0
901.544861 164.0
901.867554 156.0
902.602905 156.0
904.188171 184.0
912.718445 68.0
927.218567 228.0
928.079346 196.0
928.127869 180.0
931.660095 184.0
935.259949 144.0
940.068542 208.0
940.532349 168.0
944.338867 200.0
944.638611 136.0
945.146423 172.0
953.941101 132.0
955.632324 188.0
956.167664 168.0
956.321533 224.0
956.906311 68.0
960.647095 164.0
960.795166 196.0
963.295288 216.0
963.913147 124.0
966.949524 140.0
969.593994 156.0
969.761353 160.0
970.139465 264.0
971.429321 144.0
975.291565 212.0
977.63623 148.0
979.292297 152.0
983.781799 140.0
985.624207 136.0
989.176514 228.0
991.218262 188.0
993.324768 184.0
1002.642822 180.0
1003.13446 132.0
1003.638794 52.0
1004.269409 204.0
1007.223389 160.0
1008.202698 124.0
1008.550293 120.0
1009.435364 80.0
1011.751099 232.0
1015.749695 164.0
1017.780518 160.0
1020.811523 172.0
1023.968018 228.0
1024.356567 136.0
1026.051636 100.0
1027.292969 196.0
1027.773682 104.0
1031.222168 96.0
1033.434692 168.0
1037.253662 180.0
1038.668701 104.0
1042.848633 168.0
1043.877197 120.0
1044.012329 120.0
1044.333862 68.0
1045.627075 152.0
1047.919434 244.0
1049.221313 172.0
1050.16272 172.0
1053.687256 260.0
1054.966919 108.0
1056.072632 128.0
1057.02356 132.0
1061.999023 188.0
1062.887695 32.0
1063.575684 60.0
1072.571411 152.0
1074.462524 132.0
1075.708984 44.0
1076.440186 152.0
1078.81189 68.0
1079.262939 152.0
1080.394409 128.0
1080.479492 208.0
1081.749023 168.0
1084.015137 176.0
1086.054077 176.0
1086.316406 144.0
1086.939697 164.0
1087.248169 168.0
1087.346558 132.0
1088.232788 100.0
1090.223022 164.0
1090.65686 228.0
1097.259399 180.0
1098.36731 260.0
1099.455933 140.0
1100.446045 152.0
1102.186401 188.0
1103.286987 56.0
1106.369751 228.0
1110.637207 164.0
1112.926758 192.0
1117.991943 124.0
1119.236694 196.0
1120.122437 108.0
1121.341797 160.0
1121.515137 220.0
1123.248779 200.0
1125.898438 76.0
1128.103394 184.0
1128.437622 164.0
1128.751831 224.0
1128.993896 216.0
1129.260132 112.0
1131.046631 184.0
1131.428223 108.0
1132.620117 68.0
1132.874634 232.0
1136.179688 80.0
1136.770142 176.0
1138.582642 204.0
1140.460327 168.0
1140.799927 216.0
1141.290771 192.0
1141.828735 124.0
1144.131836 188.0
1144.978394 160.0
1145.591309 196.0
1146.521118 220.0
1147.44458 84.0
1149.386963 36.0
1149.481445 152.0
1150.12207 264.0
1151.371704 156.0
1153.175537 196.0
1154.50061 212.0
1154.561523 132.0
1155.33252 84.0
1158.053711 180.0
1160.913696 160.0
1161.04248 132.0
1161.78186 168.0
1161.931152 164.0
1165.930542 44.0
1166.481079 144.0
1166.977295 188.0
1167.317261 100.0
1168.255859 148.0
1169.970825 168.0
1171.264648 112.0
1171.986694 188.0
1172.511475 208.0
1173.049927 160.0
1173.533936 84.0
1173.847656 140.0
1173.997681 160.0
1174.904785 72.0
1175.539307 140.0
1176.064819 52.0
1178.605225 136.0
1178.899048 180.0
1179.657715 192.0
1180.614136 144.0
1180.88855 188.0
1181.818848 184.0
1183.180908 216.0
1183.550537 196.0
1183.968262 224.0
1184.372803 288.0
1185.091675 92.0
1185.194458 168.0
1186.332153 256.0
1186.702393 192.0
1186.914917 196.0
1187.151489 104.0
1188.739502 160.0
1189.672974 200.0
1191.437866 44.0
1192.578613 164.0
1193.279663 180.0
1195.398193 200.0
1196.39624 204.0
1199.08252 144.0
1199.179077 156.0
1200.544067 164.0
1200.613037 108.0
1201.068237 68.0
1201.747681 148.0
1202.109985 260.0
1202.489624 168.0
1204.118896 168.0
1205.790894 200.0
1206.343872 164.0
1207.353271 216.0
1207.775146 144.0
1208.321655 68.0
1208.9375 188.0
1209.622681 228.0
1210.093506 164.0
1210.931396 156.0
1211.097534 68.0
1213.100098 232.0
1215.007202 156.0
1215.798218 252.0
1217.443481 120.0
1217.999146 192.0
1218.42981 60.0
1218.94397 180.0
1219.555542 48.0
1223.889526 116.0
1223.959106 168.0
1225.13623 80.0
1225.275513 76.0
1226.021118 84.0
1227.819702 224.0
1229.026489 180.0
1230.101318 232.0
1232.035645 164.0
1232.105469 84.0
1232.545654 232.0
1232.709229 236.0
1234.10437 188.0
1237.994873 52.0
1238.057861 156.0
1239.749512 224.0
1239.872314 112.0
1240.09668 204.0
1240.951904 96.0
1241.021973 264.0
1241.68811 84.0
1244.115967 168.0
1244.228271 180.0
1244.368652 200.0
1244.951416 112.0
1245.176147 204.0
1246.503906 264.0
1246.623413 108.0
1249.653931 40.0
1249.907227 136.0
1253.956543 180.0
1254.802368 132.0
1256.8125 144.0
1257.186523 156.0
1257.26416 160.0
1257.878174 108.0
1258.675903 68.0
1259.678833 200.0
1262.315063 144.0
1264.118896 60.0
1266.497681 132.0
1268.786499 160.0
1271.070312 196.0
1272.035522 224.0
1272.255615 40.0
1272.894531 112.0
1272.979858 100.0
1273.903076 36.0
1274.421753 152.0
1275.089722 136.0
1276.817261 152.0
1278.311157 240.0
1279.264893 208.0
1282.933594 188.0
1283.331177 136.0
1284.759277 164.0
1286.23645 132.0
1286.579102 236.0
1286.821777 132.0
1288.185791 160.0
1289.100342 64.0
1290.208252 144.0
1290.880249 184.0
1291.080566 232.0
1292.768799 176.0
1293.556152 152.0
1295.869263 168.0
1296.471191 180.0
1297.101929 208.0
1297.869019 148.0
1298.643433 208.0
1299.138428 88.0
1300.150146 40.0
1301.794067 228.0
1304.10022 152.0
1305.487671 140.0
1305.804199 232.0
1306.444336 180.0
1308.04187 192.0
1308.236206 176.0
1308.444946 176.0
1313.467773 180.0
1314.36145 164.0
1318.030396 216.0
1318.355591 184.0
1318.984375 188.0
1319.8302 188.0
1319.90979 176.0
1320.198975 184.0
1320.907837 196.0
1321.39978 116.0
1323.498657 48.0
1324.092529 172.0
1324.505371 160.0
1324.651123 148.0
1326.229858 148.0
1326.454468 116.0
1328.310791 164.0
1329.123413 192.0
1329.733032 116.0
1332.194458 172.0
1332.310669 156.0
1332.441528 52.0
1332.819336 164.0
1334.120239 160.0
1334.396484 156.0
1334.963623 224.0
1335.698242 136.0
1336.360229 200.0
1336.585815 148.0
1337.262573 84.0
1337.604614 128.0
1339.30127 104.0
1341.159302 156.0
1341.851807 200.0
1341.910156 160.0
1342.136108 204.0
1342.544434 192.0
1344.842651 52.0
1344.915649 196.0
1345.14917 148.0
1346.193237 204.0
1347.157349 236.0
1347.456909 116.0
1347.522583 176.0
1347.595703 168.0
1348.896484 216.0
1349.627563 188.0
1350.197998 148.0
1350.556396 156.0
1350.980591 184.0
1351.141602 216.0
1352.780762 156.0
1353.271362 136.0
1354.164673 200.0
1354.809326 120.0
1355.072998 144.0
1356.524048 144.0
1360.602905 168.0
1363.945312 164.0
1365.202515 160.0
1366.710449 144.0
1369.00708 100.0
1371.121338 236.0
1371.261353 140.0
1373.22998 160.0
1373.856934 152.0
1374.166748 172.0
1374.971069 160.0
1375.546753 156.0
1375.783081 72.0
1377.045654 188.0
1377.2229 180.0
1377.533203 132.0
1378.508423 64.0
1379.824097 112.0
1380.955444 180.0
1386.056152 212.0
1386.211792 180.0
1387.679321 204.0
1389.333252 176.0
1389.644775 140.0
1389.837769 36.0
1390.780151 52.0
1390.847046 188.0
1391.151367 116.0
1391.403809 128.0
1394.865479 92.0
1395.021606 164.0
1395.750244 148.0
1395.988159 172.0
1397.126221 200.0
1398.391113 240.0
1398.547485 172.0
1399.083374 140.0
1401.220825 168.0
1402.577026 184.0
1402.987061 216.0
1403.30835 176.0
1403.904175 156.0
1404.12793 136.0
1405.679565 208.0
1406.627441 120.0
1407.485962 208.0
1408.240234 164.0
1408.434448 208.0
1410.09314 116.0
1410.676147 224.0
1411.37146 160.0
1411.498535 180.0
1411.760254 28.0
1412.478271 104.0
1413.009399 228.0
1413.398438 184.0
1414.932861 188.0
1415.149902 124.0
1415.269775 140.0
1415.711548 164.0
1415.786377 180.0
1416.5354 144.0
1417.149658 212.0
1417.621826 184.0
1418.633545 76.0
1421.896362 96.0
1422.677002 176.0
1422.872192 172.0
1423.540527 116.0
1423.593018 144.0
1424.419189 92.0
1425.914429 224.0
1426.425537 140.0
1426.906616 184.0
1426.974365 116.0
1427.696167 176.0
1429.275879 248.0
1429.614502 172.0
1431.76001 172.0
1432.648804 192.0
1432.845947 208.0
1432.920044 192.0
1434.276489 140.0
1434.419678 196.0
1435.497803 280.0
1437.066772 176.0
1438.115601 160.0
1440.048462 128.0
1440.388428 40.0
1442.201904 72.0
1445.733765 52.0
1446.369507 68.0
1446.634521 168.0
1446.967529 48.0
1449.648926 200.0
1449.830811 188.0
1450.406738 200.0
1450.944946 196.0
1451.263428 136.0
1453.098877 60.0
1453.523071 208.0
1455.132446 216.0
1455.223999 180.0
1456.249146 180.0
1456.537842 180.0
1457.297485 52.0
1457.684937 136.0
1458.406982 140.0
1459.699341 128.0
1460.66748 228.0
1461.357544 156.0
1462.323975 132.0
1464.120728 268.0
1465.476562 136.0
1465.948975 256.0
1468.937744 120.0
1469.975342 132.0
1470.272949 132.0
1471.387329 160.0
1471.639282 172.0
1471.937134 188.0
1480.011719 144.0
1480.203125 256.0
1483.290649 192.0
1483.466919 120.0
1483.55896 120.0
1484.547974 256.0
1484.985107 180.0
1485.2229 172.0
1486.051392 160.0
1486.435059 132.0
1490.904297 180.0
1491.296265 112.0
1492.387939 160.0
1492.618652 132.0
1495.326538 124.0
1495.749756 196.0
1497.428345 172.0
1498.036865 156.0
1498.461304 160.0
1498.637695 164.0
1498.876587 168.0
1498.938232 180.0
1500.472046 88.0
1500.765015 192.0
1501.081177 148.0
1502.770386 224.0
1502.870728 168.0
1502.955566 68.0
1503.43396 184.0
1504.074585 120.0
1504.282959 148.0
1504.352539 72.0
