>compound MLS001159078-01!2-(3,4-dimethyl-2-oxochromen-7-yl)oxy-N-[2-(1H-indol-3-yl)ethyl]propanamide
>formula C24H24N2O4
>ionization [M+H]+
>parentmass 405.181
#inchi InChI=1S/C24H24N2O4/c1-14-15(2)24(28)30-22-12-18(8-9-19(14)22)29-16(3)23(27)25-11-10-17-13-26-21-7-5-4-6-20(17)21/h4-9,12-13,16,26H,10-11H2,1-3H3,(H,25,27)
#inchikey RPNCFIWEUHDOMG
#Ion_Source LC-ESI
#Instrument qTof
#Compound_Source NIH Natural Product Library
#PI Dorrestein
#Data_Collector VVP/LMS
#Scan -1
#Precursor_MZ 405.181
#ExactMass 404.174
#Charge 1
#CAS_Number N/A
#Pubmed_ID N/A
#Smiles CC(Oc1ccc2c(C)c(C)c(=O)oc2c1)C(=O)NCCc3c[nH]c4ccccc34
#INCHI_AUX N/A
#Library_Class 1
#SpectrumID CCMSLIB00000079572
#IonMode Positive
#UpdateWorkflowName UPDATE-SINGLE-ANNOTATED-GOLD
#LibraryQualityString Gold
#TaskID b1d8e8f6646f4e71acdff9ca3d919d08
##Scan# 2258
#SpectrumFile p1-C08_GC8_01_17904.mzXML
#LibraryName NIH_Natural_Products_Library.mgf
#MQScore -1
#Organism NIH_Natural_Products_Library
#TIC_Query 0
#RT_Query -1
#MZErrorPPM -1
#SharedPeaks 0
#MassDiff 0
#LibMZ -1
#SpecMZ 405.181
#SpecCharge 0
#internalFilename spec-00000.mgf

>collision 10
95.015472 208.0
95.054276 128.0
95.084465 180.0
95.205688 100.0
95.246475 144.0
95.302811 72.0
95.372772 216.0
95.446648 248.0
95.493317 220.0
95.538452 188.0
95.565292 56.0
95.645691 152.0
95.719055 120.0
95.821312 40.0
95.841766 176.0
95.948967 92.0
95.972359 136.0
96.08548 80.0
96.304108 160.0
96.481926 140.0
96.52298 104.0
96.58165 80.0
96.74115 172.0
96.77343 148.0
96.800842 48.0
97.324379 192.0
97.939903 96.0
98.040382 220.0
98.066002 180.0
98.300491 204.0
98.330284 180.0
98.399368 172.0
98.681892 160.0
98.921005 208.0
99.002441 144.0
99.069298 208.0
99.119316 184.0
99.168861 152.0
99.220398 176.0
99.309631 204.0
99.345337 124.0
99.361206 56.0
99.613319 180.0
99.917473 176.0
99.949303 204.0
100.014977 176.0
100.071129 172.0
100.212387 180.0
100.279877 128.0
100.447357 204.0
100.505219 64.0
100.525169 124.0
100.649361 292.0
100.664139 168.0
100.766769 192.0
101.17675 168.0
101.399086 188.0
101.511345 28.0
101.525383 60.0
101.593575 188.0
101.639725 52.0
102.011261 256.0
102.025337 172.0
102.048271 344.0
102.226608 168.0
102.36335 100.0
102.441895 148.0
102.538612 68.0
102.617226 192.0
102.71402 152.0
102.895638 164.0
102.921883 232.0
103.054314 916.0
103.267448 64.0
103.311943 60.0
103.429314 136.0
103.544716 196.0
103.751389 200.0
103.860893 172.0
104.046219 232.0
104.062614 200.0
104.082092 148.0
104.118645 216.0
104.327927 172.0
104.39299 196.0
104.48452 160.0
104.547592 172.0
104.56591 76.0
104.696205 188.0
104.820465 204.0
104.844917 188.0
104.977425 188.0
105.032486 156.0
105.071869 208.0
105.11409 180.0
105.283524 128.0
105.489883 172.0
105.63916 140.0
105.9114 248.0
105.95237 76.0
106.017937 144.0
106.066002 168.0
106.101967 120.0
106.196297 224.0
106.268089 112.0
106.448715 180.0
106.586342 212.0
106.600723 128.0
106.872147 84.0
106.937996 164.0
107.001808 116.0
107.049484 616.0
107.072845 136.0
107.139786 124.0
107.158325 176.0
107.216026 156.0
107.321152 200.0
107.601746 196.0
107.661621 164.0
108.056419 132.0
108.083313 208.0
108.13298 292.0
108.190933 172.0
108.22406 168.0
108.424988 84.0
108.572182 124.0
109.228493 108.0
109.315872 104.0
109.874268 92.0
109.928513 172.0
109.954109 196.0
110.137283 132.0
110.185326 124.0
110.262642 228.0
110.321167 32.0
110.475914 168.0
110.517754 56.0
110.563789 176.0
110.852776 128.0
111.133751 104.0
111.318459 236.0
111.438187 220.0
111.55587 52.0
111.585304 184.0
111.616844 156.0
111.810371 148.0
111.871414 112.0
112.077805 112.0
112.183182 124.0
112.341339 172.0
112.879906 180.0
112.909508 136.0
112.992004 104.0
113.292618 168.0
113.530006 148.0
113.663643 76.0
113.712448 148.0
113.752777 108.0
114.030266 224.0
114.450096 156.0
114.488419 184.0
114.605576 20.0
114.7164 156.0
114.759033 172.0
114.818741 76.0
114.906197 244.0
115.029968 196.0
115.055199 2684.0
115.115372 96.0
115.169769 152.0
115.335419 40.0
115.408104 184.0
115.540703 112.0
115.64769 240.0
115.681938 144.0
116.059547 1176.0
116.102921 64.0
116.134056 216.0
116.159798 156.0
116.194115 32.0
116.307846 248.0
116.370102 80.0
116.415192 144.0
116.509697 152.0
116.615509 248.0
116.664429 152.0
116.78054 124.0
116.95697 152.0
116.976341 132.0
117.07019 5808.0
117.139999 64.0
117.204628 128.0
117.446205 132.0
117.511848 180.0
117.530212 40.0
117.569054 52.0
117.58847 68.0
117.61869 64.0
117.666183 92.0
117.780632 28.0
118.074532 412.0
118.098358 80.0
118.130806 128.0
118.206528 20.0
118.336395 132.0
118.505333 156.0
118.527 140.0
118.61808 152.0
118.646202 176.0
118.698853 56.0
118.729912 220.0
119.0476 176.0
119.066032 184.0
119.223557 40.0
119.356155 176.0
119.595459 144.0
119.654228 132.0
119.767464 52.0
119.874214 120.0
119.906906 60.0
120.301697 68.0
120.663727 172.0
120.727753 160.0
121.064751 312.0
121.279457 88.0
121.446091 168.0
121.52726 140.0
121.636986 212.0
121.698456 164.0
121.759941 160.0
121.940086 236.0
122.069977 144.0
122.278778 184.0
122.380035 144.0
122.42408 164.0
122.481339 160.0
122.520988 164.0
122.754616 180.0
122.957573 48.0
123.023788 108.0
123.043243 212.0
123.06794 180.0
123.391617 136.0
123.432518 152.0
123.655945 204.0
123.711281 208.0
123.928322 80.0
124.036911 168.0
124.244713 180.0
124.289726 160.0
124.374962 216.0
124.5317 80.0
124.571678 116.0
124.644997 164.0
124.707222 148.0
124.785027 92.0
124.989647 168.0
125.263481 156.0
125.346741 160.0
125.595604 140.0
125.678146 164.0
125.725006 152.0
125.885727 200.0
126.049263 360.0
126.095726 196.0
126.207497 156.0
126.290237 128.0
126.305893 148.0
126.411041 232.0
126.567734 76.0
126.619232 116.0
126.800232 172.0
126.977814 188.0
127.009216 40.0
127.055405 1544.0
127.12812 176.0
127.171921 248.0
127.274025 92.0
127.41777 64.0
127.826973 140.0
127.888359 160.0
128.027313 76.0
128.060425 816.0
128.110657 48.0
128.160217 128.0
128.259384 176.0
128.306717 180.0
128.336029 68.0
128.354065 244.0
128.525482 140.0
128.755737 128.0
129.066925 168.0
129.101501 84.0
129.169342 144.0
129.25531 232.0
129.300583 112.0
129.357162 148.0
129.382065 152.0
129.896469 140.0
130.065201 1572.0
130.18924 148.0
130.343704 176.0
130.370972 32.0
130.407349 52.0
130.423248 208.0
130.630173 96.0
130.746201 200.0
130.782623 188.0
130.967041 96.0
131.049301 164.0
131.074875 920.0
131.121979 212.0
131.274719 184.0
131.559906 240.0
131.765442 176.0
131.884277 156.0
132.051178 164.0
132.081238 836.0
132.158691 100.0
132.399033 140.0
132.45401 148.0
132.673996 76.0
133.07547 104.0
133.101105 280.0
133.174225 104.0
133.484467 156.0
133.581055 48.0
133.599457 180.0
133.94014 188.0
134.065338 248.0
134.108337 232.0
134.267426 128.0
134.375839 176.0
134.394287 108.0
134.458908 168.0
134.53508 68.0
134.63205 176.0
134.754471 160.0
134.830215 236.0
134.888504 204.0
134.913925 140.0
135.082108 640.0
135.117447 204.0
135.152145 140.0
135.531876 180.0
135.663971 148.0
135.703384 164.0
136.079239 216.0
136.19603 68.0
136.304535 160.0
136.434692 112.0
136.483521 148.0
136.511414 124.0
136.588165 136.0
136.606781 124.0
136.683548 88.0
136.820862 140.0
137.06076 124.0
137.084 160.0
137.207596 180.0
137.548172 204.0
137.67659 268.0
137.889175 48.0
137.92189 184.0
138.167435 204.0
138.223587 176.0
138.284424 88.0
138.602905 236.0
138.947556 156.0
138.963989 76.0
139.004166 188.0
139.032028 244.0
139.060196 84.0
139.212784 56.0
140.500259 188.0
140.826004 204.0
140.842545 176.0
140.970108 76.0
141.015015 68.0
141.038651 188.0
141.057556 120.0
141.074112 232.0
141.227798 164.0
141.490463 152.0
141.59465 132.0
141.78418 188.0
141.878983 148.0
142.066422 1336.0
142.111404 188.0
142.165985 132.0
142.244293 188.0
142.355881 188.0
142.473389 188.0
142.51503 172.0
142.5578 156.0
142.61171 152.0
142.683777 72.0
142.755112 140.0
142.779846 128.0
142.809113 192.0
142.966827 136.0
142.997757 140.0
143.0168 176.0
143.073593 15228.0
143.127289 240.0
143.145355 40.0
143.171555 44.0
143.194794 132.0
143.214935 128.0
143.233475 132.0
143.324005 56.0
143.37616 104.0
143.419327 36.0
143.446609 188.0
143.466995 96.0
143.608383 176.0
143.638458 188.0
143.660294 208.0
143.714783 236.0
143.750824 148.0
143.793777 172.0
143.815475 128.0
143.848633 124.0
143.884491 80.0
143.910751 156.0
143.934616 152.0
143.965668 164.0
143.986572 164.0
144.008057 364.0
144.082047 93664.0
144.142624 116.0
144.162201 336.0
144.180664 44.0
144.201187 92.0
144.217316 96.0
144.252319 216.0
144.28627 44.0
144.297455 64.0
144.315552 96.0
144.359955 56.0
144.417862 56.0
144.441269 156.0
144.4767 240.0
144.504272 60.0
144.544144 80.0
144.565842 120.0
144.583878 60.0
144.601151 200.0
144.658279 64.0
144.68634 88.0
144.72522 60.0
144.766113 148.0
144.787521 84.0
144.805527 64.0
144.825073 172.0
144.882233 76.0
144.916977 84.0
145.003937 60.0
145.037109 340.0
145.084732 10312.0
145.129974 124.0
145.174149 88.0
145.210114 88.0
145.312225 120.0
145.378052 64.0
145.397247 56.0
145.534073 120.0
145.558075 36.0
145.626282 72.0
145.644531 92.0
145.714203 88.0
145.733414 64.0
145.774261 76.0
145.798294 28.0
145.846359 44.0
145.864975 92.0
145.912857 140.0
145.944931 76.0
145.984039 180.0
146.030731 200.0
146.065308 300.0
146.089691 628.0
146.146973 140.0
146.187637 124.0
146.26268 96.0
146.298584 140.0
146.317841 84.0
146.520142 116.0
146.537003 140.0
146.806961 212.0
146.835907 100.0
147.0289 176.0
147.080383 324.0
147.125458 76.0
147.171326 76.0
147.188232 48.0
147.214783 48.0
147.325897 32.0
147.652191 124.0
148.045883 116.0
148.070877 188.0
148.095093 148.0
148.238037 64.0
148.344666 84.0
148.485306 32.0
148.55806 100.0
149.058151 204.0
149.094894 412.0
150.036621 32.0
150.065872 132.0
150.095139 156.0
150.71022 156.0
150.788422 164.0
151.059814 68.0
151.152786 56.0
152.064407 120.0
152.309937 104.0
152.676132 160.0
152.865555 92.0
153.064056 312.0
153.070114 348.0
153.111725 120.0
153.215179 72.0
153.249664 88.0
153.755173 96.0
153.836624 36.0
154.066864 532.0
154.221954 36.0
154.501373 120.0
154.669647 180.0
154.855331 116.0
155.064713 1096.0
155.197311 176.0
155.368439 52.0
155.558624 200.0
155.74823 136.0
156.07106 124.0
156.096161 176.0
156.319351 92.0
156.335953 80.0
156.47435 56.0
156.676071 28.0
157.092377 152.0
157.157242 60.0
158.011703 172.0
158.097153 3808.0
158.625244 40.0
158.712982 116.0
158.750595 72.0
158.996445 72.0
159.097748 660.0
159.272614 56.0
159.46106 60.0
159.581711 208.0
160.086792 164.0
160.10762 696.0
160.233566 56.0
160.68988 72.0
161.000351 76.0
161.056488 272.0
161.096313 928.0
161.164551 40.0
161.951294 80.0
162.062744 152.0
162.099487 144.0
162.851685 92.0
163.073456 276.0
163.105759 68.0
163.365128 96.0
164.07309 196.0
164.606323 72.0
165.23764 80.0
167.069366 216.0
168.080856 372.0
168.123184 36.0
168.3013 144.0
169.090454 388.0
169.114273 204.0
169.464325 120.0
170.096008 3552.0
170.401306 108.0
170.838547 56.0
171.068359 140.0
171.100723 416.0
171.416534 60.0
171.846756 124.0
172.08165 332.0
172.107986 360.0
172.274902 68.0
172.426453 60.0
172.460434 116.0
173.060638 224.0
173.084457 148.0
173.090286 152.0
173.240189 108.0
173.457687 92.0
174.040085 160.0
174.069092 172.0
174.250198 52.0
174.912888 240.0
174.955002 176.0
174.994492 152.0
175.041885 176.0
175.079391 196.0
175.853851 156.0
176.736465 92.0
177.101791 256.0
179.53891 100.0
181.812836 168.0
182.043701 160.0
182.102783 224.0
183.065552 228.0
183.093765 204.0
183.615311 100.0
183.690826 148.0
184.076202 168.0
184.168579 44.0
184.8228 100.0
185.117844 200.0
185.255966 80.0
185.426666 156.0
186.088821 116.0
186.221588 92.0
187.098923 212.0
187.123581 488.0
188.128769 176.0
189.093201 1340.0
189.566254 200.0
189.793762 152.0
189.999466 32.0
190.067032 264.0
190.095352 172.0
190.260178 116.0
190.468872 76.0
191.070221 7580.0
191.32132 64.0
191.365372 40.0
191.745499 48.0
191.803375 56.0
192.074722 1476.0
192.272247 48.0
193.084457 152.0
193.449692 112.0
193.518906 164.0
193.632431 100.0
197.062256 204.0
197.106964 92.0
197.646622 124.0
198.094101 324.0
198.885284 216.0
199.098862 456.0
199.129547 88.0
200.09404 68.0
201.089081 208.0
202.067947 204.0
203.074646 224.0
204.475861 72.0
204.957123 84.0
208.496872 192.0
209.414627 96.0
216.105957 144.0
216.662216 88.0
217.085617 3940.0
217.976639 92.0
218.090469 968.0
218.617676 36.0
219.601669 112.0
232.336517 76.0
237.197357 60.0
238.08403 116.0
242.615097 20.0
245.088623 148.0
254.466827 116.0
262.105438 268.0
263.11438 140.0
266.495575 48.0
270.575592 48.0
272.783356 96.0
273.03653 176.0
274.10791 164.0
284.768921 132.0
288.115906 156.0
289.124725 112.0
296.278564 56.0
299.05307 52.0
318.907654 100.0
323.276428 120.0
342.560944 108.0
353.588715 88.0
355.11731 124.0
358.302307 64.0
365.80307 104.0
368.105835 132.0
369.191101 104.0
386.166046 60.0
390.36615 52.0
391.176636 76.0
394.909302 148.0
406.27536 52.0
406.739288 104.0
407.088562 116.0
407.293396 104.0
409.078735 108.0
411.291687 104.0
416.913147 80.0
421.459229 56.0
424.583984 32.0
437.180023 188.0
441.196625 52.0
447.801239 68.0
451.933929 80.0
462.175995 124.0
470.152954 20.0
560.228088 116.0
628.903076 88.0
639.413086 64.0
649.386169 136.0
676.834717 100.0
678.015808 64.0
695.802856 20.0
702.106445 36.0
704.819702 124.0
725.759521 68.0
727.009338 88.0
729.049988 84.0
738.998474 184.0
739.355652 64.0
749.515625 136.0
753.351013 200.0
760.156433 52.0
773.997559 172.0
783.333313 176.0
789.511841 176.0
794.266785 204.0
797.158142 172.0
797.731384 184.0
813.111633 64.0
834.400818 140.0
837.122314 124.0
841.666077 136.0
854.236572 180.0
858.324951 176.0
863.656799 136.0
867.184143 144.0
868.817444 144.0
873.469849 164.0
874.292969 200.0
878.370605 192.0
878.453186 120.0
883.042603 104.0
893.089783 196.0
896.971924 116.0
898.504517 64.0
900.671387 60.0
901.752808 204.0
908.177124 260.0
911.50293 144.0
917.937683 192.0
918.082397 192.0
918.172852 124.0
926.86554 172.0
928.471924 188.0
930.006897 176.0
933.834595 108.0
936.878052 156.0
938.334534 96.0
938.57843 52.0
941.825073 56.0
943.340454 212.0
947.409851 180.0
955.723267 196.0
956.344177 232.0
962.478027 172.0
965.87085 136.0
967.108276 208.0
971.129395 104.0
973.916138 208.0
974.580872 104.0
976.178345 208.0
990.689453 88.0
991.272156 208.0
1003.623474 200.0
1006.191284 64.0
1008.522217 156.0
1009.989136 176.0
1012.84375 188.0
1017.269714 120.0
1028.581177 200.0
1029.353027 208.0
1031.397949 116.0
1040.905151 208.0
1044.343384 212.0
1044.748657 144.0
1044.960938 160.0
1047.999756 44.0
1056.890625 44.0
1057.259399 56.0
1057.602417 188.0
1061.716431 160.0
1061.839722 156.0
1073.193481 148.0
1074.021606 200.0
1077.383301 236.0
1077.932129 196.0
1078.298096 124.0
1078.807983 172.0
1080.697998 184.0
1084.24707 200.0
1086.738892 164.0
1087.047241 44.0
1088.005493 116.0
1091.934814 236.0
1095.284912 212.0
1096.174316 208.0
1097.031128 116.0
1099.06897 124.0
1103.441284 144.0
1103.718994 100.0
1106.292603 196.0
1110.606201 164.0
1111.793823 184.0
1113.333984 132.0
1114.35022 120.0
1114.536255 208.0
1117.874268 180.0
1121.337158 132.0
1123.297485 152.0
1124.411743 140.0
1125.226074 156.0
1127.029297 88.0
1127.109497 128.0
1129.342285 132.0
1130.212036 224.0
1130.992065 224.0
1132.648804 196.0
1133.177979 60.0
1134.075928 48.0
1137.657837 164.0
1138.067383 136.0
1140.08252 204.0
1143.640259 112.0
1146.313843 196.0
1146.522705 56.0
1147.94519 200.0
1148.079956 172.0
1148.282349 180.0
1148.477905 176.0
1150.900635 240.0
1151.981201 104.0
1152.298706 192.0
1154.583374 132.0
1155.388184 164.0
1158.881592 148.0
1159.938843 184.0
1161.634033 208.0
1162.719604 56.0
1164.640991 104.0
1166.190186 240.0
1167.985107 44.0
1171.579224 172.0
1171.939575 172.0
1172.533203 160.0
1172.737671 132.0
1173.385254 132.0
1174.080688 120.0
1174.189819 120.0
1174.414917 176.0
1175.806763 128.0
1182.12793 200.0
1184.29126 156.0
1185.558716 156.0
1186.806274 128.0
1188.665039 76.0
1189.152344 80.0
1192.25647 184.0
1192.607056 172.0
1196.607666 48.0
1196.762085 140.0
1197.195801 184.0
1197.533325 172.0
1198.270386 292.0
1198.752686 160.0
1200.924316 152.0
1204.520386 204.0
1206.704102 132.0
1210.419556 188.0
1211.978027 220.0
1212.75415 128.0
1212.879028 140.0
1214.165039 148.0
1215.063354 224.0
1219.36145 80.0
1220.049561 176.0
1221.962158 264.0
1224.789062 224.0
1228.064209 220.0
1229.187378 184.0
1229.250244 152.0
1229.675903 364.0
1230.150513 184.0
1231.35376 124.0
1234.146606 168.0
1235.783325 112.0
1236.252075 44.0
1241.344727 204.0
1246.075439 212.0
1246.208984 72.0
1246.813232 144.0
1248.268433 192.0
1251.392456 156.0
1253.885986 128.0
1254.527466 140.0
1257.179443 160.0
1258.485229 92.0
1260.547729 192.0
1260.625488 212.0
1263.036255 100.0
1266.341675 168.0
1267.850708 176.0
1269.913696 176.0
1270.999146 280.0
1271.048706 140.0
1271.659058 180.0
1272.519775 196.0
1273.121582 96.0
1274.385864 168.0
1274.904541 200.0
1275.14624 68.0
1275.672241 192.0
1275.999268 256.0
1276.880981 104.0
1277.421509 92.0
1280.966431 56.0
1284.930054 168.0
1285.065552 204.0
1286.150269 232.0
1287.921021 128.0
1289.52356 256.0
1290.557983 152.0
1291.044189 156.0
1293.118896 144.0
1293.483887 148.0
1293.949219 168.0
1294.135376 188.0
1294.464722 156.0
1296.413208 156.0
1297.273193 112.0
1301.21167 108.0
1301.599365 164.0
1302.820312 176.0
1303.064575 204.0
1303.646606 176.0
1304.494629 172.0
1304.57373 80.0
1305.738525 112.0
1307.875366 180.0
1308.638428 160.0
1309.819458 212.0
1310.107666 40.0
1311.541626 132.0
1313.950073 152.0
1314.570557 148.0
1320.798218 216.0
1322.824219 156.0
1325.743042 204.0
1327.062256 156.0
1328.52002 188.0
1328.947998 196.0
1330.508423 140.0
1331.590332 200.0
1332.963257 64.0
1333.915161 160.0
1334.147949 196.0
1335.391357 152.0
1336.053345 156.0
1337.137451 44.0
1338.375 52.0
1338.498779 128.0
1340.487305 140.0
1340.939087 176.0
1342.805542 72.0
1343.184814 156.0
1345.264404 108.0
1345.366699 116.0
1345.877686 228.0
1346.067505 28.0
1347.184937 160.0
1347.659912 168.0
1349.070312 144.0
1349.41394 88.0
1349.896484 160.0
1350.532715 152.0
1351.037476 172.0
1351.139893 208.0
1352.113037 136.0
1354.082397 172.0
1354.661133 168.0
1358.692993 40.0
1360.646362 112.0
1360.872681 52.0
1361.063599 40.0
1361.864014 120.0
1365.075562 272.0
1365.266724 156.0
1365.428589 116.0
1371.148926 156.0
1371.355225 196.0
1372.578979 152.0
1372.873901 64.0
1373.087769 176.0
1373.345947 152.0
1374.039307 112.0
1374.24585 152.0
1375.050171 208.0
1375.699707 232.0
1376.379028 248.0
1377.47937 188.0
1377.70105 172.0
1378.905396 176.0
1380.154663 192.0
1380.472656 184.0
1384.239136 168.0
1384.542725 216.0
1385.838989 216.0
1387.528809 76.0
1391.624146 196.0
1392.771484 232.0
1392.827148 76.0
1394.699585 156.0
1395.554443 152.0
1396.245972 164.0
1396.781494 144.0
1396.88562 216.0
1397.183228 160.0
1398.262085 156.0
1399.244751 124.0
1399.333984 116.0
1400.153076 176.0
1400.95752 196.0
1402.343506 152.0
1402.4552 196.0
1402.522339 60.0
1404.453491 136.0
1404.729492 184.0
1406.214233 180.0
1407.789429 192.0
1408.01355 128.0
1408.147949 220.0
1410.28479 208.0
1410.553833 176.0
1411.608032 184.0
1411.667847 196.0
1413.837158 160.0
1415.731201 160.0
1418.121094 128.0
1419.200562 56.0
1419.642944 88.0
1421.428223 140.0
1422.081055 136.0
1422.508911 180.0
1422.659058 112.0
1422.869263 168.0
1423.417358 300.0
1423.530029 208.0
1426.212036 200.0
1427.12915 156.0
1427.730713 180.0
1428.369995 96.0
1428.723633 148.0
1428.880371 148.0
1429.092163 188.0
1430.808228 116.0
1433.180542 148.0
1435.042236 144.0
1437.387939 176.0
1438.384155 252.0
1438.618164 72.0
1440.218994 188.0
1441.872314 124.0
1442.168335 132.0
1442.508423 200.0
1443.733276 148.0
1443.9375 184.0
1444.913208 212.0
1447.516846 124.0
1449.265625 152.0
1449.463623 176.0
1450.160034 160.0
1454.317139 44.0
1454.635864 156.0
1454.757324 148.0
1455.789917 204.0
1458.525024 148.0
1459.072266 200.0
1459.498047 228.0
1459.885864 152.0
1460.131592 236.0
1460.547485 156.0
1461.452759 148.0
1461.627808 60.0
1463.248901 112.0
1467.702637 184.0
1467.873779 144.0
1468.872925 124.0
1470.345459 252.0
1470.543823 176.0
1470.887329 132.0
1474.056763 196.0
1474.49231 160.0
1475.33313 136.0
1475.516602 132.0
1476.732422 180.0
1476.893066 72.0
1478.101807 96.0
1480.926636 168.0
1481.072144 144.0
1481.963623 216.0
1482.412842 248.0
1483.830811 152.0
1485.10376 116.0
1488.641602 48.0
1489.709229 160.0
1490.223877 212.0
1490.577393 80.0
1490.923218 204.0
1493.452515 176.0
1494.083374 220.0
1495.437622 120.0
1496.25354 72.0
1497.678101 156.0
1497.786011 116.0
1498.825928 168.0
1502.457275 128.0
1502.657959 180.0
1503.13623 196.0
