>compound 4-(diethylamino)but-2-ynyl 2-cyclohexyl-2-hydroxy-2-phenylacetate
>formula C22H31NO3 
>ionization [M+H]+
>parentmass 358.237671
#inchi InChI=1S/C22H31NO3/c1-3-23(4-2)17-11-12-18-26-21(24)22(25,19-13-7-5-8-14-19)20-15-9-6-10-16-20/h5,7-8,13-14,20,25H,3-4,6,9-10,15-18H2,1-2H3
#inchikey XIQVNETUBQGFHX
#Ion_Source LC-ESI
#Instrument qTof
#Compound_Source Commercial
#PI Dorrestein
#Data_Collector Garg_Neha
#Scan -1
#Precursor_MZ 358.239
#ExactMass 357.23
#Charge 1
#CAS_Number N/A
#Pubmed_ID N/A
#Smiles N/A
#INCHI_AUX N/A
#Library_Class 1
#SpectrumID CCMSLIB00000077064
#IonMode Positive
#UpdateWorkflowName UPDATE-SINGLE-ANNOTATED-GOLD
#LibraryQualityString Gold
#TaskID 48f7f52fc6d249b5abbcc6e7b3df5969
##Scan# 1332
#SpectrumFile NCP003017_E2_F11_BA8_01_15703.mzXML
#LibraryName NIH_Clinical_Collection_2.mgf
#MQScore -1
#Organism NIHcollection2_04212014_2_mgf
#TIC_Query 0
#RT_Query -1
#MZErrorPPM -1
#SharedPeaks 0
#MassDiff 0
#LibMZ -1
#SpecMZ 358.239
#SpecCharge 0
#internalFilename spec-00000.mgf

>collision 10
45.634209 208.0
45.865761 188.0
46.323849 152.0
70.161278 160.0
87.502472 148.0
96.061592 192.0
99.601013 144.0
105.068962 156.0
107.168449 224.0
113.025833 156.0
124.108566 216.0
125.018883 184.0
126.839165 152.0
127.739616 160.0
129.068008 332.0
135.020889 184.0
142.124161 628.0
143.134781 152.0
157.066071 176.0
164.222427 164.0
170.515167 176.0
173.074371 128.0
177.172501 156.0
187.072083 168.0
189.119324 140.0
189.376694 164.0
195.047043 160.0
197.047943 184.0
199.112396 144.0
216.085587 176.0
233.075668 936.0
234.084595 304.0
235.086288 296.0
247.094925 232.0
248.098419 932.0
249.104401 356.0
252.591827 148.0
264.101288 208.0
267.082153 192.0
280.058594 140.0
281.074921 160.0
295.095612 556.0
296.099274 140.0
297.077332 196.0
297.103577 188.0
298.07663 144.0
299.975067 168.0
303.047424 172.0
304.744049 172.0
313.106262 200.0
323.050415 168.0
328.868011 172.0
332.567108 196.0
340.091827 416.0
340.231781 200.0
342.085449 144.0
357.094788 2952.0
357.998535 132.0
358.095184 1008.0
358.237671 5440.0
359.103241 452.0
359.241333 1332.0
359.466431 160.0
360.110718 168.0
360.245575 140.0
361.164429 160.0
361.24057 156.0
361.283783 196.0
1975.293579 148.0
