>compound MLS001077345-01!
>formula C10H12ClN5O3
>ionization [M+H]+
>parentmass 286.07
#inchi InChI=1S/C10H12ClN5O3/c11-10-14-8(12)7-9(15-10)16(3-13-7)6-1-4(18)5(2-17)19-6/h3-6,17-18H,1-2H2,(H2,12,14,15)/t4-,5+,6+/m0/s1
#inchikey PTOAARAWEBMLNO
#Ion_Source LC-ESI
#Instrument qTof
#Compound_Source NIH Pharmacologically Active Library
#PI Dorrestein
#Data_Collector VP/LMS
#Scan -1
#Precursor_MZ 286.07
#ExactMass 285.063
#Charge 1
#CAS_Number N/A
#Pubmed_ID N/A
#Smiles Nc1nc(Cl)nc2n(cnc12)[C@H]3C[C@H](O)[C@@H](CO)O3
#INCHI_AUX N/A
#Library_Class 1
#SpectrumID CCMSLIB00000084991
#IonMode Positive
#UpdateWorkflowName UPDATE-SINGLE-ANNOTATED-GOLD
#LibraryQualityString Gold
#TaskID d252d724072548979f1f6f1ced849daf
##Scan# 1213
#SpectrumFile p3-D06_GD6_01_18263.mzXML
#LibraryName Pharm_Active_Library.mgf
#MQScore -1
#Organism Pharm_Active_Library
#TIC_Query 0
#RT_Query -1
#MZErrorPPM -1
#SharedPeaks 0
#MassDiff 0
#LibMZ -1
#SpecMZ 286.07
#SpecCharge 0
#internalFilename spec-00000.mgf

>collision 10
45.144794 180.0
45.458279 176.0
47.24696 156.0
47.397575 96.0
49.279518 128.0
50.372574 192.0
51.362007 188.0
51.888287 172.0
53.45266 40.0
55.275299 136.0
55.378937 176.0
55.908981 184.0
57.734863 144.0
58.092335 108.0
60.082767 208.0
60.427307 220.0
60.777485 176.0
64.17218 172.0
64.234383 172.0
65.27063 144.0
65.858879 156.0
67.461159 240.0
69.453758 116.0
69.882378 88.0
70.65152 140.0
73.659134 168.0
76.926559 144.0
76.938782 216.0
76.989418 156.0
78.424622 156.0
80.493309 132.0
80.856216 184.0
81.802162 152.0
81.924614 104.0
82.603394 160.0
84.59243 124.0
85.585693 148.0
85.950668 176.0
87.861786 128.0
87.958832 116.0
88.14933 88.0
89.577156 204.0
89.873154 140.0
97.355171 196.0
99.402344 160.0
100.064247 108.0
101.024208 236.0
101.689468 244.0
102.381088 176.0
103.852463 132.0
104.411003 160.0
107.034142 580.0
108.765045 184.0
108.93325 36.0
110.139359 144.0
110.766891 172.0
114.624954 148.0
117.052109 348.0
118.28698 156.0
118.507889 124.0
118.898216 180.0
120.640785 156.0
121.999992 136.0
122.206734 172.0
123.117134 108.0
124.124031 180.0
127.859322 140.0
127.88633 168.0
127.996643 180.0
128.10025 120.0
129.675201 84.0
132.022491 188.0
132.996231 216.0
133.490189 208.0
134.0448 4832.0
134.077225 76.0
134.121017 52.0
134.16713 136.0
134.513168 48.0
134.550095 40.0
135.039948 136.0
135.088562 56.0
135.197311 64.0
135.241287 92.0
135.382523 96.0
135.482117 96.0
135.679108 36.0
136.030518 136.0
136.097961 76.0
137.097015 124.0
137.334824 184.0
137.612534 140.0
138.960678 184.0
139.016998 76.0
139.665451 160.0
140.152771 164.0
140.945602 92.0
145.053558 216.0
145.737549 132.0
146.39183 112.0
146.929352 108.0
147.506531 204.0
147.600815 100.0
147.782227 72.0
148.967773 168.0
152.055176 324.0
152.902084 64.0
152.988235 176.0
153.005478 144.0
154.236465 116.0
156.359619 104.0
158.610062 100.0
160.215866 120.0
161.938629 236.0
162.49379 144.0
165.227554 124.0
166.142166 136.0
168.309311 216.0
168.84166 248.0
169.514755 132.0
169.641754 220.0
169.67804 148.0
169.955566 80.0
170.02272 4468.0
170.064575 68.0
170.116486 152.0
170.272278 68.0
171.028549 184.0
171.101471 204.0
171.185104 72.0
171.883713 248.0
171.948959 152.0
172.018402 1460.0
172.107941 200.0
172.500092 48.0
172.670044 128.0
173.397888 56.0
183.265808 132.0
185.948425 84.0
187.828598 40.0
196.968811 152.0
202.110977 152.0
204.198914 76.0
228.123779 136.0
234.038666 156.0
240.103271 168.0
336.97467 68.0
380.320587 80.0
739.608765 172.0
805.723755 140.0
825.624512 192.0
839.931946 48.0
978.925598 200.0
1039.408936 144.0
1043.963501 176.0
1083.868286 212.0
1178.858154 120.0
1209.042236 164.0
1249.360596 152.0
1265.962036 112.0
1285.033569 164.0
1285.219116 148.0
1295.887085 180.0
1355.708496 28.0
1358.062012 52.0
1379.652832 200.0
1392.256714 96.0
1420.538208 144.0
1423.337646 176.0
1434.578247 208.0
1446.491333 144.0
1449.626953 44.0
1472.129395 164.0
1473.855835 192.0
1476.745605 108.0
1480.878662 80.0
1490.17627 208.0
1499.402832 164.0
1500.975464 148.0
