>compound MLS002153265-01!
>formula C10H16N6S
>ionization [M+H]+
>parentmass 253.123
#inchi InChI=1S/C10H16N6S/c1-8-9(16-7-15-8)5-17-4-3-13-10(12-2)14-6-11/h7H,3-5H2,1-2H3,(H,15,16)(H2,12,13,14)
#inchikey AQIXAKUUQRKLND
#Ion_Source LC-ESI
#Instrument qTof
#Compound_Source NIH Pharmacologically Active Library
#PI Dorrestein
#Data_Collector VP/LMS
#Scan -1
#Precursor_MZ 253.123
#ExactMass 252.116
#Charge 1
#CAS_Number N/A
#Pubmed_ID N/A
#Smiles CN=C(NCCSCc1[nH]cnc1C)NC#N
#INCHI_AUX N/A
#Library_Class 1
#SpectrumID CCMSLIB00000084975
#IonMode Positive
#UpdateWorkflowName UPDATE-SINGLE-ANNOTATED-GOLD
#LibraryQualityString Gold
#TaskID d252d724072548979f1f6f1ced849daf
##Scan# 1091
#SpectrumFile p3-D04_GD4_01_18261.mzXML
#LibraryName Pharm_Active_Library.mgf
#MQScore -1
#Organism Pharm_Active_Library
#TIC_Query 0
#RT_Query -1
#MZErrorPPM -1
#SharedPeaks 0
#MassDiff 0
#LibMZ -1
#SpecMZ 253.123
#SpecCharge 0
#internalFilename spec-00000.mgf

>collision 10
44.946888 208.0
45.17804 168.0
45.322639 200.0
45.456738 84.0
45.557442 164.0
45.703995 88.0
45.773994 152.0
45.93708 160.0
46.004559 192.0
46.581467 100.0
47.193413 184.0
47.550968 68.0
47.674576 160.0
47.724064 208.0
48.006359 240.0
48.036701 152.0
48.060158 192.0
48.224499 228.0
48.343155 96.0
48.802605 136.0
48.880501 128.0
48.909729 84.0
48.958462 208.0
49.053211 240.0
49.354782 172.0
49.444317 188.0
49.654476 76.0
50.15786 188.0
51.360359 84.0
51.497387 144.0
51.809238 160.0
52.546795 148.0
52.918255 172.0
52.935631 152.0
53.089245 180.0
53.241631 132.0
54.006832 148.0
54.140022 196.0
54.271912 128.0
54.586155 160.0
54.712696 136.0
54.933754 40.0
55.764473 160.0
55.953396 200.0
55.977219 68.0
56.017433 196.0
56.866779 196.0
56.965885 160.0
57.204994 160.0
57.819336 156.0
58.455219 200.0
58.682182 84.0
59.448555 144.0
59.486927 152.0
59.846691 184.0
60.190552 132.0
60.552433 172.0
60.954243 196.0
61.223373 180.0
61.474369 136.0
61.563354 208.0
61.741516 208.0
62.02335 192.0
62.46146 104.0
62.670849 228.0
63.084358 132.0
64.333038 192.0
64.486389 160.0
64.62072 56.0
65.037392 36.0
65.201218 180.0
66.126999 160.0
66.517647 172.0
66.554985 152.0
66.680077 228.0
67.286057 236.0
67.420006 168.0
67.737427 136.0
67.791496 176.0
67.820999 144.0
68.175514 212.0
68.718925 144.0
68.817154 148.0
69.514839 160.0
69.695847 228.0
69.987206 196.0
70.427216 196.0
71.268219 212.0
71.443077 128.0
71.680481 180.0
73.633186 192.0
74.627121 128.0
75.264664 236.0
75.932663 192.0
76.311234 164.0
76.549622 180.0
76.816292 164.0
77.952614 140.0
78.209389 188.0
78.922127 52.0
79.161011 152.0
80.08989 344.0
80.145119 156.0
80.241371 232.0
80.316269 168.0
80.362656 56.0
80.573334 132.0
80.800392 156.0
81.755005 192.0
83.093987 228.0
83.257355 240.0
83.539093 160.0
83.642822 152.0
87.648849 112.0
87.695442 184.0
87.732719 88.0
87.966156 156.0
88.596138 136.0
88.671089 28.0
89.147781 72.0
89.6446 232.0
89.829369 84.0
90.061554 116.0
90.456757 180.0
90.930626 148.0
91.525658 140.0
92.03286 72.0
92.392181 164.0
92.740707 80.0
93.120613 68.0
93.407013 124.0
94.050606 188.0
94.380966 64.0
94.766151 152.0
94.791344 152.0
94.851425 196.0
94.942551 64.0
95.00074 208.0
95.060005 16248.0
95.103592 128.0
95.123001 36.0
95.152122 112.0
95.181244 52.0
95.255051 48.0
95.286133 156.0
95.303619 48.0
95.346367 32.0
95.361916 80.0
95.519417 96.0
95.858192 148.0
95.963455 64.0
96.041458 188.0
96.062447 180.0
96.144867 60.0
96.199516 116.0
96.306915 52.0
96.645126 204.0
96.682312 124.0
96.836975 64.0
97.070198 144.0
97.087479 216.0
97.842392 152.0
97.873894 144.0
99.065788 3808.0
99.753456 52.0
99.940407 152.0
100.066444 388.0
100.215179 124.0
100.424507 88.0
100.530243 164.0
100.713928 104.0
100.751877 52.0
100.959763 76.0
101.18988 40.0
101.438301 140.0
101.488419 64.0
102.495468 152.0
103.033836 576.0
103.406258 156.0
103.766838 148.0
104.88903 216.0
105.192978 188.0
106.045952 128.0
106.19973 172.0
106.793335 168.0
106.994995 168.0
108.277634 212.0
108.538437 156.0
108.625549 124.0
110.716148 60.0
110.921478 144.0
111.932053 152.0
112.020515 104.0
112.431671 176.0
113.292046 196.0
113.767303 180.0
115.033958 164.0
115.352257 140.0
116.756683 148.0
116.89006 76.0
116.970871 168.0
117.022514 172.0
117.047966 7896.0
117.083221 44.0
117.167816 68.0
117.28418 36.0
117.460999 36.0
118.053078 624.0
118.131958 80.0
118.563713 80.0
118.656921 84.0
118.708961 52.0
118.984528 124.0
119.043694 388.0
120.620255 184.0
120.911491 128.0
122.567314 132.0
123.678185 128.0
124.151108 44.0
124.567383 100.0
125.082527 532.0
126.084763 68.0
128.02478 620.0
128.446838 72.0
128.959412 64.0
130.03299 144.0
131.042877 124.0
137.077774 120.0
138.617737 44.0
139.973145 152.0
142.050797 124.0
142.409073 204.0
144.229492 128.0
145.900345 164.0
152.933426 188.0
153.581451 188.0
154.671143 196.0
155.053467 144.0
158.978073 56.0
159.0383 188.0
159.06929 5092.0
159.251724 140.0
159.291916 88.0
159.513046 68.0
159.7771 68.0
160.065948 428.0
161.065704 304.0
163.382294 84.0
165.221725 92.0
165.897812 88.0
173.056595 196.0
175.02063 148.0
182.003494 124.0
183.901443 152.0
188.043335 216.0
196.011002 152.0
198.929688 196.0
199.934402 128.0
201.838562 64.0
203.257706 84.0
205.502731 88.0
213.927292 260.0
218.92836 148.0
227.119843 172.0
234.955139 156.0
236.957596 200.0
410.991302 52.0
699.560974 104.0
766.057739 48.0
783.341614 160.0
825.380737 164.0
852.387512 72.0
855.673889 236.0
885.464294 164.0
894.489502 36.0
904.721558 188.0
922.692017 112.0
924.101257 152.0
926.044434 132.0
926.613892 212.0
936.467041 68.0
944.06543 124.0
956.095886 120.0
963.272888 248.0
966.586792 176.0
967.224243 260.0
967.360413 76.0
973.16333 248.0
975.312805 152.0
980.322998 68.0
982.305664 204.0
988.372192 188.0
988.972961 240.0
989.185791 144.0
999.510071 148.0
1008.174622 204.0
1019.976196 176.0
1021.782227 144.0
1023.271545 204.0
1046.912842 168.0
1051.141724 172.0
1059.165039 96.0
1061.984619 200.0
1063.243286 84.0
1067.771606 128.0
1081.656494 260.0
1091.681885 204.0
1092.109375 232.0
1094.577271 220.0
1095.894653 156.0
1096.935913 184.0
1097.740356 88.0
1102.744629 144.0
1103.484985 68.0
1104.119751 136.0
1106.343018 212.0
1114.620483 164.0
1117.74585 112.0
1123.062256 220.0
1123.202271 124.0
1140.041138 200.0
1149.050659 224.0
1149.82666 248.0
1150.231567 168.0
1155.435181 156.0
1156.578857 148.0
1165.598877 180.0
1171.7771 208.0
1172.683472 112.0
1180.172241 128.0
1181.218628 188.0
1182.395508 204.0
1184.401733 112.0
1191.941528 52.0
1196.467285 76.0
1196.632568 164.0
1198.161499 88.0
1202.24353 156.0
1207.169189 156.0
1208.400391 176.0
1209.950684 168.0
1210.206909 236.0
1216.384033 232.0
1225.396973 144.0
1232.276367 196.0
1242.294922 180.0
1248.672852 132.0
1250.931519 104.0
1253.79126 168.0
1255.462036 184.0
1260.912354 220.0
1262.085815 128.0
1264.901611 120.0
1269.353882 228.0
1275.001709 124.0
1275.776489 160.0
1277.646973 168.0
1277.917236 200.0
1277.974243 176.0
1279.262329 140.0
1279.910278 172.0
1281.220825 184.0
1281.348999 180.0
1283.266235 168.0
1284.207642 92.0
1285.120728 156.0
1288.797974 164.0
1291.764893 76.0
1298.063232 248.0
1302.546265 152.0
1302.855103 128.0
1303.386841 176.0
1313.574341 160.0
1315.941406 176.0
1317.559204 192.0
1318.592529 244.0
1322.671997 140.0
1330.944092 136.0
1331.982666 132.0
1333.305054 120.0
1335.187988 180.0
1339.941284 188.0
1340.01416 72.0
1340.312988 128.0
1344.25061 128.0
1345.922241 176.0
1346.236206 216.0
1353.029053 176.0
1354.567017 72.0
1359.398682 200.0
1362.724976 224.0
1366.327637 212.0
1372.293335 220.0
1374.646362 144.0
1379.595093 228.0
1382.47229 120.0
1385.130371 44.0
1386.589966 104.0
1387.227417 44.0
1387.553589 160.0
1389.385498 140.0
1390.090454 184.0
1393.297974 244.0
1393.394653 160.0
1393.543213 152.0
1393.721558 68.0
1393.818115 84.0
1399.165894 148.0
1401.869751 212.0
1402.943115 176.0
1403.830322 136.0
1410.61731 152.0
1411.963135 128.0
1413.182495 192.0
1420.531982 148.0
1420.862183 188.0
1423.474121 140.0
1427.69751 144.0
1428.622681 112.0
1431.934692 172.0
1440.556396 188.0
1440.828369 140.0
1440.903809 132.0
1441.417725 44.0
1447.908447 128.0
1454.171021 176.0
1458.105225 180.0
1461.124023 184.0
1461.999023 152.0
1463.460571 140.0
1467.97168 128.0
1470.412964 164.0
1472.451416 152.0
1476.800293 172.0
1481.13269 144.0
1486.652954 152.0
1489.808716 144.0
1490.131348 152.0
1491.999023 172.0
1498.163452 176.0
1503.151978 188.0
1504.340576 108.0
1505.120361 200.0
