>compound MLS001055411-01!125-33-7
>formula C12H14N2O2
>ionization [M+H]+
>parentmass 219.11280414009053
#inchi InChI=1S/C12H14N2O2/c1-2-12(9-6-4-3-5-7-9)10(15)13-8-14-11(12)16/h3-7H,2,8H2,1H3,(H,13,15)(H,14,16)
#inchikey DQMZLTXERSFNPB
#Ion_Source LC-ESI
#Instrument qTof
#Compound_Source NIH Pharmacologically Active Library
#PI Dorrestein
#Data_Collector VP/LMS
#Scan -1
#Precursor_MZ 219.116
#ExactMass 218.106
#Charge 1
#CAS_Number N/A
#Pubmed_ID N/A
#Smiles CCC1(C(=O)NCNC1=O)c2ccccc2
#INCHI_AUX N/A
#Library_Class 3
#SpectrumID CCMSLIB00000086156
#IonMode Positive
#UpdateWorkflowName UPDATE-SINGLE-ANNOTATED-BRONZE
#LibraryQualityString Bronze
#TaskID d252d724072548979f1f6f1ced849daf
##Scan# 1306
#SpectrumFile p5-G03_GG3_01_18472.mzXML
#LibraryName Pharm_Active_Library.mgf
#MQScore -1
#Organism Pharm_Active_Library
#TIC_Query 0
#RT_Query -1
#MZErrorPPM -1
#SharedPeaks 0
#MassDiff 0
#LibMZ -1
#SpecMZ 219.116
#SpecCharge 0
#internalFilename spec-00000.mgf

>collision 10
46.027122 224.0
48.000351 132.0
48.038967 36.0
48.764538 136.0
49.310886 148.0
51.042107 148.0
53.72995 128.0
55.173626 228.0
55.217987 180.0
57.095715 172.0
57.137829 76.0
58.107777 136.0
58.685738 184.0
59.979645 132.0
61.197323 132.0
63.067326 156.0
63.80127 172.0
64.334953 72.0
65.003983 176.0
67.315666 196.0
67.569016 112.0
68.170776 104.0
70.912552 128.0
74.699348 156.0
75.026543 112.0
77.165489 176.0
79.300827 168.0
81.118965 88.0
82.346123 160.0
84.639359 156.0
85.130798 176.0
89.386169 148.0
91.055611 1940.0
91.082039 176.0
91.137138 80.0
92.057053 272.0
92.575417 128.0
93.07782 132.0
94.484833 208.0
96.394203 116.0
100.345993 176.0
103.419609 136.0
104.047798 184.0
105.073746 48.0
106.036865 124.0
106.065201 840.0
106.10656 176.0
106.168076 48.0
106.804764 164.0
107.049675 152.0
107.074394 204.0
110.807304 88.0
111.11969 60.0
111.699509 156.0
112.823494 172.0
113.573112 144.0
115.013626 148.0
115.053398 1596.0
115.17804 88.0
115.24427 104.0
115.948288 120.0
116.056915 212.0
116.287155 44.0
116.714661 152.0
116.903954 72.0
116.929932 172.0
116.964218 160.0
117.070457 1648.0
117.145096 72.0
117.222664 108.0
117.429619 92.0
117.759842 72.0
117.971603 60.0
117.988899 80.0
118.042953 136.0
118.473663 40.0
119.08638 240.0
119.291786 52.0
120.730827 120.0
121.945412 172.0
128.054062 220.0
130.072342 172.0
131.077591 116.0
133.051437 1460.0
133.081314 184.0
133.099686 172.0
134.059113 140.0
134.096176 364.0
134.480972 168.0
134.74884 72.0
135.102554 236.0
136.215271 180.0
140.912521 164.0
143.069504 308.0
143.089752 212.0
144.084976 276.0
145.067856 204.0
145.084641 100.0
146.055313 200.0
152.951065 180.0
160.079453 216.0
162.090637 440.0
163.092667 300.0
167.93457 140.0
173.080276 104.0
176.08609 132.0
186.762634 116.0
190.04361 120.0
201.067032 164.0
220.881638 40.0
359.490051 120.0
377.282623 52.0
649.04303 20.0
680.349731 84.0
883.159607 148.0
913.546448 104.0
969.152466 156.0
972.768127 180.0
982.476074 120.0
983.212341 168.0
1035.085083 180.0
1055.15979 128.0
1089.828003 180.0
1095.55188 164.0
1144.324707 208.0
1146.594849 176.0
1165.631226 208.0
1178.290771 212.0
1178.769043 272.0
1180.389038 116.0
1190.270142 132.0
1191.183594 164.0
1210.571167 168.0
1222.518311 204.0
1223.186401 144.0
1261.127563 156.0
1307.581665 128.0
1308.099854 180.0
1343.092041 152.0
1374.374146 152.0
1382.24353 108.0
1390.966553 136.0
1397.424561 128.0
1418.139771 160.0
1449.05127 220.0
1454.010498 212.0
1484.656494 196.0
1495.597046 160.0
1500.534912 164.0
1501.228882 124.0
