>compound MLS000859594-01!Melatonin73-31-4
>formula C13H16N2O2
>ionization [M+H]+
>parentmass 233.12845420409053
#inchi InChI=1S/C13H16N2O2/c1-9(16)14-6-5-10-8-15-13-4-3-11(17-2)7-12(10)13/h3-4,7-8,15H,5-6H2,1-2H3,(H,14,16)
#inchikey DRLFMBDRBRZALE
#Ion_Source LC-ESI
#Instrument qTof
#Compound_Source NIH Pharmacologically Active Library
#PI Dorrestein
#Data_Collector VP/LMS
#Scan -1
#Precursor_MZ 233.131
#ExactMass 232.121
#Charge 1
#CAS_Number N/A
#Pubmed_ID N/A
#Smiles COc1ccc2[nH]cc(CCNC(=O)C)c2c1
#INCHI_AUX N/A
#Library_Class 1
#SpectrumID CCMSLIB00000084853
#IonMode Positive
#UpdateWorkflowName UPDATE-SINGLE-ANNOTATED-GOLD
#LibraryQualityString Gold
#TaskID d252d724072548979f1f6f1ced849daf
##Scan# 1540
#SpectrumFile p3-B08_GB8_01_18241.mzXML
#LibraryName Pharm_Active_Library.mgf
#MQScore -1
#Organism Pharm_Active_Library
#TIC_Query 0
#RT_Query -1
#MZErrorPPM -1
#SharedPeaks 0
#MassDiff 0
#LibMZ -1
#SpecMZ 233.131
#SpecCharge 0
#internalFilename spec-00000.mgf

>collision 10
44.989521 200.0
45.033588 156.0
45.065651 164.0
45.210068 184.0
45.248886 180.0
45.263615 164.0
45.435177 180.0
45.541225 148.0
45.554661 148.0
45.574814 160.0
45.633953 120.0
45.691788 184.0
45.845684 164.0
45.901909 88.0
45.9977 144.0
46.067921 112.0
46.136845 56.0
46.184174 116.0
46.238907 192.0
46.251827 44.0
46.307343 36.0
46.387917 144.0
46.453735 144.0
46.631615 220.0
46.705036 68.0
46.762184 184.0
46.942017 136.0
46.985664 144.0
47.239765 172.0
47.408176 56.0
47.428738 200.0
47.494553 92.0
47.528851 136.0
47.644184 216.0
47.707401 156.0
47.72665 156.0
47.90419 208.0
48.03653 96.0
48.094482 44.0
48.138664 192.0
48.305904 216.0
48.361252 168.0
48.542744 208.0
48.766262 160.0
48.785721 164.0
48.841347 160.0
48.888649 112.0
49.001438 60.0
49.086464 48.0
49.099014 88.0
49.207859 176.0
49.239975 108.0
49.297256 212.0
49.38953 192.0
49.432899 200.0
49.477692 164.0
49.488892 160.0
49.664066 164.0
49.956245 208.0
50.094204 136.0
50.216652 184.0
50.415905 204.0
50.471035 136.0
50.555912 84.0
50.585632 172.0
50.638023 72.0
50.693275 160.0
50.778339 196.0
50.903225 124.0
51.132107 116.0
51.254578 148.0
51.828999 180.0
51.896366 44.0
51.969517 136.0
52.018311 188.0
52.087238 192.0
52.265511 228.0
52.304367 216.0
52.33527 172.0
52.45562 132.0
52.592651 200.0
52.631634 136.0
52.854233 156.0
52.919369 228.0
52.961365 208.0
53.000481 68.0
53.064255 152.0
53.235477 56.0
53.340088 128.0
53.473904 136.0
53.669113 252.0
54.063519 112.0
54.142574 152.0
54.274464 180.0
54.557827 164.0
54.628414 100.0
54.911182 132.0
54.990898 176.0
55.32793 108.0
55.519073 176.0
55.649654 316.0
55.777416 88.0
56.063183 252.0
56.157108 216.0
56.292919 76.0
56.449825 48.0
56.602459 224.0
56.689342 168.0
56.753799 136.0
56.771793 176.0
56.801788 124.0
56.818291 96.0
56.878319 188.0
56.981937 200.0
57.705383 128.0
57.830944 192.0
57.949062 140.0
58.000587 156.0
58.201088 124.0
58.226017 208.0
58.340622 128.0
58.557774 260.0
58.581066 132.0
58.60849 40.0
58.6786 216.0
58.704521 164.0
58.980865 128.0
59.19046 164.0
59.256325 164.0
59.276245 48.0
59.584648 292.0
59.615379 164.0
59.638435 184.0
59.659954 152.0
59.839958 164.0
59.912342 176.0
59.986313 232.0
60.236298 172.0
60.346024 156.0
60.589012 136.0
60.609154 156.0
60.663399 172.0
60.757996 164.0
60.849564 40.0
60.975388 128.0
61.085785 124.0
61.183826 128.0
61.352077 116.0
61.754951 140.0
61.797188 128.0
61.88797 232.0
61.93182 228.0
62.286312 144.0
62.401031 172.0
62.637093 96.0
62.681206 192.0
62.730064 136.0
62.786827 148.0
62.862549 136.0
62.932003 192.0
63.278259 220.0
63.295677 200.0
63.461948 128.0
63.504868 188.0
63.76366 136.0
64.064392 184.0
64.209442 124.0
64.236557 172.0
64.249321 172.0
64.626373 164.0
64.666382 224.0
64.693596 176.0
64.72081 212.0
64.863396 184.0
64.922722 104.0
64.934891 148.0
65.028603 196.0
65.182777 196.0
65.364487 192.0
65.504555 132.0
65.638321 172.0
65.749634 160.0
65.778687 184.0
66.093834 200.0
66.169907 156.0
66.47139 188.0
66.628883 208.0
66.695511 80.0
66.931404 188.0
66.998184 192.0
67.22319 104.0
67.260727 60.0
67.554863 140.0
67.671059 92.0
67.820137 136.0
67.836525 252.0
67.893913 136.0
68.403259 84.0
68.511978 176.0
68.718025 220.0
68.922768 228.0
68.980614 124.0
69.21125 196.0
69.285904 208.0
69.525536 148.0
69.671654 160.0
69.866348 168.0
69.91275 168.0
69.931053 196.0
70.139259 184.0
70.192612 228.0
70.205948 88.0
70.244308 188.0
70.286018 124.0
70.324402 128.0
70.812614 140.0
70.836067 192.0
70.893036 200.0
70.953377 188.0
71.260506 144.0
71.275627 176.0
71.507698 84.0
71.538002 228.0
71.789047 224.0
71.949341 140.0
72.153763 132.0
72.33139 52.0
72.553307 172.0
72.634705 212.0
72.65506 176.0
72.804428 208.0
72.962448 136.0
73.08831 160.0
73.135963 172.0
73.437546 144.0
73.458008 184.0
73.536499 192.0
73.570641 100.0
73.664566 144.0
73.751709 120.0
73.768806 248.0
73.897064 80.0
74.131653 68.0
74.1745 108.0
74.315125 160.0
74.373474 128.0
74.488518 160.0
74.51944 204.0
74.767059 44.0
74.818695 84.0
74.839355 76.0
75.04612 204.0
75.387894 236.0
75.505447 108.0
75.560806 64.0
75.751236 84.0
75.765091 148.0
75.851738 152.0
75.874275 160.0
76.157127 140.0
76.173325 184.0
76.204025 132.0
76.304832 56.0
76.524055 72.0
76.764511 32.0
76.781952 44.0
76.90757 220.0
76.95121 68.0
76.97216 40.0
77.036789 72.0
77.267548 32.0
77.416328 200.0
77.461868 148.0
77.488144 152.0
77.516182 128.0
77.678032 204.0
77.745903 148.0
77.961914 108.0
77.984756 140.0
78.005852 28.0
78.046288 200.0
78.104324 68.0
78.280319 160.0
78.356056 144.0
78.400108 76.0
78.414207 196.0
78.452988 204.0
78.546448 172.0
78.558792 208.0
78.581726 48.0
78.60643 232.0
78.638199 200.0
78.668205 196.0
78.78299 232.0
78.984512 92.0
79.035812 148.0
79.56398 160.0
79.690079 188.0
79.80825 152.0
79.97995 180.0
80.022675 180.0
80.077881 176.0
80.129539 172.0
80.334557 152.0
80.434486 192.0
80.470184 156.0
80.632744 288.0
80.786514 196.0
81.038948 196.0
81.133934 44.0
81.237946 248.0
81.354591 164.0
81.412048 116.0
81.602516 140.0
81.832817 184.0
81.94088 200.0
82.531075 124.0
82.608841 208.0
82.628738 148.0
82.670357 172.0
82.782593 144.0
82.952904 168.0
83.014549 208.0
83.097984 96.0
83.279518 224.0
83.328568 132.0
83.736031 224.0
84.064186 144.0
84.570419 152.0
84.777374 112.0
84.843361 72.0
84.89653 120.0
85.138771 112.0
85.526711 72.0
85.550636 136.0
85.766159 144.0
85.845436 60.0
86.005943 164.0
86.138893 136.0
86.37365 44.0
86.455055 80.0
86.480965 36.0
86.567978 160.0
86.582794 84.0
86.61058 264.0
86.858963 200.0
86.98143 160.0
87.007416 136.0
87.094696 156.0
87.107697 156.0
87.12999 148.0
87.319588 156.0
87.39772 148.0
87.431213 180.0
87.690086 140.0
87.725502 196.0
87.841118 148.0
87.878433 124.0
87.964279 136.0
88.005348 220.0
88.199638 372.0
88.24263 144.0
88.425949 176.0
88.718163 108.0
88.753784 200.0
88.862564 148.0
88.881332 136.0
88.930122 136.0
89.003334 144.0
89.040894 164.0
89.367981 180.0
89.38868 176.0
89.823891 176.0
89.89225 204.0
89.942764 40.0
90.118393 192.0
90.587578 188.0
90.835899 232.0
90.911789 76.0
90.945953 80.0
91.056778 400.0
91.339279 144.0
91.396347 168.0
91.537209 116.0
91.861214 196.0
91.906998 132.0
92.0177 172.0
92.035072 160.0
92.311951 148.0
92.616249 120.0
92.790634 156.0
92.859665 144.0
93.243645 148.0
93.351303 132.0
93.426315 184.0
93.690056 72.0
93.856125 196.0
93.932953 148.0
94.110504 156.0
94.215439 132.0
94.6035 116.0
94.868896 192.0
94.934814 216.0
95.101662 60.0
95.350266 168.0
95.482468 140.0
95.636169 236.0
95.739357 156.0
95.827011 168.0
95.951744 140.0
96.486679 180.0
96.588364 144.0
96.605972 116.0
96.850655 80.0
96.886223 204.0
97.091721 108.0
97.203537 164.0
97.227089 304.0
97.386116 212.0
97.704559 136.0
98.070824 204.0
98.191093 228.0
98.4674 92.0
98.823212 104.0
98.85685 168.0
98.90831 156.0
98.930084 200.0
98.967705 140.0
99.217339 116.0
99.262939 192.0
99.582451 168.0
99.620193 120.0
99.655952 208.0
99.709602 48.0
99.810989 144.0
99.860703 168.0
100.135361 116.0
100.219025 112.0
100.254898 160.0
100.392448 204.0
100.474228 136.0
100.562027 200.0
100.683807 116.0
100.709404 196.0
100.957596 200.0
101.209732 136.0
101.272865 212.0
101.496262 136.0
101.632652 144.0
101.771149 120.0
101.903709 204.0
101.944275 168.0
102.032333 200.0
102.054451 116.0
102.090645 112.0
102.362312 128.0
102.422729 176.0
102.614174 268.0
102.7836 248.0
102.88855 200.0
102.94912 168.0
103.023857 212.0
103.056374 616.0
103.088509 196.0
103.159248 176.0
103.424232 184.0
103.495087 128.0
103.677399 168.0
103.719963 140.0
103.971458 160.0
104.022202 92.0
104.046181 532.0
104.054619 376.0
104.13591 148.0
104.30455 148.0
104.383842 208.0
104.51606 244.0
104.544548 80.0
104.748146 124.0
104.768517 152.0
104.947868 124.0
104.972336 244.0
105.059509 316.0
105.0886 88.0
105.36013 156.0
105.409172 104.0
105.517502 240.0
105.54203 156.0
105.636108 100.0
105.691353 236.0
105.984154 132.0
106.014885 180.0
106.059021 180.0
106.098923 36.0
106.139931 96.0
106.319016 132.0
106.386185 156.0
106.45594 164.0
106.48674 188.0
106.567375 160.0
106.753906 64.0
106.92054 228.0
107.046082 220.0
107.052055 244.0
107.192375 128.0
107.235649 132.0
107.728806 80.0
107.898262 148.0
108.061646 36.0
108.56073 76.0
108.5961 112.0
108.786995 120.0
108.832672 224.0
109.03511 132.0
109.133949 96.0
109.155098 208.0
109.300346 104.0
109.356537 168.0
109.379433 208.0
109.394005 188.0
109.908783 116.0
110.056976 80.0
110.075768 156.0
110.234528 104.0
110.451958 216.0
110.552383 216.0
110.663322 124.0
110.860214 136.0
111.365829 164.0
111.653763 168.0
111.843117 160.0
111.982079 208.0
112.030525 172.0
112.150635 204.0
112.281357 92.0
112.593697 184.0
112.65284 172.0
113.041862 260.0
113.086304 160.0
113.249336 176.0
113.4888 124.0
113.658485 224.0
113.745499 140.0
113.860153 156.0
114.030113 140.0
114.044991 268.0
114.106163 160.0
114.136406 220.0
114.259766 160.0
114.453445 72.0
114.606804 112.0
114.8349 160.0
114.901031 108.0
114.937302 184.0
115.054802 2508.0
115.084038 176.0
115.379417 140.0
115.46067 72.0
115.494888 192.0
115.52356 168.0
115.53981 36.0
115.591164 132.0
115.633957 52.0
115.779541 116.0
115.809525 396.0
116.023811 224.0
116.060814 532.0
116.186798 216.0
116.640106 208.0
116.758156 52.0
116.837738 120.0
116.885071 204.0
116.949638 116.0
116.973312 100.0
117.065735 824.0
117.143433 80.0
117.395599 160.0
117.47644 160.0
117.76226 196.0
117.881302 148.0
117.900749 156.0
117.943977 152.0
118.06675 324.0
118.194847 156.0
118.257607 184.0
118.303062 172.0
118.376671 144.0
118.588982 176.0
119.014175 112.0
119.065491 364.0
119.090179 140.0
119.18576 112.0
119.431419 220.0
119.779686 72.0
119.888626 188.0
120.045227 220.0
120.185181 188.0
120.434052 168.0
120.617592 116.0
120.678802 192.0
120.765228 112.0
120.785965 256.0
120.963203 48.0
121.022316 144.0
121.064125 396.0
121.107719 128.0
121.1362 116.0
121.261093 164.0
121.65377 172.0
121.882126 160.0
122.654594 184.0
122.859673 156.0
122.965378 172.0
123.217316 132.0
123.254875 188.0
123.57769 96.0
123.621948 164.0
124.768661 176.0
124.870949 240.0
124.910988 60.0
124.968826 176.0
125.035583 224.0
125.084549 144.0
125.494461 108.0
125.539787 164.0
125.983223 224.0
126.412498 68.0
126.627419 180.0
127.033112 140.0
127.05555 320.0
127.075737 156.0
127.125107 164.0
127.403519 200.0
127.479912 144.0
127.997284 156.0
128.05687 480.0
128.130173 132.0
128.294678 164.0
128.493149 164.0
128.542923 120.0
128.590164 172.0
128.919891 148.0
128.980911 184.0
129.059433 464.0
129.267761 140.0
129.32019 96.0
129.365463 176.0
129.490005 160.0
129.51265 160.0
129.561234 160.0
129.612335 132.0
129.687119 228.0
129.755112 208.0
129.814072 140.0
129.907059 96.0
130.025055 156.0
130.065781 19768.0
130.118118 60.0
130.152176 84.0
130.19986 52.0
130.360199 124.0
130.37706 216.0
130.39296 236.0
130.436905 56.0
130.545273 116.0
130.561203 88.0
130.709061 180.0
130.761398 172.0
130.829681 180.0
130.984543 184.0
131.020111 388.0
131.073105 29504.0
131.137817 220.0
131.191895 128.0
131.351532 64.0
131.378906 236.0
131.465607 172.0
131.538635 68.0
131.570602 48.0
131.631409 44.0
131.692657 88.0
131.804169 212.0
131.859863 56.0
131.878967 72.0
131.933838 48.0
131.974991 236.0
132.004715 80.0
132.047424 676.0
132.075989 2032.0
132.130508 108.0
132.145493 80.0
132.161896 156.0
132.217468 92.0
132.306732 64.0
132.441833 36.0
132.465851 172.0
132.501389 108.0
132.560959 124.0
132.609085 156.0
132.696198 116.0
132.831497 192.0
132.94043 84.0
133.015076 132.0
133.05043 264.0
133.067154 380.0
133.096497 196.0
133.122986 104.0
133.182693 68.0
133.226334 128.0
133.348114 176.0
133.651672 144.0
133.679276 88.0
133.900284 188.0
133.976303 140.0
134.015457 48.0
134.031586 128.0
134.06366 244.0
134.256226 116.0
134.430511 84.0
134.545914 96.0
135.063538 184.0
135.163025 160.0
135.415359 56.0
135.598389 148.0
135.756897 132.0
136.271332 64.0
136.9832 84.0
137.046432 368.0
137.076401 108.0
137.120667 164.0
137.265213 228.0
137.384155 116.0
137.827744 172.0
138.052155 260.0
138.087234 100.0
138.15741 140.0
138.536652 156.0
138.897644 188.0
139.357773 168.0
139.380081 248.0
139.407104 80.0
139.691605 176.0
139.750412 140.0
140.051331 164.0
140.109421 192.0
140.188385 104.0
140.369888 112.0
140.391113 124.0
140.62468 220.0
140.714371 152.0
140.962387 120.0
141.035645 120.0
141.057465 332.0
141.135361 68.0
141.288666 220.0
141.340714 184.0
141.594009 244.0
141.823837 196.0
142.06485 2616.0
142.331512 64.0
142.542923 224.0
142.569061 48.0
142.676025 124.0
142.711685 32.0
142.744965 96.0
142.92099 200.0
142.983627 184.0
143.039108 384.0
143.07341 17452.0
143.146896 44.0
143.201889 80.0
143.237625 144.0
143.300369 152.0
143.398407 100.0
143.447311 228.0
143.511688 64.0
143.614227 116.0
143.666702 108.0
143.805099 48.0
143.867615 172.0
143.945953 184.0
144.045029 124.0
144.079102 2796.0
144.101624 224.0
144.187225 88.0
144.407181 92.0
144.771713 88.0
144.90509 112.0
144.938629 84.0
144.976974 56.0
145.061508 172.0
145.084503 496.0
145.156601 128.0
145.245499 120.0
145.342361 84.0
145.559891 132.0
145.802505 80.0
145.848175 120.0
146.028091 140.0
146.060654 428.0
146.098251 308.0
146.247452 104.0
146.276337 100.0
146.784683 44.0
146.905273 216.0
147.073914 348.0
147.376053 48.0
147.434036 80.0
147.494461 60.0
147.523468 52.0
147.881454 36.0
148.075623 156.0
148.237457 76.0
148.283508 36.0
148.341675 116.0
149.444244 128.0
149.755844 172.0
150.121399 176.0
150.297028 116.0
151.306442 100.0
151.703308 72.0
151.897018 96.0
152.240631 88.0
152.432236 164.0
152.719879 72.0
152.759232 68.0
152.860107 108.0
153.130905 64.0
153.478363 96.0
153.734909 72.0
153.929916 216.0
154.270874 84.0
154.518173 168.0
154.835007 220.0
155.05806 244.0
155.07605 204.0
155.340637 56.0
155.407623 144.0
155.68811 200.0
155.956436 208.0
156.078903 684.0
156.123016 152.0
156.145386 152.0
156.83754 92.0
156.962204 216.0
157.056931 188.0
157.961182 120.0
158.011215 192.0
158.061462 2316.0
158.218933 172.0
158.304779 156.0
158.460205 228.0
158.509476 148.0
158.552078 44.0
158.689941 92.0
158.737579 56.0
158.755142 64.0
158.81282 332.0
158.992584 160.0
159.068588 37632.0
159.157608 132.0
159.186752 48.0
159.242004 60.0
159.266373 80.0
159.30983 88.0
159.347504 72.0
159.370117 64.0
159.440475 32.0
159.470642 52.0
159.570251 96.0
159.644104 136.0
159.712006 32.0
159.769867 40.0
159.797546 72.0
159.855408 212.0
159.906754 80.0
160.070801 3192.0
160.162567 112.0
160.217056 56.0
160.35405 48.0
160.374207 132.0
160.843353 96.0
160.871124 80.0
161.042343 184.0
161.078323 160.0
161.247482 100.0
161.2677 100.0
161.295502 128.0
161.323303 108.0
161.361221 60.0
161.391571 196.0
162.090134 272.0
162.196609 76.0
162.26506 68.0
162.394379 56.0
163.095581 164.0
163.418121 52.0
166.067169 328.0
166.503479 164.0
166.852936 132.0
167.079254 148.0
167.164154 144.0
168.34996 192.0
168.923737 128.0
169.941864 172.0
170.040466 180.0
170.302704 164.0
170.432587 232.0
170.838165 100.0
171.056747 164.0
171.077576 168.0
171.588181 200.0
171.768127 148.0
172.13089 208.0
172.883743 236.0
173.046036 160.0
173.08374 996.0
173.425873 160.0
173.612167 140.0
173.698563 112.0
173.756271 188.0
173.819244 44.0
173.905853 196.0
173.968842 188.0
173.991165 144.0
174.016098 80.0
174.092133 35048.0
174.175064 60.0
174.213058 116.0
174.234085 56.0
174.260361 52.0
174.335541 112.0
174.44957 120.0
174.516769 116.0
174.548981 64.0
174.619308 72.0
174.691498 96.0
174.733597 36.0
174.849365 40.0
174.954651 108.0
175.065659 224.0
175.093475 3428.0
175.23645 92.0
175.254898 88.0
175.31813 40.0
175.360748 156.0
175.410385 72.0
175.442017 76.0
175.681992 48.0
175.842957 112.0
176.099182 228.0
176.252274 88.0
176.276047 64.0
176.296402 120.0
176.320969 136.0
176.339478 72.0
176.416122 116.0
176.517059 112.0
176.725555 32.0
176.820816 80.0
176.998184 72.0
177.12265 152.0
177.984558 60.0
179.088196 36.0
179.106842 164.0
182.057526 160.0
183.068161 488.0
183.35083 88.0
183.936096 112.0
185.458923 144.0
186.051727 208.0
187.094193 180.0
187.739944 80.0
189.911453 60.0
190.205048 92.0
192.896255 72.0
197.106796 120.0
198.094391 148.0
200.093887 84.0
201.247009 80.0
202.106262 108.0
203.625687 120.0
206.084045 84.0
209.051819 140.0
213.777435 92.0
216.101501 132.0
218.903214 80.0
220.833282 68.0
221.111374 128.0
222.299728 60.0
225.620743 120.0
232.145538 100.0
258.204834 112.0
261.676788 52.0
262.795166 84.0
267.917633 52.0
270.091675 132.0
278.201324 112.0
278.88559 44.0
279.304535 48.0
280.639954 52.0
280.9935 68.0
289.426514 60.0
293.173248 92.0
299.997437 252.0
304.117157 116.0
308.09375 128.0
309.618774 80.0
321.130066 108.0
322.90152 48.0
347.274628 96.0
376.146393 68.0
379.008209 52.0
383.457703 32.0
396.268341 68.0
414.492035 104.0
415.416412 48.0
444.716888 128.0
472.100983 84.0
474.269989 88.0
485.216003 144.0
499.217529 72.0
534.639282 80.0
638.888184 56.0
671.02594 232.0
704.549072 104.0
733.295166 136.0
741.759521 112.0
747.723206 52.0
763.209717 132.0
765.487793 160.0
785.579224 140.0
794.092468 44.0
794.569275 148.0
795.921875 256.0
807.004883 108.0
811.761169 144.0
818.694031 132.0
820.483154 48.0
835.982422 216.0
841.694885 156.0
846.540649 276.0
853.893433 120.0
858.995728 52.0
865.096436 164.0
869.686096 116.0
890.160278 180.0
893.667236 180.0
905.750122 272.0
906.361206 84.0
906.588928 116.0
915.004028 20.0
919.953491 96.0
927.502625 128.0
936.677856 124.0
937.012939 168.0
937.213989 60.0
939.10376 136.0
953.774231 168.0
960.757202 52.0
970.132263 224.0
987.736267 184.0
988.64978 200.0
989.85791 80.0
990.052063 120.0
1002.54718 48.0
1006.723328 64.0
1010.357666 136.0
1017.690491 108.0
1018.484314 216.0
1023.368225 60.0
1025.406616 220.0
1026.96875 40.0
1040.7146 180.0
1041.491577 76.0
1047.344849 172.0
1050.058228 56.0
1050.303345 200.0
1051.032349 48.0
1064.411743 124.0
1064.541626 208.0
1065.548462 124.0
1074.206665 212.0
1080.726685 144.0
1083.279907 136.0
1088.152466 216.0
1090.214966 188.0
1091.819092 168.0
1093.444092 192.0
1097.178833 160.0
1107.030273 216.0
1112.59314 176.0
1118.942139 232.0
1122.013428 68.0
1128.763672 136.0
1135.92981 44.0
1148.58252 136.0
1150.741943 128.0
1151.180786 192.0
1153.883545 112.0
1154.98584 296.0
1157.151245 112.0
1158.600586 156.0
1159.122314 48.0
1163.361206 72.0
1170.751953 204.0
1171.03125 184.0
1173.38208 76.0
1173.845703 216.0
1174.691406 128.0
1175.237183 196.0
1176.315552 148.0
1176.807007 156.0
1180.462646 192.0
1181.365479 112.0
1185.576294 176.0
1187.10498 148.0
1188.902344 100.0
1189.739746 216.0
1190.687256 184.0
1192.033691 184.0
1193.092163 192.0
1194.419312 144.0
1195.334351 140.0
1196.30481 112.0
1201.314575 232.0
1201.411255 152.0
1202.011475 40.0
1202.936279 92.0
1204.759399 112.0
1204.938965 208.0
1209.253906 160.0
1209.579102 140.0
1211.670532 172.0
1217.094238 132.0
1219.324097 180.0
1220.352905 176.0
1220.526733 160.0
1222.794556 208.0
1224.500244 104.0
1227.566528 152.0
1227.873413 116.0
1228.145386 172.0
1228.933716 148.0
1230.895142 176.0
1232.704224 56.0
1235.521973 160.0
1235.969727 216.0
1240.704346 216.0
1240.809448 148.0
1241.973511 272.0
1242.632935 164.0
1246.92334 228.0
1246.972656 204.0
1250.23584 224.0
1251.193115 68.0
1251.298706 136.0
1254.743774 212.0
1257.191284 164.0
1257.501831 228.0
1261.103882 96.0
1262.956421 136.0
1263.883057 152.0
1264.484619 172.0
1265.574707 164.0
1265.737671 168.0
1269.833618 164.0
1270.472046 148.0
1271.571899 144.0
1272.508911 188.0
1274.263062 96.0
1276.644287 156.0
1282.097412 128.0
1282.218506 148.0
1283.344849 184.0
1284.12207 132.0
1284.207642 180.0
1287.754883 140.0
1288.040649 228.0
1290.870728 208.0
1295.157715 124.0
1295.716431 136.0
1295.80957 132.0
1296.074585 164.0
1298.433105 208.0
1299.071411 156.0
1299.78894 128.0
1301.36084 80.0
1301.640869 60.0
1301.849121 228.0
1303.616211 116.0
1303.817383 152.0
1304.481323 208.0
1305.449341 308.0
1305.945557 204.0
1306.21167 168.0
1306.391479 192.0
1306.837524 184.0
1310.300659 164.0
1310.423096 220.0
1311.713013 172.0
1313.147949 160.0
1316.171631 220.0
1316.294312 148.0
1317.919556 40.0
1318.967407 136.0
1320.348389 184.0
1320.695557 160.0
1324.111694 88.0
1324.756348 176.0
1325.959106 40.0
1326.270752 172.0
1326.589722 192.0
1331.857788 132.0
1335.302856 236.0
1335.630127 224.0
1336.299438 192.0
1336.699585 136.0
1337.740356 52.0
1337.805908 132.0
1342.089722 216.0
1342.950317 140.0
1344.511597 112.0
1345.70874 160.0
1347.804932 184.0
1350.985229 148.0
1352.653687 172.0
1352.880615 200.0
1354.271851 60.0
1355.942383 184.0
1356.308838 136.0
1357.049194 156.0
1357.144531 204.0
1357.386475 176.0
1357.863159 152.0
1359.58728 180.0
1359.829468 160.0
1361.143433 56.0
1362.972412 92.0
1363.112061 60.0
1363.751465 136.0
1364.163086 104.0
1364.339478 172.0
1366.33252 92.0
1368.234497 176.0
1368.636108 112.0
1368.871826 128.0
1372.42334 184.0
1372.504517 384.0
1372.836304 132.0
1374.820679 60.0
1375.84668 164.0
1376.267578 164.0
1376.629395 160.0
1377.183228 180.0
1380.309326 128.0
1380.383301 168.0
1381.455688 172.0
1382.528564 140.0
1383.276001 168.0
1383.542603 88.0
1384.668091 180.0
1385.734741 160.0
1386.505371 140.0
1386.609131 152.0
1388.395752 260.0
1391.413086 136.0
1392.180542 88.0
1392.247437 80.0
1393.473022 116.0
1396.557983 172.0
1396.848022 132.0
1397.249756 160.0
1397.809448 220.0
1398.529663 200.0
1400.852905 140.0
1401.478638 184.0
1401.575562 168.0
1403.550781 120.0
1404.632202 184.0
1405.672852 204.0
1406.915649 172.0
1407.050049 96.0
1407.587646 112.0
1407.796631 48.0
1408.991821 196.0
1410.030396 176.0
1410.62085 48.0
1410.703125 192.0
1411.323608 164.0
1411.473145 132.0
1411.974243 84.0
1413.552612 148.0
1413.7771 180.0
1416.65979 204.0
1416.772095 108.0
1417.866089 120.0
1418.315796 184.0
1419.620361 68.0
1420.137817 148.0
1420.662842 156.0
1422.313721 172.0
1423.177002 116.0
1424.408691 200.0
1425.129883 116.0
1427.98645 288.0
1428.039062 148.0
1431.003906 256.0
1434.326172 224.0
1434.394043 192.0
1435.479614 252.0
1436.565796 136.0
1436.671387 256.0
1436.859985 200.0
1437.041016 160.0
1437.252319 196.0
1437.69751 128.0
1438.278687 176.0
1439.139282 192.0
1439.411133 200.0
1439.516846 76.0
1442.417969 216.0
1442.554077 124.0
1442.818604 160.0
1446.275635 152.0
1447.653442 228.0
1450.327881 148.0
1451.973145 124.0
1453.634399 132.0
1454.385742 160.0
1455.258789 152.0
1455.387817 168.0
1455.448608 216.0
1457.727417 196.0
1458.297363 160.0
1461.027222 144.0
1461.689087 132.0
1462.229492 128.0
1462.838379 208.0
1465.153442 188.0
1465.412476 96.0
1465.588989 212.0
1465.999146 188.0
1467.21106 128.0
1467.99646 84.0
1468.065063 164.0
1468.248047 132.0
1468.751465 228.0
1470.826904 188.0
1471.261963 160.0
1471.872803 148.0
1474.974487 188.0
1475.226807 108.0
1475.777222 228.0
1476.190186 164.0
1476.251343 88.0
1478.630493 192.0
1479.457153 64.0
1479.556641 176.0
1480.100342 192.0
1480.284058 132.0
1481.409912 196.0
1482.551514 100.0
1486.262939 208.0
1486.892212 44.0
1487.790283 184.0
1489.37207 156.0
1489.579468 48.0
1491.485107 136.0
1491.954102 124.0
1492.300049 164.0
1493.530396 172.0
1495.099976 172.0
1495.677246 52.0
1495.969727 240.0
1497.255493 112.0
1498.141357 188.0
1501.864502 216.0
1502.165283 160.0
1503.523193 224.0
