>compound MLS001074103-01!
>formula C16H25NO3
>ionization [M+H]+
>parentmass 280.189575
#inchi InChI=1S/C16H25NO3/c1-11(2)14-10-15(20-13(4)18)12(3)9-16(14)19-8-7-17(5)6/h9-11H,7-8H2,1-6H3
#inchikey VRYMTAVOXVTQEF
#origInchi InChI=1S/C16H25NO3.ClH/c1-11(2)14-10-15(20-13(4)18)12(3)9-16(14)19-8-7-17(5)6;/h9-11H,7-8H2,1-6H3;1H
#Ion_Source LC-ESI
#Instrument qTof
#Compound_Source NIH Pharmacologically Active Library
#PI Dorrestein
#Data_Collector VP/LMS
#Scan -1
#Precursor_MZ 280.195
#ExactMass 279.183
#Charge 1
#CAS_Number N/A
#Pubmed_ID N/A
#Smiles CC(C)c1cc(OC(=O)C)c(C)cc1OCCN(C)C.Cl
#INCHI_AUX N/A
#Library_Class 1
#SpectrumID CCMSLIB00000085732
#IonMode Positive
#UpdateWorkflowName UPDATE-SINGLE-ANNOTATED-GOLD
#LibraryQualityString Gold
#TaskID d252d724072548979f1f6f1ced849daf
##Scan# 1584
#SpectrumFile p4-E09_GE9_01_18381.mzXML
#LibraryName Pharm_Active_Library.mgf
#MQScore -1
#Organism Pharm_Active_Library
#TIC_Query 0
#RT_Query -1
#MZErrorPPM -1
#SharedPeaks 0
#MassDiff 0
#LibMZ -1
#SpecMZ 280.195
#SpecCharge 0
#internalFilename spec-00000.mgf

>collision 10
44.890175 148.0
45.027637 204.0
45.299168 176.0
45.881077 104.0
46.015995 144.0
46.076771 224.0
46.379906 196.0
46.856907 112.0
47.380177 68.0
47.397987 116.0
47.426769 196.0
47.572174 200.0
47.688934 180.0
48.11874 168.0
48.153263 180.0
48.334366 168.0
48.551861 152.0
48.565731 80.0
48.737881 152.0
48.825459 120.0
49.137489 160.0
49.147255 184.0
49.505112 60.0
49.549938 144.0
49.652267 172.0
49.843189 220.0
49.948635 140.0
50.148582 232.0
50.21767 188.0
50.446426 172.0
50.769257 136.0
51.064671 212.0
51.241188 180.0
51.256863 140.0
51.366642 292.0
51.449413 192.0
51.600857 196.0
51.665215 152.0
51.940266 204.0
52.013447 136.0
52.267834 120.0
52.465157 64.0
52.939095 220.0
52.992687 184.0
53.00428 152.0
53.092709 52.0
53.919662 164.0
53.932083 164.0
53.969364 168.0
54.155224 248.0
54.441219 156.0
54.589645 128.0
54.928402 160.0
54.990376 188.0
55.03614 200.0
55.15089 208.0
55.484451 220.0
55.769474 168.0
56.177486 136.0
56.405964 172.0
56.516636 188.0
56.963417 96.0
57.158871 208.0
57.303421 196.0
57.491913 160.0
57.564373 176.0
57.602131 60.0
57.907681 208.0
57.949718 208.0
58.262642 140.0
58.360065 200.0
58.425312 208.0
58.623257 172.0
59.121113 144.0
60.498749 208.0
60.659863 156.0
60.706375 156.0
60.813427 168.0
60.827396 144.0
60.923679 140.0
60.999828 188.0
61.104023 160.0
61.301777 228.0
61.432747 228.0
61.729511 220.0
62.216808 128.0
62.895298 200.0
62.971088 184.0
63.097504 212.0
63.579052 132.0
63.669544 204.0
63.850727 84.0
63.974838 204.0
64.011459 180.0
64.142105 120.0
64.248955 156.0
64.504463 196.0
64.526848 268.0
64.566826 140.0
65.017021 348.0
65.094078 132.0
65.169571 204.0
65.306221 244.0
65.47683 172.0
65.959267 360.0
66.041733 92.0
66.218155 112.0
66.260277 132.0
66.548981 132.0
66.743965 224.0
66.799263 148.0
67.582375 276.0
67.810005 196.0
67.952675 160.0
68.63858 204.0
68.661667 152.0
68.76561 252.0
68.98365 152.0
69.192101 208.0
69.585037 108.0
69.651466 228.0
69.830978 176.0
70.000732 100.0
70.259087 184.0
70.379257 192.0
70.521255 176.0
70.685158 180.0
70.798988 148.0
70.852592 76.0
70.90789 168.0
70.96656 184.0
71.134331 48.0
71.477196 152.0
71.574829 144.0
71.61525 128.0
71.787155 184.0
72.057228 224.0
72.911278 188.0
73.21241 88.0
74.078392 100.0
74.098953 196.0
74.393936 164.0
74.846115 176.0
74.942574 56.0
75.199532 52.0
75.35495 208.0
75.392967 136.0
75.745934 244.0
76.020828 160.0
76.094513 200.0
76.412376 208.0
77.213257 84.0
77.293732 96.0
77.931992 180.0
78.197533 48.0
78.811234 132.0
78.986259 180.0
79.134918 140.0
79.626129 56.0
79.663437 140.0
80.704277 96.0
80.748985 232.0
80.924355 128.0
81.022865 80.0
81.352852 132.0
81.498329 192.0
81.658325 128.0
81.696098 176.0
81.719482 168.0
81.796875 168.0
81.870697 216.0
82.777252 72.0
82.795364 68.0
82.895004 300.0
83.228775 224.0
83.34684 176.0
83.399544 52.0
83.415909 56.0
83.481361 180.0
83.545021 104.0
83.750725 48.0
83.81813 172.0
83.978561 172.0
84.10994 168.0
84.497368 132.0
84.634644 176.0
84.660278 208.0
84.905861 120.0
84.988411 188.0
85.039795 196.0
85.098534 172.0
85.504799 204.0
85.574234 172.0
86.351654 128.0
86.662659 112.0
86.684891 164.0
87.362602 148.0
87.481705 184.0
87.55246 192.0
87.942123 68.0
88.061623 208.0
88.248497 184.0
88.620972 196.0
89.046814 164.0
89.172699 176.0
90.0186 196.0
90.311539 140.0
90.612534 136.0
90.650429 148.0
90.934906 232.0
90.953888 164.0
91.053078 1152.0
92.021896 204.0
92.298958 204.0
92.335289 92.0
92.409897 192.0
92.476875 160.0
92.923378 144.0
93.070267 188.0
93.132858 148.0
93.303658 152.0
93.640411 160.0
93.76564 60.0
94.087784 148.0
94.37606 176.0
94.607834 144.0
95.022583 92.0
95.048645 212.0
95.086212 236.0
95.107971 136.0
95.465462 36.0
95.72818 108.0
95.78466 160.0
95.81778 176.0
96.121956 232.0
96.159035 144.0
96.635849 224.0
96.655418 172.0
97.090317 216.0
97.266899 168.0
97.40239 236.0
98.136467 224.0
98.752609 68.0
99.515572 152.0
99.624802 144.0
99.80368 128.0
99.863342 172.0
100.563187 148.0
100.66452 172.0
101.298546 196.0
102.095398 120.0
102.659279 152.0
102.970078 184.0
103.01059 212.0
103.054008 300.0
104.053154 192.0
104.413124 124.0
104.818245 108.0
104.944618 76.0
105.070061 956.0
105.240479 44.0
105.52858 124.0
105.872353 192.0
105.892838 52.0
106.074509 184.0
106.371574 92.0
106.590355 276.0
106.802116 156.0
106.839142 188.0
106.904984 160.0
106.999672 160.0
107.026436 176.0
107.049477 776.0
107.088371 400.0
107.133537 208.0
107.236565 120.0
107.562469 96.0
107.62854 156.0
107.64299 136.0
107.673973 144.0
108.053368 420.0
108.215759 212.0
108.866875 100.0
108.939575 144.0
109.06369 676.0
109.098938 1996.0
109.132858 172.0
109.388756 132.0
109.724167 112.0
110.037125 300.0
110.066513 156.0
110.103188 176.0
110.258545 68.0
110.404892 156.0
111.037529 172.0
111.159058 144.0
111.215721 136.0
111.337502 136.0
111.812645 44.0
111.915794 108.0
112.082199 84.0
112.208664 180.0
112.288795 172.0
112.455475 84.0
112.474472 172.0
112.51458 40.0
112.670868 164.0
113.095917 36.0
113.148842 56.0
113.496323 132.0
113.615097 156.0
114.010048 200.0
114.058929 156.0
114.084442 200.0
114.480202 72.0
114.518539 172.0
114.902245 152.0
115.0541 516.0
115.233177 72.0
115.536774 164.0
116.070473 184.0
116.127998 188.0
116.147308 152.0
116.746544 220.0
116.959549 96.0
116.987534 72.0
117.068405 912.0
117.146889 112.0
117.263252 156.0
117.312828 224.0
117.463776 212.0
118.04261 376.0
118.434341 192.0
118.562172 100.0
119.03727 116.0
119.086113 1468.0
119.141525 56.0
119.241486 168.0
119.51767 124.0
119.650436 172.0
119.698341 172.0
119.883507 140.0
120.087944 444.0
120.901192 208.0
121.064461 6404.0
121.102623 124.0
121.285736 84.0
121.359024 128.0
121.554245 72.0
121.622284 56.0
121.668381 156.0
121.841881 52.0
122.015503 28.0
122.072968 1108.0
122.167252 196.0
122.202454 220.0
122.239861 120.0
122.305885 156.0
122.49086 68.0
122.550339 176.0
122.973755 96.0
123.044441 1156.0
123.079849 2456.0
123.106216 180.0
123.232132 220.0
123.669701 60.0
123.747475 52.0
124.053535 724.0
124.078903 232.0
124.09404 232.0
124.121948 136.0
124.377083 224.0
124.565834 104.0
124.614708 140.0
124.670258 72.0
124.981583 216.0
125.05999 1216.0
125.088409 132.0
125.525101 168.0
125.721413 48.0
125.902245 40.0
126.065331 200.0
127.014198 220.0
127.055626 164.0
127.636757 92.0
127.807709 200.0
128.062195 188.0
128.348312 88.0
129.069321 196.0
129.147781 64.0
129.645889 168.0
130.676804 184.0
130.774658 224.0
131.047836 376.0
131.084396 164.0
131.127701 112.0
131.520004 152.0
131.79863 200.0
132.055618 680.0
132.085617 128.0
132.432327 44.0
133.065018 1924.0
133.096497 160.0
133.766449 48.0
134.069595 392.0
134.204178 120.0
134.287201 116.0
134.668045 48.0
134.938416 168.0
135.012421 112.0
135.040161 136.0
135.080673 788.0
135.130386 68.0
135.153519 208.0
135.602798 216.0
135.781311 168.0
135.802185 80.0
135.846268 172.0
135.913544 48.0
136.050568 908.0
136.096924 156.0
136.24324 60.0
136.745514 108.0
136.901505 256.0
136.957397 116.0
136.978363 276.0
136.994675 72.0
137.01564 116.0
137.059601 3800.0
137.095963 1784.0
137.134796 520.0
137.211411 124.0
137.234726 152.0
137.262711 64.0
137.295349 36.0
137.390991 72.0
137.488998 132.0
137.524002 60.0
137.608047 160.0
138.06427 380.0
138.084641 164.0
138.100098 176.0
138.372589 148.0
138.470932 152.0
138.721664 232.0
138.885803 176.0
138.97261 128.0
139.066833 320.0
139.150986 64.0
139.964539 48.0
140.091721 248.0
140.185974 120.0
140.497208 184.0
140.752121 164.0
140.846588 164.0
141.063629 160.0
141.097076 172.0
141.146744 200.0
141.234238 36.0
141.620056 184.0
141.686386 140.0
141.921036 40.0
142.076859 488.0
143.084152 180.0
143.497437 204.0
143.533203 144.0
143.659622 116.0
143.888718 140.0
144.058289 104.0
144.082184 220.0
144.866867 232.0
145.063248 1996.0
145.109192 184.0
145.125046 72.0
145.261459 212.0
145.620071 80.0
146.071899 356.0
146.095306 164.0
146.117661 40.0
146.780045 152.0
147.047836 136.0
147.080002 1992.0
147.11702 796.0
147.187851 108.0
147.366592 96.0
147.657211 128.0
148.048752 208.0
148.080673 404.0
148.123383 176.0
148.320114 204.0
148.37587 36.0
148.669373 60.0
149.011749 112.0
149.058609 1580.0
149.081406 228.0
149.100784 420.0
149.142975 164.0
149.171524 124.0
149.232925 116.0
149.393448 176.0
149.534576 136.0
150.065216 420.0
150.233917 156.0
150.514603 116.0
150.563446 148.0
150.688019 108.0
150.96669 104.0
151.034775 76.0
151.075134 14208.0
151.164841 48.0
151.370743 72.0
151.502731 48.0
151.57869 100.0
151.72084 60.0
151.762527 76.0
151.816467 44.0
151.994324 184.0
152.079224 1692.0
152.268051 108.0
152.378586 88.0
152.459671 36.0
152.666183 84.0
152.902359 76.0
153.046371 120.0
153.053238 168.0
153.088516 144.0
153.170746 128.0
153.224945 68.0
153.252045 60.0
153.385132 192.0
154.219437 48.0
154.558258 180.0
155.251877 140.0
155.845154 76.0
156.686111 124.0
157.060059 196.0
157.104111 204.0
157.2397 184.0
157.986832 44.0
158.074402 112.0
158.098999 160.0
159.076187 260.0
159.695099 52.0
160.08461 1640.0
160.710342 204.0
160.82283 196.0
161.028427 172.0
161.071091 184.0
161.090622 348.0
161.430267 216.0
162.07576 176.0
163.075424 220.0
163.113327 164.0
163.742264 148.0
163.778702 128.0
163.98941 52.0
164.08223 3536.0
164.116867 56.0
164.371948 64.0
164.412781 72.0
164.497009 136.0
164.639999 128.0
164.685974 56.0
164.898041 104.0
165.09079 5588.0
165.123688 568.0
165.238144 56.0
165.61702 108.0
165.678497 52.0
165.901459 176.0
166.004028 76.0
166.093964 788.0
166.1297 344.0
166.509598 120.0
167.021088 80.0
167.286133 64.0
167.773026 152.0
168.281296 196.0
168.562851 92.0
169.077469 124.0
169.554016 52.0
169.883316 68.0
172.030289 312.0
174.106674 80.0
174.406204 84.0
175.01918 216.0
175.110291 1036.0
175.58049 124.0
176.115631 176.0
176.309158 68.0
176.713745 136.0
177.092285 508.0
177.11879 152.0
177.29631 128.0
178.093948 164.0
179.069641 152.0
180.292999 208.0
180.980484 180.0
183.101974 212.0
186.995346 164.0
190.086304 128.0
191.106659 324.0
192.205154 232.0
193.084183 1872.0
193.120773 6348.0
193.228287 96.0
193.248917 164.0
193.296661 60.0
193.399063 112.0
193.631638 32.0
193.662109 48.0
193.717499 48.0
194.055618 92.0
194.093445 560.0
194.125153 976.0
194.319107 52.0
194.357956 68.0
194.557785 36.0
194.668854 64.0
194.693848 48.0
194.854965 36.0
195.129074 172.0
195.366516 160.0
195.566864 140.0
195.692139 84.0
195.725555 68.0
195.97345 60.0
196.140671 224.0
196.961044 148.0
197.937119 128.0
199.90213 84.0
201.766586 148.0
202.924561 68.0
204.091537 156.0
204.541046 60.0
206.089645 220.0
207.103714 168.0
207.632614 72.0
208.103241 140.0
212.391769 84.0
215.299423 108.0
217.07579 108.0
217.126373 148.0
219.442871 172.0
220.795319 172.0
220.895889 128.0
224.105255 128.0
228.636047 120.0
230.099701 128.0
231.107513 300.0
232.798981 156.0
233.113174 356.0
235.036407 248.0
235.131378 1704.0
235.169342 164.0
235.818207 108.0
236.132263 448.0
236.527832 176.0
236.968842 84.0
237.134323 300.0
238.142151 1724.0
238.179123 212.0
238.586273 72.0
239.146667 252.0
239.201538 100.0
240.159851 156.0
241.531296 148.0
243.75116 64.0
244.104691 164.0
245.121964 316.0
246.131027 160.0
247.131256 152.0
253.371689 44.0
254.418259 52.0
258.149414 108.0
259.128906 140.0
260.140808 112.0
262.130066 164.0
275.343506 196.0
275.393036 204.0
278.149658 468.0
278.536499 228.0
278.828888 116.0
279.151367 116.0
280.119904 152.0
280.189575 2640.0
280.316498 52.0
280.533142 76.0
280.616486 120.0
281.195923 704.0
281.390533 76.0
281.537476 48.0
281.687775 72.0
282.19574 96.0
282.781189 116.0
289.054382 60.0
313.332794 80.0
329.488739 56.0
343.755371 36.0
344.989014 40.0
380.226379 52.0
381.893188 84.0
395.525055 108.0
398.892853 132.0
406.82666 84.0
448.758911 68.0
460.659454 144.0
491.670074 48.0
498.476776 100.0
536.286743 92.0
563.745667 96.0
584.485291 56.0
588.548828 108.0
608.86615 80.0
658.116028 40.0
680.104431 88.0
694.269958 124.0
795.91571 40.0
831.185181 32.0
870.575195 172.0
874.537842 188.0
895.683105 68.0
895.814148 204.0
905.143433 208.0
952.127747 136.0
975.69574 128.0
984.350403 144.0
984.949951 216.0
986.468445 176.0
990.567322 136.0
994.18512 172.0
995.202087 232.0
995.553711 164.0
1010.942383 172.0
1013.90625 192.0
1028.777832 208.0
1029.141846 108.0
1042.896362 20.0
1062.008911 148.0
1070.334106 244.0
1086.209351 284.0
1086.543945 240.0
1087.574219 120.0
1090.911255 276.0
1096.55896 164.0
1099.513672 160.0
1103.794556 128.0
1106.593384 104.0
1108.72644 232.0
1115.310547 184.0
1129.192749 176.0
1144.682007 200.0
1145.510498 244.0
1146.352661 164.0
1152.979858 224.0
1155.738892 164.0
1157.465088 64.0
1159.395752 144.0
1160.453247 188.0
1160.629517 192.0
1178.237549 200.0
1181.225098 140.0
1183.80542 204.0
1203.624023 148.0
1211.217896 164.0
1221.99231 136.0
1228.478638 164.0
1229.029785 136.0
1234.709229 208.0
1235.954346 164.0
1241.839111 104.0
1246.922485 60.0
1254.616211 236.0
1259.118164 68.0
1260.389771 280.0
1278.174072 136.0
1278.259399 156.0
1284.072754 128.0
1284.522095 180.0
1285.035767 196.0
1291.486694 152.0
1292.087646 140.0
1295.925293 140.0
1305.572998 232.0
1306.170044 184.0
1309.747559 128.0
1310.151001 172.0
1310.907471 172.0
1315.956909 172.0
1319.887573 192.0
1324.309448 160.0
1326.12085 176.0
1328.354248 52.0
1330.284546 172.0
1332.158081 128.0
1334.192993 184.0
1336.302124 76.0
1339.192261 160.0
1342.610474 108.0
1345.91626 40.0
1351.639771 156.0
1354.531738 160.0
1356.781494 176.0
1362.381226 140.0
1368.168091 204.0
1372.671021 128.0
1373.165039 148.0
1376.043091 176.0
1379.77417 292.0
1381.719238 172.0
1390.901123 172.0
1391.146118 128.0
1394.667114 156.0
1394.919922 172.0
1396.540894 176.0
1399.294312 140.0
1404.033569 156.0
1406.607788 148.0
1407.765137 32.0
1413.932861 160.0
1416.313843 32.0
1421.914795 304.0
1424.204834 156.0
1426.241089 188.0
1427.398926 124.0
1430.905273 192.0
1431.108521 124.0
1431.628174 96.0
1431.876709 160.0
1432.547119 176.0
1435.418701 220.0
1436.089966 112.0
1438.632935 72.0
1441.193237 164.0
1442.939209 196.0
1443.650024 164.0
1447.365601 208.0
1447.570068 116.0
1449.213745 184.0
1449.562378 220.0
1451.980713 48.0
1452.071777 224.0
1452.443359 200.0
1453.755981 188.0
1456.815918 200.0
1460.107178 180.0
1461.788452 148.0
1464.491211 112.0
1474.608643 172.0
1475.373047 32.0
1475.609985 208.0
1476.175781 204.0
1476.474121 144.0
1476.718872 220.0
1477.338501 144.0
1480.139771 132.0
1481.441772 184.0
1483.894287 68.0
1492.786133 148.0
1493.201416 176.0
1494.7323 220.0
1496.117798 152.0
1497.064819 196.0
1499.877075 112.0
1501.010376 156.0
1505.046143 116.0
