>compound MLS002172468-01!Dihydro-beta-erythroidine hydrobromide29734-68-7
>formula C16H21NO3
>ionization [M+H]+
>parentmass 276.158478
#inchi InChI=1S/C16H21NO3/c1-19-13-3-2-12-5-7-17-6-4-11-10-20-15(18)8-14(11)16(12,17)9-13/h2,13H,3-10H2,1H3/t13-,16-/m0/s1
#inchikey ALSKYCOJJPXPFS
#origInchi InChI=1S/C16H21NO3.BrH/c1-19-13-3-2-12-5-7-17-6-4-11-10-20-15(18)8-14(11)16(12,17)9-13;/h2,13H,3-10H2,1H3;1H/t13-,16-;/m0./s1
#Ion_Source LC-ESI
#Instrument qTof
#Compound_Source NIH Pharmacologically Active Library
#PI Dorrestein
#Data_Collector VP/LMS
#Scan -1
#Precursor_MZ 276.161
#ExactMass 275.152
#Charge 1
#CAS_Number N/A
#Pubmed_ID N/A
#Smiles CO[C@H]1CC=C2CCN3CCC4=C(CC(=O)OC4)[C@@]32C1.Br
#INCHI_AUX N/A
#Library_Class 3
#SpectrumID CCMSLIB00000084780
#IonMode Positive
#UpdateWorkflowName UPDATE-SINGLE-ANNOTATED-BRONZE
#LibraryQualityString Bronze
#TaskID d252d724072548979f1f6f1ced849daf
##Scan# 575
#SpectrumFile p3-A07-2_GA7_01_18221.mzXML
#LibraryName Pharm_Active_Library.mgf
#MQScore -1
#Organism Pharm_Active_Library
#TIC_Query 0
#RT_Query -1
#MZErrorPPM -1
#SharedPeaks 0
#MassDiff 0
#LibMZ -1
#SpecMZ 276.161
#SpecCharge 0
#internalFilename spec-00000.mgf

>collision 10
95.058678 196.0
96.25975 152.0
98.360512 164.0
101.339676 104.0
103.05999 176.0
103.873848 228.0
103.993561 188.0
104.058517 64.0
105.073425 128.0
106.502968 224.0
107.086258 184.0
108.075943 156.0
108.834564 220.0
110.119446 256.0
110.811852 200.0
113.545906 48.0
113.73262 148.0
114.274521 96.0
115.050392 160.0
116.962433 172.0
117.058533 372.0
118.070847 208.0
119.088821 208.0
119.618454 176.0
120.014961 96.0
120.091286 84.0
120.462357 128.0
121.059456 160.0
121.109825 368.0
123.387421 232.0
125.171326 220.0
125.6483 152.0
126.182076 116.0
126.994949 216.0
127.172195 196.0
128.061798 644.0
129.069733 176.0
129.528488 168.0
129.659897 156.0
130.064407 340.0
130.081787 152.0
130.781876 72.0
131.050598 176.0
131.075119 168.0
131.643661 156.0
132.081604 540.0
133.071609 332.0
133.090454 380.0
133.13678 204.0
134.08461 212.0
134.675262 68.0
135.25795 192.0
136.413132 144.0
136.727127 196.0
137.918945 160.0
140.105988 180.0
141.07048 420.0
141.302948 116.0
141.757568 216.0
142.0784 368.0
142.835449 140.0
142.913956 84.0
143.0867 356.0
143.159134 40.0
144.081436 396.0
144.106094 88.0
144.161057 40.0
145.056183 152.0
145.091446 192.0
146.097855 668.0
146.240356 136.0
147.006744 56.0
147.105789 336.0
148.07045 152.0
148.110748 340.0
148.780914 180.0
149.021347 184.0
150.060608 164.0
150.324036 212.0
150.614578 272.0
151.289474 184.0
151.622604 200.0
153.070847 292.0
154.076111 372.0
155.085831 160.0
156.087418 336.0
156.87767 68.0
157.096664 440.0
157.206894 60.0
158.096024 604.0
159.071518 132.0
159.105377 760.0
159.164413 176.0
159.573959 92.0
160.094193 224.0
160.114517 356.0
160.14267 44.0
160.245956 212.0
160.263596 100.0
161.080994 196.0
166.768433 176.0
167.093216 172.0
168.076675 180.0
169.102554 320.0
170.101852 428.0
171.115875 372.0
171.262833 28.0
171.314926 88.0
172.112183 676.0
173.113754 464.0
173.14592 140.0
173.740936 244.0
174.092651 172.0
175.133011 228.0
176.072372 172.0
178.325027 76.0
180.907074 184.0
181.100189 164.0
182.09877 220.0
182.250717 36.0
183.125 48.0
184.112503 552.0
184.206635 104.0
184.852798 296.0
185.090363 152.0
185.117172 476.0
185.177658 88.0
185.377502 136.0
186.122925 504.0
186.148529 176.0
187.134354 404.0
187.476044 144.0
188.067871 188.0
188.142624 1896.0
188.195602 164.0
188.252228 152.0
188.529434 80.0
189.007965 68.0
189.073318 136.0
189.13855 356.0
190.06839 120.0
190.090393 208.0
190.760483 96.0
191.762405 48.0
192.099991 120.0
193.087616 184.0
195.832718 240.0
197.02919 44.0
198.124969 344.0
199.104767 184.0
199.132858 212.0
200.078171 156.0
200.114258 144.0
200.143311 2020.0
200.703125 264.0
200.925949 260.0
201.147842 536.0
201.744919 72.0
201.945694 76.0
202.080261 176.0
202.121078 60.0
202.559906 96.0
202.622238 96.0
203.135345 120.0
203.163712 148.0
205.188583 192.0
208.106873 144.0
208.193024 92.0
209.110123 148.0
210.086929 180.0
211.17012 104.0
212.903229 44.0
216.110504 212.0
216.139664 680.0
216.402374 36.0
217.088028 116.0
217.141296 144.0
218.118011 228.0
218.165573 204.0
220.172134 156.0
222.101852 84.0
228.133865 120.0
228.585022 120.0
232.167923 900.0
233.069321 96.0
233.17366 280.0
234.213196 248.0
234.804489 156.0
235.152283 172.0
241.311447 124.0
242.119064 104.0
243.921722 136.0
244.134766 1608.0
244.201569 60.0
244.708786 60.0
245.140533 164.0
245.145126 344.0
245.518951 104.0
245.593811 96.0
246.480423 132.0
247.146423 128.0
248.158096 76.0
273.551666 144.0
276.158478 1480.0
276.241058 88.0
277.169769 372.0
277.569153 60.0
287.052704 64.0
306.476746 56.0
318.757538 76.0
433.762726 72.0
521.790466 80.0
612.179626 76.0
676.078979 192.0
933.559692 76.0
984.153748 204.0
1086.753784 136.0
1166.234375 284.0
1176.397461 52.0
1217.976562 92.0
1234.452393 88.0
1237.979248 216.0
1243.405396 176.0
1281.884521 212.0
1301.799927 96.0
1310.532349 144.0
1368.380127 168.0
1401.517944 192.0
1410.652832 156.0
1427.319336 180.0
1432.866577 184.0
1438.515015 88.0
1450.663818 60.0
1482.608032 216.0
1496.904175 140.0
