>compound MLS000736771-01!Naloxone
>formula C19H21NO4
>ionization [M+H]+
>parentmass 328.155457
#inchi InChI=1S/C19H21NO4/c1-2-8-20-9-7-18-15-11-3-4-12(21)16(15)24-17(18)13(22)5-6-19(18,23)14(20)10-11/h2-4,14,17,21,23H,1,5-10H2/t14?,17?,18-,19+/m0/s1
#inchikey UZHSEJADLWPNLE
#Ion_Source LC-ESI
#Instrument qTof
#Compound_Source NIH Pharmacologically Active Library
#PI Dorrestein
#Data_Collector VP/LMS
#Scan -1
#Precursor_MZ 328.158
#ExactMass 327.147
#Charge 1
#CAS_Number N/A
#Pubmed_ID N/A
#Smiles Oc1ccc2CC3N(CC=C)CC[C@]4(C5Oc1c24)[C@@]3(O)CCC5=O
#INCHI_AUX N/A
#Library_Class 1
#SpectrumID CCMSLIB00000084852
#IonMode Positive
#UpdateWorkflowName UPDATE-SINGLE-ANNOTATED-GOLD
#LibraryQualityString Gold
#TaskID d252d724072548979f1f6f1ced849daf
##Scan# 1166
#SpectrumFile p3-B08_GB8_01_18241.mzXML
#LibraryName Pharm_Active_Library.mgf
#MQScore -1
#Organism Pharm_Active_Library
#TIC_Query 0
#RT_Query -1
#MZErrorPPM -1
#SharedPeaks 0
#MassDiff 0
#LibMZ -1
#SpecMZ 328.158
#SpecCharge 0
#internalFilename spec-00000.mgf

>collision 10
44.889458 124.0
44.962833 156.0
45.010891 204.0
45.046951 224.0
45.101738 176.0
45.153885 240.0
45.264961 56.0
45.870903 236.0
45.90461 148.0
45.926189 152.0
46.592213 108.0
47.42326 160.0
47.72253 160.0
47.839474 192.0
47.851864 168.0
48.124306 184.0
48.357105 72.0
48.388943 156.0
48.659302 188.0
49.210655 212.0
49.266521 36.0
49.70055 116.0
50.040695 132.0
50.17313 192.0
50.884773 236.0
50.933056 140.0
51.13496 196.0
51.22324 84.0
51.588558 100.0
51.783161 152.0
51.833302 124.0
51.960915 92.0
52.514744 48.0
52.596989 128.0
52.612869 196.0
52.744328 128.0
53.292133 156.0
53.829628 164.0
54.816883 148.0
54.874367 168.0
55.001236 124.0
55.097225 164.0
55.513149 160.0
55.548744 152.0
55.605129 176.0
55.930634 144.0
56.330265 96.0
56.776299 140.0
57.087257 128.0
57.832462 144.0
57.846085 192.0
58.137096 180.0
58.188705 128.0
58.466877 144.0
58.86018 116.0
59.037441 168.0
59.268589 128.0
59.408108 84.0
59.546253 116.0
60.206959 224.0
60.392426 100.0
60.517776 152.0
60.544098 76.0
60.641705 220.0
60.654106 188.0
60.689762 180.0
60.705269 60.0
60.927223 232.0
61.11224 160.0
61.310001 140.0
61.440979 144.0
61.529938 168.0
61.814407 160.0
61.906769 192.0
62.072876 156.0
62.491917 200.0
63.477913 176.0
63.582615 128.0
63.773205 212.0
63.859062 172.0
64.131325 160.0
64.278046 204.0
65.102463 104.0
65.177963 68.0
65.417603 192.0
65.433701 148.0
66.07119 184.0
66.365959 172.0
66.412994 64.0
66.716652 140.0
67.502533 172.0
67.903763 200.0
68.166428 152.0
68.324272 188.0
68.584457 156.0
68.673492 212.0
68.886429 172.0
69.437614 60.0
69.862839 200.0
69.929398 100.0
69.994324 200.0
70.081459 180.0
70.718864 124.0
71.094276 44.0
71.257156 180.0
71.378174 244.0
71.405083 176.0
71.706451 128.0
71.755333 172.0
72.434692 148.0
72.826515 48.0
73.07811 124.0
73.481903 212.0
73.522812 160.0
73.710617 160.0
73.820107 128.0
74.093964 156.0
74.361465 124.0
74.373482 108.0
74.708565 164.0
74.763626 44.0
74.830757 48.0
75.035782 152.0
75.151337 144.0
75.182396 140.0
75.344704 312.0
75.372353 208.0
76.205772 208.0
76.351463 64.0
76.727905 188.0
77.007103 188.0
77.16787 48.0
77.239571 252.0
77.454872 124.0
78.167664 160.0
78.292656 176.0
78.866051 176.0
79.003983 188.0
79.960381 104.0
80.238266 160.0
80.459488 156.0
80.575569 192.0
80.756119 148.0
80.924332 196.0
81.342041 200.0
81.814819 196.0
82.428055 168.0
82.596191 204.0
82.849625 164.0
83.408539 184.0
83.903687 132.0
84.005806 184.0
84.075142 144.0
84.294281 160.0
84.570435 228.0
85.186539 136.0
85.241661 168.0
85.539604 112.0
85.814102 224.0
86.12413 176.0
86.590218 168.0
86.73288 188.0
86.974014 228.0
87.098419 224.0
87.25824 160.0
87.338196 128.0
87.366104 148.0
87.669952 168.0
87.964287 232.0
88.137978 224.0
88.478378 128.0
88.697548 180.0
88.720047 264.0
88.86821 204.0
89.039032 196.0
89.471504 180.0
89.765434 172.0
89.782402 200.0
90.316902 48.0
90.515617 108.0
90.621689 176.0
91.052284 172.0
91.409683 192.0
91.981438 120.0
92.059715 164.0
92.440132 200.0
92.497543 124.0
92.581787 144.0
92.614349 120.0
92.82708 52.0
92.901878 184.0
92.924904 136.0
94.041016 56.0
94.068039 140.0
94.729385 116.0
94.762314 88.0
94.944527 232.0
95.002716 172.0
95.420258 84.0
95.992706 160.0
96.081429 180.0
96.306908 144.0
96.707733 188.0
96.799744 156.0
96.842827 204.0
96.927071 72.0
97.14077 72.0
97.633766 212.0
97.759666 176.0
97.99398 160.0
98.429886 180.0
98.627449 192.0
98.961777 144.0
98.977615 160.0
99.070702 144.0
99.193565 152.0
99.251053 116.0
99.461349 152.0
100.352577 152.0
100.536095 68.0
100.75573 172.0
101.331917 100.0
101.654739 124.0
102.237511 168.0
102.382462 108.0
102.430794 180.0
102.63636 44.0
103.052155 176.0
103.582184 180.0
103.762543 152.0
103.857857 112.0
104.01815 236.0
104.593407 128.0
104.621902 92.0
104.874489 40.0
105.03965 160.0
105.072289 216.0
105.296829 120.0
105.77314 188.0
105.826454 164.0
105.896072 172.0
106.069504 392.0
106.1707 124.0
106.679901 76.0
106.965836 192.0
107.074959 120.0
107.153236 204.0
107.375862 172.0
108.014084 108.0
108.045113 216.0
108.080284 184.0
108.39502 52.0
108.672867 52.0
108.809845 72.0
108.853447 140.0
109.025871 136.0
109.150597 252.0
109.231705 76.0
109.919228 180.0
110.587975 180.0
110.856041 212.0
111.009064 140.0
111.101357 200.0
111.527626 152.0
111.714775 220.0
112.612717 152.0
113.079971 132.0
113.501541 52.0
113.938759 132.0
114.83918 188.0
115.056137 316.0
115.447853 184.0
115.469238 176.0
115.593315 152.0
115.863091 100.0
116.045265 192.0
116.505928 136.0
116.992699 220.0
117.018539 64.0
117.066742 360.0
117.436592 64.0
117.531509 176.0
118.041283 216.0
118.0578 144.0
118.134285 176.0
118.155914 124.0
118.58683 80.0
119.044586 208.0
119.074989 112.0
119.642509 140.0
119.657753 160.0
119.747032 136.0
119.80584 184.0
119.899536 148.0
120.081154 224.0
120.608864 124.0
120.825356 172.0
120.974167 144.0
121.052986 132.0
121.077072 128.0
121.256721 120.0
121.381676 124.0
121.53083 176.0
121.743752 144.0
122.053543 180.0
122.059441 176.0
122.117363 136.0
122.416664 176.0
122.56205 140.0
122.806747 188.0
123.047112 548.0
123.181984 224.0
123.230583 72.0
123.611359 172.0
124.306694 136.0
124.362175 292.0
124.519814 108.0
124.759789 160.0
125.510086 172.0
125.708611 164.0
125.730927 56.0
125.768867 140.0
125.795654 196.0
125.981003 196.0
126.347633 176.0
126.708069 184.0
127.394547 120.0
127.760979 148.0
127.810471 164.0
127.938759 244.0
128.031082 140.0
128.064056 532.0
128.24736 140.0
128.296951 40.0
128.314987 72.0
128.402924 124.0
129.069626 688.0
129.514923 164.0
129.530792 144.0
129.775543 124.0
130.06514 292.0
130.424805 80.0
130.709076 228.0
130.76825 112.0
131.009613 68.0
131.05072 176.0
131.076843 164.0
131.191925 208.0
131.415421 220.0
131.668793 100.0
131.780731 168.0
132.053528 324.0
132.125946 68.0
132.441849 132.0
132.599945 84.0
133.079376 132.0
133.178116 128.0
133.283798 184.0
133.725327 172.0
133.932541 136.0
134.06041 152.0
134.100739 196.0
134.739929 224.0
134.931747 84.0
134.989548 92.0
135.264862 124.0
135.433899 156.0
135.95787 136.0
136.077286 212.0
136.327103 120.0
136.387527 160.0
136.506104 192.0
136.56424 152.0
137.036804 188.0
137.057465 152.0
137.253571 148.0
137.325851 136.0
137.935272 80.0
138.031128 172.0
138.074142 132.0
138.26915 176.0
138.853088 112.0
138.94458 148.0
138.996185 188.0
139.242676 60.0
139.303757 200.0
139.917526 184.0
140.101227 156.0
140.858444 104.0
140.960037 168.0
141.070465 336.0
141.120773 140.0
141.622452 68.0
142.001678 160.0
142.069519 152.0
142.177231 116.0
142.310165 136.0
143.046829 456.0
143.083755 332.0
143.194763 124.0
143.216202 40.0
143.411575 164.0
143.692963 180.0
144.05481 536.0
144.079849 488.0
144.416763 172.0
144.466995 76.0
145.032104 152.0
145.062363 568.0
145.093536 180.0
145.175964 120.0
145.780899 120.0
146.060638 444.0
146.093399 188.0
146.331726 68.0
147.006622 128.0
147.04657 268.0
147.06871 292.0
147.110413 148.0
147.750809 176.0
147.973465 244.0
148.051773 176.0
148.071442 336.0
148.172165 92.0
148.49202 88.0
149.061462 392.0
149.634109 152.0
149.892288 204.0
150.062897 156.0
150.092163 212.0
150.333649 84.0
150.467896 232.0
150.568008 180.0
150.819656 116.0
150.856323 108.0
151.686157 176.0
151.833267 144.0
152.066147 528.0
152.17926 152.0
152.324158 192.0
152.461746 184.0
152.510895 152.0
152.786301 72.0
153.070847 972.0
154.021317 104.0
154.067459 524.0
154.139893 224.0
154.374725 184.0
155.084 432.0
155.236496 112.0
155.531723 240.0
156.047653 200.0
156.085037 256.0
156.175262 120.0
156.244904 52.0
156.389236 116.0
156.623276 168.0
156.792709 132.0
156.967209 168.0
157.064346 856.0
157.361435 184.0
157.866165 172.0
157.928696 148.0
158.058136 232.0
158.095261 680.0
158.161377 112.0
158.369202 88.0
159.04303 280.0
159.076126 348.0
159.101288 512.0
159.267136 104.0
159.485733 188.0
159.966171 192.0
160.05687 192.0
160.081985 156.0
160.113068 400.0
160.175171 72.0
160.303665 56.0
160.538193 216.0
161.004959 124.0
161.060165 2940.0
161.237381 208.0
161.561035 96.0
162.058746 168.0
162.280289 152.0
162.320862 156.0
162.342331 180.0
162.561844 136.0
162.640518 80.0
162.744598 152.0
162.830933 148.0
162.970657 128.0
163.06601 208.0
163.087555 116.0
163.151093 112.0
163.385071 216.0
163.48938 224.0
163.891708 152.0
164.031876 228.0
164.113464 224.0
164.434875 136.0
164.922699 144.0
165.004501 212.0
165.069214 676.0
165.170731 160.0
165.482941 172.0
165.618652 216.0
165.641708 168.0
165.903458 140.0
166.071289 176.0
166.141586 72.0
166.164673 216.0
166.259613 128.0
166.375122 164.0
166.434174 96.0
167.037888 184.0
167.085693 364.0
167.17189 208.0
167.300583 152.0
167.498871 52.0
167.67923 96.0
168.053131 216.0
168.085953 368.0
168.112488 124.0
168.246704 108.0
168.347397 160.0
168.453293 116.0
168.975494 208.0
169.062653 976.0
169.457047 76.0
170.040497 168.0
170.066971 160.0
170.095306 264.0
170.263763 192.0
170.302719 164.0
170.370255 192.0
170.645737 208.0
170.97348 60.0
171.045792 344.0
171.082703 368.0
171.520432 124.0
171.551712 164.0
171.606461 244.0
171.622803 164.0
171.825531 176.0
171.895981 128.0
171.984711 152.0
172.050674 152.0
172.089584 272.0
173.060669 1888.0
173.095047 180.0
173.318451 180.0
173.462585 136.0
174.057297 560.0
174.091705 148.0
174.620499 112.0
174.981003 48.0
175.074951 236.0
175.428864 156.0
175.887848 88.0
176.070023 104.0
176.143967 44.0
176.350067 100.0
176.64357 180.0
177.066727 164.0
178.074875 164.0
178.507202 228.0
178.664978 156.0
178.835281 148.0
178.880524 152.0
179.081924 572.0
179.506622 112.0
179.543961 204.0
179.562622 124.0
179.698669 148.0
179.837433 116.0
179.917511 60.0
180.057175 340.0
180.082413 260.0
180.438461 192.0
180.874496 92.0
181.003006 108.0
181.06488 1264.0
181.092621 344.0
181.126205 176.0
181.179779 52.0
181.230682 148.0
181.362 160.0
181.546982 156.0
182.005844 32.0
182.065125 328.0
182.098694 208.0
182.231461 236.0
182.312073 44.0
182.333557 56.0
182.814941 60.0
183.035675 164.0
183.074341 672.0
183.133209 92.0
183.423615 104.0
183.455963 240.0
183.868652 100.0
183.98201 128.0
184.052933 896.0
184.073761 928.0
184.11084 124.0
184.246674 128.0
184.516922 68.0
184.711639 160.0
184.814438 36.0
184.928085 164.0
185.059906 2256.0
185.123657 236.0
185.171265 176.0
185.19072 44.0
185.234055 28.0
185.464371 48.0
185.568573 128.0
185.876587 208.0
186.059387 708.0
186.090408 1008.0
186.137177 208.0
186.272964 124.0
186.435989 224.0
186.767685 124.0
187.076477 464.0
187.099228 524.0
187.374725 188.0
187.699066 56.0
188.059174 172.0
188.106674 488.0
189.059433 132.0
189.122391 136.0
189.267471 116.0
189.327728 84.0
189.366058 72.0
189.38797 72.0
190.059616 168.0
190.353317 124.0
191.081146 408.0
191.874863 68.0
191.947067 136.0
192.08078 184.0
193.065567 172.0
193.096771 164.0
193.518723 192.0
194.062469 352.0
194.096756 356.0
194.214294 212.0
195.074127 516.0
195.108704 164.0
195.305878 184.0
196.046432 124.0
196.081741 312.0
196.222046 208.0
196.408875 152.0
196.436768 64.0
196.874969 160.0
196.919647 40.0
197.035263 164.0
197.057831 936.0
197.1203 160.0
197.38913 184.0
197.556946 96.0
197.660461 132.0
197.699646 72.0
197.780807 64.0
197.8172 104.0
198.066727 1104.0
198.090881 332.0
198.147644 52.0
198.272842 128.0
198.357819 88.0
199.036026 172.0
199.073639 1616.0
199.168747 88.0
199.292343 100.0
199.418808 76.0
199.441284 52.0
199.511566 64.0
199.854675 76.0
199.882812 96.0
199.913773 156.0
200.009705 92.0
200.075699 468.0
200.660202 60.0
200.75325 32.0
200.930939 132.0
201.070999 132.0
201.089706 328.0
201.111542 244.0
201.334579 92.0
201.540787 120.0
201.792328 200.0
202.077988 140.0
202.100616 220.0
202.196838 100.0
202.397812 128.0
202.440292 104.0
202.519592 76.0
202.666901 44.0
202.788757 100.0
203.068909 304.0
203.088638 172.0
203.09816 216.0
203.534836 108.0
203.573761 68.0
203.904129 168.0
203.935394 124.0
204.051941 116.0
204.075394 352.0
204.095947 176.0
204.367966 176.0
204.985535 92.0
205.069962 216.0
205.097702 244.0
206.080795 140.0
206.184082 72.0
207.069534 296.0
207.087006 224.0
207.999939 116.0
208.074265 308.0
208.109818 372.0
208.337189 136.0
208.393372 68.0
208.45372 96.0
208.755539 36.0
208.84758 176.0
209.061142 468.0
209.080307 608.0
209.152573 32.0
210.066269 360.0
210.091492 512.0
210.129471 108.0
210.420959 88.0
210.753113 160.0
210.825348 64.0
210.888931 160.0
210.990097 60.0
211.069031 792.0
211.108734 140.0
211.137558 204.0
211.48764 112.0
211.858276 172.0
211.976105 180.0
212.071594 11748.0
212.269333 68.0
212.322037 60.0
212.417755 48.0
212.496078 72.0
212.635361 36.0
212.736954 136.0
212.783401 104.0
212.806625 44.0
212.855988 196.0
212.969254 216.0
213.078049 2392.0
213.919174 64.0
213.960831 132.0
214.030716 172.0
214.08667 1128.0
214.129715 148.0
214.211273 152.0
214.342377 60.0
214.397751 112.0
214.42981 48.0
214.467697 44.0
214.668854 92.0
214.843857 52.0
214.960556 72.0
215.062195 208.0
215.097473 136.0
215.6147 40.0
216.006485 128.0
216.044525 52.0
216.091324 168.0
216.114731 176.0
216.27861 188.0
217.062393 208.0
217.398163 52.0
217.544922 144.0
218.071014 184.0
218.103027 232.0
218.338226 232.0
218.402939 152.0
219.089767 244.0
219.380539 52.0
219.943954 88.0
220.064499 172.0
220.07663 256.0
220.103378 276.0
220.981216 48.0
221.079483 392.0
221.209076 260.0
221.694809 32.0
221.955673 44.0
222.092819 428.0
222.127243 500.0
222.17514 48.0
222.605515 68.0
223.064789 432.0
223.095383 304.0
223.134399 68.0
223.235489 108.0
223.425842 132.0
223.461548 124.0
223.491302 148.0
224.040756 160.0
224.065018 296.0
224.074768 136.0
224.085449 444.0
224.108063 608.0
224.191055 124.0
224.6353 176.0
224.909821 60.0
225.058701 248.0
225.081329 1044.0
225.098373 652.0
225.557327 144.0
225.782227 48.0
225.821106 232.0
225.916824 56.0
226.027252 220.0
226.084793 1920.0
226.121353 384.0
226.168182 192.0
226.187057 100.0
226.472473 140.0
226.521515 72.0
226.584427 120.0
226.638351 76.0
227.025024 68.0
227.072067 1672.0
227.095856 1072.0
227.162994 168.0
227.499084 200.0
227.93158 84.0
228.006699 92.0
228.075912 336.0
228.099945 420.0
228.27124 140.0
228.343414 48.0
228.469757 56.0
228.547974 48.0
228.620193 84.0
228.707474 152.0
228.848953 64.0
229.094269 228.0
229.716904 116.0
229.756119 68.0
230.01564 148.0
230.088089 132.0
230.4505 120.0
230.782974 68.0
230.906952 156.0
230.934174 112.0
231.079376 52.0
231.391098 144.0
231.445602 48.0
232.078857 168.0
232.391251 76.0
232.934677 176.0
233.078674 696.0
233.100693 124.0
233.111618 164.0
233.572998 128.0
234.059937 212.0
234.094238 396.0
234.160431 144.0
234.959045 132.0
235.050583 112.0
235.082138 388.0
235.119141 196.0
235.542099 172.0
236.07132 356.0
236.106918 472.0
236.151108 212.0
236.590973 64.0
237.013626 172.0
237.090546 460.0
237.119324 100.0
237.393723 200.0
237.84166 132.0
237.881561 144.0
238.087021 288.0
238.123306 700.0
239.09436 276.0
239.105499 472.0
239.569794 216.0
240.061478 276.0
240.102798 1244.0
240.131409 496.0
240.513367 160.0
240.550415 180.0
240.590546 124.0
241.086868 512.0
241.110168 724.0
241.147202 168.0
241.403137 56.0
241.424789 48.0
242.081329 140.0
242.12059 152.0
242.179932 140.0
242.254272 92.0
242.65094 144.0
243.051056 92.0
243.095856 328.0
243.850433 220.0
244.095718 176.0
244.181793 184.0
244.293777 56.0
244.3871 176.0
244.412003 88.0
245.090775 268.0
246.138824 132.0
247.038925 160.0
247.107742 148.0
247.195358 160.0
248.108353 196.0
249.080963 200.0
249.120422 108.0
249.302643 48.0
249.362366 188.0
250.083313 592.0
250.125168 384.0
251.091995 736.0
251.257965 152.0
251.946182 128.0
252.034637 124.0
252.10321 1404.0
252.467697 136.0
252.780884 80.0
252.806198 80.0
252.899857 160.0
253.018265 88.0
253.0681 156.0
253.109955 7960.0
253.246246 36.0
253.307129 68.0
253.379288 84.0
253.490189 76.0
253.530136 92.0
253.667664 92.0
253.721558 104.0
253.762772 80.0
253.821167 116.0
253.902557 48.0
253.949875 144.0
254.006958 32.0
254.081085 480.0
254.115601 1396.0
254.194138 124.0
254.356003 100.0
254.517914 120.0
254.60968 80.0
254.943573 60.0
255.03891 64.0
255.119049 740.0
255.155197 124.0
255.280533 92.0
255.344131 68.0
255.506363 56.0
255.74501 108.0
255.818222 72.0
255.872345 88.0
255.955124 116.0
256.047485 184.0
256.09082 284.0
256.114288 332.0
256.34375 220.0
256.968689 192.0
257.010162 92.0
257.100677 120.0
257.779694 56.0
258.08017 116.0
259.08139 176.0
259.238892 136.0
259.790375 68.0
259.893036 76.0
260.108063 200.0
261.082581 188.0
261.107269 152.0
262.120148 156.0
262.417847 84.0
263.095428 156.0
263.134094 172.0
263.425903 224.0
264.102264 424.0
264.132233 144.0
264.718445 68.0
265.101776 180.0
265.139557 224.0
265.843292 120.0
266.115692 308.0
266.190613 156.0
266.226349 104.0
266.762421 44.0
267.109161 144.0
267.130005 352.0
267.963287 240.0
268.034973 136.0
268.096405 1352.0
268.133301 4200.0
268.232574 64.0
268.471771 68.0
268.628326 56.0
268.774048 96.0
268.840393 68.0
268.869781 104.0
268.925262 100.0
269.105408 2480.0
269.179901 96.0
269.326843 56.0
269.424835 40.0
269.584961 92.0
270.019745 92.0
270.107147 1076.0
270.648041 40.0
270.946075 76.0
271.085236 128.0
271.095062 60.0
271.109558 156.0
271.115997 200.0
271.152527 172.0
271.25412 56.0
271.28363 88.0
272.238403 48.0
272.366486 204.0
273.11261 92.0
273.19812 76.0
274.001404 84.0
274.120667 480.0
274.334229 52.0
276.100708 116.0
276.537415 52.0
277.100342 120.0
277.125183 116.0
278.07193 176.0
278.417175 136.0
278.872345 80.0
279.590698 116.0
280.093445 176.0
280.125916 192.0
280.210052 148.0
280.443298 100.0
281.102692 128.0
281.14035 172.0
282.048767 96.0
282.113647 900.0
282.149872 512.0
283.114899 152.0
283.147186 404.0
283.678925 92.0
283.796265 96.0
284.014252 120.0
284.118225 152.0
284.161835 100.0
284.386688 64.0
284.517578 44.0
286.740967 132.0
287.108429 168.0
290.124481 124.0
291.230682 68.0
291.753967 84.0
292.131989 396.0
293.118774 108.0
293.490295 112.0
294.141266 168.0
294.418457 112.0
294.582397 76.0
294.814728 96.0
295.121002 308.0
295.262573 88.0
296.131866 288.0
296.536163 92.0
297.115662 176.0
297.297516 124.0
297.647644 176.0
300.476837 212.0
303.655731 156.0
303.846527 188.0
305.514069 88.0
306.105743 172.0
306.687531 152.0
307.001312 200.0
307.569977 136.0
307.782928 176.0
308.120087 152.0
308.240509 60.0
309.128693 64.0
309.566284 144.0
309.608307 44.0
309.85025 108.0
309.888672 172.0
309.972626 144.0
310.028687 136.0
310.073029 284.0
310.143707 16348.0
310.217957 328.0
310.284546 60.0
310.336395 96.0
310.367828 48.0
310.402863 108.0
310.443024 80.0
310.473907 88.0
310.507324 128.0
310.563904 120.0
310.603668 52.0
310.687866 92.0
310.765564 52.0
310.900726 220.0
311.14502 2644.0
311.253662 96.0
311.417969 68.0
311.463623 88.0
311.522308 80.0
311.814972 56.0
311.941528 64.0
311.990723 96.0
312.149963 376.0
312.219269 56.0
312.272034 52.0
312.352936 72.0
313.009521 112.0
313.077942 96.0
313.154968 184.0
313.310425 40.0
313.394989 108.0
313.550018 92.0
314.04007 88.0
314.24469 52.0
315.166199 60.0
316.255402 228.0
316.446564 32.0
317.215302 88.0
318.098572 132.0
318.510468 60.0
321.904541 72.0
322.497559 96.0
324.928986 60.0
325.208893 144.0
327.754974 84.0
328.06131 224.0
328.155457 820.0
328.292084 80.0
329.155579 292.0
330.220581 72.0
330.560638 36.0
331.21228 176.0
339.639618 36.0
344.147675 76.0
352.729492 64.0
353.148254 56.0
362.49234 84.0
369.467621 52.0
373.872467 172.0
383.134338 132.0
386.136017 80.0
390.041138 64.0
392.422821 68.0
395.880219 140.0
397.711853 120.0
403.431946 40.0
407.535858 208.0
429.384949 64.0
432.371887 48.0
435.240479 80.0
439.586151 100.0
441.169067 44.0
448.464478 88.0
455.883423 48.0
473.81073 56.0
478.087616 104.0
486.953735 68.0
503.996063 76.0
510.981415 96.0
537.477905 36.0
550.377075 84.0
557.21051 52.0
559.891663 64.0
573.760864 88.0
580.109375 88.0
592.809448 48.0
597.708984 44.0
599.189087 84.0
611.809631 84.0
614.860718 116.0
641.06842 88.0
655.225342 72.0
660.473022 48.0
695.350281 88.0
718.031494 52.0
723.358521 52.0
735.98175 100.0
742.052307 68.0
809.109619 44.0
829.56134 64.0
922.212708 128.0
941.667297 120.0
950.022461 48.0
1014.081116 144.0
1028.034302 128.0
1032.672363 112.0
1041.671631 216.0
1053.963867 156.0
1054.047974 48.0
1063.107178 64.0
1106.189575 140.0
1123.594116 120.0
1132.049316 144.0
1141.645508 172.0
1165.398804 164.0
1197.03479 176.0
1201.301025 164.0
1215.504883 204.0
1253.244873 160.0
1259.316528 148.0
1276.98584 124.0
1285.827393 144.0
1291.757812 192.0
1294.935791 132.0
1299.624023 264.0
1312.275513 168.0
1316.085083 216.0
1322.309082 112.0
1322.757935 172.0
1327.503418 128.0
1334.655884 172.0
1336.699829 196.0
1337.158203 52.0
1337.733276 188.0
1346.000854 204.0
1352.697754 140.0
1357.291382 212.0
1365.692627 112.0
1373.278931 48.0
1385.934937 132.0
1387.016968 140.0
1387.432007 60.0
1387.780518 36.0
1390.807251 196.0
1391.148682 168.0
1398.150269 124.0
1404.416016 160.0
1408.07312 140.0
1415.31189 176.0
1416.2854 64.0
1428.640991 72.0
1454.036865 156.0
1454.712402 152.0
1455.167847 144.0
1459.141357 176.0
1470.849976 160.0
1479.365479 68.0
1486.723511 92.0
1487.567871 176.0
1490.324951 80.0
1490.639893 36.0
1498.026001 168.0
1499.721191 208.0
1504.897461 184.0
