>compound MLS001195659-01!sumatriptan
>formula C14H21N3O2S
>ionization [M+H]+
>parentmass 296.14272436409055
#inchi InChI=1S/C14H21N3O2S/c1-15-20(18,19)10-11-4-5-14-13(8-11)12(9-16-14)6-7-17(2)3/h4-5,8-9,15-16H,6-7,10H2,1-3H3
#inchikey KQKPFRSPSRPDEB
#Ion_Source LC-ESI
#Instrument qTof
#Compound_Source NIH Pharmacologically Active Library
#PI Dorrestein
#Data_Collector VP/LMS
#Scan -1
#Precursor_MZ 296.138
#ExactMass 295.135
#Charge 1
#CAS_Number N/A
#Pubmed_ID N/A
#Smiles CNS(=O)(=O)Cc1ccc2[nH]cc(CCN(C)C)c2c1
#INCHI_AUX N/A
#Library_Class 1
#SpectrumID CCMSLIB00000085309
#IonMode Positive
#UpdateWorkflowName UPDATE-SINGLE-ANNOTATED-GOLD
#LibraryQualityString Gold
#TaskID d252d724072548979f1f6f1ced849daf
##Scan# 1190
#SpectrumFile p3-H03_GH3_01_18308.mzXML
#LibraryName Pharm_Active_Library.mgf
#MQScore -1
#Organism Pharm_Active_Library
#TIC_Query 0
#RT_Query -1
#MZErrorPPM -1
#SharedPeaks 0
#MassDiff 0
#LibMZ -1
#SpecMZ 296.138
#SpecCharge 0
#internalFilename spec-00000.mgf

>collision 10
45.059925 172.0
45.216389 112.0
45.315487 224.0
45.547588 136.0
45.573116 108.0
45.675293 172.0
45.745274 168.0
45.848991 196.0
46.043278 216.0
46.407314 144.0
46.487347 68.0
46.681618 164.0
46.776867 148.0
46.866756 172.0
47.037243 124.0
47.112354 148.0
47.454529 208.0
47.481956 232.0
48.010094 252.0
48.026646 124.0
48.308456 116.0
48.931622 216.0
49.05283 104.0
49.182564 188.0
49.829586 228.0
52.126022 100.0
52.413834 68.0
52.527737 136.0
52.651875 172.0
52.810863 52.0
53.152786 192.0
54.618252 172.0
55.132843 160.0
55.415489 100.0
55.623123 196.0
55.710743 116.0
55.829659 180.0
56.154346 172.0
57.722328 200.0
58.199665 144.0
58.636284 100.0
59.031704 124.0
59.077591 96.0
59.272045 240.0
60.273838 156.0
60.314022 128.0
60.65303 184.0
60.758484 224.0
61.35104 172.0
61.868168 216.0
62.755894 152.0
62.994213 120.0
63.242485 164.0
63.680119 176.0
63.864498 40.0
64.403275 176.0
64.545517 168.0
64.703926 136.0
64.743958 188.0
64.767982 148.0
64.840088 144.0
65.226929 160.0
65.592346 92.0
66.567795 136.0
66.658974 168.0
67.483803 192.0
67.893196 212.0
68.01297 124.0
68.692596 140.0
68.837845 148.0
69.009705 148.0
69.125496 184.0
69.23642 136.0
69.380585 112.0
69.734169 152.0
69.877182 164.0
70.028679 68.0
70.18367 132.0
70.347176 188.0
70.56572 104.0
71.513893 152.0
71.758171 144.0
72.224289 188.0
72.269966 72.0
72.657974 172.0
72.700394 220.0
74.045586 236.0
74.684097 76.0
74.730553 228.0
75.102676 164.0
75.135452 120.0
75.280449 64.0
75.703125 216.0
76.487213 136.0
76.522034 204.0
77.305809 80.0
78.266045 176.0
78.475731 144.0
78.645096 128.0
78.984367 168.0
79.985199 84.0
80.338051 128.0
80.491554 140.0
80.741753 200.0
81.133911 56.0
81.930084 176.0
82.106743 180.0
82.442543 260.0
82.48954 228.0
82.579956 144.0
82.674034 172.0
82.822502 208.0
83.087181 192.0
83.48317 144.0
83.572311 140.0
83.666954 104.0
83.974922 136.0
84.301727 112.0
84.351082 132.0
85.058182 188.0
85.116936 152.0
86.124367 188.0
86.627533 164.0
87.325699 176.0
87.407349 152.0
87.628929 88.0
87.852661 112.0
88.13459 140.0
88.407623 192.0
88.598618 164.0
89.248032 168.0
89.454994 140.0
89.49453 124.0
89.607544 196.0
89.805489 224.0
89.914925 292.0
91.155403 124.0
91.808388 144.0
91.83699 132.0
92.037384 48.0
93.086777 76.0
93.39621 176.0
93.719856 184.0
94.008904 148.0
95.061676 112.0
95.380211 184.0
95.504662 164.0
96.036423 164.0
96.30188 216.0
97.296692 220.0
97.821602 128.0
97.851135 108.0
98.749031 132.0
98.909309 128.0
99.232231 224.0
99.373062 184.0
99.444504 160.0
99.474274 132.0
99.62719 236.0
99.818008 176.0
100.397522 132.0
101.357094 72.0
101.559586 228.0
101.788383 144.0
101.808464 140.0
102.096931 156.0
102.184364 216.0
102.482361 192.0
103.055412 544.0
103.43158 144.0
103.557121 252.0
103.612747 176.0
104.025543 264.0
104.092545 280.0
104.59066 216.0
105.073654 224.0
105.406479 136.0
105.42691 172.0
106.26239 236.0
107.400047 108.0
108.164619 112.0
109.025398 212.0
109.100227 136.0
109.631012 172.0
110.215324 128.0
110.430656 164.0
111.096794 152.0
111.220604 168.0
111.317184 68.0
111.415909 64.0
111.998627 124.0
113.037392 184.0
113.47374 164.0
113.668884 196.0
114.17025 176.0
114.532082 156.0
114.975571 56.0
115.05735 284.0
115.54612 116.0
116.057236 184.0
116.266121 140.0
116.315483 236.0
116.384186 248.0
116.467949 148.0
116.605461 156.0
117.055099 84.0
117.555237 148.0
118.158096 208.0
119.012085 132.0
119.516373 136.0
119.692696 136.0
119.753677 160.0
120.023911 92.0
120.637444 192.0
121.52446 192.0
121.796684 148.0
122.26812 156.0
124.151764 188.0
124.398056 136.0
124.415817 232.0
124.59127 132.0
125.194077 176.0
125.332191 80.0
125.988159 240.0
126.283234 72.0
126.388382 192.0
126.883392 120.0
126.941689 188.0
127.053596 224.0
127.475975 140.0
128.060242 288.0
128.112747 172.0
128.261475 116.0
128.80983 228.0
128.825638 196.0
128.861786 184.0
128.940872 140.0
129.067566 448.0
129.397827 136.0
129.501999 156.0
130.065475 2320.0
130.275528 104.0
130.31189 56.0
130.457336 100.0
131.067566 376.0
131.144806 44.0
131.286163 116.0
131.523453 164.0
132.039841 232.0
132.060425 108.0
132.087875 132.0
132.319016 136.0
133.057281 164.0
133.46167 56.0
133.580719 136.0
134.127029 100.0
134.320724 200.0
134.768616 200.0
135.187164 140.0
135.539154 44.0
135.590149 200.0
136.230576 152.0
137.037903 144.0
137.291992 88.0
137.791534 176.0
138.165604 140.0
138.240479 224.0
138.425415 128.0
139.110062 84.0
139.61055 136.0
139.739929 128.0
140.258041 148.0
141.053543 140.0
141.488846 204.0
142.066376 596.0
142.252228 108.0
142.354324 64.0
142.56337 108.0
143.070145 160.0
143.599045 188.0
143.924637 148.0
144.07515 284.0
144.313553 80.0
144.820435 136.0
145.052811 192.0
145.134384 52.0
145.374268 40.0
146.091751 180.0
146.991425 84.0
147.81546 56.0
148.554459 72.0
148.702469 84.0
149.115372 164.0
149.621353 192.0
151.056351 212.0
151.102829 44.0
151.977554 156.0
154.067047 288.0
154.164276 204.0
154.698547 160.0
155.067566 160.0
155.092407 128.0
155.226288 108.0
155.591034 76.0
155.620834 108.0
155.697815 132.0
155.966156 188.0
156.008423 120.0
156.080719 15936.0
156.137726 36.0
156.155136 220.0
156.206802 192.0
156.247177 36.0
156.286987 76.0
156.36911 44.0
156.393997 64.0
156.528595 64.0
156.555832 132.0
156.590698 52.0
156.62059 84.0
156.685364 288.0
156.812454 72.0
156.86438 120.0
156.939346 248.0
156.967026 252.0
157.051819 208.0
157.087799 24736.0
157.141159 84.0
157.164078 180.0
157.184128 84.0
157.203827 56.0
157.216949 64.0
157.264816 44.0
157.298859 56.0
157.339767 196.0
157.48114 60.0
157.501129 68.0
157.520111 140.0
157.993607 156.0
158.09314 4268.0
158.125565 168.0
158.147293 96.0
158.273926 104.0
158.301468 68.0
158.339035 96.0
158.356567 88.0
158.3741 76.0
158.396652 76.0
158.414185 100.0
158.43924 44.0
158.511902 68.0
158.790314 116.0
158.815262 60.0
158.877975 44.0
158.955765 48.0
158.978348 64.0
159.052628 108.0
159.098846 476.0
159.128952 60.0
159.221878 112.0
159.239456 92.0
159.274612 44.0
159.294708 36.0
159.390488 132.0
159.508316 72.0
159.578705 88.0
160.034134 84.0
160.396912 96.0
160.437256 116.0
160.59108 88.0
161.644608 68.0
163.123291 136.0
163.777267 32.0
164.075424 84.0
164.144272 128.0
164.741531 48.0
166.80191 132.0
166.96904 72.0
167.700256 52.0
168.823364 64.0
169.457565 76.0
169.908691 132.0
170.020279 64.0
170.100739 112.0
172.082794 176.0
172.108078 176.0
173.078186 168.0
174.089569 136.0
174.516113 60.0
177.160706 56.0
181.733276 180.0
184.961975 168.0
185.121719 144.0
186.016479 120.0
186.646805 140.0
190.072296 140.0
196.829605 160.0
198.965988 180.0
199.109207 116.0
200.037109 156.0
200.837387 168.0
201.140976 116.0
201.955948 84.0
202.13942 164.0
202.170975 84.0
203.145676 168.0
206.887573 168.0
208.175003 148.0
208.387573 204.0
208.930969 176.0
216.006851 172.0
220.036057 156.0
227.14299 204.0
227.899567 80.0
228.570114 68.0
232.850952 156.0
236.411926 136.0
239.057312 132.0
246.128433 200.0
246.912827 200.0
251.085236 3260.0
251.44339 36.0
252.090088 192.0
252.160339 52.0
253.071426 112.0
254.117401 48.0
254.247513 36.0
256.23175 84.0
257.897552 40.0
263.179199 52.0
263.964417 92.0
264.974304 184.0
278.056061 176.0
284.176331 108.0
284.397827 52.0
295.209564 116.0
319.771576 104.0
330.401611 168.0
355.164917 136.0
377.029877 112.0
402.96875 100.0
413.209564 92.0
418.750732 84.0
425.719879 72.0
439.605286 40.0
445.899963 40.0
456.643616 48.0
467.708832 72.0
521.729797 96.0
542.601929 160.0
560.636414 84.0
602.211365 20.0
602.939331 80.0
779.168579 160.0
820.978394 48.0
855.191956 192.0
893.98584 288.0
992.498596 168.0
1012.532654 64.0
1025.72998 164.0
1027.439087 156.0
1064.665405 184.0
1071.085083 216.0
1081.009277 188.0
1082.102417 260.0
1094.749634 148.0
1096.904175 196.0
1097.939331 108.0
1100.651611 92.0
1113.280151 108.0
1117.581177 128.0
1130.500244 236.0
1132.971069 184.0
1161.25 52.0
1186.89978 116.0
1219.354126 124.0
1225.303955 164.0
1232.532593 136.0
1236.826782 104.0
1243.53479 212.0
1252.478882 100.0
1261.942749 112.0
1271.009399 160.0
1271.569946 168.0
1282.124634 180.0
1292.314941 80.0
1295.071167 168.0
1300.405762 200.0
1304.730225 120.0
1308.557861 172.0
1309.133911 80.0
1321.919067 120.0
1330.581055 164.0
1338.317261 164.0
1345.002686 208.0
1365.364868 168.0
1368.462891 152.0
1369.810669 168.0
1372.53772 236.0
1379.455811 176.0
1390.255127 180.0
1391.576416 68.0
1395.50708 40.0
1399.577148 48.0
1412.436401 160.0
1419.874268 148.0
1422.162598 160.0
1424.655762 228.0
1432.961792 196.0
1436.459961 52.0
1444.936523 144.0
1446.866455 136.0
1449.706909 116.0
1453.976685 180.0
1457.994385 200.0
1458.929321 148.0
1465.627197 108.0
1467.235474 240.0
1469.454956 208.0
1477.194092 200.0
1480.929688 92.0
1482.324097 140.0
1485.582642 120.0
1493.671875 180.0
1502.338501 228.0
