>compound MLS000859991-01!Apigenin520-36-5
>formula C15H10O5
>ionization [M+H]+
>parentmass 271.05954
#inchi InChI=1S/C15H10O5/c16-9-3-1-8(2-4-9)13-7-12(19)15-11(18)5-10(17)6-14(15)20-13/h1-7,16-18H
#inchikey KZNIFHPLKGYRTM
#Ion_Source LC-ESI
#Instrument qTof
#Compound_Source NIH Pharmacologically Active Library
#PI Dorrestein
#Data_Collector VP/LMS
#Scan -1
#Precursor_MZ 271.06
#ExactMass 270.053
#Charge 1
#CAS_Number N/A
#Pubmed_ID N/A
#Smiles Oc1ccc(cc1)c2cc(=O)c3c(O)cc(O)cc3o2
#INCHI_AUX N/A
#Library_Class 1
#SpectrumID CCMSLIB00000084988
#IonMode Positive
#UpdateWorkflowName UPDATE-SINGLE-ANNOTATED-GOLD
#LibraryQualityString Gold
#TaskID d252d724072548979f1f6f1ced849daf
##Scan# 1849
#SpectrumFile p3-D06_GD6_01_18263.mzXML
#LibraryName Pharm_Active_Library.mgf
#MQScore -1
#Organism Pharm_Active_Library
#TIC_Query 0
#RT_Query -1
#MZErrorPPM -1
#SharedPeaks 0
#MassDiff 0
#LibMZ -1
#SpecMZ 271.06
#SpecCharge 0
#internalFilename spec-00000.mgf

>collision 10
45.100727 40.0
45.187653 204.0
45.233158 76.0
45.290737 168.0
45.314854 128.0
46.329391 148.0
46.360558 148.0
47.493603 200.0
48.187454 200.0
48.619503 220.0
49.014458 128.0
49.265606 96.0
49.443657 144.0
49.820393 124.0
49.97646 72.0
50.048244 88.0
50.172237 60.0
50.58334 164.0
50.959171 192.0
51.327839 188.0
51.569115 160.0
51.899822 160.0
52.123753 236.0
52.152496 140.0
52.181248 208.0
52.596157 164.0
53.163528 168.0
54.015911 44.0
54.711525 68.0
54.724777 160.0
55.328651 148.0
55.370113 132.0
56.678131 136.0
57.629116 92.0
57.813606 148.0
57.984745 132.0
58.601727 124.0
59.103706 208.0
59.999557 156.0
61.122528 164.0
61.420101 128.0
61.721531 88.0
61.890526 120.0
62.026829 140.0
62.163284 148.0
63.979473 168.0
64.304665 120.0
64.888557 112.0
64.906197 208.0
64.960732 168.0
65.02652 168.0
65.19355 232.0
65.463814 100.0
65.678177 212.0
66.179169 188.0
66.839821 156.0
67.64119 92.0
67.678841 64.0
67.752548 204.0
68.159241 128.0
68.575829 116.0
68.777061 180.0
69.702881 140.0
69.915741 152.0
70.025627 152.0
70.289032 168.0
70.681725 192.0
71.13929 92.0
71.578125 196.0
71.616859 176.0
71.96933 144.0
72.470001 196.0
72.666687 140.0
73.246407 116.0
74.220589 52.0
74.575958 236.0
75.240906 196.0
75.322075 152.0
76.059746 148.0
77.572174 64.0
77.889793 188.0
77.907364 276.0
78.793541 184.0
78.86599 172.0
79.251793 212.0
79.43795 204.0
79.905197 176.0
80.097458 156.0
80.756119 200.0
80.877792 232.0
80.926125 48.0
81.189545 240.0
81.385147 180.0
81.606155 112.0
82.141045 252.0
82.218628 164.0
82.319725 168.0
82.755516 208.0
82.967491 216.0
82.98381 168.0
83.123482 124.0
83.246925 152.0
83.306862 172.0
83.803551 180.0
84.82151 180.0
85.317169 140.0
85.672363 136.0
86.931541 248.0
87.539429 160.0
88.439331 56.0
88.489876 160.0
88.793449 208.0
88.872238 116.0
88.930412 168.0
89.075005 220.0
89.276115 108.0
89.443565 124.0
89.767632 144.0
89.81855 136.0
90.567085 212.0
91.053635 488.0
91.233162 32.0
91.354874 160.0
91.579491 40.0
91.789131 136.0
92.054382 128.0
92.104034 172.0
92.549644 164.0
92.570709 120.0
92.996323 184.0
93.19989 168.0
94.226868 172.0
94.524635 192.0
94.710495 172.0
94.925629 204.0
95.238098 192.0
95.502441 196.0
95.847031 168.0
96.077103 144.0
96.966827 192.0
97.028534 280.0
97.100151 216.0
97.518356 176.0
98.288383 164.0
98.954491 196.0
99.386589 248.0
99.825592 148.0
100.307419 160.0
100.49688 192.0
100.750443 172.0
100.900337 96.0
101.755836 172.0
102.393295 120.0
102.496033 180.0
102.645203 188.0
102.764214 248.0
102.947899 188.0
103.304596 204.0
104.085976 92.0
104.586105 36.0
105.043388 224.0
105.213974 208.0
105.495903 176.0
105.54702 124.0
106.360367 84.0
106.812439 84.0
107.012062 152.0
107.042953 216.0
107.372688 168.0
108.26136 200.0
108.499649 204.0
108.736122 156.0
109.024803 244.0
109.157852 164.0
109.536644 196.0
110.494881 212.0
110.622536 124.0
110.672783 128.0
111.006096 208.0
111.421562 92.0
111.4888 168.0
112.086449 64.0
112.244545 76.0
112.295158 176.0
112.666679 144.0
112.8125 236.0
113.918716 132.0
113.944206 188.0
114.748718 144.0
114.938553 192.0
115.05143 508.0
115.669487 160.0
115.78511 172.0
115.853653 168.0
115.986519 244.0
116.052979 152.0
116.570297 136.0
116.692818 180.0
117.24173 140.0
117.50264 192.0
117.692581 96.0
117.811371 156.0
118.889679 68.0
118.928749 176.0
118.954796 148.0
119.048904 2912.0
119.174149 44.0
119.271942 152.0
119.37075 116.0
119.911865 164.0
120.053055 608.0
120.47921 396.0
120.713081 120.0
120.765572 76.0
120.866211 236.0
120.964699 72.0
121.028671 1812.0
121.251633 96.0
121.306427 128.0
121.545494 60.0
122.032951 372.0
122.884895 136.0
123.0364 216.0
123.115074 180.0
123.515129 172.0
123.563797 140.0
125.026451 392.0
125.06617 60.0
125.208664 184.0
125.293312 184.0
125.469376 148.0
125.623253 64.0
126.029594 184.0
126.685127 120.0
126.76355 192.0
126.969795 76.0
127.055626 288.0
127.248055 140.0
127.322151 200.0
127.753067 164.0
128.05983 148.0
128.118423 120.0
128.659683 144.0
128.675491 172.0
128.76355 196.0
129.016037 196.0
129.061859 144.0
130.049591 244.0
130.081375 180.0
130.26532 184.0
130.290298 96.0
130.424377 144.0
130.76329 124.0
131.04866 176.0
131.81691 56.0
132.054672 200.0
132.320816 196.0
133.02507 184.0
133.847015 188.0
134.363327 180.0
134.531799 160.0
134.931473 208.0
134.973083 40.0
135.00882 204.0
135.044785 228.0
135.063278 36.0
135.470703 124.0
135.767395 164.0
136.310608 176.0
137.624374 104.0
138.250839 196.0
139.052368 436.0
139.207321 108.0
140.327362 200.0
140.381607 92.0
140.416977 208.0
140.506607 196.0
141.068253 780.0
142.07309 160.0
142.367111 140.0
143.054276 148.0
144.052139 316.0
144.347443 96.0
144.761429 128.0
145.028061 2688.0
145.064453 212.0
145.197021 164.0
145.463943 68.0
145.934814 80.0
146.034271 388.0
146.076721 200.0
146.107986 72.0
146.199417 40.0
147.006744 88.0
147.045349 420.0
147.346436 200.0
147.779984 96.0
147.816284 40.0
148.029312 168.0
148.053528 176.0
148.26915 184.0
148.890228 56.0
148.972809 172.0
149.020996 216.0
149.310669 132.0
149.661087 168.0
150.041183 192.0
150.419312 172.0
151.04808 220.0
151.355698 60.0
152.010193 104.0
152.064072 192.0
152.245865 52.0
152.412903 128.0
152.839844 196.0
152.961349 208.0
153.018021 9344.0
153.063141 276.0
153.094299 64.0
153.190369 40.0
153.283981 36.0
153.323425 68.0
153.365311 84.0
153.43187 76.0
153.513245 112.0
153.532974 52.0
153.66864 40.0
153.816711 40.0
154.022278 1164.0
154.085907 124.0
154.545776 36.0
154.684372 144.0
154.803223 204.0
155.01619 144.0
155.048676 496.0
155.078217 116.0
155.226974 128.0
155.326172 112.0
155.65921 108.0
155.924576 188.0
155.994171 120.0
156.04921 200.0
156.374741 116.0
156.509171 124.0
156.927765 148.0
157.064606 584.0
158.066788 220.0
158.126846 116.0
158.387253 88.0
159.046921 152.0
159.079346 132.0
159.830826 160.0
160.048599 160.0
160.331955 96.0
160.38237 108.0
160.611832 144.0
161.051025 348.0
161.119232 128.0
161.306244 108.0
161.870453 252.0
161.999619 148.0
163.011978 124.0
163.038757 688.0
163.403564 200.0
163.441727 104.0
164.040237 156.0
166.802353 52.0
167.041504 108.0
167.654297 148.0
168.055435 440.0
168.327591 208.0
169.023834 272.0
169.064117 608.0
170.041412 48.0
170.15303 188.0
171.026535 156.0
171.072174 192.0
171.544861 80.0
172.043488 152.0
173.05574 144.0
173.1754 64.0
173.437424 44.0
175.070068 268.0
176.068512 112.0
176.150391 176.0
176.361786 164.0
176.806122 192.0
177.054993 232.0
179.038864 324.0
179.056641 248.0
181.148956 140.0
182.743683 132.0
183.821503 32.0
184.047195 164.0
184.194092 64.0
184.445389 48.0
184.79425 128.0
185.06456 120.0
185.119064 112.0
185.403519 36.0
185.845535 56.0
187.041626 144.0
188.041641 92.0
188.16449 156.0
188.998123 100.0
189.701996 216.0
191.289795 244.0
191.981369 176.0
192.116531 128.0
192.282089 136.0
192.489136 136.0
193.113724 160.0
194.403763 144.0
194.579636 100.0
194.701828 192.0
194.96019 324.0
195.015778 176.0
196.042755 236.0
196.218353 108.0
197.055618 752.0
198.057159 224.0
199.033127 104.0
199.29155 108.0
200.045273 152.0
200.087509 44.0
200.983795 64.0
201.04866 172.0
201.254776 88.0
201.687012 160.0
202.065063 332.0
203.029053 188.0
203.069626 200.0
204.071198 192.0
205.227203 64.0
205.381195 268.0
206.990219 128.0
207.485916 144.0
207.884613 200.0
208.051086 132.0
208.631409 196.0
210.074203 124.0
211.034363 140.0
211.244156 116.0
211.762283 128.0
212.039597 140.0
212.52182 80.0
213.646194 180.0
213.867355 64.0
214.062408 176.0
214.298355 252.0
214.359543 188.0
215.068069 368.0
215.097427 208.0
216.076431 100.0
216.515518 96.0
217.049057 120.0
217.861862 176.0
217.970566 192.0
219.062119 104.0
219.188812 168.0
220.711945 120.0
222.953033 152.0
225.056305 692.0
226.061752 172.0
226.126343 148.0
227.031128 168.0
227.058121 132.0
227.703384 84.0
227.805511 128.0
228.039276 164.0
229.048706 496.0
229.680893 108.0
230.052063 120.0
230.571594 168.0
231.043304 152.0
235.020432 212.0
235.777756 180.0
237.118256 156.0
237.501526 148.0
237.578217 224.0
238.121521 180.0
238.736191 212.0
241.049683 160.0
242.05986 672.0
243.066299 544.0
243.107544 240.0
243.452133 128.0
243.595016 68.0
244.035583 152.0
244.069153 220.0
244.173157 240.0
244.991791 132.0
245.044754 136.0
245.48114 104.0
246.86142 136.0
247.058868 208.0
247.975952 168.0
251.211563 176.0
251.804993 88.0
252.686569 172.0
252.9496 160.0
253.050919 560.0
254.049377 168.0
255.548798 192.0
255.733368 152.0
255.819321 180.0
256.14093 152.0
257.295349 208.0
259.115143 176.0
260.189545 40.0
264.434937 180.0
265.513824 168.0
267.603271 88.0
269.070435 164.0
269.1586 116.0
269.253296 64.0
269.282684 112.0
269.831696 88.0
269.929779 72.0
270.046539 184.0
270.191437 156.0
270.220886 180.0
270.361603 140.0
270.456512 124.0
270.656219 176.0
270.718414 100.0
270.764282 148.0
270.787201 160.0
270.878906 88.0
271.00528 280.0
271.019043 204.0
271.05954 23948.0
271.133118 124.0
271.179901 164.0
271.26886 60.0
271.294006 72.0
271.322876 156.0
271.448303 160.0
271.619232 128.0
271.670044 48.0
271.716583 100.0
271.773926 52.0
271.845032 48.0
271.924896 64.0
272.022095 52.0
272.063416 3456.0
272.154694 44.0
272.184235 88.0
272.263062 40.0
272.315613 60.0
272.384583 112.0
272.634277 44.0
272.678864 64.0
272.738922 124.0
272.805206 68.0
273.063446 820.0
273.166931 200.0
273.209717 88.0
273.272217 76.0
273.368713 160.0
273.56842 196.0
273.818665 128.0
273.93396 60.0
273.983368 116.0
274.042664 36.0
274.107635 192.0
274.144806 92.0
274.171173 140.0
274.34259 44.0
274.487671 100.0
274.789581 148.0
274.961487 108.0
275.094727 112.0
275.263123 76.0
276.377075 88.0
277.065735 80.0
277.161835 92.0
279.436249 92.0
281.025543 100.0
282.087585 56.0
284.398865 124.0
289.046356 176.0
308.998779 144.0
310.02475 132.0
314.918671 120.0
320.313812 72.0
327.013275 148.0
331.219818 164.0
335.026855 72.0
338.394196 56.0
343.093201 144.0
392.035004 88.0
395.989716 116.0
404.1427 100.0
429.104218 84.0
433.398651 60.0
464.088409 40.0
467.202209 92.0
473.313812 80.0
635.910706 92.0
676.536743 144.0
677.665771 36.0
689.431213 52.0
712.017212 84.0
737.548767 28.0
879.786743 76.0
953.911499 64.0
968.622864 140.0
993.766296 112.0
1049.702515 80.0
1061.102051 200.0
1063.086914 96.0
1076.96106 180.0
1082.022583 184.0
1087.220703 112.0
1087.850708 192.0
1090.87915 36.0
1093.279907 104.0
1108.495239 184.0
1118.776978 180.0
1120.235474 124.0
1125.691284 192.0
1144.958618 112.0
1151.230469 140.0
1166.842407 152.0
1209.071411 144.0
1224.122192 108.0
1229.350586 144.0
1242.603516 104.0
1252.11438 176.0
1252.290405 168.0
1265.184692 80.0
1272.082397 120.0
1273.019653 164.0
1273.317993 180.0
1275.961426 132.0
1280.658081 64.0
1285.962769 196.0
1295.989014 176.0
1300.786987 204.0
1303.322144 124.0
1304.342773 152.0
1305.716064 148.0
1310.150146 164.0
1316.230347 220.0
1327.004272 208.0
1330.603027 160.0
1343.032471 120.0
1358.94397 132.0
1359.509033 256.0
1372.559082 132.0
1384.04187 256.0
1385.301025 128.0
1389.994263 92.0
1419.219971 120.0
1427.991333 124.0
1431.581177 124.0
1432.168701 160.0
1432.763794 208.0
1435.439575 220.0
1436.638794 104.0
1444.041382 88.0
1445.577271 196.0
1455.902466 168.0
1457.117798 168.0
1478.12439 200.0
1483.646729 176.0
1488.74939 140.0
1493.291504 216.0
1496.615967 176.0
1497.940674 176.0
1500.568604 64.0
1500.707397 140.0
1502.573853 216.0
