>compound MLS001332535-01!TAMOXIFEN10540-29-1
>formula C26H29NO
>ionization [M+H]+
>parentmass 372.230469
#inchi InChI=1S/C26H29NO/c1-4-25(21-11-7-5-8-12-21)26(22-13-9-6-10-14-22)23-15-17-24(18-16-23)28-20-19-27(2)3/h5-18H,4,19-20H2,1-3H3/b26-25-
#inchikey NKANXQFJJICGDU
#Ion_Source LC-ESI
#Instrument qTof
#Compound_Source NIH Pharmacologically Active Library
#PI Dorrestein
#Data_Collector VP/LMS
#Scan -1
#Precursor_MZ 372.237
#ExactMass 371.225
#Charge 1
#CAS_Number N/A
#Pubmed_ID N/A
#Smiles CC/C(=C(\c1ccccc1)/c2ccc(OCCN(C)C)cc2)/c3ccccc3
#INCHI_AUX N/A
#Library_Class 1
#SpectrumID CCMSLIB00000085147
#IonMode Positive
#UpdateWorkflowName UPDATE-SINGLE-ANNOTATED-GOLD
#LibraryQualityString Gold
#TaskID d252d724072548979f1f6f1ced849daf
##Scan# 2201
#SpectrumFile p3-F05_GF5_01_18286.mzXML
#LibraryName Pharm_Active_Library.mgf
#MQScore -1
#Organism Pharm_Active_Library
#TIC_Query 0
#RT_Query -1
#MZErrorPPM -1
#SharedPeaks 0
#MassDiff 0
#LibMZ -1
#SpecMZ 372.237
#SpecCharge 0
#internalFilename spec-00000.mgf

>collision 10
45.029575 100.0
45.319885 148.0
45.472771 76.0
45.498276 40.0
45.6824 88.0
45.707966 152.0
45.808949 140.0
45.856113 144.0
45.891167 200.0
46.20047 132.0
46.322311 192.0
46.349411 108.0
46.394142 132.0
46.406342 172.0
46.472809 84.0
46.739143 232.0
47.118214 232.0
47.289154 156.0
47.361729 176.0
47.39735 112.0
47.42065 160.0
47.515274 52.0
47.741825 208.0
48.444534 184.0
48.540886 144.0
48.569302 204.0
48.585949 76.0
48.911148 56.0
48.964058 196.0
49.018394 188.0
49.037907 172.0
49.174599 328.0
49.374401 204.0
49.398182 204.0
49.430363 204.0
49.775219 224.0
49.858109 88.0
50.03817 196.0
50.283463 192.0
50.438843 168.0
50.535015 180.0
50.716293 96.0
50.780102 152.0
50.834015 260.0
50.886536 144.0
50.907837 208.0
50.940506 180.0
51.031467 196.0
51.058487 188.0
51.075882 192.0
51.116817 176.0
51.215057 136.0
51.280605 124.0
51.388264 212.0
51.397854 132.0
51.554642 144.0
51.684776 160.0
51.723423 196.0
51.887791 104.0
51.902515 100.0
52.008686 148.0
52.053192 208.0
52.158077 188.0
52.178207 172.0
52.447418 204.0
52.476254 40.0
52.67831 212.0
52.710098 96.0
52.864838 140.0
52.892338 76.0
53.056046 192.0
53.132912 200.0
53.218552 152.0
53.273743 76.0
53.302803 180.0
53.471508 140.0
53.650684 200.0
53.668179 136.0
53.793655 156.0
53.819939 124.0
54.09774 52.0
54.121166 204.0
54.250103 108.0
54.376255 152.0
54.573112 144.0
54.642246 204.0
54.827793 196.0
54.944286 108.0
55.069771 160.0
55.306358 100.0
55.319679 192.0
55.439659 40.0
55.466339 172.0
55.491543 136.0
55.64772 188.0
55.9715 128.0
56.183159 204.0
56.238373 192.0
56.471474 88.0
56.505878 200.0
56.564247 124.0
56.628635 188.0
56.72604 96.0
56.877552 188.0
56.901573 124.0
56.967655 148.0
57.235386 152.0
57.245926 108.0
57.276051 108.0
57.377022 180.0
57.542992 88.0
57.603401 128.0
57.733395 156.0
57.971085 92.0
58.021107 208.0
58.031719 44.0
58.23204 160.0
58.253307 180.0
58.303452 136.0
58.329292 120.0
58.356659 152.0
58.398304 156.0
58.505764 152.0
58.642868 84.0
58.760292 52.0
58.909916 200.0
59.090324 144.0
59.111748 176.0
59.174507 92.0
59.341518 116.0
59.375256 108.0
59.548695 160.0
59.647038 104.0
59.727001 140.0
59.83165 176.0
59.86245 200.0
59.986912 72.0
60.050476 152.0
60.110649 212.0
60.190922 156.0
60.237259 112.0
60.613235 156.0
60.772957 112.0
60.912685 100.0
60.946869 148.0
61.105469 124.0
61.163052 40.0
61.192631 148.0
61.339081 168.0
61.367146 180.0
61.618443 68.0
62.179066 60.0
62.45089 120.0
62.620884 132.0
62.646088 228.0
62.74065 148.0
62.816349 148.0
62.871574 104.0
62.942619 128.0
63.201862 156.0
63.239845 232.0
63.269924 104.0
63.282589 68.0
63.493359 148.0
63.609192 184.0
63.631416 160.0
63.729897 200.0
63.765987 180.0
63.907986 124.0
64.048088 64.0
64.164429 132.0
64.474113 160.0
64.80217 116.0
64.856659 200.0
65.177643 120.0
65.221039 132.0
65.282135 216.0
65.436615 108.0
65.510704 140.0
65.733215 192.0
65.867645 160.0
65.902771 188.0
65.928627 100.0
65.948021 144.0
66.088722 232.0
66.27494 64.0
66.430588 144.0
66.451675 180.0
66.490623 208.0
66.544197 132.0
66.674156 80.0
66.76683 172.0
66.828644 184.0
66.843292 188.0
66.887238 232.0
66.991463 144.0
67.019157 204.0
67.435318 140.0
67.798668 148.0
67.846207 224.0
68.278076 96.0
68.483818 160.0
68.650284 132.0
68.684921 52.0
68.853287 132.0
68.897888 60.0
68.967293 200.0
69.134346 216.0
69.493942 172.0
69.640038 164.0
69.94767 148.0
69.987625 204.0
70.109238 100.0
70.259186 108.0
70.471359 160.0
70.532242 116.0
70.601746 212.0
70.62516 176.0
70.685394 128.0
70.785263 164.0
70.805931 160.0
70.911491 128.0
71.003708 68.0
71.085915 168.0
71.255508 128.0
71.408485 176.0
71.425308 180.0
71.52459 140.0
71.590256 172.0
71.64753 136.0
71.698082 188.0
72.013596 100.0
72.104836 148.0
72.289185 212.0
72.339958 152.0
72.431404 212.0
72.655182 136.0
72.787582 172.0
72.801163 148.0
72.923492 164.0
72.945595 208.0
72.971092 208.0
73.023811 140.0
73.122498 148.0
73.309845 140.0
73.401901 184.0
73.437714 80.0
73.48378 204.0
73.668167 176.0
73.859856 184.0
73.943474 112.0
74.077034 140.0
74.16272 184.0
74.394302 212.0
74.414909 128.0
74.571236 100.0
74.891685 172.0
74.961922 204.0
75.136078 176.0
75.317345 216.0
75.573219 172.0
75.950897 144.0
76.070641 124.0
76.213058 200.0
76.446083 188.0
76.522675 148.0
76.540085 148.0
76.83815 208.0
76.871841 232.0
76.904465 204.0
77.124557 144.0
77.313454 172.0
77.893837 176.0
78.187477 48.0
78.550461 36.0
78.628098 64.0
79.386482 164.0
79.410149 128.0
79.482887 208.0
79.598267 152.0
79.630241 208.0
79.83107 160.0
79.907562 76.0
79.971626 124.0
80.012573 128.0
80.087364 232.0
80.117653 180.0
80.139305 132.0
80.176453 168.0
80.235283 216.0
80.28521 224.0
80.308395 184.0
80.415451 140.0
80.669113 212.0
80.871246 192.0
81.046761 184.0
81.378601 132.0
81.525902 144.0
81.759705 84.0
82.145302 108.0
82.170563 164.0
82.277733 212.0
82.302925 168.0
82.314964 152.0
82.432388 120.0
82.454079 148.0
82.57341 104.0
83.055222 152.0
83.202217 176.0
83.336624 152.0
83.385689 192.0
83.436592 184.0
83.500237 156.0
83.782387 120.0
83.992035 124.0
84.399315 144.0
84.43589 156.0
84.474304 200.0
84.670166 180.0
84.703133 184.0
84.723289 188.0
84.913933 100.0
85.362053 172.0
85.522118 148.0
85.970482 196.0
86.080757 56.0
86.147255 112.0
86.251038 224.0
86.328392 116.0
86.587502 156.0
86.704224 80.0
86.778374 180.0
86.93605 176.0
86.952751 204.0
86.967606 124.0
87.075294 48.0
87.30204 152.0
87.564461 204.0
87.605438 112.0
87.735901 156.0
87.89444 220.0
88.380287 136.0
88.397751 228.0
88.492592 168.0
88.786804 168.0
89.085258 188.0
89.235619 164.0
89.267578 136.0
89.512222 236.0
89.536705 144.0
89.587563 204.0
89.623604 124.0
90.087509 212.0
90.505501 92.0
90.598312 252.0
90.691162 116.0
90.771767 156.0
90.803032 92.0
90.966225 180.0
91.051613 1840.0
91.242981 168.0
91.285431 72.0
91.469986 212.0
91.492836 112.0
91.64521 116.0
91.742409 112.0
91.793892 208.0
91.942696 28.0
92.056282 584.0
92.221558 80.0
92.255966 144.0
92.317154 184.0
92.454903 160.0
92.7192 252.0
92.755615 152.0
93.018425 120.0
93.039543 220.0
93.052986 112.0
93.112518 192.0
93.216263 148.0
93.248718 144.0
93.324944 156.0
93.345062 180.0
93.377754 212.0
93.487419 212.0
93.516289 180.0
93.539391 48.0
93.564415 104.0
93.745483 164.0
93.978813 156.0
94.316788 68.0
94.926674 140.0
95.460724 76.0
95.684494 168.0
95.740967 120.0
95.840317 184.0
96.136726 128.0
96.273392 260.0
96.464874 140.0
96.554825 156.0
96.711349 192.0
96.793579 176.0
97.083618 168.0
97.140495 172.0
97.704338 128.0
97.920235 172.0
97.944511 160.0
97.976028 36.0
97.989822 196.0
98.062737 112.0
98.836906 176.0
98.965569 128.0
99.645905 132.0
99.952118 224.0
100.075531 140.0
100.167145 180.0
100.350502 204.0
100.380409 84.0
100.410324 172.0
100.571945 160.0
100.601891 144.0
100.701736 200.0
100.803627 156.0
100.873581 132.0
101.323875 36.0
101.576485 96.0
101.866669 208.0
102.01226 136.0
102.048973 152.0
102.243576 228.0
102.38652 108.0
102.670692 184.0
102.706108 416.0
102.922951 108.0
103.052185 872.0
103.268539 156.0
103.383865 204.0
103.515457 176.0
103.760635 136.0
103.841751 128.0
103.882317 104.0
103.97493 244.0
104.022346 104.0
104.053612 180.0
104.274223 168.0
104.440956 216.0
104.47757 180.0
104.567108 204.0
104.624107 176.0
104.833908 188.0
104.962341 200.0
105.068985 3496.0
105.267654 172.0
105.337891 88.0
105.495247 84.0
105.546364 204.0
105.757088 124.0
105.859459 196.0
106.079109 440.0
106.115601 100.0
106.238655 168.0
106.622643 124.0
106.690475 164.0
106.82415 92.0
106.867355 144.0
107.047836 620.0
107.078918 188.0
107.126778 92.0
107.388573 188.0
107.502045 172.0
107.803558 148.0
107.877968 96.0
108.05175 144.0
108.186218 104.0
108.308403 232.0
108.47625 124.0
108.65461 212.0
108.756294 148.0
110.049133 188.0
110.105782 160.0
110.201614 92.0
110.534088 160.0
110.552925 200.0
110.674339 212.0
110.783249 48.0
110.96769 180.0
111.257225 40.0
111.347519 212.0
111.385323 148.0
111.40213 164.0
111.465164 164.0
111.618622 152.0
111.765869 180.0
111.812164 76.0
111.841637 156.0
111.894264 168.0
111.944801 92.0
111.9785 132.0
112.212418 212.0
112.24826 220.0
112.389595 164.0
112.497238 100.0
112.674637 164.0
112.706329 112.0
113.060608 188.0
113.103943 132.0
113.222511 160.0
113.88002 156.0
113.903381 204.0
114.081894 140.0
114.20948 184.0
114.396744 188.0
114.496826 196.0
114.53212 176.0
114.722694 132.0
114.750412 108.0
114.854912 128.0
114.935982 172.0
115.054047 1284.0
115.083267 64.0
115.145203 148.0
115.363159 88.0
115.455101 52.0
115.615555 136.0
115.699043 76.0
115.793259 192.0
115.807228 148.0
115.911095 184.0
116.058151 272.0
116.099747 140.0
116.153366 264.0
116.19413 180.0
116.355095 156.0
116.612885 236.0
116.825768 192.0
116.849434 128.0
116.965645 52.0
117.068436 632.0
117.092735 172.0
117.142227 152.0
117.189629 204.0
117.228416 60.0
117.306007 132.0
117.392258 108.0
117.548943 228.0
117.78508 140.0
117.808846 164.0
117.880142 32.0
117.907158 40.0
118.034317 188.0
118.074715 172.0
118.148262 72.0
118.223999 136.0
118.256462 232.0
118.340897 204.0
118.466515 112.0
118.733131 176.0
118.852448 100.0
118.956627 148.0
119.082954 380.0
119.489082 212.0
119.534782 124.0
119.59137 160.0
119.626198 108.0
119.848351 180.0
119.968224 124.0
120.057625 136.0
120.075073 168.0
120.132362 196.0
120.546646 136.0
120.673424 132.0
120.74559 136.0
120.798088 200.0
120.834038 132.0
120.995056 200.0
121.062881 340.0
121.092812 168.0
121.146172 204.0
121.376312 52.0
121.586914 116.0
121.876793 184.0
121.964706 196.0
121.991081 136.0
122.068039 148.0
122.167015 188.0
122.497238 212.0
122.616226 104.0
122.876434 112.0
123.059631 336.0
123.187729 132.0
123.273903 188.0
123.439697 196.0
123.629951 196.0
123.831429 176.0
123.849152 100.0
123.877731 208.0
124.112885 40.0
124.223778 140.0
124.239311 104.0
124.348045 196.0
124.3769 40.0
124.527885 244.0
124.554543 168.0
124.618973 112.0
124.767883 176.0
124.787895 148.0
125.131035 180.0
125.43576 120.0
125.605232 88.0
125.647484 192.0
125.661308 208.0
125.873062 140.0
125.924248 240.0
125.995918 224.0
126.042839 152.0
126.07412 184.0
126.268631 176.0
126.34021 176.0
126.434196 96.0
126.633461 204.0
126.884445 160.0
127.054512 648.0
127.179115 168.0
127.24118 212.0
127.282936 188.0
127.351219 164.0
127.490524 116.0
127.636642 132.0
127.758102 240.0
127.82048 72.0
127.854858 188.0
127.89312 52.0
127.93364 184.0
128.060547 7628.0
128.242264 36.0
128.264801 36.0
128.485809 200.0
128.50386 36.0
128.576065 44.0
128.617264 112.0
128.695709 92.0
128.716034 132.0
128.745392 148.0
128.876419 44.0
128.961136 140.0
128.993942 164.0
129.010544 140.0
129.024979 176.0
129.06839 19280.0
129.138794 68.0
129.181641 112.0
129.211044 88.0
129.26535 144.0
129.281204 44.0
129.303833 76.0
129.319672 68.0
129.369476 64.0
129.444641 96.0
129.509872 32.0
129.6073 220.0
129.732361 220.0
129.761429 152.0
129.909592 96.0
129.961029 124.0
129.99733 180.0
130.051804 200.0
130.072571 1764.0
130.097198 164.0
130.159042 68.0
130.206207 80.0
130.299332 76.0
130.424332 28.0
130.578949 204.0
130.642639 140.0
130.881622 224.0
130.936279 112.0
131.011444 92.0
131.047867 404.0
131.083008 184.0
131.191483 92.0
131.305496 68.0
131.43782 64.0
131.565643 156.0
131.650131 52.0
131.736923 100.0
131.940323 120.0
132.056946 208.0
132.141586 200.0
132.52626 172.0
132.872482 204.0
133.063995 308.0
133.085938 44.0
133.104309 36.0
133.175507 104.0
133.437485 180.0
133.582382 140.0
133.902588 148.0
134.141541 172.0
134.280319 204.0
135.081863 168.0
135.111938 264.0
135.255417 220.0
135.308655 116.0
135.595901 104.0
135.677048 220.0
136.172104 124.0
136.234451 112.0
136.543198 180.0
136.824768 88.0
136.848038 252.0
137.591812 92.0
137.708572 72.0
137.823044 108.0
138.417206 52.0
138.628036 212.0
138.703049 48.0
139.628174 76.0
139.675217 124.0
139.71051 192.0
139.731674 172.0
139.785797 60.0
139.8134 204.0
139.868179 180.0
140.134293 68.0
140.424255 144.0
140.45256 284.0
140.480881 128.0
140.611542 160.0
140.79245 220.0
140.943634 176.0
141.06868 1092.0
141.201324 160.0
141.269928 84.0
141.845383 280.0
142.020859 164.0
142.073486 188.0
142.277145 184.0
142.348373 116.0
142.52179 92.0
142.866547 244.0
142.897476 212.0
143.086945 496.0
143.872269 116.0
143.929581 108.0
144.161301 168.0
144.584595 44.0
144.929443 172.0
144.970184 144.0
145.030106 92.0
145.065063 972.0
145.245911 168.0
145.293884 172.0
145.91835 136.0
146.055435 148.0
146.594742 188.0
146.640533 272.0
146.857544 148.0
147.078888 636.0
147.241318 144.0
147.267883 144.0
148.046677 116.0
148.080231 164.0
148.458984 132.0
148.509598 104.0
148.596939 196.0
148.822662 124.0
149.513062 92.0
150.349472 168.0
150.549194 152.0
150.671326 112.0
150.795959 176.0
151.051361 192.0
151.099197 200.0
151.116318 96.0
151.319473 136.0
151.454163 132.0
151.836533 112.0
152.059082 1196.0
152.202194 116.0
152.33728 208.0
152.355896 296.0
152.792099 204.0
152.897903 128.0
153.020981 200.0
153.067429 1056.0
153.129333 184.0
153.291946 48.0
153.684021 56.0
153.711166 136.0
153.985199 200.0
154.072281 144.0
154.101303 128.0
154.320465 180.0
154.348495 124.0
154.836014 100.0
154.865738 144.0
155.006958 172.0
155.05957 1436.0
155.082581 788.0
155.192871 36.0
155.568817 152.0
155.62709 136.0
155.741333 144.0
156.062454 192.0
156.089447 544.0
156.377884 148.0
156.64183 236.0
156.681686 168.0
156.853638 172.0
156.983292 220.0
157.060608 196.0
157.083054 120.0
157.101807 140.0
157.215302 128.0
158.037445 40.0
158.071213 164.0
158.095001 64.0
158.242691 92.0
158.398254 172.0
158.814072 252.0
158.884323 64.0
158.901886 88.0
158.982178 112.0
159.054962 152.0
159.074707 180.0
159.220688 224.0
159.2966 196.0
159.557404 92.0
159.695724 100.0
160.111008 188.0
160.890182 144.0
161.17308 168.0
161.580154 92.0
161.848465 136.0
162.056168 128.0
162.170212 100.0
162.370514 72.0
163.13736 216.0
163.399323 148.0
163.86525 128.0
163.977371 44.0
164.260406 204.0
164.487534 120.0
164.616196 148.0
164.820023 216.0
164.91156 112.0
164.970352 84.0
165.016373 116.0
165.070007 1908.0
165.11203 192.0
165.428268 160.0
165.67157 148.0
165.709991 132.0
166.075104 676.0
166.158691 36.0
166.181122 236.0
166.438461 108.0
166.62854 140.0
166.705627 200.0
166.882996 128.0
166.998718 192.0
167.083176 2284.0
167.171097 144.0
168.062698 196.0
168.086746 400.0
168.145279 120.0
168.509399 144.0
168.876495 128.0
169.023956 188.0
169.063126 284.0
169.100494 124.0
169.48613 108.0
169.51857 80.0
169.544479 160.0
169.604095 80.0
169.764847 136.0
170.026886 176.0
170.072678 196.0
170.348862 184.0
170.369644 76.0
170.499557 224.0
171.078949 940.0
171.31662 216.0
171.42865 268.0
171.449509 92.0
171.952866 112.0
171.994629 156.0
172.078171 136.0
172.109512 124.0
172.344589 144.0
172.402084 120.0
172.880676 104.0
173.454285 120.0
173.473923 132.0
173.509338 104.0
173.666687 172.0
173.871338 236.0
173.96846 76.0
174.383499 120.0
175.11496 132.0
175.497086 132.0
175.673798 152.0
175.737106 176.0
176.016907 104.0
176.063232 164.0
176.193878 124.0
176.222946 108.0
176.289001 104.0
176.841766 176.0
176.865585 128.0
176.955597 60.0
177.068939 668.0
177.416611 104.0
177.660599 168.0
177.827774 124.0
177.883514 132.0
177.904755 140.0
177.996429 204.0
178.07579 10596.0
178.269852 72.0
178.425476 48.0
178.571732 68.0
178.64888 92.0
179.082611 5400.0
179.261276 192.0
179.333237 32.0
179.367889 80.0
179.596878 156.0
179.890747 196.0
179.909439 68.0
179.945755 232.0
179.955963 140.0
179.986862 68.0
180.025391 76.0
180.089157 548.0
180.270035 44.0
180.494583 64.0
180.601562 96.0
180.641678 44.0
180.89592 132.0
181.064468 996.0
181.097 588.0
181.485336 140.0
181.58725 52.0
182.072769 172.0
182.093277 128.0
182.946945 192.0
183.077255 1708.0
183.121979 64.0
183.391418 144.0
183.496552 140.0
183.612518 204.0
184.08432 388.0
184.544174 36.0
184.595551 64.0
184.687515 120.0
185.074524 88.0
185.250565 144.0
186.925827 124.0
187.402359 116.0
187.560425 156.0
187.860397 140.0
187.887665 208.0
188.157867 48.0
188.454269 208.0
188.477448 176.0
188.726181 92.0
189.067932 668.0
189.109192 140.0
189.246063 140.0
189.890076 176.0
190.046448 152.0
190.075699 1028.0
190.260529 132.0
190.903503 136.0
190.939255 120.0
191.083664 6452.0
191.134583 140.0
191.517273 48.0
191.613983 76.0
191.67981 124.0
191.814865 64.0
191.96376 188.0
192.029953 60.0
192.0905 2760.0
192.156845 52.0
192.372116 96.0
192.430084 64.0
192.485321 88.0
192.614105 196.0
192.924637 92.0
192.943985 72.0
193.099518 4316.0
193.192474 160.0
193.242691 40.0
193.439194 192.0
193.472412 124.0
193.538864 160.0
193.631119 96.0
193.893463 68.0
194.032059 264.0
194.071335 2212.0
194.102814 512.0
194.134659 196.0
194.195679 112.0
194.351028 136.0
194.478699 132.0
194.770248 64.0
194.848038 124.0
194.98143 128.0
195.077576 1488.0
195.104095 180.0
195.159332 124.0
195.687378 108.0
195.743698 52.0
195.802185 64.0
195.921951 192.0
196.036194 84.0
196.095657 180.0
196.121399 152.0
196.404236 104.0
196.705597 56.0
196.879684 84.0
196.95134 104.0
197.093826 96.0
197.275497 104.0
197.804138 132.0
198.224335 140.0
198.56076 160.0
199.063126 120.0
199.124908 232.0
199.335617 160.0
199.639221 120.0
199.709534 172.0
200.00499 184.0
200.131683 148.0
200.33728 176.0
200.368271 160.0
200.402786 156.0
200.562729 116.0
200.686768 172.0
200.813675 252.0
200.988586 156.0
201.078888 104.0
201.300323 120.0
201.680511 232.0
201.756851 48.0
201.788559 220.0
202.077881 1000.0
202.26889 176.0
202.376465 96.0
202.512405 128.0
202.739059 236.0
202.829773 88.0
203.082703 1620.0
203.13887 48.0
203.226822 48.0
204.089096 1580.0
204.147186 132.0
204.522751 92.0
204.873016 108.0
204.89296 180.0
204.969894 152.0
204.992691 224.0
205.062607 180.0
205.100159 2736.0
205.523087 128.0
205.61441 100.0
205.680054 136.0
205.702896 108.0
205.725739 140.0
205.837097 104.0
205.979889 32.0
206.069824 576.0
206.105362 3052.0
206.15419 68.0
206.291382 56.0
206.465805 148.0
206.640305 120.0
206.774796 76.0
206.820587 56.0
207.000961 180.0
207.078552 6412.0
207.114044 2144.0
207.192871 144.0
207.32756 40.0
207.402069 44.0
207.428802 76.0
207.576965 72.0
207.621124 160.0
207.668747 84.0
207.875305 80.0
207.89827 132.0
207.992981 156.0
208.084625 1904.0
208.117996 336.0
208.192352 128.0
208.239929 32.0
208.340469 144.0
208.5215 84.0
208.849289 64.0
208.886673 136.0
209.093155 2584.0
209.148544 88.0
209.306885 68.0
209.35585 64.0
209.49411 56.0
209.574768 60.0
209.655457 176.0
209.795013 136.0
210.096802 556.0
210.307297 68.0
210.549835 180.0
210.578705 148.0
210.847412 52.0
210.974594 64.0
210.997726 144.0
211.105392 120.0
211.344818 108.0
211.443207 76.0
211.715347 104.0
211.842804 56.0
212.118591 144.0
212.329773 52.0
212.628601 128.0
213.273422 52.0
213.968689 140.0
214.318207 228.0
214.551392 116.0
214.764496 152.0
215.085464 2488.0
215.499954 76.0
215.675293 32.0
216.091324 1400.0
216.228104 180.0
216.456467 52.0
216.520889 48.0
216.731812 200.0
216.969223 144.0
217.100128 660.0
217.327057 128.0
217.359329 120.0
217.585342 96.0
217.638199 60.0
217.745499 144.0
217.785461 140.0
217.8526 48.0
218.069092 196.0
218.108353 400.0
218.458206 124.0
218.49057 76.0
218.522934 152.0
218.743652 104.0
219.014572 172.0
219.077454 584.0
219.111313 408.0
219.329865 36.0
219.54805 52.0
219.61293 72.0
219.967041 164.0
220.085327 1400.0
220.112579 164.0
220.933395 164.0
220.965942 52.0
221.047852 144.0
221.093628 2940.0
221.128922 916.0
221.575851 68.0
221.890015 104.0
221.913742 28.0
222.10022 1452.0
222.139709 168.0
222.204651 48.0
222.284531 80.0
222.729874 44.0
222.768494 184.0
222.937866 132.0
222.985413 104.0
223.109253 1084.0
223.360062 64.0
223.526672 124.0
223.556442 140.0
223.607025 152.0
223.63382 48.0
223.732056 124.0
223.773743 124.0
223.881729 120.0
224.089462 72.0
224.116989 164.0
224.381546 60.0
224.575378 72.0
224.63504 168.0
224.90361 40.0
224.942413 164.0
225.11261 48.0
225.354553 104.0
225.534561 104.0
225.710266 152.0
226.08049 264.0
226.111145 156.0
226.168015 100.0
226.194946 204.0
226.548325 64.0
227.087891 336.0
227.474991 92.0
227.583069 136.0
227.736237 56.0
227.817337 176.0
228.030685 196.0
228.092178 1316.0
228.253159 48.0
228.289246 92.0
228.844864 56.0
229.09816 1104.0
229.33699 76.0
229.388229 72.0
229.572159 32.0
229.602325 52.0
229.801422 48.0
230.063995 140.0
230.103714 860.0
230.269333 104.0
230.489868 164.0
230.997803 140.0
231.111664 748.0
231.194489 112.0
231.297394 160.0
231.324631 136.0
231.363998 44.0
232.077866 128.0
232.125549 344.0
232.166977 128.0
232.737488 228.0
233.094864 292.0
233.133759 184.0
233.521561 144.0
233.582397 40.0
234.102112 2160.0
234.416641 112.0
235.104584 448.0
235.228226 228.0
236.04985 88.0
236.112381 296.0
236.202774 68.0
236.38942 36.0
236.949768 148.0
237.123535 340.0
237.556793 56.0
237.691788 172.0
237.783859 108.0
238.109314 84.0
238.45343 132.0
239.084869 1924.0
239.125549 124.0
239.299393 36.0
239.364059 140.0
239.471848 56.0
239.588913 56.0
239.647446 180.0
239.746063 176.0
240.089935 1556.0
240.538757 28.0
240.563446 120.0
241.04837 188.0
241.099075 2364.0
241.338943 40.0
241.468826 44.0
241.509033 112.0
241.932983 76.0
241.976334 44.0
242.105682 844.0
242.180725 60.0
242.227188 52.0
242.698273 64.0
243.048782 152.0
243.077621 124.0
243.11467 1672.0
243.259842 76.0
243.312622 184.0
243.514465 148.0
243.803406 116.0
243.994965 120.0
244.088318 148.0
244.121063 604.0
244.830078 128.0
245.05394 148.0
245.096222 292.0
245.127014 396.0
245.79335 76.0
246.111755 184.0
246.139847 144.0
246.314758 56.0
246.783554 152.0
247.018112 208.0
247.115097 148.0
248.123627 144.0
249.021118 92.0
249.124985 1748.0
249.206467 36.0
249.34787 40.0
249.665421 116.0
249.838425 48.0
249.939102 64.0
250.130493 236.0
250.231827 100.0
250.508972 80.0
250.581436 156.0
250.893463 72.0
251.076355 136.0
251.246689 140.0
251.417084 148.0
251.483368 176.0
251.938095 140.0
252.036041 204.0
252.091919 2072.0
252.203537 44.0
252.304703 120.0
252.488098 68.0
252.586151 80.0
252.719025 68.0
252.937408 132.0
253.054535 144.0
253.097778 5284.0
253.247711 68.0
253.31424 76.0
253.349091 236.0
254.065582 124.0
254.106613 5696.0
254.16394 220.0
254.325806 88.0
254.475006 84.0
254.535339 152.0
254.567093 144.0
254.756561 172.0
254.808502 68.0
254.945145 264.0
255.077118 228.0
255.11554 3440.0
255.155441 184.0
255.204727 176.0
255.345734 100.0
255.533417 44.0
255.61615 56.0
255.673431 192.0
255.858063 88.0
255.982239 72.0
256.082977 264.0
256.120972 768.0
256.256195 96.0
256.377258 108.0
256.890625 52.0
256.922546 92.0
256.988647 72.0
257.093475 660.0
257.131714 888.0
257.168243 200.0
257.51947 176.0
257.6185 108.0
258.098053 164.0
258.129242 176.0
258.149384 168.0
258.305817 148.0
258.382599 204.0
258.904358 144.0
259.10968 200.0
259.141418 116.0
259.519623 144.0
260.113159 176.0
260.321869 140.0
260.864868 72.0
260.983826 76.0
261.122101 164.0
261.160706 144.0
261.659515 44.0
261.736786 108.0
261.981567 148.0
262.33606 108.0
262.526306 128.0
263.449463 92.0
264.005432 92.0
264.099213 124.0
264.497223 116.0
264.568451 168.0
264.6008 52.0
265.100189 1748.0
265.141418 148.0
265.355743 44.0
265.453003 180.0
265.959137 32.0
266.050049 104.0
266.103271 864.0
266.277344 184.0
266.335815 176.0
266.400787 60.0
266.735504 100.0
266.992371 40.0
267.115143 1268.0
267.330719 64.0
267.571594 144.0
267.65625 28.0
267.708344 28.0
267.734406 76.0
267.80658 120.0
267.913544 200.0
267.975464 136.0
268.084381 456.0
268.121857 676.0
268.369843 136.0
268.572052 124.0
268.820007 136.0
269.094513 912.0
269.132202 652.0
269.208496 80.0
269.237885 124.0
269.996094 60.0
270.104309 2184.0
270.133545 444.0
270.277435 48.0
270.408356 52.0
270.644043 60.0
270.889709 40.0
271.007629 128.0
271.063354 116.0
271.108215 2432.0
271.143219 608.0
271.263275 60.0
271.335419 64.0
271.37146 44.0
271.512482 48.0
271.945557 100.0
272.050629 88.0
272.113678 320.0
272.1539 252.0
272.310028 64.0
272.707611 144.0
272.852234 112.0
272.980469 100.0
273.128601 124.0
273.158081 96.0
273.622131 68.0
274.037109 104.0
274.112915 128.0
274.135986 116.0
274.251343 56.0
275.217957 52.0
276.096985 208.0
276.176392 240.0
276.603241 176.0
277.424805 168.0
278.109436 296.0
278.709259 128.0
278.769073 228.0
278.84552 52.0
279.114655 1104.0
279.234528 140.0
279.33432 92.0
279.816895 48.0
280.006683 120.0
280.124207 988.0
280.223236 192.0
280.583191 228.0
281.000092 124.0
281.0961 308.0
281.129761 676.0
281.310486 60.0
281.437347 32.0
282.098877 280.0
282.137665 296.0
283.012238 156.0
283.109039 2172.0
283.618652 48.0
283.645447 68.0
283.873444 36.0
284.000885 76.0
284.116669 736.0
284.171082 132.0
284.716919 144.0
285.124298 3660.0
285.344177 160.0
285.414795 52.0
285.582947 104.0
285.677155 60.0
285.909302 92.0
286.126282 692.0
287.06485 72.0
287.124512 256.0
287.70932 96.0
287.888275 60.0
288.117981 160.0
288.624969 72.0
289.101959 148.0
290.749054 44.0
290.908569 116.0
291.085144 96.0
291.992523 212.0
293.132812 304.0
294.142548 196.0
294.217682 84.0
294.425995 56.0
294.69928 84.0
295.01712 156.0
295.144836 124.0
296.118988 320.0
297.127289 668.0
297.829529 84.0
297.892395 120.0
298.131317 2144.0
298.198212 76.0
298.325409 160.0
298.480133 36.0
298.597046 40.0
298.786255 104.0
298.844727 88.0
299.141205 1652.0
299.17749 312.0
299.305969 32.0
299.65387 100.0
299.705566 48.0
299.891663 64.0
300.070923 188.0
300.149109 2256.0
300.184723 96.0
300.757446 88.0
300.978394 148.0
301.15387 280.0
301.213257 28.0
301.37561 56.0
301.531128 80.0
301.914886 124.0
302.022125 32.0
302.148834 268.0
302.506592 80.0
303.3172 116.0
304.719269 72.0
307.149261 132.0
307.948608 244.0
308.5112 140.0
309.16452 144.0
309.347321 52.0
310.086395 64.0
310.169525 140.0
310.952728 164.0
311.137909 196.0
312.147278 140.0
312.879089 180.0
313.171356 36.0
313.25943 96.0
313.453217 144.0
315.130005 144.0
315.185852 40.0
316.062775 120.0
316.137115 56.0
316.303467 56.0
319.493805 92.0
322.292725 128.0
322.471405 184.0
323.687775 92.0
323.727173 152.0
323.752258 60.0
324.623108 188.0
325.150238 176.0
326.073517 64.0
326.152588 64.0
326.41864 232.0
326.918671 108.0
327.048248 204.0
327.094666 188.0
327.17038 1328.0
327.25705 52.0
327.444305 52.0
327.617218 72.0
327.673065 40.0
327.793762 60.0
327.97757 152.0
328.031647 60.0
328.118164 56.0
328.177399 968.0
330.795227 88.0
333.246918 116.0
333.784882 112.0
333.919434 104.0
334.978668 68.0
335.846252 88.0
336.043243 104.0
337.328796 152.0
339.283752 128.0
341.151672 200.0
344.439575 172.0
349.440765 56.0
350.636139 112.0
350.826233 52.0
355.757019 124.0
357.181274 124.0
357.85495 148.0
358.736542 112.0
366.129242 60.0
368.288025 124.0
369.056183 36.0
369.144135 116.0
370.211853 100.0
370.269287 116.0
370.573517 132.0
371.028015 108.0
371.169891 80.0
371.273438 164.0
371.70694 116.0
372.060059 124.0
372.177643 288.0
372.230469 13052.0
372.338257 152.0
372.352814 68.0
372.365692 168.0
372.459442 36.0
372.502411 44.0
372.640015 96.0
372.705322 96.0
372.832153 32.0
372.958984 96.0
373.128143 176.0
373.171753 128.0
373.231171 4312.0
373.401154 48.0
373.605042 60.0
373.712769 60.0
373.851288 56.0
373.912872 84.0
373.962891 84.0
374.043732 80.0
374.139984 44.0
374.204468 96.0
374.23761 540.0
374.290131 76.0
374.355621 56.0
374.563599 104.0
374.617523 104.0
374.887238 60.0
375.202515 176.0
375.677673 92.0
375.704681 56.0
375.747131 116.0
375.99408 48.0
376.129181 36.0
376.407166 40.0
376.523041 68.0
376.604126 48.0
377.141235 88.0
384.006134 92.0
385.278717 48.0
385.337311 96.0
386.428192 92.0
387.559753 36.0
390.909363 40.0
391.169128 64.0
397.057617 80.0
403.355774 72.0
409.631989 128.0
417.569824 68.0
430.087738 104.0
431.045898 76.0
434.918335 120.0
441.058258 60.0
443.31955 72.0
445.059265 160.0
445.412048 160.0
456.783539 148.0
461.466309 84.0
469.699219 220.0
473.975128 60.0
490.672729 88.0
502.229675 92.0
509.805298 76.0
518.896545 48.0
521.061462 92.0
524.378906 44.0
527.007507 104.0
538.834412 104.0
541.06366 140.0
545.512756 84.0
556.294922 104.0
558.409424 96.0
577.271606 104.0
586.499573 36.0
589.859314 124.0
592.898987 160.0
614.366028 32.0
616.864868 72.0
618.244873 72.0
627.598938 160.0
634.739624 40.0
635.095703 64.0
653.627625 44.0
666.786316 180.0
674.455994 124.0
687.054565 124.0
692.538208 56.0
698.001648 132.0
698.333008 80.0
712.234741 256.0
716.613159 108.0
718.127197 176.0
749.053345 132.0
753.111694 180.0
764.38385 160.0
775.845093 40.0
786.325195 116.0
786.922546 64.0
787.74353 92.0
793.608948 200.0
797.97168 168.0
804.569214 88.0
806.455994 144.0
830.582825 20.0
842.655334 56.0
847.666321 84.0
852.930542 200.0
855.519226 136.0
862.928833 208.0
868.433655 68.0
872.462097 220.0
880.924927 216.0
889.232727 128.0
901.053406 72.0
901.465759 148.0
901.836304 236.0
911.287048 196.0
920.581787 148.0
922.055908 208.0
923.513062 136.0
929.917542 188.0
939.117493 80.0
940.520874 184.0
941.858154 64.0
948.117493 172.0
948.338135 196.0
953.112854 116.0
955.904602 124.0
956.040039 148.0
956.236938 60.0
958.053528 124.0
959.797791 72.0
960.204834 156.0
964.094421 204.0
965.38031 152.0
981.407837 100.0
985.371338 200.0
987.227844 264.0
995.23645 68.0
1000.694214 164.0
1003.624207 204.0
1004.847839 208.0
1006.394226 112.0
1015.012634 184.0
1015.405823 200.0
1015.659546 92.0
1027.868774 144.0
1039.047119 108.0
1043.041626 208.0
1043.774536 180.0
1046.721802 236.0
1048.029419 180.0
1056.4552 192.0
1059.031494 56.0
1059.543335 176.0
1065.037964 172.0
1068.893433 144.0
1069.160278 100.0
1070.429688 244.0
1075.834961 196.0
1078.454468 164.0
1079.618286 212.0
1083.231445 164.0
1085.748413 192.0
1086.319092 124.0
1089.943359 48.0
1090.442749 64.0
1090.53479 68.0
1102.966553 180.0
1105.850586 140.0
1106.347046 196.0
1107.181396 60.0
1108.214722 160.0
1109.633179 144.0
1115.309326 196.0
1123.940674 96.0
1125.502686 176.0
1133.704102 184.0
1134.729736 156.0
1141.161987 160.0
1142.540771 156.0
1143.651123 176.0
1146.271118 224.0
1146.446289 120.0
1153.499756 196.0
1153.790405 88.0
1158.995361 88.0
1160.778198 252.0
1164.884521 72.0
1166.413452 228.0
1172.144287 144.0
1173.296143 96.0
1174.496338 180.0
1182.504517 104.0
1182.730469 136.0
1184.072388 192.0
1184.723145 156.0
1186.827393 160.0
1187.794434 192.0
1194.01062 132.0
1199.091797 36.0
1199.622559 136.0
1201.988281 192.0
1202.913086 156.0
1203.872925 68.0
1204.756958 136.0
1205.994019 36.0
1209.134155 136.0
1210.186401 48.0
1213.595459 156.0
1214.164062 128.0
1221.82605 164.0
1231.78833 156.0
1238.601685 176.0
1239.134155 148.0
1247.239868 84.0
1247.928833 160.0
1248.111694 120.0
1250.341675 188.0
1252.179321 176.0
1253.095093 180.0
1253.560181 152.0
1261.762329 208.0
1268.069702 128.0
1270.487793 152.0
1271.005737 184.0
1274.961304 180.0
1276.212402 144.0
1278.965698 200.0
1281.002319 140.0
1284.331299 140.0
1287.357544 144.0
1287.993164 60.0
1290.101318 172.0
1291.538696 52.0
1298.959961 120.0
1299.706055 76.0
1300.093628 72.0
1302.261841 48.0
1305.136597 144.0
1310.030762 100.0
1313.130371 144.0
1315.944824 156.0
1322.284668 160.0
1323.298218 172.0
1326.725098 236.0
1336.68335 172.0
1340.64502 156.0
1345.963013 176.0
1346.576538 108.0
1348.73938 236.0
1353.721924 176.0
1353.905029 112.0
1355.120972 72.0
1355.809814 164.0
1355.993042 132.0
1356.623535 120.0
1359.895142 164.0
1360.203369 164.0
1369.247559 164.0
1373.478394 176.0
1374.4375 200.0
1376.393677 128.0
1376.474976 176.0
1377.036255 172.0
1381.952271 156.0
1382.115112 48.0
1383.565796 144.0
1383.861938 212.0
1384.343262 156.0
1386.951294 172.0
1387.262695 128.0
1388.664185 196.0
1390.029297 184.0
1391.640015 192.0
1393.630737 140.0
1393.801636 72.0
1399.708008 160.0
1399.789917 100.0
1403.224976 212.0
1405.970093 52.0
1406.671753 248.0
1409.75647 148.0
1410.489014 204.0
1411.341309 140.0
1412.582886 152.0
1413.892334 40.0
1421.071289 196.0
1423.601074 124.0
1425.562134 180.0
1429.231445 168.0
1431.971802 120.0
1434.051392 136.0
1437.135864 164.0
1438.418823 244.0
1438.811401 184.0
1439.234253 96.0
1440.737305 116.0
1440.84314 136.0
1443.412964 184.0
1443.662598 204.0
1451.204834 144.0
1451.811401 156.0
1452.994751 100.0
1453.639771 212.0
1454.998413 172.0
1455.894531 148.0
1456.40332 144.0
1457.239014 172.0
1459.564941 136.0
1462.83667 136.0
1465.060425 108.0
1467.118042 144.0
1468.055908 140.0
1468.887329 204.0
1469.741821 128.0
1471.14624 256.0
1473.156372 248.0
1475.179932 140.0
1476.602173 100.0
1478.063354 152.0
1478.843994 144.0
1478.99707 120.0
1481.968628 52.0
1483.769775 188.0
1484.58252 160.0
1486.56189 160.0
1487.091431 180.0
1487.313965 168.0
1488.327393 196.0
1488.458008 84.0
1488.757446 152.0
1488.849609 188.0
1489.379639 196.0
1489.517944 184.0
1489.825195 48.0
1490.547363 112.0
1493.692017 116.0
1494.269043 176.0
1495.123169 132.0
1496.231689 132.0
1497.879761 176.0
1498.596191 192.0
1499.806152 144.0
1499.867798 176.0
1500.075928 72.0
1502.320068 68.0
1503.145752 144.0
1503.535156 128.0
1504.890259 168.0
1504.944336 188.0
