>compound MLS001158631-01!1-[2-(3,4-dimethyl-2-oxochromen-7-yl)oxyacetyl]-4-phenylpiperidine-4-carboxylic acid
>formula C25H25NO6
>ionization [M+H]+
>parentmass 436.1754639720906
#inchi InChI=1S/C25H25NO6/c1-16-17(2)23(28)32-21-14-19(8-9-20(16)21)31-15-22(27)26-12-10-25(11-13-26,24(29)30)18-6-4-3-5-7-18/h3-9,14H,10-13,15H2,1-2H3,(H,29,30)
#inchikey DZAZCLWPNXRFFM
#Ion_Source LC-ESI
#Instrument qTof
#Compound_Source NIH Natural Product Library
#PI Dorrestein
#Data_Collector VVP/LMS
#Scan -1
#Precursor_MZ 436.176
#ExactMass 435.168
#Charge 1
#CAS_Number N/A
#Pubmed_ID N/A
#Smiles Cc1c(C)c2ccc(OCC(=O)N3CCC(CC3)(C(=O)O)c4ccccc4)cc2oc1=O
#INCHI_AUX N/A
#Library_Class 1
#SpectrumID CCMSLIB00000079945
#IonMode Positive
#UpdateWorkflowName UPDATE-SINGLE-ANNOTATED-GOLD
#LibraryQualityString Gold
#TaskID b1d8e8f6646f4e71acdff9ca3d919d08
##Scan# 2124
#SpectrumFile p2-B02_GB2_01_17990.mzXML
#LibraryName NIH_Natural_Products_Library.mgf
#MQScore -1
#Organism NIH_Natural_Products_Library
#TIC_Query 0
#RT_Query -1
#MZErrorPPM -1
#SharedPeaks 0
#MassDiff 0
#LibMZ -1
#SpecMZ 436.176
#SpecCharge 0
#internalFilename spec-00000.mgf

>collision 10
94.95652 140.0
95.083847 220.0
95.140137 36.0
95.205612 72.0
95.382957 100.0
95.451004 152.0
95.67086 200.0
95.867584 92.0
95.910469 236.0
96.052338 148.0
96.080704 188.0
96.101585 132.0
96.148415 164.0
96.191353 212.0
96.251877 152.0
96.267502 84.0
96.314095 168.0
96.51371 148.0
96.556732 28.0
96.605637 200.0
96.643181 208.0
96.885582 200.0
97.16201 136.0
97.193405 132.0
97.383827 360.0
97.480095 160.0
97.541023 184.0
97.625565 116.0
97.696053 220.0
97.802635 196.0
97.9188 156.0
98.035034 100.0
98.062622 204.0
98.555984 188.0
98.635033 156.0
98.9179 204.0
99.046616 192.0
99.068077 388.0
99.182526 184.0
99.205139 156.0
99.246773 148.0
99.326103 128.0
99.395546 204.0
99.44516 128.0
99.510666 48.0
99.558319 192.0
99.576195 152.0
99.613373 156.0
99.71328 44.0
99.759003 180.0
99.820633 200.0
99.932022 176.0
100.069359 172.0
100.465958 156.0
100.547768 76.0
100.570374 148.0
100.753441 152.0
100.98632 96.0
101.181419 180.0
101.225471 156.0
101.319611 144.0
101.397758 68.0
101.419807 68.0
101.47995 92.0
101.504005 220.0
101.522057 68.0
101.58223 148.0
101.801003 36.0
101.847191 104.0
101.957245 212.0
102.046814 132.0
102.174858 136.0
102.282265 204.0
102.347954 160.0
102.361252 164.0
102.478874 204.0
102.527237 220.0
102.670372 144.0
102.765182 128.0
102.789398 144.0
102.894691 168.0
102.94416 204.0
103.054611 2152.0
103.466499 180.0
103.606239 188.0
103.693367 60.0
103.719719 168.0
103.837318 196.0
103.922516 228.0
104.009781 108.0
104.053787 540.0
104.105209 216.0
104.133636 72.0
104.170204 160.0
104.782547 188.0
104.888924 244.0
104.919098 180.0
104.974152 176.0
105.031761 80.0
105.070473 868.0
105.167961 228.0
105.294548 180.0
105.343292 232.0
105.476395 148.0
105.709549 140.0
105.836464 132.0
105.897903 84.0
105.936821 172.0
106.012627 124.0
106.035172 200.0
106.07412 160.0
106.221756 176.0
106.270996 92.0
106.340767 204.0
106.566902 200.0
106.702309 144.0
106.747543 84.0
106.778389 124.0
106.792786 104.0
106.833923 224.0
106.881248 128.0
106.924461 88.0
107.031509 192.0
107.048485 388.0
107.105652 120.0
107.15303 248.0
107.202484 136.0
107.324104 236.0
107.415634 136.0
107.451981 168.0
107.553101 180.0
107.805069 152.0
108.069748 144.0
108.096642 284.0
108.167015 40.0
108.218773 100.0
108.37204 208.0
108.529564 72.0
108.633263 220.0
108.654007 200.0
108.728714 188.0
108.784752 136.0
108.805511 132.0
108.923882 252.0
109.040237 76.0
109.164978 128.0
109.223206 156.0
109.358459 104.0
109.375107 184.0
109.522949 136.0
109.541695 92.0
109.612534 136.0
109.723 116.0
109.790489 180.0
109.821007 144.0
109.835609 92.0
109.860641 116.0
109.939926 160.0
109.9608 52.0
110.012985 256.0
110.060066 1044.0
110.131798 212.0
110.19677 84.0
110.388771 140.0
110.445541 216.0
110.534912 128.0
110.60038 172.0
110.837029 92.0
110.895706 148.0
110.92086 184.0
111.044571 172.0
111.233414 168.0
111.254402 180.0
111.273956 192.0
111.460236 188.0
111.519081 104.0
111.650734 168.0
111.669563 244.0
111.971428 180.0
112.078072 392.0
112.618935 160.0
112.73513 188.0
112.798538 72.0
112.817566 196.0
113.081291 208.0
113.106575 224.0
113.278893 140.0
113.293724 180.0
113.453186 196.0
113.49295 180.0
113.522636 56.0
113.571411 160.0
113.815468 232.0
113.843071 144.0
114.034279 168.0
114.057663 220.0
114.087349 120.0
114.327774 144.0
114.449112 164.0
114.566246 340.0
114.60247 236.0
114.73674 120.0
114.990578 112.0
115.054466 4316.0
115.221199 116.0
115.400726 172.0
115.529053 168.0
115.597519 168.0
115.725952 52.0
115.792336 48.0
115.901588 148.0
115.9916 148.0
116.060478 864.0
116.158859 180.0
116.201759 272.0
116.238235 156.0
116.319794 52.0
116.405678 48.0
116.58345 228.0
116.788223 104.0
116.824791 96.0
116.935318 196.0
117.00341 160.0
117.069756 4268.0
117.16851 188.0
117.210182 60.0
117.380821 196.0
117.385666 108.0
117.451645 208.0
117.61779 76.0
117.660965 116.0
117.689034 60.0
117.704147 192.0
117.7603 52.0
117.792694 184.0
117.969894 148.0
118.076393 620.0
118.108292 124.0
118.175354 152.0
118.318199 212.0
118.575966 100.0
118.660507 176.0
118.766769 84.0
118.873077 168.0
118.897949 156.0
118.906067 196.0
118.955551 64.0
118.977257 92.0
119.027199 128.0
119.046738 168.0
119.084602 1108.0
119.232323 188.0
119.258781 180.0
119.357185 176.0
119.38575 100.0
119.466225 192.0
119.485809 144.0
119.516266 176.0
119.649033 156.0
119.666451 56.0
119.681694 172.0
119.794945 200.0
119.995445 204.0
120.083603 204.0
120.121933 88.0
120.150291 192.0
120.313972 40.0
120.381653 96.0
120.576897 68.0
120.628548 176.0
120.729126 160.0
120.880066 172.0
120.987312 100.0
121.06176 172.0
121.370735 68.0
121.583519 120.0
121.612053 120.0
121.820656 100.0
122.159187 184.0
122.21859 48.0
122.297821 176.0
122.531242 176.0
122.639221 188.0
122.839882 92.0
122.868561 152.0
123.102524 196.0
123.305771 144.0
123.427361 172.0
123.770332 136.0
123.854492 96.0
123.874428 188.0
124.082664 188.0
124.211365 144.0
124.462151 84.0
124.577637 192.0
124.739861 196.0
124.775429 104.0
124.891068 228.0
125.022331 128.0
125.184845 208.0
125.465584 216.0
125.70871 136.0
125.777893 172.0
125.811378 196.0
125.878365 168.0
125.947594 128.0
125.998978 140.0
126.05291 480.0
126.392487 208.0
126.636505 256.0
126.699226 128.0
126.882996 64.0
127.033249 168.0
127.053726 620.0
127.118507 156.0
127.147682 200.0
127.338516 132.0
127.585693 188.0
127.684631 156.0
127.702629 100.0
127.734116 168.0
127.783318 156.0
127.835358 104.0
128.019958 180.0
128.062439 10668.0
128.096527 168.0
128.141586 64.0
128.186661 144.0
128.246063 100.0
128.404846 164.0
128.448181 76.0
128.519608 176.0
128.629272 144.0
128.705475 36.0
128.752884 52.0
128.80484 212.0
128.854538 160.0
128.976562 204.0
129.014999 232.0
129.068939 2840.0
129.10997 44.0
129.130325 60.0
129.190445 112.0
129.293213 100.0
129.395081 216.0
129.54454 40.0
129.687302 160.0
129.72583 96.0
129.934479 132.0
130.022964 148.0
130.074432 1892.0
130.170532 164.0
130.368164 120.0
130.420441 132.0
130.479538 64.0
130.581863 84.0
130.77153 188.0
130.87088 144.0
131.04924 848.0
131.080307 1540.0
131.126007 32.0
131.147171 112.0
131.169327 136.0
131.219467 56.0
131.237717 72.0
131.28241 120.0
131.301559 32.0
131.338058 228.0
131.408783 96.0
131.427032 172.0
131.443008 60.0
131.474945 108.0
131.687271 164.0
131.767227 220.0
131.806076 80.0
131.939514 172.0
131.959213 96.0
132.02095 148.0
132.055176 212.0
132.084824 604.0
132.128448 68.0
132.169632 40.0
132.199387 112.0
132.341309 116.0
132.586411 132.0
132.69873 64.0
132.799637 104.0
132.902863 160.0
132.96666 200.0
133.003845 144.0
133.06601 668.0
133.102615 172.0
133.139313 184.0
133.231186 184.0
133.714066 132.0
133.783112 204.0
133.905151 148.0
133.923584 136.0
134.00882 40.0
134.071075 296.0
134.28775 168.0
134.550812 140.0
134.640869 164.0
134.687057 144.0
134.724014 128.0
134.754059 120.0
134.862671 176.0
134.936646 168.0
135.022202 176.0
135.047958 168.0
135.077377 264.0
135.198029 240.0
135.221161 76.0
135.434174 176.0
135.533798 180.0
135.965118 144.0
136.054489 72.0
136.083511 132.0
136.522675 144.0
136.571518 172.0
136.77861 148.0
136.96077 172.0
137.027725 144.0
137.076721 76.0
137.515152 112.0
137.587524 124.0
137.653809 144.0
137.842117 168.0
137.958618 156.0
138.167114 160.0
138.188171 100.0
138.508896 72.0
138.585556 72.0
138.865158 168.0
138.881577 128.0
139.092758 152.0
139.181976 56.0
139.224243 76.0
139.393387 60.0
139.409836 152.0
139.7202 64.0
139.863754 212.0
139.929672 64.0
140.009735 144.0
140.379715 188.0
140.554276 200.0
140.714783 176.0
140.769089 216.0
141.070068 1080.0
141.166077 148.0
141.260696 120.0
141.438156 128.0
141.49498 36.0
141.544693 216.0
141.696289 120.0
141.750778 172.0
141.800552 164.0
141.89537 240.0
141.914337 136.0
141.980728 252.0
141.99733 204.0
142.078659 1148.0
142.101715 176.0
142.172897 176.0
142.202057 28.0
142.367569 44.0
142.393692 204.0
142.438812 120.0
142.605148 140.0
142.669327 212.0
142.804871 172.0
142.864334 216.0
142.90715 32.0
142.994659 408.0
143.021378 116.0
143.04718 124.0
143.086258 19432.0
143.214249 48.0
143.238068 44.0
143.300003 232.0
143.383408 184.0
143.441391 160.0
143.50499 120.0
143.527496 108.0
143.555054 44.0
143.614288 172.0
143.655975 140.0
143.681473 180.0
143.743515 72.0
143.784073 68.0
143.80368 188.0
143.84137 124.0
143.888153 180.0
143.908203 60.0
143.933334 176.0
143.972687 140.0
144.01181 84.0
144.057358 2756.0
144.083313 5724.0
144.150742 84.0
144.227814 280.0
144.257019 36.0
144.352646 68.0
144.385056 164.0
144.45549 188.0
144.484207 156.0
144.545425 116.0
144.601456 92.0
144.716354 72.0
144.766647 144.0
144.857651 204.0
144.888794 68.0
145.007996 124.0
145.066452 3772.0
145.087265 1400.0
145.135666 84.0
145.175079 164.0
145.207611 120.0
145.262772 112.0
145.313156 140.0
145.337143 112.0
145.445145 40.0
145.507553 200.0
145.620422 120.0
145.671158 192.0
145.731445 80.0
145.754944 108.0
145.829453 44.0
145.926727 60.0
146.004959 88.0
146.069275 588.0
146.098221 156.0
146.163727 144.0
146.388062 200.0
146.54657 76.0
146.580307 128.0
146.626099 48.0
146.650192 56.0
146.765915 84.0
146.816544 128.0
146.963699 56.0
147.011963 132.0
147.045624 716.0
147.081146 2152.0
147.188171 36.0
147.618301 160.0
147.695694 200.0
147.823914 64.0
147.85054 116.0
148.04158 448.0
148.081482 352.0
148.254974 68.0
148.41011 156.0
148.555634 80.0
148.723068 164.0
148.927017 60.0
149.055542 168.0
149.062683 152.0
149.352371 60.0
149.483749 180.0
149.573807 120.0
149.617401 176.0
149.656586 188.0
149.810013 244.0
150.304428 224.0
150.509979 208.0
150.531967 204.0
150.62233 132.0
150.773819 136.0
150.964493 140.0
150.991394 116.0
151.473587 112.0
151.500519 164.0
151.539719 92.0
151.733353 172.0
151.919724 128.0
152.322311 80.0
152.339508 48.0
152.396027 172.0
152.560684 48.0
152.681168 160.0
152.821381 168.0
153.023209 224.0
153.069 324.0
153.40506 212.0
153.575211 88.0
153.609741 104.0
153.965164 136.0
154.071381 180.0
154.281433 184.0
154.399536 152.0
154.90506 152.0
155.061737 432.0
155.095657 208.0
155.157822 132.0
155.261978 52.0
155.726074 184.0
155.822968 164.0
156.004379 64.0
156.066177 696.0
156.310303 116.0
156.332703 164.0
156.457153 144.0
156.504456 84.0
156.604065 52.0
156.683777 168.0
156.728622 188.0
157.035263 160.0
157.066177 592.0
157.092621 200.0
157.112579 152.0
157.804398 112.0
157.858078 140.0
157.901489 184.0
157.971954 180.0
157.99086 208.0
158.016983 144.0
158.047012 76.0
158.069794 336.0
158.097321 22296.0
158.173462 68.0
158.213272 112.0
158.220261 144.0
158.302338 36.0
158.347412 72.0
158.377472 140.0
158.415039 60.0
158.435089 44.0
158.469116 116.0
158.495209 48.0
158.570389 80.0
158.643082 124.0
158.675674 56.0
158.800919 180.0
158.866272 200.0
158.883835 80.0
158.954086 100.0
159.074142 176.0
159.104218 8368.0
159.182297 180.0
159.207626 132.0
159.225204 60.0
159.265396 124.0
159.310608 32.0
159.343277 52.0
159.363373 80.0
159.423676 80.0
159.467896 108.0
159.574493 60.0
159.665024 208.0
159.790787 44.0
159.881378 112.0
159.903168 140.0
159.917572 148.0
159.992126 108.0
160.017303 180.0
160.051834 228.0
160.078415 300.0
160.111679 6168.0
160.175964 36.0
160.193588 120.0
160.256577 112.0
160.274216 56.0
160.334702 172.0
160.385101 296.0
160.402756 108.0
160.420395 180.0
160.541412 132.0
160.778564 168.0
160.86438 180.0
160.892151 100.0
161.000717 132.0
161.018402 124.0
161.060165 424.0
161.088928 152.0
161.115662 860.0
161.199326 116.0
161.25589 52.0
161.335861 144.0
161.372177 100.0
161.491028 60.0
161.55426 160.0
161.599808 100.0
161.665588 124.0
161.741516 132.0
161.903564 72.0
161.947617 68.0
161.964355 212.0
161.984619 168.0
162.009949 60.0
162.068695 2916.0
162.129944 244.0
162.352127 188.0
162.466263 76.0
162.491638 156.0
162.979126 68.0
163.071564 612.0
163.09407 88.0
163.131607 152.0
163.286713 128.0
163.352844 204.0
163.673523 180.0
163.837021 104.0
164.60936 144.0
164.683426 32.0
164.910812 152.0
164.954269 100.0
164.974716 196.0
165.064865 172.0
165.186966 228.0
165.506882 204.0
165.701538 184.0
165.968094 176.0
165.988617 108.0
166.46077 128.0
166.620026 128.0
166.851318 60.0
166.869324 48.0
167.075729 188.0
167.316986 180.0
167.389069 212.0
167.422546 32.0
167.448303 40.0
167.597717 120.0
167.72142 116.0
167.739471 112.0
167.963806 168.0
168.081238 156.0
168.32254 80.0
168.715271 132.0
168.836792 72.0
168.85379 80.0
169.033234 184.0
169.075958 160.0
169.243073 176.0
169.274139 76.0
169.408813 148.0
169.46582 204.0
169.761322 200.0
169.865067 120.0
170.099762 176.0
170.134949 172.0
170.176483 232.0
170.503784 168.0
170.964111 52.0
171.036987 180.0
171.080673 332.0
171.097794 200.0
171.495407 156.0
172.037979 72.0
172.075562 152.0
172.112961 4428.0
172.1633 100.0
172.184204 148.0
172.218155 44.0
172.320038 92.0
172.382736 116.0
172.850815 200.0
173.061935 1596.0
173.097855 544.0
173.116196 1312.0
173.479401 40.0
173.529221 76.0
173.55806 168.0
173.720657 72.0
173.857101 64.0
173.915359 80.0
173.94371 136.0
173.980469 148.0
174.040848 176.0
174.062729 1304.0
174.100235 52.0
174.128372 496.0
174.161652 120.0
174.180038 96.0
174.274612 268.0
174.413895 44.0
174.458588 92.0
174.587433 176.0
174.621613 168.0
174.64003 132.0
174.900513 196.0
174.990021 160.0
175.018768 144.0
175.042618 148.0
175.075516 6572.0
175.166473 168.0
175.203354 204.0
175.23497 212.0
175.301544 144.0
175.424713 48.0
175.474075 160.0
175.783417 44.0
175.896896 64.0
175.999863 140.0
176.080368 1140.0
176.174179 232.0
176.248154 48.0
176.335358 176.0
176.382935 132.0
176.841263 52.0
176.988785 104.0
177.007797 180.0
177.049683 152.0
177.082718 156.0
177.15033 136.0
177.39679 76.0
177.712387 136.0
177.985779 140.0
178.033569 92.0
178.07872 148.0
178.485321 72.0
178.620956 148.0
178.679489 136.0
179.148026 108.0
179.182663 28.0
179.449188 188.0
179.523849 132.0
179.550522 144.0
179.755936 140.0
180.080399 160.0
180.355087 104.0
180.934647 64.0
180.990677 104.0
181.063187 116.0
181.4142 248.0
181.508026 36.0
181.913162 144.0
182.050095 140.0
182.09938 124.0
182.173309 160.0
182.207794 200.0
182.342926 72.0
182.418182 96.0
182.646744 160.0
182.681717 192.0
182.75705 140.0
182.851776 100.0
183.054565 172.0
183.096222 192.0
183.123154 172.0
183.344086 160.0
183.429916 132.0
183.5112 164.0
183.867279 96.0
184.085953 240.0
184.111801 172.0
184.283127 172.0
184.32637 232.0
184.520981 164.0
184.948395 184.0
185.117935 96.0
185.189377 216.0
185.232712 148.0
185.698914 136.0
185.736893 76.0
185.762268 180.0
185.962097 96.0
186.019104 140.0
186.0914 2616.0
186.347702 160.0
186.3694 148.0
186.543381 412.0
186.680099 160.0
186.869644 128.0
186.910202 180.0
186.977615 180.0
187.005798 168.0
187.033096 136.0
187.060928 200.0
187.100342 46796.0
187.160355 36.0
187.231766 232.0
187.271454 140.0
187.324738 60.0
187.364822 108.0
187.414276 72.0
187.453613 72.0
187.547684 148.0
187.607788 92.0
187.66777 92.0
187.735931 52.0
187.768997 132.0
187.816116 72.0
187.864136 96.0
187.913239 84.0
187.956894 136.0
188.071518 160.0
188.103928 5740.0
188.218933 56.0
188.270813 84.0
188.30632 88.0
188.371872 104.0
188.400314 156.0
188.429245 60.0
188.609802 96.0
188.669754 88.0
188.69162 148.0
188.787323 96.0
188.816864 40.0
188.844757 56.0
188.904938 88.0
189.006165 28.0
189.056488 608.0
189.107635 580.0
189.189529 84.0
189.221512 68.0
189.274414 148.0
189.304535 36.0
189.364777 68.0
189.405869 52.0
189.425049 116.0
189.472015 148.0
189.528915 132.0
189.611359 40.0
189.644257 140.0
189.762131 92.0
189.802292 204.0
189.904724 96.0
190.063614 1104.0
190.123459 3260.0
190.165375 32.0
190.223022 44.0
190.262878 104.0
190.31636 140.0
190.363037 68.0
190.571808 128.0
190.618515 104.0
190.656982 84.0
190.736694 168.0
190.769684 72.0
190.821915 84.0
190.893402 72.0
191.022675 52.0
191.070007 1700.0
191.127106 440.0
191.176743 40.0
191.358414 40.0
191.425705 88.0
191.460312 184.0
191.507126 148.0
191.52916 92.0
191.755096 116.0
191.790924 156.0
191.821243 44.0
191.881897 56.0
191.937042 100.0
192.016434 96.0
192.0755 460.0
192.11908 116.0
192.146667 148.0
192.306396 180.0
192.367432 152.0
192.698837 220.0
192.834244 52.0
192.881226 120.0
192.977997 144.0
193.074768 168.0
193.431702 52.0
193.46492 120.0
195.674805 104.0
195.833527 148.0
197.390793 132.0
197.505447 188.0
198.912109 168.0
199.499207 132.0
199.535767 112.0
199.845139 104.0
200.106766 1872.0
200.306839 44.0
200.543533 164.0
200.636551 244.0
200.701401 108.0
200.975006 200.0
201.067474 1352.0
201.115768 3744.0
201.226196 80.0
201.350449 116.0
201.534058 152.0
201.58493 176.0
201.960938 92.0
201.99205 96.0
202.067352 356.0
202.119995 1696.0
202.156158 36.0
202.249542 40.0
202.416061 184.0
202.518539 44.0
202.552521 116.0
202.66301 88.0
202.742355 128.0
202.890991 200.0
202.916336 148.0
202.988113 136.0
203.03598 196.0
203.071503 18636.0
203.124802 740.0
203.187531 84.0
203.262299 80.0
203.326569 36.0
203.352112 68.0
203.377655 172.0
203.505417 40.0
203.53949 56.0
203.656815 192.0
203.76387 196.0
203.842407 164.0
203.888977 128.0
203.975082 264.0
204.016541 220.0
204.037796 288.0
204.075821 2112.0
204.103485 3592.0
204.173569 60.0
204.199692 88.0
204.22438 48.0
204.258514 84.0
204.309723 48.0
204.332474 56.0
204.471909 64.0
204.551605 52.0
204.601715 60.0
204.65979 128.0
204.722443 44.0
204.748062 72.0
204.856308 72.0
205.075272 356.0
205.108078 1048.0
205.322754 124.0
205.377945 76.0
205.470032 72.0
205.503464 56.0
205.600494 108.0
206.05278 192.0
206.118958 1384.0
206.348877 80.0
206.506165 104.0
206.620575 112.0
206.7379 56.0
206.763657 60.0
206.891739 80.0
206.912506 28.0
206.952591 76.0
207.058533 184.0
207.090698 208.0
207.124039 172.0
207.213226 36.0
207.944443 144.0
209.83725 84.0
211.220535 52.0
211.263931 52.0
212.150085 72.0
212.474899 108.0
213.052155 400.0
213.099106 104.0
213.532242 56.0
214.06189 152.0
214.08519 156.0
214.991821 120.0
215.067719 148.0
215.248718 120.0
216.108063 340.0
216.632126 104.0
217.090729 212.0
217.808411 140.0
218.060211 120.0
218.1185 8672.0
218.328644 48.0
218.463943 68.0
218.525726 72.0
218.837708 48.0
219.020294 56.0
219.120941 1336.0
219.223572 128.0
219.412216 80.0
219.895981 56.0
220.125488 140.0
220.341873 72.0
220.51326 112.0
220.687683 84.0
220.714294 80.0
220.986404 92.0
221.60817 140.0
221.661514 136.0
222.213013 68.0
222.370285 168.0
223.095062 44.0
223.636444 104.0
226.095718 188.0
227.072403 136.0
227.222397 116.0
227.765747 92.0
228.096283 56.0
229.107803 436.0
230.084061 184.0
230.447357 316.0
230.718948 100.0
230.970688 160.0
231.027405 128.0
231.065887 9452.0
231.151459 100.0
231.172638 76.0
231.475357 48.0
231.572266 36.0
231.881302 48.0
232.069199 1516.0
232.184479 76.0
232.57283 40.0
232.985809 44.0
233.254761 76.0
233.621185 36.0
233.767227 140.0
233.901154 120.0
234.00769 68.0
234.577393 48.0
234.940277 80.0
236.021469 132.0
236.168274 148.0
236.458923 72.0
239.070633 100.0
240.324768 76.0
241.82045 136.0
242.080505 128.0
242.105286 28.0
242.551437 100.0
244.013596 92.0
244.092636 76.0
244.561096 156.0
245.104095 232.0
246.063644 176.0
246.112946 520.0
246.191666 56.0
246.438431 80.0
246.616562 52.0
247.118225 304.0
247.896591 200.0
248.093643 2152.0
248.523727 36.0
248.5802 120.0
248.661804 88.0
249.095551 332.0
249.368469 64.0
250.397278 64.0
250.501221 148.0
251.365097 64.0
254.095703 52.0
255.821365 60.0
257.022888 96.0
259.742279 188.0
260.090912 912.0
261.095215 168.0
263.163239 128.0
263.825562 108.0
270.982361 132.0
271.215027 32.0
272.090668 156.0
272.301056 96.0
273.099731 144.0
274.107147 108.0
274.466431 104.0
274.506012 112.0
281.080719 104.0
283.826965 128.0
289.813293 136.0
289.860748 180.0
290.59314 100.0
291.000427 144.0
292.023285 164.0
293.095612 172.0
293.22171 132.0
293.791138 100.0
293.845734 104.0
295.078674 68.0
295.793671 72.0
297.97818 120.0
299.126801 120.0
300.429382 20.0
300.760651 72.0
301.213013 44.0
304.12854 60.0
307.909668 124.0
308.077332 136.0
310.169922 36.0
314.125885 48.0
317.397308 56.0
319.201172 140.0
322.109406 140.0
325.723724 116.0
326.092621 172.0
327.010956 48.0
328.434174 116.0
330.175018 44.0
333.594208 104.0
336.088989 36.0
336.260498 172.0
336.793579 132.0
336.826447 108.0
338.047577 128.0
338.146393 144.0
343.127441 140.0
344.884613 60.0
345.102722 180.0
345.620544 88.0
347.091064 144.0
347.495361 100.0
348.583282 92.0
349.773407 116.0
355.154083 124.0
361.135864 224.0
361.159271 212.0
361.914948 184.0
362.173828 720.0
362.706726 44.0
362.915253 220.0
363.12381 128.0
363.177948 248.0
363.511108 204.0
364.657684 56.0
368.961273 116.0
373.917175 76.0
374.259796 140.0
385.302155 96.0
387.399048 228.0
388.724243 136.0
389.167786 136.0
389.344513 168.0
389.627319 80.0
389.662659 192.0
389.969177 84.0
390.055664 116.0
390.170532 7388.0
390.245575 92.0
390.413452 144.0
390.456696 52.0
390.614044 92.0
390.676697 56.0
390.802734 108.0
390.881561 56.0
390.909119 52.0
391.021332 132.0
391.058655 48.0
391.174042 1408.0
391.318481 76.0
391.357849 52.0
391.389343 56.0
391.428711 52.0
391.511414 60.0
391.893494 60.0
392.178833 436.0
392.445312 60.0
392.906769 40.0
393.08432 60.0
393.159302 36.0
393.388214 128.0
393.4198 60.0
393.550079 132.0
393.700134 104.0
394.221588 44.0
395.07959 88.0
395.716766 52.0
395.780121 48.0
396.560547 88.0
396.659637 84.0
398.858704 48.0
400.83667 32.0
401.406708 60.0
401.598145 76.0
401.801575 108.0
401.889343 40.0
402.136749 36.0
402.967377 40.0
406.719696 44.0
407.619324 72.0
408.186096 76.0
408.527954 132.0
409.196014 140.0
434.364288 80.0
434.546814 104.0
436.178619 644.0
437.184845 240.0
437.251984 164.0
438.176697 212.0
438.374939 88.0
440.165955 164.0
449.784393 76.0
458.193695 128.0
459.78418 136.0
460.847443 100.0
481.597443 136.0
488.048248 56.0
497.210083 76.0
506.345154 60.0
516.295715 52.0
519.212219 52.0
523.529541 32.0
524.992432 72.0
530.236084 68.0
535.146667 68.0
537.815857 120.0
559.431641 48.0
567.31604 64.0
568.539795 116.0
578.965942 52.0
584.274658 76.0
587.589233 132.0
587.767761 80.0
621.072144 92.0
639.388916 104.0
649.945374 100.0
650.579773 128.0
659.575806 76.0
674.270569 112.0
688.265442 176.0
688.808533 128.0
714.631104 156.0
739.824036 72.0
787.112793 192.0
802.712463 208.0
808.774414 80.0
816.820435 44.0
818.072327 148.0
824.489075 108.0
825.306519 136.0
829.554504 68.0
868.963562 48.0
869.251038 116.0
875.670715 156.0
877.296997 84.0
878.818542 88.0
879.697937 40.0
880.64856 76.0
894.487854 192.0
896.340027 56.0
907.139771 176.0
909.983398 200.0
916.804504 116.0
919.047668 196.0
928.284241 160.0
929.242615 100.0
937.347595 208.0
942.784729 44.0
954.997437 176.0
969.165161 160.0
974.022705 136.0
974.656372 152.0
983.281189 168.0
989.682312 144.0
989.738708 172.0
989.876465 172.0
997.951904 128.0
998.725403 208.0
1002.238159 240.0
1002.849487 64.0
1005.416321 156.0
1015.05072 120.0
1015.475586 192.0
1021.484314 148.0
1023.298035 160.0
1028.570068 44.0
1029.374512 152.0
1030.907593 104.0
1032.141357 148.0
1038.211914 80.0
1041.067627 176.0
1041.144653 68.0
1043.027222 148.0
1047.196533 132.0
1052.678223 172.0
1054.616333 212.0
1061.011841 168.0
1065.19104 68.0
1068.096558 184.0
1069.144043 184.0
1069.638794 240.0
1070.693481 112.0
1072.159302 140.0
1076.255859 116.0
1081.989746 128.0
1085.724609 184.0
1090.99707 192.0
1091.812378 144.0
1094.701416 204.0
1102.135376 188.0
1102.558228 108.0
1103.179565 156.0
1106.771973 124.0
1111.352051 208.0
1111.458252 168.0
1118.835571 156.0
1125.542847 160.0
1133.978516 192.0
1135.212036 76.0
1136.590454 196.0
1137.137451 184.0
1137.385864 144.0
1139.380249 184.0
1140.697388 156.0
1143.838745 140.0
1144.188721 152.0
1144.626343 164.0
1144.814941 168.0
1147.934937 180.0
1149.115356 156.0
1151.025513 176.0
1152.65332 184.0
1153.261597 124.0
1155.966675 68.0
1156.237427 88.0
1156.548706 96.0
1157.022583 160.0
1159.610107 100.0
1163.687012 200.0
1164.325317 152.0
1169.914429 192.0
1172.952515 240.0
1173.191162 168.0
1173.511597 180.0
1175.128052 144.0
1175.769409 228.0
1177.100586 52.0
1178.125122 132.0
1180.496704 100.0
1180.879761 124.0
1182.576538 204.0
1182.672363 192.0
1183.918335 52.0
1184.171753 196.0
1184.548462 224.0
1191.841187 92.0
1192.61084 56.0
1194.082275 196.0
1195.637085 148.0
1196.690186 164.0
1198.074463 176.0
1198.797974 124.0
1200.397217 60.0
1203.088013 144.0
1204.980347 180.0
1205.256714 108.0
1205.740356 124.0
1206.75647 136.0
1213.04248 244.0
1216.86499 132.0
1217.573242 76.0
1219.226685 152.0
1222.857056 144.0
1225.572876 172.0
1227.078369 164.0
1228.542847 112.0
1230.510864 188.0
1230.762207 152.0
1231.271973 148.0
1232.857788 136.0
1233.430908 208.0
1234.409668 148.0
1236.200439 152.0
1237.992554 228.0
1240.059204 100.0
1240.914429 156.0
1241.173828 168.0
1241.847168 176.0
1242.204834 180.0
1243.552002 204.0
1245.588257 196.0
1245.735718 80.0
1246.754517 108.0
1248.983276 148.0
1250.967529 132.0
1251.432251 132.0
1251.685669 164.0
1253.115479 180.0
1254.369873 152.0
1255.709595 60.0
1256.633667 128.0
1258.016846 124.0
1258.998291 184.0
1259.739868 200.0
1260.481812 168.0
1260.580688 92.0
1262.411499 44.0
1262.609619 180.0
1264.675415 212.0
1265.028809 160.0
1266.608398 176.0
1268.082153 112.0
1269.627686 140.0
1270.669556 168.0
1271.408325 164.0
1272.650635 172.0
1274.682007 168.0
1274.788696 120.0
1274.937866 124.0
1275.207886 124.0
1277.803467 200.0
1278.052368 48.0
1278.764038 212.0
1280.444214 128.0
1283.052124 220.0
1284.756592 92.0
1287.119019 184.0
1287.176147 144.0
1295.006836 196.0
1296.095825 116.0
1298.633545 220.0
1307.873413 212.0
1308.442139 152.0
1309.075684 184.0
1310.847778 172.0
1311.972168 52.0
1312.202881 172.0
1312.556152 216.0
1312.92395 148.0
1316.503296 144.0
1317.052246 104.0
1317.109985 100.0
1323.42334 184.0
1326.524048 116.0
1330.252563 168.0
1332.990601 168.0
1335.105957 152.0
1337.907227 220.0
1339.720581 216.0
1340.922852 116.0
1342.606934 292.0
1342.840332 188.0
1343.817749 152.0
1343.949097 132.0
1344.562134 176.0
1345.014648 112.0
1348.359741 224.0
1349.112549 160.0
1349.200317 156.0
1351.372437 176.0
1352.184692 184.0
1354.036865 132.0
1354.476318 132.0
1354.864624 196.0
1355.172363 116.0
1356.198242 136.0
1357.371216 80.0
1359.696655 212.0
1360.159058 140.0
1360.349976 40.0
1360.834473 108.0
1362.200439 132.0
1364.765259 140.0
1366.044922 148.0
1366.42749 204.0
1366.905762 168.0
1367.155884 208.0
1368.142212 124.0
1368.613403 156.0
1368.988892 248.0
1370.336914 180.0
1370.491577 100.0
1372.083496 184.0
1375.860718 140.0
1377.234253 132.0
1380.020264 252.0
1381.011108 168.0
1381.395752 148.0
1382.498169 196.0
1383.253052 36.0
1383.690796 196.0
1384.770996 156.0
1384.88208 108.0
1386.082153 124.0
1387.601562 116.0
1387.675781 120.0
1389.151611 200.0
1391.942139 132.0
1392.454468 60.0
1395.040283 168.0
1395.270752 136.0
1395.739136 344.0
1397.628418 84.0
1398.260864 180.0
1398.662842 40.0
1401.99939 216.0
1406.840088 140.0
1407.228271 144.0
1409.080566 120.0
1409.581177 208.0
1410.694702 104.0
1412.175171 124.0
1412.377197 172.0
1413.970825 144.0
1414.928955 100.0
1415.520386 188.0
1421.367188 164.0
1422.530396 152.0
1422.808228 152.0
1423.303711 48.0
1423.401367 180.0
1423.851929 152.0
1425.414429 168.0
1426.180908 212.0
1427.789917 164.0
1429.136353 144.0
1429.414795 192.0
1431.770996 232.0
1432.381104 160.0
1432.772827 120.0
1434.837769 172.0
1435.371338 196.0
1436.753296 144.0
1437.175781 120.0
1437.941895 184.0
1439.530762 96.0
1439.651611 68.0
1440.301147 220.0
1440.671265 132.0
1442.847778 188.0
1443.331665 168.0
1443.429932 140.0
1445.676514 216.0
1446.077637 184.0
1446.365234 168.0
1446.456177 52.0
1447.493286 220.0
1447.652344 128.0
1448.265747 196.0
1449.099121 136.0
1451.60376 72.0
1451.865723 168.0
1451.979492 240.0
1452.912476 80.0
1453.69397 92.0
1454.39978 148.0
1455.060181 196.0
1455.151367 228.0
1456.070068 124.0
1456.366333 196.0
1457.642578 160.0
1458.828247 148.0
1459.900269 216.0
1460.873779 292.0
1460.980347 208.0
1461.079224 132.0
1461.292236 188.0
1461.353149 184.0
1461.99231 256.0
1463.111206 160.0
1463.430908 196.0
1463.583252 152.0
1463.834473 172.0
1464.321899 180.0
1464.77124 164.0
1465.053101 204.0
1468.117188 188.0
1469.52063 88.0
1469.973145 192.0
1471.14624 156.0
1471.672974 92.0
1472.765991 156.0
1472.948364 168.0
1473.887939 80.0
1474.812622 176.0
1476.341675 92.0
1477.313354 200.0
1478.606201 112.0
1479.111328 172.0
1481.669067 40.0
1482.879761 184.0
1483.040649 180.0
1483.209229 216.0
1483.446899 236.0
1484.903687 64.0
1485.271851 132.0
1486.322876 160.0
1486.737305 116.0
1488.679443 168.0
1489.416748 276.0
1489.723999 184.0
1490.400146 168.0
1491.460571 280.0
1491.522095 212.0
1491.798828 220.0
1492.606079 220.0
1492.936768 208.0
1493.252075 152.0
1494.1521 172.0
1494.605957 188.0
1494.836792 156.0
1496.299194 192.0
1497.369507 224.0
1497.739258 116.0
1497.87793 164.0
1498.602051 104.0
1499.018188 232.0
1500.767822 140.0
1501.122559 220.0
1501.454102 196.0
1502.495483 176.0
1502.618896 208.0
1503.228394 136.0
1504.131348 156.0
