>compound MLS001076282-01!434-03-7
>formula C21H28O2
>ionization [M+H]+
>parentmass 313.21620658809053
#inchi InChI=1S/C21H28O2/c1-4-21(23)12-9-18-16-6-5-14-13-15(22)7-10-19(14,2)17(16)8-11-20(18,21)3/h1,13,16-18,23H,5-12H2,2-3H3/t16-,17+,18+,19+,20+,21+/m1/s1
#inchikey CHNXZKVNWQUJIB
#Ion_Source LC-ESI
#Instrument qTof
#Compound_Source NIH Pharmacologically Active Library
#PI Dorrestein
#Data_Collector VP/LMS
#Scan -1
#Precursor_MZ 313.217
#ExactMass 312.209
#Charge 1
#CAS_Number N/A
#Pubmed_ID N/A
#Smiles C[C@@]12CC[C@H]3[C@@H](CCC4=CC(=O)CC[C@]34C)[C@@H]2CC[C@@]1(O)C#C
#INCHI_AUX N/A
#Library_Class 1
#SpectrumID CCMSLIB00000085088
#IonMode Positive
#UpdateWorkflowName UPDATE-SINGLE-ANNOTATED-GOLD
#LibraryQualityString Gold
#TaskID d252d724072548979f1f6f1ced849daf
##Scan# 2148
#SpectrumFile p3-E08_GE8_01_18277.mzXML
#LibraryName Pharm_Active_Library.mgf
#MQScore -1
#Organism Pharm_Active_Library
#TIC_Query 0
#RT_Query -1
#MZErrorPPM -1
#SharedPeaks 0
#MassDiff 0
#LibMZ -1
#SpecMZ 313.217
#SpecCharge 0
#internalFilename spec-00000.mgf

>collision 10
44.889832 148.0
44.947193 120.0
45.12886 156.0
45.251961 36.0
45.69759 148.0
45.894249 152.0
45.909084 232.0
46.007587 188.0
46.242805 40.0
46.324051 216.0
46.516624 128.0
46.589958 180.0
46.648399 180.0
46.815762 192.0
46.942505 156.0
47.679062 208.0
47.761562 168.0
48.288483 188.0
49.092648 128.0
49.751713 200.0
49.889393 172.0
49.951271 156.0
49.976597 216.0
50.039936 128.0
50.087822 64.0
50.625969 204.0
50.895409 136.0
51.006229 156.0
51.10294 224.0
51.300911 132.0
51.445004 140.0
51.600735 212.0
52.251904 56.0
52.359867 108.0
52.525631 156.0
52.625214 132.0
52.694546 140.0
53.173885 136.0
53.375824 120.0
53.412186 196.0
53.591259 200.0
54.102463 208.0
54.627861 132.0
55.067139 172.0
55.235649 88.0
55.548222 76.0
55.576412 68.0
55.800701 192.0
56.091011 140.0
56.276012 184.0
56.340237 196.0
56.648422 188.0
57.068665 148.0
57.208588 208.0
57.246231 128.0
57.354713 52.0
57.584068 156.0
57.630901 108.0
57.662636 168.0
57.759411 188.0
57.883518 36.0
57.950169 88.0
57.99715 196.0
58.104824 188.0
58.283993 176.0
58.4254 220.0
58.743805 212.0
58.968277 188.0
59.581245 152.0
59.818081 184.0
59.92281 56.0
59.978153 228.0
60.900536 156.0
61.034195 160.0
61.0653 184.0
61.116638 168.0
61.420444 120.0
61.525002 68.0
61.57341 160.0
62.254692 228.0
62.34581 204.0
62.46846 68.0
62.487339 160.0
62.611698 80.0
62.657379 164.0
62.895512 192.0
62.99324 140.0
63.32719 196.0
63.647549 224.0
63.897102 124.0
63.908237 192.0
64.116852 216.0
64.469566 160.0
64.568687 124.0
64.84568 140.0
64.96595 64.0
65.113625 204.0
65.237358 156.0
65.253433 224.0
65.472282 144.0
65.501274 76.0
65.620537 180.0
65.793175 124.0
65.961189 112.0
66.095428 152.0
66.208748 164.0
66.224945 120.0
66.387024 104.0
66.607765 320.0
66.741035 208.0
66.801216 160.0
66.871185 204.0
66.979782 156.0
67.055237 160.0
67.298309 120.0
67.594177 152.0
67.744812 368.0
67.92907 148.0
68.025246 52.0
68.898094 240.0
68.946014 180.0
69.111389 152.0
69.363129 120.0
69.693405 200.0
69.796463 204.0
70.126099 204.0
70.665504 200.0
71.022346 156.0
71.359909 232.0
71.502899 220.0
71.826408 148.0
71.875336 124.0
72.155731 212.0
72.78096 216.0
72.810043 224.0
72.853996 192.0
73.052902 176.0
73.437881 168.0
73.569283 180.0
73.664917 192.0
73.882034 180.0
74.549049 160.0
74.808777 220.0
75.473038 212.0
75.742165 160.0
75.760353 108.0
75.963188 164.0
76.178452 172.0
76.770256 176.0
76.894127 232.0
76.983162 252.0
77.196373 232.0
77.806152 120.0
78.2052 112.0
78.294998 52.0
78.647636 180.0
78.80658 48.0
78.875504 204.0
79.132027 168.0
79.17276 184.0
79.206413 100.0
79.424446 164.0
79.593048 164.0
79.699631 100.0
79.72451 164.0
80.105286 180.0
80.586998 144.0
80.599503 156.0
80.796181 120.0
80.851654 136.0
80.951912 164.0
81.473885 200.0
81.562523 172.0
81.619469 160.0
81.705803 232.0
81.759789 164.0
81.887619 164.0
82.033577 216.0
82.394524 204.0
82.75135 168.0
83.057419 212.0
83.567612 116.0
83.644051 212.0
84.196533 160.0
84.827805 228.0
84.932327 236.0
85.064453 180.0
85.487198 148.0
86.078957 140.0
87.015907 168.0
87.430435 228.0
87.445328 144.0
87.916862 212.0
88.097984 72.0
88.139084 160.0
88.283028 188.0
88.342888 196.0
89.015778 204.0
89.068367 156.0
89.096542 132.0
89.190506 196.0
89.678024 132.0
90.006294 144.0
90.526329 88.0
90.628624 196.0
90.91497 72.0
91.053169 336.0
91.422394 184.0
92.143188 176.0
92.424255 144.0
92.608047 180.0
92.809273 144.0
92.851463 192.0
93.07399 352.0
93.241211 176.0
93.575935 168.0
93.747368 180.0
93.84761 124.0
93.967194 128.0
93.994209 168.0
94.040527 276.0
94.339943 160.0
94.492729 172.0
94.719681 140.0
94.7948 160.0
95.04879 320.0
95.062469 212.0
95.082428 620.0
95.293495 192.0
95.59684 204.0
95.875336 72.0
96.046913 124.0
97.042366 224.0
97.063477 9480.0
97.248352 60.0
97.438835 152.0
97.460449 152.0
97.511543 180.0
98.066299 452.0
98.11982 92.0
98.328918 140.0
98.386169 44.0
98.552071 80.0
98.658806 152.0
98.900146 184.0
99.217102 204.0
99.260727 188.0
99.396721 244.0
99.482948 96.0
99.669647 180.0
100.161064 56.0
100.226814 164.0
100.533913 132.0
100.647697 176.0
101.187729 100.0
101.209587 228.0
101.45002 148.0
101.722855 136.0
101.863419 72.0
102.235397 180.0
102.313904 220.0
102.807747 148.0
103.054123 460.0
103.159203 160.0
103.626717 100.0
104.060768 156.0
104.20295 192.0
104.302528 148.0
104.400124 204.0
104.73188 236.0
104.911209 128.0
105.068115 2020.0
105.172318 104.0
105.560509 168.0
105.607552 152.0
105.976044 152.0
106.071915 196.0
106.456055 48.0
107.047401 384.0
107.083694 524.0
107.470901 80.0
107.592674 132.0
107.768234 188.0
107.997711 116.0
108.086868 128.0
108.183952 172.0
108.266777 152.0
108.49678 196.0
108.590096 200.0
108.942986 220.0
108.995071 172.0
109.011551 196.0
109.06382 16956.0
109.102394 204.0
109.196587 72.0
109.525452 32.0
109.569206 60.0
109.754707 60.0
109.773476 72.0
109.919502 72.0
110.066772 532.0
110.661552 128.0
110.834671 80.0
110.919243 116.0
111.066025 292.0
111.401901 160.0
111.454422 40.0
111.849815 180.0
111.961411 64.0
112.115204 132.0
112.243797 148.0
112.706085 96.0
113.436264 104.0
113.654724 144.0
113.82029 68.0
114.01786 252.0
114.954918 260.0
115.052818 932.0
115.279518 120.0
115.861526 52.0
116.057846 472.0
116.125191 64.0
116.191696 68.0
116.834076 200.0
117.027786 140.0
117.067886 1168.0
117.886322 192.0
118.03759 172.0
118.070908 324.0
118.895531 224.0
118.954132 116.0
119.040985 164.0
119.083328 1564.0
119.776123 124.0
119.954811 148.0
120.01609 188.0
120.090004 124.0
120.764931 236.0
121.061943 468.0
121.099022 1140.0
121.347458 60.0
121.94017 188.0
122.012711 260.0
122.059662 124.0
122.098473 180.0
122.131462 52.0
122.325104 76.0
122.631287 132.0
123.078857 3200.0
123.118881 196.0
123.149803 108.0
123.171898 36.0
123.284576 48.0
123.968414 164.0
124.08078 252.0
124.125809 176.0
124.163506 156.0
125.081169 176.0
126.011147 192.0
127.057541 220.0
127.856682 140.0
128.059143 856.0
128.343277 164.0
129.067047 876.0
129.097504 228.0
129.244553 76.0
129.452805 116.0
130.07901 848.0
130.096756 168.0
130.746841 160.0
130.803741 136.0
130.995041 56.0
131.082291 1412.0
132.090317 176.0
132.115952 140.0
133.063202 196.0
133.099777 688.0
133.122192 268.0
133.545074 140.0
134.107422 208.0
134.210632 140.0
134.762299 188.0
135.042023 180.0
135.075607 336.0
135.115128 460.0
135.208603 220.0
135.340561 40.0
135.433197 36.0
135.815659 56.0
136.084869 164.0
136.593826 36.0
136.638031 40.0
136.77533 148.0
136.793961 72.0
136.884766 112.0
137.089294 168.0
137.129379 184.0
137.671066 208.0
137.91832 100.0
139.877014 152.0
140.060684 140.0
140.376511 124.0
141.069809 552.0
141.603088 116.0
142.051086 44.0
142.076309 1256.0
142.397644 168.0
143.084473 2648.0
143.158707 72.0
144.089539 612.0
144.268219 196.0
145.007889 172.0
145.058334 216.0
145.100433 1656.0
145.13974 196.0
145.222839 92.0
145.658142 60.0
146.061996 208.0
146.102234 164.0
146.618195 180.0
146.784531 128.0
147.008881 156.0
147.080109 432.0
147.116806 1096.0
147.329025 132.0
147.557205 96.0
147.854736 184.0
148.07991 152.0
148.121078 156.0
149.095764 432.0
149.128357 592.0
150.077515 144.0
150.128723 132.0
150.707275 116.0
151.109589 192.0
151.767136 168.0
152.05661 148.0
153.047333 132.0
153.066879 452.0
154.076111 496.0
154.51593 180.0
154.674316 36.0
155.081314 580.0
155.14003 140.0
156.090454 1208.0
156.643524 148.0
156.950073 68.0
157.068253 224.0
157.098907 1356.0
157.236969 52.0
157.831528 184.0
158.107193 344.0
158.454773 40.0
159.026138 192.0
159.07486 176.0
159.113785 1696.0
159.330383 52.0
159.715012 96.0
159.795517 104.0
159.886108 252.0
159.974213 228.0
160.022034 124.0
160.079956 64.0
160.116714 208.0
160.374725 184.0
161.097321 124.0
161.128189 296.0
162.108521 200.0
163.017029 188.0
163.105438 56.0
163.143692 148.0
163.2509 64.0
164.116699 172.0
165.067795 248.0
165.125427 188.0
165.24054 240.0
165.273804 168.0
165.30452 160.0
166.07283 352.0
166.219345 40.0
166.804947 200.0
167.033798 172.0
167.085022 496.0
168.091309 404.0
168.239853 40.0
169.074631 164.0
169.099167 1156.0
169.680908 44.0
170.108932 208.0
170.555771 40.0
170.719574 196.0
171.036987 140.0
171.115448 1820.0
171.232269 88.0
171.268738 76.0
171.352112 44.0
172.09285 120.0
172.123306 392.0
172.150299 176.0
172.273056 92.0
173.093185 156.0
173.131073 656.0
173.429688 124.0
173.558136 224.0
174.061966 156.0
174.132721 148.0
175.11673 184.0
175.148865 500.0
175.266724 88.0
175.293076 56.0
176.161133 180.0
176.793076 188.0
177.125504 288.0
178.068024 224.0
178.072037 200.0
178.482895 60.0
179.080658 300.0
179.166931 76.0
179.369461 108.0
180.08667 292.0
180.739563 232.0
181.100693 692.0
181.535172 76.0
182.010147 40.0
182.103683 244.0
182.14711 52.0
183.078003 124.0
183.112808 652.0
184.119537 124.0
185.005661 120.0
185.097717 196.0
185.130051 980.0
186.135544 472.0
186.715149 28.0
187.115204 152.0
187.146927 516.0
188.110245 164.0
188.14502 168.0
188.443436 52.0
189.06691 148.0
189.126984 160.0
190.264786 60.0
191.15303 128.0
191.896317 140.0
192.092255 160.0
192.381882 144.0
193.100616 316.0
194.103638 440.0
195.111664 124.0
195.55307 156.0
196.076691 104.0
196.11937 364.0
197.089691 124.0
197.129364 560.0
197.917664 116.0
198.101059 112.0
198.13118 156.0
199.108582 148.0
199.144089 468.0
199.390457 64.0
199.919174 64.0
200.152161 320.0
201.11702 56.0
201.13678 88.0
201.166916 240.0
201.187592 40.0
201.263824 36.0
202.133072 284.0
202.159927 124.0
202.981445 160.0
203.138657 160.0
203.171494 104.0
205.100555 504.0
206.106461 312.0
206.155579 116.0
207.115997 524.0
207.268768 48.0
208.120697 124.0
209.128906 364.0
210.133774 228.0
210.282684 148.0
210.643631 64.0
211.033783 68.0
211.108292 504.0
211.148224 860.0
212.113663 100.0
212.150665 172.0
213.130234 280.0
213.158478 320.0
213.373596 80.0
213.865234 64.0
214.159317 292.0
215.145309 132.0
215.176559 280.0
215.857895 68.0
218.006699 120.0
218.101868 264.0
219.117905 132.0
219.741089 124.0
220.115952 152.0
220.473404 168.0
221.128326 328.0
222.141052 164.0
225.081009 116.0
225.162323 512.0
226.164978 116.0
227.139893 148.0
227.176453 972.0
227.22113 84.0
227.707428 100.0
228.128113 156.0
228.182709 176.0
229.160629 168.0
230.678467 68.0
231.074661 112.0
231.107941 112.0
232.125732 160.0
233.133881 284.0
234.130646 148.0
235.148285 164.0
236.148895 184.0
237.128662 132.0
237.157181 296.0
237.613174 72.0
238.17659 152.0
239.14032 132.0
239.183563 368.0
240.154175 160.0
241.157349 156.0
243.174042 152.0
245.117783 180.0
245.189606 872.0
246.191772 376.0
247.148178 124.0
248.146637 360.0
248.177994 180.0
250.169922 128.0
251.177673 464.0
252.188766 120.0
252.954269 100.0
253.165039 224.0
253.195724 156.0
254.358566 52.0
255.176514 248.0
256.179993 160.0
257.156464 148.0
259.982544 124.0
260.05957 348.0
261.499512 104.0
262.94989 112.0
265.045502 168.0
265.330719 116.0
266.164581 140.0
267.177368 220.0
267.823242 100.0
271.208435 156.0
274.466461 48.0
276.845764 112.0
277.189972 892.0
278.194916 144.0
283.0867 84.0
284.951691 56.0
295.203308 568.0
296.209229 152.0
297.196075 100.0
306.156464 72.0
312.267273 128.0
313.213684 688.0
314.205811 104.0
315.120422 224.0
315.228699 124.0
345.81897 48.0
357.256561 48.0
359.755127 92.0
372.121368 132.0
391.023163 144.0
405.621033 52.0
442.513245 100.0
469.857635 92.0
483.511108 68.0
493.019623 76.0
589.706787 200.0
613.32251 108.0
614.205139 88.0
617.341431 272.0
683.299438 176.0
703.514038 176.0
730.883972 76.0
733.097229 52.0
747.344482 172.0
755.605103 120.0
769.665222 116.0
776.849243 172.0
804.52417 156.0
825.55957 84.0
832.792542 184.0
849.045715 232.0
853.406799 244.0
868.679443 120.0
871.867798 180.0
876.681824 92.0
893.135681 128.0
894.587646 208.0
908.38623 168.0
915.502808 180.0
922.471802 132.0
932.035767 264.0
932.3396 152.0
934.674805 88.0
940.232605 144.0
940.629395 260.0
943.525085 144.0
943.690186 172.0
951.545044 192.0
952.570618 144.0
955.460022 148.0
958.286072 104.0
960.87561 192.0
962.289001 204.0
962.579224 176.0
966.393127 168.0
970.747742 148.0
973.260925 224.0
980.333862 144.0
981.780151 164.0
983.009155 52.0
987.863953 188.0
989.403442 260.0
990.85022 156.0
991.721252 184.0
992.448486 112.0
995.881287 176.0
997.452209 212.0
1002.247986 184.0
1008.780273 176.0
1018.462952 164.0
1022.748657 172.0
1030.318237 224.0
1031.788208 188.0
1031.992798 40.0
1033.105591 248.0
1035.28833 144.0
1047.021851 152.0
1047.846436 120.0
1051.089722 168.0
1060.577393 232.0
1061.005249 168.0
1061.050659 176.0
1062.120728 164.0
1071.768677 164.0
1072.981079 200.0
1076.302124 124.0
1081.525879 168.0
1085.691895 128.0
1088.140503 136.0
1088.994141 140.0
1094.27478 156.0
1096.053223 48.0
1101.813477 136.0
1107.482666 124.0
1111.287964 144.0
1111.792358 228.0
1112.053955 184.0
1112.807983 60.0
1116.283203 92.0
1116.389648 164.0
1119.983643 184.0
1124.124023 176.0
1124.764771 168.0
1129.248291 252.0
1135.101562 112.0
1135.161987 208.0
1135.302734 40.0
1137.41626 152.0
1137.691528 232.0
1143.304199 84.0
1143.600342 132.0
1144.145508 192.0
1152.056396 68.0
1155.132324 180.0
1159.221802 172.0
1162.415894 240.0
1162.985962 148.0
1168.197876 176.0
1169.089233 100.0
1171.717651 224.0
1172.978394 196.0
1173.516968 48.0
1177.591064 172.0
1180.557251 136.0
1182.466064 196.0
1183.177979 176.0
1187.282471 124.0
1188.702637 72.0
1189.430054 204.0
1196.20813 148.0
1197.254639 72.0
1200.16272 148.0
1200.666138 164.0
1204.863037 88.0
1208.105469 132.0
1214.325928 100.0
1215.491455 184.0
1219.977539 172.0
1220.736206 148.0
1220.88916 216.0
1224.02771 112.0
1231.441162 136.0
1233.691284 180.0
1239.0802 108.0
1239.640747 48.0
1253.139282 132.0
1253.301392 120.0
1256.32605 188.0
1256.834106 160.0
1260.329346 192.0
1265.776123 128.0
1265.917725 160.0
1268.447144 156.0
1269.496582 116.0
1269.723511 180.0
1270.134888 116.0
1271.291382 164.0
1272.192871 304.0
1274.863525 188.0
1276.470093 204.0
1277.024902 204.0
1285.395996 100.0
1287.016357 184.0
1288.552002 140.0
1288.816406 116.0
1290.231567 184.0
1293.400757 140.0
1293.465088 132.0
1293.551025 200.0
1296.093628 204.0
1303.427246 216.0
1307.310425 96.0
1308.166992 160.0
1309.218262 264.0
1312.02124 160.0
1313.261597 228.0
1315.678955 160.0
1326.204468 216.0
1327.11792 140.0
1327.552979 92.0
1328.5177 176.0
1329.409912 148.0
1330.723999 188.0
1330.876465 128.0
1331.588135 92.0
1343.591919 204.0
1344.598877 180.0
1346.007935 184.0
1349.120483 204.0
1354.286743 168.0
1356.57312 132.0
1359.785889 172.0
1365.082886 52.0
1370.758545 144.0
1377.029541 236.0
1378.521851 160.0
1378.722046 208.0
1381.057861 128.0
1383.040894 196.0
1383.477661 188.0
1387.500488 188.0
1388.753784 204.0
1388.820557 188.0
1389.221069 156.0
1390.11145 216.0
1392.32373 156.0
1392.99231 148.0
1393.296875 80.0
1396.54541 28.0
1396.738892 120.0
1397.758057 56.0
1398.316284 212.0
1398.569336 84.0
1398.934082 100.0
1399.984009 140.0
1400.780884 208.0
1401.071533 256.0
1401.54834 116.0
1402.084839 88.0
1402.606689 192.0
1406.575073 168.0
1408.464355 180.0
1412.246582 176.0
1414.753418 152.0
1419.428833 192.0
1423.601196 156.0
1424.156982 188.0
1424.765503 136.0
1425.178711 168.0
1430.511108 192.0
1431.173706 56.0
1431.685791 132.0
1434.458496 52.0
1437.339722 156.0
1438.47937 264.0
1443.609619 88.0
1444.35083 176.0
1444.471924 180.0
1447.037476 236.0
1449.47644 156.0
1451.573242 188.0
1453.480347 176.0
1456.14502 196.0
1457.436401 152.0
1457.596069 168.0
1460.393799 176.0
1460.918701 220.0
1465.265869 176.0
1468.177734 168.0
1469.146484 84.0
1475.447144 168.0
1477.68042 264.0
1478.269653 144.0
1486.001221 152.0
1489.07959 124.0
1490.577637 176.0
1492.191895 192.0
1493.706909 180.0
1495.315063 204.0
1500.036865 228.0
1500.692139 300.0
