>compound Bicalutamide (Casodex)
>formula C18H14F4N2O4S
>ionization [M+H]+
>parentmass 431.069916
#inchi InChI=1S/C18H14F4N2O4S/c1-17(26,10-29(27,28)14-6-3-12(19)4-7-14)16(25)24-13-5-2-11(9-23)15(8-13)18(20,21)22/h2-8,26H,10H2,1H3,(H,24,25)
#inchikey LKJPYSCBVHEWIU
#Ion_Source LC-ESI
#Instrument qTof
#Compound_Source Commercial
#PI Dorrestein
#Data_Collector Garg_Neha
#Scan -1
#Precursor_MZ 431.068
#ExactMass 430.061
#Charge 1
#CAS_Number 90357-06-5
#Pubmed_ID N/A
#Smiles C(C(CS(=O)(=O)C1C=CC(=CC=1)F)(C)O)(=O)NC2C=C(C(=CC=2)C#N)C(F)(F)F
#INCHI_AUX N/A
#Library_Class 1
#SpectrumID CCMSLIB00000078036
#IonMode Positive
#UpdateWorkflowName UPDATE-SINGLE-ANNOTATED-GOLD
#LibraryQualityString Gold
#TaskID 77f51c88eb8b467eb4a01dd2d0cb90d2
##Scan# 1599
#SpectrumFile Plate1_21_40_GG2_01_16489.mzXML
#LibraryName FDALibrary_2_04302014.mgf
#MQScore -1
#Organism FDALibrary_2_04302014
#TIC_Query 0
#RT_Query -1
#MZErrorPPM -1
#SharedPeaks 0
#MassDiff 0
#LibMZ -1
#SpecMZ 431.068
#SpecCharge 0
#internalFilename spec-00000.mgf

>collision 10
45.489399 156.0
45.633152 172.0
46.209076 152.0
47.262234 188.0
47.414242 164.0
47.425205 196.0
48.316189 212.0
48.533642 152.0
48.658516 176.0
48.928238 184.0
49.427933 140.0
50.008953 140.0
50.058228 168.0
51.193996 164.0
52.214424 164.0
52.424618 156.0
52.5443 176.0
54.839756 208.0
55.059597 204.0
55.118687 140.0
55.654911 140.0
57.2897 168.0
59.647049 220.0
60.619415 184.0
61.516876 164.0
63.82674 144.0
72.429329 196.0
73.137413 144.0
74.457397 188.0
74.600014 212.0
75.387718 232.0
76.122238 216.0
77.765114 208.0
80.045807 204.0
81.046135 232.0
81.099899 160.0
81.363602 228.0
81.859879 140.0
83.984039 148.0
86.080002 192.0
87.403564 152.0
88.461823 184.0
90.428909 156.0
91.238907 204.0
92.161407 208.0
93.829346 180.0
94.26944 172.0
94.846207 164.0
95.027016 292.0
97.524345 160.0
99.031982 204.0
99.599121 152.0
99.791893 148.0
99.843597 200.0
100.185966 152.0
101.764 172.0
102.574768 144.0
103.429245 200.0
103.881134 156.0
104.108467 204.0
104.527237 144.0
107.284195 168.0
107.953194 164.0
108.406563 200.0
108.468742 144.0
108.709335 236.0
109.043709 192.0
109.543098 160.0
111.153023 196.0
113.036812 200.0
117.229088 160.0
120.075714 168.0
120.927818 152.0
120.975983 156.0
120.994781 1072.0
121.042038 188.0
121.657776 172.0
122.002937 176.0
123.041252 240.0
123.530983 192.0
127.646187 188.0
129.075867 168.0
130.463486 172.0
131.363037 160.0
132.377853 152.0
133.743942 180.0
134.90889 152.0
134.95282 140.0
135.054565 172.0
137.279587 160.0
137.783768 176.0
138.087662 160.0
139.00531 156.0
139.297165 192.0
139.76268 140.0
139.887421 192.0
140.203049 168.0
140.337418 152.0
141.175705 184.0
141.383896 160.0
142.996155 760.0
143.607758 168.0
143.662628 140.0
143.996811 156.0
144.776489 160.0
147.884781 152.0
154.27211 224.0
155.312164 160.0
157.138184 160.0
158.638763 156.0
158.961609 396.0
158.991318 6756.0
159.997635 468.0
160.690994 156.0
161.002563 176.0
161.059586 212.0
162.013275 144.0
162.061417 140.0
162.802139 156.0
164.896378 172.0
165.042938 152.0
167.04068 1524.0
168.049927 164.0
168.55603 160.0
169.798676 144.0
171.082321 164.0
173.776932 176.0
174.601791 208.0
175.913986 148.0
178.034897 176.0
178.819199 212.0
180.075012 156.0
183.812119 184.0
184.893112 176.0
184.982422 220.0
185.04921 1012.0
186.055115 252.0
186.57489 252.0
186.675507 156.0
186.86319 200.0
186.952988 308.0
186.991089 160.0
187.047409 12352.0
188.007675 144.0
188.048187 1568.0
189.052261 164.0
189.206329 148.0
190.298874 180.0
190.540573 148.0
191.663177 148.0
194.378662 220.0
197.037796 156.0
200.33429 164.0
201.129517 248.0
201.697296 180.0
204.380234 184.0
205.058563 324.0
206.969223 196.0
207.530838 216.0
210.050217 140.0
213.031174 184.0
213.49118 192.0
216.479568 160.0
216.602585 204.0
216.969849 148.0
217.033051 18028.0
217.227615 144.0
217.620255 196.0
218.035431 1916.0
218.489532 116.0
219.03006 896.0
220.959671 140.0
227.024918 116.0
229.008133 184.0
235.050461 164.0
235.160324 144.0
237.059616 184.0
249.011093 204.0
257.978943 156.0
265.150757 168.0
278.123901 168.0
281.119354 188.0
288.999512 204.0
290.999298 164.0
292.971893 152.0
320.343475 140.0
341.167694 180.0
373.286041 168.0
383.029938 188.0
392.644897 188.0
403.070099 180.0
403.861694 280.0
413.04834 372.0
423.023346 148.0
429.631653 200.0
430.849548 148.0
431.069916 2028.0
431.255859 300.0
431.357849 256.0
432.07077 1092.0
433.060608 120.0
433.294647 188.0
623.428284 144.0
1105.833374 144.0
1179.08667 172.0
1285.544922 252.0
1355.26001 168.0
1493.512939 156.0
1551.987427 204.0
1596.184448 204.0
1606.243652 168.0
1671.816528 248.0
1703.352905 176.0
1728.325806 184.0
1728.516113 172.0
1839.890869 168.0
1845.675293 156.0
1848.549561 220.0
1861.305176 144.0
1885.063599 208.0
1906.156006 184.0
1926.343628 176.0
1938.514282 160.0
1939.855347 204.0
1956.503052 228.0
1963.243896 148.0
1996.765869 176.0
1997.966675 172.0
