>compound MLS000728631-01!
>formula C12H15NO
>ionization [M+H]+
>parentmass 190.123
#inchi InChI=1S/C12H15NO/c1-3-12(4-2)9-7-5-6-8-10(9)13-11(12)14/h5-8H,3-4H2,1-2H3,(H,13,14)
#inchikey JOAHCWIICCHHOU
#Ion_Source LC-ESI
#Instrument qTof
#Compound_Source NIH Natural Product Library
#PI Dorrestein
#Data_Collector VVP/LMS
#Scan -1
#Precursor_MZ 190.123
#ExactMass 189.115
#Charge 1
#CAS_Number N/A
#Pubmed_ID N/A
#Smiles CCC1(CC)C(=O)Nc2ccccc21
#INCHI_AUX N/A
#Library_Class 1
#SpectrumID CCMSLIB00000080122
#IonMode Positive
#UpdateWorkflowName UPDATE-SINGLE-ANNOTATED-GOLD
#LibraryQualityString Gold
#TaskID b1d8e8f6646f4e71acdff9ca3d919d08
##Scan# 1974
#SpectrumFile p2-D04_GD4_01_18016.mzXML
#LibraryName NIH_Natural_Products_Library.mgf
#MQScore -1
#Organism NIH_Natural_Products_Library
#TIC_Query 0
#RT_Query -1
#MZErrorPPM -1
#SharedPeaks 0
#MassDiff 0
#LibMZ -1
#SpecMZ 190.123
#SpecCharge 0
#internalFilename spec-00000.mgf

>collision 10
95.050568 148.0
95.203918 164.0
95.836105 184.0
95.933548 164.0
96.31015 160.0
96.542725 136.0
97.040077 60.0
97.132248 104.0
97.271568 132.0
97.559662 224.0
97.646851 168.0
97.938141 176.0
98.097748 220.0
98.411423 156.0
98.468689 148.0
98.490417 84.0
98.871338 240.0
99.299934 192.0
99.399117 232.0
99.597649 128.0
99.780472 136.0
100.058998 260.0
100.098816 96.0
100.123405 120.0
100.142632 164.0
100.19442 232.0
100.695091 116.0
100.869865 220.0
100.970886 156.0
101.038803 180.0
101.285118 164.0
101.329193 208.0
101.393501 208.0
101.762398 68.0
101.868835 136.0
101.975334 140.0
102.045692 144.0
102.108025 144.0
102.192513 204.0
102.581192 176.0
102.643692 168.0
102.788925 216.0
102.934258 160.0
102.956474 48.0
102.982727 216.0
103.05513 732.0
103.099907 304.0
103.245461 148.0
103.498405 180.0
103.654373 128.0
103.743553 112.0
103.767876 200.0
103.782066 80.0
103.919991 204.0
104.050957 1156.0
104.080338 64.0
104.250969 148.0
104.273323 136.0
104.337265 140.0
104.413597 152.0
104.963425 48.0
105.030632 176.0
105.047363 288.0
105.10009 52.0
105.34304 80.0
105.457466 44.0
105.529007 204.0
105.54332 104.0
105.848206 168.0
105.870728 80.0
105.987488 120.0
106.066345 1108.0
106.153519 76.0
106.212997 184.0
106.496246 112.0
106.707909 196.0
107.006226 212.0
107.455521 144.0
107.500916 124.0
107.661934 132.0
107.684647 132.0
107.932632 108.0
108.065002 248.0
108.156059 192.0
108.30307 152.0
108.470909 52.0
108.779984 160.0
109.052086 192.0
109.160187 212.0
109.178902 200.0
109.59314 192.0
109.730698 164.0
109.749458 228.0
109.970589 128.0
110.242081 184.0
110.798645 124.0
111.243225 244.0
111.518394 128.0
111.591965 96.0
111.751808 148.0
112.219383 68.0
112.337349 176.0
112.369125 132.0
112.556976 156.0
112.920448 148.0
114.772217 184.0
114.863922 112.0
114.989807 96.0
115.05529 1256.0
115.220421 156.0
115.705887 172.0
115.823662 148.0
115.857941 152.0
116.061363 304.0
116.170921 120.0
116.278206 160.0
116.473587 148.0
116.540184 132.0
116.778801 196.0
116.961685 132.0
117.026268 148.0
117.057945 1896.0
117.123177 60.0
117.265381 180.0
117.308487 180.0
117.485321 112.0
117.819931 44.0
117.89772 216.0
118.043549 156.0
118.065781 3312.0
118.189644 176.0
118.213448 44.0
118.50576 164.0
118.870033 212.0
119.028488 156.0
119.045303 172.0
119.066925 336.0
119.093643 192.0
119.150116 64.0
119.252251 236.0
119.363121 128.0
119.491447 216.0
119.580666 168.0
119.665558 132.0
119.826721 72.0
120.073044 140.0
120.103577 84.0
120.238846 72.0
120.313057 76.0
120.638557 140.0
121.084488 204.0
121.113396 180.0
121.418037 220.0
121.459709 144.0
121.604523 184.0
121.633057 164.0
121.966927 208.0
122.213234 228.0
122.602989 164.0
122.699974 116.0
122.966881 128.0
123.121414 88.0
123.463959 140.0
123.581192 120.0
123.736122 68.0
123.909119 140.0
124.307968 140.0
124.421165 124.0
124.729942 140.0
125.030197 96.0
125.150406 180.0
125.301857 76.0
125.473457 152.0
125.538124 108.0
125.631798 188.0
125.872841 72.0
126.17894 180.0
126.310883 136.0
126.331009 260.0
126.422417 188.0
126.991791 168.0
127.051659 168.0
127.270058 172.0
127.505928 52.0
127.557617 200.0
127.661041 148.0
127.791504 176.0
127.84832 160.0
127.917526 88.0
127.958054 164.0
127.973808 112.0
127.993805 168.0
128.050186 9780.0
128.086411 40.0
128.117401 164.0
128.172012 112.0
128.208069 80.0
128.273438 76.0
128.311752 40.0
128.532791 68.0
128.598236 64.0
128.781113 204.0
128.810486 72.0
128.846634 56.0
128.964127 132.0
129.055923 1016.0
129.319229 164.0
129.55925 72.0
129.747345 96.0
130.039459 200.0
130.065445 1544.0
130.094437 156.0
130.212509 44.0
130.232956 56.0
130.523834 144.0
130.626175 88.0
130.792282 88.0
131.066666 188.0
131.090637 140.0
131.145325 216.0
131.293518 232.0
131.885208 148.0
132.04834 308.0
132.083115 112.0
132.175125 120.0
132.376724 80.0
132.757645 68.0
132.885803 160.0
133.025558 152.0
133.051819 2276.0
133.161026 60.0
133.271286 136.0
133.289673 72.0
133.712799 180.0
133.850922 76.0
133.871643 176.0
134.05777 332.0
134.092804 168.0
134.595703 172.0
134.852127 196.0
135.06485 144.0
135.143494 180.0
135.277725 116.0
135.386551 76.0
135.541748 228.0
135.588104 412.0
135.91507 120.0
136.15416 144.0
136.252075 132.0
136.786575 148.0
137.366791 168.0
138.002014 120.0
138.142334 112.0
138.24762 168.0
138.666824 124.0
138.685577 100.0
138.741837 136.0
138.976364 196.0
139.053802 240.0
139.443665 128.0
139.608231 68.0
140.045761 184.0
140.260391 84.0
141.33493 236.0
141.382263 232.0
141.50061 160.0
141.538498 252.0
141.569275 200.0
141.623749 236.0
141.818039 60.0
141.979248 76.0
142.06517 660.0
142.204636 64.0
142.358948 160.0
142.732269 152.0
143.073059 2296.0
143.110336 48.0
143.329468 80.0
143.567841 96.0
143.660858 72.0
143.679947 92.0
143.734818 132.0
143.866089 136.0
143.921005 140.0
144.078903 1564.0
144.15509 80.0
144.205276 56.0
144.310455 64.0
144.358276 40.0
144.64537 216.0
144.985474 148.0
145.045395 168.0
145.08812 224.0
145.096939 164.0
145.158066 184.0
145.487442 144.0
145.549194 124.0
145.578323 176.0
145.611633 156.0
145.695694 184.0
145.71492 44.0
145.75174 260.0
145.767929 132.0
145.796616 212.0
145.826736 128.0
145.844681 140.0
145.919205 228.0
145.938446 156.0
145.957275 196.0
146.061188 66052.0
146.100159 220.0
146.119049 272.0
146.137344 80.0
146.199997 60.0
146.23317 100.0
146.276199 184.0
146.340958 60.0
146.358276 200.0
146.382263 88.0
146.412476 72.0
146.429337 48.0
146.457169 148.0
146.544968 28.0
146.57251 148.0
146.612427 48.0
146.638947 52.0
146.721619 160.0
146.81842 40.0
146.966232 116.0
147.000687 52.0
147.063309 5560.0
147.114883 188.0
147.147919 64.0
147.249344 80.0
147.430527 64.0
147.534454 88.0
147.55864 60.0
147.693054 132.0
147.846481 92.0
147.870682 100.0
147.926346 92.0
147.972351 40.0
148.000702 124.0
148.043869 104.0
148.065018 756.0
148.120071 48.0
148.151321 328.0
148.241196 144.0
148.277557 80.0
148.304214 72.0
148.321182 68.0
148.515152 64.0
148.551544 64.0
148.655869 36.0
148.840347 48.0
148.884064 180.0
149.06868 92.0
149.114853 132.0
149.4991 60.0
150.40329 192.0
151.435089 64.0
151.474289 156.0
151.542877 128.0
151.591888 96.0
151.780365 180.0
152.568741 60.0
154.064621 140.0
154.212875 88.0
154.284561 208.0
155.168381 48.0
155.798737 72.0
155.860855 56.0
156.047256 196.0
156.080856 3504.0
156.248703 156.0
156.836395 68.0
156.926132 80.0
157.087708 1244.0
157.150604 60.0
157.210495 80.0
157.337784 120.0
157.587524 52.0
158.093277 184.0
158.142685 60.0
158.162704 100.0
158.225281 44.0
158.375534 160.0
158.565948 68.0
159.070099 176.0
159.097702 172.0
159.509674 236.0
160.075714 596.0
160.73114 124.0
160.796738 128.0
161.046692 68.0
161.084244 8192.0
161.135101 44.0
161.294312 44.0
161.440948 64.0
161.461761 68.0
161.537064 56.0
161.607895 120.0
161.63826 48.0
161.810379 36.0
162.08931 1364.0
162.197952 32.0
162.268936 136.0
162.695145 124.0
163.076172 104.0
163.099045 200.0
163.348236 80.0
163.381485 108.0
163.745285 40.0
163.954193 88.0
164.091843 124.0
164.147934 80.0
164.431107 80.0
164.852478 72.0
169.173508 80.0
170.096237 204.0
171.104568 136.0
172.113068 1692.0
172.1427 136.0
172.288956 76.0
173.120926 464.0
174.119873 136.0
174.395737 92.0
174.571884 100.0
175.10611 168.0
178.461533 96.0
180.824997 192.0
183.14476 76.0
183.778259 120.0
188.027878 112.0
189.112808 48.0
190.120605 200.0
190.148804 212.0
191.124344 192.0
201.499802 48.0
202.096359 168.0
212.529404 76.0
225.879364 60.0
227.113434 76.0
238.085648 92.0
241.980103 56.0
256.864868 104.0
292.265594 48.0
294.618042 112.0
316.171936 48.0
317.046661 172.0
345.028412 68.0
380.999939 52.0
454.152374 104.0
466.337982 88.0
786.402771 72.0
786.687439 188.0
810.879822 56.0
820.953552 100.0
849.145203 236.0
864.72406 184.0
865.62561 152.0
868.561768 164.0
870.527771 116.0
870.821411 56.0
872.549011 236.0
885.092407 160.0
885.335205 68.0
927.849426 116.0
929.493042 216.0
934.590881 240.0
935.978638 164.0
947.497498 208.0
949.293335 144.0
951.569702 200.0
954.008606 28.0
974.595032 240.0
975.191589 196.0
977.299622 176.0
978.258057 156.0
986.085876 76.0
987.480042 56.0
1005.952881 160.0
1008.612183 156.0
1008.839722 204.0
1010.83197 112.0
1017.302856 168.0
1033.893555 172.0
1035.519653 220.0
1038.159912 168.0
1043.778564 156.0
1050.289429 160.0
1052.586914 160.0
1053.439331 152.0
1056.568115 148.0
1061.989868 76.0
1065.384644 240.0
1068.231934 184.0
1080.352051 148.0
1081.791748 160.0
1082.164917 96.0
1085.749146 168.0
1098.627563 152.0
1107.736694 212.0
1111.382935 104.0
1113.359985 200.0
1117.675049 180.0
1130.085205 132.0
1134.806885 136.0
1137.268799 184.0
1140.230591 168.0
1141.460815 52.0
1143.176147 212.0
1154.353516 148.0
1156.112305 88.0
1156.775513 164.0
1157.317139 76.0
1158.719116 156.0
1160.894775 144.0
1161.328857 144.0
1163.554565 116.0
1164.566284 228.0
1167.64502 128.0
1170.067383 236.0
1171.790405 224.0
1175.874756 120.0
1177.2948 176.0
1179.617676 176.0
1186.07251 44.0
1186.134155 60.0
1192.373047 140.0
1192.606689 164.0
1196.341675 160.0
1199.386353 184.0
1200.565186 160.0
1202.241577 176.0
1202.731567 160.0
1202.821289 228.0
1209.297607 140.0
1209.740601 148.0
1209.968994 108.0
1215.624756 184.0
1217.971313 220.0
1221.182373 204.0
1221.314453 160.0
1224.801636 168.0
1226.516357 208.0
1226.899048 56.0
1227.394043 204.0
1235.369751 180.0
1240.299194 108.0
1244.466187 168.0
1248.246338 180.0
1250.983154 128.0
1253.398804 68.0
1258.583008 200.0
1259.091431 96.0
1259.790649 88.0
1262.342041 140.0
1262.525879 108.0
1264.995117 76.0
1265.065918 180.0
1275.756226 228.0
1283.523438 180.0
1285.135498 176.0
1287.648071 144.0
1290.963989 192.0
1291.500366 228.0
1295.12915 172.0
1298.268188 96.0
1302.72522 324.0
1304.478638 64.0
1306.643188 136.0
1307.758545 228.0
1312.361572 76.0
1312.650024 136.0
1314.698608 200.0
1316.900513 180.0
1317.32666 68.0
1317.658936 68.0
1319.646484 208.0
1320.666138 160.0
1323.061157 132.0
1323.314575 276.0
1323.408691 156.0
1324.270386 60.0
1329.853027 116.0
1329.983643 260.0
1330.085327 164.0
1331.225098 160.0
1332.481689 192.0
1334.400269 128.0
1335.112915 148.0
1335.243774 180.0
1337.630249 132.0
1339.807495 140.0
1342.599121 172.0
1343.408691 192.0
1343.569214 72.0
1343.64209 160.0
1345.043213 180.0
1345.598022 252.0
1346.569214 112.0
1346.911011 184.0
1347.160767 192.0
1347.686768 136.0
1349.952637 136.0
1354.255859 196.0
1355.75769 152.0
1356.182739 200.0
1357.143066 220.0
1357.494995 128.0
1358.536499 176.0
1361.259399 184.0
1362.897339 108.0
1362.94873 164.0
1364.190796 124.0
1364.455444 136.0
1373.114624 288.0
1373.276855 200.0
1373.630981 72.0
1373.844849 200.0
1375.483032 152.0
1375.925903 164.0
1377.912476 104.0
1378.555298 120.0
1380.617798 164.0
1384.828735 192.0
1385.510254 68.0
1386.088135 160.0
1388.319336 108.0
1389.973511 48.0
1393.515137 72.0
1394.079834 160.0
1394.258179 144.0
1402.660889 184.0
1404.480225 160.0
1405.159058 164.0
1406.36792 192.0
1406.442505 196.0
1407.271118 108.0
1408.518188 148.0
1409.063599 184.0
1410.36377 132.0
1410.72998 284.0
1411.051514 140.0
1411.604736 132.0
1412.524658 216.0
1412.666748 156.0
1413.833984 320.0
1414.769531 56.0
1414.986694 168.0
1416.297119 152.0
1418.065308 220.0
1420.599609 156.0
1420.884644 188.0
1422.092773 200.0
1422.633179 144.0
1424.465454 176.0
1424.73584 156.0
1426.073364 184.0
1427.697144 204.0
1428.577148 156.0
1431.098267 148.0
1438.78064 220.0
1439.777222 168.0
1442.013428 176.0
1442.187256 148.0
1443.669067 196.0
1446.521362 48.0
1446.725708 48.0
1447.588867 232.0
1449.134033 164.0
1449.876587 104.0
1451.271362 124.0
1452.606079 124.0
1452.689453 136.0
1455.026733 144.0
1456.788574 204.0
1458.011841 236.0
1458.840332 136.0
1460.368652 244.0
1460.611938 220.0
1463.587524 116.0
1465.339233 116.0
1466.383179 112.0
1470.845093 168.0
1470.959473 172.0
1471.456543 176.0
1472.135254 104.0
1474.235962 124.0
1474.313721 116.0
1475.504761 212.0
1476.682251 140.0
1478.197021 216.0
1478.625488 116.0
1478.885742 72.0
1481.642334 184.0
1482.125 108.0
1486.004517 148.0
1486.695068 204.0
1487.263062 232.0
1487.715942 132.0
1488.652588 116.0
1489.02124 100.0
1489.505005 180.0
1489.835327 124.0
1491.11853 60.0
1491.356812 108.0
1491.479736 200.0
1492.340698 160.0
1494.232666 144.0
1494.378906 168.0
1494.994385 200.0
1496.133545 208.0
1498.112671 196.0
1498.320557 140.0
1498.482422 140.0
1500.355103 232.0
1501.210938 180.0
1501.511719 220.0
1503.162476 84.0
1503.640991 216.0
