>compound Nobiletin
>formula C21H22O8
>ionization [M+H]+
>parentmass 403.1387441160905
#inchi InChI=1S/C21H22O8/c1-23-13-8-7-11(9-15(13)24-2)14-10-12(22)16-17(25-3)19(26-4)21(28-6)20(27-5)18(16)29-14/h7-10H,1-6H3
#inchikey MRIAQLRQZPPODS
#Ion_Source LC-ESI
#Instrument qTof
#Compound_Source Commercial
#PI Dorrestein
#Data_Collector Garg_Neha
#Scan -1
#Precursor_MZ 403.139
#ExactMass 402.131
#Charge 1
#CAS_Number N/A
#Pubmed_ID N/A
#Smiles COc1ccc(cc1OC)c2cc(=O)c3c(OC)c(OC)c(OC)c(OC)c3o2
#INCHI_AUX N/A
#Library_Class 1
#SpectrumID CCMSLIB00000078911
#IonMode Positive
#UpdateWorkflowName UPDATE-SINGLE-ANNOTATED-GOLD
#LibraryQualityString Gold
#TaskID 278b19f5865741e282cec7349aa7e7a1
##Scan# 1472
#SpectrumFile NCP003272_A2_B11_BB8_01_15713.mzXML
#LibraryName NIHcollectionI_05062014.mgf
#MQScore -1
#Organism NIHcollectionI_05062014
#TIC_Query 0
#RT_Query -1
#MZErrorPPM -1
#SharedPeaks 0
#MassDiff 0
#LibMZ -1
#SpecMZ 403.139
#SpecCharge 0
#internalFilename spec-00000.mgf

>collision 10
45.234962 168.0
51.383682 148.0
54.792603 152.0
55.342026 160.0
56.681122 148.0
60.837914 148.0
62.852276 144.0
63.913918 148.0
68.31353 232.0
69.140175 152.0
69.237854 160.0
76.105827 164.0
78.529617 176.0
89.922874 156.0
90.613075 164.0
94.198303 188.0
95.693535 168.0
96.089172 168.0
101.760048 144.0
102.956139 176.0
103.680389 148.0
105.003899 212.0
106.106056 192.0
110.945076 160.0
113.665894 184.0
122.446404 184.0
125.633888 140.0
126.586029 196.0
126.814537 176.0
126.866096 184.0
128.280075 156.0
129.369202 156.0
130.366898 176.0
133.526382 156.0
133.979828 180.0
135.043976 156.0
137.061356 140.0
138.065125 176.0
138.673828 148.0
144.508987 212.0
145.067001 160.0
147.172119 152.0
148.057159 156.0
148.510376 144.0
153.968399 152.0
155.029694 140.0
157.065933 164.0
157.332657 156.0
158.185394 188.0
162.069351 248.0
162.652191 144.0
163.073044 664.0
164.079483 304.0
165.020203 500.0
165.054062 1052.0
166.030685 156.0
166.058502 236.0
166.343307 144.0
166.435745 164.0
168.006882 132.0
168.294754 156.0
168.935699 180.0
173.094833 204.0
174.948456 152.0
175.078369 160.0
176.106033 204.0
177.058151 156.0
177.720856 180.0
179.031342 184.0
179.052643 260.0
180.036728 212.0
180.469604 160.0
181.014145 308.0
181.051529 164.0
183.029526 2380.0
184.029526 160.0
185.054413 192.0
186.190582 148.0
186.968109 148.0
187.240356 180.0
187.763611 156.0
187.83725 160.0
189.05307 320.0
189.439133 152.0
189.677521 140.0
190.783798 184.0
190.819534 148.0
190.965286 160.0
193.01358 460.0
194.015823 200.0
195.015854 176.0
195.714096 156.0
197.010971 148.0
199.21846 140.0
199.830917 132.0
200.481796 236.0
203.065796 160.0
203.105499 164.0
205.084473 152.0
206.303329 148.0
207.095963 148.0
207.657715 160.0
208.072571 112.0
209.010773 192.0
209.071213 148.0
211.023788 3240.0
211.128128 140.0
211.281509 128.0
212.024765 284.0
213.026169 272.0
213.666153 160.0
216.078888 160.0
216.248611 144.0
220.567352 192.0
221.362335 196.0
225.560303 148.0
226.089706 172.0
227.069351 148.0
227.360367 148.0
229.039536 224.0
229.095261 204.0
230.069336 220.0
230.265594 184.0
231.068832 484.0
231.101334 164.0
232.068069 148.0
234.321259 160.0
235.175095 140.0
236.024368 184.0
237.899399 168.0
239.064026 172.0
239.797241 176.0
239.960617 140.0
241.067932 332.0
242.075424 156.0
243.05809 240.0
244.038223 184.0
244.071228 380.0
246.085297 188.0
250.346558 140.0
251.080841 164.0
251.737244 168.0
252.615891 200.0
252.669662 156.0
255.06369 132.0
255.156082 208.0
256.068817 180.0
257.078003 192.0
258.051239 836.0
258.703613 236.0
258.886932 152.0
259.056122 452.0
259.11673 144.0
259.4133 132.0
259.738617 164.0
260.069122 264.0
260.178253 160.0
264.031982 168.0
267.064484 152.0
268.115143 160.0
268.647552 212.0
269.032166 120.0
269.075134 212.0
269.156677 176.0
270.088104 152.0
271.091522 236.0
272.067444 332.0
273.075226 240.0
273.260315 148.0
274.082123 584.0
275.089355 308.0
278.07605 188.0
280.283112 140.0
281.04126 188.0
281.088257 196.0
281.778259 144.0
283.098969 132.0
284.067657 204.0
285.088379 172.0
286.082031 440.0
287.059906 192.0
287.097565 164.0
287.745972 156.0
291.363007 204.0
294.599365 168.0
295.560059 176.0
295.587433 200.0
295.761993 144.0
297.034607 308.0
297.078003 212.0
299.055878 272.0
299.0914 976.0
299.205048 232.0
300.065155 196.0
300.102509 296.0
300.211182 260.0
300.84256 188.0
301.069061 1304.0
301.212067 172.0
301.930206 164.0
302.078247 892.0
303.08786 252.0
303.908936 148.0
304.304596 160.0
304.759583 148.0
305.514008 148.0
308.432739 144.0
308.901276 144.0
309.074554 420.0
309.492737 144.0
310.810669 176.0
311.093964 284.0
311.123016 148.0
312.06604 544.0
312.163025 176.0
313.070923 916.0
313.115204 248.0
313.285797 172.0
314.073669 500.0
315.051147 1236.0
316.048035 356.0
316.088745 144.0
316.393524 152.0
317.038177 140.0
317.094177 144.0
318.80899 156.0
319.118256 140.0
321.055328 144.0
323.052429 168.0
324.094055 232.0
325.035278 244.0
325.068817 336.0
325.107758 324.0
326.072357 208.0
326.369385 200.0
327.086853 6564.0
328.059723 488.0
328.091644 1500.0
328.842163 112.0
329.065735 1540.0
329.246307 140.0
329.931488 144.0
330.073822 4456.0
330.535492 180.0
331.072632 452.0
332.082397 228.0
333.393005 148.0
335.252594 156.0
335.467773 104.0
337.058899 168.0
338.957153 104.0
339.051178 176.0
339.087585 308.0
339.221863 144.0
340.057373 264.0
341.072906 224.0
341.099274 804.0
341.237335 144.0
342.076111 268.0
342.105133 436.0
342.219666 232.0
343.044342 1232.0
343.079559 872.0
344.047974 548.0
344.089386 848.0
344.295715 164.0
345.056824 408.0
345.098297 3820.0
346.10257 512.0
346.602661 144.0
347.104095 136.0
348.462891 156.0
348.555786 160.0
349.690002 152.0
353.06012 600.0
354.081696 268.0
355.080597 5500.0
355.746704 228.0
356.088593 676.0
356.233246 100.0
356.831085 140.0
357.063171 692.0
357.092407 908.0
358.067871 7956.0
358.291321 184.0
358.423187 148.0
358.577698 148.0
359.07309 1860.0
359.105804 1084.0
359.792297 200.0
360.06958 356.0
360.10672 120.0
360.305908 168.0
361.705078 144.0
362.076141 204.0
365.496429 164.0
368.390137 204.0
369.095032 640.0
369.885284 164.0
370.10434 296.0
370.163055 124.0
370.970642 132.0
371.076691 152.0
371.119171 304.0
371.808685 140.0
372.088165 132.0
372.175201 108.0
372.283508 248.0
372.349731 184.0
372.477539 120.0
372.542725 168.0
372.66748 104.0
372.709137 164.0
372.92392 172.0
373.09314 67672.0
373.435272 176.0
373.676331 152.0
373.725311 124.0
373.850342 204.0
373.919373 252.0
374.0289 192.0
374.096313 15116.0
374.378174 168.0
374.653839 108.0
375.097534 1860.0
375.221222 144.0
376.101654 356.0
376.307312 148.0
376.360474 144.0
376.389069 104.0
376.43573 172.0
376.49649 196.0
376.589996 128.0
378.549622 112.0
379.063171 144.0
379.29837 164.0
379.733856 224.0
383.454559 144.0
386.379272 152.0
386.664917 144.0
387.107239 1188.0
387.154266 392.0
387.310913 196.0
387.565582 236.0
387.988861 176.0
388.046967 156.0
388.115234 4720.0
389.121704 672.0
389.233093 284.0
389.531067 240.0
390.122986 368.0
394.219574 212.0
398.312256 188.0
400.95578 148.0
401.699768 156.0
401.748871 116.0
401.795593 96.0
401.847351 188.0
401.973816 284.0
402.171417 128.0
402.232635 96.0
402.309418 120.0
402.395935 124.0
402.503479 216.0
402.626831 264.0
402.682526 144.0
402.800262 280.0
402.890381 132.0
402.921326 260.0
402.976135 340.0
403.027649 276.0
403.140869 159236.0
403.277924 348.0
403.401398 136.0
403.471863 164.0
403.521515 104.0
403.624542 272.0
403.680908 200.0
403.713623 156.0
403.797882 1028.0
403.856171 100.0
403.925293 164.0
403.959229 148.0
404.035858 284.0
404.142883 32848.0
404.256348 176.0
404.470154 128.0
404.568146 232.0
404.628754 124.0
404.788116 116.0
404.949371 108.0
405.080933 184.0
405.145447 5448.0
405.222046 164.0
405.313934 136.0
405.786865 156.0
405.875092 196.0
406.083954 96.0
406.145477 696.0
406.270905 108.0
406.472137 136.0
406.550385 116.0
406.584137 124.0
406.625671 156.0
406.667053 172.0
406.710175 228.0
406.744202 208.0
406.809631 196.0
407.857544 108.0
408.400482 104.0
408.524689 116.0
408.879883 152.0
420.593445 148.0
424.340454 96.0
475.933228 164.0
492.434418 152.0
615.322876 148.0
631.822998 164.0
868.80603 136.0
1006.477905 140.0
1088.252319 156.0
1276.476074 148.0
1448.330811 160.0
1513.03418 212.0
1675.389282 164.0
1888.113037 156.0
