>compound MLS001049045-01!5,7-dihydroxy-6-methoxy-2-(4-methoxyphenyl)chromen-4-one
>formula C17H14O6
>ionization [M+H]+
>parentmass 315.086639
#inchi InChI=1S/C17H14O6/c1-21-10-5-3-9(4-6-10)13-7-11(18)15-14(23-13)8-12(19)17(22-2)16(15)20/h3-8,19-20H,1-2H3
#inchikey GPQLHGCIAUEJQK
#Ion_Source LC-ESI
#Instrument qTof
#Compound_Source NIH Natural Product Library
#PI Dorrestein
#Data_Collector VVP/LMS
#Scan -1
#Precursor_MZ 315.087
#ExactMass 314.079
#Charge 1
#CAS_Number N/A
#Pubmed_ID N/A
#Smiles COc1ccc(cc1)c2cc(=O)c3c(O)c(OC)c(O)cc3o2
#INCHI_AUX N/A
#Library_Class 1
#SpectrumID CCMSLIB00000080506
#IonMode Positive
#UpdateWorkflowName UPDATE-SINGLE-ANNOTATED-GOLD
#LibraryQualityString Gold
#TaskID b1d8e8f6646f4e71acdff9ca3d919d08
##Scan# 2204
#SpectrumFile p2-A10_GA10_01_17986.mzXML
#LibraryName NIH_Natural_Products_Library.mgf
#MQScore -1
#Organism NIH_Natural_Products_Library
#TIC_Query 0
#RT_Query -1
#MZErrorPPM -1
#SharedPeaks 0
#MassDiff 0
#LibMZ -1
#SpecMZ 315.087
#SpecCharge 0
#internalFilename spec-00000.mgf

>collision 10
95.005424 76.0
95.164566 152.0
95.201462 120.0
95.421036 156.0
95.605827 164.0
95.919411 84.0
96.011047 164.0
96.077362 148.0
96.139809 188.0
96.192505 56.0
96.221031 196.0
96.245216 248.0
96.528557 156.0
96.585274 168.0
96.606789 116.0
96.677231 156.0
97.48407 116.0
97.538254 164.0
97.595268 136.0
97.69754 196.0
97.994827 160.0
98.310326 44.0
98.422844 204.0
98.537399 204.0
98.693542 164.0
98.707382 176.0
98.76474 180.0
98.930962 160.0
99.00795 4284.0
99.036858 208.0
99.561493 140.0
99.893425 136.0
100.008705 176.0
100.235878 132.0
100.279716 132.0
100.447212 188.0
100.525665 136.0
100.566933 88.0
100.624825 216.0
100.842567 104.0
101.012527 148.0
101.060539 88.0
101.230682 160.0
101.360893 220.0
101.519257 184.0
101.551346 172.0
101.625572 152.0
101.838364 56.0
101.949738 148.0
102.075508 80.0
102.157974 156.0
102.192177 72.0
102.341118 160.0
102.631271 216.0
102.808784 272.0
102.992516 44.0
103.054665 924.0
103.097572 156.0
103.192581 156.0
103.33416 184.0
103.710823 224.0
103.942024 216.0
104.054886 152.0
104.132851 44.0
104.226303 244.0
104.478416 64.0
104.567947 68.0
104.588303 144.0
104.696213 168.0
104.879578 176.0
105.087593 196.0
105.373428 68.0
105.647385 176.0
105.67421 180.0
105.755836 216.0
105.784492 176.0
105.83773 104.0
105.852058 232.0
105.911453 116.0
105.942177 148.0
105.968811 60.0
106.067184 216.0
106.120483 152.0
106.290733 156.0
106.409782 156.0
106.459061 156.0
107.014252 220.0
107.048637 212.0
107.106926 244.0
107.176971 188.0
107.313011 168.0
107.490402 120.0
107.504845 116.0
107.647285 192.0
107.717506 112.0
107.920044 132.0
108.056549 140.0
108.362976 204.0
108.443794 136.0
108.464523 224.0
108.505981 144.0
108.790207 108.0
109.026993 168.0
109.054008 180.0
109.370171 208.0
109.438652 156.0
109.465942 172.0
109.81189 148.0
110.049789 128.0
110.275406 104.0
110.712662 132.0
110.880264 236.0
111.047997 224.0
111.369125 220.0
111.421646 176.0
111.648659 108.0
111.686516 108.0
111.781189 120.0
111.915909 156.0
111.93486 176.0
111.991722 136.0
112.016182 7920.0
112.082314 212.0
112.101273 88.0
112.15818 164.0
112.17926 136.0
112.223534 40.0
112.24884 336.0
112.371178 84.0
112.426041 132.0
112.643509 32.0
112.736473 76.0
112.864464 176.0
113.021057 184.0
113.377708 220.0
113.449776 152.0
113.481583 160.0
113.502785 104.0
113.53035 160.0
113.93428 160.0
114.498489 88.0
114.667763 152.0
114.727448 120.0
114.797813 220.0
114.930069 168.0
115.053627 288.0
115.179848 152.0
115.365761 52.0
115.566803 148.0
115.830124 176.0
115.982262 176.0
116.029427 144.0
116.170967 96.0
116.338356 156.0
116.54454 64.0
116.583221 48.0
116.656296 88.0
116.839096 208.0
117.034264 512.0
117.073715 136.0
117.474617 168.0
117.588974 132.0
117.606247 132.0
117.649414 120.0
117.798424 136.0
117.823952 176.0
117.831612 144.0
117.889168 132.0
118.05365 236.0
118.265488 204.0
118.321777 136.0
118.484207 200.0
118.789879 152.0
119.01342 188.0
119.030785 112.0
119.047874 232.0
119.117661 176.0
119.132866 192.0
119.167633 148.0
119.278465 204.0
119.423737 252.0
119.480705 160.0
119.876991 140.0
120.040482 188.0
120.062294 72.0
120.356888 144.0
120.586273 180.0
120.804932 208.0
120.855247 172.0
120.892448 172.0
121.061012 172.0
121.078537 172.0
121.157394 128.0
121.185875 76.0
121.293259 64.0
121.378761 156.0
121.918785 220.0
121.942963 208.0
121.998413 728.0
122.266266 136.0
122.310287 192.0
122.627457 180.0
122.693588 132.0
122.861198 172.0
122.942841 76.0
123.006645 172.0
123.035545 44.0
123.212227 144.0
123.521721 164.0
123.737099 168.0
123.840462 200.0
124.002205 172.0
124.042099 120.0
124.155182 132.0
124.197319 144.0
124.241684 172.0
124.26609 152.0
124.327087 156.0
124.723564 36.0
124.843628 228.0
124.950394 108.0
125.054985 120.0
125.279884 116.0
125.471542 56.0
125.587502 180.0
125.745918 164.0
125.779396 160.0
125.857536 116.0
126.282143 160.0
126.425323 132.0
126.956268 152.0
127.002602 4092.0
127.061691 148.0
127.10881 100.0
127.299614 44.0
127.344528 180.0
127.393951 108.0
128.006104 196.0
128.066528 116.0
128.134109 108.0
128.704742 204.0
128.799606 376.0
128.987152 124.0
129.102463 72.0
129.233658 176.0
129.315125 200.0
129.48494 208.0
129.942825 392.0
130.219772 200.0
131.020477 144.0
131.049774 464.0
131.072891 160.0
131.202805 256.0
132.057266 2304.0
132.111725 48.0
132.155197 80.0
132.242157 52.0
132.413879 48.0
132.959534 240.0
133.037567 176.0
133.064346 5852.0
133.111038 76.0
133.143188 68.0
133.277863 96.0
133.343079 124.0
133.379211 72.0
133.416626 40.0
133.736374 144.0
133.966644 192.0
134.01503 124.0
134.035767 72.0
134.068192 1148.0
134.169449 84.0
134.298584 64.0
134.55011 32.0
134.674805 184.0
134.721008 136.0
134.926697 64.0
134.970627 148.0
134.986801 168.0
135.019302 120.0
135.044769 7612.0
135.088577 128.0
135.104767 28.0
135.192688 52.0
135.220459 136.0
135.26445 176.0
135.296844 84.0
135.336212 56.0
135.361679 88.0
135.419586 48.0
135.43811 200.0
135.458054 124.0
135.65361 132.0
135.713898 56.0
135.748672 128.0
135.769547 60.0
135.818253 56.0
135.855362 80.0
135.913361 148.0
135.943527 244.0
135.996918 84.0
136.047821 1024.0
136.208221 84.0
136.259323 128.0
136.352264 196.0
136.440598 240.0
136.7686 92.0
136.784897 96.0
136.96254 224.0
137.020798 156.0
137.044312 144.0
137.058914 164.0
137.260178 200.0
137.986343 128.0
138.180466 208.0
138.391113 164.0
138.548019 52.0
138.564423 172.0
138.673431 104.0
138.833984 120.0
138.890274 100.0
138.930161 160.0
139.003632 348.0
139.053207 156.0
139.108505 76.0
139.237656 160.0
139.333954 124.0
139.432648 156.0
139.451447 112.0
139.489059 84.0
139.552536 68.0
139.660706 56.0
139.968872 140.0
139.976791 132.0
140.011124 7928.0
140.058807 188.0
140.127899 44.0
140.181015 108.0
140.261154 52.0
140.317734 44.0
140.334229 72.0
140.508759 100.0
140.532364 88.0
140.559235 144.0
140.605042 204.0
140.692841 48.0
140.744797 88.0
140.931396 88.0
141.012558 792.0
141.071823 192.0
141.276566 52.0
141.513062 52.0
141.565338 188.0
141.683762 104.0
141.856766 108.0
141.906281 104.0
142.006149 60.0
142.305145 44.0
142.485657 176.0
142.820847 148.0
143.04451 332.0
143.099274 184.0
143.220718 72.0
143.549622 100.0
144.056854 144.0
144.237213 192.0
144.58403 164.0
144.608612 108.0
144.634293 104.0
144.91861 156.0
145.067902 296.0
145.310089 108.0
145.346085 148.0
145.379669 140.0
145.401276 44.0
145.439682 256.0
145.629364 168.0
145.660583 204.0
145.763901 200.0
146.068756 612.0
146.086075 168.0
146.261734 96.0
146.50737 88.0
146.541092 148.0
146.770081 92.0
146.815887 188.0
146.871368 184.0
147.042679 392.0
147.086121 152.0
147.422958 152.0
147.564453 200.0
147.623566 160.0
147.753098 84.0
147.849884 204.0
147.920074 192.0
148.048401 92.0
148.091995 136.0
148.642319 148.0
148.860794 156.0
148.911789 248.0
149.057556 216.0
149.076996 192.0
149.288498 184.0
149.575592 164.0
149.714371 108.0
149.845901 116.0
149.887329 196.0
150.009186 188.0
150.133545 124.0
150.153046 44.0
150.201828 48.0
150.255508 192.0
150.331146 156.0
150.570389 200.0
150.804947 180.0
150.822052 172.0
150.958969 208.0
151.07637 108.0
151.110611 100.0
151.245819 32.0
151.600342 124.0
151.720444 124.0
151.855316 140.0
152.068771 224.0
152.1866 152.0
152.415039 44.0
152.754318 148.0
152.897034 200.0
153.015182 32.0
153.485794 144.0
153.628845 136.0
153.764557 44.0
153.954651 152.0
154.073212 176.0
154.587509 204.0
154.679092 64.0
154.997742 1520.0
155.04599 192.0
155.489594 60.0
155.966476 124.0
155.998779 308.0
156.052414 308.0
156.090775 184.0
156.125595 112.0
156.190826 176.0
156.243011 216.0
156.26738 76.0
156.332077 180.0
156.777847 168.0
156.82283 160.0
156.97229 136.0
157.069565 172.0
157.34407 164.0
157.47142 140.0
157.543854 148.0
157.834717 188.0
158.01387 140.0
158.080307 144.0
158.103943 32.0
158.189056 240.0
158.414429 164.0
158.537201 116.0
158.632446 156.0
158.685089 156.0
158.805466 84.0
159.047302 252.0
159.073227 224.0
159.106583 200.0
159.292419 196.0
159.641785 128.0
159.747421 156.0
159.93866 220.0
160.05983 152.0
160.088654 264.0
160.518112 140.0
160.772903 64.0
160.952133 124.0
160.972336 148.0
160.990021 80.0
161.060013 1072.0
161.260345 104.0
161.401917 140.0
161.829529 88.0
162.036346 140.0
162.0625 280.0
162.105621 220.0
162.138565 224.0
162.280533 232.0
162.595078 192.0
162.643295 216.0
162.778519 148.0
162.981064 48.0
163.489655 136.0
163.632202 56.0
163.680573 152.0
163.708588 92.0
163.909836 124.0
164.200455 192.0
164.435165 180.0
164.700714 124.0
165.017975 204.0
165.333084 132.0
165.812973 112.0
166.118835 176.0
166.236862 144.0
166.439392 240.0
166.655411 92.0
166.732498 72.0
166.902161 92.0
166.999893 188.0
167.033325 208.0
167.06163 40.0
167.097641 208.0
167.118225 180.0
167.159393 140.0
167.324127 92.0
167.442581 168.0
167.499237 204.0
167.579102 104.0
167.691299 224.0
167.782715 220.0
167.827728 244.0
167.908707 200.0
167.944885 108.0
167.964005 212.0
168.006699 59856.0
168.059128 92.0
168.095367 168.0
168.191467 88.0
168.236771 56.0
168.262589 92.0
168.296143 52.0
168.316803 44.0
168.337463 144.0
168.376633 72.0
168.40799 104.0
168.432404 252.0
168.48468 48.0
168.593338 80.0
168.655243 36.0
168.686264 132.0
168.766876 108.0
168.810364 60.0
168.835373 132.0
168.854324 48.0
168.920654 56.0
169.009628 3400.0
169.070267 292.0
169.097534 48.0
169.122482 200.0
169.140228 172.0
169.247681 92.0
169.265808 180.0
169.317596 52.0
169.402374 128.0
169.467438 104.0
169.476517 160.0
169.524841 136.0
169.607788 84.0
169.629013 64.0
169.737411 116.0
169.924164 120.0
169.980682 128.0
170.009338 760.0
170.077621 272.0
170.219635 96.0
170.244263 124.0
170.285782 92.0
170.31218 64.0
170.373306 112.0
170.407074 56.0
170.482437 128.0
170.500626 84.0
170.862061 112.0
170.966141 32.0
170.997375 116.0
171.046387 236.0
171.077164 704.0
171.15097 72.0
171.174408 76.0
171.664307 208.0
171.71907 160.0
171.985214 184.0
172.053665 184.0
172.149689 44.0
172.57431 72.0
172.774384 152.0
172.920929 92.0
173.060303 352.0
173.135605 200.0
173.279678 156.0
173.384491 168.0
173.804062 248.0
174.067825 840.0
174.234665 116.0
174.334503 48.0
174.363419 104.0
175.042145 44.0
175.072845 352.0
175.121155 64.0
175.273941 132.0
175.326645 120.0
175.358276 176.0
175.447906 176.0
175.614029 144.0
175.70108 136.0
176.069458 108.0
176.178925 180.0
176.258179 40.0
176.47493 88.0
176.570129 208.0
176.752655 84.0
176.795868 196.0
176.847931 44.0
176.962448 156.0
177.030609 112.0
177.136551 272.0
177.18689 108.0
177.295532 128.0
177.330307 160.0
177.953384 48.0
178.280106 144.0
178.298706 144.0
178.543289 100.0
178.793381 60.0
178.945099 200.0
178.995697 204.0
179.12619 140.0
179.52066 44.0
179.598007 136.0
179.696701 164.0
179.904877 52.0
180.193298 208.0
180.367004 160.0
180.736084 136.0
180.78157 132.0
181.07338 152.0
181.730148 208.0
181.781128 168.0
181.818695 112.0
181.94754 136.0
182.07106 120.0
182.103287 208.0
182.988007 136.0
183.042572 412.0
183.24118 192.0
183.607773 76.0
183.764236 144.0
183.80098 84.0
184.048203 508.0
184.15567 204.0
184.444778 68.0
184.49884 72.0
184.704361 176.0
185.015564 60.0
185.061935 312.0
185.096802 144.0
185.519455 128.0
185.557419 208.0
185.722839 208.0
185.853058 172.0
186.016876 3432.0
186.063538 128.0
186.36351 72.0
186.629883 56.0
186.735947 52.0
187.019989 648.0
187.084244 128.0
187.153366 92.0
187.250336 176.0
187.353851 148.0
188.027359 176.0
188.083038 200.0
188.47522 180.0
188.502533 40.0
188.671997 104.0
189.046722 180.0
189.093246 172.0
189.380737 64.0
189.709564 164.0
189.778107 188.0
190.000259 132.0
190.035919 92.0
190.060623 328.0
191.066223 160.0
191.575516 112.0
191.897964 120.0
192.102051 124.0
192.695618 140.0
192.739822 140.0
193.010406 144.0
193.063248 132.0
193.259644 192.0
193.306686 136.0
193.334366 40.0
193.608444 236.0
193.663834 152.0
194.676132 152.0
194.720566 132.0
194.767776 148.0
194.834457 164.0
195.041183 172.0
195.173538 140.0
195.259735 132.0
195.604767 80.0
195.919434 128.0
196.415634 132.0
196.521652 112.0
196.647232 132.0
196.727646 168.0
197.061295 392.0
197.236588 212.0
197.569351 188.0
197.933212 184.0
197.966812 140.0
198.067184 524.0
198.168488 104.0
198.373077 140.0
199.072678 264.0
199.105408 172.0
199.595291 124.0
199.805328 152.0
199.878479 116.0
199.915054 152.0
200.042816 272.0
200.072678 180.0
200.69252 160.0
200.884293 176.0
201.054337 644.0
201.37262 168.0
201.641022 56.0
201.731476 104.0
201.802155 28.0
201.971832 184.0
202.06102 436.0
202.569107 164.0
203.073654 144.0
203.275085 128.0
203.522034 148.0
203.769135 156.0
204.093155 84.0
204.300781 108.0
204.781845 240.0
205.046814 132.0
205.075317 128.0
205.109512 240.0
205.206451 32.0
205.483093 132.0
205.580109 32.0
205.731384 172.0
206.297028 52.0
207.333176 148.0
208.222549 244.0
208.665085 176.0
208.820358 212.0
208.878922 168.0
209.058823 252.0
209.347031 260.0
209.900314 120.0
209.957977 148.0
210.007019 232.0
210.073364 112.0
210.555389 68.0
210.595825 48.0
210.922333 96.0
211.043762 112.0
211.234634 140.0
212.056961 140.0
212.117722 208.0
212.175812 96.0
212.57608 152.0
212.625412 132.0
213.052383 196.0
213.476624 84.0
213.784988 76.0
214.012039 40.0
214.059067 204.0
214.312042 96.0
214.419861 148.0
214.626846 124.0
214.772842 192.0
214.895187 80.0
215.044388 152.0
215.07193 392.0
215.154938 164.0
215.265884 104.0
215.435287 232.0
215.692444 168.0
215.920502 160.0
216.04628 152.0
216.079514 440.0
216.12236 148.0
216.227707 56.0
216.453125 188.0
216.558548 32.0
216.620056 72.0
216.792923 180.0
217.068481 148.0
217.523239 208.0
218.063705 132.0
218.999344 180.0
219.028793 204.0
219.061691 180.0
219.096542 192.0
219.288086 40.0
219.500351 80.0
219.715652 64.0
219.90451 132.0
220.232254 160.0
220.338593 136.0
221.104446 172.0
221.907211 188.0
222.097 112.0
222.123703 48.0
222.384811 132.0
223.109619 152.0
223.537918 156.0
224.082825 128.0
224.419617 96.0
224.476273 136.0
225.057037 172.0
225.099945 80.0
225.515213 144.0
225.586945 100.0
225.680756 192.0
225.90094 92.0
225.990692 92.0
226.065277 1172.0
226.358871 140.0
226.394806 68.0
226.694382 208.0
226.727341 104.0
227.069046 800.0
227.1651 184.0
227.612289 116.0
227.67836 172.0
227.714401 148.0
228.044525 468.0
228.076721 192.0
228.22226 108.0
228.655441 152.0
228.854126 132.0
229.050613 1680.0
229.186584 64.0
229.483841 108.0
229.565262 44.0
229.878998 124.0
229.96048 164.0
230.058716 692.0
230.504074 60.0
230.546387 168.0
230.594742 188.0
230.761002 216.0
230.794266 116.0
231.057526 176.0
231.099747 56.0
231.295624 72.0
231.353973 72.0
232.072021 116.0
232.517944 124.0
233.048035 228.0
233.374588 160.0
233.468857 248.0
233.757843 148.0
234.141434 68.0
234.211487 132.0
234.595428 200.0
235.046829 128.0
235.492538 204.0
236.434204 156.0
236.908813 164.0
237.074265 104.0
237.755081 80.0
238.280167 176.0
238.787369 192.0
238.885788 160.0
239.041534 316.0
239.402878 80.0
239.806473 132.0
240.188812 80.0
241.046036 164.0
241.43042 160.0
241.653137 224.0
242.529526 240.0
242.706238 32.0
242.99469 32.0
243.067291 832.0
243.137436 80.0
243.336105 64.0
243.509995 36.0
244.062698 360.0
244.274643 92.0
244.604492 216.0
244.626282 184.0
245.043594 164.0
245.087219 172.0
246.21257 324.0
246.825836 92.0
247.241898 140.0
248.07225 196.0
249.069809 80.0
250.135788 220.0
250.23967 188.0
251.106247 132.0
252.043839 124.0
252.148132 152.0
252.306183 112.0
252.461105 136.0
253.09082 52.0
253.515305 148.0
253.968674 196.0
254.055847 796.0
254.7686 120.0
254.797195 136.0
254.946548 112.0
254.98468 100.0
255.033157 220.0
255.060059 180.0
255.181763 164.0
255.950134 180.0
256.034821 196.0
256.072784 120.0
256.095062 232.0
256.136475 156.0
256.439178 124.0
256.509308 140.0
256.876007 120.0
256.913605 112.0
257.045471 9652.0
257.100952 124.0
257.191925 72.0
257.22702 52.0
257.284485 64.0
257.319611 112.0
257.453735 44.0
257.607025 48.0
257.856262 108.0
258.050415 1240.0
258.294312 84.0
258.374298 40.0
258.470276 44.0
258.494812 72.0
258.67511 36.0
258.876801 124.0
258.992126 72.0
259.048859 152.0
259.171509 104.0
259.402283 84.0
259.520905 52.0
259.726135 132.0
259.854462 116.0
259.934662 100.0
260.204285 136.0
260.486908 72.0
260.583282 52.0
260.679657 172.0
261.046143 84.0
261.219818 160.0
262.034302 128.0
262.685516 60.0
263.599213 48.0
263.812531 128.0
263.922455 124.0
264.482147 184.0
264.517731 196.0
265.947205 120.0
266.603271 128.0
267.029175 140.0
267.601898 172.0
268.041626 88.0
268.785065 172.0
269.045837 648.0
269.085144 368.0
269.340088 120.0
269.572052 144.0
269.699524 108.0
269.810669 172.0
269.931641 84.0
270.053467 140.0
270.095154 228.0
270.918274 64.0
270.975769 188.0
271.018372 192.0
271.064087 652.0
271.48056 92.0
272.068665 3160.0
272.238647 96.0
272.698578 92.0
272.761047 148.0
272.892548 40.0
272.941864 196.0
272.997742 80.0
273.068604 604.0
273.24115 92.0
273.678894 100.0
273.725006 104.0
274.078003 168.0
274.176331 172.0
274.252136 72.0
274.440033 112.0
275.063568 44.0
275.278168 92.0
275.565521 48.0
275.806793 92.0
275.95224 76.0
276.474884 128.0
276.574158 64.0
277.790283 44.0
278.547119 208.0
278.763092 176.0
278.862793 100.0
280.070587 92.0
280.183838 192.0
280.585754 148.0
280.847229 48.0
281.167511 144.0
281.314362 44.0
281.45459 192.0
282.051483 236.0
282.872162 180.0
282.969238 172.0
283.060547 368.0
283.267303 108.0
283.428101 60.0
284.030304 196.0
284.5383 108.0
284.615509 164.0
284.749847 116.0
284.988342 136.0
285.040009 3596.0
285.126129 48.0
285.243774 156.0
285.294189 56.0
285.356842 184.0
285.384979 48.0
285.42868 52.0
285.902557 132.0
286.003967 172.0
286.040863 364.0
286.377716 164.0
286.600067 212.0
287.049896 88.0
287.912262 76.0
288.13858 76.0
289.241028 168.0
289.278259 68.0
289.329041 60.0
289.437408 168.0
290.009918 72.0
290.396454 148.0
290.647491 92.0
291.003876 152.0
291.139709 72.0
292.040375 180.0
293.221802 160.0
293.392242 116.0
293.467255 172.0
293.637756 156.0
294.627655 116.0
294.92038 108.0
295.164246 200.0
295.2258 156.0
295.314728 68.0
295.985504 136.0
296.475342 64.0
296.57132 120.0
296.921051 112.0
296.99649 120.0
297.079651 384.0
297.10968 140.0
297.174896 124.0
297.28125 192.0
297.583313 64.0
297.645111 120.0
297.798859 276.0
297.8237 76.0
297.90271 108.0
298.074493 164.0
298.523682 112.0
298.769531 80.0
298.796539 224.0
298.834412 132.0
299.056702 1900.0
299.216431 136.0
299.256256 152.0
299.277985 100.0
299.36792 56.0
299.455017 140.0
299.481598 60.0
299.5672 252.0
299.633728 220.0
299.708191 184.0
299.759644 140.0
299.852661 40.0
299.88559 108.0
299.922638 48.0
299.952606 40.0
299.979065 300.0
300.064728 76232.0
300.179016 164.0
300.222565 40.0
300.253113 84.0
300.298676 128.0
300.378784 76.0
300.416473 128.0
300.452118 192.0
300.486328 224.0
300.531311 128.0
300.590179 64.0
300.625671 108.0
300.670959 124.0
300.722839 52.0
300.750458 40.0
300.788422 36.0
300.828278 108.0
300.866791 152.0
300.912445 52.0
300.940308 52.0
300.978302 48.0
301.066833 11720.0
301.155487 156.0
301.247681 64.0
301.282227 132.0
301.316772 84.0
301.354797 80.0
301.400452 220.0
301.43576 128.0
301.45755 212.0
301.499908 80.0
301.57843 56.0
301.624359 40.0
301.655457 44.0
301.692474 96.0
301.74881 40.0
301.793762 56.0
301.828339 68.0
301.880188 68.0
301.942444 96.0
301.972595 56.0
302.015076 56.0
302.067719 2568.0
302.189484 84.0
302.255524 60.0
302.338562 72.0
302.402588 96.0
302.447601 68.0
302.482666 88.0
302.527222 48.0
302.563385 80.0
302.599915 108.0
302.660248 160.0
302.710724 124.0
302.776154 76.0
302.849243 84.0
302.901215 44.0
302.975616 64.0
303.001678 144.0
303.068329 328.0
303.107513 88.0
303.178497 132.0
303.204742 100.0
303.258087 108.0
303.282349 88.0
303.310089 60.0
303.33783 196.0
303.431427 68.0
303.552765 84.0
303.604797 96.0
303.65451 60.0
303.736603 32.0
303.788635 80.0
303.830261 48.0
303.874756 184.0
303.980377 76.0
304.030304 72.0
304.092102 104.0
304.146027 72.0
304.754944 60.0
304.854553 96.0
305.195221 36.0
305.428223 100.0
305.546478 84.0
305.793549 72.0
305.915375 92.0
306.04071 36.0
306.653839 48.0
306.76886 84.0
306.918793 100.0
308.136902 152.0
308.517822 112.0
308.741608 132.0
309.391052 252.0
310.191162 136.0
310.531281 184.0
310.850525 80.0
313.438599 68.0
314.461304 144.0
314.655457 76.0
314.683685 56.0
315.086639 6208.0
315.153442 152.0
315.29126 44.0
315.386688 40.0
315.436188 40.0
315.627106 60.0
315.984344 80.0
316.093781 1204.0
316.430267 108.0
316.678162 52.0
316.717133 36.0
317.087982 320.0
317.695496 120.0
317.741608 124.0
318.142639 128.0
318.224304 152.0
318.362793 104.0
318.654053 56.0
318.693146 88.0
318.870819 108.0
319.663879 108.0
319.724365 48.0
325.325409 68.0
325.580353 48.0
327.71347 88.0
329.481323 48.0
332.040497 140.0
333.038605 76.0
336.870636 112.0
337.473663 108.0
338.747253 72.0
353.831757 48.0
355.82254 88.0
357.431213 76.0
359.088806 112.0
360.719971 92.0
367.342651 52.0
368.323669 88.0
384.475037 80.0
386.440552 84.0
391.740601 92.0
394.056396 128.0
407.829132 124.0
412.699036 132.0
419.621674 64.0
427.39978 84.0
428.256073 68.0
429.566864 148.0
430.119812 52.0
432.446869 88.0
432.989258 80.0
433.892578 96.0
434.261627 88.0
438.310791 88.0
445.171143 128.0
450.615692 104.0
460.079926 96.0
468.575897 76.0
487.68042 72.0
498.939484 68.0
506.525879 72.0
536.890991 128.0
548.378967 72.0
554.66095 116.0
558.097473 80.0
569.88562 132.0
587.002991 56.0
589.199158 76.0
596.832764 104.0
597.319092 152.0
600.163269 88.0
613.548279 124.0
619.077271 96.0
628.557007 64.0
635.522156 80.0
643.838074 44.0
683.884094 104.0
689.433289 100.0
693.7724 100.0
700.66748 72.0
703.251343 96.0
703.652527 116.0
710.320496 284.0
711.689758 56.0
712.050842 68.0
748.688782 56.0
749.832825 60.0
761.041565 128.0
811.71875 56.0
817.734924 52.0
839.378601 136.0
864.573364 60.0
872.274353 100.0
872.938721 124.0
877.667114 120.0
879.495911 76.0
880.924866 212.0
910.612732 76.0
920.193359 80.0
933.0495 60.0
938.638855 64.0
940.02356 204.0
940.755127 144.0
947.495239 104.0
963.429077 128.0
980.61731 180.0
987.566406 128.0
1045.136108 140.0
1055.385376 60.0
1055.818604 76.0
1059.605225 164.0
1065.723511 156.0
1069.085327 64.0
1072.028687 128.0
1081.446289 136.0
1083.129028 160.0
1094.213989 112.0
1102.095581 72.0
1102.829224 152.0
1114.093994 188.0
1123.320557 116.0
1127.520264 136.0
1139.54834 140.0
1139.709595 180.0
1140.240479 132.0
1153.065796 152.0
1153.56604 184.0
1154.397583 188.0
1155.114502 60.0
1171.678589 176.0
1179.068359 228.0
1180.189453 208.0
1181.625732 224.0
1182.678711 160.0
1185.467041 148.0
1188.703613 108.0
1190.227539 164.0
1197.49646 176.0
1197.730591 148.0
1199.074097 276.0
1199.618652 100.0
1203.889526 44.0
1205.132812 168.0
1206.010498 204.0
1206.694824 40.0
1210.555786 200.0
1215.345581 208.0
1215.415039 124.0
1216.372681 160.0
1220.047485 164.0
1221.097534 144.0
1224.166504 188.0
1224.277954 148.0
1224.507812 136.0
1227.385864 144.0
1232.921509 120.0
1240.172241 184.0
1245.813843 172.0
1246.101929 76.0
1247.064575 212.0
1251.616089 56.0
1252.158325 160.0
1258.208374 148.0
1262.836792 144.0
1266.156128 164.0
1266.474854 196.0
1272.019775 200.0
1282.262085 128.0
1282.661133 256.0
1288.587158 180.0
1293.332642 168.0
1293.84082 144.0
1304.299805 160.0
1305.140869 48.0
1305.478882 120.0
1307.032593 72.0
1309.746704 104.0
1310.971558 128.0
1320.732544 196.0
1327.148804 156.0
1332.614136 184.0
1334.518433 156.0
1335.483765 196.0
1335.696533 72.0
1339.088257 228.0
1342.987671 212.0
1343.541992 76.0
1343.96521 56.0
1348.777832 28.0
1352.596069 92.0
1353.408691 184.0
1355.210449 220.0
1355.415649 244.0
1360.623047 104.0
1362.7677 176.0
1366.664551 72.0
1367.584351 100.0
1368.556152 104.0
1368.696045 164.0
1371.768188 128.0
1375.545044 156.0
1376.526978 252.0
1376.866577 140.0
1377.937622 176.0
1378.595337 188.0
1380.362061 80.0
1380.465576 172.0
1382.44812 212.0
1386.135742 160.0
1387.314209 164.0
1387.529175 48.0
1387.655273 68.0
1391.609741 172.0
1396.083008 56.0
1398.218018 184.0
1400.935791 132.0
1401.628662 132.0
1401.77771 40.0
1403.134277 220.0
1409.605469 216.0
1409.672729 128.0
1410.397583 132.0
1420.393799 192.0
1420.731323 96.0
1424.905518 184.0
1427.814453 128.0
1429.153442 140.0
1430.371704 172.0
1437.004272 200.0
1440.348511 244.0
1442.275391 128.0
1445.073364 192.0
1448.290649 96.0
1450.715454 220.0
1452.793335 164.0
1454.045288 180.0
1461.97168 192.0
1462.199951 40.0
1463.029663 188.0
1463.456055 136.0
1464.590698 176.0
1464.735474 136.0
1468.88208 116.0
1471.530151 180.0
1472.629761 140.0
1475.900513 60.0
1479.129028 168.0
1480.040039 236.0
1480.568359 160.0
1480.897705 200.0
1481.885864 176.0
1484.898438 108.0
1486.4021 164.0
1486.831787 196.0
1490.487061 88.0
1492.862305 164.0
1494.100586 144.0
1495.054688 196.0
1497.680054 184.0
1499.166992 156.0
1499.336548 44.0
1499.914673 108.0
1501.178955 72.0
1501.317871 76.0
1503.786621 68.0
