>compound MLS000859935-01!beta;-Carboline-3-carboxylic acid N-methylamide
>formula C13H11N3O
>ionization [M+H]+
>parentmass 226.098
#inchi InChI=1S/C13H11N3O/c1-14-13(17)11-6-9-8-4-2-3-5-10(8)16-12(9)7-15-11/h2-7,15H,1H3,(H,14,17)
#inchikey LTODWURWNDCSOY
#Ion_Source LC-ESI
#Instrument qTof
#Compound_Source NIH Pharmacologically Active Library
#PI Dorrestein
#Data_Collector VP/LMS
#Scan -1
#Precursor_MZ 226.098
#ExactMass 225.09
#Charge 1
#CAS_Number N/A
#Pubmed_ID N/A
#Smiles CNC(=O)c1cc2c(c[nH]1)nc3ccccc32
#INCHI_AUX N/A
#Library_Class 1
#SpectrumID CCMSLIB00000084961
#IonMode Positive
#UpdateWorkflowName UPDATE-SINGLE-ANNOTATED-GOLD
#LibraryQualityString Gold
#TaskID d252d724072548979f1f6f1ced849daf
##Scan# 1465
#SpectrumFile p3-D03_GD3_01_18260.mzXML
#LibraryName Pharm_Active_Library.mgf
#MQScore -1
#Organism Pharm_Active_Library
#TIC_Query 0
#RT_Query -1
#MZErrorPPM -1
#SharedPeaks 0
#MassDiff 0
#LibMZ -1
#SpecMZ 226.098
#SpecCharge 0
#internalFilename spec-00000.mgf

>collision 10
44.944122 200.0
44.958801 148.0
44.993507 212.0
45.062958 144.0
45.25423 176.0
45.264942 128.0
45.396271 220.0
45.530479 228.0
45.58287 116.0
45.598999 160.0
45.711971 172.0
45.808914 148.0
45.821037 148.0
45.860119 124.0
45.900566 156.0
45.957218 108.0
45.969364 184.0
46.054424 136.0
46.081444 196.0
46.153221 116.0
46.231541 192.0
46.32497 240.0
46.403576 200.0
46.48632 172.0
46.661549 108.0
46.703667 140.0
46.796249 156.0
46.895699 188.0
46.931145 152.0
47.004333 128.0
47.372604 72.0
47.419193 128.0
47.491863 180.0
47.504211 160.0
47.593422 116.0
47.630505 104.0
47.656609 144.0
47.767971 220.0
47.796864 224.0
47.959377 156.0
47.978676 56.0
47.988327 144.0
48.064194 140.0
48.115265 148.0
48.276936 104.0
48.364101 100.0
48.38348 140.0
48.530346 180.0
48.906841 172.0
49.012684 44.0
49.106091 168.0
49.143757 124.0
49.228909 204.0
49.321125 120.0
49.388241 172.0
49.726192 152.0
49.749786 148.0
49.811581 204.0
49.874813 136.0
49.990143 132.0
50.245186 164.0
50.364407 204.0
50.411808 120.0
50.475422 92.0
50.635342 84.0
50.713913 176.0
50.778492 156.0
50.846596 132.0
50.880665 188.0
51.007099 132.0
51.034111 184.0
51.052601 188.0
51.368805 44.0
51.601597 144.0
51.7948 140.0
51.822018 228.0
52.108982 172.0
52.120476 124.0
52.167908 28.0
52.211044 172.0
52.288738 184.0
52.439968 184.0
52.538025 168.0
52.610188 164.0
52.841431 156.0
53.119591 176.0
53.340744 192.0
53.392162 220.0
53.400322 196.0
53.422642 184.0
53.513447 164.0
53.558594 132.0
53.583359 112.0
53.844475 36.0
54.012566 188.0
54.071095 220.0
54.082806 156.0
54.097443 160.0
54.2029 136.0
54.365677 92.0
54.392097 176.0
54.4758 136.0
54.519882 244.0
54.61692 180.0
54.675777 104.0
54.814209 108.0
55.109329 160.0
55.180275 192.0
55.27346 192.0
55.53569 168.0
55.621754 88.0
55.632145 124.0
55.716801 392.0
55.856541 152.0
56.085861 52.0
56.112694 148.0
56.130589 92.0
56.16489 196.0
56.358387 224.0
56.376907 152.0
56.408295 176.0
56.51598 164.0
56.691181 116.0
56.757141 212.0
56.814137 188.0
57.046913 184.0
57.450794 176.0
57.497295 156.0
57.636227 184.0
57.74659 180.0
57.763229 264.0
57.894909 140.0
57.931263 184.0
57.978237 136.0
58.008072 152.0
58.06617 140.0
58.14962 156.0
58.220978 136.0
58.258949 160.0
58.403366 88.0
58.523594 140.0
58.543854 144.0
58.706455 160.0
58.744587 224.0
58.768997 208.0
58.793415 124.0
59.106693 160.0
59.148018 188.0
59.247559 148.0
59.362514 120.0
59.508289 172.0
59.551289 132.0
59.595181 232.0
59.64502 188.0
59.668079 196.0
59.689606 148.0
59.700371 32.0
59.740364 160.0
59.837322 184.0
59.934361 104.0
60.020679 112.0
60.343391 244.0
60.36504 168.0
60.498108 132.0
60.542694 136.0
60.586384 172.0
60.598778 112.0
60.750713 148.0
60.876438 192.0
60.91061 156.0
60.989861 144.0
61.170303 124.0
61.282436 160.0
61.332306 216.0
61.513256 232.0
61.600708 188.0
61.616329 180.0
61.749203 192.0
61.777359 184.0
61.993435 168.0
62.02792 232.0
62.104752 148.0
62.377979 136.0
62.458179 168.0
62.571487 156.0
62.628178 216.0
62.661259 148.0
62.735332 104.0
62.776329 128.0
62.831535 140.0
62.889923 188.0
62.941288 60.0
63.085804 140.0
63.234493 168.0
63.319992 112.0
63.453102 196.0
63.522881 76.0
63.645088 216.0
63.668911 212.0
63.840549 248.0
64.050644 168.0
64.345673 64.0
64.663788 80.0
64.739037 144.0
65.001945 240.0
65.083809 152.0
65.122353 172.0
65.168938 132.0
65.183403 224.0
65.209114 152.0
65.249306 184.0
65.308807 140.0
65.386032 144.0
65.422188 140.0
65.688965 92.0
65.74221 128.0
65.861687 232.0
65.897224 144.0
66.057281 48.0
66.097725 136.0
66.157616 144.0
66.348785 140.0
66.694557 152.0
66.782364 172.0
66.995613 56.0
67.143944 180.0
67.377373 176.0
67.439468 136.0
67.470528 244.0
67.504868 172.0
67.609978 192.0
67.622658 68.0
67.634117 40.0
67.701248 188.0
67.732368 152.0
67.966812 88.0
68.029182 208.0
68.091576 128.0
68.158936 80.0
68.262497 180.0
68.320068 176.0
68.413872 168.0
68.611176 176.0
68.65609 152.0
68.748474 228.0
68.760025 160.0
68.898735 96.0
68.921867 228.0
69.021049 176.0
69.126915 164.0
69.328957 116.0
69.499756 192.0
69.677414 88.0
69.810394 152.0
69.846985 144.0
70.238441 156.0
70.381973 224.0
70.463814 96.0
70.503914 200.0
70.712975 132.0
70.763199 160.0
70.994446 120.0
71.017921 220.0
71.432823 200.0
71.720032 136.0
71.907997 216.0
72.276413 180.0
72.367813 72.0
72.379669 148.0
72.527061 116.0
72.56266 88.0
72.800224 208.0
72.871567 152.0
73.085808 120.0
73.189636 120.0
73.407761 172.0
73.530594 132.0
73.920242 228.0
74.208015 60.0
74.338379 120.0
74.437943 84.0
74.486038 180.0
74.80761 128.0
74.8386 180.0
74.940224 136.0
75.026398 164.0
75.050537 160.0
75.116074 224.0
75.280045 132.0
75.451584 244.0
75.487411 96.0
75.572174 92.0
75.606781 192.0
75.648323 132.0
75.837135 164.0
75.984535 108.0
76.408463 204.0
76.495476 148.0
76.523338 212.0
76.537262 160.0
76.660942 272.0
76.755081 68.0
76.781235 140.0
76.856247 168.0
76.948761 168.0
77.168907 164.0
77.345604 236.0
77.359604 68.0
77.836502 164.0
77.901489 136.0
77.938385 248.0
78.117714 228.0
78.202179 160.0
78.47171 204.0
78.655182 164.0
78.701088 136.0
78.814133 128.0
78.83004 160.0
78.909576 172.0
79.079407 164.0
79.352211 112.0
79.472824 80.0
79.57222 128.0
79.973984 168.0
79.995338 136.0
80.007805 268.0
80.321449 96.0
80.371399 132.0
80.446358 168.0
80.669662 244.0
80.812744 116.0
80.848534 176.0
80.946991 212.0
80.986389 92.0
81.006096 156.0
81.165611 152.0
81.181747 40.0
81.230179 180.0
81.567772 64.0
81.724236 76.0
81.92408 136.0
82.089615 124.0
82.185509 184.0
82.436516 156.0
82.465431 184.0
82.592003 164.0
82.776604 128.0
83.251732 76.0
83.271706 164.0
83.426163 148.0
83.557106 164.0
83.600777 60.0
83.713646 188.0
83.750069 44.0
83.783798 156.0
84.129364 176.0
84.271828 184.0
84.357719 156.0
84.430862 156.0
84.617508 200.0
84.885025 140.0
85.061165 148.0
85.246666 172.0
85.327545 236.0
85.342255 120.0
85.472855 160.0
85.647751 136.0
85.961182 216.0
85.975945 136.0
86.033165 136.0
86.11441 104.0
86.14212 132.0
86.203094 156.0
86.225266 128.0
86.308456 208.0
86.391685 192.0
86.554558 124.0
86.750954 56.0
86.80658 120.0
86.821411 176.0
86.951286 176.0
87.133263 96.0
87.287537 228.0
87.344559 152.0
87.410309 128.0
87.631889 172.0
87.704575 108.0
87.723213 124.0
87.92466 228.0
87.954521 116.0
88.046013 124.0
88.201096 136.0
88.376892 152.0
88.459236 140.0
88.75338 180.0
88.76651 184.0
88.832153 164.0
89.049896 128.0
89.456055 168.0
89.550201 124.0
89.621788 108.0
89.797112 164.0
90.0047 56.0
90.059471 172.0
90.197411 156.0
90.295731 200.0
90.318428 148.0
90.445206 164.0
90.458458 184.0
90.473602 200.0
90.778656 212.0
90.869705 108.0
90.901962 164.0
91.086128 156.0
91.567352 168.0
91.822746 200.0
92.149178 192.0
92.198387 244.0
92.233261 128.0
92.332687 200.0
92.407295 164.0
92.474266 248.0
92.52404 204.0
93.135773 124.0
93.647415 156.0
93.662827 44.0
93.716766 188.0
93.730255 128.0
94.058128 204.0
94.098663 208.0
94.168182 132.0
94.351761 128.0
94.636177 168.0
94.659409 184.0
94.812454 172.0
94.880295 172.0
94.988899 124.0
95.078156 172.0
95.097557 164.0
95.533478 204.0
95.569756 196.0
95.663216 188.0
95.872322 180.0
95.891029 180.0
95.968117 128.0
96.088074 188.0
96.2286 108.0
96.248123 148.0
96.310616 204.0
96.701675 180.0
96.960205 260.0
97.113129 216.0
97.588371 200.0
97.692612 256.0
97.822495 164.0
97.853989 184.0
97.948517 164.0
98.094345 160.0
98.220543 128.0
98.720238 144.0
99.025017 140.0
99.068596 104.0
99.132004 132.0
99.209305 140.0
99.502922 140.0
99.552567 156.0
100.133293 64.0
100.232903 88.0
100.428276 176.0
100.742729 152.0
100.825592 212.0
100.919548 144.0
101.067566 460.0
101.095581 188.0
101.209679 160.0
101.391975 172.0
101.432068 36.0
101.480179 148.0
101.501961 176.0
101.889618 148.0
102.044373 100.0
102.241508 116.0
102.255592 60.0
102.422714 120.0
102.745262 152.0
102.856255 124.0
102.989517 148.0
103.181496 196.0
103.266434 164.0
103.377701 208.0
103.638924 156.0
103.691612 196.0
103.951202 208.0
104.129852 184.0
104.146103 88.0
104.200951 108.0
104.46524 164.0
104.913269 128.0
105.031548 144.0
105.186623 188.0
105.245834 68.0
105.276466 200.0
105.337738 76.0
105.49305 88.0
106.203606 48.0
106.23027 156.0
106.295929 172.0
106.351341 168.0
106.36776 100.0
106.521774 152.0
106.54026 248.0
106.560806 128.0
106.745804 240.0
106.784874 152.0
106.858932 200.0
107.056541 132.0
107.103912 176.0
107.149231 44.0
107.299683 164.0
107.41935 168.0
107.488571 132.0
107.567871 96.0
107.68557 152.0
107.766136 144.0
107.790932 164.0
107.904114 164.0
107.950272 204.0
108.084564 196.0
108.16114 56.0
108.28492 236.0
108.382744 136.0
108.542351 48.0
108.641907 140.0
109.048904 208.0
109.169487 136.0
109.421265 132.0
109.456657 120.0
109.483734 140.0
109.66291 172.0
109.690002 36.0
109.842232 140.0
109.87561 180.0
109.931946 132.0
109.973686 168.0
110.004997 88.0
110.291176 176.0
110.464737 172.0
110.724281 128.0
110.755646 156.0
110.935913 116.0
111.011398 232.0
111.166634 148.0
111.380791 416.0
111.494247 40.0
111.649818 60.0
111.675056 172.0
111.841286 184.0
112.231026 220.0
112.294296 52.0
112.371773 192.0
112.515862 212.0
112.750328 164.0
113.039093 548.0
113.207291 196.0
113.313202 64.0
113.338631 160.0
113.353462 124.0
113.43882 176.0
113.465797 204.0
113.563347 184.0
113.928459 132.0
114.035522 436.0
114.111237 148.0
114.260109 164.0
114.309052 220.0
114.862999 168.0
114.929131 56.0
114.997421 156.0
115.114845 136.0
115.1661 124.0
115.213097 200.0
115.257965 180.0
115.275063 136.0
115.319939 64.0
115.426834 116.0
115.443939 92.0
115.696426 120.0
115.866684 200.0
115.893272 132.0
115.998482 100.0
116.013489 144.0
116.048805 616.0
116.135719 204.0
116.170036 120.0
116.34816 256.0
116.412575 52.0
116.468422 144.0
116.550919 160.0
116.636024 52.0
116.796242 180.0
117.053459 172.0
117.118019 176.0
117.230049 184.0
117.275307 116.0
117.62043 136.0
117.678719 156.0
117.706787 52.0
117.801819 124.0
118.02227 148.0
118.068817 160.0
118.121933 148.0
118.292709 72.0
118.383644 188.0
118.665337 80.0
118.710869 248.0
118.780273 232.0
118.958221 168.0
119.053757 208.0
119.264503 52.0
119.808525 64.0
119.961075 152.0
120.214081 232.0
120.404015 60.0
120.478279 228.0
120.729645 92.0
120.760208 232.0
120.958527 184.0
121.184959 168.0
121.325226 204.0
121.498482 160.0
121.51384 152.0
121.553329 156.0
121.728951 180.0
122.386421 200.0
122.637566 260.0
122.847054 224.0
122.902206 100.0
122.952621 156.0
122.970619 208.0
123.039047 76.0
123.069962 156.0
123.240036 192.0
123.859489 168.0
124.001297 152.0
124.134315 224.0
124.278496 184.0
124.362823 40.0
124.609322 76.0
124.951714 160.0
125.107498 200.0
125.223289 160.0
125.245567 120.0
125.588829 168.0
125.740547 280.0
125.78965 200.0
125.95713 148.0
125.999573 124.0
126.016953 180.0
126.126953 188.0
126.455757 176.0
126.95536 188.0
127.035362 180.0
127.345879 76.0
127.687508 212.0
127.736992 156.0
127.761734 196.0
127.781982 168.0
127.977798 164.0
128.049561 152.0
128.180527 132.0
128.218842 184.0
128.288712 132.0
128.315765 172.0
128.57518 60.0
128.600006 108.0
128.839371 156.0
128.911667 224.0
129.336868 124.0
129.484039 68.0
130.075836 164.0
130.118958 124.0
130.355194 64.0
130.464294 116.0
130.980865 216.0
131.030975 224.0
131.045746 176.0
131.144913 148.0
131.311356 196.0
131.655975 200.0
131.678818 200.0
131.706223 36.0
131.726791 140.0
132.001053 124.0
132.017059 180.0
132.177185 144.0
132.330551 76.0
132.665039 52.0
132.802628 200.0
132.905853 200.0
133.258484 208.0
134.055618 176.0
134.083267 188.0
134.198532 84.0
134.355362 176.0
134.443039 44.0
134.574615 152.0
134.789429 240.0
135.13858 184.0
135.1884 152.0
135.351532 212.0
135.448807 148.0
135.599411 144.0
135.831284 60.0
136.033173 156.0
136.414139 164.0
136.437393 172.0
136.585175 44.0
136.661987 184.0
136.730484 168.0
136.786346 184.0
136.842224 84.0
137.110107 120.0
137.205673 140.0
137.548599 112.0
137.903641 176.0
137.97377 152.0
137.992477 116.0
138.050934 188.0
138.191284 120.0
138.235733 112.0
138.350418 104.0
138.497955 200.0
138.551834 112.0
138.951538 148.0
139.020782 144.0
139.043976 180.0
139.196854 192.0
139.215057 180.0
139.224609 136.0
139.506989 164.0
139.631607 212.0
139.688065 224.0
139.723343 252.0
139.757462 200.0
139.796295 148.0
139.812759 208.0
139.841003 80.0
139.911621 148.0
139.97049 144.0
139.988831 208.0
140.020264 332.0
140.049622 49616.0
140.088638 176.0
140.119675 248.0
140.182495 40.0
140.20076 64.0
140.244659 32.0
140.259384 64.0
140.321564 116.0
140.346176 64.0
140.402206 80.0
140.43544 28.0
140.477219 60.0
140.498459 180.0
140.517319 32.0
140.60228 48.0
140.681488 100.0
140.703781 180.0
140.739197 64.0
140.772247 92.0
140.810501 148.0
140.828934 108.0
141.052063 4904.0
141.112503 56.0
141.159805 84.0
141.25914 196.0
141.296982 52.0
141.315918 212.0
141.353775 56.0
141.375076 84.0
141.43425 64.0
141.477295 144.0
141.572113 196.0
141.647354 132.0
141.726913 124.0
141.734879 72.0
141.740707 120.0
141.772934 68.0
141.817963 64.0
141.916321 84.0
141.948349 96.0
142.056046 392.0
142.094421 96.0
142.101349 56.0
142.110947 124.0
142.135254 228.0
142.174225 144.0
142.244934 84.0
142.29953 60.0
142.377884 68.0
142.394516 88.0
142.610733 212.0
142.653519 72.0
142.781906 92.0
142.809265 144.0
142.94368 188.0
143.036499 216.0
143.084122 120.0
143.155548 84.0
143.260345 84.0
143.305618 56.0
143.462906 120.0
143.598831 52.0
143.653687 100.0
144.045456 208.0
144.310455 240.0
144.643005 132.0
144.748337 132.0
144.966339 88.0
145.635696 112.0
145.719788 132.0
145.832733 152.0
145.885605 116.0
145.952927 44.0
146.087616 144.0
146.30661 116.0
146.376434 108.0
146.494461 184.0
146.533005 164.0
146.557098 124.0
147.109985 160.0
147.128708 144.0
147.160095 200.0
147.495895 176.0
147.791122 164.0
148.137161 120.0
148.394043 184.0
148.551682 60.0
148.835648 128.0
149.38736 136.0
149.596634 144.0
149.764664 64.0
149.879166 152.0
149.957138 132.0
150.00589 124.0
150.125366 116.0
150.161942 176.0
150.388855 248.0
150.493835 76.0
150.985001 128.0
151.08284 240.0
151.192963 100.0
151.440231 200.0
151.768631 136.0
151.888794 128.0
152.569031 164.0
152.925705 132.0
153.038956 160.0
153.47261 156.0
153.499725 180.0
153.746429 168.0
153.869843 152.0
153.951324 108.0
154.010361 80.0
154.065903 300.0
154.080261 212.0
154.309616 144.0
154.376389 52.0
155.062042 176.0
155.255539 128.0
155.645142 232.0
156.042679 224.0
156.115097 168.0
156.201843 112.0
156.500488 148.0
156.717194 96.0
157.041275 168.0
157.07251 176.0
157.180984 224.0
157.700439 104.0
157.745422 104.0
157.795425 208.0
157.940475 76.0
158.064789 180.0
158.997803 172.0
159.056778 360.0
159.645966 180.0
159.678665 152.0
159.72142 204.0
159.945374 128.0
160.068726 92.0
160.567719 160.0
160.648422 224.0
161.001801 236.0
161.043564 196.0
161.181274 180.0
161.353027 192.0
161.714767 152.0
161.965439 160.0
162.485123 176.0
163.137802 60.0
163.557526 216.0
163.807083 188.0
163.824905 160.0
164.05426 192.0
164.191956 92.0
164.33226 144.0
164.42923 156.0
164.513458 148.0
164.681992 168.0
164.773956 180.0
164.842941 180.0
164.863388 172.0
164.95285 176.0
165.045456 432.0
165.259735 84.0
165.367218 108.0
165.444534 60.0
165.484985 136.0
165.630951 140.0
165.856445 44.0
165.938477 208.0
165.97438 204.0
166.053024 2288.0
166.1026 124.0
166.237167 144.0
166.366928 168.0
166.438812 156.0
166.528702 60.0
166.56723 116.0
166.598053 60.0
166.623749 164.0
166.677704 196.0
166.736801 156.0
166.80336 152.0
166.929291 160.0
166.936661 140.0
166.947784 124.0
166.978485 132.0
167.060318 64780.0
167.138962 84.0
167.208679 84.0
167.227982 160.0
167.269226 264.0
167.295303 68.0
167.332794 156.0
167.365829 152.0
167.415817 92.0
167.457199 48.0
167.483643 104.0
167.53447 36.0
167.562805 92.0
167.624649 232.0
167.663315 84.0
167.686325 56.0
167.706009 120.0
167.723526 172.0
167.810242 128.0
167.83577 80.0
167.879868 56.0
167.918549 188.0
167.95723 228.0
168.063202 6932.0
168.124939 88.0
168.212692 52.0
168.292725 80.0
168.313385 96.0
168.354706 112.0
168.403778 100.0
168.438034 136.0
168.468353 68.0
168.527771 96.0
168.623383 44.0
168.664749 172.0
168.719025 108.0
168.883484 88.0
168.969894 176.0
169.06636 316.0
169.116943 112.0
169.136276 96.0
169.153641 200.0
169.171753 136.0
169.192535 176.0
169.235947 116.0
169.253632 148.0
169.296036 100.0
169.342667 172.0
169.365967 136.0
169.420273 112.0
169.464417 136.0
169.495514 84.0
170.284149 156.0
170.338699 116.0
170.445221 160.0
170.546585 60.0
170.61937 76.0
170.798798 56.0
170.992416 212.0
171.251709 132.0
171.28035 144.0
171.337662 116.0
171.7052 108.0
171.967514 144.0
171.989609 184.0
172.569565 160.0
172.595703 48.0
172.72908 160.0
173.001236 148.0
173.931839 156.0
173.98172 152.0
174.197052 80.0
174.780716 164.0
174.951797 152.0
175.386444 76.0
176.574585 168.0
176.754486 88.0
176.982117 116.0
177.114532 76.0
177.448456 56.0
177.750824 160.0
177.968491 156.0
178.207535 172.0
178.287262 120.0
178.523865 92.0
178.579712 80.0
178.667496 172.0
179.129761 116.0
179.277237 84.0
179.818634 48.0
180.06427 120.0
180.585449 92.0
180.663025 116.0
181.076508 660.0
181.178085 172.0
181.217209 72.0
181.858139 152.0
181.968201 140.0
182.048752 68.0
182.075607 124.0
182.427612 196.0
182.76918 60.0
182.946808 112.0
183.054504 160.0
183.178406 132.0
183.21611 136.0
183.361618 116.0
183.450577 60.0
184.057632 152.0
184.135941 68.0
184.33316 88.0
184.50885 172.0
184.535873 64.0
184.598465 220.0
184.683258 120.0
184.80365 124.0
184.89566 248.0
184.916183 140.0
184.944366 128.0
184.973618 228.0
185.004669 132.0
185.013733 96.0
185.027725 228.0
185.034607 188.0
185.070709 41188.0
185.136597 120.0
185.183884 96.0
185.232574 92.0
185.263901 112.0
185.289154 236.0
185.342484 64.0
185.368225 40.0
185.392227 56.0
185.435287 48.0
185.467148 60.0
185.488831 160.0
185.51593 108.0
185.568512 92.0
185.585205 80.0
185.615631 52.0
185.648788 80.0
185.699127 100.0
185.789841 100.0
185.911942 60.0
185.934555 136.0
186.024948 180.0
186.074921 4304.0
186.146622 80.0
186.183426 36.0
186.419769 56.0
186.605286 192.0
186.672577 40.0
186.697052 92.0
186.841217 88.0
186.898361 60.0
186.944229 112.0
186.993607 68.0
187.080399 276.0
187.154221 88.0
187.186096 68.0
187.265869 108.0
187.306732 156.0
187.395584 104.0
187.453857 124.0
187.533798 144.0
187.56015 80.0
187.846466 52.0
187.925583 76.0
188.445267 72.0
188.509933 116.0
189.109222 92.0
192.625748 32.0
192.849564 148.0
193.064636 452.0
193.388916 68.0
193.438736 88.0
194.067627 160.0
194.91423 160.0
195.053375 1404.0
195.8685 124.0
196.060181 100.0
196.568283 64.0
196.721802 72.0
197.098846 240.0
197.199448 36.0
197.71965 112.0
197.837219 72.0
199.534531 88.0
200.246475 164.0
207.232101 44.0
207.395447 84.0
208.085892 1492.0
208.891495 64.0
209.093338 184.0
210.095657 44.0
210.202408 76.0
210.251465 108.0
211.436386 132.0
212.006912 244.0
213.064133 864.0
214.070389 156.0
221.687103 116.0
231.162552 100.0
236.451828 104.0
237.101105 164.0
237.83107 72.0
273.599243 140.0
285.075104 52.0
286.151459 64.0
286.508453 64.0
288.442108 132.0
293.149628 48.0
298.372925 84.0
300.967346 96.0
302.592407 76.0
309.756073 44.0
311.101624 104.0
331.329559 108.0
336.998047 104.0
353.071777 48.0
363.067139 84.0
364.464081 76.0
370.385101 60.0
374.079193 76.0
376.295929 100.0
381.01709 68.0
382.977661 56.0
387.673798 72.0
396.921936 56.0
399.165497 60.0
417.732025 56.0
424.585907 56.0
433.519623 76.0
444.138855 68.0
476.72406 156.0
485.319122 104.0
501.477448 56.0
505.161285 36.0
510.557129 56.0
605.809937 40.0
622.560608 104.0
678.899414 184.0
684.339966 48.0
740.410645 120.0
756.829285 56.0
759.909668 212.0
771.840149 80.0
886.931763 172.0
887.103699 224.0
892.339966 52.0
897.406799 188.0
905.911316 92.0
912.007996 148.0
922.206421 108.0
926.823914 88.0
927.266296 124.0
941.679871 192.0
945.764221 136.0
946.284607 68.0
949.446472 204.0
952.41095 116.0
956.143066 204.0
977.300781 144.0
988.088501 116.0
989.659485 108.0
994.285767 168.0
998.916504 124.0
1000.030273 104.0
1006.441589 148.0
1006.492126 132.0
1012.531372 120.0
1015.935242 56.0
1018.150452 132.0
1021.334717 48.0
1032.311035 36.0
1036.561523 284.0
1036.715332 60.0
1041.276733 152.0
1044.664185 208.0
1048.140991 152.0
1050.203979 196.0
1076.880981 48.0
1082.472534 188.0
1088.860107 180.0
1098.536011 124.0
1100.185791 176.0
1103.46936 88.0
1103.760254 48.0
1105.811157 136.0
1107.559082 164.0
1122.672974 168.0
1126.965088 160.0
1131.794434 176.0
1133.321655 120.0
1136.466309 52.0
1138.211548 144.0
1148.184692 172.0
1156.190552 84.0
1162.119873 72.0
1162.608398 108.0
1163.850708 148.0
1163.925415 144.0
1167.697021 32.0
1168.942017 252.0
1170.37146 192.0
1173.948975 72.0
1174.024048 164.0
1177.989624 196.0
1178.044189 216.0
1179.267334 136.0
1181.681274 192.0
1192.220703 152.0
1197.063721 168.0
1197.945435 200.0
1198.854858 248.0
1199.792236 180.0
1200.005981 32.0
1201.440552 72.0
1201.723389 104.0
1210.855225 136.0
1211.540894 136.0
1212.157593 148.0
1213.523071 120.0
1215.5 48.0
1224.419189 128.0
1225.289917 152.0
1226.488525 160.0
1228.803711 144.0
1229.396851 76.0
1230.751099 160.0
1231.051392 84.0
1231.540283 172.0
1234.377686 132.0
1234.489624 172.0
1238.640015 148.0
1248.100586 168.0
1248.198975 224.0
1250.049072 208.0
1250.50647 180.0
1251.789795 196.0
1251.921631 128.0
1255.029175 204.0
1257.491211 156.0
1262.238647 140.0
1262.832642 176.0
1263.39856 136.0
1266.789551 132.0
1267.894897 236.0
1270.979614 152.0
1275.190918 112.0
1275.35437 128.0
1280.092651 100.0
1280.434448 44.0
1280.861816 96.0
1281.118286 144.0
1281.438843 124.0
1283.612915 80.0
1286.773804 168.0
1289.130981 168.0
1289.659912 140.0
1290.810913 228.0
1290.946777 156.0
1291.304321 128.0
1291.826538 208.0
1295.29126 32.0
1295.950317 128.0
1297.125732 132.0
1303.168457 208.0
1303.585205 92.0
1303.966064 124.0
1308.512329 108.0
1308.893921 184.0
1310.759644 40.0
1312.316528 132.0
1314.343384 100.0
1316.682373 108.0
1317.758667 152.0
1327.936768 224.0
1330.244263 72.0
1330.505615 252.0
1330.745239 72.0
1333.527466 188.0
1334.879639 132.0
1335.708862 172.0
1341.170044 168.0
1341.578247 124.0
1342.015625 148.0
1344.028809 148.0
1344.678345 116.0
1351.862305 192.0
1355.472534 140.0
1355.78772 264.0
1355.846313 80.0
1356.322754 196.0
1357.576416 148.0
1360.393921 152.0
1362.450195 72.0
1363.449585 196.0
1363.817017 192.0
1363.993408 144.0
1365.486084 176.0
1366.148071 208.0
1366.618896 160.0
1369.210205 232.0
1370.537964 220.0
1371.730103 148.0
1374.746704 124.0
1375.130493 148.0
1375.322388 176.0
1375.839111 124.0
1377.72229 176.0
1384.734741 196.0
1385.660767 172.0
1387.854614 280.0
1389.968628 128.0
1390.569824 176.0
1390.919556 160.0
1392.507568 140.0
1393.969482 156.0
1394.840698 284.0
1396.439331 228.0
1397.004761 176.0
1400.905518 172.0
1402.522583 168.0
1402.679077 168.0
1405.431152 128.0
1407.341919 172.0
1407.491333 72.0
1409.530518 136.0
1411.690918 148.0
1412.438843 120.0
1416.65332 52.0
1417.657349 164.0
1417.829712 140.0
1418.526733 88.0
1419.24646 116.0
1419.359009 40.0
1421.384277 124.0
1421.932129 164.0
1423.58374 184.0
1423.906738 176.0
1423.966797 36.0
1424.342285 168.0
1426.070557 188.0
1426.205811 208.0
1426.874878 228.0
1426.942505 144.0
1427.468872 160.0
1433.724731 96.0
1434.192017 160.0
1436.243042 176.0
1437.46521 184.0
1437.80481 124.0
1438.514282 228.0
1438.876709 164.0
1440.501831 204.0
1440.628784 188.0
1442.276123 164.0
1443.372314 228.0
1445.334961 160.0
1447.329834 96.0
1448.480957 176.0
1449.261353 132.0
1451.982788 124.0
1452.665405 112.0
1455.686157 192.0
1456.529297 196.0
1457.76001 104.0
1458.261597 108.0
1460.831787 224.0
1461.12085 180.0
1463.419434 124.0
1465.00354 156.0
1466.565674 272.0
1466.740967 136.0
1467.659912 272.0
1469.387207 164.0
1472.555176 196.0
1475.283081 84.0
1475.466553 108.0
1475.741821 200.0
1477.008545 188.0
1477.998169 136.0
1480.264038 260.0
1480.953247 164.0
1481.359253 104.0
1482.363037 176.0
1483.022095 200.0
1483.221436 184.0
1485.544922 136.0
1488.300171 184.0
1493.010742 172.0
1494.179932 124.0
1496.404297 192.0
1497.035645 128.0
1497.212769 176.0
1499.046265 232.0
1499.531738 172.0
1500.410522 76.0
1501.258789 116.0
1501.605835 104.0
1501.852661 96.0
1501.9375 152.0
