>compound MLS001049003-01!2-benzamido-3-[(2-benzamido-2-carboxyethyl)disulfanyl]propanoic acid
>formula C20H20N2O6S2
>ionization [M+H]+
>parentmass 449.084
#inchi InChI=1S/C20H20N2O6S2/c23-17(13-7-3-1-4-8-13)21-15(19(25)26)11-29-30-12-16(20(27)28)22-18(24)14-9-5-2-6-10-14/h1-10,15-16H,11-12H2,(H,21,23)(H,22,24)(H,25,26)(H,27,28)
#inchikey GUTXMPQWQSOAIY
#Ion_Source LC-ESI
#Instrument qTof
#Compound_Source NIH Natural Product Library
#PI Dorrestein
#Data_Collector VVP/LMS
#Scan -1
#Precursor_MZ 449.084
#ExactMass 448.076
#Charge 1
#CAS_Number N/A
#Pubmed_ID N/A
#Smiles OC(=O)C(CSSCC(NC(=O)c1ccccc1)C(=O)O)NC(=O)c2ccccc2
#INCHI_AUX N/A
#Library_Class 1
#SpectrumID CCMSLIB00000080420
#IonMode Positive
#UpdateWorkflowName UPDATE-SINGLE-ANNOTATED-GOLD
#LibraryQualityString Gold
#TaskID b1d8e8f6646f4e71acdff9ca3d919d08
##Scan# 1781
#SpectrumFile p2-F08_GF8_01_18044.mzXML
#LibraryName NIH_Natural_Products_Library.mgf
#MQScore -1
#Organism NIH_Natural_Products_Library
#TIC_Query 0
#RT_Query -1
#MZErrorPPM -1
#SharedPeaks 0
#MassDiff 0
#LibMZ -1
#SpecMZ 449.084
#SpecCharge 0
#internalFilename spec-00000.mgf

>collision 10
95.040733 152.0
95.40976 228.0
96.106964 132.0
96.81662 188.0
97.446289 184.0
97.58387 88.0
97.865234 220.0
98.146996 60.0
100.033134 144.0
100.140877 184.0
100.272156 36.0
100.347908 120.0
102.045769 116.0
102.393898 96.0
102.985176 816.0
103.106079 172.0
103.20311 148.0
103.624107 176.0
104.048981 396.0
104.242989 132.0
104.511398 48.0
104.692566 144.0
104.877975 172.0
104.945244 164.0
104.965637 112.0
104.979912 84.0
105.0336 14592.0
105.069656 124.0
105.106384 44.0
105.212517 180.0
105.251312 60.0
105.277863 60.0
105.320747 108.0
105.35405 72.0
105.405586 80.0
105.71125 104.0
105.844307 172.0
105.976517 396.0
106.036552 1308.0
106.106567 44.0
106.180389 120.0
106.27475 148.0
106.416374 160.0
106.488251 64.0
106.595078 68.0
106.67318 76.0
106.743088 44.0
106.763649 124.0
106.973518 68.0
107.039673 192.0
107.066177 88.0
107.084709 40.0
107.130493 68.0
107.94323 52.0
107.995132 196.0
110.05233 36.0
111.945847 104.0
112.074341 176.0
112.420166 92.0
113.047806 236.0
113.168465 116.0
113.231995 144.0
113.340034 104.0
115.101303 132.0
116.012756 236.0
116.227226 96.0
116.568657 108.0
117.1819 48.0
117.593781 220.0
118.404541 144.0
120.851372 148.0
120.919212 184.0
120.995651 2376.0
121.019905 132.0
121.994019 140.0
122.058113 560.0
122.760246 44.0
122.991051 384.0
123.113335 160.0
123.131004 228.0
123.57975 152.0
124.168999 168.0
124.390884 72.0
126.208862 176.0
128.429947 68.0
129.941101 168.0
130.065399 1604.0
130.111313 120.0
130.565765 56.0
131.016464 104.0
131.068741 188.0
131.992371 896.0
132.02536 152.0
132.07338 136.0
132.636673 92.0
133.182785 92.0
133.288467 180.0
133.624161 56.0
133.98793 108.0
134.199966 92.0
135.960342 164.0
136.283112 136.0
136.973495 176.0
137.081253 176.0
137.176804 204.0
138.026321 144.0
140.200439 104.0
144.577438 52.0
144.888733 136.0
144.99176 96.0
145.017303 824.0
146.05661 448.0
146.91539 136.0
147.00708 104.0
149.031433 172.0
149.929367 128.0
150.536819 52.0
151.755402 168.0
152.214249 128.0
152.843521 204.0
153.082291 124.0
153.915771 120.0
153.999802 380.0
154.189987 168.0
154.345718 164.0
155.056213 212.0
155.991974 104.0
159.471481 204.0
162.035187 300.0
163.172363 68.0
167.345413 240.0
169.082687 84.0
173.241089 144.0
174.053802 1844.0
174.106674 208.0
174.377274 88.0
175.058517 308.0
175.084991 68.0
176.066071 132.0
176.113602 184.0
176.920135 60.0
176.981033 112.0
177.518936 144.0
177.635635 184.0
177.696655 156.0
177.895706 104.0
177.930222 148.0
177.998444 1600.0
178.03299 2432.0
178.066284 172.0
178.17189 84.0
178.294128 136.0
178.395126 100.0
178.698318 120.0
178.735565 56.0
178.961807 172.0
179.002792 264.0
179.031509 264.0
179.905609 88.0
179.995346 152.0
180.016617 104.0
180.046463 300.0
180.884018 92.0
180.905426 52.0
181.390289 156.0
182.595886 32.0
182.97261 52.0
184.277985 160.0
188.022675 196.0
188.082718 152.0
188.35611 168.0
189.069397 104.0
191.769196 72.0
191.794006 80.0
193.044678 116.0
195.075699 200.0
199.997498 144.0
207.210815 152.0
207.709625 40.0
208.043198 680.0
208.217667 168.0
208.870117 60.0
208.919022 116.0
209.047699 376.0
210.043411 300.0
210.434967 128.0
210.694901 144.0
216.158356 116.0
217.110428 152.0
218.143967 112.0
223.821625 52.0
223.890121 56.0
224.03743 6492.0
224.095657 172.0
224.14035 64.0
224.235718 100.0
224.640411 72.0
224.799362 40.0
224.826233 88.0
224.906815 56.0
225.039246 1692.0
225.465332 104.0
225.534073 32.0
225.647675 56.0
225.752319 68.0
226.051498 1532.0
226.17717 68.0
226.278961 92.0
226.716278 232.0
226.791214 160.0
226.992081 96.0
227.022064 176.0
227.052841 324.0
228.042831 124.0
229.029739 132.0
229.720032 88.0
234.343445 44.0
235.386627 112.0
236.208755 68.0
239.625641 100.0
242.530533 124.0
258.029938 256.0
262.093384 168.0
262.902771 64.0
267.951477 148.0
271.986938 176.0
284.368256 120.0
297.200134 48.0
303.869659 124.0
304.005005 136.0
306.651611 128.0
321.136536 120.0
323.151337 176.0
328.876038 104.0
341.22583 184.0
359.033691 100.0
363.163757 156.0
365.956909 136.0
371.256958 148.0
377.653046 72.0
381.780731 160.0
393.078766 100.0
409.186493 168.0
422.580414 60.0
433.620758 116.0
446.320129 72.0
447.290039 388.0
448.292542 288.0
448.42923 92.0
449.158661 72.0
450.741882 56.0
451.240631 112.0
452.154327 92.0
453.174072 236.0
466.980774 168.0
519.333984 52.0
526.210022 48.0
539.838806 104.0
544.324524 84.0
620.898621 104.0
682.035217 100.0
737.877441 52.0
756.56543 76.0
885.980591 72.0
893.323975 236.0
903.543213 144.0
916.529968 124.0
952.320618 96.0
952.910339 212.0
957.105103 224.0
978.677734 144.0
979.985718 148.0
992.016296 176.0
999.974609 176.0
1005.022278 196.0
1024.772949 164.0
1030.016968 164.0
1036.952759 208.0
1043.532471 196.0
1050.016968 128.0
1076.096802 192.0
1081.607788 136.0
1090.646484 184.0
1090.712158 168.0
1093.639893 188.0
1093.718262 52.0
1098.805542 180.0
1115.646973 120.0
1121.904663 92.0
1124.786499 180.0
1133.795654 80.0
1142.605347 144.0
1145.958252 188.0
1150.139282 188.0
1157.86731 176.0
1162.504272 116.0
1164.058716 192.0
1169.715332 216.0
1183.964722 200.0
1188.461548 40.0
1192.313843 176.0
1202.713867 92.0
1217.551147 96.0
1227.725586 68.0
1229.476685 140.0
1229.734863 156.0
1233.828247 172.0
1236.787231 172.0
1252.043823 48.0
1258.799561 100.0
1264.171997 192.0
1264.752319 152.0
1265.991333 176.0
1277.169434 140.0
1279.21167 168.0
1285.069702 164.0
1285.769043 124.0
1287.453857 112.0
1294.010864 156.0
1295.536255 156.0
1299.995972 208.0
1306.225098 236.0
1315.008301 120.0
1327.618286 128.0
1329.548096 152.0
1330.419067 200.0
1331.043457 240.0
1333.418945 136.0
1337.666626 140.0
1339.203003 196.0
1339.538086 72.0
1342.139893 112.0
1347.41687 204.0
1350.786865 88.0
1351.29895 160.0
1351.723389 260.0
1353.78772 160.0
1355.538452 76.0
1363.625732 236.0
1363.721191 228.0
1371.191528 164.0
1371.331543 120.0
1371.994995 44.0
1373.160034 172.0
1374.303467 212.0
1376.761475 176.0
1379.909302 228.0
1386.415649 172.0
1390.2052 168.0
1391.273926 148.0
1396.587036 184.0
1404.348022 60.0
1414.891724 156.0
1424.783569 168.0
1428.196411 156.0
1429.48291 172.0
1433.571899 216.0
1435.147217 116.0
1448.311768 152.0
1450.721436 208.0
1451.744995 212.0
1457.795166 64.0
1460.828857 48.0
1463.591431 172.0
1465.282349 196.0
1466.447388 196.0
1471.719482 160.0
1471.826416 44.0
1474.11792 144.0
1474.224976 244.0
1477.528076 208.0
1481.81543 184.0
1483.654663 136.0
1486.331421 200.0
1490.178101 76.0
1494.560669 232.0
1494.783813 188.0
1497.285767 232.0
1502.272705 180.0
