>compound MLS002154246-01!Proglumide6620-60-6
>formula C18H26N2O4
>ionization [M+H]+
>parentmass 335.19653376409053
#inchi InChI=1S/C18H26N2O4/c1-3-12-20(13-4-2)18(24)15(10-11-16(21)22)19-17(23)14-8-6-5-7-9-14/h5-9,15H,3-4,10-13H2,1-2H3,(H,19,23)(H,21,22)
#inchikey DGMKFQYCZXERLX
#Ion_Source LC-ESI
#Instrument qTof
#Compound_Source NIH Pharmacologically Active Library
#PI Dorrestein
#Data_Collector VP/LMS
#Scan -1
#Precursor_MZ 335.199
#ExactMass 334.189
#Charge 1
#CAS_Number N/A
#Pubmed_ID N/A
#Smiles CCCN(CCC)C(=O)C(CCC(=O)O)NC(=O)c1ccccc1
#INCHI_AUX N/A
#Library_Class 1
#SpectrumID CCMSLIB00000085863
#IonMode Positive
#UpdateWorkflowName UPDATE-SINGLE-ANNOTATED-GOLD
#LibraryQualityString Gold
#TaskID d252d724072548979f1f6f1ced849daf
##Scan# 1797
#SpectrumFile p4-G04_GG4_01_18400.mzXML
#LibraryName Pharm_Active_Library.mgf
#MQScore -1
#Organism Pharm_Active_Library
#TIC_Query 0
#RT_Query -1
#MZErrorPPM -1
#SharedPeaks 0
#MassDiff 0
#LibMZ -1
#SpecMZ 335.199
#SpecCharge 0
#internalFilename spec-00000.mgf

>collision 10
45.115143 144.0
45.217587 204.0
45.47493 44.0
45.598499 120.0
45.691284 60.0
45.794941 80.0
45.817841 56.0
46.198563 220.0
46.292919 124.0
46.394936 196.0
46.498241 180.0
46.945633 176.0
47.079376 244.0
47.287193 228.0
47.621746 80.0
47.956104 228.0
48.245995 220.0
48.499329 192.0
48.55479 152.0
48.889614 284.0
48.909103 160.0
48.99823 188.0
49.709961 176.0
49.736629 152.0
50.295464 148.0
50.353355 204.0
50.622066 164.0
50.800659 192.0
51.22002 168.0
51.238541 68.0
51.701199 132.0
51.913227 168.0
52.730991 80.0
53.603222 168.0
54.173058 196.0
54.348995 216.0
54.366608 208.0
54.863785 168.0
54.909496 168.0
54.98917 36.0
55.086628 136.0
55.138344 128.0
55.256645 180.0
55.361744 176.0
55.388405 76.0
55.403217 160.0
55.474316 160.0
55.890362 472.0
55.91552 180.0
56.101719 204.0
56.267323 228.0
56.469063 160.0
57.074944 124.0
57.094494 168.0
57.79295 176.0
58.047836 272.0
58.672371 108.0
58.713543 208.0
59.225574 164.0
59.279198 168.0
59.699837 124.0
59.906094 216.0
59.949238 184.0
60.189888 184.0
60.294941 128.0
60.406269 152.0
60.950474 172.0
60.976894 148.0
61.414421 160.0
61.601742 156.0
61.777546 220.0
61.900482 112.0
61.994476 200.0
62.151291 88.0
62.349163 176.0
62.503277 260.0
62.517441 144.0
62.53318 140.0
62.589855 192.0
62.711163 232.0
62.770519 284.0
62.808926 148.0
62.834167 60.0
62.906765 112.0
63.064732 36.0
63.121647 148.0
63.292545 164.0
63.503326 204.0
64.043755 132.0
64.404243 48.0
64.453773 128.0
64.501717 188.0
64.610466 140.0
64.778564 188.0
65.121841 132.0
65.509514 28.0
65.572357 132.0
65.680389 132.0
65.828873 144.0
66.199203 124.0
66.72332 188.0
66.759094 180.0
66.876236 48.0
66.918564 172.0
66.934845 128.0
67.146706 104.0
67.197281 76.0
67.515816 248.0
67.738426 220.0
67.749893 144.0
67.843307 136.0
68.130508 152.0
68.224182 120.0
68.510544 160.0
68.701782 204.0
68.883377 140.0
69.009834 164.0
69.058594 144.0
69.146286 112.0
69.336754 220.0
69.640388 188.0
70.1996 208.0
70.314713 176.0
70.431595 208.0
70.491745 192.0
70.52684 240.0
70.578667 228.0
70.779472 120.0
70.873276 160.0
71.413857 208.0
71.519859 152.0
71.771317 204.0
71.816422 184.0
72.002083 196.0
72.052765 224.0
72.07135 232.0
72.803162 172.0
72.859215 116.0
73.26754 168.0
73.390251 228.0
73.432892 152.0
73.489189 168.0
73.534477 400.0
73.928352 164.0
74.295044 136.0
74.43235 180.0
74.528549 176.0
74.743492 184.0
74.767586 124.0
74.820107 152.0
74.91394 152.0
75.029411 224.0
75.050102 56.0
75.31588 240.0
76.296738 192.0
76.691902 56.0
76.850601 244.0
76.978027 140.0
77.072357 104.0
77.151009 204.0
77.18248 208.0
77.525597 148.0
77.913383 140.0
78.564789 60.0
78.630081 244.0
78.718353 180.0
79.003761 144.0
79.303963 140.0
79.47599 140.0
79.506157 124.0
79.854385 220.0
80.050156 212.0
80.071526 244.0
80.103592 64.0
80.440636 232.0
80.592445 168.0
80.978859 160.0
81.037979 148.0
81.079193 176.0
81.095322 132.0
81.120422 144.0
81.457794 148.0
81.581795 140.0
82.306099 188.0
82.454239 120.0
82.490387 204.0
82.664024 152.0
83.044487 196.0
83.11161 72.0
83.404015 216.0
84.14547 148.0
84.337288 156.0
84.398155 220.0
85.057175 200.0
85.275764 208.0
85.509354 108.0
85.835434 168.0
86.005173 36.0
86.02179 140.0
86.393242 120.0
86.576492 216.0
86.670967 152.0
86.845238 208.0
87.014114 144.0
87.054962 172.0
87.398865 168.0
87.471451 60.0
87.720558 160.0
87.842285 84.0
87.885201 100.0
88.165314 152.0
88.333595 160.0
88.46833 184.0
88.48893 128.0
88.503906 188.0
88.92572 148.0
89.235687 128.0
89.32972 184.0
89.374878 136.0
89.689392 44.0
89.719551 68.0
89.794983 200.0
89.889313 244.0
90.070564 180.0
90.303062 148.0
90.505554 176.0
90.687424 192.0
90.842918 100.0
91.070709 232.0
91.293083 176.0
91.496025 204.0
91.513817 160.0
92.101212 128.0
92.233055 156.0
92.414742 132.0
92.887962 188.0
94.144836 112.0
94.417336 180.0
94.430878 116.0
94.665054 168.0
94.899529 176.0
95.099342 196.0
95.175056 132.0
95.887077 176.0
96.353462 168.0
96.834686 56.0
96.887573 116.0
96.977715 60.0
97.160088 140.0
97.431023 176.0
97.456566 172.0
97.519455 200.0
97.631523 52.0
97.712173 64.0
97.783012 132.0
97.918869 220.0
98.005547 212.0
98.947701 160.0
99.120026 184.0
99.191376 88.0
99.413521 208.0
99.439323 52.0
99.457184 132.0
99.838669 168.0
100.18103 100.0
100.218887 124.0
100.414253 144.0
100.442177 40.0
100.833534 156.0
101.119545 184.0
101.460091 192.0
101.556343 132.0
101.839363 160.0
101.863464 36.0
101.913696 104.0
102.127129 10936.0
102.16555 176.0
102.195198 144.0
102.29583 72.0
102.309921 44.0
102.363029 96.0
102.388451 76.0
102.501266 56.0
102.519402 28.0
102.585922 104.0
102.969307 52.0
103.037994 64.0
103.13121 844.0
103.159248 84.0
103.177444 44.0
103.638924 36.0
103.760536 140.0
103.825424 56.0
103.981644 140.0
104.003975 212.0
104.030365 64.0
104.050667 188.0
104.359497 48.0
104.402206 188.0
104.495773 80.0
104.729889 148.0
104.823608 188.0
104.839912 80.0
104.854179 192.0
104.868446 160.0
104.890869 64.0
104.934639 204.0
104.97406 308.0
105.033272 40020.0
105.084824 192.0
105.111137 184.0
105.125999 72.0
105.166245 88.0
105.19989 56.0
105.22953 92.0
105.283463 92.0
105.339813 80.0
105.392937 84.0
105.477753 100.0
105.513527 56.0
105.55442 52.0
105.596069 68.0
105.673843 136.0
105.699661 72.0
105.77948 72.0
105.814285 48.0
105.853188 164.0
105.949455 60.0
106.036743 2920.0
106.081177 96.0
106.10112 40.0
106.117371 108.0
106.285202 64.0
106.406822 44.0
106.431458 100.0
106.468102 76.0
106.475609 64.0
106.505394 76.0
106.564171 164.0
106.576614 60.0
106.651283 104.0
106.704735 144.0
106.799332 152.0
106.819908 116.0
106.836365 100.0
106.966751 100.0
107.039391 388.0
107.353371 84.0
107.594788 68.0
107.875755 60.0
108.039131 192.0
112.465378 100.0
112.832954 96.0
113.470245 40.0
113.724808 72.0
113.852203 80.0
115.089455 108.0
115.446327 44.0
115.621758 68.0
115.66671 228.0
118.895592 116.0
122.059669 272.0
123.036934 136.0
124.081543 68.0
124.199074 100.0
126.089447 156.0
130.929092 100.0
132.042862 172.0
132.764297 100.0
132.924881 60.0
136.040878 156.0
145.64151 104.0
145.828918 60.0
146.864288 168.0
149.422516 80.0
151.676636 124.0
157.077515 156.0
158.061905 128.0
160.073334 660.0
160.095322 180.0
161.093658 216.0
166.442978 68.0
167.855713 208.0
168.134338 344.0
171.079941 228.0
174.041306 172.0
186.990402 124.0
187.153748 148.0
191.849945 132.0
192.054001 68.0
196.135742 196.0
202.548401 204.0
204.052521 176.0
204.345474 116.0
204.726913 84.0
206.036194 152.0
206.080154 2920.0
206.530533 52.0
206.682373 28.0
207.023026 140.0
207.080338 364.0
207.34964 32.0
207.581848 60.0
208.086868 324.0
208.58963 100.0
209.853516 96.0
211.62471 84.0
214.145447 140.0
215.110626 100.0
215.358841 100.0
219.408554 236.0
225.129593 216.0
230.431503 140.0
234.073273 1400.0
234.702225 52.0
235.074387 112.0
235.120163 52.0
235.596512 56.0
236.964111 68.0
237.601837 44.0
239.135254 132.0
240.142792 152.0
240.936142 80.0
247.099548 112.0
250.350464 156.0
265.961304 52.0
269.563477 76.0
276.142181 112.0
278.130249 116.0
283.889069 48.0
305.465515 72.0
390.074097 144.0
413.073975 96.0
472.181274 76.0
487.18985 144.0
499.359558 80.0
506.147552 96.0
683.873779 88.0
776.652527 184.0
826.793152 184.0
845.654297 176.0
863.850464 60.0
881.146973 100.0
884.659973 104.0
900.507324 168.0
908.726685 96.0
913.743652 188.0
920.512756 128.0
922.573181 160.0
924.218323 224.0
932.87323 164.0
943.529968 208.0
952.508057 188.0
961.213928 188.0
971.106506 196.0
972.322571 120.0
976.180603 192.0
976.5849 140.0
977.368774 56.0
980.700684 172.0
986.912415 236.0
988.851746 116.0
1000.036743 164.0
1002.335449 116.0
1006.555603 232.0
1011.25293 140.0
1013.735657 188.0
1015.352295 140.0
1015.815308 116.0
1021.513611 124.0
1025.557129 104.0
1025.888672 184.0
1030.241089 40.0
1032.874878 180.0
1034.218628 168.0
1035.877197 224.0
1041.869141 160.0
1044.87793 172.0
1045.386353 164.0
1045.93335 180.0
1056.555664 224.0
1058.35498 288.0
1058.814819 132.0
1062.107544 188.0
1062.490234 204.0
1062.976929 208.0
1065.918579 240.0
1068.194214 132.0
1068.295044 104.0
1068.591064 172.0
1070.947754 72.0
1071.195312 212.0
1072.185669 60.0
1072.368164 228.0
1076.589355 196.0
1080.642334 256.0
1081.303223 156.0
1084.152222 140.0
1089.953369 152.0
1090.452881 124.0
1090.525146 224.0
1094.518555 224.0
1097.905762 152.0
1099.436401 184.0
1100.793945 172.0
1106.847046 112.0
1111.221924 96.0
1112.064697 192.0
1115.266235 236.0
1115.385864 80.0
1118.033081 100.0
1122.076538 252.0
1123.744019 176.0
1132.193481 188.0
1134.116455 132.0
1137.497314 264.0
1138.524536 264.0
1139.108887 200.0
1139.35083 184.0
1142.907593 216.0
1143.452759 132.0
1143.755615 152.0
1147.3125 140.0
1147.440674 148.0
1149.605957 284.0
1152.360962 156.0
1155.362915 196.0
1155.775635 200.0
1163.040894 60.0
1163.122314 220.0
1163.244507 96.0
1163.366699 152.0
1164.772461 252.0
1166.192627 124.0
1169.968018 160.0
1170.77832 208.0
1173.33374 184.0
1174.267944 124.0
1176.349121 240.0
1176.765625 240.0
1183.130859 100.0
1186.124634 152.0
1188.065308 60.0
1188.89563 164.0
1189.424194 168.0
1192.144043 248.0
1196.126465 148.0
1197.717041 192.0
1198.757446 48.0
1198.826416 240.0
1199.832764 180.0
1201.906372 268.0
1202.38501 40.0
1202.958008 196.0
1205.313232 176.0
1205.962769 220.0
1206.723267 88.0
1207.151978 172.0
1207.324829 88.0
1209.483643 188.0
1210.605225 128.0
1212.323364 180.0
1216.825195 124.0
1218.360107 200.0
1219.339966 168.0
1220.194946 136.0
1220.584351 136.0
1222.532227 244.0
1223.868774 148.0
1224.377075 208.0
1225.101562 176.0
1225.394165 156.0
1229.194336 164.0
1230.171509 148.0
1233.391968 128.0
1233.52478 160.0
1234.853271 228.0
1236.616455 220.0
1236.91748 156.0
1238.105713 184.0
1238.724243 156.0
1240.06958 188.0
1240.574341 112.0
1241.001953 224.0
1242.748535 136.0
1243.695923 120.0
1244.78418 160.0
1245.036987 168.0
1245.437378 188.0
1247.130737 100.0
1252.04187 220.0
1252.239014 156.0
1253.944092 264.0
1257.026123 84.0
1257.640137 196.0
1260.168335 156.0
1261.362671 84.0
1261.673828 144.0
1263.781494 128.0
1264.128174 152.0
1268.789062 68.0
1269.065552 28.0
1270.030029 136.0
1271.370972 156.0
1271.917603 160.0
1273.259521 224.0
1274.325073 60.0
1274.900635 340.0
1275.106812 164.0
1276.976685 176.0
1278.001099 40.0
1279.96582 164.0
1280.51416 132.0
1280.613892 140.0
1282.031738 172.0
1282.901245 180.0
1284.455933 156.0
1289.575684 136.0
1290.469238 176.0
1292.96582 132.0
1295.536499 236.0
1295.744263 116.0
1296.188477 176.0
1297.012695 196.0
1297.070068 60.0
1297.48584 200.0
1299.393677 152.0
1300.12561 184.0
1301.001343 168.0
1301.468018 164.0
1306.50647 216.0
1306.952515 128.0
1308.557617 200.0
1310.062866 144.0
1312.744263 120.0
1315.377808 176.0
1316.576294 152.0
1325.162964 200.0
1326.090454 212.0
1327.351929 184.0
1328.62854 156.0
1329.187256 92.0
1330.55188 192.0
1331.844482 36.0
1334.606201 272.0
1335.078857 156.0
1337.130493 124.0
1338.280762 128.0
1338.615723 176.0
1338.863281 180.0
1339.154663 232.0
1341.24585 52.0
1343.404419 192.0
1344.900391 252.0
1345.155884 172.0
1348.369751 180.0
1351.477783 116.0
1352.356079 60.0
1353.234497 100.0
1354.245117 116.0
1354.889771 232.0
1356.434937 188.0
1357.594604 168.0
1363.04895 76.0
1364.129395 196.0
1365.945801 248.0
1367.491089 204.0
1367.829712 252.0
1369.677979 140.0
1370.643066 152.0
1370.849487 356.0
1370.930542 160.0
1373.459473 132.0
1373.791382 196.0
1374.654663 132.0
1374.802368 180.0
1376.640503 124.0
1377.659912 132.0
1378.450439 168.0
1379.263428 156.0
1380.187622 188.0
1380.949341 160.0
1381.319214 188.0
1382.464844 172.0
1385.153809 80.0
1386.205933 200.0
1388.54126 168.0
1391.42041 172.0
1401.096558 140.0
1401.632935 192.0
1402.154663 112.0
1402.572021 152.0
1402.773315 180.0
1403.578491 160.0
1403.891724 200.0
1404.876465 168.0
1405.346436 232.0
1405.771729 260.0
1406.562866 148.0
1407.130249 100.0
1408.691162 72.0
1410.432373 196.0
1411.105103 144.0
1414.778687 44.0
1415.602295 148.0
1415.684692 200.0
1415.782104 48.0
1416.845703 192.0
1417.332764 60.0
1417.422607 148.0
1417.849854 144.0
1420.046631 220.0
1421.802246 216.0
1423.288696 144.0
1423.371338 192.0
1424.828491 212.0
1425.151611 144.0
1425.309326 188.0
1426.549438 144.0
1427.39917 224.0
1427.451782 148.0
1430.099976 228.0
1430.453857 264.0
1430.747437 216.0
1433.361084 240.0
1434.401245 156.0
1437.387939 156.0
1437.968994 120.0
1440.362671 152.0
1440.755493 204.0
1441.133301 152.0
1442.198853 192.0
1443.506836 160.0
1444.558105 116.0
1446.692261 112.0
1446.942139 144.0
1450.335938 184.0
1451.351929 176.0
1451.655151 164.0
1451.905518 208.0
1452.944702 64.0
1453.35437 172.0
1459.872192 148.0
1460.2677 152.0
1460.374146 152.0
1461.089233 160.0
1461.259521 52.0
1463.562866 180.0
1466.488403 144.0
1468.089478 144.0
1468.53186 128.0
1468.707275 256.0
1469.630371 124.0
1470.279053 160.0
1472.515991 60.0
1473.447998 140.0
1475.167603 216.0
1475.962769 172.0
1477.423584 152.0
1480.378174 152.0
1483.634766 152.0
1485.053345 76.0
1485.229736 164.0
1490.304443 196.0
1491.664795 108.0
1492.54895 188.0
1493.07959 204.0
1493.987305 104.0
1495.087646 168.0
1496.088257 68.0
1498.730103 168.0
1498.891968 104.0
1499.994141 156.0
1502.369263 176.0
1505.256104 264.0
