>compound MLS001049036-01!2-(4-hydroxyphenyl)chromen-4-one
>formula C15H10O3
>ionization [M+H]+
>parentmass 239.070786
#inchi InChI=1S/C15H10O3/c16-11-7-5-10(6-8-11)15-9-13(17)12-3-1-2-4-14(12)18-15/h1-9,16H
#inchikey SHGLJXBLXNNCTE
#Ion_Source LC-ESI
#Instrument qTof
#Compound_Source NIH Natural Product Library
#PI Dorrestein
#Data_Collector VVP/LMS
#Scan -1
#Precursor_MZ 239.071
#ExactMass 238.063
#Charge 1
#CAS_Number N/A
#Pubmed_ID N/A
#Smiles Oc1ccc(cc1)c2cc(=O)c3ccccc3o2
#INCHI_AUX N/A
#Library_Class 1
#SpectrumID CCMSLIB00000079859
#IonMode Positive
#UpdateWorkflowName UPDATE-SINGLE-ANNOTATED-GOLD
#LibraryQualityString Gold
#TaskID b1d8e8f6646f4e71acdff9ca3d919d08
##Scan# 1903
#SpectrumFile p1-B12_GB12_01_17896.mzXML
#LibraryName NIH_Natural_Products_Library.mgf
#MQScore -1
#Organism NIH_Natural_Products_Library
#TIC_Query 0
#RT_Query -1
#MZErrorPPM -1
#SharedPeaks 0
#MassDiff 0
#LibMZ -1
#SpecMZ 239.071
#SpecCharge 0
#internalFilename spec-00000.mgf

>collision 10
94.953972 120.0
95.049789 836.0
95.184898 76.0
95.22374 96.0
95.252876 144.0
95.2995 60.0
95.408333 120.0
95.482224 192.0
95.526955 224.0
95.563919 56.0
95.585327 60.0
95.655388 220.0
95.698868 60.0
95.750793 160.0
95.855988 128.0
95.91153 208.0
95.95929 48.0
96.145393 224.0
96.181679 212.0
96.488365 72.0
96.531624 64.0
96.572449 200.0
96.756393 180.0
96.819046 144.0
96.885643 144.0
96.918945 188.0
96.971397 136.0
97.285698 208.0
97.389763 60.0
97.419228 144.0
97.446732 224.0
97.576447 156.0
97.87748 140.0
98.015358 224.0
98.093224 172.0
98.208549 40.0
98.322983 212.0
98.364433 176.0
98.880295 80.0
98.923843 152.0
99.078308 136.0
99.441177 176.0
99.679482 168.0
99.75898 156.0
99.804703 220.0
99.906136 200.0
99.975777 204.0
99.997665 80.0
100.011597 80.0
100.304398 20.0
100.395523 176.0
100.543777 176.0
100.619583 164.0
100.697456 132.0
100.737617 232.0
100.761383 192.0
100.805336 232.0
100.819328 172.0
100.843933 280.0
100.935265 212.0
101.007263 124.0
101.14933 136.0
101.267464 148.0
101.281487 84.0
101.361618 256.0
101.413727 44.0
101.542038 96.0
101.610237 276.0
101.656387 76.0
101.674446 168.0
101.808952 176.0
101.995796 208.0
102.190865 128.0
102.206963 116.0
102.243179 184.0
102.478775 100.0
102.686401 148.0
102.906357 144.0
103.298409 160.0
103.357079 152.0
103.393501 128.0
103.447433 168.0
103.490662 112.0
103.585846 136.0
103.784454 160.0
103.964989 156.0
104.007607 120.0
104.107086 68.0
104.190369 188.0
104.253357 156.0
104.289932 88.0
104.533981 156.0
104.548225 136.0
104.739601 160.0
104.839432 156.0
104.96582 160.0
105.010681 100.0
105.035118 1132.0
105.188194 124.0
105.390373 120.0
105.453728 180.0
105.668434 160.0
105.70256 224.0
105.772804 204.0
105.897697 140.0
106.008324 160.0
106.043251 192.0
106.071861 164.0
106.24411 192.0
106.400078 204.0
106.434982 140.0
106.459625 192.0
106.712364 68.0
106.747314 140.0
106.835754 200.0
106.872787 176.0
106.889244 148.0
106.934525 132.0
106.998329 144.0
107.04425 252.0
107.103355 136.0
107.286751 132.0
107.32386 160.0
107.369225 232.0
107.431099 52.0
107.751091 204.0
107.829605 96.0
108.100517 180.0
108.156395 180.0
108.268196 232.0
108.319977 132.0
108.367622 136.0
108.386269 192.0
108.442223 160.0
108.548882 160.0
108.682777 128.0
108.844673 148.0
109.028221 200.0
109.052414 152.0
109.096565 116.0
109.160515 176.0
109.283241 148.0
109.376884 140.0
109.441422 216.0
109.493477 100.0
109.581535 176.0
109.614304 204.0
109.67057 212.0
109.708092 88.0
109.778984 124.0
109.82695 108.0
110.060677 216.0
110.202705 188.0
110.269577 124.0
110.298836 204.0
110.564453 48.0
110.769638 148.0
110.895363 56.0
111.014854 164.0
111.209961 168.0
111.466171 80.0
111.808945 216.0
111.909981 196.0
112.02581 136.0
112.280846 80.0
112.371552 144.0
112.432739 136.0
112.485504 100.0
112.542511 216.0
112.713593 184.0
112.732613 204.0
112.774879 76.0
112.893272 236.0
113.111191 216.0
113.236107 148.0
113.339912 232.0
113.453064 144.0
113.759834 232.0
113.783943 224.0
113.851128 52.0
113.897858 68.0
114.169899 188.0
114.308167 272.0
114.384789 148.0
114.423103 100.0
114.440437 460.0
114.497627 188.0
114.591354 240.0
114.665932 208.0
114.755463 108.0
115.020287 144.0
115.054893 1104.0
115.257042 136.0
115.986809 44.0
116.050484 216.0
116.100441 160.0
116.226997 208.0
116.381538 136.0
116.452408 148.0
116.656532 208.0
116.705978 180.0
116.933998 88.0
117.034286 412.0
117.071777 96.0
117.373459 108.0
117.529938 212.0
117.576233 96.0
117.70359 228.0
117.744621 96.0
117.843987 92.0
117.88176 152.0
117.913139 128.0
118.042587 752.0
118.326286 180.0
118.438889 208.0
118.633911 156.0
118.82692 172.0
118.863182 168.0
118.900696 164.0
118.954956 152.0
119.017464 212.0
119.049477 13468.0
119.097588 140.0
119.128677 116.0
119.247345 52.0
119.273056 36.0
119.339485 36.0
119.354706 80.0
119.378624 184.0
119.48085 44.0
119.512756 72.0
119.56353 104.0
119.69014 144.0
119.755119 48.0
119.794327 148.0
119.896729 60.0
120.010078 112.0
120.052444 1000.0
120.125664 152.0
120.250038 192.0
120.28714 180.0
120.339531 128.0
120.375259 88.0
120.623528 84.0
120.66069 80.0
120.704819 200.0
120.721916 172.0
120.79628 132.0
120.864098 212.0
120.925827 212.0
120.942451 204.0
120.973984 172.0
120.997604 264.0
121.029442 29300.0
121.083 36.0
121.120239 40.0
121.18251 112.0
121.295532 284.0
121.326218 80.0
121.354721 176.0
121.395477 68.0
121.424889 92.0
121.446823 48.0
121.525795 44.0
121.582848 60.0
121.636719 176.0
121.776047 224.0
121.879295 144.0
121.93203 64.0
122.032272 2324.0
122.068329 56.0
122.112312 144.0
122.158501 44.0
122.217903 72.0
122.28392 56.0
122.310333 124.0
122.396187 124.0
122.446838 132.0
122.464455 220.0
122.512917 44.0
122.656151 136.0
122.753151 176.0
122.803879 48.0
122.876671 168.0
122.918594 104.0
123.006866 100.0
123.031883 204.0
123.115051 76.0
123.132721 52.0
123.174797 156.0
123.19236 108.0
123.229912 60.0
123.282944 124.0
123.384621 136.0
123.400093 204.0
123.523933 252.0
123.539421 56.0
123.692108 148.0
123.785095 188.0
124.188431 156.0
124.454727 244.0
124.561325 92.0
124.603531 136.0
124.903633 244.0
125.066063 64.0
125.101677 180.0
125.185188 136.0
125.224144 132.0
125.373405 200.0
125.393463 140.0
125.42244 200.0
125.498238 216.0
125.658821 120.0
125.91552 212.0
126.047318 140.0
126.07637 116.0
126.298355 152.0
126.434082 176.0
126.525955 132.0
126.546104 148.0
126.720795 248.0
127.012222 132.0
127.055534 592.0
127.380348 160.0
127.483696 224.0
127.546623 164.0
127.656784 188.0
127.677025 132.0
127.755745 168.0
127.782745 144.0
127.809746 164.0
127.863747 180.0
128.060638 920.0
128.142975 192.0
128.512726 148.0
128.688766 204.0
128.853638 120.0
129.036697 132.0
129.071243 488.0
129.222153 232.0
129.256088 160.0
129.421326 144.0
129.697708 152.0
129.713577 156.0
129.894974 144.0
129.987991 108.0
130.046997 140.0
130.069702 156.0
130.099213 216.0
130.142349 192.0
130.335403 108.0
130.430862 244.0
130.772034 208.0
130.792511 100.0
130.885849 136.0
131.02478 232.0
131.113647 160.0
131.199905 152.0
131.334793 208.0
131.426056 140.0
132.152618 160.0
132.454803 168.0
132.791733 228.0
133.026978 1272.0
133.076279 228.0
133.177322 176.0
133.317459 72.0
133.342743 104.0
133.412323 116.0
133.476074 136.0
133.50827 40.0
133.581863 140.0
133.883377 124.0
134.034012 316.0
134.095322 180.0
134.178299 124.0
134.249786 156.0
134.36972 80.0
134.68367 108.0
134.718323 176.0
134.833847 152.0
135.280243 112.0
135.333496 168.0
135.518784 188.0
135.725067 124.0
135.929733 172.0
136.237976 64.0
136.275146 148.0
136.672745 224.0
136.700668 184.0
136.761169 116.0
136.777756 156.0
137.026642 192.0
137.073227 128.0
137.091873 32.0
137.343674 136.0
137.649384 128.0
137.698425 116.0
137.759155 168.0
137.871307 84.0
137.927399 132.0
137.974152 176.0
138.025589 368.0
138.137848 188.0
138.519409 184.0
138.545166 96.0
138.563919 176.0
138.629517 176.0
138.671707 148.0
138.74437 204.0
138.854568 160.0
138.992798 164.0
139.052505 1500.0
139.223022 180.0
139.278015 148.0
139.361603 64.0
139.622528 32.0
139.747192 144.0
139.848389 132.0
140.060043 472.0
140.413834 84.0
140.564804 168.0
140.824493 140.0
140.900085 188.0
141.070984 1720.0
141.145889 152.0
141.193176 148.0
141.297256 168.0
142.07254 392.0
142.328247 220.0
142.468369 40.0
142.720291 52.0
142.934372 160.0
143.060501 252.0
143.17717 168.0
143.746658 188.0
143.782715 108.0
143.868637 108.0
144.020752 160.0
144.224548 76.0
144.521088 196.0
144.580917 228.0
144.719742 144.0
144.738907 120.0
144.755661 76.0
144.804504 172.0
144.948013 212.0
144.985626 408.0
145.029022 22792.0
145.112106 68.0
145.142334 108.0
145.160629 32.0
145.196594 68.0
145.224442 136.0
145.359726 56.0
145.398117 48.0
145.424515 28.0
145.597382 36.0
145.642548 184.0
145.686249 76.0
145.727097 48.0
145.743912 68.0
145.772736 132.0
145.912155 36.0
145.941895 128.0
145.984283 156.0
146.00592 188.0
146.032471 2460.0
146.078079 76.0
146.12619 172.0
146.159882 56.0
146.181534 44.0
146.205597 124.0
146.304291 76.0
146.362061 72.0
146.570007 60.0
146.58873 160.0
146.817505 80.0
147.012894 52.0
147.032562 304.0
147.112289 112.0
147.174622 100.0
147.218094 112.0
147.251907 216.0
147.331787 56.0
147.967651 68.0
148.251038 104.0
148.391632 132.0
148.486191 120.0
148.811356 72.0
148.828354 248.0
149.061539 132.0
149.307053 204.0
149.333801 176.0
149.394623 164.0
149.507355 136.0
149.769485 180.0
149.830383 176.0
149.905914 244.0
149.944901 184.0
150.052078 248.0
150.247253 36.0
150.911545 88.0
151.021591 180.0
151.054413 1008.0
151.092529 136.0
151.18306 152.0
151.383804 228.0
151.49646 60.0
151.71701 268.0
151.790573 60.0
152.062424 3116.0
152.124237 84.0
152.156143 44.0
152.305939 32.0
152.438599 124.0
152.507416 52.0
152.704102 140.0
152.728699 144.0
153.069901 2576.0
153.100342 168.0
153.164368 180.0
153.304794 104.0
153.5242 100.0
153.546402 140.0
153.620392 44.0
153.637665 176.0
153.654922 184.0
153.840012 68.0
153.884445 96.0
154.075974 800.0
154.259964 140.0
154.52951 140.0
154.601273 76.0
154.64357 136.0
155.019775 128.0
155.050201 472.0
155.085114 2824.0
155.170975 44.0
155.756622 72.0
156.054825 160.0
156.088043 644.0
156.166733 152.0
156.510147 160.0
156.714386 132.0
156.754257 32.0
156.88884 136.0
156.958649 116.0
157.070877 168.0
157.130753 136.0
157.382828 176.0
157.417786 272.0
157.467728 180.0
157.500198 80.0
157.787567 184.0
157.877594 300.0
157.957626 128.0
158.00766 152.0
158.378128 152.0
158.443268 188.0
158.535965 76.0
158.593613 84.0
158.63121 148.0
158.730148 156.0
159.248459 80.0
159.447647 172.0
159.469559 216.0
159.683258 144.0
160.048141 136.0
160.728699 84.0
160.930618 184.0
161.170563 208.0
161.324738 132.0
161.40564 160.0
161.446091 108.0
161.577621 108.0
161.625702 88.0
162.015594 132.0
162.509964 132.0
162.555634 212.0
162.583557 48.0
163.054138 644.0
163.11438 128.0
163.205887 200.0
163.241486 68.0
163.414459 180.0
163.758102 144.0
164.06369 360.0
164.089371 152.0
164.420975 164.0
164.650726 172.0
164.681381 168.0
164.732468 164.0
164.881622 264.0
164.962448 164.0
165.020691 316.0
165.070038 17556.0
165.187469 156.0
165.250351 124.0
165.323074 172.0
165.471527 68.0
165.505783 128.0
165.637985 160.0
165.774597 148.0
165.804871 60.0
165.87117 68.0
166.075089 2828.0
166.250748 44.0
166.54599 184.0
166.838928 72.0
167.006073 76.0
167.041321 152.0
167.082672 668.0
167.108963 100.0
167.228561 152.0
167.32515 116.0
167.458694 116.0
167.505417 108.0
167.611038 104.0
167.653076 64.0
168.057953 1200.0
168.449509 240.0
168.46759 108.0
168.570938 64.0
169.063324 1068.0
169.47139 180.0
169.818756 68.0
170.072098 324.0
170.629745 216.0
170.725128 164.0
170.89241 232.0
170.969666 196.0
171.046921 856.0
171.084183 128.0
171.112823 128.0
171.508789 172.0
171.57135 148.0
171.662598 192.0
171.871277 200.0
171.913025 92.0
172.048752 148.0
172.537277 172.0
172.7491 268.0
172.8302 84.0
173.029099 208.0
173.068375 164.0
173.348648 172.0
173.542618 76.0
173.684219 84.0
173.747177 88.0
173.789154 156.0
174.190826 212.0
174.390518 128.0
175.050842 100.0
175.10614 160.0
175.965775 60.0
176.029144 156.0
176.061218 1840.0
176.340866 160.0
176.409592 148.0
176.428101 180.0
176.689911 124.0
176.885727 28.0
176.965149 152.0
177.069504 1560.0
177.222061 160.0
177.386368 188.0
177.526886 40.0
177.76564 36.0
177.948776 52.0
178.07486 436.0
178.142639 44.0
178.163895 204.0
178.411041 56.0
178.698273 140.0
178.884552 92.0
178.951111 184.0
178.983063 132.0
179.058929 404.0
179.096237 152.0
179.281403 188.0
179.345367 160.0
179.401337 96.0
179.910858 124.0
179.948242 84.0
180.009659 248.0
180.028351 152.0
180.056763 212.0
180.394379 108.0
180.73671 168.0
181.064407 1756.0
181.266876 92.0
181.502762 212.0
181.854187 200.0
181.889969 60.0
181.950821 100.0
182.071777 840.0
182.114624 68.0
182.243561 128.0
182.275803 48.0
182.576874 116.0
182.62529 56.0
182.813614 188.0
182.923965 108.0
183.042419 220.0
183.08046 3756.0
183.163605 152.0
183.352203 144.0
183.430374 208.0
183.532822 52.0
183.640686 132.0
183.848419 60.0
183.99147 44.0
184.058289 600.0
184.082718 840.0
184.307465 136.0
184.572357 92.0
184.684265 168.0
185.056015 404.0
185.087387 176.0
185.346481 32.0
185.500961 48.0
185.826401 184.0
186.025406 204.0
186.063293 124.0
186.649368 128.0
186.875122 132.0
187.07106 204.0
187.106461 140.0
187.169083 156.0
187.294357 104.0
187.746765 156.0
188.284393 208.0
188.460709 44.0
188.891159 180.0
189.545471 96.0
189.608505 160.0
189.783936 68.0
190.865753 100.0
191.066528 160.0
191.54277 188.0
191.765945 88.0
192.05455 420.0
192.157516 124.0
192.198898 84.0
192.336884 196.0
192.381042 212.0
193.033081 176.0
193.066727 1912.0
193.160217 136.0
193.276505 224.0
193.772095 100.0
193.949448 148.0
194.071198 1660.0
194.518082 136.0
194.656891 76.0
194.865204 80.0
195.045288 188.0
195.082016 544.0
195.22934 112.0
195.421265 140.0
195.488037 52.0
195.521439 96.0
195.604935 128.0
195.813751 52.0
195.917114 164.0
195.992035 172.0
196.052948 332.0
196.081207 380.0
196.267975 80.0
196.460419 260.0
196.558075 44.0
196.853958 152.0
196.962875 212.0
197.060379 1264.0
197.152863 160.0
197.208755 188.0
197.325607 100.0
198.060104 416.0
198.084549 180.0
198.137772 56.0
198.538589 144.0
199.066162 184.0
199.335831 220.0
200.419128 148.0
200.450134 172.0
201.609924 192.0
202.104767 88.0
202.348175 160.0
202.605896 96.0
204.082565 132.0
204.35759 116.0
204.855789 200.0
205.052383 168.0
205.092285 132.0
205.328934 176.0
205.371719 152.0
205.645615 160.0
205.816895 164.0
205.88829 200.0
206.456985 144.0
207.055099 176.0
207.255615 132.0
207.28714 148.0
207.476303 196.0
207.774551 84.0
207.840546 84.0
207.93811 84.0
208.118118 176.0
208.558487 216.0
209.070419 132.0
209.205688 56.0
209.441818 176.0
209.557037 176.0
209.808182 280.0
210.000977 152.0
210.065872 672.0
210.217346 136.0
210.57193 164.0
210.644638 248.0
210.699524 60.0
210.731293 112.0
210.76886 256.0
210.887344 212.0
211.005859 184.0
211.076538 4368.0
211.196716 124.0
211.237762 104.0
211.445526 88.0
211.674225 36.0
211.914627 76.0
212.044052 320.0
212.078293 492.0
212.587341 104.0
213.055023 500.0
213.078323 120.0
213.084579 160.0
213.479141 92.0
213.775864 76.0
214.131027 136.0
214.253357 44.0
214.743057 120.0
215.064011 152.0
215.090271 120.0
215.724152 240.0
215.765076 152.0
215.788467 52.0
216.21553 168.0
216.288696 60.0
216.356018 32.0
216.807083 192.0
217.000549 140.0
217.15596 140.0
217.552078 96.0
218.448349 224.0
219.193207 152.0
219.579391 140.0
219.664932 64.0
220.045456 216.0
220.166672 52.0
220.213928 96.0
220.478302 136.0
220.559784 144.0
220.748825 216.0
220.813889 160.0
221.058182 864.0
221.242935 124.0
221.322876 68.0
221.411713 212.0
221.903595 148.0
221.980682 108.0
222.064957 320.0
222.672134 140.0
222.998947 236.0
223.376556 64.0
224.03476 144.0
224.380127 140.0
225.045441 124.0
225.1828 60.0
225.522247 124.0
226.130554 208.0
226.909378 68.0
227.491364 152.0
227.713562 192.0
228.031143 192.0
228.395828 224.0
228.455994 196.0
229.160461 204.0
229.380447 112.0
229.784546 168.0
229.8992 144.0
230.161819 208.0
230.264496 200.0
230.890778 208.0
231.159317 116.0
231.607376 148.0
231.631607 176.0
232.04982 136.0
232.853943 192.0
233.048355 52.0
233.378326 84.0
233.48912 80.0
234.505981 120.0
235.00914 148.0
235.045746 196.0
235.21666 164.0
235.589203 136.0
235.613632 176.0
235.674744 132.0
236.705536 192.0
237.055054 204.0
237.250885 68.0
237.520737 92.0
237.576828 112.0
238.049118 172.0
238.113098 92.0
238.168396 168.0
238.272827 108.0
238.334274 208.0
238.357712 160.0
238.364883 100.0
238.375336 156.0
238.453568 132.0
238.523941 348.0
238.557129 176.0
238.607819 32.0
238.675461 172.0
238.711395 168.0
238.755417 264.0
238.814743 288.0
238.844604 152.0
238.892105 180.0
238.899307 56.0
238.905685 168.0
238.962448 244.0
238.995346 128.0
239.070786 81580.0
239.131775 168.0
239.160858 56.0
239.170212 148.0
239.181442 68.0
239.227951 76.0
239.260223 64.0
239.29039 148.0
239.312363 104.0
239.357971 136.0
239.389343 48.0
239.422287 132.0
239.453781 88.0
239.478928 136.0
239.508087 108.0
239.552582 104.0
239.574707 100.0
239.598785 60.0
239.624649 68.0
239.647552 116.0
239.706329 128.0
239.710373 196.0
239.745895 156.0
239.76825 220.0
239.791595 92.0
239.882538 100.0
239.908218 156.0
239.974777 64.0
240.014862 56.0
240.073547 10520.0
240.119705 164.0
240.161407 116.0
240.286285 52.0
240.325562 60.0
240.342773 64.0
240.375763 32.0
240.406616 56.0
240.539993 56.0
240.57637 36.0
240.630219 128.0
240.758545 60.0
240.841919 72.0
240.895432 136.0
240.934601 64.0
240.968582 76.0
241.033463 40.0
241.076553 1224.0
241.124908 88.0
241.187988 108.0
241.280716 48.0
241.341232 188.0
241.380692 80.0
241.505936 184.0
241.546661 168.0
241.590149 216.0
241.611633 120.0
241.642563 116.0
241.666901 148.0
241.704453 64.0
241.738312 144.0
241.78331 124.0
241.819626 164.0
241.886841 148.0
241.937347 104.0
241.983688 108.0
242.082092 152.0
242.106857 132.0
242.213608 96.0
242.280655 92.0
242.34227 72.0
242.394958 36.0
242.45932 88.0
242.487915 76.0
242.757629 124.0
242.804138 80.0
242.894089 84.0
243.828644 52.0
243.869049 152.0
244.207932 104.0
244.394592 64.0
244.568863 56.0
245.254089 96.0
245.72496 88.0
247.481445 64.0
248.170746 56.0
248.205246 60.0
249.018021 64.0
250.997437 40.0
252.573318 120.0
252.978348 68.0
254.155548 36.0
254.735123 96.0
257.796936 44.0
258.091003 172.0
266.104187 40.0
266.344482 136.0
266.373718 76.0
266.948975 44.0
271.324188 124.0
276.502228 76.0
277.197632 88.0
278.501434 140.0
279.246918 68.0
280.541199 124.0
291.986389 76.0
293.767761 68.0
300.826569 108.0
303.098816 52.0
306.176575 52.0
307.110596 80.0
310.8013 104.0
310.87149 68.0
313.427856 88.0
315.259247 100.0
318.806519 104.0
322.949219 96.0
323.493103 68.0
323.571869 68.0
324.675476 72.0
336.457153 80.0
356.83551 80.0
375.283356 36.0
376.290344 92.0
379.478333 84.0
383.7005 76.0
389.079773 100.0
392.542175 84.0
397.264526 104.0
404.352966 76.0
410.600189 56.0
413.743805 60.0
416.489075 112.0
419.060059 72.0
424.894165 132.0
436.454712 128.0
438.69873 44.0
474.12793 52.0
474.409668 60.0
482.896149 72.0
485.857208 100.0
493.639923 128.0
537.612427 72.0
551.32605 40.0
569.896912 84.0
574.691467 56.0
608.977783 44.0
611.347412 32.0
615.611511 76.0
625.427856 108.0
647.737732 68.0
655.531311 176.0
687.557739 28.0
695.948792 64.0
714.29248 116.0
724.622314 128.0
728.651367 84.0
737.007812 56.0
749.618225 92.0
756.220764 128.0
762.53894 40.0
762.648865 148.0
773.470764 152.0
774.417542 152.0
776.867554 64.0
778.571472 48.0
788.147095 72.0
823.849609 140.0
829.956238 108.0
843.913025 80.0
851.225342 52.0
881.469482 180.0
889.909973 72.0
897.227722 96.0
903.073608 64.0
908.290527 144.0
909.928772 44.0
920.646606 96.0
923.971008 212.0
932.508728 92.0
945.645935 248.0
952.679016 132.0
952.857117 192.0
964.874878 152.0
965.350952 144.0
970.911926 180.0
972.171265 212.0
976.930542 136.0
981.028076 52.0
985.852722 64.0
988.203735 128.0
989.549377 128.0
991.622803 184.0
996.222046 152.0
1000.485718 96.0
1002.154663 156.0
1007.896362 132.0
1010.064758 76.0
1010.17865 36.0
1016.742676 116.0
1029.666382 152.0
1039.370972 196.0
1039.730347 168.0
1045.906738 220.0
1047.381226 88.0
1057.524658 116.0
1059.441406 168.0
1068.52356 124.0
1068.686279 180.0
1071.876709 92.0
1073.369385 192.0
1075.809448 92.0
1077.892944 152.0
1081.902222 120.0
1084.063599 204.0
1087.444946 240.0
1091.237793 176.0
1092.434692 256.0
1097.47937 128.0
1098.765503 180.0
1101.663574 188.0
1104.01001 164.0
1104.505981 160.0
1104.942627 176.0
1108.743286 144.0
1116.457397 140.0
1118.093872 140.0
1118.253662 180.0
1120.357788 164.0
1123.397583 208.0
1129.121704 228.0
1131.932373 124.0
1133.044189 180.0
1135.987061 140.0
1145.599854 160.0
1148.309448 196.0
1152.217773 140.0
1156.18689 172.0
1157.960571 172.0
1158.651489 144.0
1161.308716 192.0
1163.968872 128.0
1164.410278 176.0
1165.075928 208.0
1166.278076 220.0
1167.121704 156.0
1170.142578 148.0
1172.206299 128.0
1174.763062 184.0
1175.349731 212.0
1176.817261 144.0
1178.504272 100.0
1179.126099 144.0
1181.963989 144.0
1184.414917 148.0
1186.244385 20.0
1188.157715 176.0
1192.97168 156.0
1194.739014 156.0
1196.831177 68.0
1197.258179 64.0
1197.809082 180.0
1197.940063 164.0
1200.207397 220.0
1201.255737 124.0
1203.125854 100.0
1203.878418 160.0
1203.954346 188.0
1205.03186 176.0
1205.377319 212.0
1205.446533 232.0
1206.096069 124.0
1206.255127 48.0
1206.586914 224.0
1207.893921 176.0
1209.083984 40.0
1210.973999 120.0
1213.621094 44.0
1214.945801 236.0
1216.700073 176.0
1217.618042 164.0
1218.13208 92.0
1219.625977 180.0
1219.931885 52.0
1220.209961 124.0
1222.261719 128.0
1223.49353 60.0
1224.134155 28.0
1224.315186 156.0
1224.565918 88.0
1224.746948 36.0
1225.366943 124.0
1230.625732 40.0
1231.861816 104.0
1231.938599 36.0
1232.679199 96.0
1233.573853 152.0
1233.664673 212.0
1234.307861 176.0
1234.692505 80.0
1235.503906 116.0
1236.494873 240.0
1236.623413 244.0
1241.786987 120.0
1242.9375 228.0
1243.105957 160.0
1245.499878 188.0
1245.647461 140.0
1246.820801 184.0
1247.783691 204.0
1249.366089 200.0
1249.633423 64.0
1251.498535 156.0
1253.738525 48.0
1254.210693 64.0
1256.922363 20.0
1257.610474 216.0
1260.414062 156.0
1260.555298 220.0
1261.55896 136.0
1262.817505 160.0
1263.546143 160.0
1266.250122 132.0
1267.695312 164.0
1268.623779 180.0
1270.893188 196.0
1272.497192 148.0
1273.825195 124.0
1275.487915 124.0
1275.779419 232.0
1278.233154 124.0
1279.49292 68.0
1279.813232 108.0
1280.767578 160.0
1280.88147 200.0
1281.173584 216.0
1282.919556 112.0
1286.37207 152.0
1286.522095 212.0
1287.143188 176.0
1287.550171 108.0
1287.714478 76.0
1288.986084 208.0
1290.07959 140.0
1290.71582 104.0
1290.894653 184.0
1291.853027 152.0
1294.093018 208.0
1296.463989 152.0
1300.128418 140.0
1300.953857 184.0
1307.379517 116.0
1307.724976 112.0
1308.142456 148.0
1311.290039 216.0
1311.549438 108.0
1311.679199 112.0
1314.665039 128.0
1316.173706 76.0
1316.563721 156.0
1317.921631 160.0
1321.102783 156.0
1321.399292 160.0
1324.03418 140.0
1325.453979 192.0
1327.679321 204.0
1328.767334 100.0
1331.627319 44.0
1331.685425 176.0
1332.862305 156.0
1333.109375 128.0
1335.348511 192.0
1337.895264 128.0
1337.982544 212.0
1339.650269 96.0
1339.744995 120.0
1342.157349 260.0
1343.20752 184.0
1343.812988 156.0
1344.155884 180.0
1344.389404 176.0
1349.546387 96.0
1352.421265 200.0
1353.307129 172.0
1354.119873 212.0
1354.639893 212.0
1355.687622 164.0
1357.600952 220.0
1358.062988 68.0
1359.119385 136.0
1360.513794 156.0
1364.407349 36.0
1365.50293 84.0
1365.605957 104.0
1365.723633 164.0
1366.581055 148.0
1366.75354 112.0
1367.533569 128.0
1367.629272 96.0
1369.727783 204.0
1370.684326 144.0
1370.91394 144.0
1371.03186 152.0
1371.20874 164.0
1371.260254 152.0
1371.31189 64.0
1372.830566 188.0
1373.11084 132.0
1374.416504 248.0
1374.674805 148.0
1376.217407 100.0
1376.623535 196.0
1378.529419 48.0
1378.632812 232.0
1379.150146 160.0
1379.534546 192.0
1380.739746 152.0
1381.353638 148.0
1381.435059 80.0
1381.486816 176.0
1384.166016 120.0
1384.2771 160.0
1385.232422 176.0
1388.115479 220.0
1388.493652 164.0
1388.826904 208.0
1389.354126 200.0
1390.622925 56.0
1391.008911 156.0
1393.623047 180.0
1393.890503 212.0
1395.020142 152.0
1396.336182 64.0
1398.292847 160.0
1398.94043 224.0
1399.126587 140.0
1400.131714 68.0
1400.370117 160.0
1402.754395 144.0
1403.104736 188.0
1404.87439 188.0
1406.364502 72.0
1407.07373 100.0
1407.910034 196.0
1409.650513 124.0
1409.755127 64.0
1410.405396 164.0
1411.758545 200.0
1416.870728 148.0
1417.777344 180.0
1418.849243 132.0
1419.876465 188.0
1420.626465 80.0
1421.189209 128.0
1422.464966 184.0
1424.26709 140.0
1424.980713 68.0
1425.476562 52.0
1426.979858 160.0
1427.288208 152.0
1428.920288 212.0
1429.499634 136.0
1430.513672 180.0
1432.179688 112.0
1432.481079 192.0
1433.588623 128.0
1435.088623 232.0
1437.170288 120.0
1437.698486 156.0
1439.99353 144.0
1440.499512 76.0
1441.134155 176.0
1441.23999 168.0
1442.5625 168.0
1442.789307 144.0
1442.970703 80.0
1443.076538 196.0
1444.339478 236.0
1444.755493 128.0
1447.518066 192.0
1447.927002 212.0
1448.192017 204.0
1449.798218 232.0
1450.593994 76.0
1453.096558 136.0
1454.963501 116.0
1455.419067 88.0
1459.423218 48.0
1460.852905 48.0
1461.05835 232.0
1461.750732 40.0
1461.811646 100.0
1462.801025 160.0
1463.501343 128.0
1464.034424 176.0
1464.529419 220.0
1466.388428 232.0
1467.470947 104.0
1469.42334 132.0
1470.392456 52.0
1470.835083 88.0
1471.438232 120.0
1471.995605 176.0
1472.736328 156.0
1473.660645 192.0
1476.54248 168.0
1476.947754 196.0
1477.139038 92.0
1477.460327 192.0
1477.552124 176.0
1479.289307 168.0
1479.358154 172.0
1479.549561 188.0
1480.123779 168.0
1480.943237 244.0
1481.54834 144.0
1482.521362 140.0
1482.904541 148.0
1483.266968 244.0
1486.209717 124.0
1489.241943 140.0
1490.079224 128.0
1491.039795 140.0
1492.78479 88.0
1493.906494 108.0
1494.607788 144.0
1497.964478 120.0
1501.359863 240.0
1501.425049 156.0
1501.479126 48.0
1502.188599 124.0
1503.060425 96.0
1503.253418 32.0
