>compound MLS001140680-01!(2S)-1-[(2S)-2-[[(2S)-2-(2,4-dioxo-1H-quinazolin-3-yl)-3-phenylpropanoyl]amino]-4-methylsulfanylbutanoyl]pyrrolidine-2-carboxylic acid
>formula C27H30N4O6S
>ionization [M+H]+
>parentmass 539.196
#inchi InChI=1S/C27H30N4O6S/c1-38-15-13-20(25(34)30-14-7-12-21(30)26(35)36)28-23(32)22(16-17-8-3-2-4-9-17)31-24(33)18-10-5-6-11-19(18)29-27(31)37/h2-6,8-11,20-22H,7,12-16H2,1H3,(H,28,32)(H,29,37)(H,35,36)/t20-,21-,22-/m0/s1
#inchikey ZDTDTQOXWAEZGP
#Ion_Source LC-ESI
#Instrument qTof
#Compound_Source NIH Natural Product Library
#PI Dorrestein
#Data_Collector VVP/LMS
#Scan -1
#Precursor_MZ 539.196
#ExactMass 538.189
#Charge 1
#CAS_Number N/A
#Pubmed_ID N/A
#Smiles CSCC[C@H](NC(=O)[C@H](Cc1ccccc1)n2c(=O)[nH]c3ccccc3c2=O)C(=O)N4CCC[C@H]4C(=O)O
#INCHI_AUX N/A
#Library_Class 1
#SpectrumID CCMSLIB00000079887
#IonMode Positive
#UpdateWorkflowName UPDATE-SINGLE-ANNOTATED-GOLD
#LibraryQualityString Gold
#TaskID b1d8e8f6646f4e71acdff9ca3d919d08
##Scan# 1973
#SpectrumFile p1-D12_GD12_01_17920.mzXML
#LibraryName NIH_Natural_Products_Library.mgf
#MQScore -1
#Organism NIH_Natural_Products_Library
#TIC_Query 0
#RT_Query -1
#MZErrorPPM -1
#SharedPeaks 0
#MassDiff 0
#LibMZ -1
#SpecMZ 539.196
#SpecCharge 0
#internalFilename spec-00000.mgf

>collision 10
95.233376 104.0
95.624168 136.0
95.666992 52.0
95.986511 176.0
96.097687 192.0
96.198921 224.0
96.28508 192.0
96.49025 172.0
96.664322 248.0
96.707375 168.0
96.721077 180.0
96.940422 164.0
96.963943 180.0
97.009026 96.0
97.1306 44.0
97.156097 152.0
97.177681 92.0
97.242439 204.0
97.30172 100.0
97.330772 120.0
97.399506 60.0
97.466301 192.0
97.49971 116.0
97.672729 156.0
97.759293 84.0
97.989662 76.0
98.003456 200.0
98.078339 124.0
98.230171 136.0
98.569748 108.0
98.700203 80.0
98.74173 32.0
98.955437 156.0
99.066338 68.0
99.312134 216.0
99.506599 204.0
99.655556 136.0
99.923958 204.0
100.533676 152.0
100.573593 44.0
100.599541 168.0
101.00518 212.0
101.091209 224.0
101.143242 184.0
101.351517 236.0
101.383583 208.0
101.568031 132.0
101.65229 172.0
101.684402 156.0
101.911316 180.0
102.139816 60.0
102.666153 40.0
102.849747 128.0
103.053947 3756.0
103.314507 36.0
103.350922 192.0
103.433899 52.0
103.579689 132.0
103.618179 204.0
103.849266 136.0
103.908089 164.0
103.966934 204.0
104.052574 2124.0
104.079636 52.0
104.112045 56.0
104.212631 68.0
104.59037 80.0
104.80471 132.0
104.886497 180.0
105.00856 148.0
105.034035 180.0
105.057732 480.0
105.081993 148.0
105.161575 80.0
105.247314 128.0
105.590622 196.0
105.782509 92.0
105.930389 112.0
106.01358 172.0
106.055374 112.0
106.264542 172.0
106.667046 212.0
106.852127 172.0
106.897392 76.0
106.977661 180.0
107.014717 180.0
107.101212 124.0
107.732407 180.0
107.759262 184.0
107.992851 124.0
108.028015 120.0
108.290894 72.0
108.477371 124.0
108.529198 60.0
108.64949 176.0
108.67646 168.0
108.728302 232.0
109.087662 124.0
109.474648 96.0
109.593376 148.0
109.745529 152.0
109.958305 208.0
110.094002 184.0
110.415833 140.0
110.532982 64.0
110.658562 100.0
110.673218 196.0
110.838692 196.0
110.951866 72.0
111.083977 180.0
111.314842 164.0
111.46608 156.0
111.848839 48.0
111.895157 156.0
112.194305 128.0
112.373573 212.0
112.597321 112.0
112.865692 124.0
113.060303 204.0
113.09774 180.0
113.479706 188.0
113.605194 140.0
114.56144 104.0
114.72979 172.0
114.748978 120.0
114.887596 72.0
114.947334 168.0
114.994286 156.0
115.079674 64.0
115.150139 176.0
115.316788 164.0
115.522049 116.0
115.847435 148.0
115.991005 176.0
116.042656 208.0
116.070206 6452.0
116.151817 60.0
116.306313 76.0
116.329926 52.0
116.381447 80.0
116.415802 64.0
116.548981 152.0
116.685463 216.0
116.809113 224.0
116.862892 68.0
117.041443 180.0
117.07074 440.0
117.261269 76.0
117.321625 152.0
117.379837 52.0
117.537292 52.0
117.586929 164.0
117.748848 136.0
117.874146 140.0
117.956268 140.0
118.008156 28.0
118.070862 56.0
118.11412 172.0
118.15522 160.0
118.172523 168.0
118.688011 136.0
118.742226 120.0
119.280693 176.0
119.372002 160.0
119.500336 168.0
119.678802 168.0
120.044014 760.0
120.199745 172.0
120.249939 204.0
120.311058 132.0
120.372192 36.0
120.470474 160.0
120.813683 196.0
120.92746 164.0
121.02597 172.0
121.050056 216.0
121.067513 144.0
121.163948 200.0
121.273514 188.0
121.609085 80.0
121.66835 124.0
121.909958 180.0
122.099014 212.0
122.11441 120.0
122.39389 120.0
122.422516 216.0
122.575729 252.0
122.750847 152.0
122.905251 132.0
122.938354 124.0
123.028847 284.0
123.309364 144.0
123.340309 128.0
123.422104 240.0
124.381371 120.0
124.501259 104.0
124.753708 176.0
124.872398 168.0
125.088226 196.0
125.763603 76.0
126.004768 76.0
126.156731 228.0
126.174614 160.0
126.478844 112.0
126.566154 104.0
126.581825 176.0
126.994179 152.0
127.052498 168.0
127.083908 180.0
127.506065 68.0
127.87265 124.0
128.053604 160.0
128.384048 132.0
128.697693 172.0
128.937149 156.0
129.013992 80.0
129.047897 140.0
129.344254 120.0
129.491425 60.0
129.772415 84.0
129.847549 148.0
129.909622 20.0
129.958389 228.0
130.033279 236.0
130.06279 204.0
130.105911 200.0
130.158127 168.0
130.273956 104.0
130.31485 216.0
130.967728 188.0
131.047836 352.0
131.448761 172.0
131.478424 192.0
131.70903 132.0
131.841537 124.0
132.035858 132.0
132.054153 96.0
132.22345 176.0
132.484482 148.0
132.901733 104.0
133.011887 160.0
133.358719 216.0
133.487457 204.0
133.517349 148.0
133.593262 136.0
133.894775 164.0
134.47345 128.0
134.769043 156.0
134.845291 96.0
134.958557 196.0
135.055374 144.0
135.101959 96.0
135.256989 44.0
135.639664 176.0
135.9198 168.0
136.100845 120.0
136.33313 132.0
136.59819 152.0
137.471878 212.0
138.013794 228.0
138.030151 192.0
138.081604 132.0
138.203247 176.0
138.528656 184.0
138.774734 44.0
138.882599 100.0
138.945938 204.0
139.013977 148.0
139.608307 148.0
139.763565 120.0
139.956558 160.0
139.991501 200.0
140.930679 172.0
140.95903 224.0
141.145767 164.0
141.167053 108.0
141.327896 212.0
141.505402 292.0
141.536194 200.0
141.55986 68.0
141.976944 128.0
142.461136 112.0
142.477768 176.0
142.667877 152.0
143.067535 128.0
143.837494 136.0
144.042847 168.0
144.506622 180.0
145.040939 420.0
145.484406 120.0
145.722168 152.0
145.83992 128.0
145.952911 312.0
146.023621 11928.0
146.068344 152.0
146.201721 56.0
146.251205 32.0
146.287308 80.0
146.308975 100.0
146.347504 56.0
146.400482 64.0
146.487183 56.0
146.526718 68.0
146.660675 188.0
146.692001 48.0
146.835358 176.0
146.870438 120.0
146.913864 144.0
147.027664 1096.0
147.104492 144.0
147.174515 36.0
147.2397 76.0
147.280762 172.0
147.403976 56.0
147.440216 60.0
147.674728 192.0
147.706177 84.0
147.870712 200.0
148.030487 176.0
148.224274 48.0
148.333328 72.0
148.534592 272.0
148.568542 92.0
148.922943 220.0
149.034683 124.0
149.572128 196.0
149.686554 160.0
149.854614 140.0
149.927719 88.0
149.969147 132.0
150.520493 136.0
150.671921 216.0
150.945663 128.0
151.366531 120.0
151.513489 44.0
151.548782 188.0
151.704636 168.0
151.94252 192.0
151.99649 72.0
152.389343 192.0
152.814682 168.0
153.041122 64.0
153.233231 148.0
153.276413 212.0
153.551208 148.0
153.696747 156.0
153.746094 44.0
154.418076 208.0
154.73233 192.0
154.848709 56.0
155.250198 136.0
155.292358 144.0
155.530548 76.0
155.629837 84.0
155.749039 196.0
155.771393 156.0
156.00499 40.0
156.094482 132.0
156.154175 120.0
156.400482 128.0
156.417908 136.0
156.500061 184.0
156.721741 148.0
156.791504 160.0
157.28035 100.0
157.512558 192.0
157.93248 48.0
158.142654 88.0
158.410568 120.0
158.914474 36.0
159.017349 44.0
159.235779 144.0
159.401581 68.0
159.652954 124.0
159.735138 124.0
160.010254 116.0
160.320068 40.0
160.342743 176.0
160.430969 224.0
160.574692 84.0
160.854752 36.0
160.950699 220.0
161.099701 132.0
161.294266 44.0
161.547134 48.0
161.65593 180.0
161.73439 140.0
162.028122 192.0
162.299026 156.0
162.540283 96.0
162.560577 140.0
162.603729 188.0
162.684952 124.0
163.050751 8364.0
163.103928 144.0
163.126953 92.0
163.322739 164.0
163.371078 56.0
163.401596 192.0
163.419418 56.0
163.668503 152.0
163.714676 160.0
163.811462 168.0
164.029739 152.0
164.05394 576.0
164.436142 156.0
164.489746 80.0
164.642944 116.0
164.980209 128.0
165.058548 156.0
165.085037 212.0
165.102936 196.0
165.302475 156.0
165.471405 60.0
165.965881 144.0
166.17363 72.0
166.287994 148.0
166.396912 152.0
166.450836 196.0
166.471375 56.0
166.921066 232.0
167.201462 136.0
167.440887 208.0
167.646988 140.0
167.706253 112.0
167.788742 144.0
168.147293 156.0
168.258286 168.0
168.309921 60.0
168.612152 228.0
168.718124 120.0
168.925003 124.0
169.489395 140.0
169.572311 204.0
169.782318 40.0
170.078079 228.0
170.265015 72.0
170.446854 200.0
170.628784 140.0
171.818954 120.0
171.86853 164.0
171.932739 184.0
172.061661 128.0
172.354187 160.0
172.518829 156.0
172.576355 136.0
172.856216 100.0
172.929504 144.0
172.950439 128.0
172.987183 104.0
174.004227 152.0
174.106644 60.0
174.140778 64.0
174.319427 144.0
174.961182 148.0
175.071762 200.0
175.109238 176.0
175.372101 120.0
175.401093 128.0
175.469635 140.0
175.645355 196.0
175.896988 116.0
176.253525 136.0
176.512558 144.0
176.927948 120.0
177.293472 196.0
177.540009 52.0
177.683243 112.0
177.805298 228.0
178.139847 120.0
178.355072 116.0
178.378998 108.0
178.743362 144.0
178.969604 36.0
178.993561 100.0
180.081619 148.0
180.116333 184.0
180.332764 196.0
180.546631 92.0
180.985489 200.0
181.022964 112.0
181.060455 160.0
181.419495 220.0
181.521378 108.0
181.604523 168.0
181.644745 180.0
182.079987 204.0
182.278351 172.0
182.942657 224.0
183.086197 308.0
183.300858 164.0
183.489532 168.0
183.721451 84.0
184.026428 180.0
184.138901 232.0
184.212769 36.0
184.564102 124.0
184.666855 128.0
185.112396 208.0
185.923935 352.0
186.164963 152.0
186.578537 140.0
186.752563 152.0
186.861374 132.0
186.880417 120.0
187.042099 180.0
187.375931 148.0
187.970306 176.0
188.068558 148.0
188.087662 224.0
188.185944 160.0
188.24054 52.0
188.66951 124.0
189.246765 116.0
189.285095 156.0
189.372742 212.0
189.416183 176.0
189.501129 156.0
190.167831 160.0
190.241943 176.0
190.274887 172.0
190.447891 84.0
190.47261 244.0
190.664932 244.0
190.948105 68.0
191.504044 128.0
191.807129 232.0
191.881561 192.0
191.989105 44.0
192.071838 140.0
192.140808 164.0
192.361572 168.0
192.797958 212.0
192.944458 216.0
192.96933 164.0
193.472839 172.0
193.547592 140.0
193.583603 68.0
193.990875 80.0
194.095505 672.0
194.212708 164.0
194.490158 84.0
194.895615 48.0
195.048462 40.0
195.106842 156.0
195.371033 204.0
195.468399 140.0
195.654892 44.0
196.231583 44.0
196.265579 184.0
196.468781 168.0
196.809128 96.0
197.370743 160.0
197.717606 120.0
198.157227 144.0
198.499176 48.0
198.782486 208.0
199.109619 720.0
199.197998 176.0
199.366577 212.0
199.681442 136.0
199.723633 144.0
199.760193 56.0
199.917755 148.0
200.102875 192.0
200.393616 148.0
200.489426 152.0
200.706467 136.0
200.850296 164.0
201.129639 132.0
201.417648 100.0
201.626724 100.0
201.855698 116.0
202.044556 140.0
202.118759 64.0
202.333862 168.0
202.814804 184.0
202.951492 212.0
203.064926 44.0
203.272461 128.0
203.550201 156.0
203.771744 164.0
203.939392 120.0
204.013306 104.0
204.474091 136.0
205.097824 100.0
205.177643 92.0
205.257477 240.0
205.374405 156.0
205.594086 100.0
206.605545 120.0
206.785812 216.0
206.834473 120.0
206.911758 148.0
207.036255 184.0
207.42453 76.0
207.481873 36.0
207.52774 188.0
207.580887 232.0
207.80307 148.0
207.95517 180.0
208.124527 136.0
208.242279 124.0
208.268127 256.0
208.615814 196.0
208.656052 124.0
208.676178 156.0
208.759567 208.0
209.027084 284.0
209.608734 192.0
209.798965 128.0
209.922943 128.0
210.072906 160.0
210.355698 132.0
210.485626 72.0
210.592468 152.0
211.219681 144.0
211.604568 140.0
211.82756 164.0
212.041962 160.0
212.111526 212.0
212.447891 104.0
212.668427 164.0
212.69165 208.0
212.842606 104.0
213.069153 208.0
213.307434 192.0
214.194931 96.0
214.495056 124.0
214.760391 164.0
215.732742 208.0
216.104156 168.0
216.534454 176.0
216.590103 92.0
216.680923 396.0
217.276047 100.0
217.710464 56.0
218.321701 204.0
218.654144 180.0
218.913193 144.0
219.08992 132.0
220.076874 320.0
220.299408 100.0
221.004089 188.0
221.084702 180.0
221.464844 116.0
221.530014 96.0
221.66925 200.0
221.984406 216.0
222.092239 644.0
222.526459 184.0
222.725418 32.0
222.873962 176.0
223.096024 244.0
223.412079 144.0
224.180252 140.0
224.224945 152.0
224.27562 164.0
224.713974 200.0
224.788559 160.0
225.033325 200.0
225.14978 204.0
225.21846 180.0
225.493347 156.0
225.962799 104.0
226.333939 72.0
226.429764 128.0
226.567551 144.0
226.615479 136.0
226.906189 148.0
226.963165 176.0
227.113098 228.0
227.277847 192.0
227.317108 120.0
227.34111 204.0
227.728394 40.0
227.842545 120.0
227.917648 132.0
228.055893 172.0
228.085938 80.0
228.534027 60.0
228.597214 136.0
228.856079 116.0
228.955444 228.0
229.103027 168.0
229.15123 200.0
229.298889 140.0
229.383286 112.0
229.461655 80.0
229.811523 112.0
230.065033 152.0
230.113083 148.0
230.901993 140.0
230.986679 68.0
231.097031 168.0
231.322571 188.0
231.392197 176.0
231.658691 164.0
231.75563 132.0
231.934433 104.0
232.066544 148.0
232.092072 136.0
232.313477 176.0
232.401443 156.0
232.513718 208.0
233.190979 152.0
233.729248 136.0
234.380844 204.0
235.093307 228.0
235.323318 116.0
235.778442 140.0
236.029114 176.0
236.322739 168.0
236.518585 104.0
237.104492 384.0
237.180206 184.0
237.747589 180.0
237.82431 156.0
238.102631 196.0
238.134415 180.0
238.18663 108.0
238.20813 116.0
238.653748 120.0
239.059769 96.0
239.189026 168.0
239.429184 208.0
240.153442 148.0
240.387909 184.0
240.718201 176.0
240.937485 136.0
240.986923 124.0
241.008545 148.0
241.317627 160.0
241.868271 164.0
242.39476 196.0
242.53421 164.0
242.658218 172.0
243.247635 156.0
243.567459 184.0
243.729004 152.0
244.37262 140.0
244.397507 116.0
244.584229 168.0
244.702515 52.0
244.845749 96.0
245.300644 96.0
245.805893 84.0
245.830856 124.0
246.081238 220.0
246.667862 84.0
246.936768 184.0
247.086227 988.0
247.259003 36.0
247.515701 132.0
247.744324 192.0
247.784515 212.0
248.07402 404.0
248.351532 140.0
248.68187 116.0
248.882782 92.0
249.080627 132.0
249.109436 192.0
249.470276 108.0
249.56459 96.0
249.872818 104.0
249.89798 100.0
249.920013 84.0
249.992386 92.0
250.162338 172.0
250.489822 92.0
250.546524 128.0
251.050842 72.0
251.707184 120.0
251.729294 92.0
252.121002 188.0
252.269562 104.0
252.816727 172.0
253.050964 196.0
253.320145 56.0
253.725769 116.0
253.868454 168.0
254.560226 40.0
254.601517 156.0
255.087631 84.0
255.182999 180.0
255.332458 160.0
255.364258 252.0
255.422867 160.0
255.644211 180.0
255.860657 156.0
255.988007 220.0
256.230072 176.0
256.338409 228.0
257.151703 156.0
257.19278 184.0
257.569885 160.0
257.918152 124.0
258.202698 188.0
258.391449 148.0
258.506622 184.0
259.082947 184.0
259.175842 152.0
259.422638 244.0
259.608582 108.0
259.829895 160.0
260.176483 120.0
260.256744 152.0
260.468719 124.0
260.510468 112.0
260.539398 56.0
260.91861 212.0
261.027924 168.0
261.109467 192.0
261.674652 140.0
262.262848 168.0
262.520966 176.0
262.5672 204.0
262.62204 64.0
262.747833 140.0
263.004517 96.0
263.102844 104.0
263.125427 176.0
263.177094 104.0
263.316498 184.0
263.394684 72.0
263.480682 60.0
263.635773 72.0
263.681 100.0
263.86203 96.0
264.033386 208.0
264.113525 216.0
264.327789 136.0
264.457214 172.0
264.54364 72.0
264.591949 92.0
264.628784 100.0
264.652466 116.0
264.678925 144.0
264.738892 188.0
264.778687 172.0
264.807312 208.0
264.821106 160.0
264.868713 136.0
264.912933 144.0
264.955902 204.0
264.97934 276.0
265.03299 228.0
265.097717 126892.0
265.179077 284.0
265.204407 152.0
265.251007 64.0
265.300903 164.0
265.329132 104.0
265.383026 164.0
265.424622 204.0
265.459015 108.0
265.49173 64.0
265.521576 248.0
265.579529 120.0
265.634277 212.0
265.662506 136.0
265.699982 92.0
265.716797 96.0
265.726257 104.0
265.769684 44.0
265.794525 256.0
265.817444 344.0
265.872131 80.0
265.905945 76.0
265.931915 136.0
265.990967 128.0
266.0354 296.0
266.09964 22920.0
266.182709 100.0
266.244415 156.0
266.304871 92.0
266.334534 48.0
266.37677 44.0
266.401215 72.0
266.459808 68.0
266.514709 56.0
266.55481 88.0
266.608185 104.0
266.69455 100.0
266.742249 76.0
266.80246 48.0
266.834961 48.0
266.874969 144.0
266.906067 76.0
266.949921 56.0
266.984528 132.0
267.051147 100.0
267.102386 2112.0
267.193176 136.0
267.223206 108.0
267.252991 84.0
267.292175 84.0
267.320801 76.0
267.395325 156.0
267.475037 148.0
267.507507 120.0
267.566956 92.0
267.606049 212.0
267.650757 152.0
267.698181 148.0
267.725494 152.0
267.790863 132.0
267.834473 204.0
267.852234 136.0
267.89502 124.0
267.937103 104.0
267.982208 100.0
268.026367 224.0
268.06189 80.0
268.121338 144.0
268.154419 92.0
268.202179 148.0
268.262817 88.0
268.303223 184.0
268.337311 80.0
268.479309 72.0
268.513306 112.0
268.560852 72.0
268.648895 44.0
268.690216 144.0
268.727203 40.0
268.788483 104.0
268.847931 104.0
268.888885 88.0
268.945831 72.0
268.991547 76.0
269.037933 192.0
269.063354 92.0
269.100647 48.0
269.197235 52.0
269.226624 112.0
269.262543 100.0
269.494476 68.0
269.60556 52.0
269.661743 108.0
270.135223 72.0
270.639221 88.0
270.7211 44.0
270.814453 148.0
271.035553 52.0
271.681427 96.0
271.940643 44.0
272.134308 40.0
272.367493 68.0
272.794647 80.0
273.284668 44.0
274.035339 48.0
274.269318 72.0
275.079224 1336.0
275.163269 168.0
275.249115 60.0
275.496826 60.0
275.638885 212.0
275.671936 224.0
276.088531 392.0
277.045013 48.0
277.081451 112.0
277.363129 72.0
277.575317 80.0
277.678101 32.0
278.109406 116.0
278.179138 76.0
278.268768 64.0
278.796906 104.0
279.292267 100.0
279.814728 52.0
280.607635 60.0
282.474426 124.0
282.537964 76.0
283.133759 144.0
284.062195 164.0
284.669647 60.0
284.948425 100.0
285.294586 108.0
285.849548 72.0
287.065582 64.0
287.537872 136.0
288.530945 156.0
290.088135 128.0
291.61557 96.0
291.887543 140.0
292.207245 168.0
292.484833 160.0
292.588409 148.0
292.714386 132.0
293.014465 156.0
293.091217 21440.0
293.172302 56.0
293.22052 80.0
293.251373 64.0
293.283325 44.0
293.393188 68.0
293.453766 48.0
293.512756 92.0
293.567902 92.0
293.600372 44.0
293.635895 68.0
293.863037 160.0
293.93811 64.0
294.023651 60.0
294.095154 3540.0
294.149689 52.0
294.199066 60.0
294.258942 44.0
294.299896 60.0
294.364777 40.0
294.600433 120.0
294.675842 56.0
294.754181 60.0
294.990021 116.0
295.020782 68.0
295.061798 88.0
295.101929 684.0
295.205414 64.0
295.318268 72.0
295.38324 88.0
295.526917 96.0
295.585083 32.0
295.612457 52.0
295.66037 80.0
295.855469 108.0
296.101135 124.0
296.324677 40.0
296.605652 44.0
297.174927 128.0
297.346497 64.0
298.87912 60.0
298.9552 108.0
299.464355 56.0
299.98465 60.0
301.403107 40.0
303.202515 40.0
304.878693 60.0
306.688477 80.0
307.864197 88.0
308.384735 72.0
310.201355 156.0
311.127441 100.0
316.911438 116.0
320.41452 120.0
320.949158 72.0
321.209473 72.0
321.462799 44.0
322.502045 36.0
323.020508 152.0
324.657288 48.0
325.102112 88.0
335.971497 184.0
337.476196 104.0
341.142303 156.0
347.724426 76.0
348.140228 120.0
350.893646 36.0
354.86792 136.0
355.332977 60.0
356.177612 144.0
359.305817 132.0
361.402649 72.0
364.861542 112.0
365.165741 160.0
373.957916 100.0
375.217529 88.0
376.070007 164.0
379.66803 32.0
380.649811 64.0
380.898346 116.0
381.768951 116.0
382.056763 96.0
385.202606 44.0
389.684265 88.0
392.47876 180.0
392.601013 44.0
392.821869 80.0
397.994446 104.0
399.170593 44.0
401.587891 56.0
403.964508 96.0
404.977203 88.0
405.75058 64.0
409.189575 56.0
411.140472 44.0
414.367157 72.0
418.338867 48.0
423.963074 68.0
425.406799 68.0
425.607971 96.0
426.626862 76.0
427.206696 36.0
429.113434 100.0
429.278381 68.0
432.558777 84.0
443.809326 20.0
445.981781 72.0
450.203217 76.0
452.016693 68.0
452.948059 64.0
458.104919 32.0
463.123901 132.0
469.217255 128.0
469.247437 72.0
472.27887 112.0
480.436584 72.0
481.174103 80.0
483.215088 52.0
483.595795 48.0
491.189362 180.0
493.449402 140.0
495.35672 68.0
495.866272 60.0
496.81958 128.0
496.877258 56.0
501.22113 108.0
510.257721 112.0
510.37912 44.0
512.999329 124.0
514.131409 76.0
519.80603 88.0
527.466431 108.0
534.676453 72.0
535.482117 40.0
536.311401 132.0
537.132141 72.0
537.395081 180.0
539.260681 96.0
542.296814 140.0
548.501892 84.0
549.915161 72.0
559.505737 92.0
562.706848 80.0
565.51001 44.0
565.970581 152.0
566.921326 184.0
567.855225 48.0
577.03125 96.0
579.807556 68.0
584.845642 84.0
591.492126 108.0
629.046143 76.0
631.844604 128.0
647.519409 48.0
678.921387 96.0
691.016296 80.0
713.345398 124.0
723.780823 36.0
723.887878 84.0
750.146301 56.0
765.459412 180.0
766.665833 48.0
788.526428 44.0
810.201416 64.0
817.047913 56.0
822.815308 136.0
830.070251 100.0
845.462524 124.0
878.670166 68.0
894.337952 60.0
896.100586 64.0
912.138733 144.0
913.924866 68.0
915.242981 184.0
920.343933 80.0
946.110413 52.0
952.825684 116.0
961.304077 40.0
989.648743 92.0
990.544312 144.0
990.86377 232.0
993.697571 60.0
995.555481 200.0
1002.746216 68.0
1014.293701 96.0
1020.495972 100.0
1024.167847 160.0
1034.524902 200.0
1049.648926 104.0
1062.318726 116.0
1070.976807 172.0
1074.921021 180.0
1078.735107 72.0
1078.879028 164.0
1089.672729 160.0
1098.929565 204.0
1100.738037 88.0
1112.396973 96.0
1122.422974 176.0
1128.55249 60.0
1130.124268 188.0
1149.583618 152.0
1159.233276 48.0
1166.856689 128.0
1168.977661 188.0
1179.849609 172.0
1187.944092 80.0
1191.383301 116.0
1193.678833 124.0
1193.995117 188.0
1197.257202 84.0
1197.539551 28.0
1202.586426 64.0
1203.449341 124.0
1207.29126 48.0
1219.499878 48.0
1219.958618 192.0
1223.040161 148.0
1223.590088 156.0
1227.575562 168.0
1230.254761 176.0
1232.880859 192.0
1233.251343 124.0
1244.810669 108.0
1252.497559 212.0
1256.050049 168.0
1276.048584 236.0
1279.249878 192.0
1285.407593 172.0
1294.421387 164.0
1298.599365 192.0
1306.205688 128.0
1311.38269 144.0
1311.923218 240.0
1318.563721 180.0
1320.523071 200.0
1321.796265 184.0
1328.679321 176.0
1330.704102 172.0
1333.391724 204.0
1340.290283 152.0
1343.257446 208.0
1344.928345 168.0
1346.162231 56.0
1346.439697 80.0
1352.720337 160.0
1360.615479 172.0
1360.931152 120.0
1362.795898 152.0
1365.134155 152.0
1365.729858 216.0
1368.143433 180.0
1368.710327 220.0
1369.969727 236.0
1370.625488 212.0
1370.758057 196.0
1372.453369 96.0
1376.061279 80.0
1379.991821 184.0
1382.773193 208.0
1407.087524 172.0
1411.93689 144.0
1414.525635 184.0
1418.615723 68.0
1424.220825 236.0
1424.476196 44.0
1425.114868 176.0
1437.719971 216.0
1441.714844 164.0
1444.217285 164.0
1444.360962 108.0
1449.395386 140.0
1457.673828 200.0
1460.851807 144.0
1462.51062 84.0
1464.71875 204.0
1468.590698 128.0
1471.414062 132.0
1482.911011 124.0
1483.16394 148.0
1487.865356 172.0
1487.935303 264.0
1488.13501 148.0
1490.508301 72.0
1492.068481 204.0
1494.383423 152.0
1497.708984 124.0
1500.074585 144.0
1500.514038 48.0
1502.403442 128.0
