>compound MLS000697739-01!(2R,3S,3aR,5R)-2-(3,4-dimethoxyphenyl)-5-methoxy-3-methyl-3a-prop-2-enyl-2,3,4,5-tetrahydro-1-benzofuran-6-one
>formula C21H26O5
>ionization [M+H]+
>parentmass 359.186
#inchi InChI=1S/C21H26O5/c1-6-9-21-12-18(25-5)15(22)11-19(21)26-20(13(21)2)14-7-8-16(23-3)17(10-14)24-4/h6-8,10-11,13,18,20H,1,9,12H2,2-5H3/t13-,18-,20-,21-/m1/s1
#inchikey KFMNCNJSZCXIMA
#Ion_Source LC-ESI
#Instrument qTof
#Compound_Source NIH Natural Product Library
#PI Dorrestein
#Data_Collector VVP/LMS
#Scan -1
#Precursor_MZ 359.186
#ExactMass 358.178
#Charge 1
#CAS_Number N/A
#Pubmed_ID N/A
#Smiles CO[C@@H]1C[C@]2(CC=C)[C@H](C)[C@@H](OC2=CC1=O)c3ccc(OC)c(OC)c3
#INCHI_AUX N/A
#Library_Class 1
#SpectrumID CCMSLIB00000080257
#IonMode Positive
#UpdateWorkflowName UPDATE-SINGLE-ANNOTATED-GOLD
#LibraryQualityString Gold
#TaskID b1d8e8f6646f4e71acdff9ca3d919d08
##Scan# 2108
#SpectrumFile p2-C06_GC6_01_18006.mzXML
#LibraryName NIH_Natural_Products_Library.mgf
#MQScore -1
#Organism NIH_Natural_Products_Library
#TIC_Query 0
#RT_Query -1
#MZErrorPPM -1
#SharedPeaks 0
#MassDiff 0
#LibMZ -1
#SpecMZ 359.186
#SpecCharge 0
#internalFilename spec-00000.mgf

>collision 10
95.0495 272.0
95.08622 128.0
95.387276 56.0
95.523392 180.0
95.856316 168.0
95.869957 100.0
95.944023 204.0
96.052742 500.0
96.931053 156.0
97.029053 592.0
97.18399 216.0
97.594498 168.0
97.808929 188.0
98.538582 196.0
98.892273 148.0
99.027176 136.0
99.175774 56.0
99.341469 136.0
99.777252 48.0
99.791168 60.0
99.946312 176.0
99.966209 180.0
100.045822 148.0
101.075684 204.0
101.171753 168.0
101.488297 216.0
101.706963 124.0
102.042442 136.0
102.664635 60.0
103.055862 696.0
103.093628 184.0
103.195694 172.0
103.234116 96.0
104.062851 120.0
104.091278 68.0
104.282242 188.0
104.430664 180.0
104.793015 164.0
104.90918 148.0
104.982582 252.0
105.032799 64.0
105.071747 924.0
105.435783 224.0
105.828529 196.0
106.04274 196.0
106.072319 232.0
106.226112 128.0
106.519653 64.0
106.723106 148.0
106.945282 120.0
106.965866 128.0
107.048676 1932.0
107.085876 716.0
107.188293 160.0
107.351143 68.0
107.567772 160.0
107.952065 124.0
108.055458 520.0
108.09066 140.0
108.113419 52.0
108.254189 96.0
108.764206 196.0
108.799492 164.0
109.066803 680.0
109.967247 164.0
110.008995 148.0
110.038223 188.0
110.12384 208.0
110.253372 144.0
110.274269 268.0
110.506386 172.0
110.650795 156.0
110.667542 176.0
110.789017 184.0
110.826729 96.0
110.927322 136.0
111.048935 148.0
111.439384 216.0
112.102196 124.0
112.940346 124.0
113.459152 64.0
114.130058 136.0
114.151321 44.0
114.381096 136.0
114.903191 164.0
115.052986 372.0
115.103821 204.0
115.255478 196.0
115.985252 124.0
116.066719 172.0
116.090302 152.0
116.203987 140.0
116.373543 68.0
116.416489 208.0
116.446556 144.0
117.06855 524.0
117.12838 112.0
117.587631 220.0
118.04129 128.0
118.057365 176.0
118.079643 180.0
118.747276 84.0
119.049416 328.0
119.084396 584.0
119.224693 208.0
119.355331 76.0
120.025978 116.0
120.060684 148.0
120.079132 156.0
120.359825 160.0
120.656967 132.0
120.702881 104.0
120.768486 52.0
120.866936 164.0
121.031097 104.0
121.064163 708.0
121.096832 352.0
121.697647 76.0
121.855782 188.0
121.992737 164.0
122.037178 360.0
122.073448 300.0
122.104172 360.0
122.769257 120.0
122.92588 180.0
123.000923 180.0
123.044144 3088.0
123.080513 156.0
123.352135 244.0
123.480377 172.0
123.599838 72.0
123.912025 60.0
124.052444 276.0
124.253448 36.0
124.313354 128.0
124.968849 188.0
125.057861 180.0
125.461037 104.0
126.046074 184.0
126.267105 148.0
126.289474 164.0
126.394615 156.0
126.589363 224.0
127.039864 320.0
127.062439 224.0
127.221634 160.0
128.028824 156.0
128.062805 588.0
128.186508 200.0
128.443527 112.0
128.551819 176.0
128.743713 244.0
128.829529 180.0
129.02388 148.0
129.041977 208.0
129.064194 332.0
129.186707 180.0
129.505875 52.0
130.006912 152.0
130.070465 152.0
130.154465 148.0
130.929886 128.0
130.952667 208.0
131.050629 708.0
131.089981 184.0
131.547791 32.0
131.753311 180.0
131.979584 208.0
132.060486 648.0
132.551819 244.0
133.029816 384.0
133.065414 976.0
133.100204 336.0
133.408936 160.0
134.043137 184.0
134.068146 176.0
134.10675 204.0
134.126099 40.0
134.44899 152.0
134.633682 76.0
134.887833 168.0
134.929443 140.0
135.046051 1004.0
135.081589 768.0
135.211639 184.0
135.487183 68.0
135.647079 180.0
135.895218 48.0
136.018219 140.0
136.051285 488.0
136.120361 104.0
136.157516 256.0
137.061935 716.0
137.213928 200.0
137.675934 220.0
137.72731 128.0
137.911896 100.0
138.065109 184.0
139.038437 228.0
139.078506 380.0
139.635162 124.0
140.004654 200.0
140.047043 68.0
140.145981 200.0
140.336899 164.0
140.6129 160.0
141.058609 192.0
141.068695 136.0
141.071777 188.0
141.876007 56.0
142.079865 104.0
142.136902 80.0
142.179886 172.0
142.685547 84.0
143.085464 580.0
143.1138 176.0
144.008057 168.0
144.057068 304.0
144.088348 224.0
144.459824 160.0
144.842819 152.0
144.888336 136.0
145.06575 1040.0
145.098633 144.0
145.28389 148.0
145.427872 224.0
145.504684 104.0
145.980423 116.0
146.073425 1804.0
146.10791 108.0
146.919769 140.0
146.968018 184.0
147.021103 128.0
147.045776 540.0
147.081543 1016.0
147.178009 148.0
147.390564 208.0
147.704849 200.0
147.893585 180.0
147.915375 92.0
148.051346 400.0
148.08165 480.0
148.155106 152.0
148.972626 104.0
149.059769 640.0
149.106262 176.0
149.283737 76.0
149.458878 240.0
149.600021 48.0
150.068085 2052.0
150.105453 124.0
150.204346 176.0
150.724365 116.0
150.893723 124.0
151.044632 156.0
151.075729 14148.0
151.156189 80.0
151.174988 60.0
151.193878 52.0
151.323608 56.0
151.344299 124.0
151.51709 84.0
151.544037 100.0
151.561188 92.0
152.079636 1192.0
152.112991 96.0
152.135086 92.0
152.329086 100.0
152.464218 44.0
152.567444 136.0
152.765244 120.0
152.934769 160.0
153.015198 144.0
153.054962 236.0
153.075912 160.0
153.104355 172.0
153.299622 136.0
153.36171 120.0
153.421692 28.0
153.6091 52.0
153.957108 96.0
154.073196 160.0
154.251129 156.0
154.684006 196.0
155.015884 188.0
155.071213 1212.0
155.221619 176.0
155.588837 40.0
156.050934 80.0
156.077835 148.0
156.09433 176.0
156.697662 132.0
156.919846 260.0
156.982178 172.0
157.032059 144.0
157.059097 172.0
157.104401 60.0
157.526276 108.0
157.648697 168.0
157.673691 188.0
157.918701 92.0
158.038773 104.0
158.078308 200.0
158.31662 208.0
158.381744 68.0
158.529556 128.0
159.046066 448.0
159.080978 1048.0
159.126526 120.0
159.626541 116.0
159.712051 56.0
159.951096 132.0
160.003952 32.0
160.054459 908.0
160.085831 616.0
160.361649 120.0
161.059204 1056.0
161.096497 1764.0
161.20047 52.0
161.237411 56.0
161.475052 56.0
161.63443 92.0
161.690109 36.0
161.717941 76.0
162.06842 536.0
162.094879 208.0
162.284332 204.0
162.91478 44.0
163.034195 180.0
163.073242 588.0
163.334213 96.0
164.091232 176.0
164.174683 96.0
164.616165 128.0
164.777069 108.0
164.840958 116.0
164.894623 176.0
165.032654 176.0
165.057541 576.0
165.091461 4100.0
165.990295 44.0
166.061005 212.0
166.093491 152.0
166.999557 92.0
167.030426 160.0
167.058716 56.0
167.087067 232.0
167.328934 68.0
168.00415 244.0
168.057816 224.0
168.084793 172.0
168.466232 196.0
169.040207 64.0
169.070679 624.0
169.099731 212.0
170.070602 176.0
170.097565 168.0
170.201477 84.0
170.552185 60.0
171.049179 176.0
171.084045 1348.0
171.22345 40.0
171.55957 60.0
171.61171 204.0
171.781219 48.0
171.856888 108.0
172.090485 664.0
172.125732 60.0
172.149231 36.0
172.253708 68.0
172.305954 156.0
172.677124 224.0
173.059799 344.0
173.093216 272.0
173.774704 32.0
173.806183 212.0
173.92691 132.0
173.98204 88.0
174.06781 992.0
174.106689 856.0
174.213135 36.0
174.352386 72.0
174.657364 124.0
174.881012 92.0
175.07724 580.0
175.114761 216.0
175.671509 80.0
175.916916 48.0
176.043076 180.0
176.083054 356.0
177.091888 2520.0
177.18895 160.0
178.098648 1320.0
178.276825 36.0
178.388458 136.0
178.558624 172.0
179.072327 368.0
179.081345 340.0
179.104294 264.0
179.312073 60.0
179.698715 104.0
179.80011 196.0
180.093796 208.0
181.067337 432.0
181.100906 316.0
181.538986 160.0
181.919983 104.0
182.067856 412.0
182.087357 264.0
182.505661 216.0
182.664337 56.0
182.957657 180.0
183.082413 252.0
184.088837 192.0
184.125183 168.0
184.687347 112.0
185.063507 180.0
185.101852 172.0
185.898361 164.0
186.069366 132.0
186.10527 484.0
186.175262 168.0
186.430618 236.0
186.907364 200.0
187.028961 164.0
187.078964 356.0
187.112793 180.0
187.347549 48.0
188.084946 1540.0
188.116562 112.0
189.0914 1984.0
189.544205 60.0
189.725098 108.0
190.05722 200.0
190.098907 904.0
190.935989 180.0
191.071609 564.0
191.107254 656.0
191.175323 172.0
192.088715 144.0
192.263855 108.0
193.097778 404.0
193.161819 68.0
194.070175 140.0
194.564011 56.0
195.075958 536.0
195.111298 120.0
195.561935 32.0
195.776306 92.0
196.084778 232.0
196.540085 144.0
197.051025 184.0
197.095139 600.0
197.918076 68.0
198.068115 152.0
198.099701 464.0
199.073502 320.0
199.109375 372.0
200.08403 156.0
200.121201 148.0
200.59639 120.0
201.091995 928.0
201.121246 176.0
201.956451 52.0
202.063934 340.0
202.099976 476.0
203.067856 320.0
203.104599 784.0
203.23407 176.0
203.506546 40.0
204.086243 204.0
204.112915 108.0
204.162949 128.0
205.084869 276.0
205.121719 624.0
205.153793 32.0
205.322021 64.0
205.364807 56.0
206.058456 144.0
206.093338 272.0
206.125198 280.0
206.9823 200.0
207.065353 168.0
207.085403 152.0
207.575455 52.0
208.091171 324.0
208.442337 240.0
209.063461 140.0
209.093521 308.0
209.098557 268.0
210.107727 152.0
210.654999 108.0
211.070267 268.0
211.114624 164.0
211.314133 60.0
211.675934 52.0
212.082367 340.0
212.118179 556.0
213.05455 300.0
213.094193 688.0
213.132065 104.0
214.054138 136.0
214.100632 348.0
214.138779 180.0
214.998627 124.0
215.064621 176.0
215.104233 660.0
215.562225 52.0
215.725906 184.0
215.84285 184.0
216.081284 172.0
216.113922 680.0
216.882126 52.0
216.984726 68.0
217.049225 112.0
217.083923 484.0
217.126038 304.0
217.22226 56.0
217.365326 84.0
217.782898 32.0
218.09053 136.0
218.129211 144.0
218.488373 96.0
219.083099 120.0
219.103714 444.0
219.424911 164.0
219.477982 132.0
219.578232 104.0
220.08522 308.0
220.676727 136.0
221.097809 280.0
222.096924 436.0
222.160461 100.0
223.078064 152.0
223.108566 544.0
224.080963 344.0
224.116714 136.0
224.319366 80.0
225.041321 144.0
225.090759 792.0
225.133423 152.0
226.099609 568.0
226.130554 176.0
226.674469 112.0
226.899261 48.0
227.062561 140.0
227.105682 528.0
227.24115 52.0
227.370178 40.0
227.412201 84.0
227.481232 40.0
227.967789 200.0
228.082291 188.0
228.114761 640.0
229.079712 120.0
229.124023 532.0
229.934311 116.0
230.125046 176.0
231.105148 344.0
231.141708 820.0
232.103287 176.0
232.127548 176.0
232.37323 112.0
233.077637 160.0
233.104141 160.0
233.770935 88.0
234.066193 156.0
234.115509 164.0
234.248932 112.0
235.116318 148.0
236.077133 40.0
236.124924 192.0
237.0961 432.0
237.946213 60.0
238.044464 176.0
238.102295 332.0
238.858902 72.0
239.068573 160.0
239.111679 252.0
239.440613 92.0
240.041534 212.0
240.077133 180.0
240.112015 384.0
240.149475 112.0
241.09111 152.0
241.117218 616.0
242.091507 196.0
242.124374 148.0
242.38768 60.0
243.057449 84.0
243.10231 540.0
243.137177 476.0
243.541748 196.0
244.119492 160.0
244.160233 152.0
244.594543 76.0
245.101166 208.0
245.154312 332.0
245.315369 92.0
246.157761 152.0
246.288925 144.0
246.945297 128.0
247.13269 172.0
247.517975 120.0
248.094467 108.0
249.103577 112.0
250.133179 320.0
251.098618 280.0
251.482224 180.0
252.133743 220.0
253.091843 160.0
253.124023 256.0
253.395355 64.0
253.430206 56.0
254.094528 172.0
254.123566 192.0
254.810333 64.0
255.106461 132.0
255.131744 180.0
256.111145 156.0
256.148285 292.0
257.090179 132.0
257.119019 384.0
257.161469 128.0
258.05481 208.0
258.083588 140.0
258.125275 416.0
258.153931 224.0
259.125122 288.0
259.155823 204.0
259.178253 140.0
260.117432 208.0
260.95639 160.0
261.158966 196.0
263.108643 204.0
263.315155 44.0
264.080536 152.0
264.107025 156.0
265.087952 100.0
265.113892 180.0
266.035034 124.0
266.133301 220.0
266.798431 48.0
267.106079 300.0
267.14032 120.0
267.354645 116.0
267.839752 128.0
268.111786 176.0
268.121582 232.0
269.120422 204.0
270.113281 156.0
271.093323 304.0
271.128632 256.0
271.168488 160.0
272.025238 216.0
272.067902 144.0
272.099091 320.0
272.141174 156.0
272.379883 44.0
272.613129 68.0
273.139191 164.0
274.61496 68.0
276.134033 212.0
277.115234 204.0
277.259674 132.0
278.129883 232.0
278.513763 100.0
279.109039 168.0
279.135651 160.0
280.103729 136.0
281.120605 156.0
281.153137 320.0
282.069092 100.0
282.166046 160.0
283.096222 228.0
284.095032 92.0
284.140839 164.0
284.14978 240.0
285.097351 184.0
285.112244 96.0
285.119507 148.0
285.156067 124.0
286.119781 148.0
286.279724 100.0
287.132324 344.0
288.283508 124.0
289.125671 140.0
291.132568 144.0
293.146332 176.0
293.647949 128.0
294.127472 160.0
295.124176 148.0
296.128754 216.0
298.125427 120.0
299.124512 156.0
299.15036 180.0
299.174469 136.0
300.063293 184.0
300.135345 196.0
300.187408 152.0
300.477142 68.0
301.150269 180.0
302.599182 56.0
303.126434 228.0
304.120972 96.0
306.126953 68.0
309.167511 116.0
310.153259 312.0
311.144409 172.0
312.148773 140.0
313.138153 132.0
315.09314 296.0
317.077423 168.0
318.155701 180.0
324.653137 96.0
327.163055 388.0
328.159729 120.0
328.371765 36.0
332.64856 100.0
339.210083 84.0
339.687653 72.0
342.076172 104.0
352.62146 64.0
353.582642 124.0
357.237183 40.0
357.282318 68.0
359.165802 52.0
359.19397 160.0
369.919556 100.0
392.166962 88.0
414.0914 48.0
422.922516 132.0
425.484497 84.0
444.788635 108.0
444.893585 64.0
462.88382 152.0
481.082184 96.0
484.655304 68.0
490.425354 64.0
517.476074 100.0
528.348755 120.0
548.734741 52.0
550.195007 80.0
583.666748 84.0
611.888062 88.0
641.319824 72.0
664.298645 140.0
669.252869 132.0
695.459473 152.0
697.755005 184.0
716.585754 188.0
754.747803 168.0
800.299927 180.0
803.642212 44.0
804.155762 44.0
824.573486 188.0
828.407043 156.0
828.481506 44.0
872.62616 96.0
875.197327 156.0
880.894226 204.0
882.596313 228.0
884.974854 212.0
930.307312 176.0
936.004028 196.0
938.922913 188.0
948.019409 120.0
952.362976 100.0
954.64917 168.0
955.141174 196.0
959.550293 220.0
964.65564 52.0
988.375854 112.0
1000.438477 92.0
1012.878235 60.0
1022.968079 204.0
1033.882202 168.0
1044.474609 172.0
1046.212036 132.0
1046.411621 68.0
1048.260132 212.0
1053.356934 100.0
1053.421509 68.0
1062.782837 200.0
1072.876465 204.0
1078.418335 152.0
1083.299561 108.0
1087.771606 68.0
1087.83728 140.0
1090.458008 252.0
1102.941284 176.0
1105.150024 188.0
1106.050049 68.0
1107.380859 216.0
1111.497559 216.0
1117.271118 164.0
1126.223267 180.0
1128.568848 168.0
1136.015991 140.0
1144.28186 176.0
1144.881226 116.0
1168.640259 196.0
1169.109741 124.0
1183.327637 184.0
1185.094727 168.0
1186.431152 124.0
1197.273438 164.0
1197.397339 120.0
1203.375732 156.0
1207.680908 156.0
1220.774414 108.0
1227.612549 108.0
1228.986694 180.0
1234.658691 116.0
1236.925537 176.0
1237.506592 160.0
1244.419434 104.0
1245.416626 200.0
1250.675903 144.0
1254.197632 96.0
1260.231201 80.0
1260.69751 196.0
1261.333618 196.0
1262.988159 100.0
1263.929077 148.0
1267.901611 88.0
1268.603271 196.0
1274.202393 128.0
1287.900757 196.0
1289.08667 232.0
1297.697266 172.0
1304.705078 160.0
1306.876099 196.0
1307.581299 48.0
1310.360718 156.0
1313.669678 188.0
1315.011719 172.0
1318.030273 88.0
1318.731201 136.0
1318.919189 204.0
1319.041992 48.0
1320.234985 144.0
1321.565918 172.0
1322.180908 196.0
1324.106689 208.0
1327.403931 140.0
1327.708496 140.0
1333.123901 164.0
1335.028564 224.0
1336.08313 156.0
1342.106201 220.0
1343.462646 164.0
1344.360107 120.0
1346.776611 120.0
1350.094604 188.0
1350.986938 120.0
1352.669922 120.0
1354.339355 148.0
1361.636963 248.0
1368.497559 176.0
1373.154541 244.0
1379.423096 176.0
1380.221558 132.0
1381.005493 188.0
1384.691162 208.0
1384.994873 192.0
1385.157715 228.0
1385.209595 228.0
1386.046753 140.0
1386.098633 124.0
1400.711914 140.0
1400.845947 220.0
1401.106689 72.0
1402.239258 208.0
1405.915894 200.0
1406.856323 200.0
1407.677612 180.0
1408.872559 120.0
1410.307251 152.0
1414.278809 100.0
1414.667969 172.0
1416.7948 44.0
1418.593262 160.0
1419.530396 152.0
1421.473145 104.0
1423.004395 180.0
1423.484863 208.0
1426.024048 140.0
1428.008911 148.0
1435.117432 196.0
1440.143188 152.0
1441.147949 172.0
1443.906982 208.0
1444.201904 172.0
1451.214111 188.0
1454.195312 116.0
1455.97937 156.0
1456.442627 72.0
1460.197144 84.0
1461.718628 212.0
1468.231689 160.0
1468.414673 224.0
1469.803101 152.0
1471.382935 104.0
1473.185181 192.0
1473.460205 184.0
1475.859985 200.0
1479.953369 208.0
1483.454468 208.0
1487.842407 152.0
1493.559448 232.0
1494.390259 104.0
1494.713379 164.0
1494.875 148.0
1498.046997 144.0
1500.381958 204.0
1503.876221 116.0
