>compound MLS001140970-01!4-[[2-(4-ethyl-7-methyl-2-oxochromen-5-yl)oxypropanoylamino]methyl]cyclohexane-1-carboxylic acid
>formula C23H29NO6
>ionization [M+H]+
>parentmass 416.207
#inchi InChI=1S/C23H29NO6/c1-4-16-11-20(25)30-19-10-13(2)9-18(21(16)19)29-14(3)22(26)24-12-15-5-7-17(8-6-15)23(27)28/h9-11,14-15,17H,4-8,12H2,1-3H3,(H,24,26)(H,27,28)/t14?,15-,17-
#inchikey HOGNSHPIFOIKIO
#Ion_Source LC-ESI
#Instrument qTof
#Compound_Source NIH Natural Product Library
#PI Dorrestein
#Data_Collector VVP/LMS
#Scan -1
#Precursor_MZ 416.207
#ExactMass 415.199
#Charge 1
#CAS_Number N/A
#Pubmed_ID N/A
#Smiles CCc1cc(=O)oc2cc(C)cc(OC(C)C(=O)NC[C@H]3CC[C@@H](CC3)C(=O)O)c12
#INCHI_AUX N/A
#Library_Class 1
#SpectrumID CCMSLIB00000079422
#IonMode Positive
#UpdateWorkflowName UPDATE-SINGLE-ANNOTATED-GOLD
#LibraryQualityString Gold
#TaskID b1d8e8f6646f4e71acdff9ca3d919d08
##Scan# 2023
#SpectrumFile p1-B06_GB6_01_17890.mzXML
#LibraryName NIH_Natural_Products_Library.mgf
#MQScore -1
#Organism NIH_Natural_Products_Library
#TIC_Query 0
#RT_Query -1
#MZErrorPPM -1
#SharedPeaks 0
#MassDiff 0
#LibMZ -1
#SpecMZ 416.207
#SpecCharge 0
#internalFilename spec-00000.mgf

>collision 10
95.01683 164.0
95.047874 156.0
95.085297 1384.0
95.101135 216.0
96.045883 200.0
96.088928 196.0
96.131729 212.0
96.64563 212.0
96.77285 56.0
97.661812 156.0
99.704147 176.0
100.022377 120.0
100.353073 120.0
101.098129 52.0
101.184196 124.0
101.647194 44.0
101.996643 140.0
103.1092 124.0
103.3377 148.0
103.369064 20.0
104.522636 116.0
104.750656 68.0
104.771027 172.0
105.068192 668.0
105.184982 68.0
105.826904 180.0
106.05394 212.0
106.730476 188.0
106.797554 48.0
107.087761 164.0
107.260834 116.0
107.780907 180.0
108.024857 132.0
108.389191 168.0
109.023071 84.0
109.068726 176.0
109.099991 192.0
109.486053 176.0
109.583954 128.0
110.06076 208.0
110.098427 480.0
110.124237 36.0
110.214066 188.0
110.552818 48.0
110.635788 56.0
110.814552 184.0
110.879509 136.0
111.045135 160.0
111.074501 160.0
111.10376 340.0
111.372559 180.0
111.473396 164.0
112.079407 144.0
112.111984 504.0
112.132088 40.0
113.113228 152.0
113.239166 36.0
113.516785 68.0
113.754402 124.0
114.639175 152.0
114.728699 152.0
114.841713 116.0
115.05851 240.0
115.67289 132.0
115.90419 96.0
116.062805 200.0
116.989853 288.0
117.05983 184.0
118.684753 120.0
119.08622 356.0
119.170937 100.0
119.418556 216.0
119.83017 88.0
119.921692 52.0
120.578629 160.0
120.705421 196.0
120.838844 140.0
120.950447 192.0
121.050781 164.0
121.065948 1524.0
121.088387 108.0
121.103714 88.0
121.809998 168.0
122.084732 176.0
122.100121 160.0
122.328949 140.0
122.745346 68.0
123.044273 176.0
123.081856 168.0
123.719696 176.0
123.938011 188.0
124.07769 228.0
124.729004 132.0
125.002556 232.0
125.187317 148.0
125.867432 88.0
125.938896 124.0
126.471039 128.0
126.9729 156.0
127.195023 132.0
127.689323 60.0
128.061234 344.0
128.213882 168.0
129.070175 180.0
129.830276 172.0
129.998154 136.0
130.625214 224.0
131.050934 196.0
131.085083 496.0
131.545807 252.0
132.089661 128.0
132.772186 84.0
132.859344 160.0
133.064743 340.0
133.097443 496.0
133.130188 168.0
134.107956 124.0
135.043045 148.0
135.081955 188.0
135.962799 192.0
136.306488 208.0
136.348312 128.0
136.366913 80.0
136.611053 124.0
136.699463 184.0
137.037094 260.0
137.059616 348.0
137.347137 188.0
137.384842 120.0
138.019714 192.0
138.061813 128.0
138.092133 472.0
138.129089 2504.0
138.188126 36.0
138.267685 80.0
138.326187 92.0
138.349594 168.0
138.522888 124.0
138.804123 52.0
138.914352 80.0
139.059113 196.0
139.066467 136.0
139.074402 172.0
139.129807 356.0
139.26236 76.0
140.107697 2292.0
140.200455 128.0
140.348969 240.0
140.934326 188.0
140.960312 100.0
141.083542 172.0
141.123398 164.0
141.693787 120.0
142.02092 128.0
142.076935 320.0
142.118179 196.0
143.084412 292.0
143.5215 204.0
143.693558 200.0
143.826859 52.0
144.163605 204.0
145.066254 180.0
146.0746 512.0
146.462021 68.0
146.924835 152.0
147.052734 176.0
147.079086 208.0
147.118912 156.0
147.748642 100.0
148.051987 160.0
148.083603 264.0
148.114822 192.0
148.181992 172.0
148.480148 68.0
148.552917 76.0
149.09726 412.0
149.333633 188.0
149.381256 100.0
150.099716 296.0
150.964142 124.0
151.605515 76.0
151.735428 152.0
152.106888 292.0
152.132858 176.0
152.151382 44.0
152.508682 144.0
152.653732 236.0
152.774246 208.0
153.108994 168.0
153.126221 148.0
153.690735 72.0
153.875854 128.0
154.912048 92.0
155.053268 176.0
155.618835 120.0
155.862244 188.0
156.078491 148.0
156.103363 180.0
156.613541 124.0
156.645935 60.0
156.689529 20.0
157.099579 328.0
158.119171 180.0
158.594925 148.0
158.710236 36.0
159.081573 300.0
159.112473 224.0
159.267365 136.0
159.322632 172.0
159.466141 152.0
159.646866 140.0
159.833008 188.0
159.99408 168.0
160.089844 492.0
160.140137 168.0
160.339157 48.0
160.550934 48.0
160.939529 204.0
161.06131 396.0
161.095734 248.0
161.123901 344.0
161.318939 200.0
161.480316 132.0
161.596664 64.0
161.743439 148.0
161.834808 228.0
162.014404 164.0
162.065063 344.0
163.042007 364.0
163.07193 620.0
163.128433 36.0
163.152328 60.0
163.227585 188.0
163.677963 68.0
163.825684 100.0
164.080872 204.0
164.580597 112.0
164.986816 128.0
165.091644 176.0
165.147919 172.0
165.483139 48.0
166.122421 1540.0
166.200806 148.0
166.529388 32.0
166.861389 100.0
167.040894 80.0
167.129822 2968.0
167.293076 164.0
167.408936 76.0
167.48877 80.0
167.692322 44.0
168.131821 524.0
168.200439 48.0
168.538742 168.0
168.792053 160.0
169.07402 84.0
170.261368 216.0
170.487381 148.0
170.830582 60.0
171.460678 76.0
171.70575 156.0
172.457657 72.0
172.53833 140.0
172.986038 40.0
173.088135 172.0
174.098206 172.0
174.355164 236.0
174.84169 148.0
175.025955 192.0
175.077621 448.0
175.112167 736.0
175.35788 168.0
175.473862 88.0
175.53978 128.0
176.047958 276.0
176.08522 112.0
176.116425 192.0
176.342331 132.0
176.630524 132.0
177.056885 356.0
177.090668 596.0
177.159943 44.0
177.671585 164.0
178.056473 120.0
178.098969 156.0
178.16272 120.0
178.545471 212.0
178.614609 32.0
179.573471 156.0
179.826935 44.0
180.171402 160.0
180.826508 84.0
182.247757 48.0
182.53537 136.0
182.750549 100.0
182.788208 112.0
183.060089 32.0
184.0979 188.0
184.132538 1268.0
184.203629 164.0
184.314392 112.0
184.571182 88.0
185.09639 192.0
185.139069 152.0
186.237839 132.0
186.313889 68.0
186.490524 96.0
186.702576 60.0
186.922928 72.0
187.072586 920.0
187.118896 132.0
187.944733 80.0
188.07724 188.0
188.537277 136.0
189.054138 312.0
189.092422 188.0
189.366241 200.0
190.064102 268.0
190.190735 188.0
190.713379 64.0
191.062881 164.0
191.109375 180.0
191.695877 44.0
193.139771 152.0
193.220001 120.0
193.649048 164.0
193.892853 168.0
193.942734 152.0
194.117325 496.0
194.203369 32.0
194.411438 228.0
195.083588 84.0
195.116943 116.0
195.592636 64.0
195.740189 172.0
195.812592 48.0
197.073456 144.0
197.260696 240.0
197.414474 136.0
197.971344 152.0
198.215057 200.0
199.073425 48.0
199.123962 128.0
200.939575 84.0
201.931061 196.0
202.061172 188.0
202.516922 104.0
203.068756 920.0
203.104233 1268.0
204.079132 696.0
204.110001 308.0
204.140259 204.0
204.604034 160.0
204.641037 52.0
204.77565 132.0
204.877426 164.0
204.905518 264.0
205.038666 212.0
205.085434 19944.0
205.161209 160.0
205.197983 100.0
205.236526 56.0
205.345627 128.0
205.404785 68.0
205.470398 72.0
205.609024 144.0
205.6996 272.0
205.738663 52.0
206.029953 184.0
206.089676 3032.0
206.129944 36.0
206.204254 48.0
206.281418 136.0
206.493011 56.0
206.733322 72.0
206.773376 60.0
206.793411 76.0
206.864975 64.0
206.962311 184.0
206.98175 148.0
207.019577 36.0
207.051086 48.0
207.093887 292.0
207.125549 136.0
207.254471 72.0
207.288849 108.0
207.346161 52.0
207.495224 104.0
207.564026 72.0
207.584106 92.0
207.693085 152.0
207.72464 188.0
208.988693 160.0
209.06926 36.0
212.139542 160.0
213.09433 176.0
213.140808 84.0
217.087372 504.0
218.10318 244.0
220.212799 68.0
220.263016 112.0
222.733383 60.0
223.095901 112.0
223.134552 60.0
224.906998 148.0
225.88707 100.0
226.428818 100.0
227.037186 172.0
229.490875 68.0
229.617523 184.0
230.118439 148.0
230.976685 44.0
231.102234 5252.0
231.137024 44.0
231.171463 52.0
231.403381 60.0
231.454849 112.0
231.597183 116.0
232.1035 1388.0
232.239746 64.0
232.276138 156.0
232.822449 64.0
232.868011 76.0
232.971283 60.0
233.000992 156.0
233.105301 428.0
233.448471 76.0
233.554916 56.0
234.119446 188.0
234.684723 56.0
235.352921 56.0
235.380402 72.0
236.086288 148.0
243.986069 200.0
247.72464 128.0
248.091293 68.0
249.92543 136.0
250.640167 88.0
253.981766 136.0
258.115509 240.0
258.34259 36.0
259.053253 176.0
259.096558 2780.0
260.098541 284.0
260.133911 148.0
260.223785 56.0
261.084961 252.0
261.107452 164.0
261.30368 72.0
261.763947 108.0
269.075592 188.0
269.918549 140.0
275.545563 64.0
275.608337 124.0
276.077728 264.0
276.119995 1700.0
276.213348 28.0
277.122986 436.0
278.12854 176.0
279.018799 104.0
279.058685 48.0
279.670776 48.0
279.757324 136.0
282.199402 124.0
288.124176 152.0
289.128876 148.0
291.101837 84.0
292.223511 108.0
303.194885 124.0
305.069153 116.0
314.841461 76.0
316.436188 172.0
317.651703 124.0
327.038605 84.0
330.988007 116.0
338.324371 96.0
352.442017 116.0
356.000549 144.0
370.199249 1844.0
370.87326 148.0
371.1987 640.0
371.71698 56.0
372.202148 228.0
373.222687 140.0
373.522675 108.0
376.40155 40.0
389.644592 76.0
392.257599 88.0
392.726807 80.0
398.204529 48.0
407.375549 96.0
420.629486 44.0
421.066376 32.0
429.14209 52.0
482.017059 48.0
488.936981 88.0
513.122498 68.0
523.296997 116.0
546.886658 112.0
553.880432 68.0
620.465515 56.0
662.562134 56.0
676.342224 48.0
680.546509 52.0
735.647583 20.0
862.312683 204.0
868.489624 156.0
906.163879 212.0
911.780396 164.0
918.5177 84.0
921.536133 180.0
938.408936 212.0
967.270691 228.0
978.89917 176.0
1017.252502 68.0
1032.250244 128.0
1067.088623 128.0
1081.819458 64.0
1109.647339 132.0
1125.462402 72.0
1184.931519 208.0
1199.362549 188.0
1200.562134 168.0
1201.948608 232.0
1204.509888 168.0
1230.237915 84.0
1257.387939 132.0
1260.572876 228.0
1261.36438 152.0
1283.878418 168.0
1284.605957 148.0
1292.600586 196.0
1298.352905 124.0
1301.503052 216.0
1311.848633 164.0
1314.683228 156.0
1315.62146 200.0
1322.133789 88.0
1322.662231 96.0
1329.242676 232.0
1343.787964 180.0
1348.35144 180.0
1349.199341 224.0
1349.645264 132.0
1349.93042 112.0
1353.420776 328.0
1359.886475 204.0
1364.602417 192.0
1369.9375 136.0
1373.564697 48.0
1375.638184 92.0
1376.959839 216.0
1382.208496 136.0
1384.821777 152.0
1388.957642 192.0
1389.647461 136.0
1411.942261 152.0
1412.839844 236.0
1415.474365 136.0
1415.639038 168.0
1420.675781 180.0
1421.613647 32.0
1428.909546 132.0
1429.413574 248.0
1430.098389 96.0
1436.925659 208.0
1443.625366 172.0
1444.956543 156.0
1445.531616 204.0
1450.166382 192.0
1462.584717 152.0
1465.486206 240.0
1467.056152 176.0
1469.496582 156.0
1476.669434 216.0
1479.985107 140.0
1491.213501 252.0
1493.112427 128.0
1496.675293 116.0
1497.992188 160.0
1500.350342 172.0
1501.406616 232.0
1501.553223 220.0
