>compound MLS001158923-01!3-(7-hydroxy-4,8-dimethyl-2-oxochromen-3-yl)-N-[3-(2-oxopyrrolidin-1-yl)propyl]propanamide
>formula C21H26N2O5
>ionization [M+H]+
>parentmass 387.1914483840905
#inchi InChI=1S/C21H26N2O5/c1-13-15-6-8-17(24)14(2)20(15)28-21(27)16(13)7-9-18(25)22-10-4-12-23-11-3-5-19(23)26/h6,8,24H,3-5,7,9-12H2,1-2H3,(H,22,25)
#inchikey NLPKYNVMNXDITR
#Ion_Source LC-ESI
#Instrument qTof
#Compound_Source NIH Natural Product Library
#PI Dorrestein
#Data_Collector VVP/LMS
#Scan -1
#Precursor_MZ 387.192
#ExactMass 386.184
#Charge 1
#CAS_Number N/A
#Pubmed_ID N/A
#Smiles Cc1c(O)ccc2c(C)c(CCC(=O)NCCCN3CCCC3=O)c(=O)oc12
#INCHI_AUX N/A
#Library_Class 1
#SpectrumID CCMSLIB00000080416
#IonMode Positive
#UpdateWorkflowName UPDATE-SINGLE-ANNOTATED-GOLD
#LibraryQualityString Gold
#TaskID b1d8e8f6646f4e71acdff9ca3d919d08
##Scan# 1594
#SpectrumFile p2-F08_GF8_01_18044.mzXML
#LibraryName NIH_Natural_Products_Library.mgf
#MQScore -1
#Organism NIH_Natural_Products_Library
#TIC_Query 0
#RT_Query -1
#MZErrorPPM -1
#SharedPeaks 0
#MassDiff 0
#LibMZ -1
#SpecMZ 387.192
#SpecCharge 0
#internalFilename spec-00000.mgf

>collision 10
94.965134 120.0
95.363167 88.0
95.688026 96.0
95.70166 196.0
96.056358 140.0
96.110985 168.0
96.191002 40.0
96.343323 200.0
96.472305 164.0
96.624847 256.0
96.660065 48.0
96.681595 52.0
96.707039 156.0
96.726608 104.0
96.863686 84.0
96.965569 128.0
97.167549 116.0
97.289223 176.0
97.422768 112.0
97.69603 212.0
97.883011 156.0
97.902702 140.0
98.059021 1108.0
98.077148 452.0
98.375916 120.0
98.441071 152.0
98.688072 160.0
98.773109 284.0
99.06501 196.0
99.14138 176.0
99.224632 160.0
99.573875 132.0
99.601685 140.0
99.736801 248.0
100.102882 156.0
100.118813 84.0
100.25428 84.0
100.551437 208.0
100.627289 120.0
100.751114 192.0
100.787079 40.0
101.229156 128.0
101.255188 128.0
101.29525 160.0
101.533768 188.0
101.547813 28.0
101.614006 160.0
101.895088 140.0
102.047836 176.0
102.230888 176.0
102.251015 236.0
102.62973 160.0
102.718468 52.0
102.84156 116.0
103.561371 60.0
103.877586 192.0
103.970917 176.0
104.064293 232.0
104.2146 236.0
104.228821 204.0
104.476868 112.0
104.696701 44.0
104.76799 104.0
105.068451 320.0
105.173798 204.0
105.204414 152.0
105.226868 156.0
105.842316 176.0
106.071777 176.0
106.190704 100.0
106.225578 148.0
106.3097 156.0
106.490364 136.0
106.591026 188.0
106.880966 216.0
106.950935 64.0
107.043373 156.0
107.054337 180.0
107.352692 196.0
107.408379 180.0
107.569336 204.0
107.583786 172.0
107.751068 136.0
107.792389 196.0
107.84819 36.0
107.965034 148.0
108.023956 188.0
108.2537 160.0
108.326187 72.0
108.44223 64.0
108.504417 164.0
108.693161 160.0
108.722214 104.0
108.796944 184.0
108.929848 112.0
109.195908 124.0
109.264549 180.0
109.578926 56.0
109.63311 172.0
109.824921 232.0
109.887505 252.0
109.996025 180.0
110.060745 196.0
110.236206 152.0
110.595932 148.0
110.660835 92.0
110.899651 128.0
111.218468 132.0
111.432671 184.0
111.62748 200.0
111.703865 120.0
111.841858 180.0
111.870117 160.0
112.22406 240.0
112.386467 120.0
112.741234 132.0
113.191818 48.0
113.272301 156.0
113.528763 164.0
113.970299 148.0
114.014923 264.0
114.082939 164.0
114.159485 132.0
114.270088 208.0
114.308395 132.0
114.365852 172.0
114.382881 156.0
114.404167 180.0
114.487213 152.0
114.525551 144.0
114.68322 176.0
114.823944 180.0
114.922066 172.0
114.937004 96.0
115.052689 716.0
115.38768 84.0
115.560921 52.0
115.611931 124.0
115.695755 196.0
115.772842 188.0
115.821938 156.0
115.860664 84.0
115.957085 128.0
116.061462 472.0
116.330315 44.0
116.525749 128.0
116.562271 208.0
116.592361 236.0
116.852547 144.0
116.946739 156.0
117.024734 56.0
117.071167 340.0
117.242302 152.0
117.347923 148.0
117.405197 200.0
117.475166 184.0
117.503212 140.0
117.561714 176.0
117.602478 112.0
117.667236 76.0
117.779533 152.0
117.814095 212.0
118.072166 204.0
118.099434 152.0
118.272537 80.0
118.341812 44.0
118.452263 92.0
118.471764 204.0
118.510757 148.0
118.879387 240.0
119.046547 156.0
119.083221 1028.0
119.1595 128.0
119.300758 192.0
119.409485 184.0
119.466042 252.0
119.485619 160.0
119.56395 124.0
119.683685 212.0
119.829613 120.0
119.844864 96.0
119.997437 176.0
120.089127 168.0
120.276672 188.0
120.302872 120.0
120.377106 128.0
120.422966 188.0
120.495056 160.0
120.560608 164.0
120.617432 236.0
120.860191 180.0
120.976189 160.0
121.050514 148.0
121.08567 156.0
121.114143 140.0
121.18644 140.0
121.309174 160.0
121.412224 80.0
121.445122 108.0
121.557014 136.0
121.605293 44.0
122.159767 224.0
122.233826 128.0
122.328468 176.0
122.351128 164.0
122.393379 116.0
122.619217 144.0
122.716209 168.0
122.771339 152.0
122.888252 156.0
123.000801 136.0
123.15316 140.0
123.234894 100.0
123.599731 216.0
123.672768 64.0
123.701538 28.0
123.814461 184.0
124.140236 152.0
124.373192 196.0
124.428688 216.0
124.746376 80.0
125.104607 132.0
125.157974 200.0
125.202507 124.0
125.239342 88.0
125.371826 148.0
125.764359 164.0
125.844727 204.0
125.96756 164.0
126.004074 244.0
126.050224 80.0
126.091148 3764.0
126.154297 192.0
126.171761 160.0
126.213402 144.0
126.347603 92.0
126.405777 92.0
126.489494 204.0
126.517685 236.0
126.546791 68.0
126.635315 136.0
126.703568 196.0
126.8582 136.0
126.880623 32.0
126.941162 148.0
126.997231 64.0
127.053307 128.0
127.093819 588.0
127.171051 128.0
127.18795 112.0
127.317085 156.0
127.381065 132.0
127.785728 132.0
127.963402 200.0
128.0672 196.0
128.202301 140.0
128.278946 60.0
128.294724 156.0
128.317261 132.0
128.556366 148.0
128.637619 136.0
128.813751 28.0
128.910904 224.0
128.953842 104.0
129.066956 236.0
129.428925 200.0
129.591721 136.0
129.836823 116.0
129.898071 204.0
130.031937 148.0
130.075058 208.0
130.093231 84.0
130.336243 152.0
130.397598 140.0
130.443069 128.0
131.04895 292.0
131.084045 264.0
131.335678 128.0
131.694031 156.0
131.767136 168.0
131.794556 196.0
131.895111 108.0
132.057388 436.0
132.352249 132.0
132.425949 144.0
132.448853 192.0
132.765152 160.0
132.86377 188.0
133.065796 180.0
133.101151 168.0
133.150711 176.0
133.421844 144.0
133.470139 44.0
133.488525 52.0
133.521133 204.0
133.546021 72.0
133.624237 216.0
133.780731 180.0
133.886658 120.0
134.031784 180.0
134.107834 60.0
134.269226 236.0
134.527649 124.0
134.691605 184.0
134.918076 72.0
135.049881 112.0
135.436432 184.0
135.512878 164.0
135.600937 112.0
135.746994 164.0
135.883835 60.0
136.016113 124.0
136.037018 132.0
136.592392 96.0
136.643585 168.0
136.780884 120.0
136.899628 52.0
137.055695 72.0
137.141922 184.0
137.30513 152.0
137.326126 212.0
137.363434 112.0
137.46376 208.0
137.531448 180.0
137.587479 156.0
137.898148 120.0
137.935547 204.0
138.01738 144.0
138.188126 64.0
138.252014 236.0
138.42453 80.0
138.813858 204.0
138.88858 148.0
139.024658 76.0
139.376907 156.0
139.393356 60.0
139.574356 152.0
139.651962 92.0
139.802536 172.0
139.97908 172.0
140.28302 204.0
140.445724 36.0
140.674622 152.0
140.964783 136.0
141.00531 156.0
141.069153 232.0
141.225189 148.0
141.478394 184.0
141.710495 152.0
142.070862 148.0
142.220352 36.0
142.274948 132.0
142.381805 52.0
142.483948 116.0
142.633667 196.0
143.052322 120.0
143.090775 176.0
143.126129 144.0
143.207108 76.0
143.490677 184.0
143.576523 68.0
143.814804 160.0
143.939255 108.0
144.055832 1308.0
144.089905 212.0
144.125565 240.0
144.178146 220.0
144.481812 68.0
144.532059 116.0
144.682846 88.0
144.745102 76.0
145.069138 308.0
145.106903 184.0
145.2388 112.0
145.272385 128.0
145.308365 160.0
145.353958 180.0
145.485962 36.0
145.536392 196.0
145.582016 172.0
145.747757 180.0
146.074509 336.0
146.139694 172.0
146.40448 144.0
146.56105 216.0
146.715302 192.0
146.855164 136.0
146.992676 204.0
147.028885 116.0
147.08107 1476.0
147.313278 204.0
147.487778 168.0
147.519211 132.0
147.572388 100.0
147.64978 80.0
147.722336 220.0
148.000656 204.0
148.04425 140.0
148.08345 180.0
148.36409 168.0
148.436829 100.0
148.55809 80.0
148.696411 180.0
149.061172 196.0
149.080124 116.0
149.234802 212.0
149.486237 48.0
149.831985 164.0
149.927017 204.0
149.944077 104.0
150.33429 180.0
150.40506 224.0
150.539352 60.0
150.710342 136.0
150.744553 172.0
150.84964 232.0
151.099091 84.0
151.172501 212.0
151.255707 124.0
151.368332 176.0
151.424652 140.0
151.510391 140.0
151.583893 180.0
151.610855 80.0
151.662323 164.0
151.89772 96.0
151.995865 140.0
152.167679 188.0
152.221695 164.0
152.290466 76.0
152.45015 172.0
152.607468 124.0
152.841141 172.0
152.996201 188.0
153.058792 160.0
153.114395 200.0
153.21785 120.0
153.289307 148.0
153.318878 132.0
153.39035 152.0
153.412537 124.0
153.661636 192.0
154.014648 180.0
154.098633 120.0
154.617935 176.0
154.853134 168.0
155.055771 344.0
155.085556 156.0
155.103394 208.0
155.348877 220.0
156.081558 368.0
156.31041 156.0
156.400009 120.0
156.422409 152.0
156.686386 208.0
156.973022 120.0
157.063141 180.0
157.422211 160.0
157.959564 132.0
157.992096 192.0
158.07045 172.0
158.102188 172.0
158.267395 132.0
158.345032 68.0
158.881454 152.0
158.951706 188.0
159.037033 144.0
159.077576 800.0
159.222839 172.0
159.247955 48.0
159.278091 40.0
159.391144 28.0
159.416275 132.0
159.521835 84.0
159.564575 116.0
159.582184 184.0
159.675217 148.0
159.982208 88.0
160.051971 896.0
160.095505 324.0
160.208847 80.0
160.279404 68.0
160.297043 44.0
160.6147 140.0
160.888687 244.0
161.054596 160.0
161.100143 304.0
161.410248 112.0
161.448181 64.0
161.465897 184.0
161.62233 128.0
161.908783 180.0
162.045578 200.0
162.098785 144.0
162.141861 164.0
162.255936 212.0
162.514633 224.0
162.590759 148.0
162.654221 180.0
162.686462 188.0
162.78624 160.0
162.893051 140.0
163.045364 164.0
163.07486 192.0
163.101273 128.0
163.162292 188.0
163.378464 112.0
163.498047 80.0
163.518036 192.0
163.537277 280.0
163.750107 96.0
163.969208 228.0
164.206314 92.0
164.402756 180.0
164.548889 164.0
164.675934 72.0
164.770462 152.0
165.025101 152.0
165.074631 144.0
165.292053 192.0
165.358597 144.0
165.532684 152.0
165.909332 216.0
166.058044 56.0
166.229935 156.0
166.383942 168.0
166.504623 180.0
166.653625 88.0
167.312042 200.0
167.484573 96.0
167.553925 156.0
167.773193 224.0
167.804123 84.0
169.082794 192.0
169.199402 168.0
169.308029 236.0
169.595612 160.0
170.109222 272.0
170.862869 112.0
170.990372 152.0
171.084274 140.0
171.706833 152.0
171.786957 156.0
171.915543 128.0
172.044403 208.0
172.08522 76.0
172.207947 256.0
172.482315 136.0
172.523178 176.0
172.605194 116.0
172.644409 164.0
172.895554 196.0
173.063904 308.0
173.159988 136.0
173.421997 188.0
173.534714 196.0
173.574051 168.0
173.657974 224.0
174.071777 336.0
174.164551 76.0
174.353714 188.0
174.448349 172.0
174.646774 176.0
174.760941 172.0
174.792892 84.0
174.827103 64.0
175.011368 168.0
175.076065 5708.0
175.116699 32.0
175.149109 172.0
175.172012 44.0
175.443451 72.0
175.562103 60.0
175.630676 44.0
175.828552 132.0
176.081802 556.0
176.266937 60.0
176.30658 156.0
176.333008 200.0
176.417587 44.0
176.472137 132.0
176.655594 156.0
176.694626 164.0
177.018204 148.0
177.076462 120.0
177.177124 72.0
177.230103 108.0
177.365265 68.0
177.455399 100.0
177.497833 96.0
177.731247 116.0
178.002014 144.0
178.120453 308.0
178.350037 124.0
178.602646 112.0
178.868729 192.0
179.076431 124.0
179.108109 188.0
179.117706 168.0
179.398849 100.0
179.569504 208.0
179.753586 32.0
179.860336 168.0
179.924408 116.0
180.138046 184.0
180.365189 264.0
180.437363 100.0
180.469437 140.0
180.611176 128.0
180.766357 140.0
180.841293 216.0
181.186737 76.0
181.210846 128.0
181.779297 64.0
182.029007 172.0
182.090714 124.0
182.211594 240.0
182.386261 176.0
182.464218 172.0
182.60675 164.0
182.66861 164.0
182.708969 196.0
182.752014 160.0
182.900726 216.0
183.010406 112.0
183.064255 208.0
183.314789 132.0
183.603241 184.0
183.759705 152.0
183.866074 200.0
183.962112 116.0
184.018799 96.0
184.05661 176.0
184.291595 140.0
184.432129 40.0
184.559189 144.0
184.76474 204.0
184.908157 92.0
184.937927 196.0
184.973114 108.0
185.420029 220.0
185.516724 220.0
185.677597 100.0
186.228561 192.0
186.356232 140.0
186.386124 144.0
186.614441 148.0
186.766739 136.0
186.791214 48.0
186.812988 284.0
186.94902 80.0
187.055176 156.0
187.237595 112.0
187.281174 156.0
187.668152 172.0
187.760864 116.0
187.984573 172.0
188.011871 132.0
188.134689 152.0
188.194763 160.0
188.284866 104.0
188.306717 88.0
188.344955 116.0
188.541687 172.0
188.560806 192.0
188.620941 224.0
188.648285 168.0
189.091782 1284.0
189.531677 244.0
189.765274 240.0
189.809158 108.0
189.94902 180.0
189.979202 44.0
190.009384 256.0
190.061508 80.0
190.088013 152.0
190.190491 144.0
190.231674 152.0
190.256378 120.0
190.401901 140.0
190.605194 184.0
190.632675 148.0
191.050598 92.0
191.07811 156.0
191.116638 144.0
191.683868 164.0
191.725204 60.0
191.959534 172.0
192.089157 160.0
192.125031 136.0
192.644028 112.0
192.867859 136.0
192.92215 180.0
193.56781 48.0
193.728455 168.0
193.756149 200.0
193.866989 292.0
193.983398 172.0
194.466034 132.0
194.707581 156.0
195.733749 160.0
195.800583 80.0
196.017868 172.0
196.070816 136.0
196.229706 128.0
196.380295 152.0
196.757019 28.0
196.784927 92.0
196.946899 196.0
197.072617 220.0
197.092178 68.0
197.120117 140.0
197.56189 128.0
197.760559 52.0
198.583496 248.0
198.704926 192.0
198.89296 152.0
198.923828 164.0
198.982788 164.0
199.089493 108.0
199.232742 136.0
199.435059 188.0
199.601395 192.0
199.733109 176.0
199.808624 128.0
199.893478 152.0
200.055038 232.0
200.149643 80.0
200.186249 156.0
200.3806 188.0
200.52713 140.0
200.590332 232.0
200.68782 156.0
201.057358 104.0
201.091217 212.0
201.134964 120.0
201.175903 112.0
201.223892 48.0
201.509155 96.0
201.633484 232.0
201.763519 104.0
201.791794 176.0
201.890762 108.0
201.95015 184.0
202.346329 96.0
202.393402 208.0
202.421082 180.0
202.460007 216.0
202.490753 228.0
202.516235 552.0
202.538895 376.0
202.561554 96.0
202.601212 136.0
202.642471 252.0
202.66803 144.0
202.693893 192.0
202.751389 168.0
202.779739 164.0
202.824539 116.0
202.873001 304.0
202.927979 108.0
202.961884 212.0
203.006546 168.0
203.071136 99504.0
203.146088 132.0
203.179245 260.0
203.231522 128.0
203.243683 96.0
203.251221 120.0
203.27562 140.0
203.325821 44.0
203.351166 144.0
203.377899 76.0
203.404617 48.0
203.439346 52.0
203.444199 76.0
203.488586 72.0
203.538132 676.0
203.572937 216.0
203.599289 188.0
203.644318 72.0
203.682495 152.0
203.729034 80.0
203.820175 144.0
203.853119 284.0
203.866425 200.0
203.874756 264.0
203.917862 184.0
203.971863 52.0
203.996262 96.0
204.038757 100.0
204.074326 16624.0
204.124466 252.0
204.160095 124.0
204.173294 52.0
204.182266 168.0
204.203156 104.0
204.22493 40.0
204.259064 84.0
204.321838 116.0
204.369415 132.0
204.41745 64.0
204.473679 76.0
204.495239 272.0
204.521423 84.0
204.54686 88.0
204.572083 100.0
204.600555 36.0
204.646103 60.0
204.677429 76.0
204.708755 40.0
204.737228 52.0
204.854019 36.0
204.957504 160.0
204.998337 128.0
205.029602 64.0
205.07634 1924.0
205.129456 396.0
205.206924 52.0
205.257507 136.0
205.286911 68.0
205.306488 160.0
205.33287 60.0
205.375839 144.0
205.421616 72.0
205.444244 92.0
205.482315 92.0
205.518707 84.0
205.557434 196.0
205.592667 124.0
205.670731 68.0
205.697342 136.0
205.749298 60.0
205.766068 84.0
205.777176 40.0
205.802872 100.0
205.843704 72.0
205.883682 152.0
205.972229 56.0
206.003647 72.0
206.034424 184.0
206.077484 152.0
206.135071 128.0
206.169373 52.0
206.269791 60.0
206.37941 160.0
206.449539 88.0
206.469543 64.0
206.521027 160.0
206.552597 108.0
206.573471 84.0
206.603989 144.0
206.728928 48.0
206.821472 48.0
206.841507 48.0
206.866425 68.0
207.036209 84.0
207.127853 52.0
207.291168 76.0
207.698273 104.0
207.801559 136.0
207.919205 60.0
208.628677 88.0
208.798325 124.0
208.965179 112.0
209.109055 172.0
209.500671 104.0
210.215714 28.0
210.2388 56.0
210.885742 156.0
211.386063 76.0
211.475784 96.0
211.64949 120.0
211.959427 92.0
212.260895 120.0
212.284088 120.0
212.417511 40.0
212.469727 172.0
212.611908 88.0
213.467346 60.0
213.710327 220.0
213.855835 64.0
214.365494 164.0
214.420868 184.0
214.607437 148.0
215.129669 216.0
215.27858 112.0
215.386642 124.0
215.474274 180.0
215.772385 60.0
215.915665 76.0
216.020966 72.0
216.129211 208.0
216.211151 112.0
216.371506 184.0
216.530273 60.0
216.568344 176.0
216.600571 76.0
216.65036 116.0
216.852554 168.0
216.925842 72.0
216.961014 44.0
217.029678 372.0
217.086594 13388.0
217.165024 216.0
217.227875 112.0
217.302032 72.0
217.324692 52.0
217.34523 56.0
217.547745 60.0
217.585907 56.0
217.606461 76.0
217.659317 80.0
217.835526 60.0
217.914856 124.0
218.090958 2216.0
218.141144 84.0
218.267563 36.0
218.382263 196.0
218.438156 168.0
218.568451 88.0
218.688263 76.0
218.717697 28.0
218.767746 68.0
218.806015 60.0
218.835449 76.0
218.861954 64.0
218.897293 48.0
219.088379 196.0
219.259644 100.0
219.303848 160.0
219.342163 36.0
219.362808 160.0
219.589844 92.0
219.634094 60.0
219.657684 160.0
219.799301 92.0
219.836304 96.0
220.564224 52.0
220.851044 120.0
220.877655 48.0
221.025589 60.0
221.454849 156.0
221.594086 108.0
221.884521 76.0
222.486786 56.0
223.693741 152.0
223.902161 156.0
225.044266 160.0
225.095032 100.0
227.322189 108.0
228.466949 188.0
229.08107 164.0
230.619232 188.0
230.689529 192.0
231.209778 52.0
231.376251 164.0
232.400681 92.0
233.199356 88.0
237.658005 116.0
238.333511 96.0
238.616272 68.0
239.12999 100.0
239.995636 32.0
240.58493 196.0
241.805893 208.0
242.059753 200.0
242.341629 92.0
244.08606 164.0
244.205444 124.0
244.372223 76.0
244.411423 232.0
244.702133 64.0
244.778641 84.0
244.839142 104.0
244.901443 148.0
244.929474 144.0
244.965271 132.0
245.001114 192.0
245.035446 148.0
245.081955 20392.0
245.174133 160.0
245.20787 68.0
245.239853 144.0
245.329956 132.0
245.38446 48.0
245.429001 56.0
245.52478 64.0
245.580917 60.0
245.621475 36.0
245.818497 80.0
245.852356 140.0
245.930374 84.0
246.020905 28.0
246.082718 2396.0
246.341324 68.0
246.373795 52.0
246.39566 76.0
246.480026 88.0
246.537003 52.0
246.726944 80.0
246.786346 80.0
246.848892 40.0
247.027161 108.0
247.086716 460.0
247.152313 76.0
247.333817 100.0
247.427734 108.0
247.556107 68.0
247.618118 100.0
247.668869 44.0
247.787903 128.0
247.859009 144.0
247.89444 56.0
247.972794 120.0
248.044876 172.0
248.34903 56.0
248.380402 88.0
248.521576 120.0
249.030136 136.0
249.099243 64.0
251.729141 132.0
254.106262 52.0
258.103638 104.0
258.253937 88.0
258.985321 20.0
260.061035 172.0
261.536377 60.0
262.973938 80.0
263.051392 164.0
266.481049 124.0
268.059174 64.0
273.127289 60.0
276.003113 156.0
277.768341 32.0
278.81424 64.0
282.562256 260.0
283.808197 44.0
287.444397 184.0
291.796875 40.0
294.369446 128.0
298.484955 68.0
301.601562 132.0
302.130646 112.0
302.161774 152.0
302.372864 108.0
304.140533 164.0
306.453156 40.0
306.690125 36.0
310.248688 88.0
321.279419 80.0
322.414886 84.0
327.02359 64.0
327.779846 52.0
335.223053 80.0
338.313049 76.0
343.959503 112.0
346.1297 84.0
347.630981 80.0
352.81955 104.0
356.312439 100.0
358.151978 136.0
366.17038 92.0
368.631042 56.0
371.606232 96.0
372.639038 72.0
373.084839 132.0
374.000366 104.0
374.959412 76.0
375.564728 44.0
379.048065 108.0
385.597717 60.0
386.086395 92.0
387.19397 288.0
387.742432 48.0
391.699097 88.0
399.851715 64.0
410.843109 96.0
412.822266 196.0
421.280579 72.0
442.929382 64.0
469.759308 140.0
470.121765 116.0
476.413025 60.0
476.734558 64.0
487.357483 52.0
501.782257 88.0
515.5448 128.0
524.631775 120.0
526.324463 164.0
534.589417 56.0
534.929993 80.0
541.616333 56.0
545.072693 124.0
576.8703 60.0
612.747803 52.0
628.994141 124.0
629.9729 128.0
634.161133 56.0
643.785522 72.0
644.007751 44.0
647.857178 124.0
658.350342 196.0
678.67157 56.0
685.335022 140.0
685.684204 88.0
706.58905 76.0
715.872559 92.0
720.459595 80.0
726.664551 44.0
742.621521 40.0
762.193115 88.0
804.497437 56.0
845.158752 200.0
892.634583 32.0
902.401367 60.0
903.053162 152.0
950.32605 144.0
958.158875 236.0
958.818176 72.0
978.591125 80.0
981.937439 132.0
989.078979 60.0
1011.519653 52.0
1012.393372 148.0
1023.346863 20.0
1031.74292 72.0
1068.296509 84.0
1085.322998 76.0
1096.966309 64.0
1103.978027 68.0
1110.38208 112.0
1113.056519 164.0
1117.616455 124.0
1125.12085 92.0
1127.365112 148.0
1140.084473 212.0
1164.290283 208.0
1170.038208 196.0
1173.394653 160.0
1175.256714 172.0
1229.470337 180.0
1235.087646 160.0
1240.451416 156.0
1249.426025 152.0
1250.031128 80.0
1251.60791 248.0
1275.172241 80.0
1276.722168 156.0
1280.814575 120.0
1284.799316 176.0
1301.367676 48.0
1305.146973 196.0
1307.925903 156.0
1309.601562 168.0
1309.666382 48.0
1310.314697 176.0
1310.725464 128.0
1312.54187 168.0
1313.436157 148.0
1318.316772 80.0
1318.88916 220.0
1319.451538 144.0
1323.771118 96.0
1324.734375 152.0
1327.191284 100.0
1329.773804 104.0
1333.20166 144.0
1338.198853 184.0
1342.986572 152.0
1344.905518 204.0
1345.102661 180.0
1351.570435 120.0
1356.250122 200.0
1361.965942 136.0
1368.245972 36.0
1371.590332 88.0
1382.128906 132.0
1382.957764 200.0
1385.401367 40.0
1386.453491 208.0
1399.177368 168.0
1402.186646 112.0
1409.328125 128.0
1415.004883 64.0
1422.246338 216.0
1422.996948 152.0
1424.867065 40.0
1428.144531 124.0
1430.725586 180.0
1432.510376 240.0
1433.105469 108.0
1433.5802 56.0
1435.102783 204.0
1436.3396 216.0
1438.573242 64.0
1444.1875 128.0
1445.511353 56.0
1446.313599 144.0
1449.244385 172.0
1450.214355 228.0
1455.980347 240.0
1458.259644 176.0
1464.155762 184.0
1468.469482 152.0
1468.782227 168.0
1471.697388 140.0
1472.361816 200.0
1472.62146 52.0
1472.823364 160.0
1477.238159 168.0
1478.615479 136.0
1479.005737 180.0
1479.327271 140.0
1481.279907 196.0
1482.15332 152.0
1487.951782 168.0
1491.101074 160.0
1491.762085 76.0
1492.02356 156.0
1493.376831 148.0
1499.212524 148.0
1500.546021 212.0
1500.74646 152.0
1501.024048 164.0
1502.55127 180.0
