>compound MLS001049136-01!(E)-1-(2,4-dimethoxyphenyl)-3-phenylprop-2-en-1-one
>formula C17H16O3
>ionization [M+H]+
>parentmass 269.118
#inchi InChI=1S/C17H16O3/c1-19-14-9-10-15(17(12-14)20-2)16(18)11-8-13-6-4-3-5-7-13/h3-12H,1-2H3/b11-8+
#inchikey ZRDCNUALRUCCPA
#Ion_Source LC-ESI
#Instrument qTof
#Compound_Source NIH Natural Product Library
#PI Dorrestein
#Data_Collector VVP/LMS
#Scan -1
#Precursor_MZ 269.118
#ExactMass 268.11
#Charge 1
#CAS_Number N/A
#Pubmed_ID N/A
#Smiles COc1ccc(C(=O)/C=C/c2ccccc2)c(OC)c1
#INCHI_AUX N/A
#Library_Class 1
#SpectrumID CCMSLIB00000079947
#IonMode Positive
#UpdateWorkflowName UPDATE-SINGLE-ANNOTATED-GOLD
#LibraryQualityString Gold
#TaskID b1d8e8f6646f4e71acdff9ca3d919d08
##Scan# 2345
#SpectrumFile p2-B02_GB2_01_17990.mzXML
#LibraryName NIH_Natural_Products_Library.mgf
#MQScore -1
#Organism NIH_Natural_Products_Library
#TIC_Query 0
#RT_Query -1
#MZErrorPPM -1
#SharedPeaks 0
#MassDiff 0
#LibMZ -1
#SpecMZ 269.118
#SpecCharge 0
#internalFilename spec-00000.mgf

>collision 10
95.009995 132.0
95.079849 156.0
95.709686 180.0
95.853828 228.0
95.949333 168.0
96.003929 136.0
96.480354 120.0
96.687698 52.0
96.707268 124.0
96.893303 260.0
97.087357 172.0
97.881264 140.0
97.934433 172.0
97.96595 168.0
98.753548 164.0
98.975197 184.0
98.989059 80.0
99.419235 148.0
99.538345 132.0
100.073219 148.0
100.109062 252.0
100.277374 132.0
100.491776 112.0
100.515717 204.0
100.535675 148.0
101.059212 76.0
101.431709 220.0
101.835014 144.0
101.901306 244.0
102.043221 184.0
102.400185 140.0
102.432411 112.0
102.470688 160.0
102.539207 164.0
102.825592 140.0
102.87606 116.0
102.892204 176.0
102.968941 100.0
103.015396 216.0
103.054794 2892.0
103.116425 28.0
103.146744 64.0
103.484596 160.0
103.529144 100.0
104.05777 272.0
104.094925 124.0
104.639702 52.0
104.700531 216.0
104.872086 112.0
105.030853 336.0
105.069481 160.0
105.3414 120.0
105.60099 96.0
106.035042 136.0
106.357056 140.0
106.827621 212.0
106.973732 92.0
107.013916 2332.0
107.049706 484.0
107.200294 88.0
107.371399 224.0
108.015114 392.0
108.125488 184.0
108.217896 200.0
108.247627 136.0
108.50248 236.0
108.672546 192.0
109.065285 1080.0
109.102463 152.0
109.13781 132.0
109.200195 64.0
109.679085 252.0
109.820877 104.0
109.94397 140.0
110.008675 212.0
110.171562 176.0
110.443314 80.0
110.480965 112.0
110.512344 160.0
111.042953 188.0
111.870224 108.0
112.112442 168.0
112.523529 176.0
112.910461 136.0
113.198273 144.0
113.234276 108.0
113.48645 148.0
113.675232 108.0
113.993759 148.0
114.231888 156.0
114.981903 104.0
115.920731 136.0
116.291862 152.0
116.613922 192.0
117.352295 100.0
117.376015 180.0
117.624123 36.0
117.855209 192.0
118.393837 168.0
118.612671 196.0
119.007507 200.0
119.352989 168.0
119.879768 180.0
120.020996 200.0
120.551903 208.0
120.672119 184.0
121.026573 128.0
121.063805 164.0
121.267548 172.0
121.456116 200.0
121.532898 152.0
121.952347 168.0
122.036613 6300.0
122.119446 76.0
122.254715 184.0
122.385727 48.0
122.465004 224.0
122.619232 56.0
123.041588 720.0
123.206184 168.0
123.228279 60.0
123.411728 128.0
123.514099 176.0
123.885353 164.0
123.960678 44.0
124.016708 672.0
124.424255 132.0
125.019951 184.0
125.278236 120.0
125.619308 128.0
125.724174 176.0
126.647545 176.0
126.743881 148.0
126.851456 168.0
127.010666 176.0
127.369812 180.0
128.076111 244.0
128.493149 84.0
129.021622 132.0
129.062317 96.0
129.322479 44.0
129.689407 196.0
130.10907 156.0
130.452103 136.0
130.993698 148.0
131.021027 132.0
131.049057 880.0
131.604904 244.0
131.901901 116.0
132.052811 160.0
132.318253 140.0
132.87059 124.0
133.031235 352.0
133.070251 156.0
133.088623 220.0
133.582748 196.0
134.036301 172.0
134.582977 116.0
134.740021 216.0
134.939865 224.0
135.010468 148.0
135.044434 2648.0
135.225632 64.0
135.375473 144.0
135.628647 224.0
136.050018 520.0
136.982086 204.0
137.058105 300.0
137.139481 52.0
137.559341 92.0
138.031281 140.0
138.064697 168.0
138.136536 44.0
138.232452 160.0
139.036255 164.0
139.172409 104.0
139.924789 208.0
140.667389 212.0
141.066605 192.0
141.551636 208.0
141.634521 44.0
142.933151 224.0
143.178345 48.0
143.476196 88.0
143.52388 48.0
143.867447 92.0
144.855087 124.0
144.917374 168.0
146.259811 164.0
146.524704 216.0
146.546387 128.0
147.460983 164.0
147.918137 152.0
148.060989 84.0
148.730164 132.0
149.024109 188.0
149.060455 188.0
149.264648 176.0
149.80983 192.0
150.031784 3300.0
150.15596 152.0
150.228333 208.0
150.534225 84.0
150.634354 124.0
150.68811 120.0
150.732086 52.0
150.944748 32.0
151.041809 684.0
151.084167 80.0
151.80426 44.0
152.010681 616.0
152.037415 224.0
152.061859 204.0
152.142868 112.0
152.351608 148.0
152.742477 124.0
153.013168 156.0
153.170776 152.0
153.303818 136.0
155.728378 220.0
156.414642 184.0
157.404419 136.0
158.056824 128.0
158.188812 276.0
159.461182 180.0
160.263947 180.0
160.62233 128.0
161.052933 160.0
161.101562 136.0
161.733734 92.0
162.40773 144.0
162.697006 172.0
163.039917 176.0
163.831238 104.0
163.950989 132.0
163.986679 96.0
164.03511 124.0
164.096283 40.0
164.200836 104.0
164.433014 64.0
164.601501 104.0
164.690887 144.0
164.728531 124.0
164.82782 20.0
164.869354 216.0
164.969406 236.0
165.005112 160.0
165.055359 34412.0
165.10173 48.0
165.118988 60.0
165.145477 136.0
165.2034 88.0
165.235382 108.0
165.267487 88.0
165.349854 76.0
165.381241 120.0
165.399155 60.0
165.47757 116.0
165.519485 28.0
165.573257 72.0
165.604004 124.0
165.638947 68.0
165.729523 36.0
165.873047 80.0
165.896118 96.0
166.002609 112.0
166.05896 2636.0
166.167953 180.0
166.224411 84.0
166.324493 80.0
166.386108 180.0
166.440033 68.0
166.571014 52.0
166.588989 32.0
166.774002 60.0
166.799698 76.0
166.984833 132.0
167.033661 3876.0
167.092865 72.0
167.110886 84.0
167.128891 76.0
167.242126 148.0
167.265289 60.0
167.296188 128.0
167.422348 128.0
167.904282 44.0
167.976501 68.0
168.040359 544.0
168.079697 164.0
168.182922 52.0
168.291351 132.0
168.332657 28.0
168.717651 68.0
169.059006 164.0
170.021851 172.0
172.257126 184.0
173.880508 36.0
174.290176 92.0
175.316437 72.0
175.52417 144.0
176.04718 160.0
176.136978 80.0
177.068008 244.0
178.081207 348.0
178.245865 144.0
179.030624 136.0
179.085999 240.0
180.054703 168.0
180.084076 204.0
180.81398 64.0
181.079025 168.0
182.074036 200.0
183.085434 212.0
183.478638 88.0
190.080429 180.0
191.068359 268.0
193.055176 148.0
193.320755 76.0
194.076965 172.0
195.077087 220.0
196.046646 160.0
197.05513 160.0
197.102631 112.0
201.946548 200.0
203.028442 160.0
205.058365 120.0
206.074509 136.0
208.079117 92.0
209.097183 164.0
210.068375 316.0
210.113861 132.0
211.077026 420.0
211.836853 104.0
211.973022 64.0
221.097687 172.0
221.705688 44.0
222.061447 168.0
223.082901 188.0
226.098434 208.0
227.102127 76.0
229.885025 80.0
233.000717 136.0
234.729553 120.0
235.083405 136.0
237.088562 164.0
238.098862 176.0
239.06691 456.0
240.071442 124.0
247.886887 96.0
251.077713 164.0
251.102905 160.0
251.342697 112.0
251.582565 128.0
251.819397 44.0
251.980499 72.0
253.085464 208.0
254.099716 340.0
255.063965 156.0
255.095749 116.0
269.075287 160.0
269.120087 284.0
270.315918 156.0
271.122955 136.0
271.319031 268.0
298.08432 160.0
301.482117 92.0
325.475525 64.0
329.068878 172.0
370.055023 124.0
391.361298 68.0
402.938904 92.0
419.359344 72.0
432.077057 88.0
471.54715 120.0
474.048553 116.0
535.781616 64.0
550.125549 64.0
565.056335 20.0
683.823059 184.0
759.774719 224.0
791.770874 132.0
820.030762 68.0
870.588379 168.0
882.573975 168.0
903.425903 128.0
914.587036 136.0
933.231812 32.0
940.200378 204.0
959.830566 224.0
968.476318 180.0
984.18512 156.0
986.671753 64.0
997.749512 168.0
999.762268 132.0
1000.586792 152.0
1004.475037 112.0
1045.321899 160.0
1050.076172 148.0
1080.542114 196.0
1089.858765 48.0
1096.795044 144.0
1098.100586 48.0
1116.079834 232.0
1124.473389 124.0
1132.422729 152.0
1133.139526 216.0
1139.714722 196.0
1150.274658 192.0
1155.417236 144.0
1175.965942 168.0
1180.5979 152.0
1182.951538 68.0
1184.23877 224.0
1187.014282 112.0
1195.938354 180.0
1197.218994 104.0
1198.121216 92.0
1199.45813 204.0
1201.40271 228.0
1201.747681 184.0
1219.232178 144.0
1219.64917 188.0
1224.491699 180.0
1225.355347 224.0
1225.557495 68.0
1228.771606 160.0
1229.594971 124.0
1230.362793 140.0
1236.093994 68.0
1237.129883 128.0
1239.389282 260.0
1241.291626 56.0
1241.621216 160.0
1245.165283 220.0
1245.284668 172.0
1246.029297 144.0
1250.585938 168.0
1250.790039 204.0
1250.923828 112.0
1257.860107 156.0
1259.441772 156.0
1263.152588 168.0
1270.952637 224.0
1275.071289 156.0
1276.663818 156.0
1284.120239 108.0
1285.168823 156.0
1286.617676 152.0
1290.132446 180.0
1299.083862 128.0
1299.320557 168.0
1299.937622 204.0
1300.109863 140.0
1300.576294 100.0
1304.498291 228.0
1306.878784 80.0
1307.065796 44.0
1307.310425 112.0
1309.427002 212.0
1314.119751 212.0
1314.292847 108.0
1314.480469 136.0
1314.72583 172.0
1314.899048 148.0
1316.285034 72.0
1321.583252 228.0
1324.862915 184.0
1328.712402 136.0
1333.4104 180.0
1333.526733 136.0
1335.10437 152.0
1337.709106 136.0
1340.075928 184.0
1342.824097 144.0
1347.766113 176.0
1352.988159 216.0
1357.252197 52.0
1358.440308 164.0
1361.86084 148.0
1362.05188 104.0
1367.522217 76.0
1371.197388 164.0
1375.327637 156.0
1380.011108 196.0
1384.450806 168.0
1386.250977 148.0
1391.554321 148.0
1395.990234 124.0
1397.842529 168.0
1398.117798 44.0
1398.847168 112.0
1403.436401 56.0
1403.868896 136.0
1406.666748 44.0
1407.316162 140.0
1413.213257 236.0
1416.814453 140.0
1418.230713 84.0
1418.478027 244.0
1419.745117 188.0
1421.342896 140.0
1425.55542 272.0
1429.081909 176.0
1430.195679 136.0
1431.355103 160.0
1434.165039 232.0
1436.990845 188.0
1439.393066 208.0
1441.75 160.0
1443.428101 184.0
1444.018921 176.0
1445.363525 140.0
1451.166382 172.0
1452.523804 152.0
1454.967285 160.0
1456.934204 164.0
1457.336914 132.0
1457.929565 216.0
1459.100098 208.0
1459.291748 180.0
1471.411621 80.0
1473.190918 160.0
1474.130737 156.0
1475.751099 136.0
1476.393433 132.0
1476.485229 188.0
1478.619629 216.0
1480.349854 164.0
1483.215088 160.0
1484.510864 192.0
1484.748535 148.0
1486.159912 244.0
1489.053955 140.0
1491.366577 200.0
1496.936523 168.0
1497.39856 220.0
1500.546143 168.0
1502.254517 144.0
1503.836304 148.0
