>compound Bumetanide
>formula C17H20N2O5S 
>ionization [M+H]+
>parentmass 365.117126
#inchi InChI=1S/C17H20N2O5S/c1-2-3-9-19-14-10-12(17(20)21)11-15(25(18,22)23)16(14)24-13-7-5-4-6-8-13/h4-8,10-11,19H,2-3,9H2,1H3,(H,20,21)(H2,18,22,23)
#inchikey MAEIEVLCKWDQJH
#Ion_Source LC-ESI
#Instrument qTof
#Compound_Source Isolated
#PI Sirenas
#Data_Collector Ed Esquenazi 
#Scan -1
#Precursor_MZ 365.118
#ExactMass 0.0
#Charge 1
#CAS_Number N/A
#Pubmed_ID N/A
#Smiles N/A
#INCHI_AUX N/A
#Library_Class 3
#SpectrumID CCMSLIB00000006153
#IonMode Positive
#UpdateWorkflowName UPDATE-SINGLE-ANNOTATED-BRONZE
#LibraryQualityString Bronze
#TaskID d19310cd93df49b68e9fcbec27720eb5
##Scan# 2
#SpectrumFile Bumetanide.mgf
#LibraryName fda_library.mgf
#MQScore -1
#Organism fda_library
#TIC_Query 0
#RT_Query -1
#MZErrorPPM -1
#SharedPeaks 0
#MassDiff 0
#LibMZ -1
#SpecMZ 365.118
#SpecCharge 0
#internalFilename spec-00000.mgf

>collision 10
107.375954 3.002604
107.397583 6.734722
107.686249 8.851243
107.855942 4.667339
107.975166 3.018518
108.043442 666.431274
108.076454 6.675438
108.084755 4.785028
108.100731 3.056019
108.260201 1.055556
108.287117 3.409091
108.395073 3.511029
108.51812 8.167092
108.590439 2.422149
108.626816 3.185185
108.64138 3.040833
108.742928 2.4
108.998512 13.44646
109.026085 13.83333
110.129509 2.670139
113.752144 11.50046
115.052673 36.58799
117.442848 7.194331
118.040253 27.58087
120.079903 20.50033
124.036713 37.847618
125.007889 24.68371
125.762405 35.580879
127.055283 30.54464
127.351776 6.306159
128.059509 74.351799
128.086731 2.171875
128.346725 2.4
129.067795 65.983513
129.075378 13.31605
129.452637 5.0
132.085876 1.3375
133.087967 7.355392
139.052841 70.778618
140.141068 4.053571
140.193558 10.06519
140.23259 1.839286
140.335602 2.342262
140.999908 4.000772
141.069443 463.835785
141.10437 2.982143
141.17482 2.204167
141.417435 4.191667
141.496048 3.845238
142.270966 2.544384
144.059448 13.74192
145.064728 6.876736
146.374985 7.230469
151.05188 46.971779
151.086136 1.008333
151.204819 1.241071
151.38797 5.918561
151.542099 1.671296
152.033798 1006.174011
152.061096 30.87566
152.071686 13.0375
152.086472 5.346688
152.099365 1.169643
152.154099 2.241667
152.189301 15.67628
152.219513 2.871142
152.252914 7.365196
152.266846 1.5625
152.293045 4.707615
152.32254 6.868838
152.348297 6.428997
152.374069 3.697601
152.448212 6.55787
152.580353 10.81975
153.069763 237.861298
153.109283 1.668561
153.242752 3.333333
153.296829 3.711051
153.307358 5.104167
153.527161 2.240741
153.583572 6.320076
153.701263 8.755311
154.874969 4.191565
155.04715 19.956949
155.073944 37.347809
155.083389 19.383141
155.117706 7.291667
155.210526 2.707108
155.282196 3.047619
155.340729 4.770833
155.368912 4.016801
155.472946 3.240036
155.517456 1.260417
155.647156 3.713542
155.898621 5.939394
156.045395 35.3186
156.080673 2727.22998
156.13176 24.93989
156.150436 4.672348
156.206573 3.875
156.219299 4.38966
156.23645 2.083333
156.250443 2.0
156.263489 7.579449
156.289581 3.260031
156.298523 8.961436
156.318466 15.32808
156.337357 2.679167
156.356339 8.226745
156.372223 1.833333
156.40271 8.824561
156.459244 1.690476
156.496216 7.870538
156.511459 2.177696
156.524155 2.568056
156.560608 3.080044
156.572403 8.979674
156.607224 6.837694
156.648453 3.078526
156.668182 1.851852
156.685608 3.520833
156.694992 3.194444
156.948944 9.25641
157.064072 19.33712
157.08287 19.861059
157.092056 12.89263
157.29187 7.684576
157.549042 10.00023
158.056625 24.5847
158.50238 1.668056
159.078278 15.6171
160.039078 7.175
160.186295 1.008333
163.214584 6.482143
164.032944 23.15341
164.106262 129.369003
164.127075 9.675804
164.175873 8.435382
164.202591 3.334936
164.232208 7.208145
164.296371 2.337963
164.376587 3.168056
164.38591 10.18544
164.818512 3.669271
165.0354 18.480261
165.20285 8.092628
165.262543 2.19391
165.865326 5.522727
166.064377 591.935486
166.17009 3.53293
166.286697 4.506944
166.478577 2.224537
167.082611 10.60907
167.294754 1.52381
167.729858 6.837694
168.080795 70.704803
168.102722 10.3046
168.329636 3.173132
168.686401 5.660017
169.064499 788.699097
169.118851 1.5375
169.140656 1.173611
169.192825 6.355053
169.28334 1.8375
169.311035 5.41875
169.334488 13.80952
169.471313 5.649277
169.51712 4.560185
169.529663 18.5679
169.585144 6.148284
169.650177 4.224537
169.789856 4.422149
170.095139 356.837585
170.126297 3.581317
170.171677 1.0
170.200317 3.453373
170.299347 12.44818
170.349625 7.27297
170.494934 4.111883
171.080795 118.419403
171.49942 2.0
172.55368 3.859509
174.165787 4.847756
174.985931 10.83366
178.048721 9.730681
178.905182 4.574846
179.070053 49.728298
179.085922 15.99713
180.078568 154.395004
180.134064 1.020833
180.262482 4.083333
181.064453 336.133606
181.279831 3.047619
181.354874 13.17677
181.443741 1.901389
181.466873 3.023809
181.509537 4.6875
181.767197 4.724856
182.007828 4.153846
182.022125 7.233797
182.059448 197.1539
182.11087 6.5
182.203751 3.743056
182.252579 19.88261
182.450897 22.985241
182.591843 6.439547
182.617218 6.091912
182.697159 4.280093
182.932343 2.170455
182.982895 43.691769
183.0271 37.936539
183.068283 2248.269043
183.108124 32.108891
183.125366 14.16789
183.164001 23.40621
183.184692 2.969697
183.198395 24.57646
183.214539 5.852623
183.263626 34.496109
183.290329 2.25
183.30896 7.0
183.360168 12.93325
183.387131 6.1875
183.418777 25.991911
183.454361 16.14679
183.469666 12.53184
183.569366 4.153846
183.587112 9.005747
183.627075 15.37063
183.678909 13.45045
183.714142 35.680531
183.745941 11.57202
183.795059 16.676371
183.936447 9.366667
183.965912 16.499109
184.005234 130.984802
184.03688 93.258904
184.075775 16093.639648
184.134811 104.422401
184.221024 10.55825
184.240295 43.71862
184.262268 30.53013
184.274689 7.36095
184.312302 41.245098
184.330292 15.30539
184.348007 51.081402
184.390198 64.717796
184.436005 54.141201
184.475998 36.97102
184.552322 44.13707
184.564224 4.413462
184.585434 17.83494
184.598221 7.653823
184.612976 18.553049
184.651886 13.67778
184.673203 10.21366
184.684006 7.451309
184.727951 14.37831
184.757355 27.229361
184.78598 15.58777
184.798355 22.47197
184.828308 10.46281
184.858871 16.890051
184.960602 18.062691
185.016281 4.168056
185.055847 62.426579
185.16835 6.59375
185.216797 5.251736
185.280823 17.932949
185.403854 4.854167
185.519928 3.6
185.543488 8.580358
185.600494 5.667092
185.761734 8.670493
185.946716 10.50347
185.983459 9.27704
186.139252 4.514498
186.198135 3.551282
186.484406 5.787037
186.50209 2.000992
186.521088 4.017857
186.592361 2.841486
186.839813 8.380575
186.901093 5.846688
186.936325 5.787037
187.044083 1.0
187.323242 3.777778
189.014999 17.13665
190.298233 2.355978
190.419083 7.964015
191.094757 6.661638
191.374756 4.855053
192.111801 7.401389
193.087875 26.17683
193.212341 7.160715
194.069946 29.722759
194.093933 14.33778
194.109558 28.648199
194.12085 11.93896
194.921112 1.979167
195.025742 10.1579
195.044022 11.76389
195.070145 159.403198
195.102692 27.82148
195.133011 4.508333
195.15213 7.028812
195.190765 2.836538
195.264313 3.595109
195.280121 2.755208
195.385101 1.361111
195.473038 15.03706
195.516785 8.962963
195.561554 1.241071
195.852875 8.923612
195.900482 9.591881
196.00145 14.46359
196.042252 4.245614
196.076736 2341.358887
196.137192 13.38935
196.222794 12.36694
196.237976 3.416667
196.266388 3.859509
196.316574 21.565491
196.339493 2.176535
196.364426 9.103983
196.466629 16.45857
196.554047 3.047619
196.56868 10.5155
196.647278 27.918659
196.684387 14.5
196.740936 4.083333
196.761658 14.34421
196.787537 5.5875
196.798126 6.412281
196.832153 8.340669
196.88002 6.544271
196.936661 4.466667
196.954193 4.173913
196.988388 5.160714
197.377411 6.166667
197.610046 3.409091
198.090744 1196.180054
198.123749 54.352669
198.152344 7.208333
198.175766 4.724638
198.228668 2.466667
198.25502 4.386574
198.286377 6.592593
198.338562 2.953373
198.37912 3.826993
198.406906 5.519737
198.442291 3.409091
198.465958 11.00641
198.476944 11.15417
198.514694 2.838542
198.534332 2.167763
198.601532 1.370833
198.740936 2.481618
198.818756 11.17868
199.062225 12.92982
199.525742 1.168561
199.717422 1.168269
200.046997 2.347222
200.06926 17.04537
200.080963 11.25653
200.490051 5.911859
204.077515 3.893939
206.076599 85.76664
206.099487 9.039245
206.486847 7.549603
207.014526 3.270833
207.089493 20.59259
207.102432 24.5933
207.345032 4.51103
208.097733 174.180099
208.460754 12.79038
208.685715 2.296875
208.706512 1.222222
208.946533 7.009138
209.080719 116.728996
209.297592 2.008929
209.384277 1.169643
209.787521 6.306159
210.054779 264.662689
210.099716 2.375
210.123444 15.58968
210.150131 3.0625
210.207504 10.91483
210.447952 3.7075
210.458939 5.518581
210.511917 28.50602
210.866882 1.52381
210.906662 10.8147
210.975388 14.89922
210.997864 9.382846
211.095505 29.890829
211.166382 9.0
211.225815 8.883333
211.240723 5.120098
211.398178 9.132152
211.70932 6.347222
211.8582 8.336051
211.964554 3.241071
212.040558 1.675
212.067841 40.409012
212.103912 42.051811
212.143173 3373.455078
212.208435 23.52083
212.236984 10.64002
212.255219 8.270833
212.282745 13.61433
212.296066 4.820076
212.334686 22.046141
212.352524 7.741512
212.39122 7.381945
212.427979 35.659729
212.450851 11.68966
212.479782 15.26192
212.502167 18.519819
212.522095 6.109011
212.533997 11.48531
212.696442 8.017601
212.72496 3.0
212.795593 12.80258
212.864288 25.512751
212.906906 11.0
213.050186 1.928571
213.838638 1.875
213.882889 2.75
213.944489 4.980183
214.056885 9.90625
214.084976 71.09391
214.115219 7.887821
214.399048 4.204167
216.015961 10.2963
216.071106 11.38506
219.290268 6.347222
221.092606 34.03054
221.800751 1.835227
222.054886 21.666849
222.129181 175.859497
222.168747 2.348485
222.189499 1.2
222.526688 3.211111
222.951553 1.708333
223.321411 1.001894
224.06633 66.414146
224.109421 27.596201
225.05397 159.298096
225.717651 4.723214
227.057388 201.709305
227.426392 4.833929
228.022247 1.979167
228.065598 222.018799
228.708633 11.34257
229.028381 88.074402
229.074173 301.230499
229.120514 1.722222
229.234726 3.704475
230.5849 2.168982
230.785583 3.640833
234.78801 1.0
235.059952 5.214015
235.67038 3.100833
236.003067 11.34359
236.042252 5.179487
236.680695 4.629704
236.69313 5.546696
236.802155 11.38488
236.872543 7.977623
237.172104 24.904921
237.579819 8.240002
237.744934 15.98867
237.932434 8.618055
237.997284 2.6675
238.013397 1.502315
238.087006 55.688889
238.122421 1994.921997
238.184692 10.70761
238.195526 5.5
238.260925 5.731482
238.305161 7.467129
238.319412 6.451389
238.375107 17.4298
238.40535 5.856019
238.466934 90.69957
238.485077 13.15348
238.54628 3.576007
238.619141 14.19157
238.639145 8.557561
238.653824 19.23101
238.680313 13.1626
238.70401 16.59375
238.721664 54.640911
238.766678 63.310261
238.796326 63.540089
238.825394 37.831631
238.843018 15.54466
238.867538 27.344311
238.882889 31.729071
238.912445 10.64815
238.926743 64.497932
238.951599 5.034167
238.991852 16.345631
239.024658 17.764879
239.039612 4.172348
239.061096 5.339798
239.096283 25.990271
239.130341 1162.607056
239.228745 15.74519
239.304382 31.844021
239.423325 14.90123
239.443192 4.5
239.507797 2.344363
239.527039 18.987591
239.548355 12.41064
239.56456 12.26944
239.62262 18.71768
239.659027 19.42478
239.68367 8.09375
239.707367 11.04975
239.900879 6.866279
239.997971 7.021719
240.014572 13.40254
240.037201 34.203159
240.065674 1031.213989
240.100922 50.985241
240.139008 24746.609375
240.28154 15.80042
240.337051 12.65246
240.359329 24.714979
240.391998 52.730148
240.446579 104.437103
240.492691 16.66658
240.515457 70.623871
240.538589 26.219851
240.599609 67.809227
240.623306 23.69426
240.641663 31.94632
240.667572 16.79278
240.69606 61.602982
240.745743 12.08187
240.762192 38.00071
240.821487 45.737091
240.857956 16.268709
240.897858 39.677391
240.998199 6.876603
241.233429 41.879051
241.357559 33.06345
241.408646 27.75428
241.610184 7.483477
241.643173 42.067509
241.677658 16.001261
241.720566 18.06436
241.877182 4.721491
241.963715 17.860701
241.997467 14.6055
242.050827 11.91473
242.081726 2385.849121
242.168091 15.21352
242.264206 6.607143
242.301422 2.486742
242.31929 16.16715
242.44101 18.41814
242.521454 1.008333
242.537704 1.334936
242.569855 7.317282
242.692947 27.50441
242.705688 1.5
242.772552 11.79877
242.803589 8.415
242.858597 9.714847
242.918182 4.963037
243.052673 25.37639
243.332504 16.74954
243.49762 1.291667
243.622498 2.166667
244.301758 3.681818
244.377853 1.0
244.497528 1.8375
244.601639 5.293356
245.248779 6.000595
245.761887 4.074405
245.936371 4.479167
246.019333 37.433788
246.143082 3.516754
246.503433 4.408333
246.607834 7.599064
246.699524 1.347222
246.832291 4.6875
247.17308 5.504167
247.274353 1.026786
247.396301 5.375
247.876633 2.840278
248.03714 472.486115
248.105835 100.777802
248.163406 3.316886
248.333862 6.6875
248.364029 4.267262
248.418015 8.525632
248.433289 2.388889
248.468323 2.347756
248.5065 3.215278
248.676682 2.761364
248.734482 14.46726
248.81929 5.855053
248.96199 5.333686
249.068359 16.806881
249.40657 4.990196
249.599091 2.226716
249.802536 6.033333
250.374924 2.786706
251.161469 11.02083
251.846634 6.180147
253.757462 6.877193
254.085876 69.248177
254.126389 7.355053
255.058258 11.71423
256.095551 69.12326
256.133667 44.766029
256.187836 3.797068
256.228973 4.387821
256.472382 10.89005
262.507538 4.33716
264.037537 20.749599
264.455627 5.231771
264.511353 2.338725
264.597168 12.5028
264.619843 3.540833
264.651123 16.49649
264.779877 4.153846
264.846252 2.520833
264.930573 7.756945
265.310699 3.506944
265.702332 1.854167
266.085754 16.94491
266.117859 2431.585938
266.176636 6.690973
266.190369 6.522645
266.226532 16.53709
266.279785 16.19545
266.326813 14.21275
266.349182 5.509869
266.384338 5.983054
266.431183 6.729167
266.447144 23.433331
266.494354 9.266889
266.525757 24.30405
266.576294 26.73698
266.638428 11.29167
266.663666 8.426282
266.814575 4.32353
266.883087 7.163915
266.992493 8.343651
267.170471 12.06187
267.196533 3.886905
267.350311 3.026786
267.795624 1.3125
268.710114 3.364583
272.081635 36.066669
273.047302 5.479167
274.011078 27.79801
275.000397 61.02742
278.31192 8.702571
280.277649 2.265931
280.382446 4.349116
281.473083 13.17581
281.612732 10.68981
281.752869 1.166667
282.115234 45.040649
282.310852 66.161377
282.337006 52.355412
282.436157 5.336309
282.51178 20.015881
282.542786 5.030702
282.594513 6.688726
282.664551 2.027412
282.693848 4.987714
282.726807 6.134167
282.752869 26.578739
282.78653 8.861645
282.860535 2.604167
282.955872 2.14881
282.980591 1.861111
283.004028 15.7032
283.120728 1114.92395
283.200958 4.194221
283.366974 4.181818
283.413727 3.837694
283.442993 6.667175
283.473145 8.93713
283.560913 11.99874
283.618713 14.8985
283.648041 34.752319
283.671143 22.59008
283.723999 9.148284
283.767181 6.875758
283.903931 41.48151
283.93576 4.929167
284.065369 78.862633
284.081635 3.381944
284.128662 7224.950195
284.198669 56.421619
284.223633 9.140019
284.252228 13.4756
284.355591 26.773911
284.416138 6.5
284.437378 32.742649
284.467041 40.078289
284.49176 32.270241
284.532043 30.59407
284.586273 6.336309
284.609741 7.066431
284.626617 18.36274
284.730774 32.115211
284.811615 2.942402
284.846008 25.89817
284.876648 12.79701
285.068268 7.520833
285.096039 7.41886
285.240326 3.673611
285.261597 11.59316
285.305786 9.742271
285.515503 21.051571
285.698181 4.340278
285.945953 9.527778
285.978851 5.051445
286.061829 7.497248
286.102417 9.189783
286.408478 2.722222
286.554901 5.420139
286.727966 2.520833
287.139008 4.34375
287.545929 6.034722
287.6698 5.0
287.781952 2.740036
287.825562 9.1875
287.994446 2.003788
288.105499 5.506945
288.809723 1.839286
288.845215 4.0
289.958069 5.052632
290.088165 1.863971
290.248169 4.705911
290.283752 3.348214
290.514954 3.080128
290.571777 4.633333
291.304138 2.833965
291.821106 5.66875
291.941803 4.013889
292.027527 1906.756958
292.104004 15.16898
292.124603 18.6646
292.153839 15.82856
292.177307 7.514881
292.19574 21.511259
292.219238 6.001344
292.295868 13.51471
292.327789 4.926282
292.374969 4.479167
292.441467 21.736469
292.481873 7.296875
292.56427 1.501894
292.743622 9.157689
292.813568 3.008333
293.177277 4.016667
294.620789 10.67539
298.22049 2.508152
302.513336 4.558624
304.026031 30.083851
304.082092 1.002976
304.10144 52.427509
304.971558 5.752604
305.330475 5.75
306.044617 98.547188
306.294739 5.946934
306.852875 1.540064
307.154938 2.779166
308.051361 9.620536
309.050598 32.2915
309.088715 1.166667
312.063324 36.505211
320.065674 6.008928
321.052551 11.40805
322.060303 27.173479
330.075867 8.037037
330.538086 3.183333
345.886383 3.836806
346.026123 5.426282
346.720703 3.172348
348.030884 16.148569
348.052856 6.072024
348.089661 314.509186
348.356873 2.19391
348.569366 4.21875
348.601837 0.833333
348.855194 4.84316
348.946198 6.296909
349.177765 4.560185
351.309174 4.333333
352.220398 6.796875
362.852661 8.07945
362.919617 2.296875
362.985168 8.792523
363.245575 4.487179
363.82074 4.50817
364.782776 5.849116
365.022797 1.863971
365.117126 933.316528
365.199402 6.46553
365.250397 23.28676
365.29892 12.37862
365.32196 12.53692
365.355469 7.944775
365.401764 1.334722
365.440796 8.963056
365.481567 5.395833
365.515015 15.95897
365.674347 10.00056
365.767609 2.501225
365.847443 7.854167
366.047821 3.000992
366.9263 3.83443
369.007416 3.786706
448.97052 17.48958
454.013184 1.833333
475.9888 3.083333
536.634155 7.4
756.024597 2.391204
967.235352 3.7075
983.034851 5.136111
