>compound MLS000062633-01!
>formula C12H8O4
>ionization [M+H]+
>parentmass 217.048569
#inchi InChI=1S/C12H8O4/c1-14-12-10-8(4-5-15-10)6-7-2-3-9(13)16-11(7)12/h2-6H,1H3
#inchikey QXKHYNVANLEOEG
#Ion_Source LC-ESI
#Instrument qTof
#Compound_Source NIH Natural Product Library
#PI Dorrestein
#Data_Collector VVP/LMS
#Scan -1
#Precursor_MZ 217.05
#ExactMass 216.042
#Charge 1
#CAS_Number N/A
#Pubmed_ID N/A
#Smiles COc1c2occc2cc3ccc(=O)oc13
#INCHI_AUX N/A
#Library_Class 1
#SpectrumID CCMSLIB00000079597
#IonMode Positive
#UpdateWorkflowName UPDATE-SINGLE-ANNOTATED-GOLD
#LibraryQualityString Gold
#TaskID b1d8e8f6646f4e71acdff9ca3d919d08
##Scan# 1928
#SpectrumFile p1-F08_GF8_01_17940.mzXML
#LibraryName NIH_Natural_Products_Library.mgf
#MQScore -1
#Organism NIH_Natural_Products_Library
#TIC_Query 0
#RT_Query -1
#MZErrorPPM -1
#SharedPeaks 0
#MassDiff 0
#LibMZ -1
#SpecMZ 217.05
#SpecCharge 0
#internalFilename spec-00000.mgf

>collision 10
95.306679 128.0
96.138153 160.0
98.158699 188.0
100.124557 236.0
100.710922 152.0
100.888763 72.0
101.043823 120.0
101.064766 96.0
101.862679 84.0
102.045601 200.0
102.218536 188.0
102.881645 96.0
103.062096 184.0
103.079575 136.0
105.071426 184.0
106.897057 204.0
107.197701 140.0
107.414185 68.0
107.519409 72.0
108.456329 160.0
108.879585 196.0
108.956436 132.0
110.154282 172.0
111.310379 248.0
113.191315 128.0
114.484543 212.0
115.054085 448.0
115.494049 64.0
116.061348 212.0
117.032349 168.0
117.580292 100.0
117.649361 88.0
117.979889 200.0
118.041031 3168.0
118.258934 116.0
118.590317 164.0
118.959061 132.0
119.044876 328.0
119.061111 168.0
119.661263 156.0
119.700455 172.0
120.016403 176.0
120.036026 132.0
120.090553 68.0
120.118904 152.0
120.134178 124.0
120.465988 104.0
121.036819 104.0
122.497322 204.0
122.728729 228.0
125.576164 172.0
125.770279 188.0
125.946671 172.0
126.559425 176.0
126.698288 172.0
126.749817 140.0
127.144501 176.0
128.458511 152.0
129.00499 180.0
129.030975 308.0
129.494629 252.0
129.795135 200.0
129.917618 148.0
130.039932 212.0
130.514923 136.0
131.001968 176.0
131.046509 328.0
131.501328 32.0
132.050323 388.0
132.319687 176.0
133.063629 140.0
133.50827 256.0
134.674469 184.0
134.94252 164.0
135.039642 156.0
135.067398 144.0
135.247879 168.0
135.282608 136.0
135.620804 96.0
135.674118 128.0
135.912491 92.0
137.503632 220.0
137.623795 196.0
138.367279 184.0
139.688507 264.0
140.291351 136.0
140.574387 140.0
141.070374 28.0
142.970245 132.0
143.049789 152.0
143.491898 100.0
143.656448 124.0
144.214371 160.0
144.916351 212.0
145.027267 1380.0
145.072128 172.0
145.127274 96.0
146.034637 2628.0
146.095154 56.0
146.145676 40.0
146.239532 56.0
147.043106 512.0
147.18454 64.0
147.327042 64.0
147.504532 204.0
147.868668 172.0
148.147125 88.0
148.357956 72.0
148.649017 64.0
149.005936 116.0
149.390045 144.0
149.716202 180.0
150.069519 176.0
150.498947 148.0
150.884979 68.0
151.643814 152.0
153.12532 192.0
155.488876 164.0
156.224365 188.0
157.027481 452.0
157.645554 216.0
158.036209 288.0
158.371078 208.0
159.138443 120.0
160.038574 200.0
160.235016 164.0
160.348419 108.0
160.799866 180.0
161.059158 4456.0
161.112976 64.0
161.192978 60.0
161.234253 84.0
161.476959 108.0
161.631271 124.0
161.833771 132.0
162.02626 176.0
162.061356 760.0
162.132675 56.0
162.185898 88.0
162.365906 40.0
163.066635 112.0
163.379395 108.0
163.942093 196.0
164.684509 132.0
164.791809 220.0
166.675064 188.0
167.5009 136.0
169.202713 196.0
169.905029 240.0
171.044769 248.0
171.108322 208.0
171.879822 152.0
172.04425 136.0
173.026688 156.0
173.058655 536.0
173.202682 156.0
173.338913 92.0
173.372986 108.0
173.404434 108.0
173.608917 96.0
173.629898 128.0
173.887009 148.0
173.949997 180.0
174.031128 12664.0
174.081284 188.0
174.162689 92.0
174.22049 52.0
174.304565 112.0
174.343979 84.0
174.630539 68.0
174.70575 76.0
174.777863 76.0
174.970001 64.0
175.036331 1348.0
175.122726 72.0
175.1754 40.0
175.491653 60.0
176.011459 96.0
176.034561 296.0
176.095963 72.0
176.349594 96.0
176.383957 108.0
176.479141 72.0
177.034821 160.0
177.599319 40.0
177.965546 52.0
178.02095 224.0
179.02652 144.0
179.351562 64.0
179.8797 92.0
180.643951 68.0
182.793015 48.0
184.051819 112.0
185.019821 256.0
185.442322 152.0
187.02037 164.0
189.004379 200.0
189.055679 492.0
190.059296 204.0
191.059372 160.0
191.084137 112.0
191.74501 84.0
192.5009 20.0
199.320221 148.0
200.445786 92.0
201.026672 116.0
201.704514 96.0
202.026108 8612.0
202.091949 44.0
202.151367 80.0
202.188156 172.0
202.230606 60.0
202.270233 44.0
202.312698 108.0
202.52507 76.0
202.597122 120.0
202.87645 68.0
202.916138 52.0
203.02858 1400.0
203.259338 72.0
203.418274 80.0
203.81871 40.0
204.051788 52.0
204.304901 44.0
204.860016 84.0
205.415894 84.0
205.652725 104.0
207.096619 76.0
207.228394 52.0
209.158218 84.0
210.793472 232.0
213.957886 56.0
215.491943 156.0
216.732529 152.0
217.048569 1136.0
217.674103 76.0
218.008987 28.0
218.052261 308.0
219.55159 136.0
229.074982 60.0
239.81044 52.0
244.944733 68.0
296.602448 48.0
325.117188 124.0
341.636108 136.0
383.585114 132.0
515.721313 40.0
552.64502 200.0
676.996826 52.0
754.884644 244.0
816.098511 160.0
850.68573 180.0
878.659912 132.0
894.768372 216.0
901.759521 60.0
953.88562 188.0
954.568054 48.0
999.437744 168.0
1000.68396 140.0
1008.651611 212.0
1014.595825 20.0
1049.060547 164.0
1059.102173 184.0
1060.650879 92.0
1066.986572 208.0
1077.407471 88.0
1079.002075 160.0
1081.356934 200.0
1096.686646 192.0
1100.08374 180.0
1102.72583 152.0
1110.61145 176.0
1115.106445 228.0
1117.067993 168.0
1119.497314 204.0
1139.020142 172.0
1154.630127 192.0
1162.73291 168.0
1170.455322 116.0
1189.804565 140.0
1195.461426 28.0
1213.032104 152.0
1213.441162 156.0
1221.413452 156.0
1222.387451 132.0
1228.581421 92.0
1229.111694 172.0
1230.165527 180.0
1231.53418 88.0
1275.49646 176.0
1277.544434 240.0
1281.737915 192.0
1282.115601 188.0
1283.277466 140.0
1283.370239 232.0
1289.430786 200.0
1306.913696 144.0
1310.701172 148.0
1318.227295 68.0
1324.318848 60.0
1330.562378 168.0
1332.189087 196.0
1333.34436 148.0
1339.93689 60.0
1341.387085 224.0
1347.254272 128.0
1347.356567 140.0
1356.511353 172.0
1359.841431 192.0
1363.425415 180.0
1363.925171 120.0
1369.737183 140.0
1370.246582 168.0
1376.538208 136.0
1382.770264 164.0
1385.191406 140.0
1389.08313 116.0
1390.819458 168.0
1395.71521 116.0
1406.681885 144.0
1430.324219 184.0
1436.420166 168.0
1440.209351 164.0
1444.306152 172.0
1450.075562 160.0
1455.879395 116.0
1461.884888 108.0
1464.138306 168.0
1466.553467 136.0
1466.667725 92.0
1473.635132 236.0
1474.834961 168.0
1478.881104 192.0
1482.189453 176.0
1484.281982 172.0
1484.358643 172.0
1490.699341 160.0
1490.837646 204.0
1502.086304 156.0
