>compound MLS001141233-01!(2S)-1-[(2S)-2-[(4,6-dimethoxy-1-methylindole-2-carbonyl)amino]-3-methylbutanoyl]pyrrolidine-2-carboxylic acid
>formula C22H29N3O6
>ionization [M+H]+
>parentmass 432.213
#inchi InChI=1S/C22H29N3O6/c1-12(2)19(21(27)25-8-6-7-15(25)22(28)29)23-20(26)17-11-14-16(24(17)3)9-13(30-4)10-18(14)31-5/h9-12,15,19H,6-8H2,1-5H3,(H,23,26)(H,28,29)/t15-,19-/m0/s1
#inchikey XUNJTZNAIXYURM
#Ion_Source LC-ESI
#Instrument qTof
#Compound_Source NIH Natural Product Library
#PI Dorrestein
#Data_Collector VVP/LMS
#Scan -1
#Precursor_MZ 432.213
#ExactMass 431.206
#Charge 1
#CAS_Number N/A
#Pubmed_ID N/A
#Smiles COc1cc(OC)c2cc(C(=O)N[C@@H](C(C)C)C(=O)N3CCC[C@H]3C(=O)O)n(C)c2c1
#INCHI_AUX N/A
#Library_Class 1
#SpectrumID CCMSLIB00000080491
#IonMode Positive
#UpdateWorkflowName UPDATE-SINGLE-ANNOTATED-GOLD
#LibraryQualityString Gold
#TaskID b1d8e8f6646f4e71acdff9ca3d919d08
##Scan# 2006
#SpectrumFile p2-G09_GG9_01_18057.mzXML
#LibraryName NIH_Natural_Products_Library.mgf
#MQScore -1
#Organism NIH_Natural_Products_Library
#TIC_Query 0
#RT_Query -1
#MZErrorPPM -1
#SharedPeaks 0
#MassDiff 0
#LibMZ -1
#SpecMZ 432.213
#SpecCharge 0
#internalFilename spec-00000.mgf

>collision 10
94.989326 104.0
95.072754 124.0
95.315498 144.0
95.377686 228.0
95.443787 184.0
95.638336 212.0
95.753212 252.0
96.227066 124.0
96.270027 232.0
96.287605 164.0
96.391144 412.0
96.592522 128.0
96.629692 156.0
96.713303 204.0
96.90184 88.0
96.980225 128.0
97.237167 180.0
97.258751 216.0
97.345139 128.0
97.392273 160.0
97.811104 152.0
97.968643 32.0
98.05603 172.0
98.161804 128.0
98.250557 52.0
98.309753 108.0
98.353172 136.0
98.872993 208.0
99.070999 188.0
99.193871 220.0
99.22757 36.0
99.255325 152.0
99.342598 84.0
99.370369 84.0
99.650322 40.0
100.23056 196.0
100.422714 112.0
100.448647 148.0
100.498528 100.0
100.542427 104.0
100.72612 136.0
100.796043 128.0
100.91198 140.0
100.997971 168.0
101.200096 164.0
101.373756 184.0
101.468575 204.0
101.482613 144.0
101.817726 136.0
101.916161 120.0
102.006599 56.0
102.400986 220.0
102.503731 148.0
103.000046 152.0
103.032372 160.0
103.064697 156.0
103.303268 180.0
103.317429 196.0
103.469215 228.0
103.85424 144.0
104.321281 140.0
104.629135 316.0
104.683456 140.0
104.783264 168.0
104.860695 176.0
105.123779 200.0
105.205429 188.0
105.252388 116.0
105.409676 128.0
105.585487 124.0
105.691864 164.0
105.73893 48.0
105.843338 68.0
105.992867 196.0
106.064598 128.0
106.101501 160.0
106.436859 188.0
106.479065 196.0
106.526306 152.0
106.881996 112.0
107.0961 124.0
107.145538 128.0
107.454796 160.0
107.574501 216.0
107.617851 88.0
107.719048 132.0
107.747971 176.0
107.797562 208.0
107.871971 184.0
107.902977 160.0
107.978172 288.0
108.077133 200.0
108.298233 160.0
108.325165 116.0
108.426689 180.0
108.455711 120.0
108.571815 128.0
109.063889 156.0
109.086754 96.0
109.230232 200.0
109.500824 136.0
109.835327 196.0
110.172501 152.0
110.245628 216.0
110.530029 224.0
110.788094 188.0
111.112511 136.0
111.156578 200.0
111.288818 124.0
111.448448 136.0
111.667084 196.0
111.856453 152.0
111.974365 232.0
112.010178 216.0
112.029137 208.0
112.242004 192.0
112.408653 108.0
112.436089 108.0
112.51841 192.0
112.723297 200.0
112.747742 176.0
112.782471 168.0
112.805725 96.0
112.92202 72.0
113.061661 192.0
113.205612 196.0
113.44928 224.0
113.546822 128.0
113.8312 164.0
113.869423 132.0
113.897034 152.0
114.07766 204.0
114.130814 144.0
114.45211 236.0
114.545822 184.0
115.087532 236.0
115.277641 140.0
115.455078 208.0
115.493576 220.0
115.979637 160.0
116.067612 960.0
116.144745 216.0
116.194084 112.0
116.271332 188.0
116.492493 148.0
116.909958 128.0
116.928993 144.0
116.967735 96.0
117.040932 132.0
117.084 108.0
117.241272 224.0
117.370613 172.0
117.657578 152.0
117.76339 156.0
118.081108 40.0
118.100021 168.0
118.15033 164.0
118.308311 228.0
118.414413 292.0
118.43174 232.0
118.615929 192.0
118.665787 180.0
118.722168 216.0
118.847984 112.0
119.045334 256.0
119.075928 180.0
119.238876 32.0
119.262779 184.0
119.367134 204.0
119.384537 208.0
119.462837 156.0
119.658707 104.0
120.048424 164.0
120.094543 64.0
120.133812 208.0
120.214539 140.0
120.229813 96.0
120.323677 116.0
120.485291 192.0
120.710419 80.0
121.060806 504.0
121.191986 168.0
121.303764 160.0
121.492355 76.0
121.646523 160.0
121.960091 208.0
122.001862 220.0
122.07737 176.0
122.393494 148.0
122.783546 184.0
123.013023 224.0
123.059387 176.0
123.077049 152.0
123.393005 160.0
123.410698 168.0
123.840721 152.0
123.888748 168.0
124.081566 124.0
124.416565 144.0
124.469856 124.0
124.552032 128.0
124.629784 240.0
124.763138 188.0
124.936607 196.0
125.052322 160.0
125.132462 156.0
125.148048 180.0
125.176994 160.0
125.515701 176.0
125.848167 152.0
125.924095 88.0
126.198967 72.0
126.23027 72.0
126.554726 72.0
126.590553 152.0
126.606232 100.0
126.71151 96.0
126.785454 80.0
126.81459 160.0
126.928925 224.0
127.135307 100.0
127.180199 148.0
127.296944 172.0
127.481155 60.0
127.544083 140.0
127.620522 156.0
127.701477 200.0
127.813965 168.0
127.836464 208.0
128.235092 84.0
128.756271 100.0
129.052292 140.0
129.615906 288.0
129.690704 68.0
129.808594 208.0
130.196655 128.0
130.771866 148.0
130.885696 172.0
130.962631 192.0
130.985901 128.0
131.099823 200.0
131.119217 188.0
131.125565 96.0
131.186432 140.0
131.211517 120.0
131.250275 100.0
131.378006 144.0
131.471558 164.0
131.517197 128.0
131.791245 176.0
131.81041 72.0
131.916946 204.0
131.942093 184.0
132.058716 232.0
132.157089 108.0
132.404312 164.0
133.04866 144.0
133.099167 180.0
133.450729 244.0
134.062057 228.0
134.083771 148.0
134.15062 52.0
134.286667 144.0
134.462296 228.0
134.89856 108.0
135.058121 208.0
135.294159 184.0
135.444687 204.0
135.612961 248.0
135.836426 180.0
135.92923 160.0
135.977966 148.0
136.054153 348.0
136.076584 156.0
136.46402 208.0
136.896286 124.0
137.054626 184.0
137.087311 140.0
137.258621 260.0
137.364761 108.0
137.479095 124.0
137.504761 172.0
137.544449 152.0
137.815353 200.0
138.039749 116.0
138.088867 160.0
138.158035 176.0
138.367325 124.0
138.484421 172.0
138.882889 100.0
138.955597 144.0
139.075287 328.0
139.09407 140.0
139.54747 184.0
139.705048 176.0
139.987503 180.0
140.145325 132.0
140.187729 116.0
140.206589 180.0
140.532013 136.0
140.559753 216.0
140.770416 216.0
140.91214 228.0
140.997208 220.0
141.377975 180.0
141.415833 112.0
141.564987 140.0
141.628937 160.0
141.726074 116.0
141.880127 128.0
142.487686 144.0
142.582748 168.0
142.689148 220.0
142.863327 124.0
143.301392 92.0
143.339508 156.0
143.463455 216.0
143.635147 248.0
143.670929 160.0
143.687637 196.0
144.039993 216.0
144.124573 160.0
144.373169 68.0
144.528671 48.0
144.578918 204.0
144.947708 160.0
145.050766 132.0
145.117889 232.0
145.201828 176.0
145.307938 116.0
145.489761 180.0
145.780396 188.0
145.941452 124.0
146.049683 208.0
146.114624 164.0
146.141098 48.0
146.179596 212.0
146.393845 140.0
146.432373 168.0
146.598618 220.0
146.6203 212.0
146.649231 112.0
146.680557 196.0
146.822815 172.0
146.839691 196.0
147.067261 472.0
147.18721 184.0
147.465027 152.0
147.506119 116.0
147.561722 120.0
147.631851 96.0
147.657898 88.0
147.67215 204.0
147.755203 104.0
148.004501 184.0
148.048035 144.0
148.169205 192.0
148.227356 68.0
148.346115 120.0
148.479477 80.0
148.627457 164.0
148.702698 180.0
148.74353 136.0
148.836212 76.0
148.907898 100.0
148.930923 84.0
148.974655 96.0
149.012024 284.0
149.059128 22260.0
149.119919 164.0
149.137466 48.0
149.181213 72.0
149.210388 68.0
149.244431 48.0
149.314941 120.0
149.363785 52.0
149.421982 48.0
149.446854 108.0
149.58017 120.0
149.645889 84.0
149.72139 60.0
149.740875 96.0
149.838303 88.0
149.936462 132.0
149.994278 220.0
150.06189 2472.0
150.096664 108.0
150.264969 84.0
150.291809 64.0
150.465103 96.0
150.562775 160.0
150.680023 168.0
150.858429 212.0
151.065903 548.0
151.10054 120.0
151.127457 220.0
151.16333 184.0
151.203323 156.0
151.340408 120.0
151.426117 56.0
151.58046 44.0
151.849503 172.0
152.079758 144.0
152.127411 96.0
152.147049 184.0
152.291931 80.0
152.631073 120.0
153.049377 136.0
153.312958 144.0
153.438675 168.0
153.549637 192.0
154.270645 108.0
154.411591 132.0
154.958664 148.0
155.013184 152.0
155.412399 164.0
155.521591 192.0
155.59111 140.0
155.645737 192.0
155.914017 136.0
156.162643 136.0
156.443832 108.0
156.51355 140.0
156.962067 100.0
157.356308 64.0
157.588577 56.0
157.636063 200.0
157.958588 116.0
158.083679 188.0
158.191315 92.0
158.534454 160.0
158.642227 188.0
158.755905 180.0
159.036057 172.0
159.133972 148.0
159.257019 252.0
159.407761 120.0
159.586227 96.0
159.779892 156.0
159.993805 56.0
160.064316 152.0
160.447296 132.0
160.62886 144.0
160.669235 184.0
160.779984 184.0
161.133774 100.0
161.300568 176.0
161.36882 204.0
161.451996 184.0
161.662247 192.0
161.859085 132.0
161.900208 128.0
162.053833 268.0
162.298065 188.0
162.546646 40.0
162.777649 160.0
162.891937 84.0
163.06134 228.0
163.405472 76.0
163.479263 56.0
163.807709 220.0
163.830643 136.0
164.04216 208.0
164.064484 168.0
164.233398 116.0
164.299728 136.0
164.325241 112.0
164.353302 180.0
164.37883 48.0
164.437531 108.0
165.045532 308.0
165.089005 288.0
165.388336 76.0
165.562439 72.0
165.690521 136.0
165.762268 68.0
165.849396 128.0
166.013489 40.0
166.08757 348.0
166.157135 164.0
166.239243 132.0
166.984268 124.0
167.202957 156.0
167.7052 40.0
167.973373 112.0
168.301132 132.0
168.469009 164.0
168.525848 220.0
168.797256 116.0
168.864502 192.0
169.275986 172.0
169.309662 180.0
169.410675 164.0
169.439178 120.0
169.649094 112.0
169.76059 164.0
169.830612 40.0
169.968109 96.0
170.079712 176.0
170.25885 164.0
170.451096 68.0
170.843689 124.0
170.921753 92.0
170.979004 212.0
171.301865 220.0
172.745468 116.0
172.818726 108.0
172.86058 184.0
172.978363 84.0
173.062149 124.0
173.135468 208.0
174.053299 120.0
174.273941 160.0
174.313354 76.0
174.655136 224.0
174.799835 100.0
174.928802 56.0
174.978821 132.0
175.060364 400.0
175.137238 152.0
175.258011 152.0
175.429321 208.0
176.070496 340.0
176.456299 88.0
176.548843 188.0
177.075043 188.0
177.385529 272.0
177.409393 80.0
177.473022 128.0
177.714386 148.0
177.836472 120.0
178.038239 176.0
178.086426 816.0
178.564468 60.0
178.71077 56.0
178.952988 132.0
178.98494 180.0
179.05571 676.0
179.118103 184.0
179.203354 48.0
179.416565 56.0
179.443237 84.0
179.613907 152.0
179.728622 204.0
179.763321 124.0
179.955505 128.0
180.054306 168.0
180.107727 56.0
180.153137 228.0
180.513962 292.0
180.64769 160.0
181.04837 580.0
181.325134 128.0
181.536926 128.0
182.009216 120.0
183.556473 148.0
183.596924 176.0
183.640076 288.0
183.791153 144.0
184.07457 164.0
184.263657 112.0
184.579895 184.0
184.85495 112.0
185.053406 272.0
185.134644 256.0
185.207779 184.0
185.335098 164.0
185.535675 176.0
185.649551 68.0
185.692947 188.0
185.720062 108.0
185.798737 128.0
185.880127 160.0
186.472168 88.0
186.602646 188.0
186.665192 100.0
186.686935 128.0
186.773972 148.0
186.852875 204.0
186.931778 148.0
187.067856 116.0
187.288437 76.0
187.378326 172.0
187.445114 188.0
187.48732 116.0
187.544556 48.0
187.590897 148.0
188.030045 132.0
188.092819 148.0
188.152878 184.0
188.622589 124.0
188.972809 200.0
189.082275 140.0
189.377975 168.0
189.536865 140.0
189.572495 196.0
189.643738 92.0
190.027664 128.0
190.050827 128.0
190.086243 8696.0
190.132767 220.0
190.560318 156.0
190.579544 188.0
190.70607 112.0
190.731781 152.0
190.79393 28.0
190.997421 168.0
191.089264 1736.0
191.20929 208.0
191.24231 168.0
191.298157 112.0
191.374451 208.0
191.421265 92.0
191.649902 144.0
191.732559 132.0
192.068085 376.0
192.095184 312.0
192.270355 112.0
192.297958 88.0
192.463593 72.0
192.516068 52.0
192.638885 180.0
192.79509 144.0
192.996872 148.0
193.096436 212.0
193.220917 172.0
193.267944 216.0
193.298386 56.0
193.600128 212.0
193.946457 192.0
194.080444 4064.0
194.287537 84.0
194.340256 116.0
194.404083 48.0
194.451263 88.0
194.742783 196.0
194.867798 240.0
195.080399 616.0
195.111649 292.0
195.151306 196.0
195.173538 124.0
195.312592 148.0
195.332077 108.0
195.794113 244.0
196.090256 188.0
196.11731 188.0
196.382187 160.0
196.468658 184.0
196.867813 60.0
197.639328 156.0
197.832443 100.0
198.106888 88.0
198.137711 136.0
198.210556 152.0
198.317047 172.0
198.445999 152.0
198.603043 120.0
198.633896 148.0
198.925751 176.0
198.993118 120.0
199.02681 140.0
199.054901 140.0
199.307709 140.0
199.341431 184.0
199.459473 188.0
199.802551 144.0
199.905685 208.0
200.205063 260.0
200.233231 180.0
200.398697 184.0
200.59108 172.0
201.000031 208.0
201.395279 104.0
201.824829 140.0
202.263351 112.0
202.47287 80.0
202.79303 80.0
202.832703 48.0
202.886566 224.0
202.929092 60.0
203.055328 356.0
203.417068 44.0
203.570374 168.0
203.672623 172.0
203.928345 148.0
204.061966 176.0
204.113144 184.0
204.303696 176.0
204.77623 144.0
205.08873 200.0
205.437531 120.0
205.537399 88.0
206.079376 788.0
206.232803 224.0
206.992371 116.0
207.054398 216.0
207.27597 140.0
207.749039 188.0
208.057861 168.0
208.081955 140.0
208.521454 176.0
208.757202 168.0
208.854996 108.0
209.090927 136.0
209.180145 144.0
209.229095 176.0
209.275162 152.0
209.568939 80.0
210.021561 152.0
210.558395 124.0
210.757721 88.0
210.870438 168.0
210.948471 180.0
211.193008 220.0
211.388107 152.0
212.167252 144.0
212.205215 208.0
212.759079 128.0
212.88974 148.0
213.389542 196.0
214.189835 80.0
214.283066 44.0
214.323853 64.0
214.689255 148.0
214.854492 40.0
215.041245 208.0
215.175522 68.0
215.286484 160.0
215.420837 204.0
215.455902 200.0
215.540634 148.0
215.602005 104.0
215.892471 224.0
215.985016 208.0
216.069855 112.0
216.104965 84.0
216.268845 140.0
216.295181 68.0
216.456207 96.0
216.546997 212.0
216.631943 80.0
216.804214 232.0
216.869293 104.0
216.948441 168.0
216.998291 152.0
217.021744 80.0
217.069199 152.0
217.130234 88.0
217.17424 84.0
217.23584 44.0
217.270065 84.0
217.350616 164.0
217.417755 132.0
217.486618 216.0
217.520477 60.0
217.564514 176.0
217.596817 76.0
217.642181 168.0
217.661407 204.0
217.708939 172.0
217.756531 204.0
217.802567 172.0
217.834686 224.0
217.878098 168.0
217.935837 200.0
217.976929 344.0
218.001877 436.0
218.020996 284.0
218.081467 133096.0
218.180023 276.0
218.225739 164.0
218.256439 80.0
218.284882 116.0
218.335175 204.0
218.371536 168.0
218.407394 116.0
218.439667 108.0
218.465546 152.0
218.565536 376.0
218.608032 84.0
218.669678 136.0
218.70694 76.0
218.754395 244.0
218.803497 120.0
218.851822 52.0
218.876984 72.0
218.921219 88.0
218.950668 172.0
218.976501 44.0
219.007141 232.0
219.084167 15760.0
219.142715 136.0
219.202805 100.0
219.232285 116.0
219.263412 92.0
219.287323 148.0
219.339203 164.0
219.370148 72.0
219.391846 176.0
219.429626 104.0
219.479889 56.0
219.535919 88.0
219.576309 104.0
219.597855 132.0
219.62146 72.0
219.705444 136.0
219.760101 68.0
219.819122 44.0
219.881165 100.0
219.922424 88.0
219.94899 52.0
219.992142 52.0
220.086197 1876.0
220.166122 88.0
220.242355 124.0
220.266907 36.0
220.324509 128.0
220.349457 316.0
220.396194 140.0
220.444504 36.0
220.470383 148.0
220.527924 52.0
220.573944 156.0
220.591553 100.0
220.61293 96.0
220.660995 128.0
220.702118 220.0
220.76947 132.0
220.805832 116.0
220.826538 48.0
220.870911 168.0
221.03067 124.0
221.051392 72.0
221.075058 144.0
221.119446 56.0
221.163849 80.0
221.222198 112.0
221.332596 52.0
221.364899 44.0
221.397751 48.0
221.437775 124.0
221.504379 36.0
221.545853 132.0
221.616959 108.0
221.658432 76.0
221.759201 104.0
221.782913 52.0
222.014175 52.0
222.076263 1396.0
222.233673 136.0
222.331604 64.0
222.506729 76.0
222.560181 96.0
222.589874 116.0
222.643326 72.0
223.075607 172.0
223.273376 56.0
223.654221 40.0
223.880493 60.0
223.987717 64.0
225.010605 52.0
225.076294 52.0
225.88623 56.0
226.724594 96.0
226.877457 60.0
227.699631 108.0
227.765717 76.0
227.843826 128.0
228.27063 112.0
229.02002 96.0
229.339417 48.0
229.707291 80.0
229.900391 44.0
229.999985 92.0
230.18718 48.0
230.646393 96.0
231.117966 164.0
231.190811 44.0
231.387558 88.0
231.554108 96.0
232.120819 60.0
232.314926 116.0
232.542511 148.0
232.578934 40.0
233.041977 68.0
233.694244 164.0
233.718597 76.0
234.382401 100.0
234.839691 120.0
235.279099 100.0
236.530106 68.0
237.096039 92.0
239.178467 64.0
241.121628 128.0
241.529755 40.0
246.147186 2188.0
246.204376 52.0
246.801224 56.0
247.148987 632.0
247.214142 52.0
248.144379 316.0
248.696564 68.0
249.733444 28.0
250.12677 140.0
252.483704 96.0
261.99295 40.0
271.546753 68.0
273.047699 108.0
273.129944 148.0
273.159546 120.0
281.869476 68.0
282.658661 68.0
288.1427 76.0
289.151428 132.0
289.604095 36.0
290.161072 276.0
292.034332 104.0
293.46463 104.0
297.556671 92.0
301.569916 52.0
304.469818 40.0
307.383606 104.0
317.145691 932.0
317.668091 64.0
317.941315 132.0
318.148956 192.0
325.233154 100.0
326.505035 100.0
341.350647 88.0
342.248505 84.0
344.143707 72.0
347.589813 48.0
355.092133 120.0
359.259918 112.0
359.784485 112.0
361.231842 60.0
365.157715 80.0
369.946503 84.0
372.031982 52.0
384.363464 100.0
390.262451 144.0
392.652771 60.0
396.016235 96.0
397.320404 52.0
398.968536 72.0
417.770569 112.0
424.165527 112.0
424.522217 176.0
429.251312 104.0
432.188202 112.0
435.205719 64.0
439.071594 112.0
443.683746 104.0
469.017853 96.0
471.819489 84.0
474.039917 72.0
479.193298 148.0
488.21936 84.0
498.622131 60.0
498.839935 72.0
501.635498 68.0
503.112122 96.0
504.224335 104.0
515.766724 64.0
517.993042 56.0
520.432922 104.0
527.448853 196.0
530.085022 52.0
535.828552 100.0
536.330872 20.0
545.644958 52.0
557.541321 88.0
569.537476 28.0
571.367676 56.0
585.146667 104.0
589.371826 80.0
597.196289 76.0
617.215637 84.0
629.854065 104.0
675.256653 56.0
731.982117 76.0
767.809998 56.0
806.114868 108.0
826.020142 164.0
849.169922 84.0
874.510254 56.0
886.819214 128.0
914.413513 136.0
920.073669 208.0
920.846619 168.0
944.099426 196.0
948.421875 80.0
1024.77063 100.0
1025.656494 180.0
1031.893433 264.0
1042.469727 60.0
1061.286133 84.0
1062.479492 156.0
1063.881226 40.0
1104.32605 132.0
1108.735352 156.0
1113.950439 172.0
1117.680176 168.0
1132.319946 104.0
1139.611694 200.0
1144.562134 204.0
1147.142578 196.0
1155.428711 44.0
1158.834229 196.0
1164.383057 160.0
1173.031006 136.0
1173.77417 228.0
1184.956299 108.0
1196.466919 208.0
1211.556641 204.0
1213.663574 60.0
1214.516602 44.0
1214.794067 144.0
1217.146851 176.0
1227.717163 72.0
1228.728638 272.0
1250.296509 184.0
1256.610229 168.0
1265.133301 144.0
1269.61853 200.0
1273.394165 84.0
1280.449341 168.0
1286.424561 168.0
1288.459839 112.0
1291.712524 192.0
1293.42981 40.0
1295.126831 172.0
1296.144165 140.0
1300.626465 228.0
1300.970947 152.0
1304.455078 160.0
1305.936279 148.0
1309.830322 200.0
1311.321777 168.0
1315.000122 192.0
1318.502808 136.0
1320.042725 180.0
1322.545898 200.0
1327.776978 56.0
1332.560547 176.0
1334.886475 120.0
1339.573608 132.0
1342.357788 88.0
1343.780151 84.0
1345.166748 92.0
1345.728882 200.0
1346.276489 32.0
1346.597778 232.0
1347.956665 104.0
1348.146606 60.0
1349.630493 116.0
1351.063965 100.0
1352.490967 140.0
1359.182007 192.0
1361.369507 188.0
1364.484985 116.0
1366.971069 236.0
1368.538818 56.0
1369.1427 144.0
1370.763306 176.0
1378.452393 176.0
1395.32959 152.0
1396.556641 164.0
1404.280273 220.0
1404.615967 212.0
1408.990479 236.0
1409.364014 160.0
1420.114136 168.0
1425.947754 220.0
1430.633911 204.0
1430.980225 160.0
1431.130859 204.0
1440.913086 180.0
1441.963379 148.0
1442.62854 176.0
1445.34375 172.0
1449.990479 52.0
1452.921875 172.0
1462.890747 148.0
1466.72229 148.0
1469.48291 156.0
1473.514038 160.0
1475.646362 164.0
1482.696411 164.0
1487.090942 36.0
1487.436401 148.0
1487.8125 116.0
1488.526611 44.0
1490.92334 88.0
1494.491333 136.0
1495.50708 156.0
1495.668701 56.0
1496.85437 232.0
1496.939087 188.0
1498.325439 96.0
1498.78772 56.0
1500.390869 100.0
