>compound MLS001076086-01!11BETA,17,21-TRIHYDROXYPREGN-4-ENE-3,20-DIONE 17-BUTYRATE
>formula C25H36O6
>ionization [M+H]+
>parentmass 433.2584653240905
#inchi InChI=1S/C25H36O6/c1-4-5-21(30)31-25(20(29)14-26)11-9-18-17-7-6-15-12-16(27)8-10-23(15,2)22(17)19(28)13-24(18,25)3/h12,17-19,22,26,28H,4-11,13-14H2,1-3H3/t17-,18-,19-,22+,23-,24-,25-/m0/s1
#inchikey BMCQMVFGOVHVNG
#Ion_Source LC-ESI
#Instrument qTof
#Compound_Source NIH Pharmacologically Active Library
#PI Dorrestein
#Data_Collector VP/LMS
#Scan -1
#Precursor_MZ 433.258
#ExactMass 432.251
#Charge 1
#CAS_Number N/A
#Pubmed_ID N/A
#Smiles CCCC(=O)O[C@@]1(CC[C@H]2[C@@H]3CCC4=CC(=O)CC[C@]4(C)[C@H]3[C@@H](O)C[C@@]21C)C(=O)CO
#INCHI_AUX N/A
#Library_Class 1
#SpectrumID CCMSLIB00000085040
#IonMode Positive
#UpdateWorkflowName UPDATE-SINGLE-ANNOTATED-GOLD
#LibraryQualityString Gold
#TaskID d252d724072548979f1f6f1ced849daf
##Scan# 2111
#SpectrumFile p3-E02_GE2_01_18271.mzXML
#LibraryName Pharm_Active_Library.mgf
#MQScore -1
#Organism Pharm_Active_Library
#TIC_Query 0
#RT_Query -1
#MZErrorPPM -1
#SharedPeaks 0
#MassDiff 0
#LibMZ -1
#SpecMZ 433.258
#SpecCharge 0
#internalFilename spec-00000.mgf

>collision 10
44.942074 216.0
45.011959 104.0
45.173687 104.0
45.224537 180.0
45.341064 160.0
45.430908 196.0
45.483246 156.0
45.508934 148.0
45.633717 180.0
45.6633 104.0
45.814068 184.0
45.930004 40.0
46.04147 184.0
46.160965 168.0
46.385723 168.0
46.403965 156.0
46.414196 68.0
46.426403 224.0
46.503738 152.0
46.540394 128.0
46.600159 136.0
46.693958 152.0
47.025497 148.0
47.141144 80.0
47.262852 140.0
47.565746 152.0
47.608311 180.0
47.666012 184.0
48.014317 192.0
48.081921 156.0
48.296089 228.0
48.399887 164.0
48.437283 172.0
48.510731 164.0
48.548168 140.0
48.593945 144.0
48.74947 236.0
49.206367 128.0
49.453808 172.0
49.532227 148.0
49.54343 92.0
49.628929 192.0
49.699066 128.0
49.982914 216.0
50.363579 176.0
50.693241 220.0
50.778305 216.0
50.82938 192.0
50.981335 100.0
51.200432 160.0
51.313007 148.0
51.425705 128.0
51.43998 204.0
51.471394 52.0
51.702988 180.0
51.721596 216.0
52.062843 144.0
52.11887 144.0
52.265541 160.0
52.408096 40.0
52.459984 148.0
52.483051 152.0
52.604244 152.0
52.650452 68.0
52.971565 212.0
53.02663 164.0
53.125233 164.0
53.212315 152.0
53.32272 196.0
53.539505 152.0
53.583202 184.0
53.650246 168.0
53.670658 148.0
53.777161 56.0
53.851627 204.0
54.119255 176.0
54.224529 260.0
54.306843 224.0
54.336182 144.0
54.412502 188.0
54.43306 88.0
54.637375 112.0
54.946774 172.0
54.96743 252.0
54.97776 148.0
54.993996 128.0
55.178658 104.0
55.569679 188.0
55.698841 64.0
55.768681 228.0
55.944214 128.0
56.054436 132.0
56.114059 68.0
56.210976 148.0
56.376781 60.0
56.73753 136.0
56.997196 144.0
57.165623 124.0
57.189705 124.0
57.209274 116.0
57.248421 84.0
57.323746 200.0
57.473034 184.0
57.560589 164.0
57.741943 144.0
57.819103 192.0
57.903889 120.0
58.155586 200.0
58.45195 208.0
58.48391 120.0
58.616413 120.0
58.707882 168.0
58.839111 192.0
59.027054 52.0
59.103539 156.0
59.383896 164.0
59.414577 180.0
59.552738 128.0
59.694134 144.0
59.755661 128.0
59.929653 148.0
60.284573 184.0
60.431477 180.0
60.572361 156.0
60.834442 92.0
60.84531 136.0
60.887238 140.0
60.960255 140.0
61.107979 108.0
61.202927 160.0
61.302624 124.0
61.363419 156.0
61.485096 152.0
61.561592 200.0
61.616264 144.0
61.846149 104.0
61.883724 168.0
61.973003 144.0
62.001213 196.0
62.032562 260.0
62.071758 52.0
62.242805 116.0
62.431385 208.0
62.535225 132.0
62.656479 172.0
62.722672 164.0
62.743164 76.0
62.76997 48.0
62.799934 112.0
62.825172 128.0
62.874092 52.0
62.994095 108.0
63.088917 192.0
63.126865 52.0
63.415012 100.0
63.454319 176.0
63.541878 192.0
63.722878 216.0
63.772144 188.0
63.804092 204.0
63.878685 180.0
64.084763 288.0
64.125496 128.0
64.211594 208.0
64.375977 88.0
64.401535 168.0
64.439873 156.0
64.481422 92.0
64.650955 168.0
64.718185 180.0
64.777451 112.0
64.847954 192.0
64.892838 56.0
64.904068 60.0
65.056488 156.0
65.107872 84.0
65.157669 232.0
65.204269 140.0
65.44075 36.0
65.458458 184.0
65.563179 216.0
65.587349 208.0
65.729279 172.0
65.742188 204.0
66.350395 244.0
66.705933 220.0
66.800255 176.0
66.904411 184.0
66.932091 144.0
67.088501 124.0
67.240204 128.0
67.295708 144.0
67.3349 136.0
67.552307 156.0
67.580116 44.0
67.702888 152.0
67.968468 216.0
68.00293 160.0
68.089951 72.0
68.114586 104.0
68.214828 200.0
68.285538 200.0
68.400719 144.0
68.471519 200.0
68.600044 164.0
68.771599 72.0
68.794716 168.0
68.910683 220.0
68.930153 60.0
69.050835 204.0
69.189842 64.0
69.513062 136.0
69.539619 44.0
69.609344 148.0
69.630936 164.0
69.765549 176.0
69.845459 192.0
69.861992 120.0
70.133423 124.0
70.519005 124.0
70.781662 148.0
70.798409 184.0
70.841957 148.0
70.905632 140.0
70.962631 228.0
71.016296 108.0
71.069977 220.0
71.133759 144.0
71.269798 144.0
71.289963 220.0
71.39756 188.0
71.468208 152.0
71.783211 164.0
71.94857 188.0
72.002609 144.0
72.019501 140.0
72.051598 176.0
72.29509 168.0
72.416992 188.0
72.577583 232.0
72.859741 212.0
72.956619 220.0
73.094391 132.0
73.283401 204.0
73.474358 176.0
73.578468 152.0
73.595543 152.0
73.638237 156.0
73.682648 152.0
73.703156 136.0
73.898079 168.0
74.086411 296.0
74.175217 220.0
74.237251 204.0
74.293854 68.0
74.317879 152.0
74.364212 156.0
74.714767 200.0
74.756065 120.0
74.892082 128.0
74.916199 188.0
75.112724 148.0
75.243881 308.0
75.380341 84.0
75.50135 216.0
75.558441 204.0
75.715965 176.0
75.750603 164.0
76.07663 140.0
76.139145 80.0
76.198204 192.0
76.295532 144.0
76.332047 200.0
76.415543 172.0
76.709869 172.0
76.729042 212.0
76.749969 180.0
76.82148 204.0
77.350983 204.0
77.417519 200.0
77.4543 148.0
77.624306 108.0
77.799767 228.0
77.824348 80.0
77.98246 260.0
78.054535 124.0
78.066849 164.0
78.109062 152.0
78.149521 160.0
78.302681 156.0
78.369621 148.0
78.609444 104.0
78.876137 112.0
79.153915 116.0
79.878052 156.0
79.915413 172.0
79.997284 184.0
80.072075 160.0
80.132637 68.0
80.460815 144.0
80.600868 120.0
81.063606 168.0
81.138893 132.0
81.440376 92.0
81.641678 204.0
81.767616 200.0
81.918869 176.0
81.956703 128.0
81.996353 76.0
82.157478 168.0
82.335541 236.0
82.409599 128.0
82.513107 196.0
82.623589 204.0
82.996063 64.0
83.039589 164.0
83.139374 140.0
83.428192 48.0
83.668335 108.0
83.748466 172.0
83.972656 192.0
84.000015 112.0
84.027382 176.0
84.200798 172.0
84.352455 152.0
84.390854 188.0
84.533531 44.0
84.685493 108.0
84.714798 184.0
84.859589 160.0
84.978806 148.0
85.279984 128.0
85.320427 204.0
85.515419 124.0
85.666412 68.0
85.708786 208.0
85.762238 220.0
85.808319 128.0
86.061104 220.0
86.144211 252.0
86.195946 196.0
86.374763 156.0
86.568504 244.0
86.678925 208.0
86.779015 100.0
86.816101 204.0
86.834648 48.0
86.875458 40.0
86.998451 248.0
87.070366 128.0
87.1744 52.0
87.338013 36.0
87.351036 220.0
87.386383 128.0
87.425461 180.0
87.499916 176.0
87.673149 144.0
87.721619 184.0
87.850288 164.0
87.971596 168.0
88.096718 236.0
88.216324 216.0
88.28363 184.0
88.339745 160.0
88.498833 84.0
88.52317 108.0
88.620583 184.0
88.746162 188.0
88.839943 160.0
88.928139 212.0
89.208023 100.0
89.558029 152.0
89.733292 176.0
89.776657 164.0
89.791748 120.0
89.825699 184.0
89.838905 116.0
89.886078 136.0
90.356567 48.0
90.526924 168.0
90.75811 260.0
90.959213 116.0
91.054024 888.0
91.084541 168.0
91.466759 116.0
91.495316 164.0
91.542915 192.0
91.592438 220.0
91.910828 228.0
91.981445 220.0
92.057816 228.0
92.181992 64.0
92.319633 132.0
92.352142 212.0
92.60672 216.0
92.748512 220.0
92.777718 204.0
92.846298 164.0
92.936455 144.0
92.992111 200.0
93.067909 236.0
93.124596 96.0
93.22554 176.0
93.382149 152.0
93.572662 52.0
93.643913 224.0
93.6651 248.0
93.695923 172.0
93.767227 72.0
93.852043 112.0
93.877113 184.0
93.983208 92.0
94.039177 180.0
94.0662 104.0
94.081642 176.0
94.297997 172.0
94.32119 212.0
94.470093 192.0
94.510719 220.0
94.671394 76.0
94.721756 132.0
94.75856 84.0
94.936897 220.0
95.031944 160.0
95.04747 236.0
95.084297 172.0
95.113457 192.0
95.247444 176.0
95.33876 28.0
95.37764 84.0
95.395134 180.0
95.422348 48.0
95.663589 104.0
95.690849 96.0
95.725899 176.0
95.745377 112.0
95.770691 132.0
95.899292 104.0
96.027977 184.0
96.119675 76.0
96.467331 228.0
96.680534 180.0
96.770584 124.0
96.786621 124.0
96.845001 144.0
97.064728 1868.0
97.176308 112.0
97.266579 224.0
97.286209 240.0
97.382431 132.0
97.427612 160.0
97.645805 204.0
97.787468 204.0
97.866211 172.0
98.013947 164.0
98.067368 172.0
98.524971 144.0
98.726593 128.0
98.748344 52.0
98.827477 156.0
98.968712 136.0
99.040245 188.0
99.09874 108.0
99.255333 208.0
99.658279 156.0
99.672188 80.0
99.696037 160.0
99.739761 140.0
100.050095 104.0
100.386841 192.0
100.598335 136.0
100.712158 204.0
100.80806 208.0
100.955994 120.0
101.23011 156.0
101.62104 204.0
101.803711 204.0
101.8479 120.0
102.020714 144.0
102.040825 188.0
102.179596 200.0
102.213806 160.0
102.22789 180.0
102.336594 228.0
102.465492 132.0
102.525948 204.0
102.758369 184.0
103.000099 244.0
103.024345 88.0
103.053833 524.0
103.22242 144.0
103.275009 156.0
103.297256 56.0
103.323555 152.0
103.426765 176.0
103.574585 156.0
103.698181 232.0
103.868507 176.0
104.061081 232.0
104.110039 156.0
104.233124 136.0
104.585808 116.0
104.701859 96.0
104.791496 168.0
104.877083 140.0
104.930092 136.0
105.040657 148.0
105.069839 3472.0
105.107544 76.0
105.176933 160.0
105.218582 100.0
105.279022 64.0
105.360725 144.0
105.426109 40.0
105.518097 44.0
105.583534 60.0
105.72879 148.0
105.896675 204.0
105.972473 208.0
105.990913 216.0
106.044205 64.0
106.072899 92.0
106.306717 200.0
106.421669 160.0
106.709122 160.0
106.904739 180.0
106.923264 172.0
106.956192 124.0
106.995308 192.0
107.01178 44.0
107.047829 488.0
107.084213 1352.0
107.16008 68.0
107.357964 108.0
107.459045 152.0
107.501381 176.0
107.688187 144.0
107.712975 188.0
107.785286 108.0
107.84935 84.0
107.909622 132.0
108.060295 128.0
108.086571 188.0
108.090706 132.0
108.343933 148.0
108.370872 180.0
108.683968 140.0
108.725471 192.0
109.045151 152.0
109.063255 1428.0
109.10144 452.0
109.12941 200.0
109.240776 108.0
109.332329 132.0
109.486389 112.0
109.513466 44.0
109.625969 228.0
109.753128 168.0
109.826126 44.0
110.066132 148.0
110.107895 164.0
110.565765 140.0
110.616722 168.0
110.722786 200.0
110.854767 176.0
110.869438 196.0
110.980545 136.0
111.007805 152.0
111.025757 200.0
111.080093 528.0
111.56842 68.0
112.143105 80.0
112.2211 196.0
112.451042 148.0
112.489037 140.0
112.575607 152.0
112.721367 48.0
112.7425 156.0
112.808029 136.0
112.848198 140.0
113.053818 216.0
113.262993 108.0
113.434639 132.0
113.56823 228.0
113.619141 204.0
113.973717 196.0
114.145905 168.0
114.195732 148.0
114.339493 156.0
114.501305 152.0
114.720779 196.0
114.90419 128.0
114.957535 148.0
114.972473 160.0
115.052155 612.0
115.073822 104.0
115.132591 128.0
115.194534 196.0
115.29615 244.0
115.378319 172.0
115.498077 164.0
115.538727 156.0
115.566536 172.0
115.909142 136.0
116.05751 148.0
116.076347 172.0
116.233757 136.0
116.271568 192.0
116.54644 128.0
116.576523 96.0
116.703354 184.0
116.737755 140.0
116.789375 172.0
117.069084 1316.0
117.099319 212.0
117.135941 136.0
117.174721 192.0
117.513222 316.0
117.78524 80.0
118.072029 584.0
118.14193 36.0
118.183037 160.0
118.360535 160.0
118.490494 184.0
118.559837 144.0
118.698578 112.0
118.720261 84.0
118.937233 140.0
118.952423 164.0
119.00325 144.0
119.043617 156.0
119.085152 2100.0
119.17395 172.0
119.234795 52.0
119.306526 128.0
119.345665 92.0
119.441353 132.0
119.469635 56.0
119.606735 156.0
119.667686 132.0
119.896416 132.0
119.992332 164.0
120.088737 216.0
120.249741 168.0
120.315224 124.0
120.358894 288.0
120.38073 56.0
120.446259 168.0
120.743515 196.0
120.776321 236.0
120.928871 128.0
121.019241 180.0
121.064468 17452.0
121.099091 400.0
121.139702 76.0
121.233917 44.0
121.277138 100.0
121.285912 72.0
121.336945 56.0
121.358864 64.0
121.413689 160.0
121.622131 84.0
121.725319 148.0
121.782417 96.0
121.874687 196.0
121.890068 92.0
121.914238 76.0
122.066025 1992.0
122.116508 36.0
122.131905 156.0
122.193504 52.0
122.318947 128.0
122.343163 104.0
122.561211 180.0
122.728729 204.0
122.810326 104.0
122.89637 188.0
122.953743 92.0
122.984642 116.0
123.002304 100.0
123.036797 128.0
123.079109 4440.0
123.115005 188.0
123.141411 60.0
123.161293 60.0
123.196632 28.0
123.22094 68.0
123.291649 168.0
123.501694 52.0
123.603462 72.0
123.734055 160.0
123.897942 200.0
123.913452 172.0
123.979927 224.0
124.081932 932.0
124.130676 124.0
124.226051 148.0
124.299263 172.0
124.556808 92.0
124.656792 164.0
124.867989 84.0
125.059341 76.0
125.11499 104.0
125.150612 164.0
125.395668 168.0
125.484833 160.0
125.535912 172.0
125.756996 140.0
125.895416 68.0
126.150139 176.0
126.203796 80.0
126.335754 136.0
126.588676 192.0
126.613312 216.0
126.871185 192.0
127.055252 204.0
127.198524 44.0
127.365379 196.0
127.398392 116.0
127.598747 80.0
127.773842 104.0
127.992165 192.0
128.034958 76.0
128.06163 2220.0
128.156601 144.0
128.373001 76.0
128.511978 164.0
128.576035 52.0
128.716003 208.0
128.763428 132.0
128.842499 196.0
128.92836 132.0
129.069046 2512.0
129.537018 132.0
129.566467 104.0
129.711502 160.0
130.076004 936.0
130.162994 40.0
130.185699 140.0
130.469727 140.0
130.572052 152.0
130.724487 180.0
130.944092 216.0
130.990875 72.0
131.018219 192.0
131.046646 404.0
131.085602 2520.0
131.182297 180.0
131.303146 168.0
131.405792 56.0
131.47197 192.0
131.745972 64.0
132.052338 324.0
132.091278 340.0
132.233032 60.0
132.700363 156.0
132.739334 160.0
132.759979 168.0
132.91597 256.0
133.060333 412.0
133.100815 1640.0
133.228226 176.0
133.283371 200.0
133.430481 56.0
133.550049 172.0
133.628265 64.0
133.897598 136.0
133.914932 92.0
134.010483 48.0
134.026611 172.0
134.068542 480.0
134.102844 196.0
134.174118 128.0
134.20871 148.0
134.252518 172.0
134.304337 128.0
134.354889 116.0
134.776535 216.0
134.80658 116.0
134.942947 112.0
135.079803 1404.0
135.116333 464.0
135.280731 112.0
135.41272 176.0
135.581848 120.0
135.649063 76.0
135.730209 168.0
135.894897 172.0
136.08252 508.0
136.122375 156.0
136.196701 120.0
136.275696 388.0
136.426758 164.0
136.729141 112.0
136.787338 144.0
137.055832 112.0
137.073807 224.0
137.092194 524.0
137.211334 124.0
137.687363 104.0
137.801834 76.0
137.897644 80.0
137.95842 168.0
138.103394 80.0
138.185272 232.0
138.278885 116.0
138.461502 92.0
138.829453 120.0
138.845856 148.0
138.996002 172.0
139.073456 132.0
139.296524 196.0
139.550339 160.0
139.618546 152.0
139.660873 136.0
139.924438 152.0
139.966827 112.0
139.999802 160.0
140.268402 172.0
140.294327 176.0
140.388641 144.0
140.416946 152.0
140.466476 116.0
140.567932 124.0
140.636368 140.0
141.069 1824.0
141.139587 44.0
141.299515 136.0
141.352478 164.0
141.425842 196.0
141.674484 140.0
141.871185 224.0
141.916229 28.0
142.046127 140.0
142.076065 1592.0
142.124969 64.0
142.191422 56.0
142.476364 108.0
142.706909 48.0
142.81868 76.0
142.923355 172.0
142.963806 140.0
143.04776 140.0
143.085037 5440.0
143.17569 100.0
143.209854 124.0
143.273361 80.0
143.340073 52.0
143.433029 156.0
143.661957 124.0
143.857635 60.0
144.056183 172.0
144.089386 528.0
144.263763 124.0
144.345047 200.0
144.622574 136.0
144.656082 28.0
144.737488 152.0
144.809341 180.0
144.888382 92.0
144.91954 128.0
145.061737 388.0
145.100143 5216.0
145.159241 32.0
145.226395 136.0
145.291153 128.0
145.413544 60.0
145.711304 112.0
145.735336 100.0
145.807434 40.0
146.070236 480.0
146.104721 1396.0
146.218689 32.0
146.488373 52.0
146.883713 188.0
146.919907 132.0
146.975677 68.0
147.08046 1800.0
147.11525 5448.0
147.19989 156.0
147.337433 76.0
147.705017 176.0
148.084488 452.0
148.118317 864.0
148.632935 204.0
148.700882 148.0
148.754288 36.0
149.025238 164.0
149.094681 484.0
149.1315 696.0
149.167252 96.0
149.383682 200.0
149.449371 168.0
149.517517 184.0
149.575928 176.0
149.853561 48.0
149.936417 140.0
149.992477 144.0
150.09581 356.0
150.116821 112.0
150.136505 200.0
150.221695 180.0
150.248535 80.0
150.482834 164.0
150.580521 68.0
150.871307 100.0
150.898346 200.0
150.949539 124.0
151.02536 176.0
151.072906 428.0
151.101196 176.0
151.118317 168.0
151.424316 40.0
151.441467 156.0
151.703659 192.0
151.826263 132.0
151.882675 172.0
152.062744 228.0
152.555527 200.0
152.735031 92.0
152.826065 196.0
152.843292 56.0
153.040207 124.0
153.067505 484.0
153.185516 152.0
153.424561 132.0
153.565109 132.0
153.700806 128.0
153.77977 96.0
154.046463 132.0
154.076141 1220.0
154.382614 80.0
154.669617 112.0
154.716644 208.0
154.751312 132.0
154.89743 220.0
154.954407 116.0
155.023788 176.0
155.058136 196.0
155.085495 2336.0
155.313873 48.0
155.430481 136.0
155.562012 196.0
155.763168 144.0
156.057541 160.0
156.085648 580.0
156.277786 120.0
156.352448 80.0
156.409683 120.0
156.905441 60.0
156.935364 60.0
156.955307 240.0
157.064972 448.0
157.10083 3548.0
157.224731 160.0
157.274643 144.0
157.426941 36.0
157.57431 80.0
157.609299 80.0
157.864273 72.0
157.911789 160.0
158.014359 80.0
158.07196 624.0
158.107849 856.0
158.189545 44.0
158.30722 64.0
158.337265 64.0
158.389877 68.0
158.419937 228.0
158.685593 36.0
158.70816 36.0
158.84108 76.0
158.946457 40.0
159.009186 116.0
159.079971 1868.0
159.115417 2564.0
159.14534 204.0
159.187439 156.0
159.235703 72.0
159.2854 52.0
159.302979 120.0
159.388397 124.0
159.497574 64.0
159.529144 84.0
159.556808 72.0
160.002121 92.0
160.029816 152.0
160.089203 440.0
160.119324 812.0
160.339661 152.0
160.367386 124.0
160.422836 172.0
160.581696 164.0
160.783539 80.0
161.058395 144.0
161.068695 124.0
161.095551 1580.0
161.131149 848.0
161.185074 180.0
161.265411 132.0
161.303864 208.0
161.425217 72.0
161.468216 176.0
161.609879 220.0
161.637711 40.0
161.766785 56.0
161.880722 132.0
162.100281 464.0
162.128998 132.0
162.278549 80.0
162.372559 176.0
162.874939 52.0
163.070587 260.0
163.110443 3508.0
163.202789 68.0
163.246017 88.0
163.271454 56.0
163.658249 112.0
163.723236 100.0
163.920624 112.0
163.986877 124.0
164.116135 648.0
164.520004 96.0
164.949188 208.0
165.067383 532.0
165.097488 248.0
165.378922 96.0
165.458267 144.0
165.553009 180.0
165.634979 112.0
165.939941 240.0
166.01944 128.0
166.075119 660.0
166.234924 164.0
166.3992 224.0
166.779404 132.0
167.051987 156.0
167.083755 1812.0
167.131744 72.0
167.16777 120.0
167.39946 84.0
167.425201 212.0
167.49733 52.0
167.698303 48.0
167.736969 92.0
168.091766 740.0
168.562881 148.0
168.710205 96.0
168.919678 144.0
168.989532 44.0
169.009201 200.0
169.06955 180.0
169.09967 3708.0
169.232834 36.0
169.403763 64.0
169.535904 188.0
169.932648 68.0
170.067108 152.0
170.107651 940.0
170.133499 92.0
170.168839 48.0
170.479599 164.0
170.985077 192.0
171.018921 180.0
171.050156 184.0
171.079147 852.0
171.114777 2184.0
171.172516 132.0
171.26889 124.0
171.321243 80.0
171.391327 80.0
171.422607 156.0
171.508606 132.0
171.64679 76.0
171.704163 92.0
171.735458 76.0
172.06427 172.0
172.090622 340.0
172.119019 768.0
172.207886 56.0
172.353546 160.0
172.516235 88.0
172.777756 180.0
172.830078 196.0
172.879807 36.0
172.945236 36.0
173.052567 104.0
173.094666 2236.0
173.131149 1468.0
173.222794 36.0
173.254242 64.0
173.290924 72.0
173.343323 92.0
173.385254 68.0
173.636948 48.0
174.020065 160.0
174.099503 648.0
174.138016 228.0
174.411041 160.0
174.771805 132.0
174.813904 112.0
175.07605 196.0
175.110825 1528.0
175.139084 212.0
175.195694 28.0
175.251907 88.0
175.372253 104.0
175.598999 80.0
176.227295 132.0
176.507477 140.0
176.72438 120.0
176.888458 40.0
177.015549 96.0
177.087051 168.0
177.124115 280.0
177.500488 156.0
177.760452 124.0
178.075882 408.0
178.129501 184.0
178.767624 140.0
178.812866 124.0
179.085144 504.0
179.156372 60.0
179.188339 220.0
179.276276 160.0
179.556198 116.0
179.606873 180.0
179.828339 48.0
180.088593 664.0
180.191513 40.0
180.28772 192.0
180.402649 260.0
180.795837 184.0
181.007324 176.0
181.028748 152.0
181.065063 196.0
181.099304 1964.0
181.146606 156.0
181.240372 116.0
181.425308 40.0
181.454803 60.0
181.495026 40.0
181.701538 64.0
182.060669 188.0
182.108566 1176.0
182.389023 100.0
182.536896 96.0
182.695587 84.0
182.921646 88.0
183.07991 384.0
183.113708 2412.0
183.341827 156.0
183.382248 48.0
183.433472 136.0
184.083221 136.0
184.087463 112.0
184.123688 192.0
184.275482 72.0
184.721558 160.0
185.094681 1804.0
185.131134 1560.0
185.42511 144.0
185.618042 180.0
185.968018 104.0
186.006027 48.0
186.05217 180.0
186.071182 100.0
186.102402 208.0
186.137695 488.0
186.166214 132.0
186.554764 64.0
186.573792 128.0
186.606415 156.0
186.693436 132.0
187.110809 1524.0
187.142456 740.0
187.3358 116.0
187.564697 128.0
187.687393 72.0
188.116943 484.0
188.153946 204.0
188.260452 132.0
188.372437 100.0
188.915512 188.0
189.003998 100.0
189.092285 152.0
189.124557 676.0
189.162735 120.0
189.42836 88.0
189.611938 44.0
189.658539 116.0
189.763626 168.0
189.793167 188.0
189.828522 128.0
189.940964 60.0
190.069916 92.0
190.121597 156.0
190.316956 80.0
190.371872 160.0
190.514709 88.0
190.583389 184.0
190.698822 160.0
190.751038 180.0
191.080917 400.0
191.103699 488.0
191.127838 172.0
191.907349 148.0
192.017654 140.0
192.095703 524.0
192.37912 200.0
192.41777 76.0
192.909531 136.0
193.098999 1328.0
193.16394 96.0
193.269073 100.0
193.313354 68.0
193.573563 84.0
193.659424 32.0
193.714828 88.0
193.894928 76.0
194.075485 152.0
194.109283 1392.0
194.272034 196.0
194.482925 132.0
194.782822 76.0
194.818939 184.0
194.868942 136.0
195.073364 468.0
195.113907 1696.0
195.170441 76.0
195.252563 44.0
195.305405 108.0
195.394424 96.0
195.881607 88.0
196.09198 380.0
196.122299 540.0
196.185364 224.0
196.26622 136.0
196.47261 72.0
196.734955 56.0
197.028183 96.0
197.098404 976.0
197.130951 1712.0
197.576157 96.0
197.830826 180.0
198.099487 264.0
198.133499 648.0
198.489243 32.0
198.896057 200.0
199.075745 160.0
199.109467 848.0
199.147018 692.0
199.224609 52.0
199.494949 116.0
199.741562 76.0
199.800934 184.0
199.896606 80.0
200.08519 152.0
200.117889 496.0
200.149948 328.0
200.1922 132.0
200.244904 156.0
200.530273 92.0
200.778381 56.0
201.092255 80.0
201.128021 776.0
201.526443 128.0
201.608398 92.0
202.100433 64.0
202.148529 200.0
203.0466 108.0
203.091873 244.0
203.138779 128.0
203.35585 56.0
204.094482 208.0
204.151352 128.0
205.10202 544.0
205.118256 288.0
205.165024 180.0
205.210648 96.0
205.330414 64.0
205.458771 88.0
205.786987 88.0
205.904068 176.0
205.938339 84.0
206.105545 168.0
206.131638 128.0
206.162552 160.0
206.24408 64.0
206.598679 140.0
206.724564 104.0
206.787537 164.0
206.950699 176.0
206.982208 220.0
207.115692 1892.0
207.202759 44.0
207.271515 92.0
207.343155 52.0
207.620544 64.0
207.649933 132.0
208.002869 56.0
208.080383 136.0
208.121521 608.0
208.810272 152.0
209.043304 264.0
209.092285 408.0
209.131592 3224.0
209.43486 156.0
209.532806 236.0
209.599075 160.0
209.671112 32.0
209.772003 48.0
209.895981 80.0
210.066147 168.0
210.09761 348.0
210.136581 1080.0
210.195969 180.0
210.30275 48.0
210.348938 208.0
210.395126 68.0
210.707047 44.0
211.077011 164.0
211.108673 1108.0
211.144531 1108.0
211.346024 80.0
211.493622 84.0
211.534149 52.0
211.71077 172.0
211.733948 196.0
211.80925 104.0
212.11496 560.0
212.1521 656.0
212.275879 52.0
212.644318 40.0
212.772049 192.0
212.947678 124.0
213.024704 244.0
213.099609 168.0
213.124405 600.0
213.158783 220.0
213.466492 156.0
213.745758 172.0
214.092163 152.0
214.13176 316.0
214.170807 116.0
214.199936 112.0
214.229065 188.0
214.817932 68.0
215.079178 164.0
215.108429 132.0
215.140533 336.0
215.171066 144.0
215.331665 104.0
215.381332 112.0
215.562469 36.0
216.091476 144.0
216.293655 64.0
216.375626 204.0
217.096527 136.0
217.345795 48.0
217.624634 60.0
218.104401 520.0
218.450485 252.0
218.497559 108.0
219.114441 928.0
220.053741 84.0
220.077362 196.0
220.114731 288.0
221.040985 96.0
221.098236 280.0
221.130936 892.0
222.096863 256.0
222.136124 532.0
222.279648 60.0
222.327133 140.0
222.425079 56.0
222.647751 40.0
223.108795 264.0
223.14772 1832.0
223.813477 36.0
224.116547 568.0
224.154434 220.0
224.692749 100.0
224.958359 76.0
225.05986 256.0
225.126022 1488.0
225.161362 768.0
225.331665 60.0
225.525909 68.0
225.54982 128.0
225.57373 96.0
225.92662 148.0
226.091812 172.0
226.131226 416.0
226.167679 836.0
226.273788 84.0
226.522354 64.0
226.54332 84.0
226.76506 40.0
227.143478 800.0
227.174942 288.0
227.280869 56.0
227.355896 96.0
227.83934 92.0
227.941498 44.0
228.085754 104.0
228.141006 296.0
228.184967 52.0
228.464661 72.0
228.642197 148.0
228.804733 164.0
228.997467 100.0
229.063721 200.0
229.093857 140.0
229.120041 292.0
229.154053 604.0
230.104172 128.0
230.156952 176.0
230.971497 84.0
231.086456 192.0
231.113403 124.0
231.117203 312.0
231.131577 352.0
231.637451 140.0
232.127182 452.0
232.868958 72.0
233.131424 908.0
233.273102 48.0
233.343018 188.0
233.43425 80.0
233.984985 148.0
234.039795 56.0
234.102722 180.0
234.13858 572.0
234.768082 224.0
234.972458 148.0
235.002975 228.0
235.113846 444.0
235.147263 840.0
236.121277 296.0
236.144302 180.0
236.754547 128.0
236.965912 176.0
237.127594 480.0
237.160507 536.0
237.898239 72.0
238.126541 412.0
238.138504 248.0
238.169067 164.0
238.319016 88.0
238.574112 196.0
238.604843 32.0
238.906235 140.0
239.112213 188.0
239.141205 1196.0
239.17662 736.0
239.226288 52.0
239.321732 160.0
239.978027 164.0
240.144867 240.0
240.182999 484.0
240.328827 164.0
240.369766 52.0
240.493225 104.0
240.882294 76.0
240.928635 160.0
241.067673 200.0
241.123611 80.0
241.155548 468.0
241.850143 36.0
241.905869 100.0
242.134995 208.0
242.163162 412.0
242.742416 92.0
243.116348 164.0
243.164078 284.0
243.257462 60.0
243.487228 64.0
243.847626 56.0
244.132721 144.0
244.671967 36.0
245.039474 112.0
245.136963 480.0
245.173462 196.0
245.310608 196.0
245.928238 56.0
246.135712 136.0
247.043793 60.0
247.146744 668.0
247.657333 116.0
248.115936 128.0
248.156174 292.0
248.393967 132.0
249.021744 104.0
249.128952 224.0
249.159592 1472.0
249.442795 60.0
249.490814 72.0
249.848465 112.0
249.96489 44.0
250.129227 248.0
250.168427 472.0
250.415085 48.0
250.706467 132.0
251.140167 1168.0
251.177383 1108.0
251.405045 52.0
251.50116 256.0
252.113144 128.0
252.149414 672.0
252.216751 40.0
252.438065 104.0
252.526627 104.0
252.615189 104.0
252.665817 160.0
252.69429 184.0
252.830353 112.0
252.944305 112.0
253.036102 88.0
253.156723 4768.0
253.201385 152.0
253.297592 120.0
253.327469 40.0
253.363327 188.0
253.397171 48.0
253.479553 192.0
253.685562 88.0
253.725418 168.0
253.796539 44.0
253.863129 64.0
254.064011 96.0
254.157547 736.0
254.224777 40.0
254.50412 64.0
254.605743 92.0
254.716904 36.0
255.170883 196.0
255.537125 104.0
256.171722 60.0
256.189087 108.0
256.266235 56.0
256.314056 116.0
256.380981 48.0
256.46701 60.0
256.556274 160.0
256.722076 72.0
256.846466 60.0
257.149597 176.0
257.178314 144.0
257.325165 52.0
258.141846 288.0
259.149323 172.0
259.17392 164.0
260.168182 128.0
261.146484 224.0
261.1698 700.0
261.917572 152.0
262.173798 256.0
262.791229 196.0
263.139008 400.0
263.164734 412.0
263.747131 40.0
264.142914 304.0
264.185852 136.0
264.494354 164.0
265.156189 504.0
266.131561 280.0
266.165405 996.0
266.898376 176.0
266.960175 132.0
267.130463 292.0
267.170776 1732.0
267.215759 168.0
267.405884 196.0
267.457947 44.0
267.633759 204.0
267.853607 144.0
267.887787 176.0
268.089813 92.0
268.179565 3836.0
268.243011 76.0
268.28537 76.0
268.487549 104.0
268.595184 136.0
268.93454 36.0
269.045532 116.0
269.152863 464.0
269.188477 2416.0
269.489685 64.0
269.623688 108.0
269.649811 40.0
270.120667 232.0
270.154724 196.0
270.18457 216.0
270.313721 60.0
270.546112 96.0
270.62796 60.0
270.677063 64.0
271.07016 104.0
271.119324 156.0
271.168488 96.0
271.50946 32.0
271.624237 108.0
271.821106 80.0
272.021301 72.0
272.153564 212.0
272.183319 92.0
273.020172 76.0
273.167572 384.0
274.158997 368.0
274.808868 88.0
275.1362 156.0
275.35025 76.0
276.14325 284.0
276.580231 56.0
276.772247 92.0
277.156494 56.0
277.809631 56.0
278.16803 272.0
278.858948 68.0
279.091644 112.0
279.13678 300.0
279.14444 340.0
279.1745 1112.0
279.404297 64.0
279.623932 52.0
280.178192 396.0
280.223328 68.0
280.486603 52.0
280.946808 84.0
281.151154 628.0
281.190094 1088.0
282.160797 940.0
282.199188 252.0
282.373138 40.0
282.540375 48.0
282.577179 64.0
282.848267 32.0
283.164154 272.0
283.307037 64.0
283.638794 52.0
283.937195 104.0
284.175385 136.0
285.152588 156.0
285.17511 264.0
286.194733 368.0
287.196411 472.0
287.368408 68.0
287.401489 180.0
288.201569 160.0
289.200043 156.0
289.599579 100.0
291.175598 920.0
291.466003 108.0
291.90741 108.0
291.96521 84.0
292.175171 396.0
293.17038 104.0
293.466949 52.0
294.160889 400.0
295.154053 176.0
296.168335 260.0
296.584778 108.0
297.181976 1976.0
297.291321 44.0
297.878448 60.0
298.084595 96.0
298.185822 388.0
298.222046 152.0
298.741302 56.0
299.106049 132.0
299.163666 244.0
299.197021 76.0
299.57782 44.0
299.853485 88.0
299.925873 36.0
299.956909 72.0
301.178436 124.0
307.1698 80.0
307.236084 32.0
308.461853 28.0
309.028412 124.0
309.18512 1728.0
310.186554 388.0
310.608429 80.0
311.078644 36.0
311.138336 140.0
311.250671 52.0
311.721375 88.0
311.76355 120.0
311.893616 88.0
312.168579 388.0
312.375366 48.0
313.174408 152.0
315.188843 532.0
317.631744 96.0
319.614166 188.0
320.319122 180.0
320.953491 136.0
322.231323 84.0
326.047607 132.0
326.443085 68.0
326.795593 164.0
327.195404 1108.0
327.240784 64.0
327.710144 52.0
328.201813 248.0
328.781128 60.0
329.431061 40.0
332.458069 60.0
336.22113 72.0
336.524109 60.0
344.630585 144.0
345.207977 260.0
345.595642 204.0
345.640045 32.0
346.202454 280.0
348.302002 112.0
350.009064 140.0
357.251434 84.0
360.565857 44.0
361.280518 128.0
368.771729 100.0
369.727905 92.0
371.034088 168.0
372.162109 156.0
374.276917 132.0
380.591339 72.0
381.675446 92.0
383.17395 44.0
384.386597 48.0
397.502777 72.0
399.107574 108.0
403.357513 120.0
405.627228 48.0
405.803619 76.0
410.076874 88.0
430.419342 72.0
432.03125 60.0
433.262207 144.0
433.50943 56.0
434.255432 132.0
446.186371 92.0
448.674561 44.0
451.296478 72.0
468.785858 108.0
498.281128 72.0
514.98645 36.0
529.053284 84.0
543.287598 56.0
690.09082 200.0
703.171387 80.0
704.924744 92.0
713.192627 56.0
728.00293 108.0
748.612915 68.0
748.825317 80.0
761.432251 60.0
792.543945 56.0
798.595825 204.0
812.458313 32.0
834.677063 92.0
836.829102 212.0
839.7854 272.0
880.740234 104.0
881.437378 120.0
882.253052 200.0
883.370728 48.0
890.762939 184.0
892.980103 128.0
893.336975 68.0
893.902222 112.0
903.353149 156.0
913.431213 136.0
937.383362 132.0
943.811157 288.0
946.607605 232.0
956.283203 168.0
961.312256 200.0
963.547485 152.0
972.123413 64.0
976.036926 180.0
984.249756 140.0
986.448975 212.0
993.098999 128.0
999.89093 200.0
1002.107544 188.0
1008.810059 176.0
1013.64563 128.0
1023.739929 208.0
1030.290649 100.0
1035.580933 172.0
1048.366211 252.0
1052.740112 64.0
1054.432739 200.0
1055.12439 108.0
1057.317261 172.0
1063.312256 112.0
1068.836182 192.0
1070.079346 44.0
1072.405029 140.0
1073.917725 164.0
1074.250366 196.0
1078.69751 216.0
1089.333252 224.0
1089.615112 200.0
1089.898315 124.0
1090.949829 44.0
1099.915527 40.0
1100.800171 112.0
1101.718384 176.0
1105.063721 96.0
1105.143066 160.0
1106.639038 76.0
1111.099487 268.0
1111.364868 52.0
1112.566284 144.0
1117.451172 184.0
1117.624146 28.0
1117.783813 64.0
1122.233398 164.0
1124.141235 160.0
1134.15332 196.0
1140.49646 180.0
1141.36377 208.0
1143.092529 244.0
1144.809204 176.0
1148.556641 176.0
1149.534912 160.0
1150.749878 88.0
1155.771973 164.0
1156.841309 164.0
1156.990234 40.0
1161.021973 180.0
1161.110229 236.0
1164.598877 232.0
1168.412476 192.0
1174.134399 160.0
1175.676147 140.0
1175.860474 64.0
1177.594727 176.0
1178.06604 144.0
1178.715088 152.0
1181.586914 68.0
1182.435425 136.0
1182.709229 160.0
1182.777588 192.0
1186.88147 68.0
1190.072144 136.0
1191.164062 232.0
1192.057251 180.0
1194.903931 132.0
1194.986572 216.0
1196.500732 148.0
1203.823486 120.0
1205.135864 160.0
1205.605835 128.0
1207.161255 132.0
1209.264404 212.0
1209.506714 176.0
1210.448242 276.0
1211.057739 76.0
1211.390259 120.0
1219.064087 168.0
1224.769287 152.0
1225.995483 192.0
1232.72998 112.0
1234.764404 120.0
1237.843628 220.0
1239.265625 140.0
1240.800537 140.0
1243.199463 76.0
1244.231323 84.0
1244.870239 180.0
1246.795166 176.0
1248.21521 288.0
1248.50354 140.0
1250.529785 92.0
1251.952026 68.0
1254.76355 116.0
1254.904541 152.0
1263.195801 152.0
1263.422241 132.0
1264.490723 176.0
1264.582764 208.0
1265.269409 188.0
1267.528809 204.0
1268.549438 228.0
1268.627441 152.0
1270.137939 200.0
1272.01123 132.0
1272.131958 56.0
1273.864746 124.0
1276.338013 176.0
1279.269287 152.0
1280.501221 68.0
1282.025879 208.0
1282.097168 168.0
1284.321655 60.0
1286.740845 212.0
1286.926514 96.0
1287.390625 216.0
1290.363159 216.0
1294.391602 80.0
1294.570679 256.0
1294.849976 224.0
1294.986084 244.0
1296.039185 96.0
1296.34729 184.0
1297.028198 152.0
1298.153809 152.0
1300.657715 116.0
1300.708008 260.0
1302.108154 164.0
1306.219604 68.0
1307.917847 188.0
1311.432861 148.0
1312.644043 48.0
1312.853271 20.0
1318.874756 132.0
1319.988159 176.0
1320.660767 148.0
1322.744629 212.0
1322.976318 248.0
1323.656982 228.0
1325.098389 156.0
1325.30127 72.0
1325.475098 100.0
1326.953857 64.0
1327.033569 148.0
1328.592896 144.0
1330.559692 164.0
1330.995361 216.0
1332.244629 192.0
1334.279541 204.0
1334.853882 140.0
1335.748535 172.0
1336.090454 204.0
1336.774414 172.0
1337.087402 180.0
1337.82251 172.0
1339.300781 132.0
1339.62854 172.0
1342.150391 148.0
1343.105713 96.0
1344.236572 120.0
1345.638062 60.0
1347.887817 140.0
1348.260498 172.0
1349.824951 236.0
1356.187012 212.0
1357.778076 124.0
1358.394287 144.0
1359.054565 208.0
1363.747314 68.0
1365.504517 140.0
1365.86499 184.0
1368.543823 168.0
1370.127319 136.0
1373.365356 220.0
1373.511108 200.0
1373.968384 148.0
1374.883423 132.0
1382.687866 120.0
1383.36145 196.0
1383.427002 176.0
1383.898315 148.0
1386.872681 156.0
1388.696655 136.0
1391.791382 184.0
1392.890503 188.0
1393.053955 144.0
1393.71521 160.0
1395.722168 144.0
1399.569214 224.0
1399.874512 112.0
1402.854858 104.0
1408.294678 144.0
1409.512451 188.0
1410.185059 212.0
1410.895264 144.0
1411.897217 184.0
1412.525513 36.0
1412.959351 176.0
1413.094116 196.0
1415.122437 168.0
1415.511841 188.0
1415.88623 184.0
1418.291382 140.0
1420.435913 216.0
1421.861572 248.0
1424.512085 204.0
1424.572266 72.0
1425.218384 196.0
1426.015015 164.0
1426.721558 112.0
1426.834351 204.0
1427.826904 216.0
1428.519287 172.0
1428.654297 152.0
1434.980713 192.0
1435.267212 96.0
1435.425659 164.0
1439.100342 160.0
1441.963501 228.0
1442.605957 196.0
1443.07666 152.0
1443.286377 52.0
1443.740112 72.0
1445.154785 144.0
1445.313599 124.0
1445.396851 44.0
1446.637939 120.0
1450.721436 144.0
1451.782959 128.0
1452.708252 152.0
1454.605469 164.0
1454.984985 208.0
1455.129272 180.0
1455.432983 184.0
1455.508911 200.0
1455.858276 160.0
1457.225586 232.0
1458.821533 156.0
1459.467773 48.0
1460.505981 20.0
1463.295044 216.0
1463.812866 256.0
1464.147949 48.0
1465.084839 172.0
1465.488647 164.0
1466.601318 220.0
1467.325439 120.0
1469.9646 108.0
1470.09668 172.0
1470.834717 152.0
1472.170898 204.0
1472.720825 164.0
1472.820068 36.0
1473.431152 196.0
1474.080688 156.0
1475.112549 204.0
1476.305298 212.0
1476.588257 160.0
1477.100708 276.0
1477.506226 176.0
1478.68457 76.0
1481.755371 192.0
1482.176758 180.0
1483.939697 184.0
1484.100708 124.0
1484.261719 168.0
1484.36145 216.0
1484.668213 140.0
1485.151367 216.0
1485.788086 192.0
1488.789429 140.0
1490.502441 144.0
1490.879028 132.0
1492.278076 236.0
1494.362427 204.0
1495.332031 228.0
1495.963257 156.0
1496.155762 52.0
1496.217285 32.0
1496.563843 192.0
1499.637573 132.0
1500.130981 160.0
1501.009888 188.0
1501.680786 144.0
1502.660522 164.0
1503.733154 172.0
