>compound Chlorthalidone
>formula C14H11ClN2O4S 
>ionization [M+H]+
>parentmass 339.021
#inchi InChI=1S/C14H11ClN2O4S/c15-11-6-5-8(7-12(11)22(16,20)21)14(19)10-4-2-1-3-9(10)13(18)17-14/h1-7,19H,(H,17,18)(H2,16,20,21)
#inchikey JIVPVXMEBJLZRO
#Ion_Source LC-ESI
#Instrument qTof
#Compound_Source Commercial
#PI Dorrestein
#Data_Collector Garg_Neha
#Scan -1
#Precursor_MZ 339.021
#ExactMass 338.013
#Charge 1
#CAS_Number N/A
#Pubmed_ID N/A
#Smiles N/A
#INCHI_AUX N/A
#Library_Class 1
#SpectrumID CCMSLIB00000077136
#IonMode Positive
#UpdateWorkflowName UPDATE-SINGLE-ANNOTATED-GOLD
#LibraryQualityString Gold
#TaskID 48f7f52fc6d249b5abbcc6e7b3df5969
##Scan# 1104
#SpectrumFile NCP003195_A2A7B2B6C2C6D2D6_BB6_01_15710.mzXML
#LibraryName NIH_Clinical_Collection_2.mgf
#MQScore -1
#Organism NIHcollection2_04212014_2_mgf
#TIC_Query 0
#RT_Query -1
#MZErrorPPM -1
#SharedPeaks 0
#MassDiff 0
#LibMZ -1
#SpecMZ 339.021
#SpecCharge 0
#internalFilename spec-00000.mgf

>collision 10
45.101273 148.0
45.751877 164.0
50.446449 168.0
54.463173 148.0
54.627808 180.0
59.18214 160.0
59.274044 176.0
64.347549 148.0
65.602119 192.0
72.220619 144.0
89.800385 160.0
98.585045 196.0
102.045517 184.0
102.341278 192.0
105.614761 172.0
109.045769 148.0
113.070595 184.0
114.524963 208.0
116.050789 156.0
120.145027 200.0
125.034706 176.0
126.0438 148.0
128.06398 180.0
129.328384 196.0
129.364594 224.0
135.062698 160.0
137.003326 188.0
137.766159 176.0
138.993668 140.0
139.056564 396.0
140.027664 132.0
141.833252 212.0
143.055817 184.0
144.004837 168.0
148.040253 408.0
150.046555 400.0
151.053391 196.0
152.062836 528.0
153.034531 176.0
153.062866 180.0
154.010635 188.0
154.040695 120.0
154.059219 136.0
155.027603 208.0
156.027756 192.0
157.022903 328.0
158.027985 252.0
159.74118 184.0
161.013412 1044.0
161.059769 232.0
163.016785 420.0
166.06955 172.0
167.050858 376.0
167.209778 208.0
168.052383 280.0
170.174774 152.0
173.016953 188.0
175.061951 172.0
176.344116 188.0
177.037079 188.0
177.058609 184.0
179.044876 160.0
179.052795 156.0
179.05957 308.0
182.03537 580.0
183.000244 260.0
183.043121 160.0
184.040787 152.0
185.013733 1668.0
185.583038 160.0
186.023315 280.0
187.014816 604.0
189.014664 692.0
190.014465 132.0
191.00853 560.0
192.02388 176.0
192.564148 224.0
194.039032 196.0
194.062363 164.0
194.891113 200.0
195.045456 336.0
196.051361 160.0
197.953857 140.0
199.134521 140.0
201.038528 156.0
202.037888 140.0
203.028381 156.0
203.057602 184.0
205.024948 304.0
206.057892 144.0
207.047714 280.0
208.046463 176.0
210.160767 176.0
211.10022 208.0
212.240433 208.0
212.40863 152.0
213.010941 1552.0
214.017151 480.0
215.006058 608.0
215.40979 140.0
216.023056 148.0
217.002594 388.0
217.966537 140.0
219.005829 192.0
221.611511 144.0
222.055191 404.0
223.063019 920.0
224.042786 292.0
224.065598 240.0
225.060181 136.0
226.055237 144.0
229.104675 200.0
229.339706 160.0
231.019394 816.0
231.42717 212.0
233.01619 472.0
233.621429 148.0
233.937241 160.0
234.074921 172.0
237.433395 168.0
238.059494 184.0
239.819199 276.0
240.00029 172.0
240.019943 140.0
240.15358 168.0
240.902267 164.0
241.007065 6428.0
241.108002 144.0
242.008606 628.0
242.096222 164.0
242.604279 216.0
242.954712 160.0
243.02095 8372.0
244.021698 1412.0
244.987534 204.0
245.018631 2516.0
245.875427 120.0
246.019867 544.0
246.469803 152.0
251.50087 140.0
256.598694 156.0
257.981049 140.0
258.032898 824.0
259.014954 1688.0
259.078766 180.0
260.022766 372.0
260.089783 168.0
261.013031 724.0
261.535217 180.0
265.035919 208.0
268.002472 220.0
272.974609 172.0
274.003876 444.0
275.008453 180.0
276.005798 108.0
278.095337 148.0
291.125702 148.0
301.945282 152.0
304.965759 804.0
305.118042 236.0
305.351044 164.0
305.968384 460.0
306.151459 216.0
306.959076 404.0
308.038361 152.0
314.933594 140.0
319.499298 152.0
320.750305 100.0
321.369751 240.0
321.598145 144.0
321.861115 144.0
321.912292 224.0
321.938202 188.0
321.994324 34528.0
322.051117 364.0
322.092499 172.0
322.143829 112.0
322.231659 136.0
322.997986 3548.0
323.159271 696.0
323.938416 192.0
323.990295 10352.0
324.155426 392.0
324.470612 148.0
324.592651 96.0
324.860474 132.0
324.940613 140.0
324.99292 1380.0
325.563293 120.0
327.229797 160.0
336.061279 148.0
337.031616 520.0
337.958923 160.0
338.037903 172.0
340.127045 176.0
340.164734 208.0
340.554382 144.0
341.141235 152.0
343.15976 192.0
447.207184 148.0
1558.900757 172.0
1589.49231 168.0
1766.913696 152.0
1783.635132 184.0
1962.218872 220.0
