>compound LOMIFYLLINE
>formula C13H18N4O3
>ionization [M+H]+
>parentmass 279.145691
#inchi InChI=1S/C13H18N4O3/c1-9(18)6-4-5-7-17-8-14-11-10(17)12(19)16(3)13(20)15(11)2/h8H,4-7H2,1-3H3
#inchikey XBEDAMVJWVPVDS
#Ion_Source LC-ESI
#Instrument qTof
#Compound_Source Commercial
#PI Dorrestein
#Data_Collector Garg_Neha
#Scan -1
#Precursor_MZ 279.145
#ExactMass 278.138
#Charge 1
#CAS_Number N/A
#Pubmed_ID N/A
#Smiles CC(=O)CCCCn1cnc2n(C)c(=O)n(C)c(=O)c12
#INCHI_AUX N/A
#Library_Class 1
#SpectrumID CCMSLIB00000078958
#IonMode Positive
#UpdateWorkflowName UPDATE-SINGLE-ANNOTATED-GOLD
#LibraryQualityString Gold
#TaskID 278b19f5865741e282cec7349aa7e7a1
##Scan# 1079
#SpectrumFile NCP003272_G2_H11_BC3_01_15716.mzXML
#LibraryName NIHcollectionI_05062014.mgf
#MQScore -1
#Organism NIHcollectionI_05062014
#TIC_Query 0
#RT_Query -1
#MZErrorPPM -1
#SharedPeaks 0
#MassDiff 0
#LibMZ -1
#SpecMZ 279.145
#SpecCharge 0
#internalFilename spec-00000.mgf

>collision 10
47.498337 216.0
47.973774 148.0
48.002728 180.0
48.03307 148.0
48.794739 156.0
51.856884 148.0
52.208626 144.0
53.855099 216.0
55.278248 160.0
57.446262 148.0
58.213627 276.0
58.342777 152.0
59.605255 176.0
59.712868 148.0
60.071754 152.0
60.662476 204.0
61.466564 156.0
61.70554 156.0
61.849457 140.0
62.238255 152.0
65.952141 160.0
66.733521 144.0
68.716995 184.0
69.116844 196.0
69.307266 140.0
70.321686 184.0
70.338379 192.0
72.599709 212.0
72.771088 184.0
76.967552 184.0
78.12606 192.0
79.866707 180.0
80.953606 164.0
81.301384 164.0
82.832138 276.0
86.744644 224.0
87.439308 164.0
89.971741 176.0
92.720383 200.0
93.052231 248.0
93.123283 168.0
94.459045 156.0
94.956833 244.0
96.053734 156.0
97.041428 168.0
97.186569 168.0
97.349495 160.0
97.70919 216.0
98.002548 156.0
98.782364 164.0
99.01989 168.0
99.08091 12152.0
100.083763 1000.0
100.716476 156.0
100.886322 144.0
101.20443 176.0
107.725418 224.0
107.948631 168.0
109.030266 168.0
111.648216 192.0
117.461105 144.0
122.085197 176.0
122.316208 180.0
122.761253 160.0
124.051277 3348.0
125.053032 140.0
125.867943 144.0
126.086861 140.0
128.061218 192.0
131.076569 212.0
134.007172 176.0
136.730347 224.0
137.056366 168.0
140.779099 188.0
142.065475 220.0
146.612137 152.0
147.08728 188.0
148.837646 180.0
149.108536 124.0
149.820221 208.0
150.059052 176.0
151.101929 180.0
151.123154 336.0
151.998688 152.0
153.334 236.0
157.732254 168.0
158.593307 180.0
162.562988 156.0
163.11412 160.0
166.063248 220.0
167.115204 128.0
167.620087 184.0
167.858292 164.0
168.056915 160.0
169.927536 144.0
175.224564 224.0
178.130997 240.0
178.804642 164.0
179.049561 144.0
179.132141 140.0
180.477203 184.0
180.530685 160.0
180.867447 124.0
180.9133 144.0
181.028992 280.0
181.072601 57192.0
181.457138 152.0
181.76181 156.0
182.075211 3428.0
182.136078 176.0
183.076309 1096.0
183.15686 152.0
183.348557 172.0
183.455612 180.0
190.557999 152.0
195.799973 192.0
195.9086 140.0
199.080307 160.0
200.075729 156.0
205.001343 192.0
205.101089 180.0
206.531616 152.0
207.25589 156.0
207.402054 148.0
220.090332 160.0
221.107239 180.0
222.123322 200.0
226.517319 168.0
231.090302 172.0
239.975464 192.0
240.07373 152.0
252.555191 220.0
254.367645 164.0
255.546661 200.0
260.511627 192.0
261.067688 176.0
269.77356 204.0
277.473907 204.0
277.923584 172.0
278.349854 152.0
278.508606 140.0
278.552063 168.0
278.887085 196.0
278.976685 180.0
279.001068 188.0
279.091034 140.0
279.145691 46712.0
279.326965 200.0
279.472656 160.0
279.758728 152.0
280.147369 4196.0
280.321228 132.0
281.154327 756.0
281.626862 156.0
281.761749 132.0
282.069397 128.0
282.153198 260.0
312.208008 216.0
625.17041 140.0
696.465698 184.0
1252.678345 140.0
1372.629639 168.0
1391.140869 156.0
1428.114258 176.0
1435.939575 164.0
1528.195923 160.0
1581.791504 168.0
1581.988403 152.0
1586.988525 152.0
1593.591064 160.0
1610.471313 168.0
1617.556641 192.0
1648.787354 164.0
1654.344116 176.0
1662.149048 156.0
1671.330811 176.0
1674.383423 156.0
1674.896606 216.0
1682.978394 160.0
1683.729614 140.0
1686.621948 152.0
1696.034912 264.0
1708.36853 172.0
1708.878662 148.0
1711.685303 140.0
1730.403442 200.0
1783.350708 164.0
1807.131348 160.0
1807.342896 152.0
1838.119629 228.0
1850.710205 144.0
1860.003296 172.0
1876.891235 156.0
1878.926636 204.0
1881.265381 184.0
1886.509033 172.0
1898.197266 168.0
1936.253906 156.0
1941.7052 232.0
1947.216797 172.0
1963.674805 232.0
1988.225586 164.0
