>compound NCGC00160227-01!N-METHYL-NORCOTAMINE
>formula C12H14NO3+
>ionization [M+H]+
>parentmass 221.10464476009054
#inchi InChI=1S/C12H14NO3/c1-13-4-3-8-5-10-12(16-7-15-10)11(14-2)9(8)6-13/h5-6H,3-4,7H2,1-2H3/q+1
#inchikey KGZAOSLMBZSSTE
#Ion_Source LC-ESI
#Instrument qTOF
#Compound_Source Prestwick Phytochem Lib
#PI Dorrestein
#Data_Collector VVP/LMS
#Scan -1
#Precursor_MZ 220.097
#ExactMass 220.097
#Charge 1
#CAS_Number N/A
#Pubmed_ID N/A
#Smiles COC1=C2OCOC2=CC3=C1C=[N+](C)CC3
#INCHI_AUX N/A
#Library_Class 1
#SpectrumID CCMSLIB00000078710
#IonMode Positive
#UpdateWorkflowName UPDATE-SINGLE-ANNOTATED-GOLD
#LibraryQualityString Gold
#TaskID 67c915c6594c435cadc1fe2b5358144d
##Scan# 1280
#SpectrumFile p1-E02_GE2_01_17922.mzXML
#LibraryName phytochem_lib.mgf
#MQScore -1
#Organism phytochem_lib
#TIC_Query 0
#RT_Query -1
#MZErrorPPM -1
#SharedPeaks 0
#MassDiff 0
#LibMZ -1
#SpecMZ 220.097
#SpecCharge 0
#internalFilename spec-00000.mgf

>collision 10
95.07386 372.0
95.75087 76.0
95.78788 84.0
95.846329 148.0
95.879456 196.0
95.982765 132.0
96.074432 164.0
96.105652 196.0
96.351646 160.0
96.373138 188.0
96.539284 112.0
96.801506 188.0
96.887688 64.0
96.991272 176.0
97.478256 132.0
97.565956 116.0
97.668953 144.0
97.701408 120.0
97.882256 156.0
97.899223 176.0
98.061882 324.0
98.190887 204.0
98.224419 116.0
98.398071 64.0
98.467186 264.0
98.490883 96.0
98.536324 152.0
98.552124 136.0
98.714211 232.0
98.856636 64.0
99.157646 220.0
99.322556 184.0
99.749123 148.0
100.057465 160.0
100.131142 48.0
100.651611 160.0
100.909363 76.0
101.097382 172.0
101.155418 184.0
101.205475 184.0
101.355698 136.0
101.666504 200.0
102.045685 1000.0
102.067108 208.0
102.249306 124.0
102.301636 56.0
102.337029 200.0
102.370094 56.0
102.593735 228.0
102.660271 172.0
102.898369 128.0
102.952881 156.0
103.05191 924.0
103.221642 60.0
103.28231 256.0
103.511002 124.0
103.624428 176.0
103.739944 148.0
103.851463 336.0
103.987404 208.0
104.050316 1576.0
104.251411 68.0
104.460823 224.0
104.538139 40.0
104.595123 144.0
104.984261 144.0
105.032303 144.0
105.052856 376.0
105.221024 224.0
105.251572 168.0
105.280159 188.0
105.447685 132.0
105.717628 180.0
105.968102 160.0
105.998169 60.0
106.039894 288.0
106.06517 2112.0
106.120544 76.0
106.147804 36.0
106.215485 188.0
106.252411 120.0
106.328331 108.0
106.465874 72.0
106.879051 148.0
106.924324 244.0
106.973717 212.0
107.050766 536.0
107.071068 1184.0
107.204399 152.0
107.350754 144.0
107.400253 156.0
107.48896 152.0
107.579773 204.0
107.643776 180.0
107.670624 192.0
108.050621 224.0
108.074234 296.0
108.152351 32.0
108.289001 144.0
108.533524 176.0
108.618919 184.0
108.776253 228.0
109.054893 188.0
109.087845 152.0
109.40612 72.0
109.610229 176.0
109.810356 172.0
110.303108 208.0
110.319832 180.0
110.434837 164.0
111.231049 180.0
111.315025 140.0
111.731186 276.0
111.867973 152.0
112.112289 204.0
112.743279 144.0
112.777092 112.0
112.867996 156.0
113.15786 176.0
113.310349 120.0
113.496002 208.0
113.527885 284.0
113.590172 212.0
113.846977 212.0
113.866096 144.0
113.978683 216.0
114.048813 148.0
114.116837 92.0
114.204025 144.0
114.369987 228.0
114.387009 132.0
114.629807 176.0
115.052048 140.0
115.577866 172.0
115.627083 136.0
115.83477 176.0
115.973602 136.0
116.025772 304.0
116.050003 212.0
116.104828 204.0
116.194916 108.0
116.734032 220.0
116.934097 96.0
116.990067 120.0
117.030548 312.0
117.059814 888.0
117.093414 172.0
117.160187 40.0
117.414528 148.0
117.95639 112.0
117.994377 172.0
118.039131 1752.0
118.064941 8020.0
118.120804 152.0
118.196518 40.0
118.220322 148.0
118.391342 48.0
118.460648 196.0
118.579819 44.0
118.686043 64.0
118.883438 156.0
118.944206 68.0
118.996819 336.0
119.026703 188.0
119.048164 824.0
119.072952 4600.0
119.107056 200.0
119.159195 76.0
119.19178 228.0
119.415695 52.0
119.55928 88.0
119.611519 164.0
119.648521 116.0
119.665939 80.0
119.705132 112.0
119.811859 176.0
119.873276 188.0
119.916718 64.0
120.042892 180.0
120.080246 5876.0
120.158493 156.0
120.311256 140.0
120.411697 132.0
120.461929 52.0
120.914528 64.0
121.02179 244.0
121.063194 176.0
121.087173 2540.0
121.120338 40.0
121.194824 156.0
121.212357 76.0
121.355812 92.0
121.473244 100.0
121.525902 32.0
121.569786 168.0
121.766747 100.0
121.775902 72.0
121.795792 72.0
121.826668 56.0
121.861816 32.0
121.971695 96.0
122.059341 384.0
122.094269 160.0
122.143204 60.0
122.424919 124.0
122.539459 108.0
122.581322 132.0
122.733414 108.0
122.839272 144.0
122.980492 168.0
123.04892 188.0
123.068161 188.0
123.086456 180.0
123.386932 72.0
123.639091 340.0
123.698853 188.0
123.729843 120.0
123.935822 132.0
124.075447 204.0
125.275482 236.0
125.299988 64.0
125.353462 424.0
125.412781 136.0
125.792824 136.0
125.819611 184.0
126.025085 124.0
126.501434 132.0
126.528297 104.0
126.705223 152.0
127.650146 104.0
127.942642 172.0
128.467712 148.0
128.483505 204.0
128.86998 108.0
128.907974 76.0
129.25621 204.0
129.401062 264.0
129.432449 144.0
129.944992 168.0
130.040543 1384.0
130.065842 516.0
130.097046 176.0
130.124298 160.0
130.140488 212.0
130.38324 180.0
130.747101 60.0
130.83815 196.0
130.92923 148.0
131.050293 1028.0
131.068344 496.0
131.096039 168.0
131.243698 52.0
131.318939 80.0
131.375977 84.0
131.597351 216.0
131.613327 52.0
131.649857 176.0
131.841751 68.0
131.976334 160.0
132.021088 116.0
132.054459 576.0
132.079208 408.0
132.166458 116.0
132.235107 48.0
132.429718 216.0
132.888184 176.0
132.915726 156.0
132.97998 144.0
133.051117 552.0
133.101654 128.0
133.124603 48.0
133.65329 152.0
133.717728 208.0
133.901917 124.0
133.950272 104.0
133.995743 256.0
134.035522 220.0
134.059509 1032.0
134.088776 184.0
134.130005 132.0
134.146149 124.0
134.351379 168.0
134.39061 180.0
134.415985 168.0
134.448288 108.0
134.517532 176.0
134.926422 144.0
134.950119 208.0
134.968033 120.0
135.047073 780.0
135.067871 684.0
135.146133 108.0
135.301193 96.0
135.621475 212.0
135.834183 208.0
136.031418 160.0
136.047668 192.0
136.069 260.0
136.256683 72.0
136.372864 36.0
136.768265 220.0
136.824142 200.0
136.849747 196.0
136.956863 180.0
137.029083 164.0
137.250504 180.0
137.355453 152.0
137.68454 144.0
137.843384 172.0
138.458618 160.0
138.535919 176.0
139.066162 204.0
139.202011 148.0
139.73085 160.0
139.794373 112.0
139.890869 140.0
140.041565 132.0
140.086319 28.0
140.97345 140.0
141.063263 124.0
141.422791 84.0
141.863373 124.0
142.041214 212.0
142.062561 184.0
142.088654 92.0
142.131363 224.0
142.235779 148.0
142.257141 140.0
142.615814 64.0
142.703781 96.0
142.782242 60.0
142.820297 104.0
143.011108 224.0
143.56813 240.0
143.761353 116.0
143.997696 136.0
144.019608 376.0
144.046432 240.0
144.609756 152.0
144.865952 196.0
144.928253 36.0
145.028793 640.0
145.760849 196.0
146.035629 1560.0
146.059738 1184.0
146.08783 200.0
146.210541 48.0
146.258667 192.0
146.475372 64.0
146.609283 76.0
146.644043 248.0
146.706711 148.0
146.762161 160.0
146.78627 72.0
146.807983 52.0
146.894806 212.0
147.043335 1596.0
147.067749 7984.0
147.109573 136.0
147.206146 196.0
147.277588 116.0
147.337982 184.0
147.409058 152.0
147.462646 112.0
147.4888 216.0
147.699173 80.0
147.745132 128.0
147.767776 132.0
147.776382 48.0
147.785355 128.0
147.83223 148.0
147.965347 172.0
147.9823 176.0
148.048401 1124.0
148.075623 11996.0
148.171097 164.0
148.200287 96.0
148.302063 120.0
148.411758 196.0
148.442673 56.0
148.515427 112.0
148.542114 88.0
148.665848 144.0
148.870895 64.0
148.898895 76.0
149.0793 1980.0
149.117554 228.0
149.271729 104.0
149.489639 44.0
149.521271 84.0
149.68924 204.0
149.745255 204.0
149.859741 84.0
149.913345 136.0
150.061081 400.0
150.08461 152.0
150.144943 152.0
150.212418 132.0
150.249817 40.0
150.276657 96.0
150.401108 168.0
150.459702 56.0
150.769913 148.0
150.919022 148.0
151.552933 120.0
152.171005 76.0
152.994598 140.0
153.265503 92.0
153.80806 144.0
153.893982 168.0
154.069016 312.0
154.163696 208.0
154.316956 136.0
154.561813 48.0
154.863831 216.0
155.513428 132.0
156.137024 168.0
156.622345 60.0
156.677155 220.0
156.796753 40.0
156.844101 84.0
157.031448 336.0
157.071014 84.0
157.752716 92.0
158.038925 584.0
158.059174 392.0
158.135406 48.0
158.714081 148.0
158.95488 136.0
159.040878 264.0
159.06839 1576.0
159.384247 164.0
159.638138 128.0
159.751312 108.0
159.9048 156.0
159.972763 128.0
160.049683 940.0
160.071762 772.0
160.214722 48.0
160.3909 208.0
160.428711 68.0
161.046356 160.0
161.073868 288.0
161.136948 156.0
161.28949 36.0
161.623306 176.0
161.648605 40.0
161.777679 136.0
162.027145 364.0
162.050964 576.0
162.091965 136.0
162.144958 88.0
162.786774 164.0
162.870575 148.0
162.964569 64.0
163.040924 180.0
163.06636 256.0
163.114517 156.0
163.185699 72.0
163.317932 228.0
163.725143 152.0
163.748062 124.0
164.030182 148.0
164.069183 136.0
164.099701 152.0
164.293533 188.0
164.329254 176.0
164.347107 136.0
164.793915 100.0
164.88591 136.0
164.972809 72.0
165.049515 112.0
165.079391 512.0
165.738037 100.0
166.392059 132.0
166.487061 200.0
166.862213 200.0
167.487534 108.0
167.557083 36.0
167.683334 164.0
168.475494 132.0
168.625046 168.0
168.780457 112.0
169.396408 184.0
169.873367 120.0
170.616074 148.0
171.610596 264.0
171.66275 120.0
172.035843 60.0
172.935013 216.0
173.021393 156.0
173.042343 212.0
173.860153 236.0
173.928391 164.0
174.031174 908.0
174.052979 368.0
174.141068 72.0
174.261902 212.0
174.406433 52.0
174.608887 288.0
174.635178 144.0
174.903564 136.0
175.062286 2912.0
175.116821 52.0
175.219559 120.0
175.575394 228.0
175.601776 116.0
175.789078 208.0
176.069229 5828.0
176.146179 84.0
176.190399 52.0
176.282883 76.0
176.378021 72.0
176.467896 52.0
176.65303 200.0
176.833252 172.0
176.925095 172.0
177.023315 172.0
177.054474 4180.0
177.074341 1892.0
177.115463 148.0
177.153336 64.0
177.17453 60.0
177.230164 36.0
177.341461 176.0
177.45015 100.0
177.505829 52.0
177.672928 40.0
177.739258 28.0
177.814163 88.0
177.914413 72.0
177.940964 48.0
178.060776 516.0
178.307526 88.0
178.376633 44.0
178.552582 116.0
178.613297 160.0
178.722366 156.0
178.956589 36.0
179.06868 200.0
179.21228 68.0
179.270889 92.0
179.772232 80.0
179.852295 72.0
179.884323 80.0
180.064011 148.0
180.116638 28.0
180.349091 124.0
180.596405 112.0
181.189331 104.0
182.165802 168.0
183.104507 144.0
183.916046 132.0
183.941238 60.0
184.515732 44.0
184.561691 64.0
184.588745 184.0
185.484863 232.0
187.042282 180.0
187.147461 192.0
187.455246 84.0
187.75238 60.0
188.045807 2624.0
188.070618 1544.0
188.169861 112.0
188.533157 48.0
188.704971 140.0
188.7491 48.0
189.050095 388.0
189.073578 760.0
189.323746 64.0
189.378525 84.0
189.408661 76.0
189.540161 204.0
190.049072 660.0
190.081177 220.0
190.113266 188.0
190.287689 88.0
190.356552 128.0
190.588303 76.0
190.646011 60.0
190.700974 184.0
190.79718 80.0
190.96492 228.0
191.038223 252.0
191.042679 164.0
191.061661 188.0
191.702728 76.0
191.876373 172.0
191.975632 164.0
192.301163 100.0
192.331528 120.0
193.071884 276.0
194.063217 216.0
194.154785 164.0
194.982086 56.0
195.346313 152.0
195.396393 196.0
195.967133 124.0
196.106461 256.0
196.923935 180.0
197.013321 172.0
197.348465 144.0
197.799103 124.0
197.829895 60.0
198.66217 172.0
199.206757 124.0
199.257324 156.0
200.098221 96.0
200.839355 148.0
200.881653 184.0
200.994507 168.0
201.556412 160.0
202.045746 492.0
202.269089 124.0
202.288895 164.0
203.057632 620.0
203.252487 148.0
203.439804 160.0
203.908463 40.0
203.982376 96.0
204.005112 304.0
204.065598 5172.0
204.145126 228.0
204.327698 92.0
204.501404 176.0
204.512238 84.0
204.521622 200.0
204.632156 136.0
204.694321 212.0
204.853119 108.0
204.90155 216.0
204.924332 196.0
204.958893 184.0
205.032455 148.0
205.073334 38748.0
205.116058 172.0
205.154037 60.0
205.177078 44.0
205.266907 192.0
205.383301 80.0
205.542389 68.0
205.588715 80.0
205.613113 116.0
205.670715 76.0
205.741547 132.0
205.815582 52.0
205.890869 76.0
205.945587 48.0
205.985565 80.0
206.028427 124.0
206.075851 3104.0
206.114136 136.0
206.144608 56.0
206.194153 64.0
206.225586 40.0
206.288025 128.0
206.462555 72.0
206.517212 192.0
206.58873 56.0
206.794739 44.0
206.846268 188.0
206.940735 72.0
207.073288 428.0
207.155518 40.0
207.304764 208.0
207.330292 72.0
207.358047 76.0
207.399078 96.0
207.446045 52.0
207.487946 36.0
207.565353 100.0
207.608368 108.0
207.717361 84.0
207.796173 84.0
208.01004 104.0
208.088959 220.0
208.178375 120.0
208.357513 68.0
208.593155 84.0
208.87207 68.0
208.998657 128.0
209.188599 68.0
209.341187 72.0
213.444427 168.0
213.566574 80.0
214.889099 48.0
216.596329 56.0
218.036911 72.0
218.05748 60.0
218.15741 96.0
219.458679 144.0
219.547134 96.0
219.65036 144.0
220.010376 292.0
220.048752 160.0
220.096222 9700.0
220.135788 236.0
220.194122 52.0
220.373627 64.0
220.430267 72.0
220.45932 184.0
220.490051 40.0
220.607101 68.0
220.725357 36.0
220.772675 68.0
221.056656 52.0
221.100342 940.0
221.186295 60.0
221.400055 64.0
221.482986 56.0
222.02832 112.0
222.090607 244.0
222.132126 48.0
222.503067 128.0
227.152481 48.0
230.077484 68.0
230.237518 144.0
230.866089 40.0
231.177673 76.0
234.448273 56.0
235.931656 76.0
237.061066 140.0
248.581863 64.0
264.477081 40.0
265.128052 116.0
268.284119 52.0
272.476349 48.0
274.642365 20.0
276.449493 44.0
292.578674 72.0
297.996002 40.0
299.6474 104.0
321.859528 64.0
330.457123 96.0
335.384979 144.0
342.257629 76.0
344.097412 96.0
345.8237 164.0
355.780151 68.0
359.562988 40.0
359.676208 44.0
361.244354 40.0
364.041443 36.0
367.051392 36.0
369.407806 40.0
374.840424 56.0
386.462067 136.0
390.475037 64.0
394.500092 112.0
400.874969 68.0
433.329773 72.0
448.217163 104.0
460.451569 72.0
487.539276 100.0
507.757477 132.0
522.224426 120.0
523.935303 72.0
548.204529 144.0
567.216125 92.0
581.299866 40.0
599.243713 100.0
608.452881 108.0
611.923828 136.0
636.803162 124.0
642.44574 112.0
662.664795 84.0
671.078308 80.0
730.684204 68.0
745.764404 56.0
753.383484 124.0
757.256165 128.0
765.378113 112.0
792.315918 172.0
795.39447 148.0
809.602356 56.0
811.761414 164.0
813.866516 156.0
832.464478 64.0
851.185425 108.0
863.072083 148.0
870.038208 72.0
876.124817 124.0
880.389221 60.0
891.77002 20.0
895.673157 136.0
897.186768 96.0
901.69928 152.0
919.222778 92.0
919.699524 188.0
923.197571 188.0
926.841614 180.0
928.933228 152.0
933.293701 152.0
951.734009 264.0
962.095703 188.0
962.910706 216.0
968.991272 152.0
974.4198 168.0
979.02887 128.0
989.199646 148.0
993.147156 152.0
995.39386 100.0
1003.006287 208.0
1003.302551 200.0
1005.383972 160.0
1011.527344 60.0
1024.296875 48.0
1027.146118 92.0
1027.962769 136.0
1028.17334 180.0
1035.154053 208.0
1035.224487 108.0
1035.751709 260.0
1058.049927 196.0
1069.806519 164.0
1075.523193 196.0
1076.273926 188.0
1076.326172 308.0
1076.887817 204.0
1083.75 188.0
1087.494385 168.0
1088.137695 72.0
1095.75354 160.0
1096.7948 144.0
1100.205078 96.0
1100.713501 220.0
1106.545166 156.0
1107.406006 216.0
1111.277222 140.0
1112.943237 176.0
1115.228394 88.0
1124.786499 164.0
1129.31665 204.0
1130.286621 152.0
1133.051758 128.0
1137.638794 100.0
1140.836426 160.0
1141.858521 168.0
1148.229492 180.0
1154.6521 52.0
1155.78186 180.0
1156.228394 184.0
1156.357056 40.0
1158.848999 172.0
1160.923096 116.0
1163.372437 128.0
1172.256226 180.0
1174.832275 60.0
1176.524658 136.0
1178.641846 112.0
1184.011719 244.0
1184.861084 56.0
1185.422974 180.0
1188.385132 136.0
1194.065918 140.0
1196.143799 144.0
1199.002075 216.0
1199.450073 184.0
1200.270508 172.0
1202.809326 236.0
1203.354614 176.0
1207.922607 164.0
1210.822632 72.0
1211.044312 100.0
1217.702515 200.0
1218.619385 28.0
1219.821655 176.0
1220.475098 160.0
1220.662842 296.0
1221.483521 196.0
1225.040649 200.0
1243.128052 164.0
1243.78064 200.0
1247.742676 56.0
1248.305176 84.0
1249.338989 232.0
1250.021484 204.0
1251.661621 164.0
1254.825073 176.0
1256.277832 88.0
1258.846924 216.0
1260.280884 176.0
1260.690674 172.0
1261.390381 64.0
1261.524658 204.0
1262.004883 244.0
1270.121094 216.0
1270.376465 176.0
1270.851685 244.0
1275.467773 144.0
1279.301758 204.0
1281.445435 216.0
1284.817505 136.0
1289.415894 148.0
1289.630371 172.0
1290.952881 212.0
1291.310547 200.0
1292.233276 200.0
1292.362671 220.0
1293.492798 188.0
1293.571533 108.0
1303.713013 156.0
1307.00647 216.0
1308.856323 164.0
1309.562012 184.0
1313.136841 116.0
1313.822021 144.0
1315.900513 128.0
1316.225464 192.0
1317.83606 188.0
1320.539673 188.0
1326.114502 192.0
1327.571777 112.0
1328.072144 88.0
1328.957153 180.0
1329.631958 144.0
1331.033081 204.0
1331.098389 88.0
1332.623657 200.0
1334.069946 64.0
1339.709717 232.0
1340.773438 204.0
1343.500366 184.0
1345.310181 236.0
1347.113892 168.0
1347.610718 32.0
1348.861206 136.0
1349.540161 120.0
1351.098022 228.0
1359.391968 188.0
1363.107666 76.0
1364.121826 144.0
1365.724854 224.0
1367.394897 160.0
1367.505371 232.0
1369.360718 60.0
1371.040405 156.0
1371.209839 152.0
1372.116577 132.0
1374.45459 28.0
1375.303223 216.0
1375.989746 156.0
1378.220215 152.0
1380.304688 152.0
1382.190796 148.0
1383.773071 140.0
1384.374512 208.0
1386.300537 48.0
1387.182495 220.0
1388.554199 32.0
1388.887939 176.0
1389.540771 140.0
1390.052734 120.0
1391.537231 224.0
1393.951172 108.0
1394.515869 232.0
1397.706177 108.0
1398.800171 196.0
1407.269043 168.0
1409.300537 140.0
1409.831055 112.0
1410.645752 176.0
1411.28125 180.0
1412.64978 152.0
1413.727173 204.0
1415.022095 160.0
1415.25415 228.0
1416.834473 88.0
1418.715454 100.0
1420.297607 44.0
1421.783203 148.0
1425.988892 268.0
1426.808228 144.0
1427.868408 224.0
1428.206787 112.0
1430.494263 236.0
1430.780396 196.0
1431.64624 140.0
1432.384399 144.0
1434.78064 184.0
1435.964478 140.0
1438.5979 152.0
1438.89978 156.0
1440.024902 140.0
1440.387451 232.0
1441.324219 120.0
1441.89856 144.0
1442.216064 180.0
1442.541016 164.0
1443.425659 92.0
1443.607056 228.0
1446.376099 220.0
1447.83728 192.0
1447.920654 168.0
1450.193481 168.0
1450.322388 252.0
1450.78479 160.0
1451.489868 196.0
1452.726074 240.0
1453.348145 160.0
1453.484741 144.0
1455.458252 172.0
1457.782593 144.0
1457.942139 136.0
1459.41687 180.0
1459.865479 204.0
1460.922729 36.0
1462.09436 184.0
1462.634766 180.0
1463.373169 164.0
1463.890991 208.0
1465.795288 184.0
1469.050781 136.0
1470.202881 220.0
1471.508179 152.0
1471.943359 144.0
1472.545776 176.0
1472.798706 136.0
1477.224487 164.0
1477.377441 204.0
1478.74707 156.0
1480.408325 168.0
1480.75293 228.0
1483.764282 224.0
1484.193726 164.0
1484.324097 36.0
1484.991211 192.0
1485.275024 48.0
1485.489746 216.0
1487.200928 208.0
1487.343628 232.0
1490.241821 160.0
1490.741333 176.0
1490.871948 172.0
1491.732788 204.0
1491.901855 192.0
1492.509277 196.0
1493.511719 204.0
1495.117432 324.0
1496.33313 72.0
1501.488037 228.0
1502.151367 172.0
1502.297974 120.0
1502.55249 240.0
1503.108032 208.0
1503.239258 148.0
