>compound MLS001076075-01!402-71-1
>formula C17H18ClNO3S
>ionization [M+H]+
>parentmass 352.07686856809056
#inchi InChI=1S/C17H18ClNO3S/c1-13-7-9-15(10-8-13)23(21,22)19-16(17(20)12-18)11-14-5-3-2-4-6-14/h2-10,16,19H,11-12H2,1H3/t16-/m0/s1
#inchikey MQUQNUAYKLCRME
#Ion_Source LC-ESI
#Instrument qTof
#Compound_Source NIH Pharmacologically Active Library
#PI Dorrestein
#Data_Collector VP/LMS
#Scan -1
#Precursor_MZ 352.081
#ExactMass 351.07
#Charge 1
#CAS_Number N/A
#Pubmed_ID N/A
#Smiles Cc1ccc(cc1)S(=O)(=O)N[C@@H](Cc2ccccc2)C(=O)CCl
#INCHI_AUX N/A
#Library_Class 3
#SpectrumID CCMSLIB00000085668
#IonMode Positive
#UpdateWorkflowName UPDATE-SINGLE-ANNOTATED-BRONZE
#LibraryQualityString Bronze
#TaskID d252d724072548979f1f6f1ced849daf
##Scan# 2280
#SpectrumFile p4-D11_GD11_01_18371.mzXML
#LibraryName Pharm_Active_Library.mgf
#MQScore -1
#Organism Pharm_Active_Library
#TIC_Query 0
#RT_Query -1
#MZErrorPPM -1
#SharedPeaks 0
#MassDiff 0
#LibMZ -1
#SpecMZ 352.081
#SpecCharge 0
#internalFilename spec-00000.mgf

>collision 10
45.941662 184.0
46.286316 224.0
46.610512 180.0
46.897667 124.0
47.1488 152.0
47.654446 164.0
47.928257 156.0
48.26506 124.0
49.708214 128.0
49.956902 208.0
51.480625 140.0
52.02903 192.0
55.475285 96.0
57.181141 168.0
57.294075 120.0
61.71505 196.0
65.370117 172.0
65.413574 116.0
67.305641 216.0
68.050644 168.0
68.624863 56.0
69.241241 208.0
69.418564 112.0
69.710732 176.0
69.862038 40.0
70.801773 152.0
72.244301 160.0
73.245857 240.0
77.706551 184.0
78.295418 160.0
78.93248 104.0
79.105865 140.0
80.159088 148.0
80.683846 140.0
80.94149 152.0
81.644951 136.0
83.184387 240.0
85.979424 176.0
86.709953 116.0
86.798935 176.0
88.477707 128.0
88.595688 124.0
90.768883 140.0
91.055176 1504.0
91.104828 124.0
91.188438 104.0
91.578476 68.0
91.702324 28.0
92.055267 424.0
92.169884 112.0
92.416542 128.0
92.504578 132.0
92.613724 124.0
92.744019 80.0
92.793861 124.0
95.046745 180.0
96.384476 20.0
97.024498 100.0
97.513275 136.0
98.947372 144.0
99.385391 108.0
101.0411 156.0
101.869064 164.0
103.052559 192.0
103.622223 140.0
104.057053 172.0
104.131386 136.0
105.184074 196.0
106.063644 152.0
106.37339 152.0
107.282646 184.0
108.863434 140.0
113.346481 116.0
114.223305 72.0
115.054001 552.0
115.297913 108.0
116.063416 208.0
116.822433 156.0
117.069267 1108.0
117.233681 44.0
118.068497 344.0
118.151352 64.0
119.081955 208.0
120.078606 468.0
120.141365 124.0
120.847046 72.0
121.899551 72.0
121.930321 80.0
125.013237 136.0
125.269287 144.0
125.525597 164.0
126.896255 208.0
127.054008 312.0
127.241768 56.0
128.063232 492.0
129.58287 176.0
130.06517 992.0
131.07222 668.0
132.054977 204.0
132.063248 196.0
132.071838 120.0
132.08136 236.0
132.966934 144.0
134.101822 220.0
134.804718 176.0
136.085648 188.0
138.928329 208.0
139.020203 204.0
142.064484 256.0
143.071091 716.0
143.609756 120.0
144.055557 236.0
144.07901 1024.0
145.059082 164.0
145.084183 708.0
146.978027 112.0
151.97847 136.0
152.022644 52.0
152.92952 88.0
153.096939 196.0
154.031723 92.0
155.016647 580.0
155.063507 152.0
156.022385 272.0
156.121109 56.0
157.092499 76.0
161.086487 160.0
161.195129 120.0
162.090454 884.0
163.070496 148.0
163.093384 116.0
163.289154 132.0
164.022461 128.0
164.101486 180.0
164.208588 96.0
165.821884 44.0
167.011642 188.0
167.036377 116.0
178.042694 192.0
179.050674 144.0
179.086716 144.0
179.902679 152.0
180.025497 188.0
180.055817 504.0
181.046326 268.0
182.044678 160.0
183.061172 100.0
183.975204 136.0
184.045563 144.0
188.749023 60.0
189.025299 120.0
193.013931 136.0
194.979401 100.0
196.050858 144.0
196.089874 156.0
197.631363 40.0
198.044098 156.0
202.085449 208.0
217.870209 164.0
220.111618 144.0
224.065399 108.0
226.051804 288.0
227.045578 188.0
232.090668 112.0
235.123566 108.0
314.973846 116.0
331.892426 128.0
337.927826 140.0
343.106384 148.0
354.21817 92.0
355.297821 192.0
408.04715 124.0
426.861969 132.0
828.223572 168.0
837.77655 176.0
863.497437 176.0
934.370911 268.0
992.19043 120.0
1023.192566 212.0
1023.37085 272.0
1034.850952 92.0
1054.787964 176.0
1064.0 136.0
1112.53186 128.0
1152.740723 132.0
1184.583008 148.0
1191.57373 52.0
1196.718384 188.0
1213.674438 72.0
1218.220459 96.0
1231.755493 152.0
1266.186035 268.0
1268.524292 112.0
1273.960205 184.0
1289.208008 164.0
1290.180176 148.0
1290.487549 160.0
1302.3479 28.0
1306.711426 232.0
1321.18396 184.0
1324.75293 220.0
1330.09729 180.0
1345.932129 292.0
1350.982422 200.0
1359.173706 160.0
1385.680908 140.0
1389.63269 172.0
1397.32251 148.0
1400.367065 148.0
1401.365356 148.0
1401.462158 184.0
1410.634399 184.0
1411.531616 148.0
1419.769165 144.0
1422.800537 180.0
1431.929321 40.0
1435.245117 184.0
1442.70459 124.0
1444.027832 152.0
1455.15979 92.0
1455.387573 196.0
1460.456543 184.0
1461.293335 168.0
1476.435059 184.0
1480.552368 172.0
1490.540405 200.0
1490.61731 288.0
1492.977295 160.0
