>compound MLS001049023-01!6,7-dimethoxy-2-methyl-3,4-dihydroisoquinolin-1-one
>formula C12H15NO3
>ionization [M+H]+
>parentmass 222.111877
#inchi InChI=1S/C12H15NO3/c1-13-5-4-8-6-10(15-2)11(16-3)7-9(8)12(13)14/h6-7H,4-5H2,1-3H3
#inchikey BDIZBBGNYDRCCA
#Ion_Source LC-ESI
#Instrument qTof
#Compound_Source NIH Natural Product Library
#PI Dorrestein
#Data_Collector VVP/LMS
#Scan -1
#Precursor_MZ 222.113
#ExactMass 221.105
#Charge 1
#CAS_Number N/A
#Pubmed_ID N/A
#Smiles COc1cc2CCN(C)C(=O)c2cc1OC
#INCHI_AUX N/A
#Library_Class 1
#SpectrumID CCMSLIB00000080004
#IonMode Positive
#UpdateWorkflowName UPDATE-SINGLE-ANNOTATED-GOLD
#LibraryQualityString Gold
#TaskID b1d8e8f6646f4e71acdff9ca3d919d08
##Scan# 1565
#SpectrumFile p2-G02_GG2_01_18050.mzXML
#LibraryName NIH_Natural_Products_Library.mgf
#MQScore -1
#Organism NIH_Natural_Products_Library
#TIC_Query 0
#RT_Query -1
#MZErrorPPM -1
#SharedPeaks 0
#MassDiff 0
#LibMZ -1
#SpecMZ 222.113
#SpecCharge 0
#internalFilename spec-00000.mgf

>collision 10
95.047318 196.0
95.247292 80.0
95.433861 120.0
96.076576 220.0
96.649048 128.0
96.662743 88.0
96.88987 92.0
97.07412 204.0
97.123154 156.0
97.231064 196.0
98.445755 88.0
98.946014 56.0
99.169868 188.0
99.310638 188.0
99.801163 160.0
100.965744 180.0
101.456322 176.0
101.514473 96.0
101.614761 168.0
102.047592 208.0
103.054321 1520.0
103.149353 36.0
103.210007 72.0
103.301018 60.0
103.367783 80.0
103.390045 28.0
104.059464 1048.0
104.365784 120.0
104.447136 52.0
104.571251 216.0
104.748398 152.0
104.79982 252.0
104.821747 60.0
105.030983 344.0
105.069298 1948.0
105.164368 172.0
105.425797 84.0
105.454407 184.0
105.722328 36.0
105.789871 48.0
105.949608 32.0
105.980347 232.0
106.042542 228.0
106.070518 104.0
106.22226 140.0
106.624702 108.0
106.848839 124.0
106.972321 116.0
107.048973 1156.0
107.07914 228.0
107.186516 92.0
107.213303 80.0
107.530914 248.0
107.824196 176.0
107.981323 172.0
108.051735 204.0
108.752083 112.0
109.026237 232.0
109.063644 316.0
109.105225 48.0
109.1884 148.0
109.711044 232.0
109.907097 152.0
110.155548 112.0
110.209862 44.0
110.732857 156.0
110.755898 156.0
110.869034 124.0
111.152138 228.0
111.616364 188.0
111.8078 164.0
111.908844 152.0
111.938324 56.0
112.003609 168.0
112.46328 216.0
112.70192 244.0
112.778 32.0
113.084694 36.0
113.485077 152.0
113.599602 224.0
114.090164 160.0
114.111427 256.0
114.622269 168.0
114.811996 160.0
114.86319 168.0
115.455925 156.0
116.020111 180.0
116.058708 172.0
116.36338 164.0
116.391296 164.0
116.627617 84.0
117.027756 184.0
117.064362 184.0
117.322922 200.0
118.042084 1520.0
118.067871 172.0
118.336197 32.0
118.96492 252.0
119.048668 1988.0
119.192978 276.0
119.375572 80.0
119.619255 112.0
120.058014 464.0
120.596474 208.0
121.029305 236.0
121.063858 2240.0
121.215828 212.0
121.485512 168.0
121.683029 192.0
121.953232 92.0
122.070595 956.0
122.237045 160.0
122.369003 176.0
122.503349 36.0
123.044235 412.0
123.06353 144.0
123.636063 76.0
123.693604 120.0
124.072426 152.0
125.227943 124.0
125.580101 224.0
125.649254 240.0
126.279198 32.0
126.491768 168.0
126.565422 196.0
126.84642 136.0
127.449417 172.0
127.519081 52.0
127.685455 148.0
128.014023 236.0
128.045563 148.0
128.90509 136.0
128.963852 156.0
129.332535 220.0
129.404984 200.0
130.063553 164.0
130.085114 136.0
130.282684 200.0
130.339127 128.0
131.048431 480.0
131.073425 184.0
131.395966 112.0
131.512344 132.0
131.674454 256.0
132.00354 168.0
132.046951 388.0
132.081299 164.0
132.207138 208.0
132.273514 60.0
132.644608 124.0
132.855591 152.0
132.935898 136.0
132.970322 212.0
133.029648 504.0
133.064438 1944.0
133.341476 140.0
133.491821 36.0
133.595322 68.0
133.993607 136.0
134.032776 152.0
134.071594 3952.0
134.121246 228.0
134.150314 40.0
134.424789 76.0
134.600235 44.0
134.621017 44.0
134.902893 168.0
134.988449 168.0
135.044083 3168.0
135.078873 1600.0
135.159622 40.0
135.349426 60.0
135.636703 48.0
135.673798 104.0
135.868607 40.0
135.966064 160.0
136.051056 548.0
136.082092 164.0
136.277237 160.0
136.821472 116.0
136.916946 124.0
137.060272 352.0
137.091278 188.0
137.728607 248.0
138.039444 196.0
138.067215 168.0
138.14003 88.0
138.746567 168.0
139.601257 56.0
139.968353 176.0
140.071976 180.0
140.593048 136.0
141.361099 208.0
143.07399 208.0
143.417847 124.0
144.078857 96.0
144.456573 212.0
145.203903 148.0
145.273468 184.0
145.799316 180.0
146.001251 184.0
146.033997 208.0
146.060364 332.0
147.042099 308.0
147.711349 180.0
147.834732 152.0
147.994507 124.0
148.046555 316.0
148.07373 884.0
149.059174 856.0
149.224655 140.0
149.626099 124.0
149.713745 104.0
149.954941 52.0
150.067459 10784.0
150.132919 144.0
150.17926 40.0
150.259766 88.0
150.384216 52.0
150.446243 68.0
150.48674 60.0
150.564896 196.0
150.694351 104.0
150.731003 56.0
151.004807 48.0
151.071793 1600.0
151.242157 56.0
151.49437 96.0
151.615311 212.0
151.827728 60.0
151.940552 76.0
152.046066 112.0
152.076126 260.0
153.08844 100.0
154.097321 176.0
155.700027 228.0
158.241043 28.0
158.321167 152.0
158.671967 172.0
158.837479 164.0
159.041245 136.0
160.076111 484.0
161.081924 368.0
161.153625 76.0
161.234497 64.0
161.328018 168.0
161.530319 228.0
162.053879 180.0
162.084793 204.0
163.035645 268.0
163.074371 1356.0
163.095306 480.0
163.697845 88.0
163.888885 140.0
164.07457 204.0
164.096085 208.0
164.799789 112.0
165.022156 216.0
165.053009 172.0
165.091171 14800.0
165.324265 76.0
165.513428 28.0
165.555084 208.0
166.094849 1912.0
166.436539 84.0
166.788498 60.0
166.842484 108.0
167.099625 500.0
167.151123 100.0
168.360168 76.0
168.491898 116.0
169.532089 156.0
169.700577 124.0
170.445526 140.0
170.832916 156.0
171.082748 216.0
171.163452 104.0
172.073441 144.0
173.958405 44.0
174.049866 300.0
174.383926 204.0
175.039001 372.0
175.07959 328.0
175.233917 112.0
175.819305 84.0
176.033142 168.0
176.073471 168.0
176.099167 76.0
176.630463 100.0
177.032761 76.0
177.075333 144.0
178.087219 624.0
178.303528 84.0
179.071793 324.0
179.091599 488.0
180.069946 168.0
181.078247 88.0
182.245193 156.0
183.966171 192.0
184.671448 84.0
188.070938 860.0
188.488434 40.0
189.081543 496.0
190.084778 664.0
191.065781 148.0
191.086456 172.0
192.066605 200.0
192.791901 176.0
193.090881 308.0
193.131973 156.0
193.610779 208.0
194.070786 120.0
194.118591 456.0
195.043335 100.0
195.123077 144.0
195.312164 156.0
195.412323 196.0
195.618271 48.0
195.860535 44.0
196.27858 56.0
201.369415 80.0
203.050583 48.0
203.979065 120.0
204.062759 128.0
204.100464 864.0
204.363007 116.0
206.081329 2312.0
206.316681 56.0
206.880264 132.0
207.029144 44.0
207.091812 444.0
208.090118 196.0
208.598618 72.0
213.7995 208.0
221.039062 188.0
221.906937 172.0
222.111877 2500.0
222.159027 144.0
222.215393 164.0
223.115845 252.0
223.525757 48.0
234.071182 96.0
264.501526 68.0
268.09375 76.0
270.998718 20.0
292.642853 60.0
298.930939 76.0
299.864227 48.0
302.537811 68.0
307.728516 116.0
321.082062 64.0
351.511139 48.0
434.922485 108.0
465.527588 80.0
493.576202 80.0
505.032501 92.0
641.711365 104.0
775.243958 228.0
778.761353 132.0
786.020874 72.0
814.88446 212.0
819.498718 64.0
823.143555 108.0
855.315369 156.0
870.739624 60.0
893.450134 156.0
902.760864 224.0
917.133972 136.0
932.647461 208.0
936.322327 140.0
939.595642 196.0
953.999634 80.0
954.184082 184.0
962.724243 184.0
973.977844 132.0
975.462952 56.0
986.921753 224.0
989.681091 244.0
998.007324 124.0
1006.873657 168.0
1017.664001 168.0
1018.24823 120.0
1025.494873 204.0
1042.422485 156.0
1051.5802 180.0
1056.46521 160.0
1073.273682 148.0
1107.957642 164.0
1112.261475 104.0
1113.337036 152.0
1116.965942 148.0
1126.845703 176.0
1130.784302 160.0
1136.352905 196.0
1141.175171 144.0
1148.529053 116.0
1159.055298 192.0
1159.312744 128.0
1160.132935 56.0
1164.394043 180.0
1171.413452 192.0
1173.955688 196.0
1176.234497 188.0
1181.202271 224.0
1183.029297 96.0
1191.526367 144.0
1207.359497 196.0
1208.037354 236.0
1216.304199 124.0
1217.178955 148.0
1219.631348 220.0
1223.756592 176.0
1223.993286 68.0
1234.64917 56.0
1236.265259 204.0
1239.934937 172.0
1249.857544 200.0
1258.273071 156.0
1261.24707 148.0
1264.30249 236.0
1266.759399 52.0
1271.53833 164.0
1272.049316 136.0
1278.930054 184.0
1279.506592 128.0
1283.439575 48.0
1283.960083 132.0
1290.193604 128.0
1290.687012 160.0
1297.76123 168.0
1300.853271 148.0
1310.83606 220.0
1311.052246 48.0
1311.592773 64.0
1311.859497 156.0
1312.883423 60.0
1314.109619 56.0
1314.636353 144.0
1316.924927 140.0
1317.33667 212.0
1319.179443 160.0
1323.194458 176.0
1328.818604 120.0
1330.734619 184.0
1333.698608 148.0
1341.669434 208.0
1342.682983 188.0
1348.998779 152.0
1351.829346 160.0
1353.132202 156.0
1354.765381 220.0
1355.629883 188.0
1355.908447 84.0
1356.362793 260.0
1360.82312 168.0
1361.697021 144.0
1363.408813 156.0
1364.55542 208.0
1365.062866 120.0
1367.615723 156.0
1375.133545 172.0
1375.369751 116.0
1375.546875 48.0
1377.200928 156.0
1381.828491 136.0
1382.109619 56.0
1385.846191 56.0
1387.709106 192.0
1390.772949 184.0
1401.049683 224.0
1401.109253 28.0
1402.748657 132.0
1403.240723 156.0
1403.427124 184.0
1404.374146 160.0
1417.007568 108.0
1442.36084 156.0
1443.479736 172.0
1444.258789 156.0
1445.408691 192.0
1449.626465 172.0
1464.859863 64.0
1465.141724 168.0
1465.835083 172.0
1466.932495 132.0
1467.443359 160.0
1468.907593 188.0
1472.937866 140.0
1475.59729 180.0
1482.041748 148.0
1482.340576 48.0
1488.500244 192.0
1488.600098 108.0
1493.972534 128.0
1494.395752 184.0
1495.958008 208.0
1499.917358 132.0
1500.935059 144.0
