>compound MLS001332507-01!Dexamethasone50-02-2
>formula C22H29FO5
>ionization [M+H]+
>parentmass 393.20717870009054
#inchi InChI=1S/C22H29FO5/c1-12-8-16-15-5-4-13-9-14(25)6-7-19(13,2)21(15,23)17(26)10-20(16,3)22(12,28)18(27)11-24/h6-7,9,12,15-17,24,26,28H,4-5,8,10-11H2,1-3H3/t12-,15+,16+,17+,19+,20+,21+,22+/m1/s1
#inchikey UREBDLICKHMUKA
#Ion_Source LC-ESI
#Instrument qTof
#Compound_Source NIH Pharmacologically Active Library
#PI Dorrestein
#Data_Collector VP/LMS
#Scan -1
#Precursor_MZ 393.211
#ExactMass 392.2
#Charge 1
#CAS_Number N/A
#Pubmed_ID N/A
#Smiles C[C@@H]1C[C@H]2[C@@H]3CCC4=CC(=O)C=C[C@]4(C)[C@@]3(F)[C@@H](O)C[C@]2(C)[C@@]1(O)C(=O)CO
#INCHI_AUX N/A
#Library_Class 1
#SpectrumID CCMSLIB00000085865
#IonMode Positive
#UpdateWorkflowName UPDATE-SINGLE-ANNOTATED-GOLD
#LibraryQualityString Gold
#TaskID d252d724072548979f1f6f1ced849daf
##Scan# 1773
#SpectrumFile p4-G04_GG4_01_18400.mzXML
#LibraryName Pharm_Active_Library.mgf
#MQScore -1
#Organism Pharm_Active_Library
#TIC_Query 0
#RT_Query -1
#MZErrorPPM -1
#SharedPeaks 0
#MassDiff 0
#LibMZ -1
#SpecMZ 393.211
#SpecCharge 0
#internalFilename spec-00000.mgf

>collision 10
44.935616 152.0
44.957958 172.0
44.999683 200.0
45.01704 116.0
45.042419 140.0
45.057114 64.0
45.0825 184.0
45.14801 128.0
45.25193 164.0
45.319359 132.0
45.334099 196.0
45.405865 136.0
45.581024 180.0
45.628067 280.0
45.700699 188.0
45.896011 180.0
46.020912 320.0
46.071476 100.0
46.30685 140.0
46.369175 112.0
46.396286 104.0
46.440876 204.0
46.481739 124.0
46.514717 188.0
46.556843 136.0
46.580853 172.0
46.793011 144.0
46.874741 60.0
46.986549 56.0
47.009747 132.0
47.032948 88.0
47.072544 156.0
47.224247 128.0
47.240662 188.0
47.387157 196.0
47.41045 204.0
47.431011 148.0
47.745441 200.0
47.83075 152.0
47.847271 128.0
47.943695 184.0
48.09127 136.0
48.102314 316.0
48.165836 228.0
48.175507 160.0
48.385727 204.0
48.407879 164.0
48.511799 160.0
48.546463 168.0
48.589462 124.0
48.604725 220.0
48.643589 168.0
48.683853 60.0
48.771385 208.0
48.813095 104.0
48.828396 172.0
48.842304 220.0
49.005192 116.0
49.055798 192.0
49.111141 184.0
49.154392 156.0
49.254917 108.0
49.347157 164.0
49.429684 132.0
49.44788 84.0
49.495476 64.0
49.523487 180.0
49.58654 64.0
49.612766 180.0
49.836334 160.0
49.88131 172.0
49.999462 44.0
50.037472 180.0
50.051552 252.0
50.0769 196.0
50.237598 92.0
50.27993 48.0
50.411274 120.0
50.571091 168.0
50.599403 144.0
50.631973 152.0
50.780792 140.0
50.881325 180.0
50.931252 52.0
50.945457 156.0
51.12035 112.0
51.144543 160.0
51.277008 184.0
51.328331 132.0
51.359711 184.0
51.521023 212.0
51.585331 140.0
51.605347 80.0
51.62537 108.0
51.718369 128.0
51.903183 120.0
51.936169 116.0
51.974907 108.0
52.061039 132.0
52.178867 120.0
52.264374 184.0
52.330776 200.0
52.352982 136.0
52.38755 116.0
52.569229 184.0
52.60387 120.0
52.63419 180.0
52.694855 152.0
52.794147 176.0
52.839504 184.0
52.878513 112.0
52.913254 64.0
53.020451 100.0
53.033493 212.0
53.142262 172.0
53.162579 164.0
53.341232 200.0
53.441582 196.0
53.460499 128.0
53.584274 216.0
53.613419 116.0
53.636738 116.0
53.696522 76.0
53.715485 188.0
53.784069 168.0
53.857079 120.0
53.87899 124.0
53.978382 136.0
54.006172 180.0
54.117397 104.0
54.140827 120.0
54.155472 184.0
54.244858 108.0
54.331383 160.0
54.398891 164.0
54.428257 172.0
54.450287 40.0
54.61932 244.0
54.837242 164.0
54.916138 164.0
55.054127 208.0
55.235928 212.0
55.249241 140.0
55.352852 132.0
55.534767 204.0
55.612305 188.0
55.641994 124.0
55.685059 148.0
55.772724 140.0
55.805431 144.0
55.833988 176.0
56.030178 224.0
56.165836 76.0
56.195675 136.0
56.258358 148.0
56.312119 128.0
56.353947 184.0
56.368889 120.0
56.385326 360.0
56.53339 40.0
56.552845 104.0
56.597759 84.0
56.671158 156.0
56.689137 128.0
56.7491 148.0
56.762592 52.0
56.812092 276.0
56.872116 120.0
56.932175 224.0
56.996769 168.0
57.11404 184.0
57.14864 168.0
57.243473 204.0
57.376072 148.0
57.392658 200.0
57.410755 144.0
57.502117 196.0
57.554115 28.0
57.63266 212.0
57.661373 172.0
57.741508 232.0
57.950417 132.0
58.292732 196.0
58.393696 104.0
58.498688 164.0
58.510868 180.0
58.52914 96.0
58.628159 180.0
58.698288 180.0
58.902805 136.0
58.922665 188.0
59.025078 76.0
59.14135 116.0
59.36964 72.0
59.474499 176.0
59.485233 264.0
59.655239 184.0
59.667542 160.0
59.686108 160.0
59.707344 228.0
59.787521 168.0
59.802914 160.0
59.818306 152.0
59.88298 188.0
60.145107 48.0
60.308842 128.0
60.400074 200.0
60.448036 112.0
60.609711 208.0
60.778103 160.0
60.799831 188.0
60.858822 128.0
60.86969 188.0
60.883667 196.0
61.035961 156.0
61.115292 188.0
61.130856 264.0
61.165096 124.0
61.218784 184.0
61.295925 152.0
61.361389 180.0
61.512722 188.0
61.539261 156.0
61.586113 160.0
61.59861 180.0
61.863609 120.0
62.013275 144.0
62.060307 184.0
62.104221 168.0
62.119907 276.0
62.160702 168.0
62.193661 180.0
62.258034 156.0
62.27467 216.0
62.312363 184.0
62.333439 232.0
62.478096 144.0
62.545765 196.0
62.577251 208.0
62.597721 188.0
62.722191 136.0
62.876766 124.0
62.917809 132.0
63.080528 116.0
63.460503 104.0
63.493801 144.0
63.703327 188.0
63.727158 120.0
63.749405 152.0
64.007118 136.0
64.185593 304.0
64.341957 80.0
64.405838 184.0
64.525696 232.0
64.536888 164.0
64.604057 124.0
64.663269 196.0
64.792976 204.0
64.863487 200.0
65.06884 192.0
65.145927 156.0
65.161995 172.0
65.26165 176.0
65.319542 192.0
65.383148 144.0
65.403221 168.0
65.420929 212.0
65.602974 160.0
65.623932 204.0
65.656181 160.0
65.686829 192.0
65.770744 140.0
65.935493 216.0
65.95974 160.0
66.158722 152.0
66.240242 224.0
66.300034 252.0
66.335304 136.0
66.361244 180.0
66.411484 200.0
66.47641 40.0
66.541344 204.0
66.658295 120.0
66.686829 240.0
66.770874 144.0
66.811134 36.0
66.830658 156.0
66.972298 72.0
67.060287 184.0
67.148331 180.0
67.459175 240.0
67.574699 96.0
67.613976 152.0
67.805595 204.0
67.91217 144.0
67.990929 168.0
68.040169 128.0
68.074654 120.0
68.201164 120.0
68.253777 88.0
68.270218 216.0
68.467712 176.0
68.487473 84.0
68.617668 156.0
68.630859 164.0
68.860245 192.0
68.985832 48.0
69.080093 204.0
69.167801 216.0
69.197601 208.0
69.213425 244.0
69.240654 160.0
69.267159 192.0
69.333435 152.0
69.346695 172.0
69.373215 120.0
69.391449 140.0
69.509224 36.0
69.563179 196.0
69.593025 148.0
69.613808 36.0
69.751221 176.0
69.813232 148.0
69.826538 280.0
69.883095 120.0
69.926361 160.0
70.061249 112.0
70.286339 76.0
70.470009 260.0
70.533516 92.0
70.566956 132.0
70.607086 88.0
70.653931 128.0
70.828033 48.0
70.848137 196.0
70.982224 160.0
71.207108 136.0
71.413849 124.0
71.440765 136.0
71.499657 168.0
71.615494 180.0
71.65963 188.0
71.674797 64.0
71.708504 192.0
71.757393 72.0
71.787743 160.0
71.814728 196.0
71.861961 184.0
71.92804 132.0
71.94635 144.0
71.981812 204.0
72.11866 136.0
72.133873 100.0
72.190277 244.0
72.248871 140.0
72.277634 164.0
72.307274 148.0
72.401215 120.0
72.485924 200.0
72.574776 156.0
72.616463 276.0
72.697899 144.0
72.721657 92.0
72.752213 236.0
72.764099 140.0
72.811646 140.0
72.93058 160.0
72.956085 156.0
72.991791 128.0
73.04451 192.0
73.158264 128.0
73.243675 140.0
73.262421 44.0
73.28968 152.0
73.349327 164.0
73.388542 84.0
73.473824 152.0
73.895836 160.0
74.049904 156.0
74.099579 152.0
74.159561 144.0
74.207565 212.0
74.229851 148.0
74.264153 252.0
74.38942 144.0
74.485588 160.0
74.592125 172.0
74.61792 220.0
74.896706 136.0
75.012161 164.0
75.041473 188.0
75.066299 212.0
75.088036 116.0
75.113907 160.0
75.153587 196.0
75.262329 212.0
75.327965 116.0
75.359062 156.0
75.374611 112.0
75.485245 160.0
75.535408 160.0
75.744865 248.0
75.80204 172.0
75.819366 212.0
75.871368 196.0
75.911255 176.0
76.022278 164.0
76.095985 208.0
76.152496 100.0
76.197662 108.0
76.215034 148.0
76.235886 188.0
76.524651 36.0
76.552513 208.0
76.599533 116.0
76.674461 56.0
76.742447 160.0
76.808723 200.0
76.951828 184.0
77.000725 212.0
77.030022 192.0
77.138763 136.0
77.191216 112.0
77.262932 280.0
77.306679 116.0
77.338181 156.0
77.400063 208.0
77.496712 200.0
77.625511 148.0
77.804489 48.0
77.853653 116.0
78.080368 192.0
78.101479 88.0
78.131378 176.0
78.32679 204.0
78.423706 148.0
78.448387 176.0
78.460724 136.0
78.61145 196.0
78.653015 160.0
78.768715 208.0
78.898567 144.0
78.935699 152.0
79.070152 64.0
79.326996 128.0
79.348274 100.0
79.37487 208.0
79.400681 164.0
79.451141 144.0
79.536324 80.0
79.753029 148.0
79.847267 208.0
79.877502 160.0
80.066177 120.0
80.18911 132.0
80.283607 180.0
80.324631 228.0
80.347565 192.0
80.442406 160.0
80.48526 192.0
80.635323 152.0
80.678223 176.0
80.71756 116.0
80.903641 148.0
80.977058 196.0
81.11145 108.0
81.125793 160.0
81.330292 64.0
81.463173 196.0
81.488327 148.0
81.777863 212.0
81.806664 108.0
81.952545 176.0
81.975975 64.0
82.091347 200.0
82.188759 176.0
82.446999 164.0
82.549004 264.0
82.698402 96.0
82.797981 192.0
83.031784 192.0
83.060806 116.0
83.091644 188.0
83.129753 156.0
83.331306 156.0
83.456726 176.0
83.584053 220.0
83.846298 180.0
83.900986 268.0
83.997635 204.0
84.216682 184.0
84.242256 108.0
84.302559 48.0
84.393959 104.0
84.426872 136.0
84.507362 172.0
84.520172 192.0
84.534805 140.0
84.547615 140.0
84.582397 88.0
84.69593 64.0
84.723404 160.0
84.818703 220.0
84.893875 172.0
84.956238 156.0
85.04248 156.0
85.064514 84.0
85.345612 208.0
85.360321 228.0
85.463333 196.0
85.584824 160.0
85.617966 176.0
85.678757 184.0
85.702705 228.0
85.739517 148.0
85.74192 144.0
85.749207 188.0
85.929497 176.0
85.999626 108.0
86.115952 60.0
86.146133 212.0
86.189026 180.0
86.256386 188.0
86.298904 188.0
86.330345 124.0
86.352539 192.0
86.371033 156.0
86.393234 136.0
86.408035 160.0
86.437637 116.0
86.48391 148.0
86.561668 128.0
86.580185 248.0
86.696899 184.0
86.763634 180.0
86.837807 200.0
86.858215 156.0
87.307701 156.0
87.361641 40.0
87.452827 128.0
87.493782 104.0
87.514259 112.0
87.631607 344.0
87.722931 60.0
87.812851 124.0
87.918777 188.0
87.989716 140.0
88.007896 208.0
88.170906 164.0
88.197075 156.0
88.279343 40.0
88.374741 144.0
88.559364 188.0
88.578812 152.0
88.762489 180.0
88.813126 48.0
88.828133 140.0
88.959496 176.0
89.004555 172.0
89.059021 76.0
89.137932 168.0
89.284569 168.0
89.33535 40.0
89.461441 232.0
89.497215 128.0
89.74028 100.0
89.776108 76.0
89.828926 116.0
89.968536 180.0
90.066772 168.0
90.081886 184.0
90.191772 108.0
90.331421 168.0
90.350342 124.0
90.37957 192.0
90.416573 84.0
90.515015 60.0
90.573723 76.0
90.640038 140.0
90.693886 200.0
90.713181 244.0
90.736702 232.0
90.958664 152.0
91.034615 208.0
91.053413 1108.0
91.084 112.0
91.097298 68.0
91.116295 140.0
91.177101 76.0
91.215118 96.0
91.265236 188.0
91.295906 192.0
91.331108 172.0
91.449081 120.0
91.46241 172.0
91.589989 372.0
91.630791 220.0
91.71003 120.0
91.77005 116.0
91.835876 120.0
91.851135 128.0
91.929367 64.0
91.998077 252.0
92.059425 532.0
92.169975 216.0
92.183357 104.0
92.254074 104.0
92.273193 164.0
92.313347 108.0
92.338211 180.0
92.544891 152.0
92.571701 184.0
92.621498 104.0
92.732635 144.0
92.769051 176.0
92.843834 100.0
92.9244 136.0
92.960861 140.0
93.041481 184.0
93.070969 716.0
93.110603 64.0
93.218193 100.0
93.300842 60.0
93.389305 228.0
93.470108 160.0
93.520142 64.0
93.627968 40.0
93.818726 148.0
94.042496 172.0
94.13324 164.0
94.224022 140.0
94.268463 192.0
94.301323 168.0
94.326447 52.0
94.387962 172.0
94.616638 160.0
94.676666 184.0
94.709595 176.0
94.742523 160.0
94.8937 156.0
94.930328 216.0
94.951874 192.0
95.05323 376.0
95.085449 1148.0
95.200294 184.0
95.301308 152.0
95.377098 192.0
95.398483 216.0
95.507385 128.0
95.618286 176.0
95.643593 156.0
95.659164 116.0
95.690315 184.0
95.85199 188.0
95.955803 228.0
95.972839 48.0
96.027443 196.0
96.083603 168.0
96.1894 132.0
96.382759 188.0
96.431618 116.0
96.523499 140.0
96.546967 188.0
96.681961 140.0
96.777878 188.0
96.891479 52.0
96.942429 128.0
97.061638 180.0
97.103195 176.0
97.166763 184.0
97.266052 164.0
97.328056 124.0
97.35244 64.0
97.592178 200.0
97.646423 420.0
97.727905 100.0
97.773163 116.0
97.954315 172.0
98.01342 104.0
98.037064 136.0
98.07254 136.0
98.167183 88.0
98.299355 140.0
98.459259 164.0
98.482964 188.0
98.530373 268.0
98.560013 64.0
98.720131 328.0
98.822998 152.0
98.908096 236.0
99.040764 140.0
99.092278 168.0
99.121994 172.0
99.234985 180.0
99.27861 176.0
99.316292 148.0
99.518723 176.0
99.568367 104.0
99.59021 160.0
99.707443 156.0
99.725327 104.0
99.753159 208.0
99.786957 168.0
100.057541 172.0
100.188988 48.0
100.210907 212.0
100.396294 96.0
100.410255 44.0
100.449097 164.0
100.577858 76.0
100.689674 232.0
100.883499 104.0
100.979477 196.0
101.055496 136.0
101.135551 164.0
101.221642 160.0
101.286377 148.0
101.39077 216.0
101.436699 188.0
101.576393 172.0
101.650627 188.0
101.704819 232.0
101.973969 172.0
102.086563 76.0
102.13282 60.0
102.209267 184.0
102.473045 188.0
102.664543 148.0
102.947083 160.0
103.053215 744.0
103.090515 152.0
103.145088 56.0
103.165306 184.0
103.217873 104.0
103.232025 144.0
103.32103 168.0
103.624725 132.0
103.681465 140.0
103.985695 176.0
104.056694 164.0
104.109543 220.0
104.221375 156.0
104.312729 128.0
104.469315 164.0
104.530716 112.0
104.695251 144.0
104.776733 176.0
104.80526 188.0
104.854164 148.0
104.880661 112.0
104.917358 128.0
104.9561 92.0
105.003006 128.0
105.069504 2608.0
105.109085 248.0
105.170311 176.0
105.197281 132.0
105.247894 184.0
105.343887 120.0
105.417442 164.0
105.585083 180.0
105.605537 196.0
105.767189 76.0
105.840889 232.0
106.025261 76.0
106.07856 156.0
106.176979 204.0
106.295967 168.0
106.312386 104.0
106.437607 192.0
106.480736 100.0
106.500145 128.0
106.534142 188.0
106.729401 160.0
106.797264 212.0
106.877502 200.0
106.953651 108.0
107.048203 496.0
107.08448 2932.0
107.110146 172.0
107.279129 60.0
107.299744 104.0
107.394608 88.0
107.421425 440.0
107.468872 180.0
107.483322 212.0
107.578262 96.0
107.63607 132.0
107.657089 68.0
107.681969 232.0
107.702164 220.0
107.722816 112.0
107.766205 224.0
107.846802 72.0
107.917091 76.0
107.956383 48.0
108.053253 260.0
108.090546 512.0
108.26474 152.0
108.31826 196.0
108.351372 200.0
108.432564 120.0
108.585991 212.0
108.7416 56.0
108.764435 112.0
108.837097 156.0
108.89109 140.0
109.009514 140.0
109.026138 48.0
109.044838 192.0
109.065178 420.0
109.099373 1300.0
109.25695 36.0
109.373482 40.0
109.658844 200.0
109.6922 132.0
109.861938 208.0
109.909103 168.0
109.927887 208.0
109.955017 156.0
109.982147 196.0
110.074013 216.0
110.113693 172.0
110.205612 172.0
110.224419 48.0
110.278755 132.0
110.456497 44.0
110.510887 180.0
110.540184 64.0
110.579948 100.0
110.605064 72.0
110.642746 140.0
110.676247 116.0
110.701378 64.0
110.741173 104.0
110.783066 212.0
110.831253 188.0
110.885742 52.0
110.933952 172.0
111.003143 104.0
111.047859 232.0
111.078049 796.0
111.124809 208.0
111.334724 160.0
111.530121 204.0
111.610016 124.0
111.729904 132.0
111.873016 36.0
111.898277 108.0
112.041496 84.0
112.085747 176.0
112.100494 68.0
112.176369 240.0
112.471695 32.0
112.788551 156.0
112.862549 100.0
112.88369 188.0
112.911186 148.0
112.949257 144.0
113.061195 204.0
113.141838 60.0
113.167244 144.0
113.273499 140.0
113.451149 132.0
113.548691 104.0
113.59536 128.0
113.937157 192.0
113.966904 192.0
113.990273 36.0
114.042076 168.0
114.275108 164.0
114.33905 172.0
114.379494 156.0
114.405037 180.0
114.509384 56.0
114.656387 104.0
114.741653 160.0
114.762978 168.0
114.863213 32.0
115.053307 1192.0
115.162056 232.0
115.26033 128.0
115.496262 192.0
115.542572 148.0
115.626022 148.0
115.673111 132.0
115.688103 228.0
115.79731 252.0
115.846573 188.0
115.863716 148.0
115.978989 228.0
116.005157 88.0
116.02874 152.0
116.062347 324.0
116.120949 72.0
116.616936 204.0
116.862099 124.0
116.943871 140.0
117.008453 192.0
117.069191 1828.0
117.139359 128.0
117.299294 172.0
117.338097 168.0
117.558121 128.0
117.633659 196.0
117.696274 76.0
117.778343 48.0
117.86692 136.0
117.889542 160.0
117.949203 172.0
117.972832 68.0
118.020393 240.0
118.076233 132.0
118.184792 180.0
118.34063 168.0
118.531601 124.0
118.856522 180.0
118.967209 112.0
118.987885 152.0
119.025833 112.0
119.049019 136.0
119.084633 3372.0
119.197449 216.0
119.675995 204.0
119.698433 224.0
119.721725 32.0
120.026817 160.0
120.088707 704.0
120.114059 152.0
120.192604 64.0
120.330109 176.0
120.375969 64.0
120.463333 100.0
120.585701 148.0
120.603188 196.0
120.635979 36.0
120.692825 52.0
120.72374 172.0
120.834999 120.0
120.889702 120.0
120.931282 116.0
120.972878 216.0
120.996956 168.0
121.063873 6876.0
121.098648 1116.0
121.137123 240.0
121.153824 96.0
121.178749 48.0
121.211617 36.0
121.283936 184.0
121.345322 48.0
121.369438 168.0
121.397949 140.0
121.4813 248.0
121.496658 160.0
121.523621 156.0
121.542732 192.0
121.595398 140.0
121.713951 44.0
121.782028 160.0
121.80619 184.0
121.955612 56.0
122.066788 924.0
122.099075 260.0
122.193123 116.0
122.276741 172.0
122.292152 84.0
122.375809 204.0
122.503548 88.0
122.655602 188.0
122.733353 164.0
122.803474 188.0
123.079247 648.0
123.120026 156.0
123.390747 216.0
123.465927 80.0
123.485832 160.0
123.689407 140.0
124.092613 224.0
124.241211 156.0
124.523125 156.0
124.565331 148.0
124.62532 132.0
124.765343 184.0
125.058121 768.0
125.090714 260.0
125.219292 180.0
125.350739 164.0
125.384163 152.0
125.622757 184.0
125.64283 128.0
125.691917 108.0
125.738785 160.0
125.805748 176.0
125.883896 200.0
126.04142 124.0
126.061592 140.0
126.098709 160.0
126.136375 112.0
126.205681 208.0
126.35778 164.0
126.451767 136.0
126.483101 32.0
126.572655 160.0
126.686882 156.0
126.702568 180.0
126.868965 172.0
126.886345 164.0
126.958107 172.0
127.049667 364.0
127.160027 160.0
127.207161 244.0
127.712761 180.0
127.821953 188.0
127.994087 220.0
128.059723 3476.0
128.237854 216.0
128.426804 136.0
128.458374 112.0
128.512527 64.0
128.670517 148.0
128.713425 72.0
128.891876 108.0
129.06723 1900.0
129.099854 112.0
129.122467 120.0
129.364578 164.0
129.493652 156.0
129.532166 216.0
129.717987 228.0
129.91301 180.0
130.0242 156.0
130.075226 592.0
130.124084 180.0
130.222794 144.0
130.335327 124.0
130.362595 132.0
130.635437 140.0
130.729874 152.0
130.974625 80.0
131.048004 320.0
131.084747 3216.0
131.127289 232.0
131.161224 220.0
131.261795 176.0
131.346176 152.0
131.40094 204.0
131.487656 152.0
131.52417 108.0
131.715988 152.0
131.969666 112.0
132.055374 2016.0
132.08551 416.0
132.124817 120.0
132.157227 164.0
132.306 176.0
132.376984 184.0
132.46402 232.0
132.49379 140.0
132.693192 168.0
132.714539 140.0
132.867584 104.0
132.943222 160.0
133.064545 1844.0
133.098953 1040.0
133.152145 108.0
133.193481 164.0
133.221054 84.0
133.283081 148.0
133.317566 44.0
133.430191 160.0
133.749969 128.0
134.026337 128.0
134.065796 300.0
134.107101 164.0
134.231491 132.0
134.469116 236.0
134.485275 48.0
134.58223 152.0
134.672302 104.0
134.723129 188.0
134.794754 160.0
134.908005 160.0
134.933441 88.0
134.981995 144.0
135.01915 180.0
135.080139 4316.0
135.118088 148.0
135.185562 32.0
135.299576 112.0
135.553772 200.0
135.611725 112.0
135.6604 60.0
135.815765 164.0
135.841278 72.0
135.943375 144.0
135.961945 160.0
136.08316 348.0
136.122131 180.0
136.240585 172.0
136.335861 176.0
136.572159 192.0
136.598602 208.0
136.631165 40.0
136.673645 156.0
136.700974 52.0
136.754501 136.0
136.882553 164.0
137.015656 188.0
137.059525 260.0
137.094772 580.0
137.215759 196.0
137.285706 72.0
137.39534 120.0
137.449005 136.0
137.610062 156.0
137.656769 104.0
137.855331 180.0
137.941818 192.0
138.044693 128.0
138.068085 88.0
138.095612 700.0
138.156967 32.0
138.187378 208.0
138.28801 188.0
138.409744 56.0
138.48938 176.0
138.505768 172.0
138.648697 268.0
138.690887 188.0
138.763565 116.0
138.847977 180.0
139.016891 36.0
139.050888 148.0
139.071564 288.0
139.155396 136.0
139.930801 136.0
140.064804 116.0
140.218689 112.0
140.64325 72.0
140.725876 184.0
140.810883 152.0
140.938461 76.0
141.002258 148.0
141.025894 80.0
141.068604 2472.0
141.423279 196.0
141.833069 32.0
142.013275 64.0
142.036987 120.0
142.076538 1696.0
142.101044 216.0
142.131897 248.0
142.153244 48.0
142.174606 60.0
142.267181 156.0
142.300415 64.0
142.38591 128.0
142.568848 192.0
142.606873 156.0
142.751907 68.0
142.80423 184.0
142.958969 96.0
143.025696 200.0
143.045807 152.0
143.084076 3008.0
143.270798 196.0
143.325592 168.0
143.42569 80.0
143.491379 80.0
143.695175 120.0
143.789444 160.0
143.828827 48.0
143.886108 76.0
143.984024 92.0
144.0103 148.0
144.029404 160.0
144.058395 1060.0
144.087982 672.0
144.256424 152.0
144.32814 112.0
144.499649 188.0
144.574539 108.0
144.739716 156.0
144.881042 120.0
144.952911 160.0
145.063202 2920.0
145.099823 1432.0
145.139893 136.0
145.190262 124.0
145.240631 48.0
145.396576 180.0
145.583847 116.0
145.694336 164.0
145.761612 168.0
145.826508 172.0
146.071213 1264.0
146.102982 448.0
146.131912 216.0
146.17041 192.0
146.196884 164.0
146.270081 136.0
146.319702 176.0
146.382248 144.0
146.492447 156.0
146.606293 100.0
146.642456 92.0
146.709946 160.0
146.931824 212.0
146.955948 48.0
147.009735 168.0
147.079498 17484.0
147.119019 376.0
147.177689 128.0
147.37204 196.0
147.397842 128.0
147.426834 52.0
147.477585 108.0
147.521103 56.0
147.554947 132.0
147.576706 72.0
147.632324 68.0
147.667191 68.0
147.755692 56.0
147.804077 108.0
147.887665 180.0
147.908157 188.0
147.998505 204.0
148.02858 152.0
148.037262 112.0
148.042297 188.0
148.083237 1632.0
148.126205 168.0
148.200653 216.0
148.243378 52.0
148.26178 92.0
148.349045 132.0
148.370865 92.0
148.550323 124.0
148.882858 48.0
148.926575 208.0
149.001892 112.0
149.026184 164.0
149.043198 204.0
149.093109 2316.0
149.169571 84.0
149.232788 92.0
149.298447 208.0
149.365295 84.0
149.415207 64.0
149.507675 132.0
149.631821 332.0
149.692688 160.0
149.731659 168.0
149.843704 184.0
150.043564 216.0
150.060638 64.0
150.099045 332.0
150.209396 128.0
150.253311 88.0
150.556366 160.0
150.656143 144.0
150.777695 220.0
150.83699 116.0
150.858978 160.0
150.883438 224.0
150.929886 204.0
150.956787 124.0
151.008148 116.0
151.049728 160.0
151.072815 504.0
151.114166 308.0
151.419342 152.0
151.735458 84.0
151.909576 96.0
152.062271 376.0
152.100983 48.0
152.118164 84.0
152.405518 216.0
152.425186 164.0
152.457123 116.0
152.835831 164.0
153.06926 668.0
153.088593 1020.0
153.11647 96.0
153.283997 100.0
153.441757 180.0
153.49353 196.0
153.510803 44.0
153.606995 132.0
153.631653 156.0
153.656326 40.0
153.777252 156.0
153.955017 68.0
153.982178 132.0
154.031586 128.0
154.076935 764.0
154.155121 136.0
154.182297 76.0
154.367722 200.0
154.417175 64.0
154.449005 180.0
154.548294 96.0
154.716599 132.0
154.964279 184.0
155.058563 356.0
155.085083 1476.0
155.236938 212.0
155.311356 136.0
155.395691 104.0
155.467667 140.0
155.747757 256.0
155.792938 80.0
156.05452 300.0
156.089813 952.0
156.12851 172.0
156.264603 208.0
156.320068 80.0
156.34993 188.0
156.414642 152.0
156.599976 84.0
156.845581 144.0
156.955292 108.0
157.013763 152.0
157.062149 680.0
157.098007 1268.0
157.159821 172.0
157.342026 140.0
157.376984 136.0
157.49437 72.0
157.544327 120.0
157.659271 152.0
157.734253 152.0
157.834259 180.0
157.984329 80.0
158.029358 148.0
158.046875 140.0
158.070511 2592.0
158.107971 448.0
158.1595 32.0
158.252121 48.0
158.33226 36.0
158.37735 68.0
158.40239 108.0
158.502609 144.0
158.720917 184.0
158.938934 128.0
159.078506 5056.0
159.117447 388.0
159.207535 104.0
159.255951 136.0
159.305496 88.0
159.355743 68.0
159.514084 280.0
159.564362 32.0
159.669983 100.0
160.044937 68.0
160.083023 960.0
160.178421 84.0
160.238892 76.0
160.463196 80.0
160.508591 100.0
160.619568 72.0
160.962814 136.0
160.985535 124.0
161.062729 256.0
161.095001 3064.0
161.169937 76.0
161.253342 172.0
161.286194 152.0
161.316528 96.0
161.420197 92.0
161.526428 112.0
161.56691 80.0
161.733917 148.0
161.83519 92.0
161.895966 164.0
161.969421 92.0
162.017548 52.0
162.040634 168.0
162.095795 608.0
162.737854 60.0
163.075851 412.0
163.107895 252.0
163.157074 92.0
163.559021 168.0
163.673599 252.0
163.75 52.0
163.831512 52.0
163.854431 156.0
163.974213 104.0
163.997147 228.0
164.076172 152.0
164.094025 180.0
164.213867 84.0
164.272537 72.0
164.29805 40.0
164.660538 48.0
164.877701 184.0
165.068329 808.0
165.486526 156.0
165.581284 48.0
165.829803 44.0
166.075546 568.0
166.217072 72.0
166.351288 176.0
167.031509 140.0
167.08374 912.0
167.111023 204.0
167.20134 184.0
167.286285 52.0
167.388092 132.0
167.786072 124.0
167.853119 40.0
168.055237 596.0
168.090286 456.0
168.123993 44.0
168.286621 128.0
168.516495 236.0
168.798248 236.0
168.821518 28.0
169.063843 644.0
169.099487 392.0
169.292526 116.0
169.414261 132.0
169.458313 88.0
169.510132 112.0
169.704544 96.0
169.797897 68.0
169.854965 188.0
170.036606 96.0
170.069748 656.0
170.104263 160.0
170.161209 40.0
170.345596 60.0
170.366379 68.0
170.400146 40.0
170.519684 164.0
170.621063 160.0
170.787506 108.0
170.808319 132.0
170.920761 144.0
171.003464 124.0
171.033447 156.0
171.079376 8856.0
171.115295 724.0
171.209152 224.0
171.23259 32.0
171.261246 40.0
171.282074 56.0
171.302917 48.0
171.360229 132.0
171.396713 80.0
171.819107 60.0
171.876511 96.0
171.900345 212.0
172.08577 2032.0
172.118301 256.0
172.16629 72.0
172.192398 112.0
172.210678 76.0
172.234192 92.0
172.474594 48.0
172.678543 156.0
172.782333 144.0
172.806732 68.0
172.872147 60.0
172.890457 68.0
172.961136 176.0
172.979462 44.0
173.059021 368.0
173.09407 4900.0
173.147034 252.0
173.204666 96.0
173.243958 84.0
173.288498 108.0
173.327805 140.0
173.679108 104.0
173.873276 216.0
174.096878 748.0
174.162094 32.0
174.21463 128.0
174.343384 148.0
174.406464 96.0
174.703613 232.0
174.816757 148.0
174.877289 180.0
174.953629 176.0
175.040527 80.0
175.076172 592.0
175.110733 200.0
175.198563 72.0
175.348755 164.0
175.398834 52.0
175.427841 128.0
175.583405 116.0
175.746964 108.0
175.997726 136.0
176.05983 340.0
176.08432 172.0
176.115952 340.0
176.671707 152.0
176.71669 112.0
176.848999 132.0
177.03093 140.0
177.09198 892.0
177.256866 80.0
177.360229 36.0
177.458313 104.0
177.484833 160.0
177.649277 180.0
177.704987 32.0
178.076065 1464.0
178.121796 160.0
178.238708 164.0
178.337036 132.0
178.475281 136.0
178.903641 148.0
179.050293 316.0
179.084732 1696.0
179.131104 156.0
179.225922 56.0
179.257904 204.0
179.307877 228.0
179.33252 76.0
179.484482 152.0
179.511154 180.0
179.751236 100.0
179.83931 128.0
179.858002 180.0
179.954102 188.0
180.091599 872.0
180.1651 36.0
180.250595 108.0
180.469788 128.0
180.550018 184.0
180.59816 56.0
180.924637 136.0
181.063736 620.0
181.09906 1388.0
181.1362 96.0
181.313034 44.0
181.331802 108.0
181.449753 56.0
181.81189 196.0
182.072571 1476.0
182.097626 420.0
182.582947 128.0
182.658264 160.0
182.916595 128.0
183.040436 212.0
183.077789 1732.0
183.112244 480.0
183.148453 336.0
183.19397 40.0
183.237076 96.0
183.387985 64.0
183.42572 160.0
183.463455 92.0
183.673813 152.0
183.716965 172.0
183.803314 152.0
183.91127 232.0
184.054352 92.0
184.084381 828.0
184.122574 168.0
184.432587 36.0
184.635376 176.0
184.662415 168.0
184.759796 52.0
184.800385 144.0
184.900513 108.0
185.093948 4444.0
185.137558 156.0
185.326935 180.0
185.694366 120.0
185.79744 240.0
186.025406 60.0
186.098328 1008.0
186.206192 76.0
186.214996 44.0
186.245361 52.0
186.337738 152.0
186.359467 188.0
186.721024 172.0
186.854324 164.0
186.881531 164.0
186.965881 44.0
187.001266 128.0
187.07515 1712.0
187.108871 1496.0
187.18367 148.0
187.216354 144.0
187.238144 180.0
187.472443 84.0
187.5215 40.0
187.595093 156.0
187.84053 184.0
187.987869 216.0
188.081329 256.0
188.114761 356.0
188.176208 176.0
188.484863 236.0
188.771896 144.0
188.843002 56.0
188.998947 160.0
189.071442 1132.0
189.196014 104.0
189.327454 212.0
189.719284 216.0
189.878326 152.0
189.924957 164.0
189.988052 136.0
190.074127 412.0
190.270737 100.0
190.649796 184.0
190.748749 108.0
190.770737 144.0
190.94397 180.0
190.990738 52.0
191.083496 1000.0
191.172318 140.0
191.230118 152.0
191.309952 220.0
191.381531 88.0
191.731384 232.0
191.783752 100.0
192.0457 148.0
192.090363 1028.0
192.12294 188.0
192.299545 52.0
192.357513 92.0
192.421021 116.0
192.440338 64.0
192.509369 100.0
192.548035 160.0
192.724838 116.0
193.098755 2948.0
193.164429 60.0
193.31279 220.0
193.374725 140.0
193.587906 84.0
193.773499 204.0
193.931458 48.0
193.978592 112.0
194.070236 628.0
194.105255 1544.0
194.294739 36.0
194.321182 188.0
194.794449 72.0
195.077942 1688.0
195.11261 1644.0
195.150192 184.0
195.247513 232.0
195.478424 112.0
195.500687 48.0
195.642654 100.0
195.840179 120.0
196.00473 64.0
196.085648 1840.0
196.121094 376.0
196.236084 36.0
196.50943 164.0
196.755035 60.0
196.939346 40.0
197.020355 152.0
197.057846 168.0
197.094269 2868.0
197.129883 732.0
197.16008 88.0
197.199203 172.0
197.344574 100.0
197.467621 88.0
197.685837 52.0
197.781006 164.0
197.862183 44.0
197.923782 64.0
198.044205 204.0
198.099182 1200.0
198.127106 176.0
198.17868 56.0
198.215103 44.0
198.273956 56.0
198.330582 220.0
198.547424 164.0
198.576355 164.0
198.697388 36.0
199.039825 76.0
199.072678 592.0
199.10965 1880.0
199.298248 152.0
199.475311 96.0
199.621521 92.0
200.057648 156.0
200.116074 372.0
200.330643 136.0
200.516785 40.0
200.578796 148.0
200.764893 140.0
201.06395 140.0
201.088837 132.0
201.130402 204.0
201.541199 168.0
201.676849 52.0
201.857788 176.0
201.990723 112.0
202.071854 468.0
202.096405 352.0
202.140137 316.0
202.33316 164.0
202.579544 92.0
202.712708 84.0
202.763733 96.0
202.996201 172.0
203.08316 1076.0
203.125366 148.0
203.177734 144.0
203.282715 228.0
204.092361 1800.0
204.251572 56.0
204.317001 28.0
204.342606 52.0
204.806641 148.0
204.869308 64.0
205.096298 1140.0
205.15715 188.0
205.264236 108.0
205.479431 40.0
205.590714 128.0
205.699188 76.0
205.967606 312.0
206.010452 188.0
206.050201 180.0
206.079773 344.0
206.107162 820.0
206.147598 100.0
206.462082 76.0
206.567917 120.0
206.645157 116.0
206.822586 72.0
206.971466 132.0
207.078476 1008.0
207.113434 1452.0
207.157623 44.0
207.323822 68.0
207.412674 68.0
207.447601 152.0
207.759659 180.0
207.808441 144.0
207.903137 152.0
207.99498 128.0
208.087189 3016.0
208.119843 312.0
208.155762 36.0
208.78801 160.0
208.816772 140.0
208.857635 172.0
208.972107 40.0
209.094131 3472.0
209.131729 1244.0
209.202362 124.0
209.323288 96.0
209.363602 216.0
209.461533 132.0
209.53067 80.0
209.576782 160.0
209.76123 144.0
209.957291 156.0
210.101303 2536.0
210.131287 204.0
210.196747 28.0
210.369919 76.0
210.453644 28.0
210.612488 136.0
210.771393 100.0
211.07515 308.0
211.110687 3316.0
211.143738 312.0
211.257126 92.0
211.317322 84.0
211.419159 184.0
211.613113 116.0
211.639175 120.0
211.694183 100.0
211.720245 40.0
211.801346 128.0
212.04184 64.0
212.084518 220.0
212.116364 2068.0
212.151993 168.0
212.207077 128.0
212.288269 144.0
212.325974 52.0
212.392685 112.0
212.43248 184.0
212.50293 156.0
212.630615 104.0
212.798981 56.0
212.89772 128.0
213.002274 156.0
213.091446 364.0
213.124466 2080.0
213.339371 100.0
213.389923 64.0
213.490585 76.0
213.540024 104.0
214.094681 160.0
214.131485 872.0
214.177475 60.0
214.42514 64.0
214.544647 140.0
215.043472 176.0
215.101562 820.0
215.14856 132.0
215.481506 128.0
215.618851 104.0
215.890747 48.0
215.912827 128.0
216.013596 76.0
216.091782 660.0
216.156967 116.0
216.189148 104.0
216.452621 96.0
216.631287 152.0
216.903809 152.0
216.962448 196.0
217.094818 568.0
217.188248 172.0
217.226379 228.0
217.302658 156.0
217.458191 108.0
217.597229 212.0
217.969208 200.0
218.080078 468.0
218.103668 664.0
218.304337 236.0
218.904678 128.0
219.080231 924.0
219.116806 1772.0
219.212814 60.0
220.042862 164.0
220.085403 564.0
220.120483 1096.0
220.32048 140.0
220.503693 216.0
220.548035 64.0
220.675156 72.0
221.053772 152.0
221.094879 3428.0
221.129532 1108.0
221.207687 156.0
221.388306 156.0
221.414963 44.0
221.486038 200.0
221.654922 60.0
221.80014 52.0
221.829788 160.0
222.101532 6012.0
222.269958 296.0
222.33403 72.0
222.37262 60.0
222.42308 172.0
222.476944 56.0
222.597 76.0
222.624985 152.0
222.678436 124.0
222.881638 60.0
222.990417 156.0
223.020142 144.0
223.058777 204.0
223.110489 5588.0
223.152954 148.0
223.177704 32.0
223.359116 88.0
223.391846 108.0
223.45134 56.0
223.501923 68.0
223.694809 144.0
223.73111 88.0
223.850204 88.0
224.07991 484.0
224.116745 2032.0
224.171936 36.0
224.267319 80.0
224.290131 128.0
224.307312 144.0
224.419357 188.0
224.502853 92.0
224.576065 132.0
224.783279 156.0
224.816101 116.0
225.048935 200.0
225.089005 420.0
225.124344 2264.0
225.437271 44.0
225.544876 88.0
225.709305 144.0
225.816971 56.0
226.096359 480.0
226.129654 468.0
226.169952 136.0
226.40358 168.0
226.745132 140.0
226.820068 108.0
227.100677 748.0
227.142487 1124.0
227.297287 312.0
227.356964 132.0
227.636154 84.0
227.657181 124.0
227.933548 108.0
228.117935 292.0
228.140121 308.0
228.887115 56.0
228.91423 56.0
229.103195 644.0
229.572632 260.0
229.6315 80.0
229.670715 116.0
229.729446 96.0
229.800446 120.0
230.110336 812.0
230.235138 32.0
230.633957 188.0
230.679306 220.0
230.846298 156.0
230.92424 60.0
231.077408 440.0
231.11528 1084.0
231.293381 188.0
231.329712 76.0
231.544693 132.0
231.802216 124.0
231.85675 152.0
231.996185 112.0
232.089355 320.0
232.122635 164.0
232.150055 172.0
232.235275 76.0
232.275192 144.0
232.709167 116.0
233.018982 72.0
233.09552 1312.0
233.124969 844.0
233.180038 116.0
233.420212 184.0
233.459747 56.0
233.648331 204.0
234.059235 160.0
234.100189 2480.0
234.136902 512.0
234.685867 224.0
234.966766 184.0
235.109894 3672.0
235.147827 416.0
235.266647 60.0
235.33992 132.0
235.550659 108.0
235.678101 180.0
236.070251 160.0
236.116089 580.0
236.154022 456.0
236.256836 68.0
236.373108 52.0
236.434311 64.0
236.455734 64.0
236.48761 92.0
236.627167 136.0
237.092148 472.0
237.126236 6756.0
237.190857 132.0
237.282837 48.0
237.491364 72.0
237.518967 48.0
237.592606 52.0
237.664902 92.0
237.785919 36.0
237.939407 52.0
237.991608 96.0
238.0242 116.0
238.094299 392.0
238.128464 2104.0
238.172394 152.0
238.486221 48.0
238.639938 36.0
239.106476 472.0
239.140564 2552.0
239.341492 92.0
239.44928 56.0
239.495483 64.0
239.544769 100.0
239.615616 120.0
239.735794 144.0
239.794357 92.0
239.923828 204.0
240.00708 188.0
240.111206 444.0
240.141266 772.0
240.445129 148.0
240.732254 148.0
241.11969 1068.0
241.165421 196.0
241.226608 148.0
241.27298 80.0
241.347198 88.0
241.55751 152.0
241.585342 48.0
241.969116 156.0
242.086777 208.0
242.110077 500.0
242.130692 164.0
242.167297 108.0
242.325302 132.0
242.508133 96.0
243.007416 196.0
243.111526 884.0
244.088623 188.0
244.123398 476.0
244.237671 144.0
245.096634 708.0
245.13063 1476.0
245.209137 40.0
245.271469 76.0
245.489731 188.0
245.655029 68.0
245.711197 64.0
245.792313 208.0
245.895599 124.0
246.105103 1160.0
246.137238 676.0
246.210632 48.0
246.273529 88.0
246.62619 44.0
246.716843 44.0
247.042099 96.0
247.10878 2196.0
247.143036 596.0
247.270523 32.0
247.749619 92.0
247.771545 204.0
247.862411 88.0
248.025391 112.0
248.053604 48.0
248.081726 156.0
248.116058 2652.0
248.448746 60.0
248.583664 80.0
249.12468 2808.0
249.354477 164.0
249.573166 64.0
250.075226 156.0
250.132523 684.0
250.17305 140.0
250.259109 92.0
250.791519 84.0
251.062668 120.0
251.103455 404.0
251.140518 952.0
251.180054 188.0
251.324509 44.0
251.608566 68.0
251.690659 40.0
251.86348 100.0
252.038132 72.0
252.110336 368.0
252.147812 652.0
252.178452 200.0
252.363708 36.0
252.496521 160.0
252.986984 204.0
253.120651 1532.0
253.15654 944.0
253.395538 56.0
253.548538 100.0
253.702972 120.0
253.836136 44.0
253.86467 52.0
253.962997 88.0
253.985199 84.0
254.099411 160.0
254.131714 200.0
254.164017 240.0
254.33107 104.0
254.359634 52.0
254.477112 56.0
254.975845 164.0
255.069855 124.0
255.130234 760.0
255.252426 120.0
255.290588 40.0
255.691452 36.0
255.796494 200.0
255.86972 92.0
256.095337 192.0
256.129852 180.0
256.475006 76.0
256.526001 88.0
257.091583 164.0
257.128387 324.0
257.178619 184.0
257.863464 200.0
257.984924 44.0
258.010498 116.0
258.099731 304.0
258.14035 268.0
258.295135 216.0
258.483887 168.0
258.602295 40.0
258.986542 48.0
259.107239 916.0
259.145813 400.0
259.941956 116.0
260.118835 1260.0
260.336823 84.0
260.677338 184.0
260.741638 136.0
261.008453 176.0
261.125092 1672.0
261.163757 564.0
261.272186 128.0
261.416992 264.0
262.093353 480.0
262.132935 2236.0
262.170074 352.0
262.218933 124.0
262.592926 64.0
262.757446 52.0
262.838104 100.0
263.01239 156.0
263.103363 164.0
263.14032 4568.0
263.302979 136.0
263.403137 168.0
263.700409 100.0
264.029633 192.0
264.052826 160.0
264.147156 2112.0
264.198395 184.0
264.428131 44.0
264.700073 132.0
265.112793 188.0
265.1539 544.0
265.597839 44.0
265.69516 184.0
265.928802 60.0
265.990479 124.0
266.097626 96.0
266.12146 248.0
266.159485 404.0
266.318451 140.0
266.73761 60.0
266.951447 136.0
266.992859 176.0
267.135956 680.0
267.175293 260.0
267.313324 60.0
267.515106 164.0
268.065552 176.0
268.131378 208.0
268.181183 184.0
268.910248 60.0
269.073486 64.0
269.133698 472.0
269.315125 36.0
269.739929 68.0
270.101593 140.0
270.158539 164.0
270.371216 48.0
271.109833 816.0
271.145477 316.0
271.288361 84.0
271.455597 80.0
271.921448 108.0
272.075745 56.0
272.118408 1180.0
272.456696 84.0
272.775482 76.0
273.123505 760.0
273.156586 116.0
273.88443 60.0
274.133453 748.0
274.474365 76.0
274.784424 136.0
274.853729 100.0
275.071533 92.0
275.105988 288.0
275.142365 644.0
276.106293 148.0
276.143616 500.0
276.949768 84.0
276.988373 168.0
277.120575 612.0
277.156006 1804.0
277.336487 108.0
277.446838 64.0
277.781799 104.0
277.994141 76.0
278.116577 288.0
278.166046 2072.0
278.253052 52.0
278.296234 32.0
278.326111 68.0
278.42572 40.0
278.522064 32.0
278.601776 56.0
278.694824 36.0
278.767914 56.0
279.171997 3068.0
279.301208 60.0
279.401306 60.0
279.624512 92.0
279.682556 92.0
279.982208 52.0
280.058807 36.0
280.116272 144.0
280.173676 512.0
280.282043 52.0
280.748749 56.0
280.802094 156.0
280.892151 88.0
280.935516 148.0
281.153107 960.0
281.193481 452.0
281.342682 104.0
281.646576 168.0
281.860382 92.0
282.05423 88.0
282.111084 168.0
282.160706 336.0
282.187958 136.0
282.485626 56.0
282.629486 212.0
283.13855 456.0
283.22876 60.0
283.674438 56.0
284.164093 148.0
285.128937 200.0
285.514496 92.0
285.847565 64.0
286.137451 828.0
286.386993 124.0
287.134338 328.0
287.577209 160.0
288.072876 144.0
288.106018 108.0
288.151764 176.0
288.360077 96.0
289.115997 508.0
289.157593 1380.0
289.395264 136.0
289.818665 84.0
290.132111 460.0
290.162109 164.0
290.686768 44.0
291.138733 332.0
291.172882 1752.0
292.138763 232.0
292.178284 156.0
292.291504 68.0
292.348541 60.0
292.896729 144.0
293.104553 164.0
293.147247 1052.0
293.517029 152.0
293.639801 56.0
294.011688 72.0
294.049225 32.0
294.117493 112.0
294.144806 68.0
295.134277 344.0
295.163788 368.0
296.171692 548.0
297.178314 268.0
298.182281 344.0
298.372314 40.0
299.160278 112.0
300.217957 28.0
300.849396 52.0
300.873566 72.0
301.15683 1040.0
301.350189 76.0
302.069305 144.0
302.156433 248.0
302.709625 88.0
302.875885 184.0
303.125824 192.0
303.45462 132.0
303.499695 228.0
304.145813 496.0
305.143982 124.0
305.17334 140.0
305.611603 132.0
306.161926 136.0
306.335785 80.0
307.170807 604.0
307.723846 92.0
308.168823 180.0
308.219849 108.0
308.513428 96.0
309.184021 264.0
310.19101 244.0
311.159637 160.0
311.191162 216.0
312.036926 160.0
312.158081 148.0
312.941193 80.0
313.138397 80.0
315.159821 148.0
315.725433 48.0
317.815521 172.0
318.15625 120.0
319.168213 1148.0
319.691803 60.0
319.969452 64.0
320.015717 104.0
320.172546 376.0
321.134735 148.0
321.159698 228.0
321.327362 120.0
322.162262 192.0
323.160309 92.0
323.299866 48.0
323.976593 44.0
324.170105 116.0
324.202332 108.0
325.10611 120.0
325.181152 240.0
325.421997 72.0
326.180023 100.0
326.848999 48.0
327.192963 92.0
329.189209 108.0
330.761322 40.0
335.622437 120.0
336.155029 140.0
337.174683 728.0
338.176605 180.0
340.790894 88.0
343.183411 160.0
345.170013 48.0
346.502533 56.0
347.195709 144.0
351.231323 68.0
355.188507 764.0
356.181427 168.0
356.841431 64.0
357.191162 136.0
359.840576 112.0
362.064087 80.0
365.952667 104.0
367.897095 40.0
368.183472 64.0
369.83139 88.0
373.134094 160.0
373.192047 104.0
389.551392 84.0
390.262756 32.0
393.513428 132.0
399.134766 84.0
399.454254 168.0
401.469696 36.0
406.225525 68.0
406.670929 40.0
415.671021 28.0
417.425934 108.0
420.820251 80.0
423.871735 32.0
424.728607 80.0
426.905426 84.0
430.862518 64.0
440.454956 120.0
440.542664 44.0
453.546143 36.0
455.574585 52.0
468.464691 72.0
487.545715 52.0
491.893097 44.0
492.392029 56.0
498.20816 68.0
500.307312 132.0
501.527893 144.0
512.179199 52.0
524.928772 100.0
528.468933 104.0
528.76178 52.0
531.497681 72.0
534.295898 40.0
541.191528 100.0
545.710876 56.0
545.762024 76.0
547.344116 88.0
551.706665 96.0
556.016174 44.0
564.903015 144.0
566.086304 76.0
573.121521 76.0
577.29364 140.0
577.920288 32.0
591.782898 48.0
603.612183 56.0
609.170288 36.0
610.674438 64.0
622.43689 56.0
623.420471 80.0
656.218323 84.0
656.304993 52.0
656.463074 36.0
666.912781 84.0
669.42865 28.0
677.517517 64.0
682.307861 36.0
684.456787 208.0
716.110229 44.0
718.327698 52.0
741.677124 76.0
749.383423 136.0
774.47406 104.0
778.328491 100.0
794.666687 128.0
801.295654 84.0
810.766479 172.0
815.761475 108.0
820.116211 172.0
820.783203 124.0
826.592712 160.0
835.820068 204.0
836.844666 68.0
840.372192 248.0
855.283875 196.0
865.37793 152.0
865.88739 156.0
873.747559 200.0
875.207275 224.0
881.808716 108.0
885.435608 220.0
886.958374 236.0
903.597839 132.0
908.456604 156.0
921.581848 100.0
946.197388 60.0
947.152771 220.0
948.923889 240.0
965.439331 92.0
973.526917 92.0
980.108459 140.0
981.467346 72.0
983.370117 164.0
984.712524 160.0
994.568115 132.0
998.22467 56.0
1003.350159 180.0
1004.024841 168.0
1012.056824 184.0
1012.949829 136.0
1021.837952 176.0
1024.0979 176.0
1026.105347 116.0
1030.419922 88.0
1034.180176 172.0
1044.202393 60.0
1050.58606 164.0
1060.408569 100.0
1064.917969 228.0
1066.197876 188.0
1067.888428 196.0
1069.000854 200.0
1071.46228 184.0
1072.061768 120.0
1074.82019 48.0
1079.118164 164.0
1080.890869 120.0
1081.781006 152.0
1082.874512 188.0
1085.266479 84.0
1086.919434 172.0
1095.671021 172.0
1096.105957 176.0
1098.327759 164.0
1106.098877 112.0
1109.861938 176.0
1110.346069 76.0
1111.633179 148.0
1111.971558 168.0
1114.395508 68.0
1115.412354 160.0
1115.671631 172.0
1118.325806 192.0
1118.445679 172.0
1123.783813 140.0
1124.104126 48.0
1124.918457 172.0
1127.436646 184.0
1128.733521 196.0
1130.432617 228.0
1133.271851 120.0
1135.202515 92.0
1136.396484 124.0
1141.145142 164.0
1141.703369 172.0
1143.297729 148.0
1146.651855 144.0
1146.806885 192.0
1147.265259 172.0
1154.693115 108.0
1160.313599 124.0
1161.425781 152.0
1161.514038 152.0
1161.778564 136.0
1163.414185 164.0
1165.084839 136.0
1167.565918 212.0
1168.314209 180.0
1169.933838 164.0
1173.265381 92.0
1173.647217 108.0
1175.04541 220.0
1175.796143 144.0
1176.075928 180.0
1177.496094 160.0
1180.058716 128.0
1181.638794 148.0
1181.891968 52.0
1189.272949 100.0
1190.968994 232.0
1193.099365 104.0
1194.467896 160.0
1194.880615 180.0
1195.795898 240.0
1196.332764 136.0
1199.481079 148.0
1199.660278 156.0
1199.805054 156.0
1201.460205 144.0
1201.874268 164.0
1203.006104 140.0
1204.200806 132.0
1204.850098 144.0
1205.223267 148.0
1207.020508 144.0
1207.421509 228.0
1209.483521 184.0
1210.217285 128.0
1210.549683 100.0
1211.554077 176.0
1211.872803 76.0
1212.891602 52.0
1215.388306 136.0
1216.366943 152.0
1216.943115 120.0
1217.970947 176.0
1219.145142 196.0
1219.35376 32.0
1221.836182 156.0
1221.996216 144.0
1223.005371 144.0
1223.253662 148.0
1224.411865 72.0
1224.920288 92.0
1225.449707 140.0
1227.338745 160.0
1227.826904 188.0
1227.987305 132.0
1230.101562 192.0
1231.693726 92.0
1231.85437 192.0
1234.202759 216.0
1235.615723 192.0
1235.755615 48.0
1236.42041 256.0
1238.773071 60.0
1239.20752 144.0
1242.159058 176.0
1244.060791 172.0
1244.861328 132.0
1245.107056 156.0
1245.886841 204.0
1246.013306 168.0
1246.209961 92.0
1249.915649 160.0
1251.612061 228.0
1252.654541 172.0
1254.493774 84.0
1254.592529 116.0
1255.078979 56.0
1255.61499 148.0
1255.939453 64.0
1256.052246 176.0
1257.265869 216.0
1258.028198 168.0
1261.723145 128.0
1271.590942 80.0
1274.189941 168.0
1274.467041 264.0
1276.549805 140.0
1277.766235 164.0
1279.196655 140.0
1279.253662 96.0
1279.581177 140.0
1282.017334 260.0
1283.671143 140.0
1285.561646 240.0
1286.275391 92.0
1288.782227 140.0
1293.745972 184.0
1294.268677 152.0
1295.851562 252.0
1297.213257 132.0
1298.224365 156.0
1299.314575 32.0
1299.443726 208.0
1300.290527 172.0
1303.536743 52.0
1305.643066 196.0
1308.737549 88.0
1308.867065 200.0
1310.653564 220.0
1312.347412 220.0
1315.731323 140.0
1316.995117 108.0
1318.924438 188.0
1319.401489 136.0
1325.561279 116.0
1326.046875 132.0
1326.786255 200.0
1328.236694 120.0
1328.911377 156.0
1329.005737 116.0
1330.283081 200.0
1330.442749 208.0
1330.820312 240.0
1330.965576 232.0
1333.929932 272.0
1337.872803 164.0
1338.062134 132.0
1338.644653 204.0
1344.075562 52.0
1346.652588 100.0
1347.288208 156.0
1347.806885 188.0
1351.382568 216.0
1352.407104 96.0
1357.147095 124.0
1359.325684 168.0
1365.989746 212.0
1366.600464 180.0
1366.835938 120.0
1368.234375 192.0
1369.265381 88.0
1370.001953 124.0
1370.996704 108.0
1371.682129 108.0
1372.271973 292.0
1372.353027 156.0
1372.448975 40.0
1372.55957 144.0
1373.37085 128.0
1373.842896 160.0
1374.086426 116.0
1374.521729 164.0
1376.389282 140.0
1379.33728 264.0
1380.128296 204.0
1381.947876 48.0
1383.761353 68.0
1385.879639 76.0
1386.139038 136.0
1387.235962 152.0
1392.355957 116.0
1393.589111 64.0
1396.19458 236.0
1399.048218 120.0
1399.614136 140.0
1400.902588 196.0
1401.729736 184.0
1401.916016 176.0
1402.23645 152.0
1402.519653 204.0
1402.862671 144.0
1405.316406 148.0
1405.749146 128.0
1408.69104 204.0
1410.260254 220.0
1410.506958 240.0
1410.752197 148.0
1416.126465 428.0
1417.38501 208.0
1421.974731 128.0
1422.335083 156.0
1422.515259 220.0
1423.776611 124.0
1425.038696 140.0
1425.978027 136.0
1430.935547 160.0
1433.421265 200.0
1433.98645 168.0
1435.516968 132.0
1435.758179 216.0
1435.826172 176.0
1436.474854 148.0
1436.693604 184.0
1437.576416 216.0
1437.704712 196.0
1438.134888 156.0
1438.512329 168.0
1441.775391 164.0
1443.695679 220.0
1445.639038 164.0
1445.730835 72.0
1446.343872 44.0
1448.039917 124.0
1448.145996 104.0
1449.835571 180.0
1450.062988 220.0
1450.381226 144.0
1450.563232 132.0
1452.519653 244.0
1453.862671 188.0
1454.211792 100.0
1455.054443 136.0
1455.335327 136.0
1455.63147 200.0
1455.878296 144.0
1457.45459 184.0
1459.757935 180.0
1460.533691 148.0
1462.2229 180.0
1463.357178 144.0
1463.836914 112.0
1465.08606 140.0
1466.015625 164.0
1466.747314 168.0
1467.334351 128.0
1467.570679 172.0
1469.134277 164.0
1470.126221 188.0
1472.49292 164.0
1472.645752 200.0
1473.508911 128.0
1476.291382 160.0
1476.444336 116.0
1477.301025 172.0
1478.433472 212.0
1479.191284 172.0
1479.872681 192.0
1481.718506 100.0
1482.178223 136.0
1483.182251 164.0
1483.573242 184.0
1484.432007 176.0
1485.413696 152.0
1486.664429 68.0
1489.021362 180.0
1489.144287 160.0
1493.094849 168.0
1493.237061 188.0
1493.571655 156.0
1494.094849 176.0
1494.57959 160.0
1495.125977 116.0
1496.57312 96.0
1497.012085 136.0
1497.882446 168.0
1498.013428 184.0
1498.699097 188.0
1498.876343 136.0
1499.199951 168.0
1500.009277 236.0
1500.818848 68.0
1501.065674 36.0
1501.651733 172.0
1503.364502 152.0
1503.588379 204.0
1503.804443 196.0
1505.066284 180.0
