>compound MLS001148231-01!HARMALINE
>formula C13H14N2O
>ionization [M+H]+
>parentmass 215.118164
#inchi InChI=1S/C13H14N2O/c1-8-13-11(5-6-14-8)10-4-3-9(16-2)7-12(10)15-13/h3-4,7,15H,5-6H2,1-2H3
#inchikey RERZNCLIYCABFS
#Ion_Source LC-ESI
#Instrument qTof
#Compound_Source NIH Pharmacologically Active Library
#PI Dorrestein
#Data_Collector VP/LMS
#Scan -1
#Precursor_MZ 215.121
#ExactMass 214.111
#Charge 1
#CAS_Number N/A
#Pubmed_ID N/A
#Smiles COc1ccc2c3CCN=C(C)c3[nH]c2c1
#INCHI_AUX N/A
#Library_Class 1
#SpectrumID CCMSLIB00000084854
#IonMode Positive
#UpdateWorkflowName UPDATE-SINGLE-ANNOTATED-GOLD
#LibraryQualityString Gold
#TaskID d252d724072548979f1f6f1ced849daf
##Scan# 1397
#SpectrumFile p3-B08_GB8_01_18241.mzXML
#LibraryName Pharm_Active_Library.mgf
#MQScore -1
#Organism Pharm_Active_Library
#TIC_Query 0
#RT_Query -1
#MZErrorPPM -1
#SharedPeaks 0
#MassDiff 0
#LibMZ -1
#SpecMZ 215.121
#SpecCharge 0
#internalFilename spec-00000.mgf

>collision 10
45.326523 80.0
45.39489 184.0
45.44318 196.0
45.498207 160.0
45.584167 164.0
45.651382 184.0
45.695774 144.0
45.888374 92.0
45.952557 228.0
46.030052 164.0
46.061115 144.0
46.073273 212.0
46.173302 124.0
46.197647 148.0
46.278854 212.0
46.29781 192.0
46.350643 184.0
46.43198 116.0
46.502533 132.0
46.518822 128.0
46.528324 68.0
46.586723 96.0
46.819313 180.0
46.829479 180.0
46.883347 84.0
46.921513 168.0
47.004715 192.0
47.02655 156.0
47.077065 188.0
47.124874 124.0
47.231506 136.0
47.30814 172.0
47.352322 180.0
47.602924 216.0
47.645504 156.0
47.671612 184.0
47.681232 116.0
47.692226 144.0
47.716972 204.0
47.909649 168.0
47.942719 88.0
47.977177 100.0
47.99786 160.0
48.065449 208.0
48.19939 128.0
48.211189 168.0
48.294785 164.0
48.338501 140.0
48.368118 164.0
48.400791 132.0
48.473377 100.0
48.717571 192.0
48.730076 100.0
48.764816 176.0
48.805134 244.0
48.905117 184.0
48.923393 156.0
48.93314 108.0
49.009747 156.0
49.069679 104.0
49.147785 200.0
49.177094 132.0
49.223164 128.0
49.399269 216.0
49.532253 176.0
49.546261 144.0
49.578487 152.0
49.638767 148.0
49.735573 124.0
49.863388 152.0
49.894314 52.0
49.956192 76.0
49.978703 120.0
49.996998 160.0
50.060345 40.0
50.166019 172.0
50.177296 208.0
50.381939 80.0
50.391827 160.0
50.410194 64.0
50.497849 176.0
50.551609 188.0
50.567471 116.0
50.615311 140.0
50.727238 136.0
50.836449 136.0
51.24498 184.0
51.277321 136.0
51.2873 168.0
51.32579 48.0
51.34861 232.0
51.401394 188.0
51.419945 48.0
51.569912 196.0
51.616535 248.0
51.651413 176.0
51.864769 188.0
51.890892 144.0
51.929291 92.0
51.959183 196.0
52.064617 152.0
52.125973 156.0
52.177715 144.0
52.216541 224.0
52.327343 60.0
52.428177 200.0
52.585377 220.0
52.59837 160.0
52.635906 144.0
52.666721 204.0
52.905903 216.0
52.951168 240.0
53.017811 216.0
53.093197 136.0
53.109154 144.0
53.255753 152.0
53.270275 140.0
53.303692 164.0
53.338573 72.0
53.360382 136.0
53.373466 120.0
53.40546 140.0
53.417099 144.0
53.450562 172.0
53.485489 136.0
53.518974 220.0
53.582256 196.0
53.602001 104.0
53.642811 204.0
53.673428 96.0
53.698219 124.0
53.737606 112.0
53.845627 68.0
53.870457 152.0
53.890911 180.0
53.902756 152.0
54.041512 160.0
54.104446 112.0
54.161556 48.0
54.21978 184.0
54.344807 176.0
54.363884 168.0
54.431408 216.0
54.538658 172.0
54.607761 68.0
54.623943 48.0
54.638653 204.0
54.681164 144.0
54.834499 228.0
54.862507 176.0
54.946568 116.0
54.990837 216.0
55.020359 160.0
55.091248 152.0
55.19175 44.0
55.216888 128.0
55.239075 128.0
55.279411 152.0
55.301224 116.0
55.318985 332.0
55.33083 56.0
55.430065 108.0
55.444271 208.0
55.493805 224.0
55.640686 124.0
55.72683 144.0
55.829395 220.0
55.911217 188.0
55.940952 184.0
55.988632 184.0
56.122749 200.0
56.198818 200.0
56.297337 132.0
56.376514 152.0
56.45425 176.0
56.47818 160.0
56.608387 196.0
56.740242 160.0
56.81673 184.0
56.833805 168.0
56.853767 228.0
56.965351 196.0
56.977367 164.0
57.060726 112.0
57.184883 156.0
57.233055 180.0
57.275227 208.0
57.290287 192.0
57.360332 164.0
57.652416 156.0
57.811203 80.0
57.82785 192.0
57.879322 124.0
57.935364 40.0
57.952026 124.0
57.973244 160.0
58.01265 140.0
58.061951 148.0
58.125523 152.0
58.147648 136.0
58.270649 204.0
58.317757 192.0
58.3512 156.0
58.468327 184.0
58.530739 96.0
58.597759 80.0
58.776154 136.0
58.901344 132.0
58.937309 368.0
58.953846 216.0
59.25626 184.0
59.317558 148.0
59.371223 144.0
59.48016 188.0
59.498947 168.0
59.555397 80.0
59.586121 168.0
59.619926 104.0
59.729088 176.0
59.749088 164.0
59.798328 212.0
59.821419 104.0
59.878387 244.0
59.92152 168.0
60.046379 96.0
60.251682 76.0
60.330498 164.0
60.451141 64.0
60.500671 248.0
60.514603 80.0
60.528538 148.0
60.548672 112.0
60.615284 76.0
60.632332 200.0
60.652481 180.0
60.817978 132.0
60.846394 160.0
60.896084 100.0
60.950455 232.0
61.034393 160.0
61.120121 140.0
61.158852 112.0
61.227356 120.0
61.283436 224.0
61.322395 224.0
61.333305 120.0
61.36916 116.0
61.497082 144.0
61.568897 156.0
61.582954 172.0
61.607948 116.0
61.754883 164.0
61.85033 140.0
61.944283 172.0
62.003822 144.0
62.033604 132.0
62.052414 92.0
62.099461 180.0
62.130501 208.0
62.270535 184.0
62.311378 124.0
62.323948 100.0
62.399391 188.0
62.503201 148.0
62.523659 108.0
62.583477 192.0
62.603947 168.0
62.728416 132.0
62.815147 176.0
62.843861 280.0
62.898781 216.0
62.942986 160.0
62.957199 144.0
63.070713 212.0
63.115219 184.0
63.149132 72.0
63.249695 176.0
63.300358 188.0
63.320942 192.0
63.360546 180.0
63.481007 172.0
63.614281 100.0
63.637142 180.0
63.653976 148.0
63.742931 160.0
63.758823 128.0
63.921028 148.0
63.975143 96.0
64.019722 184.0
64.059547 196.0
64.113716 112.0
64.155159 136.0
64.185455 164.0
64.292336 228.0
64.316277 96.0
64.338623 188.0
64.490372 108.0
64.501015 176.0
64.522346 200.0
64.567116 168.0
64.640709 116.0
64.691261 216.0
64.848587 204.0
64.883682 168.0
64.922646 80.0
64.991623 152.0
65.015694 220.0
65.031746 196.0
65.06385 180.0
65.095749 152.0
65.134979 272.0
65.156998 208.0
65.245392 156.0
65.3451 116.0
65.427185 176.0
65.446503 188.0
65.506088 188.0
65.530258 232.0
65.651154 112.0
65.683411 124.0
65.702766 172.0
65.743103 192.0
65.757629 188.0
65.773773 136.0
65.904579 136.0
65.922356 152.0
65.965996 156.0
66.009651 172.0
66.202217 156.0
66.257294 200.0
66.288078 152.0
66.35453 144.0
66.490791 140.0
66.544357 216.0
66.576836 148.0
66.666183 168.0
66.74984 216.0
66.766975 144.0
66.842888 192.0
66.900398 148.0
66.947868 104.0
66.975304 172.0
67.006256 204.0
67.18885 132.0
67.237801 132.0
67.272079 172.0
67.348831 188.0
67.383133 188.0
67.443596 72.0
67.522079 160.0
67.597328 280.0
67.672623 204.0
67.695549 248.0
67.711472 116.0
67.717072 84.0
67.72068 128.0
67.772537 196.0
67.806946 152.0
68.03167 96.0
68.067978 172.0
68.10392 112.0
68.141701 92.0
68.171181 136.0
68.190063 148.0
68.233742 68.0
68.281425 112.0
68.432816 204.0
68.488808 84.0
68.653618 124.0
68.686607 40.0
68.762505 212.0
68.808723 236.0
68.866524 184.0
68.922691 76.0
69.02021 236.0
69.042595 224.0
69.056595 192.0
69.331421 196.0
69.364571 96.0
69.54567 200.0
69.611778 124.0
69.689339 196.0
69.74968 100.0
69.796227 172.0
69.821175 160.0
69.847786 172.0
69.891037 104.0
69.962608 152.0
70.0009 140.0
70.03421 132.0
70.074188 52.0
70.10585 160.0
70.133018 172.0
70.197533 52.0
70.232216 264.0
70.272598 104.0
70.364388 196.0
70.392136 136.0
70.589958 88.0
70.623405 144.0
70.66021 28.0
70.750435 180.0
70.837662 128.0
70.872849 72.0
71.035469 176.0
71.075737 188.0
71.161339 100.0
71.173088 196.0
71.22683 212.0
71.322609 128.0
71.438637 192.0
71.453773 140.0
71.468918 128.0
71.505943 148.0
71.552223 180.0
71.669289 172.0
71.81089 192.0
71.831131 128.0
71.896935 124.0
72.028633 200.0
72.081001 116.0
72.145233 208.0
72.195953 156.0
72.268692 152.0
72.498985 136.0
72.522713 180.0
72.580086 204.0
72.602394 172.0
72.935432 208.0
72.952477 200.0
73.025284 156.0
73.095032 192.0
73.112053 132.0
73.249962 160.0
73.33857 176.0
73.401649 120.0
73.483299 156.0
73.568855 164.0
73.707191 48.0
73.881592 208.0
74.249863 60.0
74.33049 120.0
74.366524 116.0
74.385406 120.0
74.406006 140.0
74.459236 168.0
74.529671 208.0
74.560555 152.0
74.689552 136.0
74.901276 140.0
75.075348 72.0
75.194389 164.0
75.24099 156.0
75.415459 104.0
75.431023 320.0
75.450035 188.0
75.465591 184.0
75.481155 136.0
75.510559 88.0
75.607437 92.0
75.636864 164.0
75.711311 164.0
75.770203 168.0
75.826889 168.0
75.844368 276.0
75.872459 160.0
75.910599 132.0
75.922737 216.0
76.120567 152.0
76.158775 168.0
76.170937 76.0
76.20047 100.0
76.260284 104.0
76.289207 136.0
76.381264 116.0
76.477837 200.0
76.534416 256.0
76.680748 148.0
76.801048 176.0
76.89003 168.0
77.038445 212.0
77.062904 140.0
77.115334 128.0
77.232475 160.0
77.263962 128.0
77.346214 184.0
77.410988 32.0
77.446014 156.0
77.493317 184.0
77.507332 104.0
77.5196 36.0
77.543861 180.0
77.560699 356.0
77.712479 204.0
77.7388 180.0
77.770393 228.0
77.903839 88.0
77.961823 172.0
78.000488 88.0
78.023346 160.0
78.051476 128.0
78.13414 168.0
78.401787 168.0
78.521667 152.0
78.581757 188.0
78.687538 180.0
78.793503 188.0
78.809402 144.0
78.865959 172.0
78.880096 188.0
79.129532 140.0
79.340363 192.0
79.570999 152.0
79.621346 416.0
79.652687 160.0
79.672226 196.0
79.731026 176.0
79.762856 168.0
79.946045 220.0
79.99588 104.0
80.010124 124.0
80.04039 80.0
80.106293 164.0
80.147263 80.0
80.197166 184.0
80.248863 204.0
80.318413 160.0
80.389778 156.0
80.402267 140.0
80.525063 216.0
80.673767 208.0
80.761383 180.0
80.879478 204.0
80.97258 180.0
81.331169 204.0
81.3563 52.0
81.376442 216.0
81.476624 116.0
81.490997 108.0
81.510757 140.0
81.554817 132.0
81.674362 204.0
81.690552 108.0
81.706741 216.0
81.757126 152.0
81.771523 160.0
81.838127 200.0
81.928177 184.0
81.940788 200.0
82.034462 180.0
82.083176 120.0
82.152603 160.0
82.269012 60.0
82.366524 200.0
82.382782 160.0
82.50206 180.0
82.567146 76.0
82.643204 88.0
82.762589 208.0
82.869606 136.0
82.999954 140.0
83.083382 168.0
83.130554 124.0
83.17411 52.0
83.244919 120.0
83.339699 180.0
83.374809 72.0
83.504799 156.0
83.521172 96.0
83.601219 220.0
83.638885 224.0
83.657646 140.0
83.719551 148.0
83.76873 204.0
83.847816 196.0
83.90905 192.0
83.933311 288.0
84.053139 56.0
84.087814 176.0
84.180923 204.0
84.250328 124.0
84.270424 188.0
84.29966 184.0
84.352661 112.0
84.378258 160.0
84.407509 160.0
84.436768 168.0
84.487984 136.0
84.509941 64.0
84.590462 184.0
84.619759 120.0
84.650887 176.0
84.687508 168.0
84.727318 224.0
84.775452 196.0
84.795609 204.0
84.859764 112.0
84.919983 268.0
84.99366 48.0
85.206642 152.0
85.229393 136.0
85.243393 152.0
85.436134 164.0
85.477737 244.0
85.664719 120.0
85.684982 200.0
85.813995 136.0
85.864586 184.0
85.967293 164.0
85.991081 188.0
86.085236 112.0
86.159119 172.0
86.258911 52.0
86.28849 92.0
86.316223 204.0
86.340263 120.0
86.358757 48.0
86.390205 224.0
86.462364 196.0
86.612717 212.0
86.67347 188.0
86.714241 184.0
86.740189 44.0
86.760315 196.0
86.801369 60.0
86.818649 152.0
86.842171 132.0
86.879272 136.0
86.91452 148.0
87.003609 188.0
87.050026 116.0
87.129112 200.0
87.1539 156.0
87.233963 204.0
87.25441 212.0
87.297173 136.0
87.349251 180.0
87.412506 204.0
87.470207 196.0
87.483238 136.0
87.537025 180.0
87.611732 72.0
87.630363 128.0
87.694748 188.0
87.887665 152.0
88.079956 208.0
88.113579 96.0
88.130394 196.0
88.266846 200.0
88.360359 200.0
88.418365 56.0
88.457672 80.0
88.53257 52.0
88.586884 84.0
88.658081 156.0
88.697441 144.0
88.779938 376.0
88.808067 116.0
88.978828 172.0
89.014503 84.0
89.093391 136.0
89.153519 248.0
89.288872 96.0
89.552368 180.0
89.568359 292.0
89.599457 60.0
89.704994 188.0
89.769096 172.0
89.86618 68.0
89.888641 192.0
89.952103 188.0
90.010628 172.0
90.033295 240.0
90.172127 168.0
90.188217 228.0
90.333817 148.0
90.489799 104.0
90.521187 32.0
90.634842 196.0
90.651894 220.0
90.708824 220.0
90.849998 184.0
90.902206 212.0
91.052177 108.0
91.131958 152.0
91.196571 88.0
91.46286 112.0
91.531395 168.0
91.594246 160.0
91.660919 208.0
91.694405 180.0
91.707993 200.0
91.769569 136.0
91.906898 152.0
91.981323 124.0
92.075737 204.0
92.149384 124.0
92.168488 200.0
92.22773 176.0
92.277435 188.0
92.436188 108.0
92.528061 212.0
92.629555 176.0
92.66787 200.0
92.917114 212.0
92.93438 196.0
93.068733 232.0
93.12635 188.0
93.207031 184.0
93.256996 168.0
93.291595 140.0
93.326202 76.0
93.439682 160.0
93.603287 220.0
93.656914 208.0
93.72435 136.0
93.768959 148.0
93.98687 216.0
94.087227 104.0
94.110397 96.0
94.212761 180.0
94.22821 196.0
94.317108 132.0
94.3461 136.0
94.365433 260.0
94.41571 200.0
94.560814 124.0
94.715706 96.0
94.75251 152.0
95.02919 192.0
95.072449 44.0
95.179985 220.0
95.194748 132.0
95.346275 132.0
95.365707 120.0
95.474586 348.0
95.558228 192.0
95.608818 136.0
95.698364 164.0
95.730202 340.0
95.766518 208.0
95.803528 136.0
95.86393 176.0
95.961388 176.0
96.014038 60.0
96.096413 156.0
96.365395 220.0
96.416206 136.0
96.480705 124.0
96.591339 188.0
97.036713 176.0
97.050438 52.0
97.138687 176.0
97.266235 200.0
97.442978 164.0
97.523544 132.0
97.564827 140.0
97.657242 140.0
97.757576 116.0
97.810722 148.0
97.859932 152.0
97.88356 184.0
97.922951 132.0
97.978104 104.0
98.064804 140.0
98.078606 192.0
98.179153 148.0
98.210709 224.0
98.240295 184.0
98.273834 128.0
98.321198 116.0
98.453468 152.0
98.52655 124.0
98.627327 112.0
98.684654 160.0
98.718269 148.0
98.880615 128.0
98.907051 172.0
98.991837 136.0
99.072563 152.0
99.199387 144.0
99.304474 40.0
99.392479 212.0
99.407639 160.0
99.536667 192.0
99.707504 128.0
99.767136 200.0
99.802925 92.0
99.925415 280.0
99.942154 80.0
100.071526 48.0
100.09343 184.0
100.113342 128.0
100.143219 44.0
100.214935 132.0
100.234856 120.0
100.296638 200.0
100.339195 196.0
100.370399 180.0
100.439651 260.0
100.462143 208.0
100.597847 192.0
100.657738 96.0
100.867516 204.0
100.923492 168.0
101.007484 156.0
101.023491 164.0
101.225349 168.0
101.301743 116.0
101.363853 164.0
101.510185 144.0
101.540268 168.0
101.564331 164.0
101.594421 136.0
101.672523 208.0
101.716835 184.0
101.807182 236.0
101.891541 44.0
101.91967 112.0
101.963882 376.0
101.985985 76.0
102.045647 124.0
102.088524 132.0
102.114662 132.0
102.456863 152.0
102.511261 108.0
102.626152 140.0
102.690689 40.0
102.72699 148.0
102.775414 156.0
102.829895 156.0
103.054283 860.0
103.106583 224.0
103.120735 200.0
103.373528 168.0
103.486877 256.0
103.565857 216.0
103.624603 148.0
103.644096 148.0
103.65094 92.0
103.659706 148.0
103.776611 156.0
103.841499 88.0
103.875984 144.0
103.932785 88.0
103.985031 172.0
104.011208 240.0
104.057732 452.0
104.087051 60.0
104.12767 164.0
104.152504 192.0
104.18454 144.0
104.204857 168.0
104.341026 136.0
104.413132 200.0
104.438637 172.0
104.471184 192.0
104.491524 204.0
104.579025 128.0
104.650276 132.0
104.668602 180.0
104.707291 148.0
104.807114 136.0
104.882515 164.0
104.913094 168.0
104.982414 92.0
105.006889 140.0
105.037483 140.0
105.064339 216.0
105.411095 96.0
105.516052 104.0
105.850067 208.0
105.883659 156.0
106.066193 224.0
106.10701 80.0
106.131615 120.0
106.283394 148.0
106.342911 176.0
106.373695 52.0
106.420914 112.0
106.531815 164.0
106.634552 152.0
106.671555 208.0
106.840179 184.0
106.877213 36.0
106.928658 332.0
106.945122 172.0
107.045998 188.0
107.066589 32.0
107.21492 248.0
107.243774 164.0
107.291183 124.0
107.317986 88.0
107.379852 208.0
107.405548 200.0
107.417686 140.0
107.456177 156.0
107.601982 148.0
107.666718 96.0
107.708031 224.0
107.951904 120.0
107.986008 260.0
108.020157 88.0
108.053253 144.0
108.167068 100.0
108.218826 468.0
108.264381 176.0
108.293373 44.0
108.839874 364.0
108.892776 128.0
109.015343 72.0
109.142143 44.0
109.21701 172.0
109.356415 112.0
109.647995 112.0
109.683426 112.0
109.798096 144.0
109.833557 76.0
109.852325 144.0
109.902397 128.0
110.017189 168.0
110.071472 120.0
110.142479 324.0
110.230225 192.0
110.28038 180.0
110.315918 164.0
110.56691 240.0
110.677856 200.0
110.744186 172.0
110.767906 36.0
110.786758 56.0
110.971191 204.0
111.011024 32.0
111.04039 180.0
111.336304 176.0
111.453934 124.0
111.489662 156.0
111.516983 168.0
111.554817 180.0
111.615784 164.0
111.702011 104.0
111.765076 172.0
111.82386 176.0
111.874565 220.0
111.920883 232.0
111.979851 196.0
112.024086 104.0
112.080971 144.0
112.355057 116.0
112.420464 172.0
112.44368 36.0
112.487259 136.0
112.532333 104.0
112.621033 204.0
112.705528 156.0
112.747345 132.0
112.822197 140.0
112.943352 188.0
113.19632 156.0
113.285225 232.0
113.346664 140.0
113.389046 132.0
113.461113 160.0
113.654121 140.0
113.728394 104.0
113.847282 120.0
113.908882 136.0
113.942871 192.0
113.97686 152.0
113.998116 172.0
114.039116 356.0
114.106514 156.0
114.349014 188.0
114.545761 168.0
114.56971 192.0
114.702583 188.0
114.725166 248.0
114.779327 124.0
114.834778 52.0
114.888107 124.0
114.975586 156.0
115.016136 152.0
115.053223 1132.0
115.091827 168.0
115.338669 108.0
115.392815 232.0
115.454124 72.0
115.494759 196.0
115.520432 168.0
115.535408 116.0
115.618851 164.0
115.661659 156.0
115.808716 164.0
116.025826 240.0
116.053558 744.0
116.088005 40.0
116.148056 148.0
116.238159 204.0
116.420837 204.0
116.497948 140.0
116.530174 148.0
116.586044 116.0
116.667717 108.0
116.740822 48.0
116.811798 188.0
116.831161 56.0
116.848366 140.0
116.964577 48.0
116.983948 204.0
117.022697 104.0
117.057983 508.0
117.095917 140.0
117.162689 104.0
117.246719 336.0
117.315697 172.0
117.339409 168.0
117.520576 188.0
117.600471 176.0
117.695724 192.0
117.829315 28.0
117.909271 188.0
118.02816 176.0
118.044579 168.0
118.066032 496.0
118.151833 200.0
118.225014 184.0
118.350555 200.0
118.42202 220.0
118.445847 184.0
118.46534 156.0
118.488007 208.0
118.522469 124.0
118.621368 88.0
118.788643 140.0
118.814369 232.0
118.961937 128.0
119.070503 124.0
119.144356 124.0
119.216057 432.0
119.274734 176.0
119.474792 64.0
119.864525 140.0
120.051994 160.0
120.083855 392.0
120.104332 172.0
120.130508 148.0
120.176323 108.0
120.230873 248.0
120.337837 156.0
120.353119 100.0
120.457947 112.0
120.637138 148.0
120.70491 160.0
120.733337 128.0
120.818192 184.0
120.838333 200.0
120.89045 176.0
120.943375 60.0
121.057053 216.0
121.092255 128.0
121.118538 204.0
121.160164 184.0
121.291641 188.0
121.346451 44.0
121.445129 104.0
121.46048 180.0
121.585541 204.0
121.600906 156.0
121.754585 180.0
121.87101 40.0
121.921547 136.0
121.972099 84.0
122.064438 172.0
122.079826 148.0
122.112816 220.0
122.194206 264.0
122.234818 176.0
122.467171 168.0
122.484787 228.0
122.931763 196.0
122.940498 144.0
122.974281 104.0
122.994141 164.0
123.190323 180.0
123.248108 160.0
123.294518 144.0
123.313095 236.0
123.332092 124.0
123.374084 148.0
123.462532 136.0
123.482437 136.0
123.570915 168.0
123.590828 156.0
123.619598 132.0
123.824287 216.0
123.845413 140.0
123.940674 180.0
123.984993 216.0
124.08474 108.0
124.100258 120.0
124.153473 148.0
124.168999 184.0
124.289635 168.0
124.464142 212.0
124.486351 124.0
124.515221 204.0
124.604065 180.0
124.664062 152.0
124.707878 224.0
124.818626 180.0
124.917519 192.0
124.95089 96.0
125.017647 160.0
125.075508 84.0
125.120033 196.0
125.411842 104.0
125.483177 144.0
125.503242 172.0
125.543381 172.0
125.717384 176.0
125.744164 120.0
125.759789 132.0
125.922775 244.0
126.052345 152.0
126.103745 136.0
126.179741 36.0
126.208809 44.0
126.235641 176.0
126.255768 116.0
126.349716 132.0
126.477264 180.0
126.591446 188.0
126.766174 128.0
126.867096 132.0
127.041702 180.0
127.064384 116.0
127.322517 200.0
127.338234 92.0
127.414612 168.0
127.457298 48.0
127.493256 232.0
127.803566 204.0
127.837318 152.0
127.855324 200.0
128.0578 608.0
128.134537 64.0
128.204391 128.0
128.416306 156.0
128.454651 112.0
128.560684 152.0
128.69838 116.0
128.77742 200.0
128.951385 32.0
128.989822 148.0
129.057709 1708.0
129.127747 108.0
129.209167 160.0
129.236328 112.0
129.333633 204.0
129.349472 144.0
129.365326 60.0
129.383438 120.0
129.458145 244.0
129.55101 124.0
129.587265 120.0
129.632233 128.0
129.721115 188.0
129.757248 148.0
129.79805 172.0
130.041016 348.0
130.065384 7464.0
130.102081 48.0
130.152023 224.0
130.179276 160.0
130.242859 160.0
130.2724 200.0
130.292847 176.0
130.320099 140.0
130.354187 196.0
130.417816 176.0
130.476929 164.0
130.552856 112.0
130.639359 112.0
130.723251 172.0
130.732895 52.0
130.739975 148.0
130.895569 92.0
130.929733 184.0
130.953842 348.0
130.995789 108.0
131.011734 96.0
131.073441 17544.0
131.120834 104.0
131.150269 80.0
131.29892 148.0
131.358231 220.0
131.39473 176.0
131.459747 40.0
131.488281 140.0
131.522522 44.0
131.597855 204.0
131.61647 156.0
131.769012 148.0
131.798843 212.0
131.983536 160.0
132.009918 152.0
132.042068 224.0
132.077545 2456.0
132.123062 192.0
132.201294 52.0
132.304291 60.0
132.36676 196.0
132.427948 128.0
132.455429 208.0
132.501251 216.0
132.613525 116.0
132.645615 172.0
132.878387 96.0
132.911652 148.0
132.969025 232.0
132.996628 156.0
133.051178 360.0
133.122833 140.0
133.150391 72.0
133.276733 376.0
133.350266 160.0
133.387054 148.0
133.469818 152.0
133.513504 220.0
133.552597 240.0
133.612411 64.0
133.669403 208.0
133.74588 160.0
134.062302 368.0
134.162811 228.0
134.218155 80.0
134.248123 40.0
134.372681 120.0
134.395752 76.0
134.480011 140.0
134.539322 176.0
134.712036 160.0
134.797531 128.0
134.834503 144.0
134.858612 232.0
134.938522 172.0
134.998642 124.0
135.028183 160.0
135.064682 204.0
135.086517 192.0
135.15361 144.0
135.250809 52.0
135.331833 176.0
135.426788 136.0
135.544937 252.0
135.582016 116.0
135.735001 156.0
135.761703 168.0
135.790665 68.0
135.950775 176.0
136.04126 92.0
136.110916 184.0
136.148071 324.0
136.264206 252.0
136.329269 200.0
136.378067 172.0
136.501282 140.0
136.692032 180.0
136.724609 148.0
137.036636 128.0
137.085434 152.0
137.111191 120.0
137.150818 176.0
137.323349 132.0
137.456329 240.0
137.542679 192.0
137.652405 196.0
137.83461 148.0
137.897705 156.0
138.044983 124.0
138.643539 256.0
138.698181 292.0
138.794296 224.0
138.815399 200.0
138.834167 184.0
138.91626 116.0
139.000717 112.0
139.05304 120.0
139.103973 128.0
139.240158 172.0
139.270691 172.0
139.301224 128.0
139.320023 156.0
139.35527 156.0
139.371704 216.0
139.4328 64.0
139.526825 196.0
139.56691 168.0
139.674728 148.0
139.701492 176.0
139.82428 160.0
140.050156 996.0
140.136383 116.0
140.407471 76.0
140.438126 108.0
140.490021 176.0
140.549011 164.0
140.735474 172.0
140.974045 36.0
141.014221 184.0
141.056839 488.0
141.080399 40.0
141.141876 160.0
141.200989 76.0
141.2341 96.0
141.444702 124.0
141.828415 132.0
141.935974 196.0
141.958817 164.0
141.980148 156.0
142.015732 68.0
142.034698 224.0
142.061447 996.0
142.085068 156.0
142.210281 188.0
142.264877 212.0
142.628326 144.0
142.725784 40.0
142.897034 208.0
142.969086 244.0
143.032684 160.0
143.073166 6648.0
143.116867 188.0
143.170776 76.0
143.206497 56.0
143.318466 156.0
143.468613 236.0
143.516296 60.0
143.614059 148.0
143.630768 156.0
143.680862 268.0
143.716644 84.0
144.023956 188.0
144.080185 4672.0
144.172729 64.0
144.201401 52.0
144.244431 108.0
144.273911 192.0
144.325714 60.0
144.342453 104.0
144.502701 76.0
144.545334 176.0
144.890549 48.0
145.06691 788.0
145.087708 2024.0
145.163788 212.0
145.204559 136.0
145.24054 132.0
145.317307 100.0
145.473297 144.0
145.556396 196.0
145.905701 164.0
145.933624 200.0
145.964096 196.0
146.058838 348.0
146.079666 188.0
146.09613 772.0
146.124008 176.0
146.142395 260.0
146.228027 60.0
146.244873 160.0
146.300247 116.0
146.403778 112.0
146.471207 124.0
146.830338 220.0
146.949829 260.0
147.004028 120.0
147.072845 188.0
147.127121 140.0
147.250275 80.0
147.269592 148.0
147.298584 148.0
147.371048 124.0
147.443542 168.0
147.724014 156.0
147.871613 208.0
147.997498 128.0
148.038651 184.0
148.076187 316.0
148.095184 164.0
148.140381 172.0
148.217911 136.0
148.303986 116.0
148.608276 104.0
148.639816 112.0
148.681076 84.0
148.702911 32.0
148.774796 144.0
148.821869 28.0
148.979721 48.0
149.03804 144.0
149.072052 284.0
149.123093 80.0
149.169266 36.0
149.200867 172.0
149.217896 168.0
149.281113 128.0
149.478149 128.0
149.521942 156.0
149.787338 160.0
149.853119 152.0
149.960327 224.0
150.033463 144.0
150.067596 164.0
150.201721 172.0
150.277344 168.0
150.338348 136.0
150.516541 260.0
150.606903 48.0
151.191223 92.0
151.232834 220.0
151.328308 192.0
151.440948 188.0
151.500153 212.0
151.63205 52.0
151.681076 48.0
151.752167 144.0
151.791397 140.0
151.852707 212.0
151.933655 180.0
152.194077 108.0
152.323975 176.0
152.414871 140.0
152.45665 164.0
152.503342 208.0
152.591827 172.0
152.64592 116.0
152.705139 160.0
152.734467 40.0
152.768906 256.0
152.813187 168.0
152.953461 128.0
153.000229 156.0
153.024841 176.0
153.065598 196.0
153.251434 124.0
153.340149 48.0
153.414093 160.0
153.685379 144.0
153.784088 196.0
153.917404 124.0
153.939621 136.0
153.964325 204.0
153.98819 180.0
154.037033 164.0
154.064987 2760.0
154.137238 160.0
154.194077 188.0
154.33992 236.0
154.466049 160.0
154.518005 104.0
154.604599 144.0
154.706085 52.0
154.815033 176.0
154.876938 220.0
155.072113 5320.0
155.12706 200.0
155.241257 44.0
155.273499 224.0
155.292221 124.0
155.339081 112.0
155.423294 208.0
155.531525 184.0
155.548904 188.0
155.700363 40.0
155.812134 48.0
155.858948 148.0
155.884491 180.0
156.070221 2680.0
156.120346 60.0
156.160141 60.0
156.242233 208.0
156.299454 164.0
156.346725 36.0
156.563324 60.0
156.610641 184.0
156.717758 116.0
156.797501 116.0
156.822418 184.0
156.864792 132.0
157.076126 10236.0
157.141602 40.0
157.363739 204.0
157.538559 108.0
157.588516 172.0
157.638489 220.0
157.68602 208.0
157.733459 148.0
157.753464 56.0
157.800964 48.0
157.848465 144.0
157.971024 272.0
157.998535 144.0
158.060501 3276.0
158.131149 68.0
158.363998 116.0
158.499283 180.0
158.589493 84.0
158.614563 96.0
158.658981 156.0
158.870331 44.0
158.935562 128.0
159.019592 144.0
159.068176 12672.0
159.14389 60.0
159.189087 160.0
159.236801 88.0
159.287033 100.0
159.352356 56.0
159.369949 100.0
159.452866 60.0
159.48555 188.0
159.525757 116.0
159.555923 212.0
159.61879 156.0
159.658524 224.0
159.679138 152.0
159.739502 44.0
159.807434 64.0
159.854294 128.0
160.073441 1796.0
160.305984 212.0
160.341202 148.0
160.374039 88.0
160.416885 96.0
160.447128 152.0
160.853271 32.0
160.883575 144.0
160.933212 164.0
160.969406 64.0
161.035019 196.0
161.051163 216.0
161.074158 268.0
161.118423 216.0
161.349121 184.0
161.371155 64.0
161.515305 64.0
161.558304 204.0
161.583603 152.0
161.619034 180.0
161.720245 144.0
161.783539 48.0
162.198975 144.0
162.779953 160.0
162.919647 176.0
163.036514 104.0
163.067017 128.0
163.087357 212.0
163.158524 220.0
163.204285 204.0
163.255142 168.0
163.445923 48.0
163.662476 160.0
163.909348 264.0
164.044434 112.0
164.235672 172.0
164.258621 164.0
164.355576 208.0
164.472961 48.0
164.516357 120.0
164.541885 88.0
164.613373 124.0
164.756409 224.0
165.029114 216.0
165.242157 148.0
165.336823 164.0
165.449448 84.0
165.546753 60.0
165.669693 148.0
165.764481 100.0
165.879822 148.0
165.987488 192.0
166.020828 200.0
166.064575 276.0
166.233749 68.0
166.349243 116.0
166.608612 108.0
166.634354 188.0
166.801346 204.0
166.945312 176.0
167.017334 124.0
167.073318 2180.0
167.331284 80.0
167.375046 152.0
167.460022 144.0
167.874954 148.0
167.92395 100.0
168.046158 356.0
168.075577 552.0
168.132919 128.0
168.171631 52.0
168.248032 256.0
168.331818 168.0
168.380753 208.0
168.47374 160.0
168.605515 108.0
168.663788 236.0
168.708908 104.0
168.915787 192.0
168.946823 184.0
169.047729 120.0
169.077515 656.0
169.171967 96.0
169.267761 84.0
169.327316 164.0
169.410202 108.0
169.467209 192.0
169.639893 152.0
169.739365 60.0
169.830124 184.0
169.863846 220.0
169.977997 124.0
170.082886 1076.0
170.134033 136.0
170.253159 76.0
170.279129 164.0
170.354462 180.0
170.398621 124.0
170.507767 168.0
170.551941 72.0
170.611725 116.0
170.678802 180.0
170.733932 164.0
170.759949 132.0
170.847137 156.0
170.935104 364.0
170.974426 180.0
171.036499 96.0
171.092026 34112.0
171.160706 68.0
171.199768 164.0
171.217987 72.0
171.324783 156.0
171.375092 156.0
171.396484 92.0
171.424393 156.0
171.441254 120.0
171.465805 196.0
171.507187 168.0
171.548889 48.0
171.595428 60.0
171.640991 160.0
171.718384 56.0
171.757507 80.0
171.791412 156.0
171.835754 72.0
171.877502 116.0
171.895767 196.0
171.924683 148.0
171.983826 216.0
172.046326 140.0
172.100021 61500.0
172.162399 176.0
172.186447 128.0
172.212784 28.0
172.266281 140.0
172.320572 104.0
172.343353 92.0
172.364517 72.0
172.3871 136.0
172.437027 80.0
172.465103 200.0
172.494232 112.0
172.520996 104.0
172.551361 100.0
172.573395 28.0
172.640259 56.0
172.670532 112.0
172.69519 72.0
172.731812 64.0
172.758484 60.0
172.805054 36.0
172.872269 140.0
172.90126 180.0
172.923355 116.0
172.968231 68.0
173.008438 160.0
173.033218 180.0
173.053436 40.0
173.102264 5904.0
173.163544 164.0
173.244675 152.0
173.26799 128.0
173.321609 180.0
173.362778 64.0
173.381439 68.0
173.402252 128.0
173.419479 44.0
173.439911 84.0
173.481583 92.0
173.554138 48.0
173.592422 152.0
173.621628 108.0
173.651978 96.0
173.687881 80.0
173.714981 108.0
173.777069 60.0
173.804703 120.0
173.837921 224.0
173.863663 68.0
173.939774 56.0
173.959595 80.0
173.991791 192.0
174.031662 132.0
174.091782 39056.0
174.152924 248.0
174.186935 96.0
174.215942 240.0
174.22171 164.0
174.289536 180.0
174.336365 92.0
174.374527 128.0
174.397049 48.0
174.415039 152.0
174.434113 292.0
174.459579 104.0
174.486725 176.0
174.547058 148.0
174.59581 52.0
174.672897 104.0
174.749191 52.0
174.783539 92.0
174.943939 60.0
175.017654 60.0
175.095322 5180.0
175.170395 40.0
175.199936 56.0
175.244171 68.0
175.282867 192.0
175.375931 40.0
175.42601 48.0
175.507736 64.0
175.528824 40.0
175.605301 44.0
175.629044 176.0
175.658066 104.0
175.680222 48.0
175.705978 48.0
175.745377 76.0
175.76886 68.0
175.982666 52.0
176.009064 128.0
176.038483 172.0
176.067032 164.0
176.098694 408.0
176.240448 132.0
176.283783 60.0
176.307571 112.0
176.34137 76.0
176.357773 132.0
176.384216 84.0
176.425308 124.0
176.537552 28.0
176.585159 56.0
176.603668 116.0
176.690964 84.0
176.847092 52.0
176.939178 172.0
176.974152 52.0
176.995331 64.0
177.069489 252.0
177.164841 100.0
177.234451 188.0
177.305267 100.0
177.41394 104.0
177.520004 80.0
177.538559 116.0
177.817123 168.0
178.079971 212.0
178.117157 168.0
178.207474 168.0
178.281876 84.0
178.332367 204.0
178.361603 136.0
178.409454 32.0
178.600906 128.0
178.687119 188.0
178.736588 84.0
178.757874 104.0
178.813766 80.0
178.952179 176.0
179.12262 212.0
179.20787 92.0
179.267426 160.0
179.343781 52.0
179.805176 68.0
179.880753 44.0
180.09758 108.0
180.446259 160.0
180.780609 220.0
181.008148 104.0
181.077774 140.0
181.190277 116.0
181.20903 72.0
181.305481 160.0
181.332291 40.0
181.4151 156.0
181.509216 116.0
181.817703 128.0
182.059433 424.0
182.269592 232.0
182.470428 156.0
182.526886 124.0
182.680191 48.0
182.911606 148.0
183.068405 3400.0
183.143173 76.0
183.164719 216.0
183.310196 100.0
183.447662 160.0
183.55011 128.0
183.577896 104.0
183.914307 52.0
183.965591 44.0
184.068817 1280.0
184.096893 680.0
184.338684 204.0
184.395065 44.0
184.592407 104.0
184.754684 88.0
184.878387 184.0
184.983856 156.0
185.071243 6312.0
185.201324 156.0
185.296143 84.0
185.403412 68.0
185.526489 56.0
185.650055 168.0
185.811249 140.0
185.851944 176.0
185.883255 116.0
185.925217 76.0
186.080383 968.0
186.145096 168.0
186.204834 60.0
186.302628 224.0
186.369843 156.0
186.409714 144.0
186.529449 40.0
186.549911 168.0
186.572464 136.0
186.62146 88.0
186.74025 28.0
186.855103 164.0
186.927963 124.0
186.957901 40.0
187.044983 88.0
187.091385 292.0
187.124451 208.0
187.189285 52.0
187.238297 56.0
187.317871 92.0
187.405655 92.0
187.453506 132.0
187.535263 108.0
187.614319 200.0
187.693375 76.0
187.745193 44.0
187.788834 112.0
187.887024 44.0
188.069855 160.0
188.109299 824.0
188.509552 40.0
188.552368 152.0
188.67627 36.0
188.717285 44.0
188.818466 236.0
188.916931 84.0
189.107574 176.0
189.170609 176.0
189.294632 208.0
189.371307 116.0
189.505539 92.0
189.993546 152.0
190.042923 144.0
190.106033 188.0
190.204834 108.0
190.377808 40.0
190.756958 72.0
190.792694 56.0
191.057281 200.0
191.442032 148.0
191.535675 68.0
191.786423 152.0
192.11731 136.0
192.382233 148.0
192.426407 132.0
192.473343 64.0
192.547897 108.0
193.244492 188.0
193.776062 148.0
193.825943 116.0
194.191864 224.0
194.685867 168.0
194.888641 144.0
195.508728 52.0
195.536438 96.0
195.625458 136.0
195.744431 208.0
195.826111 160.0
195.904861 160.0
196.101929 172.0
196.346939 228.0
196.545334 224.0
196.763031 140.0
196.874725 100.0
197.08075 552.0
197.142899 228.0
197.305023 120.0
197.450424 156.0
197.528732 48.0
197.86174 156.0
197.931732 64.0
198.004547 224.0
198.046555 220.0
198.090942 4512.0
198.265091 104.0
198.567871 60.0
198.680069 188.0
198.814743 84.0
198.834396 40.0
198.92421 132.0
198.970779 176.0
199.0 128.0
199.036499 212.0
199.087128 9644.0
199.190964 152.0
199.235916 40.0
199.360306 236.0
199.395309 132.0
199.442337 128.0
199.508514 152.0
199.570358 56.0
199.599319 160.0
199.620972 112.0
199.775665 92.0
199.845856 84.0
199.856689 80.0
199.873383 164.0
199.891617 132.0
199.93042 116.0
199.965591 136.0
200.018982 128.0
200.037369 232.0
200.094894 51268.0
200.199081 64.0
200.248108 60.0
200.302063 48.0
200.341843 96.0
200.361008 56.0
200.370834 96.0
200.394424 88.0
200.434464 120.0
200.473923 52.0
200.51857 44.0
200.540787 44.0
200.59993 96.0
200.647003 116.0
200.713516 72.0
200.823151 160.0
200.845932 80.0
200.885559 72.0
200.947693 160.0
200.99559 52.0
201.097931 5684.0
201.193161 80.0
201.215744 48.0
201.235504 180.0
201.26091 176.0
201.341599 48.0
201.39444 84.0
201.445786 96.0
201.468246 92.0
201.489685 52.0
201.515106 84.0
201.546188 92.0
201.576691 116.0
201.602707 64.0
201.659225 64.0
201.967407 84.0
202.008423 36.0
202.029648 40.0
202.066422 68.0
202.09993 596.0
202.199417 52.0
202.277328 168.0
202.300858 108.0
202.33812 140.0
202.401505 92.0
202.47403 80.0
202.53067 104.0
202.550507 164.0
202.575989 76.0
202.624344 60.0
202.652481 140.0
202.728989 72.0
202.779999 136.0
202.805511 68.0
202.851852 228.0
202.904724 80.0
202.995453 80.0
203.100388 104.0
203.236557 104.0
203.296143 36.0
203.957886 36.0
204.094345 148.0
204.154053 168.0
204.199554 68.0
204.270676 36.0
204.336105 36.0
204.475525 232.0
204.609314 76.0
204.66626 36.0
205.076477 192.0
205.107819 168.0
205.624069 152.0
207.070709 68.0
207.105087 136.0
207.13945 64.0
207.213943 164.0
208.482193 152.0
208.729416 200.0
209.376892 84.0
209.543945 76.0
209.708206 108.0
209.817734 88.0
210.192688 84.0
210.969604 220.0
211.044769 108.0
211.406342 104.0
211.68425 104.0
211.927551 84.0
212.156509 100.0
212.674332 140.0
212.745407 60.0
213.067749 164.0
213.102081 432.0
213.3293 124.0
213.375809 68.0
213.419418 108.0
213.492126 56.0
213.538651 280.0
213.707367 144.0
213.777206 48.0
213.925644 164.0
213.960571 104.0
213.986771 60.0
214.105255 452.0
214.202271 204.0
214.222672 196.0
214.286758 164.0
214.537384 192.0
214.61319 68.0
214.649719 160.0
214.796921 180.0
214.872772 248.0
214.925278 104.0
215.008362 136.0
215.036179 216.0
215.077042 172.0
215.118164 29780.0
215.163116 220.0
215.215851 152.0
215.267914 84.0
215.342728 80.0
215.371292 128.0
215.414581 140.0
215.45665 32.0
215.481964 72.0
215.488297 48.0
215.547836 76.0
215.569458 68.0
215.63562 156.0
215.764053 64.0
215.821976 168.0
215.854141 68.0
215.886307 48.0
215.915558 64.0
215.93602 168.0
215.974045 96.0
216.061813 84.0
216.120483 4808.0
216.205185 56.0
216.395447 72.0
216.421799 76.0
216.486206 72.0
216.534927 76.0
216.594574 32.0
216.661957 72.0
216.738861 64.0
216.827866 80.0
216.946213 40.0
217.124283 284.0
217.207199 64.0
217.301071 60.0
217.321609 44.0
217.459534 28.0
217.521393 100.0
217.676773 88.0
217.709076 84.0
217.751297 84.0
217.773682 108.0
217.803055 92.0
217.847107 104.0
217.911743 72.0
218.267395 92.0
218.486557 64.0
218.564468 60.0
218.953033 52.0
219.400909 76.0
221.353882 124.0
222.682449 48.0
223.059799 88.0
225.781952 52.0
225.964417 48.0
228.517609 92.0
235.285309 72.0
241.282257 40.0
248.256989 68.0
255.0672 116.0
256.193695 68.0
258.246124 100.0
260.788666 40.0
266.901917 76.0
267.406128 76.0
268.490997 136.0
269.58136 88.0
270.294189 104.0
270.376007 116.0
275.545044 44.0
285.955902 88.0
290.985809 56.0
293.278595 116.0
297.403534 96.0
301.329224 60.0
305.31543 76.0
306.526855 104.0
310.389343 64.0
311.319244 100.0
312.862793 64.0
312.957855 44.0
328.800323 112.0
334.290588 68.0
338.133362 108.0
345.015472 108.0
345.355652 160.0
345.396362 84.0
351.705597 56.0
352.362823 72.0
353.256317 60.0
357.149841 48.0
361.643585 148.0
363.337402 68.0
370.35141 40.0
370.776672 160.0
372.180664 88.0
374.453339 60.0
374.938751 52.0
383.211792 48.0
385.803192 124.0
391.527863 48.0
392.942932 116.0
406.391083 68.0
409.051483 56.0
435.81311 80.0
438.797272 76.0
445.241211 132.0
445.934418 104.0
446.733307 68.0
458.278473 104.0
460.949524 76.0
464.044128 52.0
476.791077 120.0
480.989685 36.0
489.305634 32.0
489.587433 52.0
496.565735 48.0
498.683502 40.0
498.748871 68.0
500.298157 96.0
516.298889 124.0
521.862671 28.0
521.985413 120.0
528.947449 56.0
533.801453 112.0
539.615723 84.0
540.628662 124.0
541.753784 64.0
547.67627 132.0
560.319641 52.0
572.445129 60.0
574.051025 92.0
582.507996 68.0
583.055725 60.0
586.121033 76.0
588.165833 36.0
606.160645 36.0
609.133789 52.0
613.981812 88.0
639.874146 80.0
646.045898 80.0
649.008667 48.0
670.571594 76.0
675.17157 108.0
681.20459 64.0
695.417664 68.0
696.262939 68.0
703.365479 88.0
712.728638 136.0
721.63501 168.0
727.689209 172.0
736.645081 164.0
738.20166 80.0
746.422241 236.0
757.906738 48.0
759.063293 84.0
769.793579 64.0
772.208618 136.0
777.06665 32.0
795.758179 52.0
796.712952 120.0
796.825317 196.0
799.890137 84.0
801.81073 56.0
828.076294 168.0
832.193542 200.0
835.268127 92.0
836.896729 184.0
843.46759 64.0
856.103943 140.0
857.23407 232.0
862.872437 212.0
866.641602 72.0
869.110046 152.0
870.025574 60.0
871.881653 96.0
882.107727 112.0
883.136597 152.0
886.499268 116.0
888.485596 116.0
894.213684 152.0
901.304138 168.0
908.26062 168.0
910.517334 36.0
911.760925 168.0
921.003113 136.0
925.896057 64.0
927.192505 184.0
929.575745 144.0
930.893005 32.0
935.489441 152.0
937.944275 84.0
942.148682 52.0
944.477661 48.0
957.47699 188.0
968.167114 132.0
968.445801 76.0
983.280396 200.0
993.705322 132.0
993.89978 172.0
994.175903 68.0
999.366211 184.0
1010.723511 32.0
1011.634888 148.0
1016.381836 148.0
1020.014526 176.0
1022.246826 204.0
1025.819824 192.0
1031.117554 140.0
1031.871826 96.0
1035.717773 104.0
1035.942017 224.0
1037.390259 48.0
1039.718506 180.0
1042.646973 168.0
1043.450439 92.0
1045.811279 136.0
1046.261841 108.0
1047.15686 80.0
1047.852539 108.0
1055.552734 152.0
1058.833618 192.0
1060.946045 116.0
1062.268921 84.0
1064.008057 168.0
1064.410645 112.0
1065.144531 144.0
1065.937134 64.0
1066.723511 76.0
1070.04126 188.0
1077.325806 156.0
1081.576172 208.0
1084.661377 212.0
1093.877197 172.0
1094.779297 156.0
1094.950439 160.0
1095.767212 72.0
1095.951782 156.0
1096.999634 120.0
1099.209106 168.0
1102.814819 116.0
1104.831665 160.0
1114.564575 204.0
1118.009033 172.0
1124.720459 204.0
1125.207764 200.0
1129.163574 188.0
1129.451172 120.0
1133.43457 172.0
1133.923706 184.0
1134.084595 148.0
1138.262451 176.0
1139.432739 240.0
1140.507935 224.0
1140.689453 80.0
1141.422241 176.0
1141.7854 180.0
1143.918213 164.0
1144.180786 104.0
1148.60144 204.0
1149.620239 160.0
1149.694458 192.0
1151.186279 96.0
1151.27417 108.0
1153.010254 196.0
1155.71521 176.0
1156.290405 148.0
1161.989136 104.0
1162.918701 112.0
1168.858276 160.0
1171.547607 40.0
1175.03125 180.0
1176.095825 64.0
1179.934814 64.0
1181.973022 136.0
1186.294678 164.0
1186.959717 112.0
1189.518677 148.0
1191.132324 276.0
1191.359009 84.0
1191.751831 172.0
1192.939575 128.0
1193.51709 56.0
1195.745972 36.0
1195.849121 148.0
1200.561523 160.0
1201.637573 32.0
1201.706543 96.0
1201.803101 128.0
1201.87207 68.0
1203.100586 172.0
1203.507935 132.0
1203.73584 132.0
1206.907471 136.0
1207.260132 120.0
1208.96875 80.0
1213.248413 152.0
1214.122925 92.0
1214.823486 100.0
1217.856812 132.0
1219.385376 144.0
1219.851074 140.0
1221.422485 188.0
1221.561646 148.0
1223.705078 60.0
1224.923828 168.0
1225.146729 232.0
1226.538208 152.0
1229.316162 56.0
1230.991455 140.0
1232.304688 188.0
1232.563232 108.0
1234.352661 48.0
1235.031006 92.0
1236.682251 176.0
1238.481689 188.0
1238.782837 124.0
1242.771973 136.0
1244.962036 172.0
1248.398315 156.0
1249.235352 68.0
1249.587036 104.0
1250.691895 128.0
1252.480347 152.0
1252.557861 164.0
1253.508911 212.0
1254.439209 136.0
1255.609741 108.0
1256.667847 160.0
1257.92395 128.0
1258.425171 168.0
1258.827637 144.0
1259.124268 148.0
1261.088379 108.0
1261.307495 168.0
1265.17688 144.0
1267.790527 268.0
1271.094971 72.0
1274.420776 228.0
1274.872803 168.0
1275.24231 172.0
1276.614502 252.0
1276.777954 96.0
1277.197632 112.0
1281.646973 148.0
1284.006592 208.0
1285.147949 212.0
1287.303589 124.0
1289.139404 228.0
1293.280273 180.0
1294.296875 252.0
1295.349609 232.0
1296.983398 192.0
1298.101807 172.0
1298.991089 120.0
1300.849609 204.0
1301.574707 112.0
1303.89502 196.0
1305.634888 148.0
1307.447754 196.0
1307.85083 176.0
1308.016357 184.0
1308.426636 156.0
1308.606689 40.0
1309.58606 144.0
1309.830933 168.0
1312.252319 252.0
1313.326782 200.0
1313.629761 116.0
1314.574829 48.0
1317.918091 124.0
1318.951538 220.0
1319.630981 176.0
1321.424683 176.0
1321.938477 184.0
1326.834717 116.0
1327.922363 220.0
1329.34436 44.0
1329.612793 192.0
1331.151855 168.0
1332.270386 188.0
1333.360229 104.0
1335.890503 92.0
1337.091064 72.0
1338.299438 140.0
1338.663574 92.0
1339.085938 168.0
1340.338989 180.0
1342.963379 176.0
1343.554199 148.0
1344.531982 176.0
1344.707153 72.0
1345.020996 52.0
1347.043579 128.0
1347.817993 68.0
1348.658447 144.0
1349.418701 192.0
1350.683838 60.0
1352.871826 168.0
1353.472168 184.0
1353.677246 192.0
1354.41687 240.0
1355.237427 172.0
1355.611084 204.0
1357.033081 136.0
1357.143066 252.0
1357.31897 232.0
1357.45105 192.0
1357.72229 204.0
1360.598633 184.0
1360.861084 200.0
1361.788208 156.0
1362.500732 200.0
1365.418823 148.0
1366.787109 140.0
1367.434692 140.0
1369.069092 220.0
1369.614136 128.0
1369.975098 68.0
1375.143921 204.0
1376.429199 160.0
1380.477905 252.0
1381.0177 188.0
1383.008057 128.0
1383.541016 132.0
1384.288818 156.0
1385.377563 208.0
1386.896606 136.0
1387.793579 104.0
1388.186646 184.0
1388.342407 180.0
1391.399414 244.0
1391.518188 120.0
1392.363403 160.0
1392.669189 112.0
1393.449219 148.0
1393.731567 152.0
1397.516113 156.0
1400.091675 176.0
1400.650269 148.0
1401.35791 176.0
1402.050903 164.0
1402.796265 160.0
1403.758057 164.0
1405.026001 132.0
1405.794556 168.0
1405.861694 104.0
1406.421387 228.0
1406.839478 168.0
1406.891724 200.0
1409.079834 228.0
1409.804688 168.0
1409.998901 68.0
1411.008057 196.0
1411.995117 136.0
1412.593506 76.0
1413.109619 172.0
1415.849243 192.0
1416.118896 64.0
1416.381104 64.0
1418.111816 88.0
1420.233765 132.0
1420.32373 180.0
1421.441528 44.0
1422.041992 160.0
1422.259644 168.0
1423.288086 152.0
1425.669312 188.0
1426.796753 176.0
1427.217773 116.0
1428.819824 84.0
1432.252441 176.0
1432.7948 188.0
1433.638794 48.0
1434.151245 152.0
1434.317017 164.0
1434.882446 152.0
1436.239746 88.0
1436.564209 88.0
1437.311035 152.0
1437.839355 224.0
1438.299683 164.0
1438.488403 172.0
1439.839966 128.0
1441.025879 160.0
1441.109009 136.0
1441.690796 360.0
1441.864624 76.0
1442.93042 108.0
1443.384033 232.0
1443.716797 176.0
1443.800049 256.0
1446.107544 184.0
1446.296753 164.0
1446.947754 264.0
1447.447388 108.0
1448.341064 48.0
1448.71228 156.0
1450.220093 152.0
1450.303467 144.0
1450.909912 112.0
1450.970581 220.0
1451.73645 160.0
1454.48291 108.0
1455.074951 68.0
1456.548218 132.0
1457.277466 220.0
1457.421875 156.0
1458.683472 240.0
1459.131958 192.0
1460.05957 152.0
1460.341064 96.0
1460.698486 320.0
1461.558228 60.0
1462.083252 188.0
1462.212646 288.0
1462.51709 164.0
1462.60083 176.0
1463.582886 164.0
1464.001709 164.0
1464.702393 176.0
1464.971191 152.0
1465.09082 220.0
1465.692749 144.0
1465.898438 256.0
1467.178955 128.0
1467.316162 148.0
1469.970459 76.0
1470.733643 176.0
1470.794678 212.0
1474.858276 244.0
1476.027954 120.0
1476.180908 144.0
1476.853882 212.0
1478.070312 184.0
1478.223267 100.0
1480.083374 148.0
1480.440796 164.0
1481.607544 192.0
1483.178345 144.0
1483.462036 196.0
1484.38208 76.0
1485.48645 196.0
1485.662842 224.0
1485.962036 152.0
1486.307373 148.0
1487.757935 148.0
1487.897949 196.0
1492.805908 204.0
1493.690308 168.0
1494.590454 160.0
1494.651978 36.0
1494.952148 184.0
1495.075195 180.0
1495.944946 184.0
1496.083496 164.0
1496.737915 196.0
1497.076782 64.0
1497.692871 224.0
1498.648193 120.0
1498.771484 200.0
1498.987183 192.0
1499.634521 156.0
1500.012207 88.0
1501.022217 204.0
1502.449097 68.0
1502.549316 68.0
1503.328613 188.0
1503.513794 152.0
1503.830322 36.0
1504.216187 136.0
1504.82605 140.0
1505.019165 228.0
