>compound alosetron??monohydrochloride
>formula C17H18N4O
>ionization [M+H]+
>parentmass 295.156097
#inchi InChI=1S/C17H18N4O/c1-11-13(19-10-18-11)9-21-8-7-15-16(17(21)22)12-5-3-4-6-14(12)20(15)2/h3-6,10H,7-9H2,1-2H3,(H,18,19)
#inchikey JSWZEAMFRNKZNL
#Ion_Source LC-ESI
#Instrument qTof
#Compound_Source Commercial
#PI Dorrestein
#Data_Collector Garg_Neha
#Scan -1
#Precursor_MZ 295.155
#ExactMass 294.148
#Charge 1
#CAS_Number N/A
#Pubmed_ID N/A
#Smiles Cc1[nH]cnc1CN2CCc3c(C2=O)c4ccccc4n3C
#INCHI_AUX N/A
#Library_Class 1
#SpectrumID CCMSLIB00000079036
#IonMode Positive
#UpdateWorkflowName UPDATE-SINGLE-ANNOTATED-GOLD
#LibraryQualityString Gold
#TaskID 278b19f5865741e282cec7349aa7e7a1
##Scan# 1056
#SpectrumFile NCP003352_G2_H11_BC7_01_15721.mzXML
#LibraryName NIHcollectionI_05062014.mgf
#MQScore -1
#Organism NIHcollectionI_05062014
#TIC_Query 0
#RT_Query -1
#MZErrorPPM -1
#SharedPeaks 0
#MassDiff 0
#LibMZ -1
#SpecMZ 295.155
#SpecCharge 0
#internalFilename spec-00000.mgf

>collision 10
45.28022 172.0
45.513557 160.0
45.820713 96.0
46.146832 304.0
46.332249 196.0
46.662041 176.0
47.104946 220.0
47.621342 148.0
47.633701 160.0
47.663929 200.0
47.674923 176.0
47.773918 192.0
47.789894 196.0
48.35043 160.0
48.472546 156.0
49.451588 176.0
50.066521 152.0
50.431934 192.0
50.702866 140.0
50.727772 168.0
51.257904 144.0
51.550434 184.0
51.674835 188.0
52.473385 168.0
52.60611 148.0
53.403069 168.0
53.602516 156.0
53.910423 240.0
54.310112 164.0
54.32478 140.0
54.427517 196.0
54.52594 140.0
54.725998 152.0
55.062214 216.0
55.091755 140.0
55.158253 196.0
55.214436 140.0
56.919289 184.0
57.770844 168.0
57.804127 180.0
57.86013 236.0
58.605865 212.0
58.851429 204.0
60.053028 148.0
61.291698 160.0
61.80072 192.0
61.83202 148.0
62.231747 144.0
62.569775 164.0
63.727505 248.0
64.55159 164.0
66.538315 148.0
66.710518 240.0
68.156937 140.0
68.183228 188.0
69.406036 200.0
69.463974 100.0
69.635475 224.0
69.733765 128.0
70.540245 152.0
71.518166 200.0
71.597298 196.0
71.763847 124.0
71.841698 152.0
72.993416 252.0
74.209145 172.0
74.270882 192.0
75.767174 168.0
75.990822 140.0
76.658524 164.0
76.96553 224.0
77.579109 184.0
77.798912 304.0
77.942924 160.0
78.453331 168.0
80.54789 200.0
82.157555 140.0
82.692413 244.0
82.75396 160.0
83.765518 164.0
84.274506 152.0
84.504883 188.0
85.383537 156.0
86.104134 168.0
86.525734 188.0
86.69429 184.0
86.835182 220.0
86.948357 156.0
87.160049 176.0
87.468773 152.0
87.929146 160.0
88.173805 212.0
89.131401 332.0
89.262985 160.0
89.473709 148.0
90.029953 196.0
90.148964 188.0
90.366409 144.0
90.559502 180.0
90.750893 148.0
90.872284 172.0
91.657547 188.0
91.802422 140.0
92.142174 164.0
92.509354 144.0
93.442047 148.0
94.085739 156.0
94.937096 148.0
95.060905 8600.0
95.119469 164.0
95.151649 104.0
95.585907 160.0
96.062576 448.0
96.406876 188.0
96.604355 160.0
96.890167 232.0
98.778053 212.0
99.174072 208.0
99.332695 172.0
99.831215 208.0
101.073959 140.0
101.282211 196.0
101.521706 160.0
101.831734 164.0
102.58831 140.0
102.939369 172.0
103.26474 208.0
103.687881 140.0
103.758827 172.0
104.410622 176.0
104.478882 180.0
104.76683 240.0
104.838142 228.0
104.993073 168.0
105.90461 144.0
106.709023 356.0
108.059937 184.0
108.368423 164.0
108.385002 156.0
108.770744 212.0
109.063622 144.0
109.165497 156.0
109.902878 156.0
111.698296 156.0
112.203697 148.0
113.80497 148.0
114.072998 208.0
115.057198 200.0
115.912727 248.0
116.318077 240.0
117.066246 244.0
117.905457 244.0
119.455734 160.0
120.065598 188.0
120.111397 144.0
120.659515 140.0
120.858543 196.0
121.020515 160.0
121.401787 296.0
122.135338 152.0
122.179337 192.0
122.249741 220.0
122.652786 148.0
123.542694 164.0
123.741867 244.0
123.764008 148.0
123.985527 164.0
124.512497 196.0
125.011505 160.0
125.062698 160.0
125.816132 180.0
126.148994 176.0
126.678795 136.0
127.783875 176.0
128.640244 156.0
128.667328 184.0
129.900681 188.0
130.065796 480.0
130.816452 172.0
131.073212 444.0
131.899979 184.0
131.990952 236.0
132.075897 136.0
132.12204 188.0
132.20874 184.0
133.082077 176.0
133.339355 188.0
133.538193 116.0
133.845459 148.0
134.073502 248.0
134.500183 168.0
134.922928 176.0
135.184296 208.0
135.207428 144.0
135.742554 140.0
136.016327 180.0
136.188141 148.0
136.406555 220.0
136.913773 168.0
138.066635 140.0
138.340271 148.0
138.398926 160.0
138.630829 204.0
139.226685 144.0
139.804993 180.0
139.932098 176.0
140.563782 172.0
141.047928 160.0
141.284409 176.0
141.395615 248.0
141.971298 168.0
142.047195 152.0
142.087524 172.0
142.329605 208.0
143.073227 1368.0
144.03241 196.0
144.081009 1108.0
145.012619 232.0
145.086029 512.0
145.526764 152.0
145.618011 160.0
146.09671 6036.0
146.166122 168.0
146.323425 108.0
146.47081 172.0
147.099976 928.0
147.263 156.0
147.950317 132.0
148.070801 156.0
148.144958 136.0
149.442322 180.0
150.087769 192.0
150.810379 140.0
151.059784 196.0
151.613129 176.0
154.066391 404.0
155.569473 144.0
155.959457 188.0
156.08168 316.0
156.631287 160.0
156.686081 192.0
156.902908 164.0
157.054764 156.0
157.089966 580.0
157.217194 148.0
157.356964 156.0
157.56926 192.0
157.611725 164.0
157.781693 164.0
157.896301 212.0
157.979248 240.0
158.097122 21132.0
158.452408 148.0
159.101089 2376.0
159.357025 128.0
160.103851 268.0
160.131927 144.0
161.569183 140.0
162.007141 160.0
162.179443 156.0
162.717224 156.0
163.935593 144.0
163.978928 152.0
164.864502 260.0
165.25061 164.0
165.55777 212.0
166.350021 216.0
166.753296 212.0
166.897247 188.0
167.054947 256.0
167.265137 212.0
167.548401 240.0
168.081604 776.0
168.580475 192.0
169.504288 176.0
170.056671 156.0
170.08493 448.0
171.096313 520.0
171.375107 164.0
172.076614 1948.0
172.099548 948.0
172.22554 204.0
172.63063 152.0
173.081406 340.0
173.108002 9428.0
174.008865 148.0
174.109909 1596.0
175.34111 212.0
176.586014 160.0
177.542084 160.0
179.05957 152.0
179.163452 180.0
180.069839 180.0
180.292114 180.0
181.077835 1576.0
181.531555 184.0
181.850815 200.0
182.078156 552.0
183.027191 168.0
183.089493 1212.0
183.661591 212.0
183.844971 144.0
184.07605 780.0
185.009995 172.0
185.078812 280.0
185.107986 800.0
185.608749 180.0
185.890854 152.0
185.980423 180.0
186.106766 304.0
188.824875 140.0
189.490051 164.0
189.78331 168.0
189.854614 140.0
189.997238 140.0
190.587524 164.0
194.104111 140.0
195.648895 176.0
196.657974 164.0
197.938354 248.0
198.076874 124.0
198.346359 164.0
198.6306 140.0
198.759644 176.0
198.826996 208.0
198.866959 184.0
199.025146 148.0
199.086975 32936.0
199.196609 104.0
199.51236 152.0
199.772339 140.0
199.827332 156.0
199.998993 212.0
200.090424 3416.0
200.348175 140.0
200.491867 148.0
200.569153 188.0
200.625153 120.0
200.686371 156.0
200.73317 168.0
200.836334 212.0
200.896851 152.0
200.953079 164.0
201.038269 248.0
201.103424 217360.0
201.172211 380.0
201.203018 232.0
201.297134 128.0
201.361465 204.0
201.392334 392.0
201.428207 160.0
201.461426 96.0
201.525833 144.0
201.567154 860.0
201.604691 168.0
201.692261 188.0
201.727936 100.0
201.940079 112.0
201.996964 100.0
202.065521 180.0
202.105865 24460.0
202.224899 152.0
202.265381 248.0
202.53894 148.0
202.589935 120.0
202.673492 96.0
202.730453 112.0
202.882095 112.0
203.107483 2912.0
203.17804 180.0
203.334106 144.0
203.414612 136.0
203.514679 140.0
203.592804 160.0
203.625229 100.0
203.679474 156.0
203.70256 172.0
203.773376 184.0
203.879959 212.0
204.114334 616.0
204.419693 96.0
204.604691 140.0
211.089615 168.0
211.972153 156.0
212.758163 176.0
213.102676 8724.0
213.692459 108.0
214.105911 1148.0
214.882675 212.0
215.115204 112.0
215.778259 148.0
221.230743 152.0
226.130249 176.0
227.386017 188.0
229.527908 192.0
239.885193 208.0
240.610153 148.0
246.405441 168.0
251.080811 164.0
252.157288 176.0
254.090637 144.0
255.259476 240.0
258.807709 180.0
262.490051 160.0
270.109375 160.0
270.289307 172.0
275.104218 152.0
279.083588 128.0
279.221863 176.0
280.111511 208.0
292.728577 140.0
292.783051 236.0
293.011261 184.0
293.140411 9556.0
293.243256 144.0
293.474792 144.0
294.143036 2768.0
294.234528 200.0
294.351685 164.0
294.5737 120.0
294.782104 148.0
294.853882 144.0
294.924438 180.0
295.062378 148.0
295.156097 53064.0
295.236237 180.0
295.271484 208.0
295.330292 96.0
295.727478 120.0
295.842987 112.0
296.08548 160.0
296.157562 6576.0
296.487976 124.0
297.160767 1184.0
297.984741 136.0
298.293365 124.0
309.214355 152.0
1202.668823 204.0
1239.87915 156.0
1251.15979 152.0
1338.477783 144.0
1357.997314 212.0
1394.27771 168.0
1398.122559 180.0
1402.859619 200.0
1441.966797 148.0
1444.355957 140.0
1477.102539 164.0
1498.505737 160.0
1511.678467 140.0
1527.560181 192.0
1528.089233 148.0
1535.809082 140.0
1547.139648 144.0
1557.53772 140.0
1563.662598 216.0
1576.66748 188.0
1596.749023 176.0
1603.44458 200.0
1636.488037 188.0
1643.322754 140.0
1650.648804 172.0
1668.998535 184.0
1671.023682 180.0
1677.123047 216.0
1682.776367 164.0
1688.079224 140.0
1691.580933 172.0
1697.168335 156.0
1713.647705 156.0
1733.163574 144.0
1752.140015 188.0
1758.535767 164.0
1779.110718 172.0
1782.050171 140.0
1788.011963 192.0
1791.232056 156.0
1820.05896 152.0
1825.880005 140.0
1833.508057 172.0
1834.411499 148.0
1834.769531 160.0
1835.298096 200.0
1845.091064 144.0
1847.742188 172.0
1850.849121 144.0
1864.694824 140.0
1870.810425 152.0
1874.936279 172.0
1895.070068 184.0
1895.165405 212.0
1903.726807 144.0
1904.673462 168.0
1906.0896 156.0
1918.090942 160.0
1922.41687 184.0
1929.351929 172.0
1936.343262 204.0
1936.473633 160.0
1937.192871 196.0
1940.014648 204.0
1941.908691 284.0
1943.2771 152.0
1945.70813 176.0
1955.12207 272.0
1961.3479 176.0
1980.753052 192.0
1983.5 148.0
1986.310913 208.0
