>compound Valsartan (Diovan)
>formula C24H29N5O3
>ionization [M+Na]+
>parentmass 458.217163
#inchi InChI=1S/C24H29N5O3/c1-4-5-10-21(30)29(22(16(2)3)24(31)32)15-17-11-13-18(14-12-17)19-8-6-7-9-20(19)23-25-27-28-26-23/h6-9,11-14,16,22H,4-5,10,15H2,1-3H3,(H,31,32)(H,25,26,27,28)/t22-/m0/s1
#inchikey ACWBQPMHZXGDFX
#Ion_Source LC-ESI
#Instrument qTof
#Compound_Source Commercial
#PI Dorrestein
#Data_Collector Garg_Neha
#Scan -1
#Precursor_MZ 458.216
#ExactMass 435.227
#Charge 1
#CAS_Number 137862-53-4
#Pubmed_ID N/A
#Smiles C1(=CC=C(C=C1)C2=CC=CC=C2C3N=NNN=3)CN([C@@](C(C)C)(C(=O)O)[H])C(=O)CCCC
#INCHI_AUX N/A
#Library_Class 1
#SpectrumID CCMSLIB00000078330
#IonMode Positive
#UpdateWorkflowName UPDATE-SINGLE-ANNOTATED-GOLD
#LibraryQualityString Gold
#TaskID 77f51c88eb8b467eb4a01dd2d0cb90d2
##Scan# 1462
#SpectrumFile Plate5_41_60_GH8_01_16510.mzXML
#LibraryName FDALibrary_2_04302014.mgf
#MQScore -1
#Organism FDALibrary_2_04302014
#TIC_Query 0
#RT_Query -1
#MZErrorPPM -1
#SharedPeaks 0
#MassDiff 0
#LibMZ -1
#SpecMZ 458.216
#SpecCharge 0
#internalFilename spec-00000.mgf

>collision 10
47.396172 172.0
47.493504 140.0
49.445778 212.0
52.119076 180.0
53.365009 180.0
53.533802 248.0
56.604115 192.0
61.243931 148.0
73.403397 168.0
74.035675 176.0
78.370071 148.0
78.530495 168.0
80.677338 172.0
81.847122 188.0
82.417099 144.0
84.268578 164.0
84.524559 236.0
85.089081 192.0
87.005432 200.0
87.468315 148.0
88.171471 172.0
89.401718 184.0
89.518433 184.0
94.853233 160.0
96.48848 144.0
98.506744 144.0
99.126007 180.0
102.991371 160.0
103.324913 172.0
105.212929 144.0
106.16642 148.0
106.3367 140.0
107.31794 148.0
109.41465 144.0
109.896095 168.0
111.712486 224.0
112.665344 180.0
113.012077 196.0
113.285179 164.0
113.548012 160.0
114.034203 188.0
114.149002 140.0
117.104492 176.0
117.85305 140.0
120.464478 144.0
126.719116 156.0
127.055405 148.0
127.149651 148.0
127.918343 180.0
134.608139 144.0
136.708359 176.0
138.372604 196.0
138.461594 172.0
140.039871 164.0
141.068649 156.0
142.485809 184.0
148.790405 148.0
150.067703 156.0
151.046585 192.0
152.041748 164.0
152.063828 172.0
153.074219 164.0
154.076935 212.0
156.70546 140.0
159.299774 156.0
159.795029 208.0
160.086029 208.0
160.414551 216.0
163.068192 200.0
165.892853 240.0
166.056961 172.0
169.042801 180.0
169.076447 168.0
170.700394 228.0
172.564713 148.0
173.525574 204.0
174.339279 172.0
178.019196 152.0
178.075256 1552.0
179.083069 1156.0
179.482727 160.0
179.614838 96.0
180.081863 480.0
180.561584 184.0
181.074905 168.0
181.096283 316.0
183.375244 144.0
185.502472 204.0
189.876007 144.0
190.061157 380.0
190.103714 140.0
190.567764 212.0
190.718903 168.0
191.070068 168.0
192.075073 176.0
193.02652 120.0
193.084366 164.0
193.186844 164.0
196.077332 176.0
196.24736 156.0
197.573975 172.0
198.924713 160.0
202.621857 168.0
202.704025 196.0
205.073456 368.0
206.085068 180.0
207.090988 9964.0
207.543457 104.0
208.093063 1492.0
209.098404 308.0
209.605057 160.0
211.464844 148.0
213.100342 144.0
214.715897 296.0
214.984299 184.0
217.833115 164.0
219.021469 156.0
221.470108 168.0
224.125198 556.0
225.123993 292.0
225.564453 172.0
226.129761 172.0
228.3349 144.0
229.073181 612.0
230.072754 144.0
230.411758 144.0
231.09967 196.0
232.461594 152.0
233.068893 196.0
233.348526 152.0
235.097473 1192.0
236.098129 228.0
236.157059 188.0
236.683411 156.0
237.329926 152.0
238.597931 140.0
239.317871 188.0
242.99585 180.0
243.048599 140.0
243.312408 140.0
245.191162 156.0
246.092712 148.0
246.673737 200.0
247.054062 116.0
247.078873 196.0
247.109314 244.0
248.893951 168.0
249.111694 172.0
249.161957 144.0
249.271927 264.0
249.929108 184.0
250.162003 184.0
256.204315 180.0
256.309479 216.0
257.100311 140.0
258.253662 176.0
260.240479 196.0
262.125366 196.0
263.156281 152.0
266.639801 168.0
270.730835 188.0
271.135803 592.0
271.792908 160.0
272.135437 324.0
273.140808 112.0
274.661652 164.0
275.754517 180.0
276.806549 176.0
278.358398 184.0
279.152618 164.0
280.861115 172.0
282.28717 172.0
282.865967 228.0
284.990723 128.0
285.13623 1024.0
285.657867 220.0
286.13504 292.0
287.08255 196.0
287.148315 184.0
288.436401 140.0
291.153687 144.0
294.020203 172.0
294.074799 232.0
299.915985 140.0
300.009033 176.0
300.067657 180.0
300.147461 9736.0
300.584045 100.0
301.148987 1668.0
301.418945 96.0
301.569275 236.0
301.78479 116.0
302.056793 148.0
302.15213 228.0
303.154327 156.0
306.173309 440.0
307.171112 476.0
307.641113 164.0
308.234833 180.0
315.142792 184.0
317.139984 160.0
318.144775 144.0
318.956055 148.0
319.155121 152.0
321.149384 164.0
323.901642 144.0
324.281433 204.0
324.392548 156.0
326.939056 168.0
327.317047 148.0
328.152435 5200.0
329.002533 156.0
329.154541 1100.0
329.499908 100.0
330.158905 188.0
330.457245 180.0
331.108124 148.0
331.132935 164.0
333.110962 152.0
335.140991 168.0
336.439362 160.0
337.078522 172.0
338.021942 156.0
338.109772 172.0
340.096222 204.0
340.672729 208.0
341.08429 240.0
341.967041 156.0
344.223236 216.0
346.150391 1224.0
346.212311 208.0
347.157104 276.0
348.10025 140.0
349.112213 124.0
351.577179 176.0
355.930725 188.0
358.155548 224.0
359.174805 156.0
359.216309 172.0
359.420044 184.0
360.893097 216.0
362.456329 140.0
362.645813 208.0
363.833099 148.0
364.11673 184.0
370.208313 176.0
371.15094 192.0
372.156219 152.0
373.547424 172.0
373.972565 156.0
374.1586 552.0
375.184845 152.0
377.133423 140.0
377.160492 152.0
378.677185 188.0
378.770142 152.0
381.115143 172.0
381.52533 152.0
383.136475 160.0
386.071686 144.0
388.205933 164.0
388.460846 152.0
389.16333 180.0
389.19696 136.0
390.121948 156.0
392.223969 144.0
392.626129 164.0
393.158722 180.0
394.082703 168.0
394.23288 156.0
395.023621 204.0
395.993378 144.0
396.714508 156.0
396.84137 164.0
398.341492 200.0
399.836487 176.0
400.286316 164.0
400.935669 140.0
401.193634 716.0
402.156067 212.0
402.198242 316.0
402.671112 160.0
403.038605 212.0
404.202209 268.0
406.093079 192.0
406.698914 232.0
407.018158 132.0
408.740479 156.0
409.453491 100.0
409.91626 144.0
410.158081 168.0
410.230652 300.0
410.299164 152.0
410.892029 172.0
412.2117 152.0
412.818695 152.0
413.47403 148.0
413.680481 152.0
413.818115 152.0
414.174469 196.0
415.197144 632.0
415.847626 140.0
416.196503 352.0
418.214172 412.0
418.539246 172.0
419.069702 156.0
419.220581 148.0
419.281586 140.0
419.872711 148.0
420.141937 188.0
420.729584 144.0
422.806 172.0
424.145325 204.0
424.944977 156.0
425.191193 152.0
426.398621 144.0
428.530151 204.0
430.126129 164.0
430.20929 7952.0
431.165009 120.0
431.212708 2452.0
431.720917 156.0
432.21402 260.0
433.210358 116.0
434.141418 160.0
434.865356 144.0
434.969147 152.0
436.947205 220.0
439.839264 160.0
440.089752 168.0
440.210846 148.0
441.33905 144.0
443.071747 144.0
444.232971 224.0
444.354645 160.0
444.62738 208.0
445.210938 188.0
446.177338 160.0
446.227783 160.0
446.547363 152.0
448.391418 148.0
450.281494 144.0
451.008209 156.0
451.786255 168.0
452.71814 232.0
453.668457 104.0
455.185394 188.0
455.697021 256.0
455.852325 144.0
455.907562 196.0
456.123535 152.0
456.273102 160.0
456.477203 144.0
456.545227 316.0
456.737793 132.0
456.988342 116.0
457.130737 232.0
457.196106 340.0
457.396149 164.0
457.523865 176.0
457.644348 188.0
457.683258 152.0
457.791779 204.0
457.877899 240.0
457.965393 128.0
458.041168 204.0
458.100647 136.0
458.141968 160.0
458.217163 70336.0
458.327942 208.0
458.514191 104.0
458.69577 152.0
458.818756 156.0
458.889954 104.0
458.971649 196.0
459.062347 132.0
459.148743 340.0
459.218475 21872.0
459.443665 108.0
459.516968 200.0
459.573517 104.0
459.900055 152.0
459.989624 132.0
460.041718 156.0
460.132294 104.0
460.220001 2952.0
460.33548 104.0
460.458862 172.0
461.043091 112.0
461.13266 140.0
461.222107 308.0
461.279602 236.0
461.51297 200.0
461.719513 96.0
461.93042 192.0
461.973999 100.0
462.00177 128.0
462.065002 116.0
462.171661 216.0
462.219391 164.0
462.257263 296.0
462.5625 112.0
462.748444 196.0
463.218445 108.0
463.629639 100.0
467.206848 100.0
474.177917 388.0
475.173798 132.0
478.190826 172.0
481.196564 240.0
492.191406 740.0
493.190826 200.0
494.208527 232.0
500.17749 184.0
511.196198 108.0
577.243591 156.0
612.68573 164.0
633.32605 148.0
676.362183 144.0
784.341675 152.0
940.642151 140.0
1282.026733 152.0
1573.307373 156.0
1674.520142 200.0
1688.230591 192.0
1766.468994 168.0
1890.760498 196.0
1927.903564 212.0
1937.414429 228.0
