>compound MLS001032339-01!2-[(5-hydroxy-2,2-dimethyl-4-oxo-3H-chromen-7-yl)oxy]-N-[2-(4-sulfamoylphenyl)ethyl]acetamide
>formula C21H24N2O7S
>ionization [M+H]+
>parentmass 449.138
#inchi InChI=1S/C21H24N2O7S/c1-21(2)11-17(25)20-16(24)9-14(10-18(20)30-21)29-12-19(26)23-8-7-13-3-5-15(6-4-13)31(22,27)28/h3-6,9-10,24H,7-8,11-12H2,1-2H3,(H,23,26)(H2,22,27,28)
#inchikey AVRYCXOFHOCUBP
#Ion_Source LC-ESI
#Instrument qTof
#Compound_Source NIH Natural Product Library
#PI Dorrestein
#Data_Collector VVP/LMS
#Scan -1
#Precursor_MZ 449.138
#ExactMass 448.13
#Charge 1
#CAS_Number N/A
#Pubmed_ID N/A
#Smiles CC1(C)CC(=O)c2c(O)cc(OCC(=O)NCCc3ccc(cc3)S(=O)(=O)N)cc2O1
#INCHI_AUX N/A
#Library_Class 1
#SpectrumID CCMSLIB00000079645
#IonMode Positive
#UpdateWorkflowName UPDATE-SINGLE-ANNOTATED-GOLD
#LibraryQualityString Gold
#TaskID b1d8e8f6646f4e71acdff9ca3d919d08
##Scan# 1995
#SpectrumFile p1-C09_GC9_01_17905.mzXML
#LibraryName NIH_Natural_Products_Library.mgf
#MQScore -1
#Organism NIH_Natural_Products_Library
#TIC_Query 0
#RT_Query -1
#MZErrorPPM -1
#SharedPeaks 0
#MassDiff 0
#LibMZ -1
#SpecMZ 449.138
#SpecCharge 0
#internalFilename spec-00000.mgf

>collision 10
95.473709 116.0
95.590431 208.0
95.734482 128.0
96.491539 156.0
97.037766 172.0
97.057373 216.0
97.210373 184.0
97.32814 208.0
97.57177 112.0
97.611092 96.0
98.048103 76.0
98.804352 144.0
99.200409 44.0
99.513863 132.0
100.116348 140.0
100.249817 204.0
100.449188 108.0
100.554939 164.0
100.646767 92.0
101.082512 132.0
101.45504 184.0
101.481102 228.0
101.972107 180.0
102.045273 360.0
102.298752 188.0
102.925758 144.0
102.9823 132.0
103.054634 1564.0
103.354263 80.0
103.368431 136.0
103.435211 160.0
103.514168 224.0
103.759331 96.0
103.891151 184.0
104.058266 360.0
104.339958 56.0
104.384689 148.0
104.914047 116.0
105.0718 480.0
105.103714 76.0
105.694221 240.0
105.888695 212.0
105.919418 140.0
105.960388 184.0
106.038254 152.0
106.071045 56.0
106.555351 188.0
106.64782 204.0
106.789688 128.0
107.047798 448.0
107.131371 92.0
107.416527 60.0
107.746132 272.0
108.019005 120.0
108.17627 192.0
108.474327 180.0
108.688164 228.0
109.028717 152.0
109.442665 108.0
109.834381 120.0
109.878258 120.0
110.126663 196.0
110.856789 84.0
111.005623 196.0
111.435905 132.0
111.925972 92.0
111.963875 236.0
112.075516 176.0
112.115555 132.0
112.349594 156.0
112.985474 36.0
113.404739 144.0
113.990463 176.0
114.340866 160.0
114.362625 160.0
114.976425 172.0
115.05822 596.0
115.131081 36.0
115.290352 72.0
115.555489 184.0
116.062424 664.0
116.228256 104.0
116.763145 56.0
117.068871 736.0
117.579651 136.0
117.875496 140.0
118.067863 188.0
119.045235 168.0
119.072456 484.0
119.086761 244.0
119.277702 152.0
120.058266 280.0
120.073959 232.0
120.079544 120.0
120.249115 192.0
120.655396 176.0
121.009819 36.0
121.029518 160.0
121.064926 784.0
121.139023 48.0
121.345024 116.0
121.472214 164.0
122.014626 196.0
122.06739 76.0
122.241173 212.0
122.360023 152.0
122.485542 172.0
122.712524 136.0
123.027184 556.0
123.074364 224.0
123.109695 72.0
123.186996 200.0
123.233391 56.0
123.3881 144.0
123.492027 92.0
123.680092 108.0
123.746506 76.0
124.010109 180.0
124.074394 156.0
124.236282 68.0
124.813721 108.0
124.831512 132.0
124.929375 40.0
124.947166 172.0
124.969421 100.0
125.020599 176.0
125.796219 140.0
125.9972 120.0
126.026245 188.0
126.274376 104.0
127.507439 184.0
128.053986 188.0
128.61554 164.0
128.665207 188.0
128.683273 220.0
129.051544 152.0
129.069595 168.0
129.13974 136.0
129.325256 136.0
129.402222 52.0
129.438446 268.0
129.998352 184.0
130.06575 320.0
130.275345 168.0
131.05925 280.0
132.023514 172.0
132.048676 108.0
132.079086 564.0
132.337006 88.0
132.449203 56.0
132.4767 64.0
132.604919 188.0
132.65773 104.0
133.033936 156.0
133.060944 168.0
133.082153 180.0
133.810974 180.0
134.012695 212.0
134.058456 324.0
134.098114 432.0
134.128876 44.0
134.768112 148.0
135.010559 204.0
135.025604 148.0
135.062729 172.0
135.086304 176.0
135.110275 180.0
135.362564 208.0
135.383408 228.0
135.826065 176.0
136.024994 132.0
136.075485 624.0
136.116165 140.0
136.713577 200.0
137.025406 220.0
137.149094 176.0
137.184052 176.0
137.223694 136.0
137.421936 164.0
138.001633 204.0
138.183578 120.0
138.504288 164.0
138.715179 192.0
139.024002 492.0
139.306503 140.0
139.882629 188.0
139.986221 184.0
140.026245 172.0
141.021881 184.0
141.068405 140.0
141.535217 140.0
141.608627 148.0
141.755508 208.0
142.073364 196.0
142.308167 140.0
142.536179 164.0
142.640747 36.0
143.08725 220.0
143.898575 116.0
144.062057 160.0
144.084961 176.0
144.369293 148.0
144.740189 264.0
144.912643 116.0
145.065506 820.0
145.581863 96.0
146.068405 180.0
146.096207 276.0
146.524719 172.0
146.992477 128.0
147.023697 196.0
147.028198 184.0
147.048462 372.0
147.079346 164.0
147.318405 112.0
147.717255 52.0
147.734192 292.0
147.760803 216.0
147.988312 196.0
148.021774 144.0
148.080551 596.0
148.397766 160.0
148.931641 172.0
148.948639 152.0
149.006638 292.0
149.040833 160.0
149.074966 92.0
149.123581 148.0
149.809738 108.0
150.020981 140.0
150.039398 896.0
150.199753 156.0
150.3974 76.0
150.692871 168.0
150.805283 64.0
150.996979 364.0
151.021927 1776.0
151.106049 40.0
151.34346 176.0
151.522247 104.0
151.887512 120.0
152.009293 900.0
152.046707 428.0
152.088699 48.0
152.231094 84.0
152.302322 48.0
152.331787 108.0
152.353897 188.0
152.430069 68.0
152.634079 100.0
152.720154 172.0
152.75705 152.0
152.973602 192.0
153.018585 5500.0
153.072083 156.0
153.08931 144.0
153.112213 80.0
153.180435 148.0
153.210007 44.0
153.436722 40.0
154.022263 772.0
154.070312 196.0
154.104691 88.0
154.145096 144.0
154.872421 140.0
154.961594 128.0
154.986374 112.0
155.019989 216.0
155.068146 112.0
155.122681 68.0
155.276413 116.0
156.143158 160.0
156.187927 72.0
156.917557 156.0
157.06543 428.0
157.092133 136.0
157.461533 224.0
158.072372 856.0
158.109039 116.0
158.386948 156.0
158.572357 92.0
158.592407 68.0
158.868225 176.0
159.013748 44.0
159.080521 668.0
159.116669 356.0
159.221085 192.0
159.284927 104.0
159.359161 128.0
159.994049 124.0
160.080704 364.0
161.022827 128.0
161.057571 276.0
162.040222 168.0
162.091003 672.0
162.457977 176.0
162.879349 160.0
162.908478 180.0
162.93779 76.0
163.001297 104.0
163.06871 152.0
163.090256 352.0
163.296188 176.0
163.58371 160.0
164.026932 136.0
164.050552 148.0
165.01886 560.0
165.050003 156.0
165.076233 180.0
165.408829 64.0
165.749451 60.0
166.029556 876.0
166.069885 132.0
166.311066 120.0
166.65004 152.0
166.832504 132.0
167.017365 756.0
167.07962 176.0
167.395966 96.0
167.424286 64.0
167.828842 176.0
167.888153 132.0
168.015015 188.0
168.050491 124.0
168.076462 172.0
168.918671 176.0
169.019974 208.0
169.053467 40.0
169.724106 232.0
169.98349 256.0
170.025009 144.0
170.045547 140.0
170.110657 128.0
171.031708 176.0
171.078918 204.0
171.22348 208.0
171.340698 112.0
171.408905 200.0
172.08194 148.0
172.245895 176.0
173.051346 168.0
173.56488 176.0
174.065964 196.0
174.094818 168.0
174.807327 168.0
175.061584 160.0
175.674133 88.0
176.014587 144.0
176.048355 152.0
176.199478 56.0
176.286667 52.0
176.690979 216.0
176.945267 188.0
177.050323 148.0
177.058182 248.0
177.065262 188.0
178.033707 820.0
178.088165 132.0
178.181137 156.0
178.444244 92.0
178.892288 220.0
178.998901 556.0
179.032288 156.0
179.070862 124.0
179.092926 176.0
179.202759 120.0
179.634628 60.0
179.797379 152.0
180.042984 152.0
180.205933 64.0
180.296783 84.0
181.016296 376.0
181.063873 240.0
181.09404 52.0
181.372681 172.0
181.868896 176.0
181.949432 240.0
182.011185 108.0
182.031921 176.0
182.058868 136.0
182.064072 92.0
183.016785 132.0
183.076019 152.0
183.110519 148.0
183.752579 180.0
183.952271 144.0
184.041107 1264.0
184.077316 220.0
184.579056 56.0
184.93074 164.0
185.025742 904.0
185.054214 468.0
185.388428 160.0
185.545639 68.0
185.71376 140.0
186.031357 164.0
186.06337 152.0
186.092438 160.0
186.609879 40.0
187.017914 52.0
187.074951 328.0
187.211212 76.0
187.257507 120.0
187.769882 52.0
187.873535 100.0
188.083069 312.0
188.211945 184.0
188.241989 72.0
188.375809 116.0
188.639099 136.0
188.927368 136.0
188.98819 432.0
189.051575 172.0
189.081238 176.0
189.105865 100.0
189.18251 156.0
189.259155 136.0
189.672836 60.0
190.037567 164.0
190.059113 168.0
190.180252 88.0
190.262604 64.0
190.864288 136.0
190.946793 200.0
191.015549 168.0
191.072525 1080.0
191.929871 132.0
192.001572 64.0
192.042618 480.0
192.079178 148.0
192.285736 64.0
193.014908 396.0
193.042313 124.0
193.080719 184.0
193.38295 176.0
193.834335 20.0
193.921997 200.0
193.995087 28.0
194.029312 1432.0
194.15036 180.0
194.311234 108.0
194.494385 216.0
194.755386 264.0
194.774826 84.0
194.844269 196.0
195.025375 136.0
195.051254 196.0
195.099945 36.0
195.163879 56.0
195.297363 92.0
195.776062 100.0
196.015381 188.0
196.040848 520.0
196.118729 192.0
197.022827 196.0
197.052429 324.0
197.691071 44.0
197.903793 212.0
198.00354 180.0
198.049408 128.0
198.088623 132.0
198.214706 88.0
198.973022 280.0
199.042175 148.0
199.076782 428.0
199.368149 176.0
200.037842 208.0
200.087814 208.0
200.603607 132.0
201.097214 64.0
201.927048 172.0
202.029663 140.0
202.095062 172.0
202.140015 124.0
202.496704 116.0
203.080551 136.0
203.106079 192.0
203.827164 172.0
204.05806 220.0
205.059372 144.0
205.441452 112.0
206.003815 136.0
206.358185 84.0
206.867401 180.0
206.907486 124.0
207.029083 136.0
207.05864 320.0
207.116516 128.0
207.408783 196.0
208.057068 180.0
208.080048 112.0
209.011185 284.0
209.081589 2412.0
209.408524 84.0
210.021332 168.0
210.082901 248.0
210.611252 32.0
211.03894 164.0
211.469955 160.0
211.652344 160.0
211.876297 208.0
212.039169 180.0
212.118759 160.0
212.27533 56.0
212.495758 60.0
212.922455 104.0
213.056992 1288.0
213.114182 208.0
213.250748 56.0
213.483322 112.0
214.058777 120.0
214.080032 192.0
214.288971 92.0
214.948547 164.0
214.973785 216.0
215.056107 140.0
215.109055 140.0
215.778046 136.0
215.991516 192.0
216.050018 140.0
216.102539 248.0
216.107727 236.0
217.048737 156.0
217.77652 116.0
217.961594 176.0
218.12323 100.0
219.06485 160.0
219.368362 252.0
219.391953 212.0
220.017365 172.0
220.039154 224.0
220.06459 208.0
220.092422 180.0
220.685043 128.0
220.720535 96.0
221.07962 2372.0
221.454437 60.0
221.481094 32.0
221.700333 44.0
222.002701 132.0
222.047195 176.0
222.081665 364.0
223.04776 160.0
223.074188 180.0
223.096268 152.0
223.297516 56.0
224.017822 140.0
224.840744 120.0
224.992966 224.0
225.053589 440.0
226.06897 176.0
226.088943 224.0
226.284485 268.0
227.07016 120.0
227.108658 196.0
227.186539 104.0
227.549667 68.0
227.609711 120.0
228.069168 372.0
228.109955 128.0
228.553528 188.0
229.051605 116.0
229.081436 136.0
229.107483 144.0
229.511337 156.0
230.051117 212.0
230.075531 52.0
231.058823 316.0
231.73587 140.0
231.851013 140.0
232.053009 356.0
232.205719 164.0
232.973923 352.0
233.095184 180.0
233.125565 140.0
234.028961 216.0
234.455414 156.0
234.958527 128.0
235.300323 36.0
236.018188 180.0
236.068985 148.0
236.565948 180.0
237.056885 428.0
237.07402 272.0
237.203094 200.0
238.052933 452.0
238.073608 148.0
238.532211 84.0
239.066956 300.0
239.098145 104.0
239.227417 64.0
240.070358 276.0
241.052094 444.0
241.082504 188.0
241.111969 232.0
241.294327 160.0
241.922333 68.0
241.971863 56.0
242.053772 256.0
242.346619 56.0
242.914841 208.0
242.969788 140.0
243.05661 196.0
243.115616 124.0
243.159058 48.0
243.382568 132.0
243.624817 140.0
244.031937 176.0
244.056808 172.0
244.099304 216.0
244.953094 188.0
245.071472 192.0
245.704361 76.0
247.100861 184.0
247.586029 152.0
247.748901 128.0
247.786484 116.0
248.005844 128.0
248.030914 128.0
248.103012 184.0
249.040451 744.0
249.075989 600.0
250.040619 124.0
250.063019 340.0
250.101624 268.0
251.045258 196.0
251.525513 80.0
252.033966 188.0
252.068344 172.0
252.653625 44.0
252.897278 76.0
253.008072 140.0
253.049362 596.0
253.083054 140.0
253.777939 104.0
253.914291 68.0
254.051346 196.0
254.080429 364.0
254.202972 108.0
254.577545 120.0
254.644226 36.0
254.739517 96.0
254.898376 152.0
255.001862 88.0
255.065247 6092.0
255.166672 136.0
255.438843 64.0
256.069946 1576.0
256.260193 64.0
256.390808 112.0
257.068329 180.0
257.414825 44.0
257.993103 96.0
259.013885 140.0
259.132416 136.0
259.174072 104.0
260.046326 120.0
261.084015 160.0
262.049652 112.0
263.076294 204.0
263.111298 152.0
264.063385 528.0
265.069611 164.0
265.125275 96.0
265.949585 140.0
266.051361 100.0
266.073608 168.0
266.232025 92.0
266.550385 136.0
267.063965 1820.0
267.246185 92.0
267.379608 48.0
267.431671 104.0
267.477234 136.0
267.535828 228.0
267.640015 64.0
267.812622 76.0
267.851715 72.0
268.070587 616.0
268.317688 96.0
268.872192 184.0
269.078033 136.0
269.114105 152.0
269.401154 152.0
269.636414 76.0
270.078888 276.0
270.130096 188.0
271.020599 52.0
271.059906 104.0
271.289337 92.0
271.420471 96.0
271.479492 108.0
272.033966 148.0
272.086487 132.0
272.152161 152.0
272.52002 52.0
273.088928 184.0
273.184113 160.0
273.664581 148.0
274.082886 164.0
275.074463 156.0
276.07666 116.0
276.457092 168.0
276.599396 156.0
277.046417 284.0
277.091766 128.0
278.10611 296.0
279.101532 292.0
279.370178 140.0
279.436737 176.0
279.569824 128.0
279.876068 56.0
280.035889 132.0
280.059204 200.0
280.08252 148.0
282.07489 888.0
282.305237 104.0
282.643097 136.0
283.087799 108.0
283.138519 208.0
284.046814 192.0
284.090118 668.0
284.845703 48.0
285.074158 44.0
285.111145 144.0
285.279175 100.0
285.581818 40.0
286.10672 144.0
286.498901 44.0
286.81076 164.0
287.063599 224.0
287.292938 136.0
289.05658 120.0
289.090424 164.0
292.518311 76.0
292.545563 172.0
292.964417 176.0
293.037567 112.0
293.118805 128.0
293.977448 164.0
294.081329 196.0
295.005066 136.0
295.054779 304.0
295.107635 168.0
295.692566 68.0
295.966431 112.0
296.055054 144.0
296.853912 68.0
297.701508 76.0
298.075928 184.0
298.099976 176.0
298.141205 180.0
300.189453 116.0
302.023285 48.0
304.036224 156.0
305.116455 160.0
305.815613 52.0
305.909607 152.0
306.020996 40.0
307.06955 156.0
308.099579 168.0
308.316223 136.0
309.102112 204.0
310.111603 112.0
310.230774 168.0
310.307892 212.0
311.125854 1108.0
312.085236 1512.0
312.12207 312.0
312.218048 124.0
312.883087 92.0
313.093018 312.0
313.126526 168.0
313.488892 84.0
313.908356 72.0
314.783478 68.0
315.6987 120.0
318.97113 144.0
319.028534 420.0
319.404938 112.0
320.032318 212.0
322.421204 92.0
323.025452 116.0
323.131348 272.0
324.131653 240.0
324.171112 160.0
324.74472 44.0
325.092712 96.0
325.128601 216.0
325.800018 80.0
327.087372 236.0
327.134155 124.0
327.786041 176.0
327.865326 212.0
328.087158 324.0
329.008728 168.0
329.901001 116.0
332.059479 184.0
332.99176 132.0
333.051697 204.0
333.107971 48.0
333.180634 108.0
334.063995 140.0
334.478821 184.0
335.032318 84.0
336.031219 72.0
336.315857 80.0
337.239929 128.0
338.125 216.0
339.330109 144.0
340.034393 140.0
340.618195 136.0
340.981934 72.0
341.974945 136.0
343.098419 104.0
344.955231 104.0
345.199249 132.0
345.406342 104.0
345.905884 128.0
345.965118 128.0
346.038208 3620.0
346.187256 76.0
346.224976 44.0
346.383545 76.0
347.041534 924.0
347.250885 64.0
347.432617 96.0
347.985596 44.0
348.042633 300.0
348.226959 56.0
348.356964 156.0
348.706238 100.0
349.078278 252.0
349.3591 124.0
349.487152 60.0
350.063721 292.0
350.142303 156.0
350.522247 140.0
350.704865 64.0
351.075226 200.0
351.124481 128.0
351.290283 80.0
352.117371 128.0
352.354218 136.0
353.041962 136.0
353.243927 196.0
357.039612 192.0
357.445862 80.0
358.04483 300.0
358.131042 160.0
358.308075 160.0
359.050629 120.0
359.250519 128.0
360.647644 60.0
360.832855 48.0
363.484161 116.0
366.320343 200.0
367.120728 144.0
368.078491 160.0
368.146332 1132.0
369.150269 240.0
370.148804 196.0
370.403748 104.0
371.42334 80.0
373.305206 100.0
373.751404 88.0
373.978455 68.0
374.228668 100.0
374.552155 72.0
375.082275 184.0
375.612152 92.0
375.793457 120.0
375.859039 60.0
375.893768 188.0
375.924652 180.0
375.963226 128.0
376.048645 16940.0
376.175507 64.0
376.258667 96.0
376.391724 68.0
376.515289 84.0
376.565491 44.0
376.641479 108.0
376.670898 68.0
376.766357 52.0
376.797241 96.0
376.858246 56.0
376.893829 60.0
376.959534 108.0
377.052765 4900.0
377.133423 84.0
377.17981 56.0
377.369232 128.0
377.45816 128.0
377.508453 44.0
377.574188 68.0
377.694092 40.0
377.755981 88.0
377.813995 148.0
377.958893 132.0
378.050018 1000.0
378.137695 104.0
378.220306 40.0
378.35965 68.0
378.4216 108.0
378.677185 60.0
378.828217 36.0
378.928955 76.0
378.971588 108.0
379.043671 376.0
379.08783 176.0
379.118805 36.0
379.4599 112.0
379.549835 84.0
379.723602 80.0
379.758484 44.0
380.026154 84.0
380.096008 48.0
380.313324 100.0
380.484131 108.0
380.612244 92.0
380.686035 80.0
380.75592 84.0
380.806427 60.0
381.224121 44.0
381.653564 44.0
381.680786 52.0
382.398376 60.0
382.610657 92.0
383.627411 32.0
383.787231 56.0
384.157623 128.0
384.204559 64.0
385.090607 152.0
385.153107 244.0
386.145844 196.0
387.245605 92.0
390.51889 60.0
390.92804 116.0
392.003052 56.0
392.125244 180.0
393.063782 160.0
394.046906 172.0
394.086731 244.0
394.157532 32.0
395.082703 156.0
402.814514 112.0
405.114624 124.0
414.105835 268.0
415.104523 172.0
416.104187 96.0
426.574615 108.0
431.112396 104.0
431.62912 56.0
432.10907 500.0
433.113312 296.0
433.429657 60.0
446.521088 88.0
447.291046 132.0
448.297607 168.0
449.11972 116.0
449.275787 76.0
450.135437 136.0
457.160858 88.0
464.372223 84.0
479.177734 100.0
486.845459 100.0
493.481384 84.0
521.782776 112.0
528.97229 116.0
530.479309 44.0
530.616882 100.0
558.18457 88.0
587.241028 100.0
634.289001 108.0
638.456177 64.0
639.044678 40.0
661.384094 204.0
661.90625 216.0
668.46637 136.0
682.530823 56.0
740.697144 80.0
795.713318 148.0
810.955139 112.0
822.969482 52.0
835.814331 56.0
837.806335 92.0
851.770569 156.0
933.735718 20.0
941.060181 32.0
941.988464 20.0
1003.647095 168.0
1007.200012 112.0
1049.035645 40.0
1074.978882 200.0
1120.615723 144.0
1132.467163 124.0
1137.407593 72.0
1140.893921 140.0
1143.476807 160.0
1153.668701 76.0
1166.691284 108.0
1180.826172 276.0
1193.271851 136.0
1202.433228 108.0
1206.377197 212.0
1206.667603 164.0
1224.640137 64.0
1228.027344 168.0
1236.515991 124.0
1256.810425 168.0
1272.338379 136.0
1278.03125 160.0
1285.15625 168.0
1294.842163 204.0
1296.583008 200.0
1298.282104 112.0
1298.832764 96.0
1305.276245 148.0
1315.3479 160.0
1315.723267 88.0
1325.443848 52.0
1325.791626 128.0
1329.671509 128.0
1330.54248 172.0
1331.421143 192.0
1335.08374 112.0
1336.174805 212.0
1344.86084 200.0
1347.264648 188.0
1347.840332 144.0
1351.518188 212.0
1351.744995 64.0
1354.061768 220.0
1359.798706 176.0
1363.243042 116.0
1372.038574 160.0
1374.080566 184.0
1391.591431 212.0
1399.264771 148.0
1404.764526 144.0
1408.817871 208.0
1409.953613 176.0
1415.069946 156.0
1425.168335 160.0
1428.473022 180.0
1431.189819 100.0
1431.242554 64.0
1441.742798 28.0
1453.093018 160.0
1455.567383 156.0
1461.868896 184.0
1463.954712 172.0
1464.23645 152.0
1475.040283 84.0
1477.670898 224.0
1485.945068 200.0
1486.075562 180.0
1489.530151 56.0
1489.591553 104.0
1491.704712 48.0
1497.352173 168.0
1499.648071 224.0
