>compound Ticlopidine Hydrochloride
>formula C14H14ClNS
>ionization [M+H]+
>parentmass 264.0608245800905
#inchi InChI=1S/C14H14ClNS/c15-13-4-2-1-3-11(13)9-16-7-5-14-12(10-16)6-8-17-14/h1-4,6,8H,5,7,9-10H2
#inchikey PHWBOXQYWZNQIN
#Ion_Source LC-ESI
#Instrument qTof
#Compound_Source Commercial
#PI Dorrestein
#Data_Collector Garg_Neha
#Scan -1
#Precursor_MZ 264.061
#ExactMass 263.054
#Charge 1
#CAS_Number N/A
#Pubmed_ID N/A
#Smiles Clc1ccccc1CN2CCc3sccc3C2
#INCHI_AUX N/A
#Library_Class 1
#SpectrumID CCMSLIB00000079262
#IonMode Positive
#UpdateWorkflowName UPDATE-SINGLE-ANNOTATED-GOLD
#LibraryQualityString Gold
#TaskID 278b19f5865741e282cec7349aa7e7a1
##Scan# 1089
#SpectrumFile NCP003512_A2_B11_BD4_01_15728.mzXML
#LibraryName NIHcollectionI_05062014.mgf
#MQScore -1
#Organism NIHcollectionI_05062014
#TIC_Query 0
#RT_Query -1
#MZErrorPPM -1
#SharedPeaks 0
#MassDiff 0
#LibMZ -1
#SpecMZ 264.061
#SpecCharge 0
#internalFilename spec-00000.mgf

>collision 10
44.940514 156.0
45.132183 164.0
45.305504 140.0
45.36179 160.0
45.528164 160.0
45.807926 160.0
46.318531 164.0
46.923271 208.0
47.054249 176.0
47.07473 148.0
48.343586 192.0
48.875053 144.0
48.890362 192.0
48.975288 180.0
49.097939 164.0
49.19561 148.0
49.780865 156.0
49.859535 160.0
49.956554 176.0
50.214317 168.0
50.458611 180.0
50.664654 172.0
50.937603 236.0
51.002968 188.0
51.234921 180.0
51.266266 180.0
51.690384 140.0
51.879444 144.0
52.224537 148.0
52.303207 164.0
52.398251 232.0
52.504917 148.0
52.686714 156.0
52.915295 196.0
53.155846 164.0
53.482899 192.0
53.504738 184.0
53.761272 196.0
53.812359 180.0
54.555138 148.0
54.845127 148.0
54.884819 160.0
55.040405 152.0
55.082691 224.0
55.563812 140.0
56.229061 176.0
56.574242 176.0
56.72554 156.0
56.99118 184.0
57.219791 180.0
57.362907 224.0
57.658741 224.0
57.698044 152.0
58.047802 160.0
58.619366 160.0
59.106476 184.0
59.216702 140.0
59.80167 212.0
60.270481 140.0
60.397251 164.0
60.443104 188.0
60.734917 192.0
60.932064 164.0
61.156429 184.0
61.18401 200.0
61.234505 140.0
61.684769 160.0
61.999367 212.0
62.10284 156.0
62.294342 140.0
62.429508 208.0
62.48299 220.0
62.807499 172.0
62.837471 140.0
63.077515 152.0
63.156574 144.0
63.243599 148.0
64.005623 180.0
64.045441 140.0
64.211334 188.0
64.249481 148.0
65.625572 148.0
65.95005 252.0
66.085892 168.0
66.328812 220.0
66.471527 148.0
66.614403 164.0
66.967369 196.0
67.032532 200.0
67.252701 144.0
67.318001 204.0
67.487946 172.0
67.939972 164.0
67.972786 164.0
69.035294 140.0
69.597031 196.0
70.139374 208.0
70.702232 180.0
70.755791 152.0
70.817749 152.0
72.348412 208.0
72.495773 152.0
72.62632 224.0
72.64328 212.0
72.72303 148.0
73.104698 216.0
73.287621 144.0
74.040947 176.0
74.124886 160.0
74.383858 164.0
74.861824 172.0
74.989311 188.0
75.654335 232.0
75.935036 168.0
76.171097 152.0
76.249283 224.0
76.374466 160.0
76.392418 200.0
76.431877 160.0
76.593781 148.0
77.223885 148.0
77.423401 176.0
77.467186 172.0
78.143089 172.0
78.580025 176.0
78.719467 212.0
78.731827 160.0
79.016411 176.0
79.218231 156.0
79.278465 156.0
80.386345 180.0
80.822342 212.0
81.214676 176.0
81.609756 148.0
81.928307 192.0
82.024597 164.0
83.027283 160.0
83.186951 164.0
83.271797 184.0
83.290451 184.0
83.410378 204.0
83.500191 212.0
83.663231 148.0
83.779785 176.0
83.828979 196.0
83.965706 140.0
84.073341 140.0
84.502747 192.0
84.632698 144.0
84.737518 156.0
84.848892 200.0
85.33358 160.0
85.517532 144.0
86.072433 148.0
86.479141 168.0
86.495796 156.0
87.048286 140.0
87.353088 192.0
87.365776 180.0
87.464737 160.0
87.931664 224.0
88.39415 160.0
88.637581 272.0
89.037941 124.0
89.078476 180.0
89.100845 220.0
89.914459 184.0
90.023956 140.0
90.114624 188.0
90.625473 156.0
90.669052 224.0
91.400162 172.0
92.497536 172.0
92.593269 172.0
93.155258 164.0
93.576431 148.0
93.68235 140.0
94.991058 348.0
95.282249 140.0
95.640053 204.0
95.830902 208.0
96.400665 144.0
96.602043 152.0
96.733154 184.0
96.881981 212.0
96.98307 188.0
97.058372 248.0
97.734062 156.0
98.825172 204.0
99.000244 200.0
99.070671 192.0
99.177673 240.0
99.373993 204.0
99.423607 160.0
99.475212 208.0
99.65593 148.0
99.679771 200.0
100.001945 176.0
100.93158 160.0
100.996635 208.0
101.568436 148.0
101.734985 144.0
101.813293 152.0
102.398529 192.0
102.5839 156.0
102.719009 152.0
102.734421 156.0
103.177414 184.0
103.294708 172.0
103.614555 148.0
103.746284 176.0
104.45092 216.0
104.65036 160.0
105.078362 144.0
105.237564 228.0
105.634033 248.0
105.791603 216.0
106.035347 204.0
106.053795 148.0
106.533951 156.0
106.646965 160.0
107.17585 208.0
107.538795 156.0
107.788681 184.0
108.561417 216.0
109.339844 224.0
109.654327 164.0
110.054848 164.0
110.240288 144.0
110.557732 200.0
110.581642 144.0
110.705154 180.0
110.772179 180.0
111.026161 640.0
111.479233 140.0
111.615265 196.0
112.310837 144.0
113.105309 180.0
113.834625 200.0
113.853737 156.0
114.216225 148.0
114.92321 144.0
114.952194 260.0
115.00248 156.0
115.216949 176.0
115.783775 152.0
116.79467 152.0
117.068001 188.0
117.738678 156.0
118.099609 148.0
118.179649 184.0
118.613991 148.0
118.903412 192.0
119.577148 172.0
120.650337 156.0
120.746544 144.0
121.103294 176.0
121.140778 140.0
121.4496 140.0
121.622932 208.0
121.820564 156.0
122.176689 192.0
122.376968 196.0
122.522324 160.0
123.027336 160.0
123.444923 148.0
123.598801 156.0
123.785706 168.0
123.810066 160.0
124.067085 172.0
124.470886 148.0
124.521965 172.0
124.58638 188.0
124.690819 140.0
124.770836 180.0
124.8507 96.0
124.879494 208.0
124.906487 164.0
124.924278 176.0
124.941536 148.0
124.956459 172.0
124.984299 340.0
125.016479 92380.0
125.138184 168.0
125.303894 116.0
125.339981 112.0
125.381165 148.0
125.448494 176.0
125.528732 184.0
125.946175 100.0
126.019157 7096.0
126.078606 112.0
126.372177 192.0
126.683365 240.0
126.742638 140.0
126.805603 156.0
126.824646 120.0
126.896263 144.0
126.919037 144.0
127.013077 30484.0
127.094444 124.0
127.81881 180.0
128.01651 1328.0
128.763962 160.0
128.859482 120.0
129.078079 184.0
129.440125 172.0
130.172379 100.0
130.342926 192.0
130.424728 160.0
130.759079 144.0
131.303574 148.0
131.536301 164.0
133.037979 148.0
133.343475 196.0
133.959869 180.0
134.326645 156.0
134.451233 236.0
134.572189 120.0
134.652084 204.0
134.750092 112.0
135.093567 228.0
135.371307 152.0
135.468582 140.0
136.018143 148.0
136.706085 144.0
137.087997 144.0
138.036469 776.0
138.691254 172.0
138.949203 216.0
138.993774 204.0
139.040085 300.0
141.033234 180.0
142.198532 184.0
142.792496 164.0
143.747787 164.0
143.888611 148.0
143.914871 144.0
144.148956 164.0
144.756546 224.0
145.790451 168.0
146.177612 196.0
147.136902 148.0
147.43158 180.0
147.782211 160.0
150.026276 148.0
150.629013 228.0
151.032333 192.0
153.273758 184.0
153.487106 108.0
153.850876 152.0
153.875565 156.0
153.907578 112.0
153.940643 180.0
153.985977 180.0
154.009018 176.0
154.042953 127828.0
154.123962 236.0
154.207626 132.0
154.322311 156.0
154.396942 156.0
154.4496 252.0
154.480652 128.0
154.866272 132.0
154.979919 172.0
155.045502 6884.0
155.117432 228.0
155.424973 220.0
155.541611 160.0
155.56749 112.0
155.715408 168.0
155.829605 136.0
155.906464 164.0
156.039474 29496.0
156.136093 104.0
156.172928 216.0
156.23732 252.0
156.267502 112.0
156.300278 148.0
156.533676 104.0
156.634277 120.0
157.044235 1700.0
157.42131 212.0
158.197937 124.0
158.231354 140.0
158.271652 132.0
159.068741 180.0
161.396606 148.0
162.052155 212.0
162.579575 148.0
162.884247 188.0
163.227341 156.0
165.985107 148.0
166.008194 236.0
167.084732 184.0
167.171875 140.0
168.228607 140.0
170.113159 160.0
170.435196 204.0
173.066986 192.0
175.281265 180.0
177.536819 172.0
179.954895 184.0
181.190506 160.0
181.348602 148.0
181.922623 148.0
182.266403 160.0
182.314774 140.0
183.658218 168.0
184.033325 104.0
184.451385 208.0
185.038498 244.0
186.044891 232.0
188.310379 184.0
188.755829 204.0
188.950027 168.0
191.348694 208.0
191.648911 180.0
192.816162 156.0
195.061401 136.0
195.425537 188.0
196.442398 260.0
197.073349 160.0
197.562607 196.0
198.467224 176.0
199.056824 224.0
199.166 148.0
200.07019 116.0
200.200974 176.0
201.072098 144.0
201.529556 152.0
201.86026 196.0
202.062286 180.0
203.180145 144.0
206.221329 188.0
206.381409 160.0
206.412857 144.0
206.841995 188.0
206.890671 172.0
206.916428 140.0
208.402084 152.0
208.436569 192.0
211.398026 140.0
213.350021 196.0
216.551025 140.0
217.609634 196.0
218.944611 160.0
219.077148 152.0
220.007034 172.0
220.251175 152.0
221.02124 388.0
222.024017 184.0
222.124863 140.0
222.264297 144.0
222.572998 192.0
223.756332 148.0
226.291077 172.0
227.106171 220.0
227.937744 144.0
228.196243 156.0
231.367065 172.0
232.40358 176.0
233.141464 148.0
233.725296 156.0
235.036148 1428.0
236.039673 340.0
237.029266 308.0
237.209976 180.0
237.557114 216.0
238.033386 176.0
240.936646 152.0
242.161469 120.0
242.908569 148.0
243.377182 184.0
243.694 236.0
243.868011 168.0
244.318893 168.0
246.004822 152.0
247.042252 296.0
247.399048 244.0
247.890778 192.0
251.296082 168.0
251.867477 152.0
253.867691 176.0
255.350769 164.0
256.114655 204.0
256.755249 204.0
257.898254 208.0
259.891418 188.0
261.094727 172.0
262.043121 852.0
262.086182 148.0
262.137756 148.0
262.344025 236.0
262.389771 128.0
262.727783 204.0
262.777954 116.0
262.842285 172.0
263.048615 248.0
263.1521 100.0
263.230103 264.0
263.395996 144.0
263.459351 140.0
263.63504 256.0
263.786652 152.0
263.912018 156.0
263.966492 168.0
264.00351 148.0
264.06308 154044.0
264.166016 140.0
264.288788 112.0
264.390869 180.0
264.430511 104.0
264.530701 148.0
264.555573 248.0
264.594727 720.0
264.623108 168.0
264.6922 136.0
264.743744 180.0
264.867065 180.0
264.901794 104.0
264.961212 108.0
264.987457 228.0
265.064941 17288.0
265.153076 172.0
265.192017 144.0
265.261139 136.0
265.319489 144.0
265.359711 108.0
265.460236 132.0
265.50946 164.0
265.640869 204.0
265.731659 200.0
265.769867 160.0
265.844818 96.0
265.92688 184.0
265.965271 100.0
265.99054 140.0
266.020996 248.0
266.059265 53784.0
266.120453 180.0
266.210144 248.0
266.316711 144.0
266.411346 292.0
266.522278 232.0
266.563751 160.0
266.597046 208.0
266.628418 192.0
266.654694 128.0
266.691193 140.0
266.794952 156.0
266.839966 236.0
266.875275 144.0
266.896149 128.0
266.927216 96.0
266.951202 120.0
267.061401 3940.0
267.155151 588.0
267.53067 128.0
267.606598 112.0
267.821808 164.0
267.958984 124.0
268.059479 136.0
268.072998 280.0
268.581604 100.0
268.751465 168.0
268.783783 132.0
268.89386 128.0
269.166809 104.0
362.182495 160.0
370.693665 156.0
375.614807 140.0
380.556763 144.0
413.614349 140.0
848.206665 220.0
855.741394 144.0
948.922119 180.0
961.902527 160.0
972.356567 200.0
985.545776 176.0
1004.07666 144.0
1044.015015 152.0
1097.433472 288.0
1102.536011 144.0
1114.981934 152.0
1116.723755 160.0
1130.011841 240.0
1131.865845 184.0
1141.878296 184.0
1160.387207 156.0
1160.468628 264.0
1174.99585 156.0
1200.063843 148.0
1208.192627 144.0
1221.393433 152.0
1223.369629 172.0
1223.564575 160.0
1234.582153 156.0
1235.358521 256.0
1253.148315 236.0
1279.459229 156.0
1304.28186 168.0
1311.65271 156.0
1312.13562 160.0
1320.085327 160.0
1334.187622 168.0
1346.53833 144.0
1351.567749 160.0
1356.635864 148.0
1357.581665 144.0
1359.085449 176.0
1359.863281 180.0
1369.649658 144.0
1372.265747 172.0
1374.020996 148.0
1374.19812 216.0
1391.865845 160.0
1392.601074 148.0
1395.893188 196.0
1401.848389 224.0
1410.879639 220.0
1412.487427 152.0
1426.013672 188.0
1431.21936 156.0
1431.889648 168.0
1439.03064 176.0
1441.145386 140.0
1451.166382 212.0
1479.546021 164.0
1482.197266 172.0
1500.110962 148.0
1506.369141 184.0
1506.763184 216.0
1514.955811 212.0
1518.032715 204.0
1523.667725 140.0
1525.734985 168.0
1527.671387 220.0
1540.330688 208.0
1540.744751 160.0
1547.768188 164.0
1549.867432 140.0
1564.554199 156.0
1572.136719 216.0
1573.470581 192.0
1575.460815 236.0
1583.885376 144.0
1594.421753 140.0
1596.790894 188.0
1597.053467 184.0
1601.184082 172.0
1604.140137 252.0
1604.905518 252.0
1626.561768 152.0
1627.974854 188.0
1628.280029 204.0
1629.476929 200.0
1632.37854 164.0
1635.886353 236.0
1644.842041 148.0
1663.248779 180.0
1664.864502 140.0
1665.806641 176.0
1668.716064 204.0
1669.610474 224.0
1674.159546 200.0
1676.709473 140.0
1693.613647 176.0
1694.260864 148.0
1706.91687 148.0
1710.701416 212.0
1716.33667 200.0
1726.328247 180.0
1726.568115 152.0
1732.701538 140.0
1737.808716 144.0
1738.356323 152.0
1745.724609 184.0
1747.41394 172.0
1749.144165 152.0
1749.785156 144.0
1755.401001 216.0
1763.281616 200.0
1764.393311 168.0
1766.065796 160.0
1772.645996 152.0
1773.031494 164.0
1773.24939 152.0
1773.769043 184.0
1774.422974 188.0
1778.038208 144.0
1780.724854 216.0
1793.985718 180.0
1795.764893 160.0
1796.380737 152.0
1801.006348 208.0
1806.441528 200.0
1812.316895 192.0
1813.757568 156.0
1814.698608 188.0
1816.895142 160.0
1818.787476 140.0
1819.492065 272.0
1824.070801 204.0
1825.439697 160.0
1827.770386 144.0
1828.119263 220.0
1839.113281 172.0
1843.648315 172.0
1844.494507 172.0
1846.059082 152.0
1846.66626 152.0
1848.933472 176.0
1851.638794 144.0
1856.866699 188.0
1857.758789 160.0
1865.091919 180.0
1865.186523 188.0
1865.857056 160.0
1866.011841 164.0
1868.566162 192.0
1878.188477 176.0
1879.965698 172.0
1889.885498 168.0
1890.179688 168.0
1894.5 152.0
1898.738525 176.0
1901.315186 180.0
1903.945679 228.0
1904.015137 212.0
1911.491211 148.0
1914.346436 180.0
1915.243408 176.0
1917.064331 168.0
1922.959717 148.0
1923.937378 188.0
1925.334351 200.0
1929.49353 300.0
1931.338745 236.0
1931.499023 168.0
1933.254639 168.0
1938.219727 160.0
1942.077026 208.0
1944.261597 160.0
1945.297241 152.0
1950.831543 224.0
1954.243774 140.0
1957.604004 180.0
1958.1875 160.0
1958.284424 160.0
1960.389893 160.0
1962.267334 140.0
1962.434937 184.0
1965.424927 148.0
1968.064087 168.0
1970.669678 196.0
1972.331055 164.0
1981.80896 208.0
1983.709717 112.0
1985.159546 144.0
1987.01709 172.0
1993.201904 180.0
1994.97937 184.0
1997.656128 168.0
1999.435547 160.0
2000.726196 220.0
2001.189209 168.0
