>compound TETRAETHYLTHIURAM DISULFIDE
>formula C10H20N2S4
>ionization [M+Na]+
>parentmass 319.041809
#inchi InChI=1S/C10H20N2S4/c1-5-11(6-2)9(13)15-16-10(14)12(7-3)8-4/h5-8H2,1-4H3
#inchikey AUZONCFQVSMFAP
#Ion_Source LC-ESI
#Instrument qTof
#Compound_Source Commercial
#PI Dorrestein
#Data_Collector Garg_Neha
#Scan -1
#Precursor_MZ 319.04
#ExactMass 296.051
#Charge 1
#CAS_Number N/A
#Pubmed_ID N/A
#Smiles CCN(CC)C(=S)SSC(=S)N(CC)CC
#INCHI_AUX N/A
#Library_Class 1
#SpectrumID CCMSLIB00000079188
#IonMode Positive
#UpdateWorkflowName UPDATE-SINGLE-ANNOTATED-GOLD
#LibraryQualityString Gold
#TaskID 278b19f5865741e282cec7349aa7e7a1
##Scan# 2473
#SpectrumFile NCP003592_E2_F11_BE2_01_15736.mzXML
#LibraryName NIHcollectionI_05062014.mgf
#MQScore -1
#Organism NIHcollectionI_05062014
#TIC_Query 0
#RT_Query -1
#MZErrorPPM -1
#SharedPeaks 0
#MassDiff 0
#LibMZ -1
#SpecMZ 319.04
#SpecCharge 0
#internalFilename spec-00000.mgf

>collision 10
47.255386 156.0
47.709343 140.0
49.046589 180.0
49.570686 164.0
57.49139 164.0
61.413376 140.0
64.681259 168.0
65.32634 152.0
65.527573 140.0
65.780762 156.0
66.86187 188.0
68.523933 164.0
69.033974 264.0
72.494431 224.0
77.804268 192.0
82.64547 180.0
86.045151 212.0
88.022598 176.0
97.404251 152.0
99.021629 164.0
99.797531 176.0
110.051208 156.0
112.5942 148.0
113.101631 160.0
115.144882 184.0
116.052666 3568.0
117.055191 136.0
117.644249 140.0
118.009361 152.0
118.050438 164.0
139.006195 152.0
143.610107 140.0
148.028992 284.0
149.367096 188.0
150.015793 120.0
152.238892 156.0
154.731735 148.0
155.024017 168.0
157.619415 148.0
158.607971 176.0
165.509323 148.0
169.038391 220.0
170.493195 152.0
170.781769 184.0
170.899963 148.0
170.974304 232.0
171.015121 37140.0
171.243149 180.0
171.309464 144.0
171.815918 164.0
172.017105 1668.0
172.963104 188.0
173.009705 1828.0
173.374313 220.0
173.458176 140.0
173.479156 148.0
174.921295 144.0
175.000275 228.0
189.025162 880.0
189.16713 168.0
190.008453 224.0
190.031708 176.0
192.010956 196.0
208.886078 144.0
212.04776 144.0
215.011337 240.0
220.001236 140.0
232.028793 188.0
235.929474 360.0
235.962112 176.0
237.929932 260.0
252.093018 172.0
253.117905 140.0
253.954468 164.0
255.936493 96.0
265.449158 160.0
279.103455 168.0
279.745575 152.0
292.112885 232.0
301.044861 152.0
319.041809 15852.0
319.130951 184.0
319.170074 144.0
319.208862 128.0
319.221436 116.0
319.593323 172.0
320.042877 1228.0
321.037537 2704.0
321.196472 172.0
321.235718 176.0
322.033966 548.0
322.264832 212.0
1664.815674 152.0
1855.066528 196.0
1965.805054 160.0
