>compound NCGC00160219-01!METHYLHALFORDINOL
>formula C15H12N2O2
>ionization [M+H]+
>parentmass 253.096497
#inchi InChI=1S/C15H12N2O2/c1-18-13-6-4-11(5-7-13)14-10-17-15(19-14)12-3-2-8-16-9-12/h2-10H,1H3
#inchikey LHPXYPROPRFEQE
#Ion_Source LC-ESI
#Instrument qTOF
#Compound_Source Prestwick Phytochem Lib
#PI Dorrestein
#Data_Collector VVP/LMS
#Scan -1
#Precursor_MZ 253.098
#ExactMass 252.09
#Charge 1
#CAS_Number N/A
#Pubmed_ID N/A
#Smiles COC1=CC=C(C=C1)C2=CN=C(O2)C3=CN=CC=C3
#INCHI_AUX N/A
#Library_Class 1
#SpectrumID CCMSLIB00000078813
#IonMode Positive
#UpdateWorkflowName UPDATE-SINGLE-ANNOTATED-GOLD
#LibraryQualityString Gold
#TaskID 67c915c6594c435cadc1fe2b5358144d
##Scan# 2062
#SpectrumFile p1-F04_GF4_01_17936.mzXML
#LibraryName phytochem_lib.mgf
#MQScore -1
#Organism phytochem_lib
#TIC_Query 0
#RT_Query -1
#MZErrorPPM -1
#SharedPeaks 0
#MassDiff 0
#LibMZ -1
#SpecMZ 253.098
#SpecCharge 0
#internalFilename spec-00000.mgf

>collision 10
94.991493 168.0
95.045815 136.0
95.100151 56.0
95.236061 196.0
95.294342 176.0
95.307945 156.0
95.333206 112.0
95.496513 160.0
95.763153 144.0
96.006767 128.0
96.143082 192.0
96.332718 140.0
96.40892 184.0
96.890259 216.0
97.10392 168.0
97.176498 52.0
97.60862 132.0
97.850983 200.0
97.868347 200.0
98.061401 144.0
98.14814 88.0
98.27832 40.0
98.301994 180.0
98.527084 188.0
98.556725 196.0
99.221733 72.0
99.364525 88.0
99.430008 184.0
99.495514 228.0
99.662346 116.0
99.678238 156.0
99.82534 92.0
99.944572 136.0
100.10791 60.0
100.281235 148.0
100.345024 148.0
100.402855 132.0
100.540504 176.0
100.664276 308.0
100.766144 164.0
100.998032 200.0
101.20816 196.0
101.554848 256.0
102.048851 180.0
102.10717 132.0
102.243973 120.0
102.350662 196.0
102.437263 164.0
102.588402 184.0
102.630737 208.0
102.888985 136.0
103.078842 240.0
103.123306 164.0
103.192032 196.0
103.206184 108.0
103.299217 192.0
103.347771 100.0
103.386223 228.0
103.4935 124.0
103.509705 96.0
103.783249 216.0
103.909744 184.0
104.000313 164.0
104.051567 144.0
104.085579 144.0
104.118065 184.0
104.349716 204.0
104.604012 68.0
104.661011 220.0
104.779144 224.0
104.893265 72.0
105.042122 136.0
105.352402 148.0
105.372833 144.0
105.393753 184.0
105.421875 148.0
105.477058 120.0
105.499542 80.0
106.028618 1084.0
106.050598 136.0
106.066566 52.0
106.121918 160.0
106.154427 136.0
106.474808 140.0
106.770805 188.0
106.931282 152.0
107.038933 232.0
107.085693 176.0
107.153671 124.0
107.260834 152.0
107.708595 156.0
107.745728 156.0
107.774704 164.0
107.816032 252.0
107.91732 64.0
108.053825 252.0
108.544708 84.0
108.771614 184.0
109.067879 68.0
109.186386 128.0
109.652969 160.0
109.67746 144.0
109.796593 112.0
109.875854 184.0
109.930099 148.0
109.94471 176.0
110.011505 208.0
110.052155 220.0
110.092934 228.0
110.37294 212.0
110.557022 104.0
110.670059 168.0
110.80201 180.0
110.885826 152.0
111.114388 168.0
111.166847 148.0
111.557503 124.0
111.673149 112.0
111.755196 160.0
111.782547 240.0
111.799385 144.0
111.986755 144.0
112.397842 164.0
112.444267 60.0
112.528702 108.0
112.58783 200.0
112.822365 180.0
112.85173 184.0
112.904831 124.0
113.222275 216.0
113.597435 200.0
113.650467 176.0
113.809662 200.0
113.856377 180.0
113.905228 212.0
113.920097 88.0
113.975334 144.0
114.351738 68.0
114.669083 176.0
114.726631 140.0
114.784195 168.0
114.914307 148.0
114.971916 156.0
115.279434 176.0
115.362793 148.0
115.411964 136.0
115.53035 180.0
115.827141 72.0
116.048965 108.0
116.165825 176.0
116.247353 168.0
116.377869 164.0
116.644684 136.0
116.730682 180.0
116.797356 164.0
117.025467 168.0
117.072838 176.0
117.16761 96.0
117.221474 152.0
117.346489 44.0
117.409027 164.0
117.702507 104.0
117.756493 44.0
117.836418 108.0
118.052231 392.0
118.351181 184.0
118.433472 212.0
118.478966 208.0
118.548294 236.0
118.667511 44.0
118.752083 176.0
118.788956 148.0
118.856216 68.0
119.064613 112.0
119.092842 244.0
119.288406 168.0
119.325546 232.0
119.366676 184.0
119.597282 244.0
119.67263 144.0
119.915276 68.0
119.943611 44.0
119.993752 152.0
120.244606 196.0
120.528488 184.0
120.723038 208.0
120.819016 168.0
120.893669 220.0
121.06572 372.0
121.195854 220.0
121.241867 104.0
121.371201 156.0
121.766205 324.0
121.794762 160.0
121.843086 128.0
121.860664 248.0
122.0299 152.0
122.074425 192.0
122.293877 164.0
123.518478 96.0
123.739777 120.0
123.832779 228.0
124.049927 120.0
124.196274 228.0
124.214424 196.0
124.338264 188.0
124.420395 148.0
124.59584 140.0
124.726273 92.0
124.826996 68.0
124.84256 200.0
125.245399 168.0
125.334511 120.0
125.411354 224.0
125.420601 108.0
125.426804 184.0
125.488304 220.0
125.512825 120.0
125.617645 136.0
125.664497 180.0
125.906136 96.0
125.963646 100.0
126.133469 160.0
126.254204 188.0
126.328011 152.0
126.366043 136.0
126.446602 252.0
126.480179 140.0
126.867706 152.0
127.002251 156.0
127.05677 208.0
127.267059 124.0
127.381592 172.0
127.431015 184.0
127.543381 208.0
127.595078 192.0
127.698517 180.0
127.860504 200.0
128.065704 220.0
128.153244 208.0
128.769073 60.0
128.857178 112.0
128.954346 140.0
129.035721 224.0
129.062851 172.0
129.126175 164.0
129.214386 116.0
129.239273 180.0
129.409027 60.0
129.996094 60.0
130.066559 356.0
130.089157 160.0
130.341995 232.0
130.36171 136.0
130.400345 220.0
130.468536 104.0
130.725555 132.0
130.916763 68.0
130.994202 104.0
131.051163 220.0
131.071671 224.0
131.133194 120.0
131.427368 208.0
131.461609 176.0
131.724167 168.0
131.772141 196.0
131.801834 268.0
131.868118 152.0
132.043549 1176.0
132.337067 136.0
132.605072 88.0
132.623413 180.0
132.662384 136.0
132.985809 168.0
133.045197 184.0
133.073044 68.0
133.121262 216.0
133.222321 108.0
133.7397 160.0
133.813354 104.0
133.893951 164.0
133.916183 232.0
134.006821 208.0
134.218872 168.0
134.34111 164.0
134.805191 40.0
134.964691 168.0
135.043198 160.0
135.154358 208.0
135.341843 144.0
135.362671 112.0
135.540466 60.0
135.649963 132.0
135.689377 136.0
135.779816 172.0
135.872589 48.0
135.970047 152.0
136.046646 144.0
136.248688 232.0
136.267273 48.0
136.420654 84.0
136.606689 212.0
136.972153 180.0
137.000107 208.0
137.067673 144.0
137.226166 152.0
137.340439 164.0
137.46875 160.0
137.58078 84.0
137.8564 96.0
137.910141 212.0
137.966248 96.0
138.151001 60.0
138.410782 140.0
138.485718 156.0
138.605194 164.0
138.630981 128.0
138.663788 228.0
139.050766 384.0
139.069534 156.0
139.18692 164.0
139.243286 172.0
139.309052 168.0
139.452377 60.0
139.716568 192.0
139.788681 188.0
139.849869 112.0
139.894592 128.0
140.011292 192.0
140.060532 224.0
140.132446 180.0
140.422394 108.0
140.655991 120.0
140.911026 92.0
141.003189 120.0
141.050461 176.0
141.171036 164.0
141.310593 172.0
141.639648 152.0
141.687027 136.0
141.717834 168.0
141.769958 212.0
141.926407 208.0
141.971466 44.0
142.072174 156.0
142.151749 128.0
142.260925 164.0
142.693298 200.0
142.762253 116.0
142.795547 176.0
142.874054 84.0
142.962082 152.0
143.031097 180.0
143.07605 164.0
143.304977 108.0
143.331177 252.0
143.557632 164.0
143.677429 176.0
143.695984 128.0
143.72699 80.0
144.025406 124.0
144.1353 160.0
144.352829 192.0
144.467636 96.0
144.625565 136.0
144.726105 156.0
145.047134 152.0
145.107071 100.0
145.176605 40.0
145.507721 148.0
145.649414 120.0
145.884903 104.0
146.026764 84.0
146.057617 840.0
146.127792 116.0
146.541916 192.0
146.780533 40.0
146.896301 200.0
147.067612 376.0
147.195572 124.0
147.237061 176.0
147.381561 132.0
147.625702 140.0
147.790176 184.0
148.080673 124.0
148.281769 180.0
148.315689 208.0
148.597 128.0
148.779022 92.0
149.1604 72.0
149.31601 168.0
149.340332 240.0
149.517944 172.0
149.832047 104.0
150.175751 124.0
150.380707 144.0
151.011063 72.0
151.140717 204.0
151.157852 184.0
151.204346 128.0
151.417343 148.0
151.650085 208.0
151.951706 156.0
152.059677 176.0
152.441483 224.0
152.487015 104.0
152.636978 64.0
152.919891 36.0
153.057068 116.0
153.084839 252.0
153.158722 156.0
153.212906 144.0
153.397736 144.0
153.419922 96.0
153.614731 144.0
153.634476 196.0
153.661606 136.0
153.708496 208.0
153.797333 128.0
153.955338 172.0
154.065201 3292.0
154.177673 176.0
154.316101 248.0
154.331802 184.0
154.358139 44.0
154.400177 156.0
154.499115 104.0
154.528809 180.0
154.664917 48.0
154.689667 136.0
154.724319 136.0
154.803558 164.0
154.865463 64.0
154.93483 128.0
155.071304 2596.0
155.113251 100.0
155.356262 96.0
155.482803 128.0
155.564713 60.0
155.654099 192.0
155.798157 84.0
155.979553 204.0
156.076752 568.0
156.161072 80.0
156.40242 92.0
156.601608 188.0
156.865723 160.0
156.883179 36.0
157.071915 140.0
157.093567 216.0
157.157516 220.0
157.224884 140.0
157.324722 120.0
157.424606 204.0
157.509521 216.0
157.554474 148.0
157.614441 148.0
157.894424 124.0
158.052017 128.0
158.072037 196.0
158.099564 72.0
158.535309 116.0
158.585434 148.0
158.618011 136.0
158.72081 188.0
158.760925 44.0
158.858749 72.0
158.959106 148.0
159.066803 436.0
159.221375 92.0
159.293015 256.0
159.502289 128.0
159.705246 192.0
160.196091 200.0
160.256561 252.0
160.294357 132.0
160.349792 164.0
160.508606 192.0
160.690216 64.0
160.715439 116.0
160.803772 124.0
161.139618 224.0
161.164886 160.0
161.399948 216.0
161.496048 76.0
161.521347 160.0
161.845276 156.0
161.881866 176.0
161.913651 132.0
161.954178 104.0
162.0327 144.0
162.132599 216.0
162.225296 144.0
162.522034 176.0
162.626083 120.0
163.16539 196.0
163.365189 156.0
163.416397 116.0
163.467285 200.0
163.792145 100.0
163.872131 164.0
163.907806 92.0
163.958771 188.0
164.045425 160.0
164.086227 224.0
164.16272 136.0
164.246872 144.0
164.297897 208.0
164.336166 56.0
164.3974 180.0
164.507156 180.0
164.527573 144.0
164.767639 60.0
164.847504 172.0
164.928635 136.0
165.057968 184.0
165.097366 244.0
165.18277 236.0
165.563126 92.0
165.747574 44.0
165.798828 112.0
166.064667 628.0
166.269516 172.0
166.311768 168.0
166.347702 240.0
166.414459 148.0
166.450394 48.0
166.627625 84.0
166.78952 148.0
167.072311 636.0
167.100677 164.0
167.19075 88.0
167.311584 224.0
167.528046 220.0
167.649139 160.0
167.716156 68.0
168.077957 532.0
168.206238 124.0
168.2966 188.0
168.319839 64.0
168.343079 188.0
168.490295 136.0
168.63501 232.0
168.686707 56.0
168.757172 216.0
168.851257 212.0
169.015152 156.0
169.051376 148.0
169.08606 536.0
169.341339 48.0
169.476044 112.0
169.670425 196.0
169.719681 72.0
169.898636 144.0
170.057434 496.0
170.17894 192.0
170.459457 108.0
170.553024 140.0
170.605011 152.0
171.023804 160.0
171.077621 136.0
171.177414 180.0
171.22168 56.0
171.247726 148.0
171.323257 136.0
171.371124 140.0
171.448334 228.0
171.620377 172.0
171.782059 84.0
171.865555 128.0
172.050858 40.0
172.215363 164.0
172.28067 60.0
172.366989 208.0
172.408691 152.0
172.437439 68.0
172.96579 48.0
173.117645 68.0
173.219788 176.0
173.46611 188.0
173.867401 212.0
174.045898 212.0
174.072159 184.0
174.369629 188.0
174.39267 208.0
174.421585 56.0
174.642456 184.0
174.687164 144.0
175.211044 136.0
175.461411 180.0
175.635452 100.0
175.727524 164.0
175.814865 180.0
175.859726 160.0
175.949478 120.0
176.247925 144.0
176.411789 96.0
176.811188 156.0
176.914413 216.0
176.943527 52.0
177.046799 212.0
177.069046 220.0
177.134201 148.0
177.317017 212.0
177.505249 140.0
177.523804 176.0
177.576843 76.0
177.653763 232.0
177.921799 116.0
178.05722 176.0
178.216614 112.0
178.425598 176.0
178.463791 160.0
178.775009 120.0
178.828842 88.0
179.034698 124.0
179.046082 68.0
179.059586 112.0
179.153091 152.0
179.392929 200.0
179.435593 136.0
179.57959 228.0
179.662277 212.0
180.074875 144.0
180.431412 184.0
180.482208 188.0
180.789825 172.0
180.827301 152.0
180.920975 112.0
180.993271 136.0
181.075485 4236.0
181.191467 52.0
181.41658 84.0
181.480927 76.0
181.832336 240.0
181.861267 148.0
181.950439 68.0
182.082855 4388.0
182.131836 188.0
182.161942 184.0
182.253937 180.0
182.296921 48.0
182.337234 92.0
182.356049 80.0
182.439377 240.0
182.470795 64.0
182.573822 208.0
182.614166 196.0
182.649124 104.0
183.014511 156.0
183.067215 604.0
183.08075 500.0
183.162781 116.0
183.267273 124.0
183.475845 288.0
183.570206 72.0
183.71315 144.0
183.929031 192.0
184.068909 228.0
184.077621 312.0
184.136398 180.0
184.166641 80.0
184.209854 180.0
184.489471 204.0
184.612579 172.0
184.772156 172.0
184.929108 144.0
185.072586 152.0
185.885757 128.0
186.092041 148.0
186.358215 136.0
186.662643 148.0
187.010864 120.0
187.078918 164.0
187.220505 140.0
187.348526 168.0
187.564148 124.0
187.675568 184.0
188.316864 40.0
188.409744 252.0
188.885391 76.0
189.191879 148.0
189.232941 152.0
189.676743 216.0
189.934494 164.0
190.016785 232.0
190.060684 252.0
190.156738 60.0
190.274765 60.0
191.003006 136.0
191.066269 116.0
191.107147 140.0
191.212112 140.0
191.35524 68.0
191.462631 160.0
191.570053 148.0
191.622406 156.0
191.710571 144.0
191.809799 92.0
191.875946 180.0
192.06633 632.0
192.126923 92.0
192.248322 120.0
192.31456 128.0
192.582382 168.0
192.687347 144.0
192.77301 116.0
192.916733 184.0
193.075699 1484.0
193.113052 172.0
193.32608 176.0
193.389725 108.0
193.440811 152.0
193.938141 92.0
194.049026 192.0
194.084457 1672.0
194.223724 120.0
194.417938 184.0
194.467896 208.0
194.628906 64.0
194.6539 52.0
194.701111 68.0
194.809433 140.0
194.851105 56.0
195.01506 180.0
195.067749 376.0
195.088242 660.0
195.181854 180.0
195.415497 152.0
195.596375 92.0
195.780136 128.0
195.802414 72.0
195.922195 80.0
195.997421 72.0
196.07486 308.0
196.926376 100.0
197.032532 160.0
197.076355 180.0
197.105179 52.0
197.147095 76.0
197.20665 180.0
198.092072 624.0
198.252487 160.0
198.510376 160.0
198.560867 196.0
198.723557 96.0
198.903168 152.0
199.088608 316.0
199.383438 128.0
199.484634 200.0
199.931839 60.0
199.953995 128.0
200.069763 172.0
200.097916 152.0
200.404907 132.0
200.447174 96.0
201.073227 148.0
201.386612 192.0
201.556107 200.0
201.770172 76.0
201.966034 128.0
202.234772 176.0
203.121719 184.0
203.561615 204.0
203.83432 112.0
203.916733 236.0
204.056015 200.0
204.545319 164.0
204.810135 156.0
204.906982 192.0
205.22905 180.0
205.434402 168.0
205.57135 144.0
205.734039 160.0
205.953918 160.0
206.036758 200.0
206.537003 216.0
206.994919 164.0
207.120926 168.0
207.424652 220.0
207.556534 52.0
207.639694 120.0
207.823288 120.0
207.889282 176.0
207.929459 180.0
208.067154 140.0
208.193588 252.0
208.443497 128.0
208.466492 108.0
208.604446 120.0
208.923645 124.0
209.030106 144.0
209.069809 1412.0
209.108643 208.0
209.348602 112.0
209.412994 124.0
209.436996 204.0
209.56279 152.0
209.597595 200.0
209.661469 232.0
209.689865 120.0
209.740143 304.0
209.791809 160.0
209.81929 156.0
209.84642 128.0
209.883545 192.0
209.938034 156.0
209.966934 80.0
209.989288 160.0
209.9953 224.0
210.078751 76520.0
210.123825 240.0
210.156235 56.0
210.221664 32.0
210.240784 64.0
210.307144 68.0
210.335663 64.0
210.377457 92.0
210.405014 180.0
210.427521 88.0
210.454025 40.0
210.474472 48.0
210.522232 192.0
210.553558 316.0
210.583038 100.0
210.602066 152.0
210.630005 60.0
210.711075 60.0
210.739059 64.0
210.76738 128.0
210.838211 104.0
210.901489 164.0
210.95961 52.0
210.997192 112.0
211.037018 276.0
211.081039 12588.0
211.134262 120.0
211.177231 76.0
211.222748 132.0
211.26326 44.0
211.289291 76.0
211.34137 76.0
211.377594 116.0
211.386322 60.0
211.400955 88.0
211.43396 40.0
211.46402 84.0
211.501633 148.0
211.57869 84.0
211.613434 144.0
211.641006 92.0
211.691376 96.0
211.766022 208.0
211.786423 168.0
211.932037 48.0
211.975494 80.0
212.011322 88.0
212.081818 692.0
212.137802 108.0
212.207382 68.0
212.287842 112.0
212.305237 112.0
212.367111 48.0
212.401672 68.0
212.473038 320.0
212.519165 104.0
212.565079 184.0
212.605347 96.0
212.648727 148.0
212.735382 68.0
212.767319 112.0
212.854416 92.0
212.927017 148.0
213.021759 52.0
213.104218 92.0
213.127457 44.0
213.246613 76.0
213.467545 36.0
213.505997 124.0
213.573151 116.0
213.697342 84.0
213.735168 176.0
213.799179 108.0
213.842834 48.0
213.994217 80.0
214.24176 160.0
214.285461 60.0
214.387451 44.0
214.486542 164.0
214.665802 180.0
214.964844 196.0
215.059189 164.0
215.236313 144.0
215.320999 72.0
215.604385 180.0
215.662827 76.0
215.852859 132.0
216.168777 88.0
216.420502 40.0
216.634308 168.0
216.994766 136.0
217.112061 40.0
217.191254 40.0
217.346741 128.0
217.681366 188.0
217.839447 224.0
218.092667 212.0
218.357285 32.0
219.662094 164.0
219.706345 180.0
219.735855 108.0
220.518372 200.0
220.589325 64.0
220.805161 136.0
221.027023 96.0
221.071014 256.0
221.12468 92.0
221.60144 140.0
221.669586 164.0
222.072998 156.0
222.621811 112.0
222.657455 144.0
222.800034 48.0
222.912933 212.0
222.969391 96.0
223.090881 204.0
223.177475 140.0
224.086823 240.0
224.177628 128.0
224.413116 52.0
224.684509 140.0
224.818787 204.0
225.003845 144.0
225.05162 164.0
225.102234 2832.0
225.136749 136.0
225.212875 92.0
225.239761 132.0
225.4758 208.0
225.595352 52.0
225.676071 116.0
225.873459 228.0
226.100891 568.0
226.801682 64.0
226.882614 108.0
227.230515 192.0
227.512619 160.0
227.650726 208.0
227.701782 128.0
227.897049 112.0
228.020248 184.0
228.083359 156.0
228.293823 52.0
228.372009 160.0
228.429169 76.0
228.633759 120.0
229.079376 148.0
229.462112 88.0
229.996048 256.0
230.102188 180.0
230.775467 172.0
230.802673 168.0
231.507736 40.0
231.559219 148.0
232.004639 168.0
232.323059 124.0
233.662811 168.0
233.696289 68.0
233.842484 192.0
234.073715 120.0
234.344803 104.0
234.628235 88.0
234.664825 124.0
235.092804 156.0
235.271622 152.0
235.400177 168.0
235.678146 104.0
235.824829 132.0
236.084702 132.0
236.155045 144.0
236.271271 68.0
236.363068 196.0
236.402847 120.0
236.64772 108.0
236.770554 176.0
236.852905 116.0
237.063644 168.0
237.137848 192.0
237.378052 188.0
237.444443 188.0
237.496445 172.0
237.50705 164.0
237.512894 240.0
237.656097 156.0
237.686783 36.0
237.711334 136.0
237.732819 68.0
237.784164 340.0
237.808899 152.0
237.844986 160.0
237.873993 48.0
237.902039 148.0
237.978378 124.0
238.073395 57644.0
238.171844 60.0
238.201035 80.0
238.242035 52.0
238.262817 76.0
238.293823 56.0
238.320633 112.0
238.356186 44.0
238.377686 88.0
238.41098 72.0
238.432999 128.0
238.486786 160.0
238.508652 76.0
238.537506 40.0
238.608978 96.0
238.64006 168.0
238.675858 180.0
238.696442 92.0
238.728134 48.0
238.7686 124.0
238.819031 36.0
238.891144 80.0
238.917297 52.0
239.021851 180.0
239.07608 5676.0
239.166718 72.0
239.219711 88.0
239.280441 80.0
239.337402 64.0
239.383301 84.0
239.450577 80.0
239.459991 124.0
239.494461 52.0
239.56839 88.0
239.617676 116.0
239.675049 72.0
239.747101 64.0
239.796402 52.0
239.824142 132.0
239.99678 64.0
240.039948 68.0
240.077881 504.0
240.129379 92.0
240.165497 96.0
240.212662 52.0
240.271271 60.0
240.397781 112.0
240.440979 120.0
240.468765 48.0
240.531815 140.0
240.576797 120.0
240.601486 44.0
240.629272 252.0
240.731293 192.0
240.8022 128.0
240.843994 68.0
240.879425 100.0
240.901047 116.0
240.94429 44.0
240.981369 96.0
241.002991 84.0
241.086426 156.0
241.188416 96.0
241.31517 44.0
241.517105 132.0
241.701797 276.0
241.791534 76.0
241.822479 108.0
241.896774 44.0
241.977264 48.0
242.051575 32.0
242.190933 76.0
242.457382 92.0
242.497665 92.0
242.565857 96.0
242.630966 108.0
242.848022 100.0
243.530853 120.0
244.077805 72.0
244.373291 124.0
245.426041 156.0
245.928299 180.0
246.359207 176.0
248.117981 132.0
248.371994 136.0
248.560226 148.0
249.027985 132.0
249.967972 44.0
250.131622 76.0
250.383514 64.0
250.733215 136.0
251.080002 144.0
251.414398 100.0
251.491974 124.0
251.60379 212.0
251.660614 160.0
252.130127 196.0
252.200821 60.0
252.241913 164.0
252.346237 168.0
252.414566 280.0
252.479034 64.0
252.532806 92.0
252.652924 148.0
252.672882 236.0
252.714783 156.0
252.820709 152.0
252.952225 108.0
253.001373 204.0
253.096497 36540.0
253.165771 36.0
253.198669 68.0
253.227585 100.0
253.329666 48.0
253.37587 84.0
253.400162 92.0
253.523743 40.0
253.578751 124.0
253.604263 108.0
253.628326 64.0
253.678253 112.0
253.767319 104.0
253.91246 136.0
253.982559 156.0
254.054565 220.0
254.099319 4700.0
254.20871 52.0
254.251343 84.0
254.437241 64.0
254.50708 48.0
255.066223 212.0
255.101089 1024.0
255.158417 44.0
255.309006 100.0
255.440323 96.0
255.498703 68.0
255.686432 148.0
255.807068 80.0
255.877426 60.0
255.918396 124.0
255.963608 116.0
256.071655 100.0
256.105713 268.0
256.422119 40.0
256.603821 60.0
256.932312 72.0
256.961029 100.0
257.446198 60.0
258.917297 52.0
258.942902 32.0
259.252136 92.0
259.372253 48.0
262.081421 48.0
264.451752 84.0
268.829407 20.0
276.040039 84.0
284.758301 144.0
287.117523 48.0
289.063324 52.0
294.328705 92.0
304.310699 132.0
306.299896 136.0
309.940247 52.0
315.815887 72.0
315.957367 92.0
317.150726 36.0
325.599518 60.0
335.802246 72.0
340.733002 52.0
342.388245 56.0
342.874542 56.0
355.860931 160.0
358.761566 108.0
358.904846 116.0
361.303131 68.0
366.321747 88.0
374.784882 124.0
375.849091 64.0
382.943359 84.0
387.948853 120.0
392.241455 76.0
399.464233 60.0
409.27359 76.0
410.579193 136.0
410.708252 120.0
413.973816 96.0
414.034546 96.0
414.358612 60.0
425.5625 76.0
433.320557 60.0
438.998444 28.0
441.558441 72.0
441.830353 56.0
443.434082 80.0
444.402771 80.0
448.226593 48.0
448.519867 124.0
462.071045 76.0
470.796814 132.0
476.071442 64.0
491.250763 132.0
495.765045 56.0
526.060669 112.0
532.967102 36.0
540.598572 60.0
548.060669 44.0
567.866516 92.0
583.981628 60.0
605.874695 64.0
618.679077 40.0
619.416931 96.0
619.530884 52.0
623.883057 56.0
626.973999 104.0
629.887817 112.0
632.593079 52.0
639.655945 48.0
679.760193 40.0
685.188416 92.0
693.601868 48.0
697.323181 124.0
705.530396 76.0
722.19043 96.0
752.633423 108.0
752.846436 64.0
771.461853 60.0
772.617615 120.0
785.03717 88.0
793.412964 124.0
800.464294 104.0
863.750061 80.0
870.190491 92.0
883.894409 56.0
888.996521 32.0
899.78186 20.0
908.435425 72.0
910.764404 80.0
914.107117 76.0
917.660828 208.0
918.921387 124.0
947.564087 72.0
966.558899 44.0
972.471008 232.0
975.781921 84.0
980.818115 248.0
1013.175354 44.0
1017.729126 128.0
1035.514648 144.0
1049.96875 92.0
1062.932617 80.0
1078.745972 140.0
1094.116455 184.0
1098.60437 120.0
1100.069336 36.0
1110.364868 28.0
1128.183105 200.0
1157.579224 76.0
1173.608521 120.0
1177.163574 36.0
1194.881836 184.0
1210.106934 140.0
1220.903931 148.0
1230.554688 196.0
1240.657104 104.0
1243.722534 152.0
1245.232056 216.0
1253.547485 160.0
1255.888062 184.0
1256.769897 28.0
1266.468994 100.0
1268.07019 180.0
1275.373657 124.0
1277.265015 168.0
1279.193359 136.0
1281.101807 172.0
1293.262329 180.0
1299.410767 52.0
1306.580688 56.0
1311.974731 20.0
1316.585327 144.0
1317.134277 184.0
1321.370483 88.0
1324.439819 112.0
1330.182617 132.0
1335.116089 140.0
1343.171387 112.0
1354.501343 224.0
1359.075928 164.0
1359.941895 232.0
1360.463013 100.0
1362.644165 160.0
1363.452515 140.0
1364.025757 156.0
1364.584473 80.0
1368.528076 116.0
1369.721191 88.0
1370.325195 132.0
1370.737793 92.0
1372.093994 200.0
1381.857666 208.0
1382.745605 224.0
1384.94458 84.0
1388.153564 192.0
1390.534912 184.0
1392.673218 140.0
1395.036133 184.0
1395.578857 80.0
1396.099365 60.0
1397.267212 92.0
1397.944214 80.0
1398.614014 48.0
1399.969116 184.0
1404.276733 140.0
1419.248047 56.0
1422.826782 128.0
1423.412476 148.0
1423.487549 148.0
1423.945557 124.0
1424.463867 64.0
1425.658447 108.0
1426.319824 60.0
1427.560425 72.0
1444.658936 68.0
1444.848022 36.0
1447.716797 132.0
1449.383301 124.0
1456.355103 20.0
1460.527954 148.0
1461.417969 216.0
1464.866699 168.0
1466.680176 168.0
1470.264893 180.0
1478.442017 220.0
1484.141113 96.0
1484.585815 132.0
1485.828491 144.0
1488.564331 36.0
1492.010742 160.0
1492.356689 188.0
1493.510254 160.0
1500.147827 156.0
1500.556396 100.0
1500.810791 72.0
1503.572388 84.0
