>compound MLS001159064-01!(2S)-2-[[2-(4-methyl-6-oxobenzo[c]chromen-3-yl)oxyacetyl]amino]-3-phenylpropanoic acid
>formula C25H21NO6
>ionization [M+H]+
>parentmass 432.145
#inchi InChI=1S/C25H21NO6/c1-15-21(12-11-18-17-9-5-6-10-19(17)25(30)32-23(15)18)31-14-22(27)26-20(24(28)29)13-16-7-3-2-4-8-16/h2-12,20H,13-14H2,1H3,(H,26,27)(H,28,29)/t20-/m0/s1
#inchikey VCXROLZIPAFETE
#Ion_Source LC-ESI
#Instrument qTof
#Compound_Source NIH Natural Product Library
#PI Dorrestein
#Data_Collector VVP/LMS
#Scan -1
#Precursor_MZ 432.145
#ExactMass 431.137
#Charge 1
#CAS_Number N/A
#Pubmed_ID N/A
#Smiles Cc1c(OCC(=O)N[C@@H](Cc2ccccc2)C(=O)O)ccc3c4ccccc4c(=O)oc13
#INCHI_AUX N/A
#Library_Class 1
#SpectrumID CCMSLIB00000079475
#IonMode Positive
#UpdateWorkflowName UPDATE-SINGLE-ANNOTATED-GOLD
#LibraryQualityString Gold
#TaskID b1d8e8f6646f4e71acdff9ca3d919d08
##Scan# 2249
#SpectrumFile p1-H06_GH6_01_17962.mzXML
#LibraryName NIH_Natural_Products_Library.mgf
#MQScore -1
#Organism NIH_Natural_Products_Library
#TIC_Query 0
#RT_Query -1
#MZErrorPPM -1
#SharedPeaks 0
#MassDiff 0
#LibMZ -1
#SpecMZ 432.145
#SpecCharge 0
#internalFilename spec-00000.mgf

>collision 10
95.013695 140.0
95.635529 164.0
95.742615 144.0
95.802994 196.0
95.847809 104.0
95.951111 208.0
96.070076 64.0
96.105194 184.0
96.126656 160.0
96.212532 76.0
96.523193 88.0
96.677734 164.0
96.775612 168.0
96.810852 108.0
97.075409 160.0
97.132286 160.0
97.471939 160.0
97.715752 140.0
97.89093 160.0
97.965775 216.0
98.046562 72.0
98.084007 136.0
98.188507 160.0
98.393723 224.0
98.421364 224.0
98.781067 196.0
98.866142 132.0
99.038391 176.0
99.544121 92.0
100.003365 100.0
100.33802 140.0
100.665253 76.0
101.085045 128.0
101.099052 188.0
101.393448 172.0
101.538078 228.0
101.75853 124.0
102.041817 160.0
102.280075 176.0
102.311409 168.0
102.892029 164.0
102.982895 144.0
103.054062 3400.0
103.297569 116.0
103.338684 160.0
103.468216 236.0
103.630241 160.0
103.693062 80.0
103.782257 116.0
103.96685 212.0
104.054634 584.0
104.096779 36.0
104.245071 132.0
104.379234 128.0
104.556213 200.0
104.686508 148.0
104.704834 136.0
104.806686 108.0
104.857635 124.0
104.919365 184.0
105.037064 220.0
105.069191 5072.0
105.194191 48.0
105.570137 132.0
105.705147 64.0
105.769264 208.0
105.789062 184.0
106.005363 112.0
106.071213 496.0
106.098404 52.0
106.549911 188.0
106.880936 152.0
106.955513 84.0
107.008545 244.0
107.048729 496.0
107.163017 212.0
107.210411 188.0
107.367096 148.0
107.412468 200.0
107.546593 72.0
107.600266 172.0
107.792351 200.0
108.276436 44.0
108.417313 248.0
108.798973 112.0
108.977585 112.0
109.218735 120.0
109.668488 48.0
109.687241 48.0
109.722679 184.0
109.745621 164.0
109.860321 188.0
110.029366 104.0
110.114983 276.0
110.273766 56.0
110.351112 52.0
110.384567 48.0
110.543549 200.0
110.616806 116.0
110.78643 152.0
110.809471 128.0
110.895393 36.0
111.088303 180.0
111.432602 128.0
111.592339 220.0
111.903725 220.0
112.015343 132.0
112.226089 204.0
112.318886 196.0
112.745377 204.0
112.825699 64.0
112.910278 196.0
113.013931 144.0
113.04567 124.0
113.242561 148.0
113.265862 180.0
113.543518 204.0
113.870361 164.0
113.906471 172.0
114.265747 136.0
114.304047 124.0
114.657547 196.0
114.785454 160.0
114.81105 136.0
114.82811 220.0
115.053696 1440.0
115.105682 60.0
115.201653 192.0
115.27002 144.0
115.330528 64.0
115.492363 132.0
115.552505 176.0
115.65712 160.0
115.824135 168.0
115.933403 204.0
116.057777 204.0
116.42897 120.0
116.463341 148.0
116.521339 208.0
116.56646 208.0
116.68898 136.0
116.785744 116.0
116.908379 44.0
116.962189 128.0
117.065063 2792.0
117.122032 68.0
117.185524 96.0
117.24218 84.0
117.423279 52.0
117.600197 196.0
117.619621 36.0
117.768608 40.0
117.913368 104.0
117.960922 56.0
117.986862 60.0
118.019295 156.0
118.036591 164.0
118.076691 2040.0
118.108864 56.0
118.179352 52.0
118.196663 60.0
118.324364 188.0
118.621155 164.0
118.73391 68.0
118.835861 112.0
118.906197 116.0
118.985619 68.0
119.026871 132.0
119.050758 308.0
119.07515 688.0
119.139809 128.0
119.165878 156.0
119.254974 76.0
119.278885 176.0
119.326714 180.0
119.372375 192.0
119.594284 216.0
119.955872 196.0
119.974892 232.0
120.00602 52.0
120.080246 5972.0
120.114792 188.0
120.309273 260.0
120.379143 112.0
120.516762 184.0
120.560692 76.0
120.656639 112.0
120.739731 116.0
120.820663 104.0
120.851295 48.0
120.908905 224.0
121.026398 108.0
121.059196 196.0
121.063118 192.0
121.083984 764.0
121.260796 156.0
121.33313 148.0
121.471291 136.0
121.559334 156.0
121.683723 140.0
121.815933 160.0
121.974144 76.0
121.996132 76.0
122.086281 184.0
122.249069 64.0
122.286484 72.0
122.56176 40.0
122.64991 116.0
122.665344 44.0
122.760147 152.0
122.963112 116.0
122.985184 136.0
123.024918 196.0
123.186127 124.0
124.109016 228.0
124.13784 204.0
124.246529 204.0
124.268715 192.0
124.310875 124.0
124.373016 200.0
124.741753 144.0
125.197868 128.0
125.291428 92.0
125.422897 236.0
125.951729 48.0
125.989708 192.0
126.005348 224.0
126.439148 164.0
126.714577 144.0
126.757149 212.0
126.781799 100.0
126.813171 192.0
126.85128 84.0
127.026192 160.0
127.300011 132.0
127.333862 264.0
127.965584 140.0
128.16153 44.0
128.222382 124.0
128.251678 48.0
128.28775 32.0
128.580978 180.0
128.682556 192.0
128.888092 124.0
129.066666 184.0
129.206894 204.0
129.349472 204.0
129.698303 156.0
130.037277 164.0
130.064606 4940.0
130.145218 164.0
130.186096 104.0
130.274673 188.0
130.602005 28.0
130.811356 148.0
130.966187 52.0
131.049133 356.0
131.06926 616.0
131.278427 212.0
131.495163 196.0
131.60701 124.0
131.748611 180.0
131.79599 224.0
131.868057 204.0
131.885162 180.0
131.924576 132.0
131.995453 192.0
132.020615 112.0
132.043152 140.0
132.080063 17048.0
132.134979 100.0
132.177917 112.0
132.223114 148.0
132.308914 84.0
132.324951 40.0
132.382187 136.0
132.460068 64.0
132.476089 56.0
132.560867 168.0
132.654846 84.0
132.680878 56.0
132.73967 68.0
132.784546 120.0
132.808472 176.0
132.835999 84.0
132.911713 216.0
132.962189 128.0
132.997803 132.0
133.083878 1788.0
133.173416 64.0
133.20787 60.0
133.278122 60.0
133.315872 64.0
133.702225 80.0
133.718338 52.0
133.828827 108.0
133.936295 60.0
134.084 176.0
134.107574 60.0
134.31279 152.0
134.345078 124.0
134.384308 32.0
134.954803 92.0
135.11438 152.0
135.33194 52.0
135.503342 124.0
135.878922 140.0
136.222519 84.0
136.429337 32.0
136.452591 180.0
136.613052 36.0
137.379486 184.0
137.640884 168.0
138.103622 36.0
138.410187 204.0
138.42659 168.0
138.485138 196.0
138.625702 96.0
140.542145 168.0
140.669586 160.0
140.983719 148.0
141.067947 480.0
142.075272 112.0
142.193924 108.0
142.312622 120.0
142.916336 204.0
143.054382 196.0
143.085175 124.0
143.113892 144.0
143.187714 332.0
143.723709 100.0
144.029663 180.0
144.051163 288.0
144.076477 156.0
144.101334 200.0
144.359482 68.0
144.529327 64.0
144.716019 116.0
144.902832 152.0
145.082581 144.0
145.478409 68.0
145.504822 172.0
146.058701 316.0
146.091217 152.0
146.17543 168.0
146.197083 188.0
146.531784 144.0
146.620941 152.0
146.775223 108.0
146.795364 156.0
147.042023 780.0
147.13472 156.0
147.236145 188.0
147.630066 100.0
147.73407 172.0
147.949448 140.0
148.581985 100.0
148.747055 160.0
148.83197 212.0
149.058289 212.0
149.079742 48.0
149.230453 176.0
149.252335 176.0
149.36908 116.0
149.644073 256.0
149.931503 156.0
150.048752 184.0
150.092407 744.0
150.32901 124.0
150.582916 116.0
150.819916 208.0
151.015518 184.0
151.054703 292.0
151.098694 104.0
151.995453 56.0
152.032272 120.0
152.061157 2936.0
152.152542 144.0
152.503815 48.0
153.013031 132.0
153.068817 5752.0
153.141083 208.0
153.293823 40.0
153.335724 64.0
153.387482 64.0
153.589676 192.0
153.752518 40.0
153.796936 60.0
153.9673 204.0
154.014221 72.0
154.070724 444.0
154.108109 76.0
154.164932 152.0
154.451736 124.0
154.624939 80.0
154.763565 124.0
154.870041 160.0
155.046341 440.0
155.083817 620.0
155.147583 88.0
155.302292 196.0
155.492371 132.0
155.527115 232.0
155.763016 196.0
155.971741 56.0
156.016479 156.0
156.061234 68.0
156.09108 160.0
156.138321 80.0
156.369705 44.0
156.424454 124.0
156.451843 132.0
156.550629 208.0
157.065338 172.0
157.653275 148.0
157.841568 144.0
157.904099 176.0
158.034164 84.0
158.096725 100.0
158.22438 112.0
158.427246 156.0
158.650284 120.0
158.838348 120.0
159.979218 196.0
160.07605 404.0
160.258774 148.0
160.379745 56.0
160.717667 148.0
161.040802 136.0
161.082733 1140.0
161.245453 172.0
161.283371 92.0
161.845001 128.0
161.971619 204.0
162.085037 424.0
162.230103 88.0
162.63089 164.0
162.742584 200.0
162.925446 184.0
163.088074 112.0
163.144577 176.0
163.278763 164.0
164.279785 88.0
164.537552 152.0
165.068512 1096.0
165.099686 144.0
165.333817 148.0
165.447678 80.0
165.721725 192.0
165.762726 164.0
166.071762 308.0
166.193497 144.0
166.547775 184.0
166.982147 244.0
167.0849 352.0
167.404205 124.0
167.504654 48.0
167.597397 176.0
167.641205 160.0
167.999603 156.0
168.052246 196.0
168.081589 144.0
168.296402 140.0
168.453949 148.0
168.606384 148.0
169.061417 352.0
169.434418 204.0
169.85437 132.0
170.033813 124.0
170.068832 620.0
170.625641 152.0
170.955994 160.0
171.035034 136.0
171.076752 252.0
171.127777 160.0
171.213715 144.0
171.406494 56.0
171.510742 96.0
172.043167 152.0
172.829575 88.0
172.994461 132.0
173.332321 156.0
173.43454 32.0
174.106201 136.0
174.558197 140.0
174.726532 132.0
174.87915 172.0
174.952866 180.0
175.095047 148.0
175.669662 116.0
175.864929 124.0
177.993439 76.0
178.082993 164.0
178.242691 168.0
178.30957 148.0
178.695145 108.0
178.732391 96.0
178.753677 52.0
178.79361 56.0
179.057312 144.0
179.084763 200.0
179.46756 32.0
179.574219 148.0
180.081329 152.0
180.412674 132.0
180.4608 132.0
180.514282 168.0
180.557892 144.0
180.621262 132.0
180.669418 144.0
180.725601 144.0
180.840668 164.0
180.923645 36.0
180.947739 44.0
181.013016 340.0
181.064117 34664.0
181.151276 64.0
181.186111 68.0
181.207535 64.0
181.237625 52.0
181.288391 68.0
181.309357 180.0
181.344208 68.0
181.371002 48.0
181.397812 56.0
181.419266 36.0
181.463577 68.0
181.506927 40.0
181.584534 88.0
181.751831 32.0
181.861862 64.0
181.912857 60.0
182.067154 6376.0
182.116943 192.0
182.224396 76.0
182.342621 28.0
182.442078 88.0
182.580902 64.0
182.633011 212.0
182.837479 48.0
182.880554 60.0
182.902084 80.0
183.076218 2364.0
183.168655 80.0
183.214447 156.0
183.252167 160.0
183.295288 64.0
183.400391 72.0
183.440826 36.0
183.49205 120.0
183.529785 108.0
183.61879 60.0
183.875092 36.0
184.047394 176.0
184.081223 392.0
184.234207 40.0
184.301758 124.0
184.39093 88.0
184.517975 28.0
184.56395 52.0
184.601807 88.0
185.061661 156.0
185.124481 136.0
185.256805 124.0
185.712189 228.0
185.937393 196.0
186.760635 76.0
187.427628 40.0
187.471222 176.0
188.355209 36.0
188.516403 80.0
188.803452 68.0
188.975784 160.0
189.172836 100.0
189.419281 92.0
189.52066 36.0
189.857819 180.0
190.741913 96.0
191.515121 40.0
192.138107 164.0
192.472076 56.0
192.831207 140.0
193.06749 112.0
194.038116 192.0
194.082489 168.0
195.064148 224.0
195.084747 160.0
195.234894 64.0
195.40097 68.0
195.865768 168.0
196.039429 80.0
196.37677 144.0
196.893097 36.0
197.060333 556.0
198.063828 236.0
198.726624 92.0
198.816422 68.0
199.038193 156.0
199.073441 184.0
199.094345 108.0
199.664856 52.0
200.368576 96.0
200.757553 132.0
201.228775 96.0
202.107803 156.0
202.529617 188.0
203.982452 188.0
204.853226 104.0
205.263641 144.0
205.848618 148.0
206.211441 88.0
207.072632 104.0
207.717545 172.0
208.177399 164.0
208.397934 180.0
208.837784 84.0
208.867828 80.0
208.929825 212.0
208.987366 136.0
209.058548 4592.0
209.174438 76.0
209.399017 200.0
209.499832 60.0
209.73613 32.0
209.886047 108.0
210.004288 36.0
210.062164 776.0
210.362091 44.0
210.708633 84.0
210.766663 96.0
210.951385 164.0
211.000534 64.0
211.073547 2100.0
211.174042 80.0
211.281067 128.0
211.434433 140.0
211.737854 104.0
212.045517 228.0
212.083633 592.0
212.828766 148.0
212.959457 200.0
213.000122 180.0
213.081467 256.0
213.345932 64.0
213.72403 64.0
214.055862 36.0
214.154877 88.0
214.262665 32.0
214.291794 152.0
215.450043 116.0
215.692596 208.0
216.502777 204.0
217.294479 148.0
217.47641 40.0
217.62027 204.0
218.728577 148.0
218.760971 156.0
218.899338 172.0
219.329483 148.0
221.058167 140.0
221.125305 148.0
222.058578 132.0
223.075516 256.0
224.046234 312.0
224.2379 56.0
225.055389 872.0
225.930984 96.0
226.061646 2376.0
226.104538 132.0
226.19133 156.0
226.227249 104.0
226.601608 88.0
226.676514 168.0
226.973282 40.0
227.066788 1616.0
227.393265 52.0
227.879745 160.0
227.963882 36.0
228.071915 304.0
228.30658 132.0
228.565292 56.0
228.682648 28.0
228.812088 128.0
228.872314 108.0
229.061951 132.0
229.348312 204.0
229.957581 56.0
232.645538 44.0
233.052505 148.0
233.09201 156.0
233.669724 124.0
234.934052 152.0
236.379227 148.0
237.061844 732.0
237.160599 148.0
238.052963 104.0
238.092896 268.0
238.396683 180.0
238.519974 60.0
238.544556 152.0
238.586685 244.0
238.609116 88.0
238.633713 84.0
238.705338 164.0
238.750565 144.0
238.848984 180.0
238.901276 104.0
238.968124 192.0
239.016556 100.0
239.069092 24156.0
239.147446 44.0
239.168991 48.0
239.213409 112.0
239.247238 48.0
239.270584 172.0
239.301361 84.0
239.332153 32.0
239.353714 72.0
239.410172 84.0
239.461502 84.0
239.486755 60.0
239.535416 48.0
239.680222 60.0
239.886719 48.0
239.960709 92.0
240.021683 196.0
240.071182 4796.0
240.13031 40.0
240.219757 64.0
240.303055 64.0
240.435745 88.0
240.562958 56.0
240.620956 80.0
240.706665 64.0
240.845703 108.0
241.071899 316.0
241.303741 172.0
241.523315 112.0
241.606827 124.0
241.742981 148.0
241.764633 72.0
241.801773 124.0
241.847504 124.0
241.953445 104.0
242.027756 128.0
242.049438 164.0
242.120651 108.0
242.597824 48.0
242.762161 60.0
243.103394 116.0
243.180984 72.0
243.662308 68.0
243.886047 80.0
245.879379 52.0
246.085403 100.0
247.999924 88.0
248.661713 60.0
249.887253 72.0
250.08551 112.0
250.453903 68.0
250.545258 100.0
251.067535 464.0
252.066055 144.0
252.68895 164.0
253.071915 188.0
256.12323 108.0
258.742401 132.0
263.079285 120.0
264.087463 136.0
264.550201 80.0
265.084625 112.0
265.11377 148.0
266.085449 212.0
267.061523 352.0
267.61499 84.0
268.056732 176.0
268.067383 108.0
268.078644 164.0
269.732269 48.0
269.934967 28.0
276.819244 132.0
278.072388 92.0
279.854187 72.0
284.085297 196.0
284.719696 152.0
285.069061 120.0
286.886597 52.0
286.967499 84.0
287.09903 196.0
292.016632 80.0
292.748322 96.0
294.074524 132.0
294.101837 100.0
295.112244 120.0
295.516632 40.0
299.104523 136.0
300.116638 184.0
301.037079 124.0
301.119965 148.0
303.050232 56.0
305.184845 88.0
311.092773 96.0
312.104614 148.0
313.269562 52.0
314.09256 140.0
323.114288 188.0
323.873199 20.0
327.097717 88.0
328.105835 276.0
328.362427 164.0
329.117493 676.0
331.862885 72.0
336.090851 184.0
337.06073 100.0
341.985992 216.0
342.1185 180.0
342.155334 184.0
348.862579 120.0
349.029907 116.0
351.105469 372.0
353.102173 132.0
368.125214 188.0
369.095795 92.0
370.121277 208.0
371.87326 112.0
381.09906 56.0
384.541565 64.0
386.135559 420.0
386.182556 40.0
387.135925 348.0
387.415588 76.0
388.168121 164.0
432.207153 60.0
435.31192 152.0
440.689453 56.0
461.836609 104.0
475.603577 52.0
492.819336 96.0
497.265411 28.0
498.303406 80.0
532.215759 136.0
556.083069 88.0
592.674133 56.0
616.59021 200.0
638.894836 76.0
640.273987 100.0
686.000793 96.0
701.20697 196.0
778.149414 188.0
787.689148 128.0
813.043701 100.0
816.07135 108.0
816.190796 60.0
832.051819 160.0
832.476746 164.0
841.107178 152.0
842.52771 100.0
855.384399 160.0
867.28302 128.0
870.697693 220.0
875.690979 120.0
890.370422 152.0
897.39209 108.0
900.375732 168.0
903.322449 180.0
913.418152 112.0
924.967712 92.0
929.986572 184.0
934.015076 40.0
935.992981 120.0
942.360901 148.0
943.295959 224.0
943.412109 32.0
947.953613 168.0
974.567688 176.0
980.622742 180.0
1027.695068 192.0
1034.879272 200.0
1036.800903 44.0
1040.688232 192.0
1046.468506 200.0
1047.866089 216.0
1050.290039 180.0
1052.471313 128.0
1059.767334 124.0
1063.78186 220.0
1069.853638 144.0
1072.706909 188.0
1086.748291 132.0
1095.169434 172.0
1096.085205 188.0
1098.98645 104.0
1100.141479 136.0
1109.144531 220.0
1109.442749 56.0
1118.716797 112.0
1123.047974 132.0
1133.718506 172.0
1137.709351 168.0
1139.126343 212.0
1139.348022 152.0
1148.266968 164.0
1149.488037 200.0
1149.541992 72.0
1149.690552 192.0
1157.484741 104.0
1158.419434 184.0
1159.544189 104.0
1171.373779 84.0
1171.44873 208.0
1172.484375 136.0
1175.635132 164.0
1175.935425 172.0
1180.034058 228.0
1180.321289 184.0
1185.140015 200.0
1186.250244 176.0
1187.546265 164.0
1190.119751 188.0
1194.380615 244.0
1194.61438 60.0
1195.515747 172.0
1196.293579 132.0
1198.283813 144.0
1202.842285 112.0
1207.513184 116.0
1213.579346 208.0
1214.487793 64.0
1214.924805 256.0
1216.701416 80.0
1216.951416 204.0
1219.208984 64.0
1220.209961 160.0
1223.458862 164.0
1225.903687 244.0
1228.560181 152.0
1229.125366 56.0
1229.355591 216.0
1232.469971 64.0
1236.497925 160.0
1243.359253 160.0
1244.770264 88.0
1245.570923 220.0
1246.364746 164.0
1246.821533 144.0
1250.450562 144.0
1251.886719 256.0
1253.570435 144.0
1254.423218 192.0
1255.093018 28.0
1255.214355 92.0
1258.105591 136.0
1258.974121 192.0
1264.198364 200.0
1265.578735 156.0
1269.72522 192.0
1273.819702 132.0
1277.331299 96.0
1279.12439 96.0
1288.530762 152.0
1289.116699 180.0
1289.88147 176.0
1295.269653 188.0
1296.846069 76.0
1299.406006 96.0
1301.028076 168.0
1301.595215 176.0
1302.004517 88.0
1302.600708 208.0
1305.648193 152.0
1306.540161 132.0
1306.633667 160.0
1306.842285 248.0
1309.405029 116.0
1311.653076 124.0
1321.018799 92.0
1321.098389 256.0
1321.532471 148.0
1321.981201 40.0
1324.754272 272.0
1327.247437 128.0
1327.762329 112.0
1329.017212 84.0
1329.51062 168.0
1330.338135 136.0
1330.810059 212.0
1333.09082 240.0
1335.78833 108.0
1336.566772 72.0
1336.806885 104.0
1336.916016 168.0
1337.24353 132.0
1337.680298 172.0
1337.937988 316.0
1338.50293 180.0
1339.442505 212.0
1339.981567 144.0
1344.757935 196.0
1349.447754 44.0
1350.939697 80.0
1351.312866 120.0
1352.952271 136.0
1356.138672 148.0
1356.490479 192.0
1356.695801 176.0
1358.433838 180.0
1363.728027 120.0
1366.309082 220.0
1366.573853 192.0
1366.698975 80.0
1366.787231 96.0
1372.849854 156.0
1378.674438 192.0
1379.480103 200.0
1382.830811 148.0
1385.155884 164.0
1386.556152 192.0
1390.947144 48.0
1391.956787 228.0
1392.796021 216.0
1396.668701 152.0
1398.342773 120.0
1401.999512 112.0
1404.657715 208.0
1405.273071 228.0
1406.444702 184.0
1406.549194 184.0
1409.304932 184.0
1409.798096 164.0
1411.831543 176.0
1414.345459 120.0
1415.146484 216.0
1417.243652 160.0
1418.075439 164.0
1420.069824 164.0
1420.414917 132.0
1421.060059 184.0
1422.313354 120.0
1423.769897 192.0
1426.459717 144.0
1426.873291 140.0
1429.671387 76.0
1432.291504 116.0
1432.841431 104.0
1434.130005 180.0
1434.182739 164.0
1434.883789 128.0
1436.165771 188.0
1436.263916 108.0
1437.984131 160.0
1439.546875 144.0
1441.12561 160.0
1443.0 180.0
1444.232666 88.0
1444.777344 116.0
1445.193481 160.0
1445.715576 116.0
1447.244629 36.0
1447.76709 252.0
1449.5625 56.0
1451.45752 88.0
1453.179321 116.0
1455.160278 184.0
1457.150146 192.0
1458.198853 100.0
1458.898071 136.0
1459.772461 132.0
1462.206909 144.0
1462.747314 136.0
1466.700684 136.0
1468.637451 108.0
1468.942505 152.0
1469.50708 200.0
1470.384644 80.0
1471.491455 100.0
1471.980225 36.0
1472.995972 164.0
1475.028564 192.0
1475.303711 36.0
1477.391479 168.0
1478.179565 208.0
1478.608154 156.0
1479.587891 180.0
1480.17749 172.0
1480.491455 156.0
1482.184448 124.0
1483.535522 156.0
1485.933716 68.0
1486.854614 160.0
1489.050293 148.0
1491.901001 176.0
1494.592896 172.0
1495.393311 128.0
1496.078369 160.0
1496.432495 156.0
1497.656982 52.0
1499.614014 184.0
1500.122681 52.0
1500.681885 204.0
1501.50293 184.0
1502.35144 116.0
1502.729492 204.0
