>compound MegestrolAcetate
>formula C24H32O4 
>ionization [M+H]+
>parentmass 385.238708
#inchi InChI=1S/C24H32O4/c1-14-12-18-19(22(4)9-6-17(27)13-21(14)22)7-10-23(5)20(18)8-11-24(23,15(2)25)28-16(3)26/h12-13,18-20H,6-11H2,1-5H3/t18-,19+,20+,22-,23+,24+/m1/s1
#inchikey RQZAXGRLVPAYTJ
#Ion_Source LC-ESI
#Instrument qTof
#Compound_Source Isolated
#PI Sirenas
#Data_Collector Ed Esquenazi 
#Scan -1
#Precursor_MZ 385.239
#ExactMass 0.0
#Charge 1
#CAS_Number N/A
#Pubmed_ID N/A
#Smiles N/A
#INCHI_AUX N/A
#Library_Class 3
#SpectrumID CCMSLIB00000005910
#IonMode Positive
#UpdateWorkflowName UPDATE-SINGLE-ANNOTATED-BRONZE
#LibraryQualityString Bronze
#TaskID d19310cd93df49b68e9fcbec27720eb5
##Scan# 1
#SpectrumFile MegestrolAcetate.mgf
#LibraryName fda_library.mgf
#MQScore -1
#Organism fda_library
#TIC_Query 0
#RT_Query -1
#MZErrorPPM -1
#SharedPeaks 0
#MassDiff 0
#LibMZ -1
#SpecMZ 385.239
#SpecCharge 0
#internalFilename spec-00000.mgf

>collision 10
103.054932 65.333527
105.497688 3.6
107.083298 20.700199
109.099838 89.255638
111.079414 110.375
116.752029 2.125
119.08567 158.039703
119.13636 1.777778
121.065178 265.798706
133.101135 181.770599
133.147858 3.333333
133.228119 17.36915
134.964462 8.022223
135.078674 23.0385
135.118073 12.70833
135.413376 6.388158
137.095078 104.015999
141.068008 43.364899
145.098053 87.827263
145.362473 5.208333
146.434616 7.656609
147.07869 10.85227
147.115448 51.520111
148.081665 10.17339
149.093323 65.40406
149.132462 24.24017
151.11087 191.307205
151.393509 3.802778
153.070953 79.568947
158.388504 5.002193
159.076309 24.739731
159.114532 27.889811
161.093063 182.372101
161.238358 9.614036
163.073776 32.371559
163.111053 33.341671
163.276779 5.121212
169.104675 184.006699
170.217789 5.190476
170.507568 14.91667
171.113953 85.018867
172.178879 7.070402
173.096344 226.033997
173.12822 70.880302
173.295929 11.96667
174.055573 9.72
174.49646 8.692073
175.111038 508.690399
175.148651 4.222222
175.169113 4.669445
175.263412 13.90675
176.70929 9.171748
177.122055 23.102079
177.158936 9.259408
179.139069 84.568176
179.196747 3.002451
181.100815 49.885941
181.165054 2.833333
182.106079 72.253487
183.115662 349.663696
183.214737 6.095238
183.233566 9.38313
183.26181 3.002451
183.407852 10.69928
183.421844 5.148148
183.785446 7.656609
185.092499 125.614799
185.132111 60.883881
185.648071 11.14682
186.017746 8.162635
187.110641 485.870087
187.148911 35.025162
187.207031 5.041667
187.258621 16.353001
187.286789 7.028153
187.297028 5.041667
187.383621 4.013889
188.611176 6.259615
189.015762 7.280303
189.125916 242.238297
189.357971 3.680556
191.105789 26.245939
191.139557 33.510639
193.096756 55.342838
193.122299 73.708344
195.11116 18.2619
195.273361 7.162634
196.126846 109.759499
196.788605 20.54427
197.022858 22.34667
197.12883 114.911797
198.651962 10.28004
199.148117 144.457397
201.123871 36.755119
201.402344 8.00463
202.336655 7.801667
203.140305 83.252708
205.158279 40.0
207.114243 33.614578
209.131882 166.866806
210.952332 6.037037
211.148361 301.51889
211.347168 3.125
211.514526 11.30242
211.529144 18.671671
211.822708 3.669872
212.514282 19.75309
213.12616 39.582039
213.157394 15.84593
213.690079 17.66667
214.168655 35.971199
214.366989 6.005208
215.143188 99.240578
217.151993 17.0473
222.108521 5.721154
222.303116 5.166667
222.578552 5.007576
222.791397 10.0947
222.916031 5.681667
223.040466 10.85417
223.108307 44.016869
223.149185 556.114502
223.368179 12.33468
223.436798 10.29688
223.623001 10.18561
223.724197 13.3795
224.08313 13.10294
224.156143 1175.047974
224.221802 8.614178
224.258041 12.33929
224.400742 13.14389
224.477081 12.6875
224.519012 13.6
224.596909 14.26369
224.695969 14.00093
225.129364 16.42803
225.162643 743.949707
225.228195 11.00615
225.730042 17.4543
226.603317 16.03125
227.143265 34.674419
227.206055 5.019737
229.115891 24.83597
229.160522 153.041702
229.902817 11.30616
231.134872 72.676979
234.135849 99.848106
234.164719 6.342593
235.149948 140.239807
235.196121 2.336539
235.687042 7.166667
237.162582 113.106102
237.190125 60.647942
238.416046 4.003205
239.14418 100.447304
239.175949 40.117279
239.286926 5.727941
239.876678 15.66667
241.157822 593.409424
241.364639 18.07527
242.071899 9.668478
243.176346 87.337173
243.542755 3.640152
243.557358 9.947369
246.136902 27.18243
247.148438 338.304993
249.162369 500.716614
249.203522 6.675
249.372894 25.57209
249.493973 13.34405
249.712387 19.744049
249.917969 8.523648
249.939972 8.347222
249.983719 12.00321
251.141266 167.392807
251.206558 2.695513
252.022537 6.231482
253.157639 151.8452
253.406021 4.166667
253.716095 5.669871
253.810303 5.388158
254.398148 6.49359
255.174652 1311.416016
255.226593 5.015
255.242249 5.674242
255.269073 16.88158
255.292389 7.94697
255.368591 4.75
255.453308 9.347222
255.531342 26.33371
255.647751 10.86667
255.675964 3.013889
255.748276 4.408333
255.820618 7.708333
255.977158 8.022223
256.12674 4.349638
256.756256 11.71204
257.152313 58.728531
257.475861 2.016667
263.178772 301.972412
263.274628 8.176471
263.342377 5.0
263.447113 19.173611
263.568237 6.095238
263.61908 24.00938
263.724152 36.803249
264.036896 6.8
264.150055 11.66945
264.421753 9.728536
265.157715 295.894409
265.195221 2205.412109
265.266632 13.89659
265.286194 9.856884
265.347137 10.8803
265.370758 14.38043
265.411377 34.131111
265.476044 15.74516
265.523834 5.84375
265.555145 25.0
265.571381 9.667792
265.603363 25.92112
265.702515 27.44722
265.720764 20.72024
265.764832 33.02586
265.792694 17.00577
265.839386 24.287239
265.869507 38.446739
266.24585 4.041667
266.296753 17.92235
266.323334 9.030556
266.396729 13.75439
266.486237 17.70402
267.013519 20.16279
267.118073 20.81349
267.174347 7748.96582
267.24646 15.00514
267.311096 15.44551
267.3284 5.019444
267.37854 32.662121
267.41864 67.421547
267.440948 3.888889
267.459595 49.609459
267.5242 20.61282
267.536835 13.00694
267.568756 16.81673
267.604675 57.01384
267.636505 36.81461
267.657074 9.602778
267.695984 6.686403
267.717346 16.58333
267.78302 20.715139
267.809875 29.745449
267.826904 12.66801
267.843964 20.674999
268.009094 24.03764
268.065887 15.45833
268.274445 34.89222
268.675201 9.358334
268.721497 8.333333
268.965179 10.85256
269.046936 19.088449
269.150116 38.95435
269.296051 6.493421
269.572388 12.90686
269.748993 6.160257
270.862762 3.640152
272.314819 10.88889
273.76886 5.00463
274.16864 20.16667
276.927521 10.59572
279.200989 20.745621
279.61377 6.696428
280.036072 5.166667
280.283173 6.805555
280.768097 11.48761
280.838776 14.93426
280.854218 21.72537
280.973755 10.58333
281.188019 1606.598999
281.438141 14.23214
281.48999 3.746795
281.53064 18.031481
281.566101 10.35897
281.73642 7.598684
281.810242 6.932018
281.867462 44.203239
282.366272 5.801667
282.413116 25.726669
282.477356 11.66975
282.600159 7.006945
282.65802 8.107456
282.682037 4.363636
282.740601 18.51577
282.833862 4.259615
282.851685 18.03307
283.043457 6.666667
283.162292 21.2803
283.203796 1008.547974
283.278961 3.380953
283.396088 13.41346
283.506836 9.323276
283.595276 6.734848
283.636261 2.020833
287.58667 8.958333
287.670044 7.897436
287.882202 7.102273
289.193176 426.314789
289.210602 10.63021
289.311981 27.58865
291.828857 8.401667
297.182068 26.79978
297.487976 1.720238
298.621033 3.933333
305.351166 13.73016
305.394226 11.72727
305.862335 11.05357
306.136383 8.700757
307.026825 51.80901
307.206329 1309.959961
307.272888 3.458333
307.306183 3.028846
307.35498 14.68632
307.379395 8.666667
307.462006 4.008333
307.498474 12.0028
307.656464 18.787041
307.696686 14.36012
307.968414 26.700951
308.127777 4.520833
308.23999 7.668651
308.386597 4.408333
308.768524 2.541667
308.886383 33.17342
310.185577 8.547619
312.290497 7.017857
315.835449 10.48333
321.199829 5.711957
323.05426 8.070175
323.08847 17.69837
323.172119 28.73439
323.200012 72.186043
323.216858 6.671297
323.243866 57.875252
323.272766 22.744699
323.327057 25.21365
323.35907 43.713039
323.408234 12.42857
323.431335 22.001301
323.480347 17.049999
323.514893 37.215279
323.631561 51.104172
323.658813 14.85256
323.718719 90.506233
323.877747 18.59524
324.118347 5.208333
324.179413 100.090302
324.22464 3.440476
324.307526 91.556267
324.32431 23.4692
324.451385 4.225
324.538422 9.490196
324.914032 30.096901
324.975677 18.7619
325.058289 10.28004
325.149567 100.247803
325.216797 20171.369141
325.400635 110.6978
325.434723 6.677381
325.467285 48.807018
325.492401 33.927429
325.518494 89.618538
325.537811 39.57431
325.563293 110.864502
325.604858 14.82731
325.627319 93.81385
325.656097 112.272102
325.744629 41.896118
325.777649 51.8241
325.831329 36.89566
325.859528 124.554901
325.947571 49.963341
325.99295 44.704639
326.097412 33.7425
326.420105 30.808331
326.474884 33.838112
326.693604 31.92675
327.121033 8.775641
327.3013 12.33477
327.323334 6.375
327.546814 15.33412
327.603485 5.333333
327.629028 10.8375
327.679047 6.674242
327.948059 16.15686
329.140778 10.74167
329.287323 15.46071
329.561523 5.0
329.904388 12.8
330.254059 19.756411
330.784821 20.41667
334.642853 6.03592
342.522827 8.024224
343.225739 34.170471
359.967773 5.629902
367.227295 36.493961
376.0383 7.013889
380.467712 7.375
380.924805 8.372808
382.709625 10.05449
382.74527 66.948532
382.787018 91.616943
382.816406 80.025253
382.866943 63.074249
382.917267 32.816101
382.935638 9.818182
382.954407 174.860306
382.999908 83.469749
383.037079 47.109871
383.085571 79.116653
383.127747 58.181561
383.179474 24.11805
383.21524 33.812599
383.272186 5.42803
383.345886 12.80952
383.427795 48.600658
383.530396 27.74613
383.691772 56.620899
383.768219 10.82456
383.972717 8.66821
384.013641 11.3346
384.402313 15.01333
384.66156 3.342592
384.812286 9.291667
384.920959 9.1875
385.140869 65.000801
385.165283 38.638889
385.196533 45.028111
385.238708 42791.0
385.351349 9.003788
385.41449 13.6886
385.454498 122.673897
385.480408 22.667219
385.520874 107.222702
385.559174 92.834503
385.580505 4.761905
385.619598 82.761307
385.659973 62.478699
385.718842 105.826103
385.750488 58.219151
385.774353 60.54216
385.827118 132.527695
385.862366 154.832703
385.905365 38.00703
385.969177 77.097443
386.041504 34.418449
386.105255 40.47876
386.164307 104.954498
386.344452 41.777779
386.414429 72.792221
386.542145 69.291183
386.5961 96.67923
386.684387 13.34347
386.940277 14.86816
387.018494 20.71204
387.20752 16.714081
387.278137 6.5
387.377777 23.60392
387.465149 27.17243
387.566833 4.711957
387.670715 12.05511
387.772308 13.76179
387.89563 8.046875
388.23056 19.679701
388.306854 8.740741
388.437103 19.56966
388.842407 49.637321
389.555481 7.533333
389.747894 12.37045
390.30304 19.04167
390.965057 8.45
391.36972 12.34722
391.563629 13.02778
391.950287 10.89851
392.596344 10.01667
395.5625 4.416667
409.602661 24.00709
428.221313 3.337963
428.961304 5.002778
437.733063 4.363636
442.552185 5.414216
538.217957 6.00119
542.34198 9.364583
676.268921 7.387821
818.375916 2.670455
879.71228 3.375
995.778809 4.011905
1129.228271 10.68873
