>compound MLS001201789-01!Ektebin
>formula C9H12N2S
>ionization [M+H]+
>parentmass 181.079147
#inchi InChI=1S/C9H12N2S/c1-2-3-8-6-7(9(10)12)4-5-11-8/h4-6H,2-3H2,1H3,(H2,10,12)
#inchikey VRDIULHPQTYCLN
#Ion_Source LC-ESI
#Instrument qTof
#Compound_Source NIH Pharmacologically Active Library
#PI Dorrestein
#Data_Collector VP/LMS
#Scan -1
#Precursor_MZ 181.082
#ExactMass 180.072
#Charge 1
#CAS_Number N/A
#Pubmed_ID N/A
#Smiles CCCc1cc(ccn1)C(=N)S
#INCHI_AUX N/A
#Library_Class 1
#SpectrumID CCMSLIB00000085618
#IonMode Positive
#UpdateWorkflowName UPDATE-SINGLE-ANNOTATED-GOLD
#LibraryQualityString Gold
#TaskID d252d724072548979f1f6f1ced849daf
##Scan# 1112
#SpectrumFile p4-D06_GD6_01_18366.mzXML
#LibraryName Pharm_Active_Library.mgf
#MQScore -1
#Organism Pharm_Active_Library
#TIC_Query 0
#RT_Query -1
#MZErrorPPM -1
#SharedPeaks 0
#MassDiff 0
#LibMZ -1
#SpecMZ 181.082
#SpecCharge 0
#internalFilename spec-00000.mgf

>collision 10
44.889332 80.0
44.944023 176.0
44.984062 188.0
45.074883 132.0
45.085571 140.0
45.098938 156.0
45.113941 212.0
45.151081 204.0
45.172482 56.0
45.287598 280.0
45.299652 124.0
45.335354 136.0
45.357273 132.0
45.473965 204.0
45.492756 120.0
45.535725 164.0
45.596184 196.0
45.821659 160.0
45.882896 180.0
46.002964 128.0
46.138058 160.0
46.196209 164.0
46.261166 128.0
46.276054 232.0
46.418331 128.0
46.497013 144.0
46.555389 100.0
46.577122 132.0
46.589397 216.0
46.612442 148.0
46.639626 184.0
46.655937 148.0
46.716267 144.0
46.774288 164.0
46.969143 180.0
46.986877 208.0
47.012802 76.0
47.063309 156.0
47.21703 172.0
47.231407 76.0
47.258766 56.0
47.403912 172.0
47.509487 104.0
47.53281 152.0
47.681126 180.0
47.704491 48.0
47.762245 116.0
47.777836 168.0
47.840683 196.0
47.858582 144.0
47.906784 188.0
47.919182 148.0
47.935719 164.0
48.108124 128.0
48.184082 144.0
48.244888 148.0
48.374928 196.0
48.408157 260.0
48.60083 136.0
48.617485 232.0
48.635525 100.0
48.714676 184.0
48.743084 188.0
48.864822 220.0
48.941452 212.0
49.019379 144.0
49.068161 144.0
49.086288 132.0
49.107208 164.0
49.13929 172.0
49.188137 176.0
49.31105 160.0
49.329224 132.0
49.470509 144.0
49.579762 52.0
49.697552 128.0
49.708778 180.0
49.940586 136.0
49.971535 92.0
50.155312 188.0
50.236393 204.0
50.302719 152.0
50.432671 224.0
50.514687 140.0
50.528831 148.0
50.589687 112.0
50.646328 124.0
50.741272 216.0
50.806511 204.0
51.260818 184.0
51.324219 48.0
51.359875 144.0
51.405529 144.0
51.566906 132.0
51.590668 180.0
51.641254 44.0
51.845985 236.0
51.871784 136.0
51.92627 128.0
52.196255 184.0
52.259544 136.0
52.338219 248.0
52.361748 48.0
52.433784 148.0
52.448196 132.0
52.500103 116.0
52.51741 40.0
52.611202 252.0
52.830868 188.0
52.854015 132.0
52.917702 160.0
52.956802 128.0
52.985771 168.0
52.998814 152.0
53.062588 204.0
53.206215 140.0
53.229446 144.0
53.258492 80.0
53.309341 180.0
53.44894 332.0
53.540649 168.0
53.667427 152.0
53.785595 128.0
53.983959 140.0
54.061829 184.0
54.099884 188.0
54.15247 136.0
54.21413 192.0
54.274231 32.0
54.28743 208.0
54.302094 176.0
54.325562 120.0
54.409214 68.0
54.526726 204.0
54.607491 236.0
54.632595 208.0
54.672321 188.0
54.691456 152.0
54.73415 392.0
54.978855 188.0
55.005981 148.0
55.054039 168.0
55.19305 108.0
55.227066 180.0
55.240376 112.0
55.372112 156.0
55.406181 168.0
55.658585 204.0
55.90657 148.0
56.17178 132.0
56.431633 72.0
56.57526 164.0
56.856182 144.0
56.918602 96.0
57.134708 172.0
57.329273 136.0
57.375999 148.0
57.412186 160.0
57.424252 40.0
57.495159 132.0
57.526855 168.0
57.548943 140.0
57.587257 156.0
57.631065 116.0
57.705124 164.0
57.880642 200.0
58.021549 120.0
58.065525 128.0
58.124687 248.0
58.147095 68.0
58.179329 124.0
58.202103 168.0
58.290203 148.0
58.309959 164.0
58.334278 180.0
58.37989 128.0
58.390537 160.0
58.416393 104.0
58.480305 92.0
58.500092 120.0
58.676548 232.0
58.727135 220.0
58.76527 148.0
59.032581 132.0
59.078465 340.0
59.098354 120.0
59.179474 172.0
59.256058 124.0
59.395557 76.0
59.417034 260.0
59.438515 184.0
59.5383 124.0
59.579769 140.0
59.622795 188.0
59.665066 144.0
59.761189 56.0
59.841225 132.0
59.878181 36.0
59.955212 196.0
59.967545 160.0
60.033836 152.0
60.059753 232.0
60.180428 120.0
60.288555 184.0
60.377316 164.0
60.582539 228.0
60.619724 180.0
60.726696 196.0
60.753067 124.0
60.869473 32.0
61.093285 100.0
61.107285 160.0
61.161751 112.0
61.423531 116.0
61.436008 192.0
61.467216 172.0
61.509354 128.0
61.535892 160.0
61.635857 72.0
61.671799 108.0
61.792213 188.0
61.901779 184.0
62.096107 124.0
62.141598 200.0
62.17926 44.0
62.297024 484.0
62.336304 184.0
62.460884 216.0
62.718742 160.0
62.783382 172.0
62.849636 156.0
62.885933 176.0
62.941189 128.0
62.972771 216.0
63.018581 156.0
63.094444 116.0
63.119743 180.0
63.140301 172.0
63.168774 60.0
63.213074 124.0
63.39043 160.0
63.480785 260.0
63.49506 48.0
63.726818 212.0
63.776085 100.0
63.787209 72.0
63.822186 192.0
63.852402 160.0
63.885803 192.0
63.960224 172.0
63.984474 72.0
64.266579 288.0
64.327225 240.0
64.415909 228.0
64.504539 80.0
64.52372 184.0
64.555702 220.0
64.758949 132.0
64.874321 164.0
64.965729 188.0
65.090919 204.0
65.103767 108.0
65.147133 160.0
65.172836 180.0
65.195335 200.0
65.288574 184.0
65.304665 108.0
65.480095 128.0
65.565483 124.0
65.586433 172.0
65.781616 188.0
65.834892 172.0
65.90274 216.0
66.01104 188.0
66.06765 144.0
66.085442 188.0
66.1259 140.0
66.190659 136.0
66.242485 176.0
66.349541 132.0
66.385109 152.0
66.399704 156.0
66.412682 300.0
66.498672 192.0
66.615585 272.0
66.752106 180.0
66.786263 40.0
66.978333 104.0
67.131531 148.0
67.169044 224.0
67.239204 128.0
67.291443 208.0
67.330635 48.0
67.490776 140.0
67.672394 168.0
67.749367 164.0
67.878853 196.0
67.995323 100.0
68.102043 120.0
68.159546 112.0
68.17598 64.0
68.220352 232.0
68.323959 148.0
68.33548 176.0
68.385429 156.0
68.412827 76.0
68.480339 100.0
68.491867 196.0
68.554474 256.0
68.570961 188.0
68.610519 76.0
68.716072 180.0
68.73587 200.0
68.796936 220.0
68.902634 120.0
68.960464 152.0
69.02494 132.0
69.039825 48.0
69.137428 100.0
69.160599 172.0
69.206955 160.0
69.235107 264.0
69.264915 180.0
69.303024 156.0
69.462173 120.0
69.478767 356.0
69.521095 172.0
69.586639 116.0
69.915771 168.0
70.042305 184.0
70.085625 188.0
70.112282 168.0
70.217316 128.0
70.235664 176.0
70.257347 132.0
70.270248 180.0
70.519508 160.0
70.544098 164.0
70.64325 140.0
70.698463 168.0
70.847481 120.0
70.889374 200.0
71.023491 172.0
71.046982 196.0
71.078857 188.0
71.176216 160.0
71.228279 172.0
71.266914 144.0
71.292122 168.0
71.35936 112.0
71.388931 176.0
71.510925 160.0
71.664001 140.0
71.675797 188.0
71.689278 180.0
71.704445 168.0
71.77356 144.0
71.859581 160.0
71.905144 140.0
72.045288 112.0
72.297226 168.0
72.454697 144.0
72.663429 136.0
72.697166 184.0
72.785439 96.0
72.843307 204.0
72.916245 128.0
73.021652 140.0
73.062477 76.0
73.207153 256.0
73.234276 160.0
73.312775 236.0
73.374138 128.0
73.418472 164.0
73.894043 192.0
74.202499 140.0
74.24791 156.0
74.289078 152.0
74.386894 136.0
74.42466 56.0
74.491646 140.0
74.648048 164.0
74.668678 184.0
74.725449 216.0
74.802887 44.0
74.823547 260.0
74.876656 152.0
74.957893 120.0
75.109612 100.0
75.126862 140.0
75.161369 216.0
75.456718 52.0
75.55011 168.0
75.565681 168.0
75.695496 168.0
75.759583 132.0
75.887833 204.0
76.042221 140.0
76.127289 176.0
76.181129 140.0
76.193291 44.0
76.246193 144.0
76.335815 176.0
76.415833 164.0
76.445412 152.0
76.481956 80.0
76.602112 64.0
76.715378 140.0
76.762451 64.0
76.823502 272.0
76.839203 80.0
76.856651 140.0
76.870605 188.0
76.998047 192.0
77.053947 168.0
77.067924 108.0
77.116852 132.0
77.182495 88.0
77.193779 184.0
77.349487 148.0
77.59124 180.0
77.631569 76.0
77.654366 304.0
77.754372 136.0
77.857948 188.0
77.875511 128.0
77.975662 160.0
77.991478 220.0
78.069031 144.0
78.105774 168.0
78.12336 128.0
78.341652 284.0
78.371605 172.0
78.466782 128.0
78.583183 172.0
78.662598 208.0
78.710266 136.0
78.787979 184.0
78.828621 132.0
78.855125 188.0
78.938217 104.0
78.99128 188.0
79.003662 160.0
79.06028 52.0
79.150558 140.0
79.180664 76.0
79.20546 132.0
79.228683 184.0
79.400429 164.0
79.577881 128.0
79.604515 156.0
79.810638 220.0
80.056198 156.0
80.081528 200.0
80.157738 132.0
80.319237 184.0
80.398483 168.0
80.45076 180.0
80.48774 132.0
80.511673 208.0
80.578827 40.0
80.607414 192.0
80.628769 156.0
80.662819 176.0
80.759377 160.0
80.86673 80.0
80.977737 164.0
81.10495 68.0
81.207153 128.0
81.251999 180.0
81.40995 172.0
81.657959 248.0
81.672348 100.0
81.692139 176.0
81.738914 196.0
81.785706 176.0
81.828911 168.0
81.868675 196.0
81.888336 144.0
81.920761 172.0
81.942375 52.0
82.069244 156.0
82.100998 216.0
82.153305 144.0
82.180367 104.0
82.209244 164.0
82.359093 152.0
82.519928 144.0
82.59407 172.0
82.666435 96.0
82.840256 236.0
82.916351 232.0
82.958046 144.0
83.014252 176.0
83.143051 184.0
83.200882 200.0
83.265182 192.0
83.308281 160.0
83.357338 184.0
83.410042 160.0
83.633774 188.0
83.695671 144.0
83.744843 84.0
83.801315 140.0
83.848694 192.0
83.967194 224.0
84.05294 164.0
84.083961 132.0
84.164284 168.0
84.365257 164.0
84.379883 168.0
84.457695 148.0
84.49144 112.0
84.526207 160.0
84.565033 184.0
84.628708 152.0
84.663498 148.0
84.696465 136.0
84.725777 116.0
84.775246 220.0
84.967773 120.0
85.035667 200.0
85.138481 192.0
85.213791 48.0
85.285461 280.0
85.322227 120.0
85.336937 172.0
85.381065 180.0
85.419693 212.0
85.432571 180.0
85.474884 208.0
85.513535 200.0
85.530098 36.0
85.562469 96.0
85.617218 176.0
85.675575 176.0
85.721634 96.0
85.782455 68.0
85.799049 132.0
85.813797 208.0
85.922615 212.0
86.257057 192.0
86.310478 148.0
86.365959 200.0
86.441818 196.0
86.571449 144.0
86.667717 56.0
86.697365 148.0
86.72702 72.0
86.747414 180.0
87.029411 152.0
87.120415 180.0
87.215187 160.0
87.311867 144.0
87.568703 180.0
87.639488 152.0
88.016266 192.0
88.061089 172.0
88.147026 168.0
88.186272 152.0
88.244225 32.0
88.262917 208.0
88.356438 204.0
88.552986 172.0
88.603821 204.0
88.657898 240.0
88.899818 248.0
88.98616 132.0
89.042496 320.0
89.08091 212.0
89.506989 156.0
89.823616 104.0
89.868889 264.0
89.893417 156.0
89.944382 60.0
90.035004 128.0
90.069 200.0
90.099228 192.0
90.116234 136.0
90.157799 176.0
90.206947 64.0
90.284462 36.0
90.67067 148.0
90.924805 92.0
90.958969 196.0
91.045197 184.0
91.05619 276.0
91.137489 100.0
91.181046 148.0
91.209709 48.0
91.326637 188.0
91.386566 168.0
91.529327 140.0
91.714119 132.0
91.809448 120.0
91.887657 224.0
91.910553 168.0
91.933327 124.0
92.023163 112.0
92.049583 3108.0
92.078537 224.0
92.132027 84.0
92.154953 244.0
92.233307 144.0
92.277275 40.0
92.338463 216.0
92.363327 28.0
92.494705 200.0
92.525986 124.0
92.594925 32.0
92.644722 128.0
92.773216 164.0
92.903526 164.0
93.058029 2388.0
93.116592 52.0
93.137718 160.0
93.153084 100.0
93.203033 44.0
93.722557 124.0
93.867126 176.0
94.000229 64.0
94.063446 704.0
94.139214 120.0
94.164322 132.0
94.286034 164.0
94.398163 184.0
94.506477 172.0
94.537445 176.0
94.678764 188.0
94.717499 84.0
94.740746 136.0
94.783371 212.0
94.853142 172.0
94.866707 120.0
94.924873 192.0
94.998573 180.0
95.069229 192.0
95.219856 164.0
95.248985 64.0
95.386955 128.0
95.44326 208.0
95.462776 236.0
95.55809 156.0
95.5756 100.0
95.737167 288.0
95.842354 44.0
95.965149 196.0
95.978798 132.0
96.002197 168.0
96.037308 152.0
96.109489 184.0
96.144615 204.0
96.326195 64.0
96.378944 52.0
96.547058 228.0
96.576393 68.0
96.668343 124.0
96.729012 184.0
96.746635 92.0
96.807327 112.0
96.844543 164.0
96.875885 100.0
96.924866 160.0
96.942497 124.0
97.010399 640.0
97.071877 160.0
97.20723 188.0
97.234703 220.0
97.312401 152.0
97.417313 136.0
97.631554 76.0
97.706299 68.0
97.804695 212.0
97.826347 180.0
97.88147 136.0
97.969177 264.0
98.005562 208.0
98.0233 128.0
98.050888 88.0
98.078484 196.0
98.151878 260.0
98.212563 156.0
98.232285 156.0
98.479202 176.0
98.56002 144.0
98.588737 164.0
98.642502 76.0
98.724091 116.0
98.848717 100.0
98.89769 188.0
98.931847 112.0
99.38372 132.0
99.453178 124.0
99.588196 160.0
99.60408 192.0
99.749138 180.0
99.961952 124.0
100.115234 148.0
100.222801 148.0
100.308495 200.0
100.3703 192.0
100.42614 148.0
100.480003 152.0
100.587761 200.0
100.635674 132.0
100.669624 136.0
100.883408 220.0
100.965385 164.0
101.173485 216.0
101.191505 180.0
101.229546 200.0
101.461975 164.0
101.692657 132.0
101.72477 196.0
101.754883 144.0
101.801064 152.0
101.89872 180.0
101.943695 144.0
101.991928 168.0
102.034142 184.0
102.054253 188.0
102.082405 80.0
102.331909 32.0
102.416489 184.0
102.49707 232.0
102.519241 108.0
102.573654 124.0
102.61599 120.0
102.712791 160.0
102.789459 56.0
102.833855 208.0
102.962036 196.0
103.029724 404.0
103.049858 224.0
103.074173 132.0
103.248024 132.0
103.300613 180.0
103.437668 208.0
103.594139 148.0
103.725853 132.0
103.758293 104.0
103.772484 104.0
103.821152 156.0
104.005775 180.0
104.048126 148.0
104.288109 244.0
104.676682 68.0
104.705193 128.0
104.772415 160.0
104.806633 188.0
104.978271 196.0
105.055237 196.0
105.096588 168.0
105.143517 128.0
105.172096 160.0
105.364044 176.0
105.472351 116.0
105.588898 216.0
105.633896 212.0
105.719826 96.0
105.740295 248.0
105.934814 64.0
106.039742 172.0
106.065231 8960.0
106.089027 252.0
106.121307 88.0
106.152069 48.0
106.191414 108.0
106.213593 148.0
106.301811 56.0
106.322334 128.0
106.404503 140.0
106.53875 220.0
106.566696 44.0
106.58313 44.0
106.638618 120.0
106.671509 56.0
106.723434 200.0
106.885399 196.0
106.957428 60.0
107.067307 564.0
107.198395 208.0
107.229309 148.0
107.290894 196.0
107.437569 84.0
107.474709 176.0
107.559319 128.0
107.745178 76.0
107.772034 248.0
107.8423 124.0
107.876244 180.0
107.939461 192.0
108.003571 260.0
108.067245 452.0
108.396935 64.0
108.500565 168.0
108.616692 216.0
108.654037 224.0
108.70591 176.0
108.755714 180.0
108.813843 140.0
109.061043 92.0
109.144203 156.0
109.173317 60.0
109.214912 140.0
109.475067 160.0
109.55838 124.0
109.660484 228.0
109.863869 224.0
110.006363 1464.0
110.106956 100.0
110.175888 152.0
110.23439 216.0
110.278282 140.0
110.349358 132.0
110.428818 160.0
110.456009 64.0
110.47065 216.0
110.506218 116.0
110.57946 208.0
110.656914 72.0
110.719048 196.0
110.776283 264.0
110.841232 148.0
110.875908 140.0
111.009026 196.0
111.155769 140.0
111.288002 224.0
111.359406 148.0
111.443436 52.0
111.664162 168.0
111.811241 176.0
112.000923 580.0
112.018997 460.0
112.070442 148.0
112.158951 184.0
112.30233 156.0
112.483795 128.0
112.625267 168.0
112.705544 132.0
112.84716 212.0
112.887337 140.0
112.912712 140.0
112.935982 152.0
113.0989 76.0
113.235519 84.0
113.253471 208.0
113.278885 164.0
113.357277 108.0
113.478096 176.0
113.596863 124.0
113.679611 188.0
113.775124 148.0
113.806969 188.0
114.263931 152.0
114.334145 264.0
114.353302 220.0
114.383102 148.0
114.66024 172.0
114.805222 164.0
115.046066 188.0
115.11866 220.0
115.445618 216.0
115.871567 168.0
116.384178 164.0
116.403503 172.0
116.435715 188.0
116.553864 156.0
116.719376 108.0
116.90007 200.0
116.919441 100.0
116.94957 56.0
117.018456 216.0
117.042076 552.0
117.179985 100.0
117.195068 224.0
117.229546 152.0
117.257561 224.0
117.356728 100.0
117.574593 180.0
117.600494 40.0
117.630714 224.0
117.673889 228.0
117.704117 164.0
117.719231 160.0
117.868279 164.0
117.883408 120.0
118.023727 412.0
118.05291 15784.0
118.086311 164.0
118.360359 196.0
118.562927 56.0
118.588936 116.0
118.630119 220.0
118.697327 116.0
118.714676 176.0
118.745041 168.0
118.771065 32.0
118.868698 148.0
118.903419 96.0
118.955154 196.0
119.002243 160.0
119.060753 13452.0
119.084953 124.0
119.128799 40.0
119.172806 72.0
119.203102 48.0
119.233528 40.0
119.259613 56.0
119.309608 32.0
119.350914 80.0
119.370605 72.0
119.406548 124.0
119.431381 80.0
119.468948 208.0
119.607628 132.0
119.642456 164.0
119.670761 80.0
119.703423 180.0
119.725197 188.0
119.755692 152.0
119.836296 52.0
119.86898 72.0
119.886414 72.0
119.940895 204.0
119.970169 196.0
119.991035 140.0
120.021561 32.0
120.081055 6024.0
120.139336 128.0
120.15461 108.0
120.17424 60.0
120.197105 100.0
120.300819 52.0
120.417572 96.0
120.475975 136.0
120.504654 60.0
120.567299 60.0
120.653305 172.0
120.731262 252.0
120.829689 164.0
120.847191 104.0
120.869072 124.0
120.910652 112.0
120.939102 172.0
120.985077 112.0
121.009155 228.0
121.044373 144.0
121.061501 424.0
121.089218 24944.0
121.120178 168.0
121.128998 160.0
121.184372 132.0
121.216194 44.0
121.25351 116.0
121.326035 144.0
121.348755 88.0
121.449631 32.0
121.554939 88.0
121.611046 120.0
121.649307 240.0
121.671265 36.0
121.697609 108.0
121.748116 28.0
121.796432 116.0
121.811813 112.0
121.84037 48.0
121.855751 400.0
121.939247 128.0
121.960251 180.0
122.004318 160.0
122.021172 180.0
122.044769 100.0
122.060158 56.0
122.092415 1508.0
122.161331 36.0
122.252594 48.0
122.317909 260.0
122.520897 108.0
122.683243 84.0
122.727341 60.0
122.833199 88.0
122.877319 252.0
123.09269 132.0
123.143654 128.0
123.23278 208.0
123.382317 176.0
123.402969 88.0
123.681709 176.0
123.779121 204.0
123.794617 60.0
123.904457 244.0
124.021378 2628.0
124.107056 172.0
124.14032 56.0
124.462074 152.0
124.764236 48.0
124.865921 148.0
124.877762 152.0
124.908607 204.0
124.953278 216.0
124.976372 168.0
124.989677 100.0
125.029861 26892.0
125.060982 120.0
125.094429 56.0
125.11351 84.0
125.130714 176.0
125.165924 84.0
125.1856 68.0
125.193024 124.0
125.269402 56.0
125.302818 40.0
125.398796 76.0
125.661766 48.0
125.704163 76.0
125.728706 76.0
125.934113 144.0
125.976555 212.0
125.995674 152.0
126.031578 1572.0
126.069725 188.0
126.090508 232.0
126.141914 152.0
126.384796 120.0
126.458351 136.0
126.524452 68.0
126.674492 180.0
126.721542 144.0
126.791008 56.0
126.840317 64.0
126.956764 332.0
126.983917 88.0
127.02784 1068.0
127.05545 184.0
127.071777 136.0
127.116173 156.0
127.131882 116.0
127.179016 32.0
127.210442 44.0
127.457489 40.0
127.518166 64.0
127.594597 72.0
127.722771 28.0
128.0242 164.0
128.218109 152.0
128.324051 84.0
128.348236 160.0
128.461624 148.0
129.202606 144.0
129.714386 88.0
129.766846 144.0
129.945709 264.0
129.975204 192.0
130.068405 212.0
130.138626 180.0
130.218109 124.0
130.263535 52.0
130.399872 60.0
130.661377 148.0
130.711426 64.0
130.854828 168.0
131.058441 1228.0
131.246719 216.0
131.321976 132.0
131.741974 168.0
131.863083 152.0
131.917938 200.0
132.066299 352.0
132.588577 64.0
132.72612 220.0
133.001419 124.0
133.07399 164.0
133.136887 48.0
133.580475 172.0
133.596573 92.0
133.628784 72.0
134.294525 96.0
134.398346 188.0
134.445587 136.0
134.698471 148.0
134.813995 264.0
134.876389 44.0
135.012573 156.0
135.054428 152.0
135.155823 208.0
135.343719 48.0
135.359924 48.0
135.505844 76.0
135.70517 104.0
136.021667 292.0
136.064789 220.0
136.129379 92.0
136.204117 184.0
136.229675 156.0
136.315628 56.0
136.624878 132.0
137.020645 68.0
137.044571 224.0
137.06958 208.0
137.085892 128.0
137.104523 292.0
137.132385 176.0
138.03598 1188.0
138.089752 132.0
138.253525 152.0
138.433777 112.0
138.649307 80.0
138.848587 204.0
139.017487 172.0
139.042938 356.0
139.146591 168.0
139.341522 128.0
139.654175 192.0
139.969528 248.0
140.193314 72.0
140.346527 84.0
140.544662 80.0
140.790161 52.0
140.835037 172.0
140.858658 156.0
140.887009 204.0
140.95079 156.0
141.031754 188.0
141.38591 128.0
141.582413 112.0
141.828812 136.0
141.921265 140.0
142.039841 180.0
143.002151 116.0
143.287903 52.0
143.457108 72.0
143.623413 204.0
144.151657 64.0
144.1875 196.0
144.256805 96.0
144.548599 204.0
144.649124 168.0
144.79039 136.0
144.845474 140.0
145.020386 104.0
145.075729 404.0
145.26976 236.0
145.291351 148.0
145.480942 112.0
145.610611 180.0
145.632217 224.0
145.841263 192.0
146.199615 164.0
146.240524 204.0
146.336823 148.0
146.394608 168.0
146.568039 204.0
146.649979 128.0
146.758469 192.0
146.838043 64.0
146.86441 188.0
146.872253 196.0
146.934525 144.0
146.956238 156.0
146.992432 132.0
147.011734 156.0
147.041138 200.0
147.092209 15856.0
147.171143 72.0
147.214523 192.0
147.306305 64.0
147.325623 120.0
147.352203 32.0
147.601151 48.0
147.678543 136.0
147.717239 52.0
147.775299 124.0
147.87532 56.0
147.935028 80.0
147.983459 52.0
148.019775 176.0
148.098999 5592.0
148.32988 36.0
148.543274 40.0
148.700989 60.0
148.880646 112.0
148.987518 180.0
149.004517 92.0
149.028168 512.0
149.102188 460.0
149.14061 112.0
149.186798 120.0
149.274323 44.0
149.457123 184.0
149.510284 104.0
149.731827 76.0
149.814651 68.0
149.858505 192.0
150.023117 180.0
150.048615 100.0
150.114441 116.0
150.206436 184.0
150.485336 104.0
150.881119 120.0
151.031296 320.0
151.066986 172.0
151.309265 60.0
151.33374 172.0
151.821365 160.0
151.90477 104.0
152.012711 160.0
152.040604 5944.0
152.102753 128.0
152.125626 180.0
152.183411 104.0
152.253296 196.0
152.291092 108.0
152.440002 144.0
152.534683 168.0
152.585022 188.0
152.606506 140.0
152.666153 164.0
152.703049 164.0
152.735031 164.0
152.766998 216.0
152.794067 148.0
152.882645 120.0
152.902328 160.0
152.93187 100.0
152.968796 104.0
152.98848 168.0
153.010635 172.0
153.042908 848.0
153.078934 43692.0
153.146072 64.0
153.185486 36.0
153.212585 36.0
153.248062 100.0
153.280624 72.0
153.316071 44.0
153.337173 56.0
153.419525 132.0
153.483841 36.0
153.518723 120.0
153.537949 84.0
153.564514 136.0
153.621262 212.0
153.68927 140.0
153.715576 116.0
153.755051 76.0
153.797012 68.0
153.82663 56.0
153.861191 56.0
153.880951 136.0
153.908112 52.0
153.940201 40.0
153.980484 180.0
154.00441 44.0
154.036438 764.0
154.068405 23676.0
154.130417 52.0
154.169952 76.0
154.221848 44.0
154.246567 92.0
154.271286 64.0
154.293533 56.0
154.338043 60.0
154.402328 68.0
154.449326 56.0
154.498795 88.0
154.558182 108.0
154.602066 196.0
154.622528 72.0
154.671814 48.0
154.691833 112.0
154.766098 32.0
154.800018 132.0
154.875061 32.0
154.917175 44.0
154.951859 48.0
154.969208 76.0
155.026199 176.0
155.071426 3820.0
155.147644 72.0
155.16748 92.0
155.237823 76.0
155.254257 120.0
155.371582 108.0
155.4552 32.0
155.47258 52.0
155.552002 40.0
155.659653 100.0
155.775482 104.0
155.845047 108.0
155.894745 124.0
155.934509 84.0
155.951904 156.0
155.981735 164.0
156.019028 152.0
156.063339 1524.0
156.108063 104.0
156.133408 120.0
156.155792 108.0
156.236633 96.0
156.327438 72.0
156.369751 72.0
156.417038 112.0
156.471817 116.0
156.521606 76.0
156.920273 108.0
157.012527 92.0
157.065445 212.0
157.127274 136.0
157.154724 104.0
157.331924 120.0
157.666626 44.0
158.074249 88.0
158.27951 200.0
158.324585 68.0
158.647812 64.0
159.026581 56.0
159.192276 236.0
159.29776 80.0
159.327911 204.0
159.750946 188.0
160.374725 128.0
160.894363 32.0
161.708313 72.0
161.812103 144.0
163.037247 124.0
163.06012 136.0
164.05864 212.0
164.121658 64.0
165.046509 488.0
166.051147 240.0
166.789291 60.0
167.046432 156.0
168.358337 88.0
168.603775 196.0
169.429184 100.0
169.478409 80.0
171.032379 204.0
171.719269 148.0
172.040222 220.0
172.445084 64.0
175.748718 164.0
176.390472 116.0
178.402496 60.0
178.806793 48.0
179.798218 188.0
179.878281 148.0
180.097244 144.0
180.725464 164.0
181.025269 192.0
181.079147 5244.0
181.180618 48.0
181.234207 48.0
181.279755 80.0
181.601471 224.0
181.749008 84.0
182.081085 876.0
182.522598 104.0
182.61673 40.0
182.901932 32.0
182.942322 72.0
183.075211 280.0
183.206223 76.0
183.243942 48.0
183.413727 60.0
183.494598 128.0
183.969406 52.0
184.069305 148.0
185.739151 96.0
185.798828 64.0
190.956177 88.0
191.897949 128.0
194.520599 84.0
195.266342 92.0
196.820236 76.0
197.991928 60.0
198.600113 100.0
206.354034 120.0
207.806137 96.0
207.84343 132.0
208.426331 48.0
212.236465 80.0
213.642166 108.0
214.370071 108.0
217.08873 72.0
221.919418 68.0
228.68515 124.0
230.165344 108.0
231.701828 68.0
232.602493 44.0
240.031006 80.0
251.657867 76.0
256.951904 32.0
273.931671 68.0
275.118835 116.0
279.124542 96.0
280.402863 84.0
281.043121 92.0
282.713928 72.0
316.970978 80.0
320.766693 68.0
326.330048 76.0
336.993469 108.0
340.892181 132.0
353.89386 92.0
365.481812 60.0
366.715668 36.0
367.089294 56.0
373.235199 84.0
380.732025 44.0
382.306488 96.0
388.55838 56.0
420.353882 88.0
441.987396 140.0
446.787201 32.0
462.813965 56.0
485.557434 96.0
500.173737 36.0
518.368225 88.0
518.490601 80.0
525.589172 28.0
527.018311 48.0
568.339844 140.0
622.982971 124.0
652.8255 80.0
751.166016 72.0
754.458923 76.0
765.889343 124.0
780.188477 188.0
785.91394 140.0
792.71344 164.0
794.849915 140.0
798.096558 176.0
815.355103 212.0
822.685791 164.0
829.79126 156.0
831.093262 200.0
841.724731 44.0
843.469543 128.0
843.562012 168.0
854.505432 104.0
859.189514 140.0
865.630615 124.0
869.71106 132.0
875.084167 228.0
884.665955 188.0
891.653259 252.0
900.112549 192.0
902.120056 120.0
903.35791 208.0
915.638672 204.0
922.873962 140.0
926.202454 172.0
926.408386 236.0
927.383972 84.0
933.929382 168.0
935.955933 48.0
941.743347 204.0
943.154785 152.0
948.191956 152.0
951.136047 136.0
953.463867 184.0
957.345764 148.0
960.118958 156.0
967.496643 76.0
967.948608 108.0
970.513855 220.0
972.418335 36.0
972.9646 184.0
974.46759 80.0
974.778259 216.0
977.956238 132.0
980.372681 180.0
982.7547 160.0
984.302673 144.0
984.802307 172.0
985.001343 156.0
986.195618 136.0
989.191772 136.0
990.09967 180.0
990.25 140.0
990.444153 208.0
995.084778 148.0
1005.136658 104.0
1005.445862 152.0
1006.253845 128.0
1006.493774 96.0
1011.127502 176.0
1011.823792 208.0
1016.75531 104.0
1020.395081 160.0
1026.233521 208.0
1026.284546 140.0
1030.854858 144.0
1034.039673 140.0
1034.910278 188.0
1035.428955 184.0
1037.928223 156.0
1042.113159 80.0
1043.655762 164.0
1045.064331 172.0
1045.321777 88.0
1045.785156 52.0
1047.452759 88.0
1047.774902 164.0
1048.960693 220.0
1053.057983 96.0
1057.493286 204.0
1059.06665 188.0
1061.743408 72.0
1061.814697 276.0
1063.248535 180.0
1065.066528 260.0
1066.053955 84.0
1066.13855 144.0
1067.152588 120.0
1070.992065 168.0
1071.754272 180.0
1073.677246 72.0
1078.619873 160.0
1078.796387 156.0
1081.504395 140.0
1081.671265 260.0
1082.781128 124.0
1082.872925 168.0
1083.973511 196.0
1087.436157 68.0
1087.882446 88.0
1088.040039 228.0
1088.539062 108.0
1088.650635 60.0
1088.795166 180.0
1088.998779 172.0
1089.274658 208.0
1089.616211 164.0
1089.826538 188.0
1091.772217 164.0
1091.982666 184.0
1092.910278 52.0
1094.740234 88.0
1095.036621 144.0
1096.189453 216.0
1096.947388 212.0
1099.420776 148.0
1099.895996 192.0
1100.701416 144.0
1101.53894 144.0
1103.800537 64.0
1104.131226 136.0
1105.229248 60.0
1109.474731 160.0
1110.356567 112.0
1112.891479 204.0
1113.316528 176.0
1113.39624 192.0
1114.160034 116.0
1115.781616 132.0
1115.941284 204.0
1116.054199 48.0
1118.329468 200.0
1119.181519 112.0
1119.387939 44.0
1119.514526 204.0
1120.007324 112.0
1120.180542 132.0
1121.466553 168.0
1122.299805 104.0
1124.527954 228.0
1125.282227 96.0
1125.696289 232.0
1127.914429 128.0
1133.341919 128.0
1135.346191 188.0
1136.050537 228.0
1136.191406 80.0
1136.345703 160.0
1136.848877 96.0
1137.036865 48.0
1139.138428 128.0
1140.710938 136.0
1140.89917 68.0
1141.087402 200.0
1141.161377 256.0
1143.461914 28.0
1143.643677 204.0
1144.013916 168.0
1146.701416 80.0
1147.571045 192.0
1147.699219 140.0
1149.85791 164.0
1150.445068 176.0
1150.505859 148.0
1150.607178 232.0
1151.896973 68.0
1152.079346 160.0
1155.026733 156.0
1156.82666 120.0
1158.255493 92.0
1163.001831 164.0
1163.130859 184.0
1164.522827 156.0
1166.656494 176.0
1167.873657 212.0
1168.098145 252.0
1168.390625 240.0
1168.642334 196.0
1172.060425 196.0
1175.285645 196.0
1175.640503 196.0
1176.131836 196.0
1177.470093 216.0
1178.76123 232.0
1179.492554 104.0
1180.98999 116.0
1183.713745 140.0
1184.994629 144.0
1185.466797 208.0
1185.906006 172.0
1188.004272 104.0
1188.724731 120.0
1191.447388 228.0
1191.594849 168.0
1191.897217 236.0
1193.526245 232.0
1194.09021 116.0
1194.709229 132.0
1194.949951 68.0
1195.775757 92.0
1196.174927 188.0
1196.447388 200.0
1196.877197 144.0
1197.008057 148.0
1198.502808 148.0
1199.102295 164.0
1199.833008 148.0
1199.998413 160.0
1200.653564 172.0
1201.094971 132.0
1201.211304 148.0
1202.889038 52.0
1203.724487 148.0
1204.242432 56.0
1206.654053 132.0
1208.168701 140.0
1209.580322 84.0
1212.184448 132.0
1212.531006 84.0
1214.47229 136.0
1215.561523 116.0
1218.220703 120.0
1218.470825 180.0
1219.81897 212.0
1221.557495 132.0
1221.877441 180.0
1222.037476 128.0
1222.942139 164.0
1223.352783 160.0
1223.429443 140.0
1225.198364 156.0
1226.264404 136.0
1227.90979 212.0
1229.633057 156.0
1231.231934 120.0
1232.06311 168.0
1232.307617 176.0
1232.894531 160.0
1233.738892 204.0
1235.083008 240.0
1235.383789 124.0
1236.034424 56.0
1236.321289 36.0
1238.008423 140.0
1238.442749 136.0
1240.825317 128.0
1241.31604 180.0
1242.185791 176.0
1242.655762 152.0
1242.775024 172.0
1243.617188 164.0
1244.213867 188.0
1244.41748 172.0
1244.712402 136.0
1245.393555 140.0
1245.962646 92.0
1246.461426 164.0
1247.072876 156.0
1247.621094 164.0
1247.768799 52.0
1247.986694 184.0
1248.844727 156.0
1249.738159 204.0
1251.356934 148.0
1253.899902 108.0
1254.08313 124.0
1254.146606 160.0
1254.203003 132.0
1256.13501 148.0
1256.35376 184.0
1257.362793 152.0
1257.750977 128.0
1258.343994 240.0
1259.314575 112.0
1259.381958 52.0
1260.731445 184.0
1261.155518 140.0
1261.487671 216.0
1261.869507 188.0
1262.215942 68.0
1262.5271 168.0
1263.941895 160.0
1264.677856 216.0
1265.406982 132.0
1265.860229 40.0
1267.312256 140.0
1268.039062 332.0
1269.360718 216.0
1270.38916 148.0
1270.956787 144.0
1273.423218 304.0
1273.682983 112.0
1273.974121 216.0
1275.011597 252.0
1275.601562 72.0
1276.454712 224.0
1276.824463 180.0
1277.372192 60.0
1277.891479 204.0
1278.667114 168.0
1280.325928 280.0
1280.653564 196.0
1282.249512 92.0
1282.356445 232.0
1283.953369 156.0
1286.465088 156.0
1286.522095 164.0
1286.75769 212.0
1286.814819 64.0
1287.436035 232.0
1287.578857 160.0
1288.664673 240.0
1290.744629 188.0
1290.880493 136.0
1291.316772 164.0
1294.279541 120.0
1294.730591 208.0
1295.074463 156.0
1295.518555 104.0
1295.747803 48.0
1296.113159 104.0
1296.277954 60.0
1296.435669 40.0
1297.001831 184.0
1297.202515 272.0
1297.71875 148.0
1297.80481 132.0
1298.285278 140.0
1298.9021 192.0
1299.46875 180.0
1299.612305 164.0
1300.566772 168.0
1301.765747 116.0
1301.9021 132.0
1304.22998 244.0
1304.294678 128.0
1304.725952 124.0
1305.675171 140.0
1305.817383 188.0
1306.185791 156.0
1310.166626 180.0
1310.23877 152.0
1310.454834 168.0
1311.651123 108.0
1311.708862 160.0
1311.809692 140.0
1312.566772 160.0
1312.61731 148.0
1313.172607 120.0
1313.36731 156.0
1314.001343 180.0
1314.564941 168.0
1314.940186 172.0
1316.001343 56.0
1317.149658 180.0
1318.370605 208.0
1318.486328 124.0
1320.922852 232.0
1322.449707 168.0
1324.281494 180.0
1324.752319 160.0
1325.679688 168.0
1325.839111 148.0
1327.317993 188.0
1328.079468 112.0
1328.514648 136.0
1329.740967 204.0
1329.95874 144.0
1330.365234 92.0
1330.946045 244.0
1331.316406 184.0
1331.46167 176.0
1331.861084 184.0
1332.006348 184.0
1332.129883 188.0
1332.478638 148.0
1332.660278 140.0
1333.866577 48.0
1334.251953 188.0
1334.75354 116.0
1336.35376 228.0
1337.052368 164.0
1338.471924 168.0
1341.254883 192.0
1341.444458 196.0
1343.427979 100.0
1343.537354 240.0
1343.749146 152.0
1344.091919 140.0
1344.646484 168.0
1346.610474 88.0
1347.793945 108.0
1348.283569 152.0
1348.809814 148.0
1349.833374 124.0
1350.162354 176.0
1350.242798 112.0
1350.828003 156.0
1351.903564 184.0
1352.115723 188.0
1353.279663 196.0
1354.392822 184.0
1355.13269 124.0
1355.828857 184.0
1356.598511 240.0
1357.551636 128.0
1357.617676 40.0
1357.683594 156.0
1359.855225 44.0
1360.949097 180.0
1362.109375 156.0
1363.138062 176.0
1364.108154 128.0
1364.438965 196.0
1364.58606 156.0
1364.83606 76.0
1365.519897 132.0
1366.101074 48.0
1366.152466 164.0
1366.807373 188.0
1367.175293 184.0
1367.410767 164.0
1367.786133 164.0
1368.618042 184.0
1368.853638 172.0
1369.774292 148.0
1370.400513 140.0
1370.783691 160.0
1371.587036 272.0
1371.815552 68.0
1372.220947 208.0
1372.943604 184.0
1373.120605 232.0
1373.238647 180.0
1373.666504 148.0
1374.603394 76.0
1375.264648 160.0
1375.356201 204.0
1375.858154 44.0
1375.939453 132.0
1376.367676 236.0
1376.707275 296.0
1377.401611 132.0
1378.029541 120.0
1379.019775 192.0
1379.071533 184.0
1379.726685 144.0
1379.995605 124.0
1380.816406 104.0
1381.511719 196.0
1381.859375 80.0
1382.236694 172.0
1382.288574 68.0
1382.873169 64.0
1382.96936 144.0
1383.680054 148.0
1384.0354 196.0
1384.183594 124.0
1385.287109 44.0
1385.531616 184.0
1386.220581 104.0
1386.36145 116.0
1386.672729 184.0
1386.84314 140.0
1387.688232 180.0
1387.799438 96.0
1388.00708 144.0
1388.096069 164.0
1390.254761 132.0
1390.469971 140.0
1390.581299 224.0
1391.063843 160.0
1391.387695 172.0
1392.103271 176.0
1392.266602 180.0
1393.24707 176.0
1393.60376 180.0
1393.663208 176.0
1393.946533 112.0
1394.309692 212.0
1394.889404 176.0
1395.142212 72.0
1395.907959 188.0
1396.168213 120.0
1396.458374 160.0
1396.629395 180.0
1396.956665 188.0
1397.365845 172.0
1397.522095 152.0
1398.385376 144.0
1398.474609 92.0
1398.616089 160.0
1398.75 136.0
1399.449829 164.0
1401.177734 176.0
1401.72168 184.0
1401.848389 184.0
1402.332764 380.0
1403.242188 168.0
1403.316772 124.0
1403.619995 252.0
1404.084839 212.0
1404.36084 160.0
1404.965088 180.0
1405.039673 180.0
1406.255981 208.0
1406.592163 176.0
1406.785889 216.0
1407.674438 164.0
1407.786377 124.0
1407.86853 128.0
1408.15979 104.0
1409.026367 52.0
1409.175781 164.0
1412.502563 132.0
1412.614746 144.0
1413.535034 264.0
1413.587402 64.0
1413.779175 212.0
1415.51123 160.0
1415.675903 136.0
1416.597168 144.0
1417.293945 180.0
1418.155762 200.0
1419.692749 236.0
1421.988403 128.0
1422.183594 156.0
1423.242065 132.0
1424.188354 200.0
1425.345215 176.0
1426.420044 156.0
1426.570312 176.0
1427.796753 140.0
1427.938843 64.0
1428.217163 96.0
1429.72937 192.0
1429.864868 100.0
1430.052979 140.0
1431.174683 176.0
1431.362915 116.0
1431.438232 92.0
1431.784668 56.0
1432.025635 184.0
1432.842896 180.0
1432.914551 192.0
1433.072754 92.0
1433.125488 72.0
1433.381714 132.0
1434.007202 176.0
1434.08252 64.0
1434.22583 180.0
1435.055054 132.0
1435.183228 132.0
1435.333984 216.0
1435.613037 148.0
1436.970825 168.0
1437.234863 52.0
1437.310303 172.0
1437.498901 148.0
1437.597046 148.0
1437.981934 200.0
1438.064941 128.0
1439.491821 164.0
1439.635254 172.0
1439.937378 40.0
1440.050659 148.0
1440.194214 216.0
1440.322632 168.0
1440.496338 84.0
1440.697632 156.0
1440.760742 196.0
1441.652344 112.0
1441.83374 148.0
1442.650024 192.0
1443.171753 192.0
1443.837158 176.0
1444.215332 128.0
1444.661621 188.0
1444.93396 88.0
1445.176025 184.0
1445.456055 152.0
1446.751709 124.0
1447.38623 176.0
1449.886108 236.0
1450.302979 152.0
1450.848755 156.0
1451.106567 148.0
1452.18335 148.0
1453.989014 40.0
1454.231934 140.0
1455.112427 152.0
1455.203613 268.0
1455.256714 152.0
1456.502197 228.0
1457.239136 120.0
1457.527832 116.0
1459.739868 148.0
1459.998413 164.0
1460.431885 196.0
1460.827393 80.0
1461.915405 148.0
1462.105713 180.0
1464.839111 168.0
1466.947266 172.0
1467.575195 132.0
1467.956421 156.0
1468.345337 156.0
1468.482666 184.0
1468.734375 176.0
1469.001343 164.0
1469.115723 136.0
1469.298828 164.0
1471.60376 216.0
1471.977905 180.0
1474.139648 180.0
1475.186768 108.0
1476.387207 40.0
1477.664673 164.0
1478.582886 220.0
1478.873657 180.0
1479.141602 288.0
1480.006714 124.0
1480.226318 152.0
1480.550415 140.0
1480.734253 160.0
1480.841431 180.0
1481.446533 196.0
1482.067139 216.0
1483.017456 264.0
1484.147949 112.0
1484.266968 136.0
1485.847046 168.0
1486.14624 208.0
1486.199951 172.0
1486.376465 160.0
1486.813843 136.0
1487.220581 112.0
1487.96521 108.0
1488.541138 84.0
1489.370605 192.0
1489.675781 180.0
1489.793091 244.0
1490.492188 184.0
1490.79187 136.0
1491.606567 148.0
1491.768066 160.0
1492.575317 84.0
1493.013672 224.0
1493.959717 272.0
1494.621338 76.0
1495.044556 156.0
1496.168457 132.0
1496.422485 164.0
1496.561035 108.0
1496.791992 124.0
1496.973022 120.0
1497.277222 200.0
1497.565186 184.0
1498.972046 164.0
1499.103027 176.0
1499.349609 156.0
1499.634766 224.0
1499.750366 160.0
1501.022461 220.0
1501.654785 200.0
1501.809082 128.0
1501.87085 124.0
1502.109863 92.0
1502.410767 124.0
1502.950806 152.0
1503.251831 184.0
1503.67627 176.0
1504.648804 112.0
