>compound MLS001048876-01!3-(3,4-dimethoxyphenyl)-7-methoxychromen-4-one
>formula C18H16O5
>ionization [M+H]+
>parentmass 313.107452
#inchi InChI=1S/C18H16O5/c1-20-12-5-6-13-16(9-12)23-10-14(18(13)19)11-4-7-15(21-2)17(8-11)22-3/h4-10H,1-3H3
#inchikey UKWLNMIPRJLYGH
#Ion_Source LC-ESI
#Instrument qTof
#Compound_Source NIH Natural Product Library
#PI Dorrestein
#Data_Collector VVP/LMS
#Scan -1
#Precursor_MZ 313.108
#ExactMass 312.1
#Charge 1
#CAS_Number N/A
#Pubmed_ID N/A
#Smiles COc1ccc2c(=O)c(coc2c1)c3ccc(OC)c(OC)c3
#INCHI_AUX N/A
#Library_Class 1
#SpectrumID CCMSLIB00000080419
#IonMode Positive
#UpdateWorkflowName UPDATE-SINGLE-ANNOTATED-GOLD
#LibraryQualityString Gold
#TaskID b1d8e8f6646f4e71acdff9ca3d919d08
##Scan# 2122
#SpectrumFile p2-F08_GF8_01_18044.mzXML
#LibraryName NIH_Natural_Products_Library.mgf
#MQScore -1
#Organism NIH_Natural_Products_Library
#TIC_Query 0
#RT_Query -1
#MZErrorPPM -1
#SharedPeaks 0
#MassDiff 0
#LibMZ -1
#SpecMZ 313.108
#SpecCharge 0
#internalFilename spec-00000.mgf

>collision 10
94.972923 172.0
95.015602 84.0
95.048584 304.0
95.522095 172.0
95.582954 160.0
95.658859 128.0
95.732162 172.0
95.775696 180.0
95.791275 204.0
95.830238 116.0
95.882851 172.0
95.93158 100.0
95.945229 52.0
96.054436 116.0
96.089554 136.0
96.155899 84.0
96.372658 156.0
96.417603 32.0
96.503616 76.0
96.536858 156.0
96.789291 52.0
96.814751 100.0
96.851959 168.0
96.957764 100.0
97.114616 180.0
97.16169 80.0
97.212708 128.0
97.246071 48.0
97.304962 80.0
97.34227 92.0
97.495499 252.0
97.515152 92.0
97.652786 132.0
97.816101 172.0
98.078087 132.0
98.454926 168.0
98.796883 212.0
98.971054 84.0
99.032448 104.0
99.107727 84.0
99.153305 264.0
99.271286 184.0
99.298035 116.0
99.347626 136.0
99.444855 204.0
99.470657 68.0
99.613632 180.0
99.714973 128.0
99.973518 152.0
100.005356 48.0
100.025261 224.0
100.071053 216.0
100.092957 220.0
100.174614 136.0
100.272247 176.0
100.441727 108.0
100.463669 176.0
100.991028 112.0
101.071053 120.0
101.089058 120.0
101.255226 176.0
101.475075 208.0
101.527893 156.0
101.616051 168.0
101.774612 132.0
101.866997 164.0
101.939323 64.0
102.236954 136.0
102.323883 196.0
102.385933 228.0
102.416145 28.0
102.466507 188.0
102.551147 176.0
103.054123 436.0
103.077881 116.0
103.118301 124.0
103.223427 128.0
103.241623 132.0
103.431816 204.0
103.539604 168.0
103.634331 212.0
103.664726 168.0
103.689049 112.0
103.776215 228.0
104.027786 112.0
104.046059 152.0
104.060265 180.0
104.31218 96.0
104.330475 196.0
104.344711 104.0
104.383339 132.0
104.539978 156.0
104.715065 204.0
104.802658 172.0
104.864792 180.0
105.031525 240.0
105.067245 192.0
105.171783 184.0
105.296333 184.0
105.326973 80.0
105.367828 76.0
105.46183 188.0
105.57428 48.0
105.608269 252.0
105.77684 192.0
105.903793 212.0
105.955002 288.0
106.040977 664.0
106.071815 120.0
106.121017 220.0
106.174332 156.0
106.285103 44.0
106.367203 128.0
106.502724 160.0
106.537643 76.0
106.668121 156.0
106.745239 80.0
107.013435 940.0
107.049294 844.0
107.078629 84.0
107.19812 124.0
107.233154 120.0
107.449669 160.0
107.480621 148.0
108.003304 64.0
108.018639 312.0
108.204041 40.0
108.424385 128.0
108.481644 76.0
108.552139 188.0
108.668297 72.0
108.730553 132.0
108.817223 324.0
108.961044 108.0
109.157677 160.0
109.2313 252.0
109.333252 184.0
109.393616 104.0
109.420677 96.0
109.460236 148.0
109.520638 188.0
109.737366 176.0
109.87085 68.0
110.138054 144.0
110.390938 44.0
110.817955 28.0
110.838905 200.0
110.903877 188.0
111.056938 136.0
111.157639 128.0
111.176529 224.0
111.253624 164.0
111.273087 104.0
111.411697 208.0
111.4412 188.0
111.569313 160.0
111.632393 172.0
111.769127 164.0
111.891571 160.0
111.974503 200.0
112.085915 180.0
112.135559 140.0
112.211441 136.0
112.306343 224.0
112.553261 100.0
112.665199 112.0
112.702461 132.0
112.762398 256.0
112.893478 188.0
112.927315 128.0
112.959686 224.0
112.986549 184.0
113.007706 140.0
113.022514 264.0
113.181267 128.0
113.331657 80.0
113.513954 56.0
113.662437 136.0
113.76432 72.0
113.912971 36.0
114.02346 180.0
114.080849 100.0
114.206306 52.0
114.225456 128.0
114.444656 224.0
114.46595 112.0
114.500023 156.0
114.593758 152.0
114.693916 176.0
114.719498 128.0
114.885834 216.0
114.94558 164.0
115.046562 320.0
115.116356 132.0
115.152657 88.0
115.436897 144.0
115.477531 168.0
115.526726 200.0
115.582359 164.0
115.826424 60.0
115.879982 168.0
116.002289 56.0
116.019287 80.0
116.055733 220.0
116.117928 44.0
116.13723 104.0
116.437714 156.0
116.566612 244.0
116.682678 148.0
116.753639 212.0
116.828918 192.0
116.979561 148.0
117.034058 380.0
117.285446 136.0
117.412651 108.0
117.578773 40.0
117.619781 188.0
117.755814 140.0
117.837898 128.0
117.943794 112.0
118.039024 684.0
118.110291 188.0
118.170517 200.0
118.255257 240.0
118.35701 80.0
118.474754 164.0
118.634331 188.0
118.955391 168.0
118.983612 156.0
119.011841 152.0
119.047821 496.0
119.115486 160.0
119.191383 140.0
119.200722 92.0
119.208633 228.0
119.379074 212.0
119.435623 164.0
119.463898 280.0
119.705498 116.0
119.823112 112.0
119.877586 188.0
120.004013 192.0
120.056496 648.0
120.097168 196.0
120.130508 132.0
120.167595 104.0
120.195961 96.0
120.224335 100.0
120.261436 164.0
120.554092 156.0
120.578133 184.0
120.619659 80.0
120.678688 148.0
120.768349 220.0
120.838348 164.0
120.974037 140.0
121.012955 124.0
121.029533 448.0
121.062012 284.0
121.103233 144.0
121.289482 140.0
121.322365 140.0
121.37162 188.0
121.504387 160.0
121.521942 84.0
121.575806 232.0
121.617401 144.0
121.706314 196.0
121.952362 148.0
122.035698 2100.0
122.066193 144.0
122.128265 168.0
122.262474 76.0
122.280083 208.0
122.326302 192.0
122.34832 52.0
122.38575 140.0
122.456215 40.0
122.535522 172.0
122.570778 160.0
122.588402 92.0
122.632484 184.0
122.711838 172.0
123.044991 244.0
123.073692 80.0
123.100471 160.0
123.115379 164.0
123.279129 212.0
123.545013 72.0
123.566582 132.0
123.732574 132.0
123.874306 124.0
123.896461 92.0
123.92083 96.0
123.960716 92.0
124.047035 148.0
124.126968 224.0
124.224556 168.0
124.324402 184.0
124.417633 144.0
124.655289 88.0
124.72197 164.0
124.850922 128.0
124.935448 116.0
124.98217 152.0
125.008873 164.0
125.046707 144.0
125.084541 164.0
125.362953 48.0
125.626053 132.0
125.913994 52.0
126.233566 140.0
126.448334 84.0
126.511009 96.0
126.820137 56.0
126.913818 152.0
126.920273 120.0
126.99054 148.0
127.043816 256.0
127.45974 92.0
127.511047 176.0
127.782463 188.0
127.844276 176.0
127.988342 140.0
128.013123 144.0
128.062881 232.0
128.16629 152.0
128.319565 228.0
128.362396 60.0
128.592514 196.0
128.633148 168.0
128.669266 212.0
128.705383 212.0
128.721191 152.0
128.949371 48.0
129.042053 176.0
129.064667 180.0
129.146072 136.0
129.222992 136.0
129.327087 44.0
129.342941 48.0
129.405548 244.0
129.451614 152.0
129.524078 148.0
129.576187 176.0
129.621506 172.0
129.712158 120.0
129.748428 184.0
129.764297 100.0
129.898102 116.0
129.977509 200.0
129.99765 128.0
130.04007 164.0
130.07283 80.0
130.227234 220.0
130.331741 164.0
130.404465 132.0
130.488571 232.0
130.540863 144.0
130.779755 156.0
130.800247 144.0
130.859436 148.0
130.94368 88.0
130.991516 152.0
131.052429 256.0
131.232056 220.0
131.310623 136.0
131.369934 120.0
131.57077 180.0
131.991165 236.0
132.025467 136.0
132.055878 652.0
132.167297 328.0
132.467224 92.0
132.521118 188.0
132.690659 160.0
132.870941 196.0
132.956436 164.0
132.98085 108.0
133.02832 1048.0
133.062027 244.0
133.107117 148.0
133.139267 156.0
133.316162 88.0
133.362122 200.0
133.458679 164.0
133.598969 108.0
133.663391 48.0
133.763275 140.0
133.888992 88.0
133.978836 212.0
134.035858 1224.0
134.060852 80.0
134.091736 64.0
134.151672 140.0
134.562332 184.0
134.710129 212.0
134.751709 188.0
135.043304 468.0
135.091568 164.0
135.158661 104.0
135.262802 140.0
135.322998 84.0
135.390152 116.0
135.452682 60.0
135.90477 144.0
136.01152 128.0
136.049759 424.0
136.169403 168.0
136.19136 180.0
136.348297 116.0
136.366898 180.0
137.024567 196.0
137.058655 144.0
137.176926 140.0
137.281845 124.0
137.328903 116.0
137.487152 104.0
137.511398 216.0
137.531494 236.0
137.624878 112.0
137.793671 44.0
137.828094 100.0
137.882355 108.0
137.937927 112.0
138.237305 100.0
138.396484 208.0
138.51123 32.0
138.588547 192.0
138.635406 164.0
138.677597 252.0
138.805237 184.0
138.930847 124.0
139.027054 220.0
139.048477 188.0
139.102158 120.0
139.142075 108.0
139.391037 196.0
139.416901 184.0
139.482193 92.0
139.51091 124.0
139.654358 128.0
139.673172 80.0
139.769623 180.0
139.84964 176.0
140.059204 176.0
140.078049 116.0
140.135086 232.0
140.287781 116.0
140.455215 136.0
140.514191 220.0
140.544861 100.0
140.563736 160.0
140.747849 56.0
140.771469 104.0
140.953354 152.0
141.010071 132.0
141.071609 980.0
141.237061 104.0
141.277283 124.0
141.504471 136.0
141.606308 148.0
141.627625 64.0
141.813171 64.0
142.041977 164.0
142.078018 92.0
142.107849 140.0
142.600433 212.0
142.628952 100.0
142.724045 48.0
142.771606 248.0
143.076172 172.0
143.242874 128.0
143.381073 52.0
143.404907 124.0
143.469269 180.0
143.590881 140.0
143.677917 164.0
143.76503 140.0
143.786026 212.0
143.824707 112.0
144.254669 420.0
144.398148 148.0
144.546463 228.0
144.747543 160.0
144.874481 84.0
145.026718 1372.0
145.066772 148.0
145.169296 128.0
145.318008 156.0
145.406799 128.0
145.445206 160.0
145.596466 76.0
145.787125 224.0
145.881866 144.0
145.920868 116.0
145.964142 108.0
146.002625 216.0
146.034988 456.0
146.204712 200.0
146.562347 112.0
146.85762 128.0
146.932404 176.0
147.042633 936.0
147.11824 220.0
147.164108 60.0
147.293335 228.0
147.328339 64.0
147.356003 116.0
147.519257 104.0
147.640411 108.0
147.690933 140.0
147.824005 156.0
147.873764 148.0
148.051346 1424.0
148.073639 324.0
148.269608 144.0
148.344742 36.0
148.447662 80.0
148.708588 180.0
148.847672 96.0
148.907684 116.0
149.024277 216.0
149.058304 112.0
149.308701 52.0
149.432755 204.0
149.47168 132.0
149.534958 156.0
149.55687 124.0
149.615295 220.0
149.64975 132.0
149.727295 124.0
149.807678 140.0
149.863708 120.0
149.997757 176.0
150.031464 1932.0
150.061142 44.0
150.105026 120.0
150.170868 212.0
150.212341 72.0
150.234299 128.0
150.566254 48.0
150.650528 120.0
150.683502 72.0
150.8228 160.0
150.893692 176.0
150.954834 100.0
151.001297 104.0
151.038559 9472.0
151.073608 596.0
151.095551 108.0
151.126053 92.0
151.16275 48.0
151.199463 144.0
151.348785 32.0
151.463898 124.0
151.490845 72.0
151.525146 392.0
151.689331 148.0
151.890411 156.0
152.047424 620.0
152.05983 924.0
152.133347 76.0
152.182449 132.0
152.204559 172.0
152.383865 88.0
152.468033 224.0
152.521484 184.0
152.573105 124.0
152.619812 68.0
152.661621 128.0
152.742783 44.0
152.804291 92.0
152.833817 212.0
152.954407 112.0
153.04512 228.0
153.07132 1032.0
153.107056 132.0
153.294281 176.0
153.553146 76.0
153.703629 96.0
153.767792 100.0
153.822098 132.0
153.861588 116.0
153.987534 136.0
154.027054 148.0
154.044342 224.0
154.076538 256.0
154.190125 196.0
154.214828 56.0
154.279922 232.0
154.452209 156.0
154.498627 204.0
154.627884 228.0
154.734329 72.0
154.759079 188.0
155.014221 60.0
155.054626 156.0
155.086349 300.0
155.133179 32.0
155.172852 212.0
155.212524 84.0
155.311722 76.0
155.408478 120.0
155.438248 188.0
155.532562 204.0
155.57724 160.0
155.616974 148.0
155.711334 60.0
155.808212 68.0
155.917542 104.0
156.040894 148.0
156.0495 92.0
156.055283 156.0
156.074158 140.0
156.183578 172.0
156.300507 76.0
156.357742 48.0
156.494659 232.0
156.664017 192.0
156.748367 140.0
156.905746 72.0
156.990524 116.0
157.025452 140.0
157.061005 180.0
157.11525 148.0
157.195084 204.0
157.232529 148.0
157.304901 144.0
157.389801 148.0
157.632095 188.0
157.842072 188.0
158.064697 120.0
158.082214 120.0
158.104736 156.0
158.462814 92.0
158.487869 196.0
158.61319 152.0
158.738541 164.0
158.786194 156.0
158.971832 144.0
159.225403 204.0
159.288193 128.0
159.358536 148.0
159.386169 160.0
159.511841 188.0
159.594803 172.0
159.660187 212.0
159.861435 164.0
159.94751 180.0
159.984772 180.0
160.080444 164.0
160.15097 172.0
160.171112 192.0
160.304657 200.0
160.328476 152.0
160.357574 52.0
160.529007 212.0
160.559265 152.0
160.62233 172.0
160.730804 224.0
160.814087 200.0
160.990814 176.0
161.036285 128.0
161.058777 440.0
161.14238 152.0
161.197571 76.0
161.268738 152.0
161.387543 180.0
161.458359 96.0
161.519058 124.0
161.680984 156.0
161.830338 140.0
161.921753 176.0
161.979752 224.0
162.030426 100.0
162.064072 272.0
162.28894 92.0
162.410675 160.0
162.476624 100.0
162.547668 104.0
162.593353 112.0
162.611115 108.0
162.631424 76.0
162.730423 140.0
162.794891 88.0
162.854858 120.0
162.908203 184.0
162.966644 132.0
163.0392 2460.0
163.075058 312.0
163.228455 136.0
163.248795 132.0
163.622833 36.0
163.821472 184.0
164.042206 740.0
164.078629 164.0
164.310959 128.0
164.377304 152.0
164.538101 184.0
164.63768 200.0
164.760284 144.0
164.785843 176.0
164.893234 156.0
164.949402 172.0
165.046371 172.0
165.069473 636.0
165.231873 176.0
165.412399 132.0
165.535294 148.0
165.578827 212.0
165.640305 196.0
165.737656 252.0
165.868362 60.0
165.88887 148.0
166.07338 540.0
166.489273 188.0
166.538071 48.0
167.076157 320.0
167.240021 260.0
167.528412 112.0
167.628906 124.0
167.6521 120.0
167.876373 104.0
167.984634 144.0
168.055603 792.0
168.088501 176.0
168.467453 164.0
168.650909 152.0
168.689682 148.0
168.925003 164.0
168.953461 84.0
168.971573 96.0
169.065369 1080.0
169.113907 168.0
169.139786 124.0
169.419815 204.0
169.455734 52.0
169.712326 104.0
169.800491 68.0
169.849777 76.0
170.070618 456.0
170.202744 60.0
170.282898 180.0
170.33519 180.0
170.522278 144.0
170.644455 44.0
170.67305 164.0
170.704254 188.0
170.904541 132.0
170.940979 176.0
170.964401 156.0
171.07869 508.0
171.269012 68.0
171.352386 208.0
171.404495 56.0
171.43837 124.0
171.665161 220.0
171.71994 120.0
171.881683 204.0
171.988678 160.0
172.087494 156.0
172.229538 164.0
172.304657 56.0
172.352493 172.0
172.424866 208.0
172.529419 164.0
172.775253 124.0
173.020325 268.0
173.04744 112.0
173.212433 144.0
173.262207 96.0
173.353912 132.0
173.432541 72.0
173.6082 136.0
173.634415 176.0
173.757492 144.0
173.996536 216.0
174.038544 140.0
174.071152 212.0
174.16983 200.0
174.225021 152.0
174.603363 176.0
174.687698 188.0
174.79689 148.0
174.865051 156.0
175.014053 52.0
175.038101 436.0
175.135193 144.0
175.309082 88.0
175.443512 112.0
175.4646 80.0
175.554245 124.0
175.599075 136.0
175.810135 156.0
175.828613 72.0
175.884048 232.0
176.0466 4164.0
176.115158 40.0
176.214142 180.0
176.261703 156.0
176.415009 148.0
176.494324 72.0
176.65036 168.0
176.811768 124.0
176.954712 136.0
177.053223 1136.0
177.092407 28.0
177.155991 240.0
177.386536 52.0
177.545624 192.0
177.757843 180.0
177.813583 168.0
177.832153 104.0
178.027084 236.0
178.05368 496.0
178.077118 152.0
178.182678 96.0
178.234222 188.0
178.310226 164.0
178.387314 120.0
178.498978 136.0
178.725082 180.0
178.831528 148.0
178.874115 136.0
178.911392 160.0
178.945999 72.0
179.001907 132.0
179.052505 164.0
179.085037 112.0
179.161728 124.0
179.265015 172.0
179.366913 64.0
179.430893 104.0
179.620239 164.0
179.793671 112.0
179.887085 172.0
179.943146 72.0
180.025925 84.0
180.055679 144.0
180.092697 248.0
180.357224 120.0
180.534729 184.0
180.830643 148.0
180.927017 116.0
181.007339 132.0
181.06456 2444.0
181.125168 60.0
181.173401 32.0
181.226974 172.0
181.355606 132.0
181.409225 168.0
181.468201 56.0
181.497696 124.0
181.653259 80.0
181.677399 124.0
181.702576 228.0
181.991409 64.0
182.010208 224.0
182.072128 1652.0
182.125687 192.0
182.303009 132.0
182.410522 48.0
182.469666 196.0
182.561081 128.0
182.632812 180.0
182.684814 160.0
182.714401 164.0
182.948532 44.0
182.986237 200.0
183.049789 192.0
183.079529 1000.0
183.123566 32.0
183.207077 56.0
183.525101 164.0
183.627579 148.0
183.781342 200.0
183.856903 84.0
183.883881 132.0
184.013458 180.0
184.050446 1412.0
184.077713 192.0
184.118774 292.0
184.491653 40.0
184.51329 180.0
184.551132 180.0
184.778336 176.0
184.889267 128.0
184.911499 56.0
185.016495 200.0
185.06221 376.0
185.096436 220.0
185.439072 148.0
185.498703 168.0
185.531235 280.0
185.829559 148.0
185.851273 116.0
186.028137 188.0
186.061951 180.0
186.339996 136.0
186.426941 40.0
186.48674 200.0
186.508484 176.0
186.527512 192.0
186.579163 76.0
186.638977 164.0
186.720566 132.0
186.739594 104.0
186.864731 124.0
186.998077 156.0
187.134186 200.0
187.24855 116.0
187.327545 140.0
187.38475 148.0
187.480133 184.0
187.513824 132.0
187.594604 176.0
187.649124 132.0
188.04097 200.0
188.459763 224.0
188.809662 124.0
188.828812 88.0
188.888443 160.0
188.940964 76.0
188.960114 80.0
188.979263 148.0
189.053925 204.0
189.20369 272.0
189.573471 144.0
189.806473 88.0
189.909058 196.0
190.067062 232.0
190.186401 132.0
190.341553 200.0
190.388229 164.0
190.492264 160.0
190.976395 164.0
191.019714 160.0
191.185486 48.0
191.570969 44.0
191.752823 144.0
191.987167 96.0
192.052826 204.0
192.116806 68.0
192.254776 148.0
192.35965 152.0
192.481125 200.0
192.818161 176.0
192.862381 204.0
193.065964 232.0
193.291061 176.0
193.601105 180.0
193.633163 208.0
193.670334 176.0
193.786682 148.0
193.845078 216.0
194.013046 184.0
194.071671 132.0
194.269089 100.0
194.302383 92.0
194.382843 132.0
194.4328 136.0
194.466095 144.0
194.624268 160.0
194.749313 44.0
194.960464 104.0
195.044388 312.0
195.080948 692.0
195.21344 52.0
195.374756 156.0
195.558411 184.0
195.856354 212.0
195.888748 120.0
195.970566 76.0
196.050522 712.0
196.084091 508.0
196.157288 176.0
196.266022 80.0
196.578445 124.0
196.743195 160.0
196.804535 84.0
196.882736 72.0
196.905075 64.0
196.938583 164.0
196.974899 200.0
197.019592 84.0
197.05928 2860.0
197.09761 628.0
197.187256 252.0
197.231979 152.0
197.257141 120.0
197.510162 188.0
197.657074 68.0
197.847397 100.0
197.948196 84.0
198.066101 2604.0
198.100464 160.0
198.259155 96.0
198.340439 312.0
198.440048 120.0
198.64888 116.0
198.682556 76.0
198.789169 124.0
199.074112 1332.0
199.15976 124.0
199.189819 40.0
199.392975 188.0
199.450714 256.0
199.502594 200.0
199.525085 88.0
199.553192 84.0
199.575684 108.0
199.595367 72.0
199.907623 156.0
200.04834 220.0
200.085678 292.0
200.121552 204.0
200.183487 112.0
200.282074 84.0
200.34404 132.0
200.529449 200.0
200.899414 52.0
201.059418 344.0
201.094116 204.0
201.218323 184.0
201.390579 76.0
201.432938 152.0
201.534653 116.0
201.72966 212.0
201.947388 212.0
202.03508 204.0
202.066544 136.0
202.094116 152.0
202.558792 116.0
202.672119 160.0
202.910202 164.0
203.032135 172.0
203.069031 488.0
203.682098 236.0
204.062714 120.0
204.07843 208.0
204.159576 228.0
204.43631 128.0
204.469681 168.0
204.540848 196.0
204.629089 104.0
204.67749 116.0
204.731598 104.0
204.777924 152.0
205.013641 168.0
205.053543 104.0
205.189346 168.0
205.478424 132.0
205.561172 56.0
205.823776 156.0
205.903748 208.0
206.055145 304.0
206.073456 200.0
206.220886 100.0
206.358093 128.0
206.403839 148.0
206.558289 172.0
206.578308 64.0
206.798645 248.0
207.050018 120.0
207.079224 64.0
207.139374 152.0
207.204117 100.0
207.294098 212.0
207.331345 124.0
207.529144 344.0
207.684006 124.0
208.052475 1916.0
208.125244 128.0
208.272415 36.0
208.312637 172.0
208.82428 40.0
208.899063 148.0
208.968109 56.0
209.058655 2872.0
209.094421 176.0
209.122116 156.0
209.232895 112.0
209.371109 76.0
209.663269 216.0
210.016724 228.0
210.066238 1732.0
210.169617 32.0
210.227325 240.0
210.270615 240.0
210.35144 136.0
210.466919 96.0
210.52179 76.0
210.556442 168.0
210.611313 204.0
210.654648 188.0
210.778885 132.0
210.947922 140.0
211.034103 148.0
211.077087 4640.0
211.143127 32.0
211.281967 44.0
211.313797 68.0
211.545319 60.0
211.681396 48.0
211.852295 108.0
212.044434 504.0
212.081085 1248.0
212.129303 176.0
212.226166 76.0
212.332428 132.0
212.344391 52.0
212.355759 168.0
212.385666 52.0
212.64389 144.0
212.738724 72.0
212.780334 148.0
212.809357 196.0
212.838394 100.0
212.890671 84.0
212.945114 176.0
212.966187 36.0
213.049408 548.0
213.090286 6632.0
213.152115 172.0
213.173355 64.0
213.259644 144.0
213.33522 60.0
213.396271 36.0
213.425354 28.0
213.532944 140.0
213.596939 60.0
213.797699 68.0
213.902481 132.0
213.983994 152.0
214.030579 148.0
214.064972 636.0
214.094589 1196.0
214.311661 120.0
214.397614 184.0
214.592926 116.0
215.018814 152.0
215.068527 368.0
215.093246 156.0
215.223526 64.0
215.322449 56.0
215.445129 64.0
215.465576 68.0
215.550323 96.0
215.652603 96.0
215.719833 108.0
215.775375 92.0
215.798767 56.0
215.866028 116.0
215.904037 120.0
216.039459 200.0
216.067841 324.0
216.149765 192.0
216.386856 140.0
216.43663 120.0
216.457123 156.0
216.531052 180.0
216.817459 112.0
216.878998 32.0
216.990402 164.0
217.345306 132.0
217.445084 168.0
217.465622 160.0
217.732803 236.0
217.774673 140.0
217.904587 208.0
217.94725 32.0
218.197067 104.0
218.36174 56.0
218.411743 140.0
218.555908 216.0
218.65007 224.0
218.750153 44.0
218.785477 176.0
218.920914 196.0
219.047562 176.0
219.309814 28.0
219.766922 168.0
219.821304 232.0
220.051651 212.0
220.221542 212.0
220.330841 128.0
220.425385 140.0
220.723938 196.0
220.800827 156.0
220.922104 216.0
221.058151 556.0
221.534897 216.0
221.754166 108.0
221.85199 136.0
221.90535 120.0
221.970581 88.0
222.068924 204.0
222.742233 60.0
222.816513 148.0
222.852158 148.0
222.915558 168.0
222.98291 120.0
223.039093 240.0
223.076492 684.0
223.131546 52.0
223.173172 232.0
223.285751 196.0
223.348633 140.0
223.574753 140.0
223.80098 188.0
223.867691 140.0
223.896271 212.0
223.994568 120.0
224.045715 296.0
224.082214 1672.0
224.140549 120.0
224.170349 76.0
224.206116 196.0
224.262741 36.0
224.444809 56.0
224.656357 160.0
224.674942 148.0
224.874176 120.0
224.909042 212.0
225.051987 1400.0
225.088303 728.0
225.163864 148.0
225.298203 184.0
225.53302 76.0
225.896088 68.0
225.976074 76.0
226.0625 4444.0
226.10202 316.0
226.204865 132.0
226.351013 52.0
226.410355 160.0
226.443848 136.0
226.650558 44.0
226.725479 88.0
226.815399 180.0
226.85437 96.0
226.911331 52.0
226.998276 216.0
227.029373 444.0
227.071457 6472.0
227.130249 60.0
227.187241 144.0
227.367264 44.0
227.451309 72.0
227.514359 140.0
227.622437 116.0
227.672607 204.0
227.877762 112.0
228.075638 1964.0
228.313614 104.0
228.355728 196.0
228.379791 164.0
228.448975 124.0
228.680664 124.0
228.814941 112.0
228.844376 188.0
229.035965 124.0
229.081772 700.0
229.219742 76.0
229.418671 164.0
229.454849 152.0
229.500076 240.0
229.747391 140.0
229.785782 216.0
230.058228 120.0
230.819611 92.0
230.88916 116.0
230.961746 72.0
231.083466 188.0
231.151611 148.0
231.234055 68.0
231.270386 192.0
231.545898 56.0
231.733719 88.0
231.894318 72.0
232.415924 164.0
232.637482 156.0
233.393997 192.0
233.737717 388.0
233.80162 96.0
234.075607 148.0
234.139557 104.0
234.313187 132.0
234.462494 196.0
234.590515 104.0
234.752106 200.0
234.808411 192.0
234.935287 144.0
235.011383 152.0
235.037262 108.0
235.073959 484.0
235.167023 192.0
235.301331 164.0
235.337982 196.0
235.573135 156.0
235.710632 164.0
235.826752 192.0
235.939865 176.0
236.047455 2280.0
236.570068 140.0
236.777466 212.0
236.883713 152.0
236.937561 40.0
236.971268 136.0
237.053024 2524.0
237.155136 160.0
237.244034 192.0
237.342148 128.0
237.532288 196.0
237.564438 92.0
237.925095 120.0
237.946579 168.0
238.060043 1068.0
238.106262 68.0
238.140045 80.0
238.21376 200.0
238.290573 76.0
238.514908 212.0
238.589645 64.0
238.634796 68.0
238.746506 188.0
238.918655 204.0
238.97612 152.0
239.001953 152.0
239.069916 2484.0
239.139313 196.0
239.185471 48.0
239.235687 232.0
239.46875 60.0
239.536804 196.0
239.699799 172.0
239.795334 88.0
239.869324 128.0
239.930969 184.0
239.96489 180.0
240.008057 148.0
240.034927 140.0
240.077728 1696.0
240.128113 172.0
240.196182 176.0
240.260956 112.0
240.36586 324.0
240.405975 92.0
240.449188 196.0
240.532562 164.0
240.643661 72.0
240.736298 96.0
240.764099 112.0
240.789276 180.0
240.921616 32.0
240.959534 204.0
241.014313 172.0
241.087158 5960.0
241.138885 128.0
241.224472 72.0
241.301758 252.0
241.356674 168.0
241.580093 60.0
241.740982 116.0
241.818359 44.0
241.926697 348.0
242.049896 96.0
242.08963 1344.0
242.13588 216.0
242.186813 56.0
242.772583 36.0
242.843903 112.0
243.049957 144.0
243.094376 292.0
243.293854 56.0
243.477051 136.0
243.638565 152.0
243.765961 100.0
243.804321 152.0
243.912033 192.0
243.943115 192.0
244.020844 92.0
244.083023 160.0
244.170105 56.0
244.275543 200.0
244.306961 192.0
244.406525 144.0
244.932663 60.0
245.091553 196.0
245.384537 160.0
245.618423 220.0
245.846191 152.0
245.902374 152.0
245.992889 52.0
246.145874 144.0
246.311401 100.0
246.930283 96.0
247.218094 220.0
247.321381 168.0
248.029282 148.0
248.207993 136.0
248.389893 140.0
248.452942 180.0
248.697388 96.0
248.851212 124.0
248.882614 168.0
248.920303 56.0
248.954834 92.0
249.055344 136.0
249.162155 92.0
249.297256 236.0
249.432404 56.0
249.699677 36.0
249.75943 152.0
249.860092 68.0
249.945053 152.0
250.004837 128.0
250.062241 184.0
250.133881 108.0
250.177948 56.0
250.25351 36.0
250.355713 44.0
250.477112 168.0
250.505463 156.0
250.685059 68.0
250.722275 104.0
250.830032 184.0
250.902542 192.0
250.924606 124.0
250.956146 132.0
250.99968 152.0
251.070923 25536.0
251.151108 136.0
251.217911 76.0
251.243149 108.0
251.293625 108.0
251.331482 80.0
251.385651 180.0
251.429214 132.0
251.50177 92.0
251.552414 104.0
251.609238 140.0
251.694489 80.0
251.781601 136.0
251.820404 96.0
251.866867 144.0
251.991394 104.0
252.02298 160.0
252.076523 8832.0
252.164398 32.0
252.209442 92.0
252.284546 192.0
252.357498 160.0
252.449722 228.0
252.509811 76.0
252.536469 84.0
252.658478 44.0
252.699615 52.0
252.74707 292.0
252.971786 72.0
253.03244 224.0
253.084702 3040.0
253.130096 48.0
253.164917 72.0
253.196594 116.0
253.222656 84.0
253.288452 152.0
253.404373 148.0
253.434174 48.0
253.45636 172.0
253.490067 88.0
253.531754 156.0
253.564102 52.0
253.586288 76.0
253.617981 36.0
253.645035 188.0
253.744781 184.0
253.790649 164.0
253.820877 40.0
253.849426 68.0
253.916016 100.0
254.056854 2060.0
254.091248 388.0
254.296753 140.0
254.341187 232.0
254.38562 172.0
254.417374 200.0
254.445938 116.0
254.571777 76.0
254.623764 224.0
254.78894 196.0
254.827072 124.0
254.871552 84.0
254.929657 60.0
254.989136 40.0
255.064636 4444.0
255.135345 44.0
255.294327 148.0
255.415192 76.0
255.504257 120.0
255.73558 116.0
255.781128 92.0
255.806595 72.0
255.879807 172.0
255.944977 188.0
255.978516 60.0
256.071594 836.0
256.127075 168.0
256.268372 68.0
256.344849 208.0
256.488281 212.0
256.590485 120.0
256.890076 160.0
256.988953 160.0
257.032562 224.0
257.067291 168.0
257.11792 1412.0
257.187286 108.0
257.27301 92.0
257.305481 48.0
257.614716 176.0
257.736115 220.0
257.97583 204.0
258.053436 280.0
258.122223 544.0
258.174072 220.0
258.463165 224.0
258.554932 156.0
258.653992 68.0
258.714813 40.0
258.804474 140.0
259.132721 224.0
259.156799 132.0
259.509369 76.0
259.573486 132.0
259.842926 64.0
259.95462 260.0
260.038666 28.0
260.113434 124.0
260.144592 64.0
260.295502 140.0
260.385406 48.0
260.693817 192.0
260.80954 176.0
260.868042 176.0
261.111755 140.0
261.29834 108.0
261.462433 252.0
261.504272 156.0
262.061401 160.0
262.119385 40.0
262.383698 80.0
262.932037 160.0
262.996613 68.0
263.064392 148.0
263.141876 160.0
263.591888 136.0
263.807404 164.0
264.04184 1136.0
264.137238 160.0
264.1987 184.0
264.295746 100.0
264.580566 120.0
264.630249 208.0
264.761902 112.0
265.014557 104.0
265.051544 1388.0
265.212646 164.0
265.299774 168.0
265.471619 184.0
265.496338 52.0
265.80249 36.0
265.883636 56.0
265.951782 136.0
266.05722 1388.0
266.175812 144.0
266.263489 120.0
266.286224 76.0
266.461639 88.0
266.750244 84.0
266.936188 32.0
267.007721 176.0
267.065186 2976.0
267.196381 56.0
267.307037 32.0
267.418671 124.0
267.547882 36.0
267.573914 92.0
267.606476 44.0
267.660461 124.0
267.683685 248.0
267.73349 160.0
267.837097 132.0
267.951721 212.0
268.032745 144.0
268.071411 3528.0
268.162933 132.0
268.199371 48.0
268.290649 64.0
268.351288 144.0
268.375427 32.0
268.535217 220.0
268.698334 176.0
268.747253 108.0
268.783142 124.0
268.810394 268.0
268.874542 160.0
268.943085 240.0
268.982239 68.0
269.039581 240.0
269.081726 33112.0
269.187927 36.0
269.223206 140.0
269.287811 204.0
269.31427 196.0
269.390442 68.0
269.430176 96.0
269.457581 116.0
269.505737 96.0
269.587982 192.0
269.625671 56.0
269.652985 56.0
269.732513 88.0
269.781403 88.0
269.833496 60.0
269.90683 44.0
269.962402 72.0
269.997131 124.0
270.085907 7000.0
270.137787 220.0
270.168152 112.0
270.194641 60.0
270.260071 36.0
270.315704 32.0
270.345154 32.0
270.385712 72.0
270.411835 120.0
270.462982 204.0
270.505554 40.0
270.613586 56.0
270.665955 56.0
270.801086 124.0
270.859192 48.0
270.954193 116.0
271.034424 108.0
271.084747 1140.0
271.170471 68.0
271.300049 120.0
271.350769 52.0
271.38028 80.0
271.413055 104.0
271.458954 184.0
271.495056 76.0
271.613129 116.0
271.709534 120.0
271.780426 144.0
271.803406 160.0
271.894714 236.0
271.954376 72.0
272.023285 80.0
272.065979 168.0
272.087738 248.0
272.187439 52.0
272.295837 68.0
272.450195 140.0
272.564392 80.0
272.755829 48.0
273.058319 104.0
273.130676 132.0
273.232666 56.0
273.337952 84.0
273.469574 160.0
273.792236 104.0
273.848236 160.0
274.10849 160.0
274.213959 48.0
274.761322 128.0
275.223419 124.0
275.494232 60.0
275.566925 56.0
275.811462 108.0
275.88089 212.0
276.003204 180.0
276.075958 84.0
276.284332 152.0
276.307495 96.0
276.737762 88.0
276.767578 172.0
276.943085 76.0
277.70874 148.0
277.778381 160.0
278.04715 180.0
278.515289 220.0
278.674774 152.0
278.715393 176.0
278.801025 160.0
278.867493 72.0
278.924011 204.0
279.065399 7808.0
279.176697 52.0
279.269806 72.0
279.315887 184.0
279.469421 172.0
279.515991 152.0
279.771362 200.0
279.880066 88.0
279.938751 252.0
279.965393 216.0
280.07251 6460.0
280.126312 196.0
280.195251 156.0
280.22522 88.0
280.251892 92.0
280.308533 52.0
280.431824 56.0
280.535156 68.0
280.601837 96.0
280.658539 48.0
280.701874 104.0
280.748566 80.0
280.805267 196.0
280.863342 116.0
280.891541 120.0
280.943512 116.0
281.01712 176.0
281.079498 5028.0
281.15979 120.0
281.24234 96.0
281.385895 112.0
281.422607 52.0
281.482239 56.0
281.627441 96.0
281.709839 88.0
281.753723 180.0
281.827911 100.0
281.933685 80.0
281.967133 144.0
281.989899 64.0
282.013916 52.0
282.055573 588.0
282.087006 1852.0
282.191101 44.0
282.241241 136.0
282.339661 112.0
282.478699 44.0
282.582397 148.0
282.67276 68.0
282.739685 72.0
282.763123 172.0
282.81665 172.0
282.934937 84.0
283.060272 4508.0
283.235199 36.0
283.32901 92.0
283.382599 40.0
283.412781 80.0
283.490875 96.0
283.600433 72.0
283.627258 56.0
283.684235 68.0
283.707703 148.0
283.734528 132.0
283.759735 124.0
283.801575 72.0
283.905548 48.0
284.062012 1364.0
284.120209 92.0
284.157104 96.0
284.187317 40.0
284.234283 80.0
284.277893 60.0
284.495422 164.0
284.647156 188.0
284.734467 60.0
284.77478 96.0
285.07016 344.0
285.104553 204.0
285.151093 52.0
285.26535 56.0
285.406586 140.0
285.460358 56.0
285.641998 64.0
285.699188 32.0
286.112213 192.0
286.278107 56.0
286.604858 64.0
286.63855 52.0
286.793579 80.0
286.91156 116.0
287.714508 48.0
287.82254 120.0
288.599701 48.0
288.690979 152.0
288.74173 152.0
288.795837 144.0
288.937927 68.0
289.046173 80.0
289.740295 32.0
289.94632 100.0
290.062225 56.0
290.20462 184.0
290.431824 100.0
290.733795 68.0
290.822021 112.0
292.365051 156.0
293.03244 108.0
293.144897 232.0
293.281219 80.0
293.468719 160.0
293.496002 124.0
293.717651 100.0
294.1203 124.0
294.165039 200.0
294.403687 52.0
294.813629 72.0
294.923004 76.0
295.059998 1220.0
295.161316 236.0
295.411987 40.0
295.514618 172.0
295.572784 100.0
295.706268 168.0
295.761017 104.0
295.869781 192.0
295.918488 200.0
295.973114 192.0
295.981537 156.0
296.028076 48.0
296.065277 304.0
296.103424 64.0
296.240814 144.0
296.27124 128.0
296.408295 80.0
296.500824 48.0
296.531677 36.0
296.593384 108.0
296.619843 128.0
296.694275 168.0
296.764771 264.0
296.836792 140.0
296.904938 152.0
296.965271 188.0
296.996307 212.0
297.020996 456.0
297.07605 50984.0
297.153748 380.0
297.197906 108.0
297.24057 56.0
297.284546 48.0
297.320282 192.0
297.364258 192.0
297.416595 72.0
297.442413 92.0
297.45636 96.0
297.486816 132.0
297.553711 132.0
297.661346 236.0
297.737396 64.0
297.794067 120.0
297.813263 84.0
297.852661 76.0
297.897339 88.0
297.951385 164.0
297.976868 80.0
298.024445 212.0
298.080383 10776.0
298.156128 100.0
298.18161 164.0
298.216888 40.0
298.240967 56.0
298.300262 80.0
298.354401 68.0
298.440338 52.0
298.529755 108.0
298.557251 52.0
298.629486 72.0
298.660431 64.0
298.715485 244.0
298.739563 56.0
298.76709 116.0
298.93512 100.0
299.082764 2148.0
299.15387 112.0
299.211029 56.0
299.307434 52.0
299.362549 56.0
299.40387 76.0
299.496857 72.0
299.520966 132.0
299.641541 136.0
299.703552 108.0
299.738007 64.0
299.82074 44.0
299.871704 76.0
299.967133 84.0
300.022522 96.0
300.073395 520.0
300.097809 124.0
300.136719 184.0
300.187103 172.0
300.230988 84.0
300.3013 132.0
300.307648 172.0
300.433838 64.0
300.562134 84.0
300.73468 80.0
300.907288 96.0
301.06958 76.0
301.207733 68.0
301.276825 60.0
301.322388 64.0
301.484161 52.0
301.653503 80.0
301.805634 40.0
302.269135 76.0
302.608337 52.0
302.965057 72.0
303.15564 56.0
303.827148 72.0
304.800476 72.0
304.838715 108.0
305.593262 48.0
305.676758 76.0
306.157166 152.0
307.324921 44.0
308.155914 132.0
308.631256 132.0
308.883057 120.0
309.499023 132.0
309.782715 172.0
310.571411 88.0
310.750305 124.0
310.918762 80.0
311.835419 124.0
312.053345 148.0
312.17926 84.0
312.243256 108.0
312.267853 156.0
312.317108 184.0
312.341736 140.0
312.72879 140.0
312.894226 176.0
313.003387 132.0
313.031555 188.0
313.056213 264.0
313.107452 17932.0
313.175323 348.0
313.228546 128.0
313.359131 92.0
313.419037 64.0
313.485962 52.0
313.623413 68.0
313.655151 64.0
313.789124 52.0
313.827881 100.0
313.860474 132.0
313.914124 96.0
313.982483 176.0
314.046539 112.0
314.111481 3780.0
314.289948 40.0
314.335815 72.0
314.371124 80.0
314.402893 36.0
314.431122 96.0
314.455811 48.0
314.653503 52.0
314.74176 76.0
314.904205 92.0
314.996063 48.0
315.063171 100.0
315.114502 764.0
315.497864 120.0
315.543823 68.0
315.823181 92.0
315.936371 88.0
315.968231 64.0
315.992981 100.0
316.116028 160.0
316.14035 112.0
316.185364 120.0
316.215912 44.0
316.273407 128.0
316.304413 60.0
316.332733 60.0
316.41568 148.0
316.927734 56.0
317.094269 56.0
317.154541 88.0
317.384979 152.0
317.445251 80.0
318.190369 88.0
318.218781 52.0
318.293335 76.0
319.462677 40.0
321.736328 68.0
327.110077 84.0
327.967377 36.0
328.746399 112.0
329.884125 64.0
332.179993 128.0
335.511108 88.0
336.463318 84.0
340.274567 68.0
340.630798 112.0
359.720734 48.0
365.896332 48.0
367.31015 44.0
371.061737 100.0
379.412506 56.0
380.083496 148.0
381.796631 88.0
384.57843 48.0
388.856415 96.0
394.619598 60.0
398.813782 92.0
400.170319 124.0
401.525177 56.0
405.924194 116.0
406.8992 68.0
410.919891 80.0
411.28714 48.0
414.4375 96.0
416.746216 88.0
416.95752 124.0
419.497406 144.0
422.004089 28.0
423.936157 56.0
425.059753 100.0
428.624878 100.0
437.33847 52.0
440.695526 152.0
455.066925 124.0
456.120483 124.0
464.048218 36.0
466.753265 88.0
468.52655 48.0
472.662811 104.0
477.878326 152.0
483.805115 60.0
488.769104 108.0
492.962646 48.0
493.121765 56.0
493.908783 44.0
503.75943 56.0
503.839844 68.0
504.317993 72.0
511.33725 36.0
512.728882 48.0
515.612793 56.0
515.784546 92.0
517.263672 116.0
521.486572 120.0
525.019531 80.0
528.724609 100.0
528.774963 108.0
530.643921 76.0
536.934509 52.0
539.515625 104.0
539.709839 60.0
555.202942 80.0
561.217285 64.0
562.075745 40.0
566.10321 124.0
568.055969 92.0
569.731689 136.0
578.233704 40.0
578.267151 72.0
584.164307 120.0
587.150635 84.0
603.207764 48.0
610.434631 40.0
618.441711 40.0
620.398376 40.0
620.467773 64.0
632.288147 72.0
633.454773 108.0
644.659668 88.0
649.24115 72.0
654.378418 96.0
656.370605 88.0
656.850037 56.0
663.451904 64.0
665.981689 88.0
667.595459 20.0
677.143066 112.0
683.070618 64.0
684.824707 76.0
686.549805 44.0
692.623047 64.0
693.031677 64.0
698.733521 72.0
699.08606 76.0
699.533447 68.0
706.213684 120.0
711.83667 72.0
727.877869 76.0
730.263916 76.0
747.141235 36.0
775.803772 92.0
776.796387 68.0
780.239502 204.0
784.169434 88.0
785.580139 128.0
788.371826 56.0
796.52948 204.0
797.754517 44.0
798.243652 120.0
802.105896 84.0
809.127747 80.0
832.64978 48.0
847.845947 68.0
850.362976 108.0
854.901917 48.0
868.708374 168.0
873.154785 40.0
909.530518 180.0
935.95636 44.0
939.192444 60.0
941.762085 144.0
946.3302 48.0
954.533875 188.0
954.958252 156.0
955.19812 40.0
957.235291 36.0
960.631226 212.0
964.595642 160.0
970.191772 48.0
971.661621 104.0
971.760864 60.0
973.306396 252.0
975.630066 60.0
977.346619 104.0
996.083435 116.0
1002.154358 60.0
1004.341858 104.0
1011.247803 40.0
1020.941895 76.0
1021.597046 112.0
1035.358398 72.0
1036.562744 112.0
1052.547607 104.0
1053.522827 164.0
1067.646362 80.0
1090.358276 88.0
1090.535767 80.0
1093.469116 156.0
1097.586304 124.0
1098.978027 68.0
1100.595215 48.0
1104.838257 208.0
1111.941528 236.0
1120.239746 128.0
1122.232422 168.0
1124.567261 216.0
1135.182129 88.0
1146.700439 20.0
1152.395874 188.0
1153.673218 108.0
1172.072876 108.0
1181.631714 68.0
1182.10376 60.0
1196.47644 152.0
1198.556396 228.0
1199.169678 52.0
1200.879639 72.0
1203.501953 72.0
1205.726196 180.0
1208.298462 176.0
1212.023438 188.0
1216.878662 228.0
1217.697998 136.0
1217.795288 256.0
1218.253784 116.0
1227.677856 132.0
1231.01355 120.0
1231.09729 204.0
1235.276855 156.0
1235.738647 200.0
1237.208374 216.0
1238.377686 80.0
1240.346558 120.0
1242.597656 220.0
1247.443359 116.0
1248.751221 64.0
1252.861938 132.0
1261.195679 244.0
1263.996216 88.0
1266.679443 184.0
1268.302124 144.0
1272.814209 208.0
1273.765869 84.0
1280.494385 152.0
1294.19812 124.0
1296.934692 104.0
1297.730469 188.0
1298.020264 192.0
1299.509155 212.0
1300.07605 184.0
1302.969727 60.0
1303.02002 52.0
1304.442871 224.0
1306.888062 120.0
1309.040283 208.0
1317.074463 124.0
1318.613403 88.0
1321.216553 192.0
1321.52771 168.0
1322.229614 156.0
1326.270996 148.0
1326.423218 224.0
1334.008911 164.0
1337.762573 152.0
1340.836304 252.0
1341.732788 164.0
1344.76001 48.0
1346.183594 200.0
1349.084229 192.0
1354.38208 80.0
1354.565186 200.0
1357.23291 192.0
1361.187866 112.0
1367.775269 140.0
1367.856201 116.0
1368.018188 60.0
1382.936035 156.0
1386.09082 184.0
1388.166382 100.0
1388.915405 100.0
1390.28064 72.0
1394.40979 116.0
1394.469238 48.0
1395.643799 176.0
1395.911499 156.0
1401.233398 188.0
1412.969604 112.0
1418.098999 100.0
1418.788696 124.0
1420.10083 128.0
1420.190918 100.0
1420.745972 172.0
1421.73645 160.0
1422.291748 208.0
1423.748291 248.0
1424.078735 188.0
1425.183105 212.0
1426.250244 64.0
1426.475708 108.0
1427.340332 108.0
1430.688354 152.0
1432.842285 64.0
1437.501953 96.0
1438.490601 48.0
1439.728882 148.0
1441.123047 200.0
1443.301636 104.0
1443.393921 68.0
1443.711426 160.0
1443.83252 180.0
1445.103271 124.0
1445.602661 160.0
1446.026489 132.0
1446.094604 172.0
1446.62439 200.0
1447.071167 124.0
1447.744995 144.0
1448.244873 100.0
1454.060059 108.0
1459.453613 192.0
1461.256104 232.0
1462.534546 144.0
1463.866943 136.0
1465.245483 184.0
1469.598877 160.0
1470.178833 156.0
1472.973267 184.0
1479.174683 156.0
1480.24646 132.0
1484.905884 192.0
1488.474365 148.0
1488.620239 220.0
1488.704712 256.0
1491.216919 220.0
1491.462769 188.0
