>compound Cladribine
>formula C10H12ClN5O3
>ionization [M+H]+
>parentmass 286.070221
#inchi InChI=1S/C10H12ClN5O3/c11-10-14-8(12)7-9(15-10)16(3-13-7)6-1-4(18)5(2-17)19-6/h3-6,17-18H,1-2H2,(H2,12,14,15)/t4-,5+,6+/m0/s1
#inchikey PTOAARAWEBMLNO
#Ion_Source LC-ESI
#Instrument qTof
#Compound_Source Commercial
#PI Dorrestein
#Data_Collector Garg_Neha
#Scan -1
#Precursor_MZ 286.07
#ExactMass 285.063
#Charge 1
#CAS_Number 4291-63-8
#Pubmed_ID N/A
#Smiles N1=C(C2=C(N=C1Cl)N(C=N2)[C@H]3C[C@@H]([C@H](O3)CO)O)N
#INCHI_AUX N/A
#Library_Class 1
#SpectrumID CCMSLIB00000078043
#IonMode Positive
#UpdateWorkflowName UPDATE-SINGLE-ANNOTATED-GOLD
#LibraryQualityString Gold
#TaskID 77f51c88eb8b467eb4a01dd2d0cb90d2
##Scan# 1029
#SpectrumFile Plate1_21_40_GG2_01_16489.mzXML
#LibraryName FDALibrary_2_04302014.mgf
#MQScore -1
#Organism FDALibrary_2_04302014
#TIC_Query 0
#RT_Query -1
#MZErrorPPM -1
#SharedPeaks 0
#MassDiff 0
#LibMZ -1
#SpecMZ 286.07
#SpecCharge 0
#internalFilename spec-00000.mgf

>collision 10
45.083633 204.0
45.46666 232.0
45.512302 228.0
45.635921 224.0
45.966667 156.0
46.130718 244.0
47.419807 232.0
48.03997 164.0
48.120014 152.0
48.135204 176.0
48.407627 144.0
48.500458 164.0
48.947823 236.0
49.071835 184.0
50.302238 192.0
51.016228 152.0
51.707848 140.0
51.852711 224.0
52.210201 180.0
52.698883 144.0
53.436901 148.0
55.13652 188.0
55.157215 152.0
55.745094 112.0
56.697769 176.0
57.692745 140.0
58.097103 144.0
58.807747 216.0
59.01704 244.0
59.578003 148.0
59.660992 192.0
59.896442 220.0
60.478584 220.0
61.05732 148.0
61.601315 156.0
61.790482 200.0
61.978374 188.0
62.405315 172.0
62.458786 164.0
62.956848 152.0
63.325356 140.0
63.739426 160.0
63.946171 156.0
63.979599 216.0
64.075157 148.0
64.158035 160.0
64.375038 164.0
64.512444 168.0
65.013802 144.0
66.075706 140.0
66.142052 172.0
66.462952 184.0
66.613945 180.0
66.74234 216.0
67.356773 156.0
69.387627 160.0
69.404205 200.0
70.130714 224.0
70.249107 188.0
72.251709 240.0
72.733223 144.0
73.464729 160.0
74.249863 172.0
74.650017 184.0
74.94265 176.0
75.037445 180.0
75.209961 156.0
75.782394 192.0
76.091125 200.0
76.245728 204.0
76.663406 172.0
77.169632 172.0
77.503952 180.0
78.461868 164.0
78.738914 184.0
79.562317 176.0
79.731071 180.0
81.874428 164.0
82.327103 212.0
82.942268 140.0
82.996658 144.0
83.539719 188.0
84.404243 168.0
85.81813 156.0
86.27047 160.0
86.833389 144.0
87.355347 220.0
87.586174 200.0
88.728012 172.0
89.694298 212.0
90.779564 228.0
91.376007 168.0
91.859917 172.0
92.039322 176.0
93.615631 152.0
94.482307 208.0
95.255821 172.0
95.784943 168.0
95.89016 160.0
96.092964 140.0
96.110527 172.0
96.313568 180.0
99.044556 564.0
99.113235 172.0
99.548958 184.0
101.214775 148.0
102.05352 180.0
102.399651 152.0
102.512474 152.0
102.574959 184.0
103.725174 144.0
103.767746 180.0
104.73896 160.0
105.169411 240.0
105.984581 196.0
106.301208 176.0
106.525009 140.0
107.035988 328.0
107.138069 148.0
107.699173 204.0
109.021042 184.0
109.430832 160.0
109.897728 184.0
109.92485 168.0
110.38443 168.0
110.643883 156.0
111.027351 196.0
111.222481 152.0
112.709373 168.0
112.730507 164.0
113.568916 180.0
113.691978 144.0
114.201889 212.0
114.369987 192.0
114.478569 164.0
114.738525 140.0
114.939026 208.0
115.060692 152.0
115.413231 160.0
116.555748 272.0
116.719116 160.0
117.016052 172.0
117.055298 1728.0
117.149574 208.0
117.827003 148.0
118.056129 192.0
118.348259 180.0
118.430557 160.0
118.85331 144.0
120.250473 152.0
120.490685 176.0
121.572388 204.0
121.651405 236.0
123.663971 216.0
124.195755 188.0
125.12912 164.0
126.652168 164.0
127.943428 156.0
128.89978 164.0
129.00827 192.0
130.20015 192.0
130.579697 164.0
130.636566 184.0
130.827728 220.0
131.0327 148.0
131.274323 156.0
131.310806 152.0
133.061417 196.0
133.776413 148.0
134.018234 164.0
134.046814 7840.0
135.029129 284.0
135.04863 316.0
136.353241 200.0
136.632278 168.0
136.79985 184.0
138.359344 144.0
138.938232 140.0
139.995987 172.0
140.113754 204.0
140.380112 172.0
140.564117 148.0
141.145218 148.0
142.660278 240.0
145.969452 152.0
146.106552 140.0
146.655609 160.0
147.39653 140.0
148.139313 148.0
149.562317 140.0
149.705963 140.0
150.527786 176.0
150.652359 172.0
151.005981 144.0
151.994095 208.0
152.011276 220.0
152.056122 2024.0
153.060928 160.0
153.326996 224.0
153.526688 236.0
153.936356 156.0
154.000565 200.0
155.26532 260.0
155.393448 220.0
156.351028 172.0
156.973831 140.0
157.477966 196.0
157.797836 232.0
158.711761 160.0
158.751877 176.0
160.209747 168.0
162.543488 160.0
164.230255 184.0
164.424164 184.0
165.761688 160.0
166.983444 112.0
167.725281 140.0
168.202499 168.0
168.507233 164.0
169.065781 188.0
169.164139 152.0
169.659851 240.0
169.752289 196.0
169.78418 204.0
169.810181 112.0
169.934052 224.0
169.959335 192.0
169.993668 444.0
170.023239 51336.0
170.147888 104.0
171.025452 2992.0
171.686096 168.0
171.778442 208.0
171.841049 144.0
172.019714 13220.0
172.473053 172.0
173.020508 480.0
177.53363 192.0
182.164688 140.0
182.312454 176.0
189.046509 160.0
189.882111 184.0
191.966751 164.0
192.977402 176.0
193.996246 168.0
194.977585 184.0
203.122009 144.0
205.195221 144.0
205.643097 180.0
209.122757 212.0
219.554001 156.0
223.502884 236.0
226.994919 176.0
233.098923 172.0
236.713837 196.0
243.231781 208.0
244.990814 180.0
247.973007 172.0
249.206299 156.0
250.074265 140.0
261.240875 176.0
265.251709 180.0
284.295746 216.0
285.155548 304.0
285.214203 248.0
285.276886 176.0
286.070221 4312.0
286.282318 360.0
287.07309 304.0
287.21402 116.0
287.762939 224.0
288.068817 1128.0
288.127686 168.0
289.061005 148.0
289.128601 140.0
289.186646 140.0
869.296509 216.0
1150.558594 152.0
1250.27478 196.0
1260.86084 224.0
1280.542358 164.0
1298.546753 152.0
1312.700439 144.0
1317.933838 144.0
1376.98645 140.0
1401.191895 312.0
1408.81665 152.0
1429.706909 192.0
1478.071777 204.0
1491.493286 160.0
1531.615601 152.0
1554.86145 156.0
1577.135864 168.0
1591.427612 236.0
1603.224609 180.0
1616.201294 204.0
1622.697144 192.0
1629.06958 172.0
1631.432251 144.0
1648.665527 168.0
1663.114868 160.0
1674.245605 140.0
1693.815796 212.0
1710.180908 240.0
1715.345703 164.0
1730.953003 184.0
1733.189575 200.0
1741.859497 168.0
1748.652832 152.0
1758.037231 248.0
1760.525024 148.0
1768.208374 144.0
1772.739136 220.0
1813.031494 212.0
1821.185059 156.0
1825.919312 140.0
1832.039551 168.0
1838.067627 148.0
1846.508179 140.0
1856.477173 188.0
1862.83728 160.0
1872.97937 156.0
1877.487183 224.0
1881.663696 176.0
1882.639404 180.0
1883.63269 204.0
1895.130615 180.0
1899.890503 148.0
1926.783936 172.0
1934.821411 144.0
1937.588989 188.0
1938.833252 156.0
1949.039185 180.0
1952.045532 240.0
1953.004272 160.0
1954.315063 192.0
1968.268677 200.0
1969.019287 228.0
1970.026245 160.0
1977.861206 168.0
1980.021606 176.0
1985.03772 176.0
2001.192261 160.0
