>compound MLS000859924-01!Aminoglutethimide
>formula C13H16N2O2
>ionization [M+H]+
>parentmass 233.12845420409053
#inchi InChI=1S/C13H16N2O2/c1-2-13(8-7-11(16)15-12(13)17)9-3-5-10(14)6-4-9/h3-6H,2,7-8,14H2,1H3,(H,15,16,17)
#inchikey ROBVIMPUHSLWNV
#Ion_Source LC-ESI
#Instrument qTof
#Compound_Source NIH Pharmacologically Active Library
#PI Dorrestein
#Data_Collector VP/LMS
#Scan -1
#Precursor_MZ 233.131
#ExactMass 232.121
#Charge 1
#CAS_Number N/A
#Pubmed_ID N/A
#Smiles CCC1(CCC(=O)NC1=O)c2ccc(N)cc2
#INCHI_AUX N/A
#Library_Class 1
#SpectrumID CCMSLIB00000086180
#IonMode Positive
#UpdateWorkflowName UPDATE-SINGLE-ANNOTATED-GOLD
#LibraryQualityString Gold
#TaskID d252d724072548979f1f6f1ced849daf
##Scan# 1112
#SpectrumFile p5-H04_GH4_01_18479.mzXML
#LibraryName Pharm_Active_Library.mgf
#MQScore -1
#Organism Pharm_Active_Library
#TIC_Query 0
#RT_Query -1
#MZErrorPPM -1
#SharedPeaks 0
#MassDiff 0
#LibMZ -1
#SpecMZ 233.131
#SpecCharge 0
#internalFilename spec-00000.mgf

>collision 10
44.96735 144.0
45.075523 172.0
45.11562 52.0
45.383389 164.0
45.645229 188.0
45.727676 196.0
46.11573 128.0
46.317337 136.0
46.61718 240.0
46.648438 192.0
46.867558 124.0
46.920712 112.0
47.027115 156.0
47.279957 268.0
47.394985 232.0
47.566418 180.0
47.724411 148.0
48.267685 380.0
48.425453 116.0
48.475327 200.0
48.568214 216.0
49.504803 148.0
49.52301 112.0
49.561691 208.0
49.626709 164.0
49.906124 124.0
50.152485 104.0
50.460228 180.0
50.546509 236.0
50.579063 148.0
50.637115 160.0
50.668278 156.0
50.969074 176.0
51.030193 72.0
51.068588 168.0
51.226009 148.0
51.266483 104.0
51.413372 116.0
51.918381 200.0
51.929855 224.0
52.064762 108.0
52.69569 108.0
52.870659 172.0
52.969116 124.0
53.124226 248.0
53.420574 136.0
53.467136 216.0
53.525364 160.0
54.263241 132.0
54.336575 188.0
54.382065 176.0
54.625984 204.0
54.671597 48.0
54.776134 232.0
54.896992 204.0
55.07114 152.0
55.106594 56.0
55.147972 156.0
55.347649 140.0
55.537384 196.0
55.553699 84.0
55.826996 100.0
55.911793 112.0
56.462307 112.0
56.570038 156.0
56.800808 256.0
56.82021 180.0
56.842815 176.0
57.024532 188.0
57.27129 200.0
57.758835 76.0
58.007175 132.0
58.213516 148.0
58.262123 232.0
58.35939 156.0
58.775219 224.0
59.181805 124.0
59.292099 96.0
59.617451 156.0
59.882404 72.0
59.914417 164.0
59.968349 200.0
60.243015 56.0
60.425442 68.0
60.566315 140.0
60.80043 224.0
60.819057 236.0
61.143894 132.0
61.721092 160.0
61.958996 72.0
62.214626 200.0
62.257019 136.0
62.337139 52.0
62.983093 128.0
63.085663 204.0
63.627613 124.0
63.939167 140.0
64.344048 168.0
64.886414 136.0
65.003502 180.0
65.022758 200.0
65.062889 92.0
65.299103 132.0
65.52285 180.0
65.684059 196.0
65.900391 172.0
66.188301 156.0
66.249847 76.0
66.49794 148.0
66.655464 216.0
66.884781 204.0
67.034622 140.0
67.073738 68.0
67.213989 216.0
67.307037 212.0
67.342964 136.0
67.668388 92.0
67.848602 136.0
68.68399 144.0
69.108566 160.0
69.787376 172.0
69.908379 212.0
69.966637 188.0
70.026581 188.0
70.154884 148.0
70.169891 128.0
70.635826 200.0
70.766357 32.0
71.244347 144.0
71.508347 72.0
71.820053 212.0
72.345581 100.0
72.484467 144.0
72.55735 152.0
72.659103 144.0
72.818672 188.0
73.339317 192.0
73.689148 220.0
74.149467 176.0
74.283203 216.0
74.642159 132.0
75.314293 212.0
75.457726 168.0
75.471558 188.0
75.499222 200.0
75.706894 152.0
75.819504 136.0
76.11441 132.0
76.342049 172.0
76.580482 184.0
76.920502 200.0
76.939705 88.0
77.018288 184.0
77.839668 172.0
77.864258 116.0
78.07515 168.0
78.37793 160.0
78.533073 248.0
78.656586 160.0
78.7696 144.0
78.948112 168.0
78.962257 208.0
79.03833 152.0
79.222458 192.0
79.812607 188.0
80.190887 96.0
80.383492 140.0
80.435249 236.0
80.481667 148.0
80.864227 136.0
81.238724 132.0
81.526009 120.0
82.13456 160.0
82.604218 168.0
82.80397 128.0
83.029861 120.0
83.060699 140.0
83.10424 164.0
83.877151 216.0
84.34993 192.0
84.382835 268.0
84.483421 196.0
84.98909 136.0
85.005608 188.0
85.253517 124.0
85.580948 152.0
85.671188 128.0
85.855515 220.0
86.027107 136.0
86.280205 228.0
86.470726 164.0
86.596626 136.0
87.532623 84.0
87.972633 144.0
88.247269 116.0
88.417496 148.0
88.439957 136.0
88.464287 148.0
88.784691 188.0
88.927284 204.0
89.032417 124.0
89.194 44.0
89.459236 128.0
89.485596 204.0
89.603096 144.0
89.781433 136.0
89.894623 40.0
89.921043 140.0
89.975784 120.0
90.028656 192.0
90.043762 220.0
90.237274 208.0
90.461639 176.0
90.476784 128.0
91.051331 616.0
91.201424 116.0
91.831657 212.0
92.050156 368.0
92.261299 192.0
92.333961 148.0
92.517654 100.0
92.555946 64.0
92.636391 80.0
92.973846 208.0
93.006477 116.0
93.057327 1776.0
93.14473 136.0
93.186996 60.0
93.260017 204.0
93.502357 216.0
94.064728 952.0
94.093147 148.0
94.621941 120.0
94.695526 92.0
94.926147 124.0
95.048355 180.0
95.066948 304.0
95.201714 200.0
95.361023 28.0
95.676147 56.0
95.794937 172.0
96.046402 168.0
96.427139 220.0
96.714653 196.0
97.133987 176.0
97.524734 168.0
97.556183 224.0
97.6427 220.0
97.687943 160.0
97.829628 144.0
98.509979 168.0
98.978714 256.0
99.357285 120.0
99.670036 176.0
99.742531 160.0
99.843933 72.0
100.01902 88.0
100.732895 192.0
100.986755 148.0
101.156837 80.0
102.633507 128.0
102.964462 220.0
103.054794 580.0
103.376869 52.0
103.731316 132.0
104.04512 376.0
104.051651 168.0
104.056244 228.0
104.175728 204.0
104.196045 84.0
104.391174 140.0
104.462357 32.0
105.067001 264.0
105.128616 204.0
105.377731 188.0
105.610779 132.0
105.825653 92.0
105.94239 140.0
106.064491 2648.0
106.15966 92.0
106.434631 128.0
106.473648 192.0
106.502403 56.0
106.965057 48.0
107.07135 472.0
107.10302 176.0
107.323532 172.0
107.398537 184.0
107.770775 164.0
107.812759 100.0
107.905777 168.0
108.10849 128.0
108.330032 232.0
108.425346 180.0
108.771721 36.0
109.586952 60.0
109.812088 172.0
109.883018 152.0
109.897621 76.0
110.271423 252.0
110.796646 124.0
111.127907 148.0
111.500664 156.0
111.819267 208.0
112.012978 128.0
112.075989 772.0
112.255356 176.0
112.571892 184.0
112.635254 148.0
112.766258 160.0
113.056 212.0
113.123726 232.0
113.151253 48.0
113.505089 152.0
113.623871 148.0
113.838249 192.0
114.125114 132.0
114.902512 152.0
114.92598 164.0
115.054138 1380.0
115.086067 160.0
115.167213 184.0
115.387321 156.0
115.51136 184.0
116.060997 1316.0
116.370743 336.0
116.405098 144.0
116.83712 208.0
116.886604 224.0
117.056541 1504.0
117.472633 148.0
117.595627 140.0
117.917442 64.0
118.038506 160.0
118.065308 3240.0
118.137993 176.0
118.168282 52.0
118.280815 204.0
118.482208 48.0
118.77961 64.0
118.818253 196.0
119.072586 1048.0
119.70137 172.0
119.986145 128.0
120.045456 528.0
120.080612 832.0
120.17807 92.0
120.254456 128.0
120.531799 52.0
120.982353 148.0
121.085686 212.0
122.383095 132.0
122.45797 188.0
122.623215 164.0
123.020248 80.0
123.115196 144.0
123.510818 84.0
123.791893 160.0
123.86055 140.0
124.11985 144.0
124.328377 84.0
124.459351 116.0
124.474892 168.0
124.545959 168.0
124.611382 196.0
125.001724 40.0
125.086296 200.0
125.104103 156.0
125.175354 64.0
125.291176 128.0
125.369164 136.0
125.482841 156.0
126.063194 144.0
126.085541 88.0
126.190605 104.0
126.629204 172.0
127.052689 1036.0
127.284042 184.0
127.87529 156.0
128.061844 2336.0
128.156784 172.0
128.564926 156.0
128.675537 48.0
128.881073 84.0
129.066971 1136.0
129.810455 144.0
129.845428 152.0
129.967926 148.0
130.064468 9464.0
130.149521 48.0
130.34259 88.0
130.431229 124.0
130.485779 80.0
130.581284 72.0
130.779236 68.0
130.977325 128.0
131.032013 160.0
131.072784 8356.0
131.134552 28.0
131.207489 88.0
131.23877 100.0
131.273621 116.0
131.294144 188.0
131.364059 128.0
131.526871 48.0
131.782639 144.0
131.876343 140.0
131.903763 112.0
131.97464 76.0
132.046036 356.0
132.079071 4884.0
132.210251 68.0
132.285782 80.0
132.30867 64.0
132.347595 124.0
132.455231 68.0
132.643127 68.0
132.945892 76.0
133.01474 68.0
133.039246 172.0
133.048859 116.0
133.060593 156.0
133.085739 1640.0
133.280273 136.0
133.416748 180.0
133.999023 128.0
134.033585 172.0
134.090988 416.0
134.176483 96.0
134.250275 124.0
134.393295 240.0
134.792755 68.0
134.892136 132.0
135.062057 136.0
135.08609 160.0
135.134964 76.0
136.643051 40.0
136.73613 44.0
137.076141 208.0
137.862564 184.0
138.180573 252.0
138.845825 80.0
139.089844 80.0
139.583206 172.0
140.063324 180.0
140.157562 52.0
140.40036 56.0
140.957489 216.0
141.066147 328.0
142.039459 140.0
142.063416 428.0
143.044617 140.0
143.077515 704.0
143.251785 104.0
143.926743 124.0
144.043701 164.0
144.080017 1404.0
144.12738 32.0
144.165619 28.0
144.354462 68.0
144.720581 84.0
144.746918 72.0
144.974487 196.0
144.993652 52.0
145.080887 2536.0
145.240616 44.0
145.298187 228.0
145.449371 44.0
145.49498 76.0
145.571823 56.0
145.927444 216.0
146.004395 36.0
146.039505 260.0
146.063309 476.0
146.095703 8900.0
146.220917 60.0
146.309982 124.0
146.334061 44.0
146.391846 88.0
146.452057 48.0
146.476135 40.0
147.098251 1556.0
147.235901 52.0
147.276962 148.0
147.424347 32.0
147.603226 84.0
148.062317 260.0
148.087997 184.0
148.109283 160.0
148.678802 140.0
148.846313 56.0
149.244812 92.0
149.398026 148.0
149.880096 80.0
150.072662 224.0
150.109238 156.0
150.819687 28.0
151.042206 132.0
151.304047 128.0
152.063889 208.0
153.0448 108.0
153.067932 192.0
153.256638 64.0
153.735016 48.0
153.754761 60.0
154.02388 56.0
154.067978 136.0
154.270996 148.0
154.416885 152.0
154.921829 112.0
155.059753 260.0
155.067856 172.0
155.076202 296.0
155.122559 180.0
155.318466 112.0
156.083389 160.0
156.56366 180.0
156.947418 44.0
157.075699 504.0
157.299194 52.0
157.9664 80.0
158.057281 460.0
158.082718 1284.0
158.993683 160.0
159.068039 1788.0
159.578979 88.0
159.933685 224.0
160.073669 884.0
160.11026 2884.0
160.17038 40.0
160.672028 44.0
161.075409 152.0
161.106186 156.0
162.212128 36.0
162.376938 60.0
162.87442 80.0
163.125992 192.0
164.121445 152.0
164.703308 132.0
164.836166 96.0
166.789093 200.0
166.868774 140.0
167.519897 124.0
168.040665 144.0
168.084854 160.0
168.975937 180.0
169.058746 208.0
169.089798 352.0
169.9216 220.0
170.099228 188.0
170.456482 140.0
171.088516 180.0
171.302063 92.0
172.079956 284.0
172.103012 180.0
173.094193 204.0
173.114685 152.0
174.310883 48.0
175.08606 288.0
175.732758 144.0
176.088165 192.0
177.239899 100.0
179.952942 236.0
180.920761 140.0
181.017426 200.0
181.076065 156.0
183.076874 132.0
184.08815 160.0
185.067017 140.0
185.086945 188.0
185.118469 72.0
185.619781 108.0
186.07457 436.0
186.749542 120.0
187.06543 660.0
187.097855 196.0
187.121857 108.0
187.503723 120.0
187.76738 124.0
188.051926 216.0
188.105713 964.0
188.4151 64.0
188.540802 124.0
189.057678 236.0
189.103241 152.0
189.490311 48.0
190.063354 48.0
193.663818 96.0
195.841431 92.0
197.110794 72.0
197.267319 128.0
198.081619 156.0
198.513245 48.0
198.99588 152.0
199.92067 176.0
201.878479 164.0
202.076477 144.0
202.639908 140.0
202.7901 100.0
203.022583 216.0
203.04335 224.0
203.080643 5932.0
203.12146 148.0
203.178589 40.0
203.201279 40.0
203.348846 84.0
203.368713 52.0
203.547562 48.0
203.66684 72.0
203.854355 104.0
203.9254 112.0
203.999313 68.0
204.083786 920.0
204.121567 208.0
204.201202 60.0
204.870117 96.0
205.085876 284.0
205.128937 156.0
205.697098 108.0
205.748489 32.0
206.136948 48.0
207.000839 52.0
209.243332 80.0
209.436279 60.0
212.567337 96.0
214.061493 160.0
216.930634 124.0
219.052322 136.0
219.072937 48.0
219.53273 104.0
220.060928 68.0
221.107361 128.0
233.137039 188.0
234.953949 188.0
235.95697 60.0
247.454681 80.0
261.200439 80.0
276.663483 108.0
282.828552 144.0
288.91272 80.0
292.516663 92.0
315.128662 48.0
358.278381 76.0
368.316071 48.0
369.306061 80.0
379.848907 140.0
399.07428 100.0
420.209167 104.0
558.258179 132.0
565.324951 68.0
639.886169 116.0
651.503174 76.0
659.488159 192.0
767.735413 212.0
780.494019 188.0
803.802368 52.0
804.440125 132.0
860.24585 188.0
862.547363 48.0
864.424805 156.0
880.397095 172.0
906.219788 168.0
926.929688 176.0
937.643616 68.0
939.448425 132.0
942.757812 92.0
944.157776 176.0
965.374695 176.0
969.274536 152.0
974.188416 156.0
976.482056 228.0
977.184937 124.0
978.35498 120.0
981.326782 112.0
994.275452 176.0
999.72406 84.0
1000.605286 184.0
1003.320679 124.0
1005.89447 160.0
1008.635986 108.0
1019.734497 48.0
1019.988708 224.0
1025.28418 116.0
1028.077515 136.0
1028.632812 128.0
1033.78418 112.0
1034.244995 64.0
1037.928711 172.0
1044.34436 232.0
1046.468018 184.0
1047.923706 172.0
1054.098633 188.0
1056.976196 244.0
1063.930664 220.0
1073.795288 216.0
1074.382446 148.0
1075.818115 132.0
1083.017578 172.0
1095.518066 68.0
1106.606689 172.0
1113.715698 172.0
1115.263916 176.0
1122.113892 156.0
1123.03418 124.0
1124.435303 64.0
1129.346069 196.0
1141.774048 144.0
1144.391602 88.0
1146.291138 128.0
1152.975464 20.0
1154.378174 88.0
1156.840942 156.0
1157.023804 128.0
1165.610596 208.0
1165.753296 160.0
1171.747803 120.0
1177.812378 136.0
1177.935425 64.0
1178.345337 180.0
1178.495605 184.0
1179.589111 168.0
1187.065552 104.0
1199.241089 140.0
1199.633911 200.0
1208.515503 124.0
1209.401245 220.0
1211.028442 68.0
1211.146118 160.0
1211.783447 180.0
1213.238892 180.0
1213.939209 188.0
1220.939331 160.0
1223.346802 128.0
1223.548706 184.0
1224.029053 160.0
1233.9021 236.0
1239.361328 128.0
1245.872192 52.0
1249.084717 156.0
1250.794678 164.0
1252.674805 156.0
1256.961426 144.0
1257.765991 172.0
1258.401367 80.0
1263.751831 132.0
1263.83667 164.0
1265.705322 264.0
1266.038208 160.0
1267.313232 128.0
1272.142944 220.0
1281.594849 68.0
1281.758789 216.0
1288.801392 132.0
1291.024536 196.0
1297.397095 184.0
1297.475952 216.0
1301.084595 184.0
1308.496826 160.0
1308.734375 200.0
1310.643188 208.0
1314.039185 236.0
1321.075806 204.0
1323.232422 152.0
1328.232788 244.0
1333.053589 156.0
1335.911011 188.0
1336.784058 204.0
1337.257202 96.0
1338.924438 180.0
1339.514404 84.0
1340.5271 156.0
1340.83313 200.0
1341.365234 176.0
1341.890137 168.0
1348.832764 104.0
1356.357544 216.0
1357.031982 180.0
1357.259277 36.0
1359.449951 148.0
1366.219727 132.0
1366.403687 232.0
1367.647339 80.0
1368.147827 168.0
1368.265625 152.0
1371.352173 176.0
1377.757202 160.0
1381.039917 144.0
1381.431274 164.0
1382.903809 144.0
1388.156494 188.0
1388.950073 176.0
1395.053955 136.0
1395.641357 124.0
1396.139526 172.0
1402.162354 228.0
1408.94519 140.0
1410.088501 200.0
1412.354004 192.0
1413.70813 232.0
1414.516479 188.0
1417.444824 152.0
1417.609741 188.0
1419.941162 164.0
1420.40625 188.0
1421.321533 140.0
1421.696777 124.0
1422.274658 36.0
1423.160522 112.0
1430.370239 72.0
1431.235962 188.0
1435.350098 184.0
1436.224976 164.0
1437.484863 200.0
1441.366211 116.0
1442.447021 180.0
1446.085205 152.0
1447.23584 184.0
1447.288818 132.0
1448.909668 164.0
1452.22229 184.0
1453.254028 224.0
1453.694092 144.0
1457.042603 156.0
1458.022827 200.0
1459.908203 132.0
1460.128662 160.0
1464.92395 124.0
1465.655396 148.0
1470.55896 196.0
1471.047485 136.0
1471.650635 168.0
1474.331787 132.0
1477.550903 148.0
1480.727539 144.0
1480.911377 120.0
1481.256104 136.0
1487.812744 164.0
1488.127563 156.0
1488.434692 52.0
1489.056641 148.0
1496.269531 144.0
1497.016357 172.0
1499.227295 156.0
1504.286987 168.0
1504.418213 148.0
1505.229004 116.0
