>compound MLS000877018-01!2-(3,4-dihydroxyphenyl)-5,7-dihydroxy-3-methoxychromen-4-one
>formula C16H12O7
>ionization [M+H]+
>parentmass 317.065979
#inchi InChI=1S/C16H12O7/c1-22-16-14(21)13-11(20)5-8(17)6-12(13)23-15(16)7-2-3-9(18)10(19)4-7/h2-6,17-20H,1H3
#inchikey WEPBGSIAWZTEJR
#Ion_Source LC-ESI
#Instrument qTof
#Compound_Source NIH Natural Product Library
#PI Dorrestein
#Data_Collector VVP/LMS
#Scan -1
#Precursor_MZ 317.066
#ExactMass 316.058
#Charge 1
#CAS_Number N/A
#Pubmed_ID N/A
#Smiles COc1c(oc2cc(O)cc(O)c2c1=O)c3ccc(O)c(O)c3
#INCHI_AUX N/A
#Library_Class 3
#SpectrumID CCMSLIB00000079418
#IonMode Positive
#UpdateWorkflowName UPDATE-SINGLE-ANNOTATED-BRONZE
#LibraryQualityString Bronze
#TaskID b1d8e8f6646f4e71acdff9ca3d919d08
##Scan# 1799
#SpectrumFile p1-A06_GA6_01_17879.mzXML
#LibraryName NIH_Natural_Products_Library.mgf
#MQScore -1
#Organism NIH_Natural_Products_Library
#TIC_Query 0
#RT_Query -1
#MZErrorPPM -1
#SharedPeaks 0
#MassDiff 0
#LibMZ -1
#SpecMZ 317.066
#SpecCharge 0
#internalFilename spec-00000.mgf

>collision 10
96.021797 168.0
97.45076 164.0
98.789368 164.0
99.615982 208.0
100.043518 200.0
100.117188 80.0
101.614311 124.0
102.42041 76.0
102.954865 148.0
103.051819 164.0
105.035187 108.0
105.374054 132.0
107.008636 164.0
108.018166 656.0
108.610229 124.0
109.028114 228.0
109.645546 200.0
110.035103 332.0
111.279205 120.0
112.046837 200.0
113.106903 172.0
113.138657 44.0
114.810837 84.0
115.896721 84.0
116.066048 164.0
117.06308 160.0
117.800682 168.0
117.943298 100.0
118.458282 52.0
118.603455 112.0
119.04821 140.0
119.250244 104.0
120.023041 136.0
120.210632 88.0
120.918678 184.0
121.666122 88.0
122.030807 160.0
123.039833 148.0
123.190002 112.0
123.680885 152.0
125.021385 184.0
127.883804 220.0
131.471451 96.0
132.404175 32.0
132.630981 184.0
134.565628 212.0
136.01709 260.0
137.022705 1256.0
137.045853 192.0
137.420349 156.0
138.030014 208.0
138.055679 120.0
138.334106 104.0
139.027863 152.0
139.079483 168.0
139.39418 124.0
144.393936 104.0
144.623611 140.0
147.043869 156.0
147.152496 100.0
147.99144 96.0
148.888626 104.0
149.095123 144.0
150.027344 176.0
150.173645 140.0
151.182617 128.0
152.035416 96.0
152.637253 56.0
153.018585 696.0
154.03215 112.0
154.106247 56.0
156.044388 164.0
157.010513 164.0
157.262482 196.0
159.800949 220.0
160.518784 124.0
161.061386 124.0
161.089172 172.0
161.303955 44.0
162.029388 300.0
163.043427 228.0
164.854507 168.0
165.015198 180.0
166.021301 516.0
166.432373 160.0
167.069748 112.0
167.193253 140.0
167.739273 228.0
169.522552 144.0
170.992416 176.0
171.04187 188.0
172.045456 132.0
172.063721 152.0
173.046738 68.0
174.287323 232.0
174.563309 172.0
174.960602 196.0
175.018524 256.0
175.040131 172.0
176.041611 192.0
177.049149 176.0
177.247818 88.0
177.969269 204.0
178.054245 208.0
179.027557 120.0
180.241257 120.0
184.05275 148.0
187.03714 192.0
188.73439 136.0
189.018127 164.0
189.057159 176.0
189.489792 216.0
190.049088 80.0
190.543289 20.0
191.090378 148.0
192.046249 140.0
193.012009 308.0
193.045975 184.0
194.016418 168.0
194.60318 172.0
199.042694 148.0
199.17749 88.0
199.385391 208.0
200.045639 520.0
201.069504 152.0
202.061295 252.0
202.463226 80.0
203.032501 296.0
204.04512 180.0
204.384964 80.0
205.048462 120.0
205.26796 140.0
205.653091 168.0
205.850082 176.0
206.152878 156.0
211.039398 120.0
211.178207 80.0
211.777328 256.0
211.942444 48.0
212.043869 200.0
212.316376 56.0
212.403381 160.0
214.033737 160.0
215.027405 216.0
215.062805 80.0
215.439484 176.0
216.088486 196.0
217.043976 312.0
217.065475 192.0
217.286728 112.0
217.73877 56.0
217.768143 76.0
217.823944 48.0
218.051712 260.0
218.582443 208.0
219.731522 100.0
219.887909 136.0
224.009293 96.0
226.380692 120.0
227.034286 352.0
227.931488 40.0
228.039139 1772.0
228.171936 48.0
229.046738 1308.0
229.270569 176.0
229.303726 72.0
230.051392 180.0
230.661926 192.0
230.937073 132.0
231.026566 192.0
232.033249 128.0
232.312241 136.0
232.576233 52.0
232.891998 120.0
233.752335 104.0
234.8582 60.0
239.036926 120.0
241.050476 152.0
242.139389 160.0
242.381012 128.0
243.022827 128.0
243.056961 172.0
244.032227 140.0
245.041977 892.0
245.224457 140.0
245.402145 64.0
245.539337 72.0
246.047501 196.0
246.747742 60.0
246.982269 196.0
247.063599 120.0
252.179581 176.0
254.593674 32.0
254.746124 88.0
255.033173 244.0
256.045074 320.0
257.042084 656.0
258.038086 132.0
258.060486 152.0
258.277924 156.0
259.030121 152.0
259.369781 76.0
259.886078 68.0
259.918182 64.0
266.830078 180.0
268.24942 124.0
268.950714 56.0
269.88501 136.0
273.035309 472.0
273.401398 160.0
273.644989 48.0
274.048157 1956.0
274.61377 172.0
275.047729 280.0
275.072388 140.0
282.603058 140.0
282.987946 180.0
284.033478 136.0
285.041077 792.0
285.083344 176.0
286.034393 140.0
286.80072 60.0
286.844543 104.0
288.025513 112.0
288.454651 164.0
293.65979 152.0
294.120392 60.0
298.402435 180.0
300.017059 140.0
301.033081 2928.0
301.266266 68.0
301.359558 36.0
301.549622 96.0
301.732819 72.0
301.917633 168.0
301.978302 64.0
302.041809 6852.0
302.085541 120.0
302.157928 52.0
302.227386 44.0
302.32428 184.0
302.580414 196.0
302.69101 68.0
303.048737 1112.0
303.439575 48.0
303.491608 112.0
303.862701 64.0
304.044617 316.0
305.02951 104.0
305.06427 96.0
306.020966 80.0
306.515564 44.0
306.553894 72.0
308.812592 76.0
310.697113 176.0
313.097778 108.0
315.762268 76.0
316.37439 96.0
316.508942 60.0
317.065979 1256.0
317.575592 72.0
318.076263 80.0
319.069397 136.0
320.97226 148.0
359.827576 120.0
366.011444 164.0
443.882935 56.0
450.064056 176.0
463.419525 88.0
541.744751 76.0
632.358398 52.0
704.176575 72.0
775.084106 44.0
960.404236 20.0
996.322327 64.0
1062.487305 116.0
1126.814087 36.0
1301.417114 144.0
1372.76001 136.0
1398.169312 84.0
1399.308228 160.0
1405.031738 188.0
