>compound MLS001142565-01!
>formula C18H18BrN3O2
>ionization [M+H]+
>parentmass 388.064545
#inchi InChI=1S/C18H18BrN3O2/c19-14-4-6-15(7-5-14)20-18(24)21-9-12-8-13(11-21)16-2-1-3-17(23)22(16)10-12/h1-7,12-13H,8-11H2,(H,20,24)/t12-,13+/m1/s1
#inchikey QRZYASGRRPNXNA
#Ion_Source LC-ESI
#Instrument qTof
#Compound_Source NIH Natural Product Library
#PI Dorrestein
#Data_Collector VVP/LMS
#Scan -1
#Precursor_MZ 388.066
#ExactMass 387.058
#Charge 1
#CAS_Number N/A
#Pubmed_ID N/A
#Smiles Brc1ccc(NC(=O)N2C[C@H]3C[C@@H](C2)c4cccc(=O)n4C3)cc1
#INCHI_AUX N/A
#Library_Class 1
#SpectrumID CCMSLIB00000079593
#IonMode Positive
#UpdateWorkflowName UPDATE-SINGLE-ANNOTATED-GOLD
#LibraryQualityString Gold
#TaskID b1d8e8f6646f4e71acdff9ca3d919d08
##Scan# 1773
#SpectrumFile p1-E08_GE8_01_17928.mzXML
#LibraryName NIH_Natural_Products_Library.mgf
#MQScore -1
#Organism NIH_Natural_Products_Library
#TIC_Query 0
#RT_Query -1
#MZErrorPPM -1
#SharedPeaks 0
#MassDiff 0
#LibMZ -1
#SpecMZ 388.066
#SpecCharge 0
#internalFilename spec-00000.mgf

>collision 10
95.036613 124.0
95.118126 124.0
95.137535 200.0
95.207436 164.0
95.2929 112.0
95.32399 160.0
95.397842 152.0
95.454231 104.0
95.72081 160.0
95.806511 176.0
95.855217 224.0
95.880554 40.0
96.044411 296.0
96.09137 68.0
96.319542 176.0
96.466095 60.0
96.544304 188.0
96.673416 144.0
96.700813 92.0
96.831993 148.0
96.88488 92.0
96.935822 156.0
96.994728 212.0
97.073036 136.0
97.113159 148.0
97.288857 184.0
97.306526 180.0
97.457756 72.0
97.540298 136.0
97.581581 44.0
97.66024 164.0
97.825523 68.0
97.96534 148.0
98.044151 88.0
98.152573 136.0
98.472267 84.0
98.502914 160.0
98.691612 136.0
98.713364 188.0
98.756874 156.0
98.865685 152.0
98.942879 200.0
98.984459 148.0
99.01416 116.0
99.103302 60.0
99.136986 156.0
99.211182 120.0
99.225708 216.0
99.555557 196.0
99.587334 220.0
99.758217 172.0
99.883492 140.0
99.992928 132.0
100.110382 140.0
100.237869 108.0
100.429253 184.0
100.443214 156.0
100.460007 196.0
100.618828 116.0
100.636795 188.0
100.768616 184.0
100.878532 124.0
100.960503 132.0
101.240669 104.0
101.416977 116.0
101.647652 180.0
101.660919 164.0
101.745956 100.0
102.123726 192.0
102.174019 196.0
102.246452 148.0
102.26255 108.0
102.469963 132.0
102.497543 180.0
102.586853 180.0
102.635124 140.0
102.655403 208.0
102.671532 152.0
102.699768 180.0
102.974258 132.0
103.054054 376.0
103.143982 220.0
103.250145 132.0
103.376564 172.0
103.506111 144.0
103.574974 188.0
103.660057 176.0
103.688431 152.0
103.874969 168.0
103.986565 128.0
104.006859 156.0
104.049706 996.0
104.067764 256.0
104.151024 156.0
104.309517 156.0
104.34166 192.0
104.396935 200.0
104.445747 132.0
104.480331 52.0
104.494576 208.0
104.508812 112.0
104.592255 132.0
104.706268 160.0
104.789787 200.0
104.878159 220.0
104.920219 124.0
104.965073 112.0
105.056458 512.0
105.148674 96.0
105.257378 32.0
105.293625 200.0
105.411797 264.0
105.426414 84.0
105.499992 140.0
105.587914 128.0
105.62365 144.0
105.671783 64.0
105.747498 208.0
105.761826 116.0
105.83757 180.0
105.944069 100.0
106.001434 188.0
106.064499 648.0
106.126465 184.0
106.198242 88.0
106.245422 180.0
106.261833 180.0
106.358284 40.0
106.457794 136.0
106.483528 104.0
106.617065 76.0
106.635559 240.0
106.693115 120.0
106.732178 124.0
106.787704 240.0
106.801216 196.0
106.830902 124.0
106.929665 128.0
106.943085 96.0
106.970833 156.0
107.020241 136.0
107.042885 180.0
107.073776 280.0
107.133514 168.0
107.250969 104.0
107.292191 196.0
107.393234 152.0
107.649139 128.0
107.69664 176.0
107.758614 344.0
107.919823 196.0
108.044891 1480.0
108.072884 116.0
108.306808 200.0
108.377243 216.0
108.445633 160.0
108.638474 164.0
108.799355 196.0
108.816948 132.0
108.910393 112.0
109.020508 196.0
109.050072 1120.0
109.222176 140.0
109.286667 44.0
109.432358 156.0
109.576065 168.0
109.611488 72.0
109.648994 116.0
109.705276 40.0
109.957657 152.0
109.982704 132.0
110.058403 144.0
110.08918 156.0
110.1978 168.0
110.243767 220.0
110.293922 144.0
110.411011 152.0
110.441399 188.0
110.54071 144.0
110.618141 164.0
110.760536 132.0
110.825478 180.0
110.9114 216.0
111.007835 156.0
111.055756 208.0
111.08963 192.0
111.112709 204.0
111.202942 252.0
111.244919 164.0
111.312103 144.0
111.337303 116.0
111.358307 156.0
111.448631 96.0
111.482254 172.0
111.703018 148.0
111.721947 188.0
111.900833 152.0
111.995598 56.0
112.031403 152.0
112.368042 176.0
112.373779 120.0
112.423576 144.0
112.514481 120.0
112.689629 56.0
112.712868 196.0
112.801636 108.0
112.899628 208.0
113.127403 48.0
113.176094 212.0
113.233269 116.0
113.464233 220.0
113.519363 64.0
113.553291 140.0
113.790955 56.0
114.22448 144.0
114.267021 116.0
114.290428 220.0
114.347885 164.0
114.545235 64.0
114.925369 144.0
114.942444 168.0
115.03421 200.0
115.054306 812.0
115.151649 76.0
115.196503 176.0
115.215729 156.0
115.412354 200.0
115.46154 192.0
115.489342 44.0
115.510735 460.0
115.61129 232.0
115.669075 180.0
115.853241 196.0
116.01825 76.0
116.053421 296.0
116.123314 172.0
116.138329 124.0
116.234871 156.0
116.286369 384.0
116.305687 112.0
116.335739 176.0
116.537621 144.0
116.655815 180.0
116.670868 148.0
116.761177 64.0
116.862953 140.0
116.907463 204.0
117.057335 2168.0
117.558258 184.0
117.670494 100.0
117.720924 124.0
117.869209 52.0
117.884331 184.0
117.914589 128.0
118.005379 152.0
118.065521 2540.0
118.130806 36.0
118.353722 168.0
118.488007 168.0
118.5075 144.0
118.628868 172.0
118.648376 104.0
118.689568 192.0
118.75029 168.0
118.787163 48.0
118.85701 184.0
118.902161 188.0
119.041092 164.0
119.071106 400.0
119.458389 164.0
119.532028 184.0
119.639008 108.0
119.691261 128.0
119.723923 240.0
119.867699 156.0
119.943977 200.0
120.026817 116.0
120.046448 112.0
120.082565 688.0
120.116234 172.0
120.260246 120.0
120.41478 164.0
120.520119 148.0
120.635948 156.0
120.70372 156.0
120.797768 140.0
121.029747 144.0
121.133919 156.0
121.248802 68.0
121.281677 192.0
121.487801 192.0
121.550972 96.0
121.738014 172.0
121.790726 216.0
121.961601 168.0
122.059723 636.0
122.325043 128.0
122.767899 76.0
122.820831 128.0
122.86274 128.0
122.942169 288.0
122.997345 160.0
123.065781 152.0
123.120369 172.0
123.145279 180.0
123.483437 144.0
123.498917 60.0
123.587402 164.0
123.700272 228.0
123.759956 104.0
123.861916 152.0
123.977844 184.0
124.039185 152.0
124.123428 136.0
124.236542 40.0
124.254288 196.0
124.274254 160.0
124.306175 176.0
124.331947 124.0
124.436279 168.0
124.660614 120.0
124.689507 200.0
124.762856 156.0
125.047577 132.0
125.179504 212.0
125.455193 148.0
125.638054 156.0
125.664833 220.0
125.716148 80.0
125.939407 164.0
125.977379 116.0
126.053123 408.0
126.107796 240.0
126.209808 136.0
126.23217 176.0
126.270905 124.0
126.404411 108.0
126.556618 160.0
126.655151 100.0
126.749245 216.0
126.780617 172.0
126.994926 168.0
127.055801 152.0
127.193291 140.0
127.226967 108.0
127.29657 144.0
127.329994 140.0
127.982132 180.0
128.053024 396.0
128.248199 104.0
128.263977 60.0
128.514313 168.0
128.584259 216.0
128.620377 124.0
128.706589 188.0
128.749069 180.0
128.828125 68.0
128.950134 124.0
128.977249 76.0
129.070816 684.0
129.142319 84.0
129.1604 164.0
129.189819 144.0
129.221481 144.0
129.275787 136.0
129.313797 96.0
129.361801 156.0
129.436401 260.0
129.468216 148.0
129.585999 44.0
129.658508 180.0
129.896576 172.0
130.063812 2344.0
130.12706 164.0
130.25296 148.0
130.427917 112.0
130.482468 192.0
130.543869 156.0
130.657593 76.0
130.816895 132.0
130.853317 180.0
130.898849 116.0
130.980835 156.0
131.024124 124.0
131.071869 2032.0
131.122101 176.0
131.188202 44.0
131.236084 72.0
131.290802 216.0
131.306763 148.0
131.368347 176.0
131.432236 36.0
131.518951 192.0
131.603424 132.0
131.667358 192.0
131.727432 200.0
131.756439 180.0
131.840973 72.0
131.861542 168.0
131.888977 204.0
131.925552 116.0
131.943832 68.0
131.996231 192.0
132.044785 5544.0
132.080414 1956.0
132.15654 192.0
132.193146 208.0
132.291565 44.0
132.318375 192.0
132.357956 168.0
132.422073 152.0
132.470184 44.0
132.638275 208.0
132.756668 172.0
132.89563 132.0
133.052383 7324.0
133.085083 548.0
133.12439 84.0
133.172073 112.0
133.208817 80.0
133.247879 56.0
133.280045 168.0
133.353577 96.0
133.409637 268.0
133.436325 124.0
133.535202 184.0
133.592712 180.0
133.659424 220.0
133.679291 120.0
133.733078 188.0
133.769897 80.0
133.798477 136.0
133.93338 44.0
134.059631 3856.0
134.096603 196.0
134.132339 140.0
134.152298 60.0
134.205322 60.0
134.286026 144.0
134.311401 72.0
134.373688 80.0
134.423706 188.0
134.61142 220.0
134.669159 140.0
134.731522 56.0
134.798538 184.0
134.840134 40.0
134.946457 200.0
134.99733 164.0
135.062744 440.0
135.092163 124.0
135.337479 140.0
135.374527 84.0
135.404633 88.0
135.473801 176.0
135.547272 216.0
135.684082 160.0
135.965668 132.0
136.01442 60.0
136.035309 104.0
136.074097 300.0
136.195526 156.0
136.248947 200.0
136.462769 72.0
136.486023 168.0
136.611603 28.0
136.972412 212.0
137.046967 168.0
137.259064 80.0
137.333694 140.0
137.44101 212.0
137.894043 220.0
137.954819 36.0
138.244843 56.0
138.584366 144.0
138.802338 208.0
138.973572 144.0
139.166031 48.0
139.188965 196.0
139.454971 164.0
139.652466 64.0
139.720642 184.0
139.763031 180.0
139.899536 144.0
139.996078 184.0
140.050247 220.0
140.069092 208.0
140.090286 60.0
140.14212 64.0
140.771912 120.0
141.069595 144.0
141.166534 144.0
141.258774 216.0
141.521469 164.0
141.554611 148.0
141.639877 84.0
141.779663 228.0
141.85788 160.0
141.898178 236.0
142.038101 220.0
142.063492 984.0
142.104523 160.0
142.136307 60.0
142.178085 160.0
142.220795 224.0
142.31575 96.0
142.337128 164.0
142.35849 84.0
142.375122 68.0
142.462997 212.0
142.56041 208.0
142.611435 120.0
142.686386 224.0
142.945786 132.0
143.012283 96.0
143.069794 256.0
143.098175 196.0
143.15274 160.0
143.171799 168.0
143.195618 160.0
143.562622 48.0
143.777328 56.0
143.877579 164.0
144.016068 144.0
144.045578 164.0
144.079224 1244.0
144.274139 156.0
144.336304 192.0
144.38652 80.0
144.48938 64.0
144.757446 116.0
144.831696 136.0
144.920319 168.0
145.051788 1248.0
145.085693 268.0
145.14563 176.0
145.438309 212.0
145.553543 148.0
145.606384 156.0
145.661621 84.0
145.688049 160.0
145.724075 136.0
145.775681 152.0
145.810593 144.0
145.849045 172.0
145.873077 168.0
145.916351 232.0
145.962036 176.0
145.981262 140.0
146.008835 160.0
146.033676 360.0
146.060028 25524.0
146.097076 1928.0
146.138321 140.0
146.173706 100.0
146.214615 68.0
146.238693 184.0
146.274872 128.0
146.304443 156.0
146.446945 40.0
146.58548 100.0
146.628845 84.0
146.655365 84.0
146.701157 36.0
146.718033 104.0
146.763092 64.0
146.87236 156.0
146.99675 108.0
147.013428 148.0
147.06424 3432.0
147.091309 680.0
147.13298 36.0
147.168533 88.0
147.32135 144.0
147.367249 176.0
147.422821 40.0
147.560593 52.0
147.643539 208.0
147.681503 116.0
147.796524 68.0
147.824249 212.0
147.935211 52.0
148.005066 168.0
148.043198 224.0
148.075699 12020.0
148.153519 60.0
148.170486 92.0
148.226212 124.0
148.24559 52.0
148.342545 36.0
148.408005 48.0
148.437103 60.0
148.494324 120.0
148.534103 188.0
148.728226 56.0
148.759781 172.0
148.77919 192.0
148.839249 180.0
149.037903 216.0
149.075775 1052.0
149.231079 112.0
149.316193 208.0
149.345383 224.0
149.386734 44.0
149.505386 204.0
149.610611 116.0
149.703125 108.0
149.749405 148.0
149.781067 44.0
149.800552 136.0
149.906418 232.0
149.929688 132.0
149.956497 160.0
150.095444 112.0
150.117401 228.0
150.171051 96.0
150.210068 48.0
150.227142 64.0
150.380875 60.0
150.437012 128.0
150.480957 36.0
150.510254 60.0
150.825409 76.0
150.99411 116.0
151.18248 196.0
151.317108 48.0
151.397903 124.0
151.454239 328.0
151.549774 148.0
151.735748 164.0
151.951859 160.0
152.066208 216.0
152.160477 184.0
152.239044 140.0
152.376602 212.0
152.425735 120.0
152.7724 152.0
152.805328 84.0
153.094833 180.0
153.402817 168.0
153.545822 112.0
153.787292 188.0
153.923386 164.0
154.063156 612.0
154.228027 44.0
154.333557 184.0
154.36322 236.0
154.588333 96.0
154.934967 132.0
154.994431 88.0
155.07077 244.0
155.373764 144.0
155.669128 48.0
155.733704 56.0
155.753571 156.0
155.785858 64.0
155.847977 108.0
156.080582 2812.0
156.107956 144.0
156.163681 72.0
156.225861 128.0
156.312943 156.0
156.449829 64.0
156.522034 76.0
156.673965 164.0
156.771133 76.0
156.972733 156.0
157.012955 100.0
157.056473 492.0
157.083466 132.0
157.103073 208.0
157.190063 56.0
157.247467 188.0
157.342316 124.0
157.472168 40.0
157.559601 196.0
157.604568 164.0
157.684097 204.0
157.744522 208.0
157.988007 176.0
158.060211 7048.0
158.114517 56.0
158.14473 64.0
158.199799 172.0
158.253494 116.0
158.338684 176.0
158.385101 68.0
158.555466 56.0
158.766052 236.0
158.934235 176.0
159.030624 244.0
159.067398 3764.0
159.134918 172.0
159.19603 132.0
159.220291 52.0
159.278824 52.0
159.353424 64.0
159.414795 160.0
159.519287 144.0
159.544418 40.0
159.790878 48.0
159.823593 288.0
159.843719 180.0
159.861328 124.0
159.976562 200.0
159.999451 228.0
160.014084 364.0
160.07605 53092.0
160.130585 244.0
160.138809 232.0
160.18689 196.0
160.216888 116.0
160.252716 92.0
160.280136 112.0
160.296829 348.0
160.313538 120.0
160.335403 112.0
160.375092 36.0
160.411407 148.0
160.491776 28.0
160.51825 100.0
160.549057 76.0
160.595917 180.0
160.654434 108.0
160.670883 120.0
160.692825 56.0
160.798813 104.0
160.837479 112.0
160.897263 76.0
161.000778 192.0
161.033615 144.0
161.080734 7592.0
161.122025 160.0
161.152344 120.0
161.228149 216.0
161.268585 72.0
161.306503 68.0
161.334305 84.0
161.355499 84.0
161.392014 204.0
161.5345 120.0
161.584671 152.0
161.665649 52.0
161.83017 64.0
161.880814 224.0
161.898544 108.0
161.985626 136.0
162.057266 128.0
162.090073 972.0
162.171234 44.0
162.202148 140.0
162.253906 48.0
162.271027 168.0
162.322739 80.0
162.466812 60.0
162.692154 88.0
162.750992 116.0
162.788635 108.0
162.834351 140.0
162.902924 84.0
163.088776 172.0
163.187561 104.0
163.230789 140.0
163.312164 80.0
163.777954 188.0
163.946106 156.0
164.183182 132.0
164.277557 80.0
164.336227 48.0
164.645096 88.0
165.033508 136.0
165.560623 224.0
165.593918 72.0
165.780945 92.0
165.837326 108.0
166.147598 184.0
166.478699 184.0
166.517227 176.0
166.540344 164.0
166.84613 100.0
166.992691 144.0
167.412186 60.0
167.502319 112.0
167.699631 160.0
168.110779 96.0
168.247574 72.0
168.508423 140.0
168.76947 44.0
168.973785 60.0
169.043655 188.0
169.095764 228.0
169.152344 196.0
169.188599 40.0
169.441376 204.0
169.616013 152.0
169.794907 184.0
169.877914 100.0
169.95842 1136.0
170.062836 180.0
170.134827 228.0
170.288025 72.0
170.48027 216.0
170.896317 140.0
170.970978 132.0
171.069626 320.0
171.094849 452.0
171.239929 232.0
171.278992 160.0
171.513504 140.0
171.67775 200.0
171.709045 144.0
171.955444 1044.0
172.07576 9072.0
172.398254 192.0
172.45314 100.0
172.638504 84.0
172.685822 160.0
172.957336 176.0
173.078171 908.0
173.128113 88.0
173.16478 44.0
173.299088 164.0
173.355194 76.0
173.397949 188.0
173.90152 136.0
173.92514 212.0
174.032471 264.0
174.052856 320.0
174.091141 26032.0
174.122421 284.0
174.188416 140.0
174.199066 88.0
174.248138 40.0
174.283447 152.0
174.326965 68.0
174.347183 104.0
174.383347 136.0
174.407944 64.0
174.412674 52.0
174.42421 96.0
174.503708 100.0
174.528305 36.0
174.558289 64.0
174.689789 140.0
174.718735 116.0
174.751007 60.0
174.856628 156.0
174.916092 136.0
174.981903 48.0
175.000336 68.0
175.024033 76.0
175.047729 200.0
175.092041 2972.0
175.206741 100.0
175.237381 44.0
175.29007 52.0
175.319061 48.0
175.394348 148.0
175.490387 60.0
175.564224 52.0
175.627518 100.0
175.75943 224.0
175.880829 40.0
175.954742 64.0
175.991699 168.0
176.068283 104.0
176.093521 336.0
176.116974 164.0
176.155441 124.0
176.202988 84.0
176.263763 100.0
176.38269 148.0
176.401184 200.0
176.442017 108.0
176.465897 92.0
176.512238 80.0
176.538681 40.0
176.636536 48.0
176.829681 84.0
177.025589 68.0
177.430969 76.0
177.958939 68.0
178.014694 36.0
178.03595 32.0
178.155472 164.0
178.251114 60.0
178.703125 60.0
178.825531 156.0
178.908051 76.0
179.161041 112.0
179.185028 128.0
179.310257 176.0
179.555527 148.0
181.019989 108.0
181.079956 180.0
181.663223 116.0
181.749084 240.0
182.056595 180.0
182.579132 184.0
182.673264 184.0
182.966599 148.0
183.031204 136.0
183.066208 120.0
183.225128 120.0
183.40567 140.0
183.518906 232.0
183.578217 36.0
184.062592 464.0
184.139557 116.0
184.517853 108.0
184.550293 56.0
184.960022 176.0
185.733734 184.0
185.758148 32.0
186.048508 168.0
186.081085 140.0
186.684296 160.0
186.774048 176.0
187.087494 128.0
187.131073 144.0
187.250351 232.0
187.490097 200.0
187.70546 112.0
187.850006 88.0
187.896927 140.0
187.946381 160.0
188.009613 224.0
188.070511 2888.0
188.117432 192.0
188.245331 112.0
188.289444 112.0
188.442413 132.0
188.475189 148.0
188.682907 112.0
188.879807 116.0
188.997437 144.0
189.027542 136.0
189.073135 480.0
189.101898 20648.0
189.182449 60.0
189.205444 44.0
189.226868 68.0
189.306747 48.0
189.370453 136.0
189.388916 80.0
189.435486 84.0
189.469864 116.0
189.503967 92.0
189.545197 172.0
189.569733 44.0
189.640991 56.0
189.660172 68.0
189.695801 112.0
189.75972 64.0
189.860306 116.0
189.983734 136.0
190.075592 140.0
190.10318 2428.0
190.148376 164.0
190.184052 84.0
190.255417 64.0
190.326813 48.0
190.35701 40.0
190.546524 36.0
190.571259 108.0
190.593246 100.0
190.725143 208.0
190.848862 60.0
190.977493 144.0
191.011108 160.0
191.05513 112.0
191.117111 4304.0
191.20874 92.0
191.267014 36.0
191.307724 76.0
191.368881 72.0
191.487289 108.0
191.517578 136.0
191.56665 108.0
191.602203 196.0
191.627426 96.0
191.677368 156.0
191.776581 84.0
191.81517 84.0
191.955765 80.0
191.975067 48.0
192.030228 52.0
192.120422 740.0
192.259216 144.0
192.40274 88.0
192.510422 180.0
192.598801 136.0
192.833649 144.0
193.120667 148.0
193.173752 128.0
193.420013 184.0
193.599976 64.0
193.691376 228.0
194.334534 184.0
194.37616 88.0
194.423325 120.0
194.920395 192.0
195.073166 128.0
195.131638 260.0
195.643524 112.0
196.616302 196.0
197.35376 132.0
197.66423 224.0
197.953735 296.0
198.953491 132.0
199.026489 124.0
199.084244 928.0
199.262421 172.0
199.952057 344.0
199.996368 144.0
200.047028 160.0
200.07338 156.0
200.587112 148.0
200.700653 208.0
200.960129 120.0
201.06633 320.0
201.236725 92.0
201.558716 180.0
201.962982 160.0
202.257248 156.0
202.495087 96.0
202.520569 164.0
202.679214 152.0
202.704727 100.0
202.843597 124.0
203.090286 128.0
203.260498 128.0
203.339951 172.0
203.513107 80.0
204.399933 156.0
204.496689 232.0
204.550766 124.0
205.171783 180.0
205.368546 172.0
205.619614 156.0
206.482407 216.0
206.559631 152.0
206.840042 148.0
207.086288 60.0
207.583908 152.0
207.691055 108.0
209.435745 196.0
209.585556 120.0
209.704025 180.0
209.824768 152.0
209.882431 160.0
210.759903 128.0
211.335281 100.0
212.325958 140.0
212.51741 44.0
212.595764 252.0
212.804749 84.0
212.938324 88.0
212.981888 160.0
213.077759 172.0
213.310242 104.0
213.990982 164.0
214.119095 176.0
214.430832 96.0
214.911987 200.0
215.075409 156.0
215.370316 124.0
215.417053 116.0
215.647888 76.0
215.747269 144.0
215.896622 244.0
215.978271 132.0
216.086517 124.0
216.335266 116.0
216.366653 72.0
216.402603 200.0
216.468185 120.0
216.489883 212.0
216.535934 184.0
216.572449 144.0
216.613449 136.0
216.691956 180.0
216.731995 212.0
216.800964 216.0
216.841995 144.0
216.864166 140.0
216.895157 204.0
216.936401 184.0
216.970963 124.0
216.99736 88.0
217.027969 164.0
217.057297 356.0
217.097702 55820.0
217.141708 300.0
217.155701 132.0
217.165024 112.0
217.261307 44.0
217.290054 160.0
217.296799 96.0
217.31015 80.0
217.321716 152.0
217.369858 76.0
217.417694 80.0
217.454956 124.0
217.477264 104.0
217.549622 48.0
217.587738 172.0
217.620499 112.0
217.655624 124.0
217.701569 56.0
217.771011 192.0
217.781525 124.0
217.834549 72.0
217.874863 36.0
217.924805 124.0
217.977692 112.0
218.049133 104.0
218.09993 6656.0
218.139847 188.0
218.165054 80.0
218.184952 124.0
218.301041 88.0
218.348099 96.0
218.379517 76.0
218.466858 64.0
218.514984 76.0
218.535141 68.0
218.574615 64.0
218.608994 76.0
218.686432 60.0
218.75708 52.0
218.795349 124.0
218.81868 52.0
218.866013 124.0
218.897217 60.0
218.98381 56.0
219.054489 144.0
219.097656 136.0
219.156189 56.0
219.185593 108.0
219.237167 104.0
219.269592 40.0
219.299057 64.0
219.344086 116.0
219.366852 156.0
219.419235 140.0
219.46843 88.0
219.534363 176.0
219.617737 96.0
219.684448 208.0
219.745651 116.0
219.794495 140.0
219.815155 100.0
219.834961 188.0
219.903687 48.0
219.980423 56.0
220.036514 68.0
220.101471 80.0
220.140381 68.0
220.402756 72.0
220.512085 116.0
220.667389 104.0
220.672592 148.0
220.949722 80.0
220.994095 124.0
221.07399 36.0
221.115417 32.0
221.935974 92.0
222.740219 48.0
224.031235 76.0
224.543915 48.0
224.761673 64.0
225.98671 176.0
226.969131 128.0
227.152084 128.0
227.770432 56.0
227.965714 192.0
228.161087 80.0
228.356537 80.0
229.77832 88.0
230.288467 92.0
230.617798 160.0
233.555862 132.0
235.105637 2972.0
235.195129 100.0
235.326401 92.0
235.42717 52.0
235.466858 64.0
236.107193 584.0
236.160645 92.0
236.503326 96.0
236.650269 52.0
236.827881 44.0
237.158783 52.0
237.385651 96.0
237.775253 136.0
237.842773 112.0
238.530838 84.0
239.088974 144.0
239.595581 36.0
240.520676 140.0
241.085876 68.0
244.540741 56.0
245.706146 40.0
247.112045 140.0
250.351379 72.0
253.190445 20.0
253.377319 104.0
254.036713 96.0
254.331818 80.0
255.081436 224.0
258.119751 184.0
258.231689 60.0
258.874939 80.0
262.538391 120.0
266.422485 88.0
268.130737 76.0
270.021027 100.0
271.586578 72.0
274.51358 164.0
274.846741 112.0
279.871643 96.0
288.196747 120.0
289.197723 48.0
289.661591 104.0
292.885101 116.0
296.307983 132.0
298.459961 56.0
301.103058 64.0
303.085205 44.0
304.129059 112.0
304.208893 64.0
304.997406 48.0
307.875214 152.0
308.238495 60.0
308.766357 72.0
312.452942 88.0
319.788452 64.0
320.119537 108.0
320.290497 72.0
326.33844 76.0
326.777222 84.0
334.142975 156.0
337.374603 64.0
338.142731 56.0
349.226288 100.0
349.564819 56.0
356.479065 128.0
357.750336 120.0
358.925812 136.0
360.813599 40.0
361.07074 140.0
362.06604 128.0
365.501495 60.0
368.616821 80.0
369.36615 68.0
370.664001 60.0
371.760681 164.0
372.069244 184.0
372.636139 68.0
379.079895 44.0
380.747986 88.0
381.400726 116.0
383.40509 108.0
385.028015 128.0
385.680481 92.0
387.233765 96.0
388.064545 1816.0
388.17038 56.0
388.41745 68.0
388.590057 112.0
389.075775 220.0
389.465485 84.0
389.736542 92.0
390.058929 2016.0
390.337921 92.0
391.061615 300.0
391.731171 40.0
391.99118 60.0
394.185181 52.0
395.692139 52.0
398.76239 96.0
401.932251 56.0
402.151764 148.0
402.503052 60.0
407.843292 36.0
409.283508 112.0
420.015045 128.0
422.82605 52.0
422.871063 28.0
426.916168 36.0
430.699585 44.0
433.189728 60.0
444.694 64.0
452.754944 80.0
455.673248 40.0
466.145935 76.0
466.558533 40.0
468.33139 32.0
469.14151 116.0
478.969482 116.0
482.075836 124.0
503.627808 84.0
513.903503 120.0
520.734436 96.0
539.938171 76.0
541.456116 124.0
554.637085 128.0
561.152588 36.0
568.118835 96.0
582.660522 48.0
597.711975 88.0
607.758057 36.0
616.57251 96.0
627.931702 72.0
641.898254 52.0
681.873901 76.0
688.667786 64.0
726.716797 20.0
748.532532 112.0
758.130432 212.0
762.229553 36.0
776.14502 56.0
779.742188 92.0
784.774353 52.0
793.597229 32.0
797.257019 120.0
797.296387 76.0
800.125671 180.0
810.257385 56.0
812.139343 92.0
820.755005 92.0
838.912231 128.0
852.932251 60.0
868.510742 168.0
868.592896 160.0
878.781982 80.0
883.064697 60.0
891.085022 212.0
895.582214 184.0
899.642944 124.0
911.201233 164.0
915.977661 104.0
927.064331 88.0
941.042358 220.0
967.565552 184.0
976.009705 104.0
980.822021 196.0
982.979858 176.0
983.572754 164.0
984.271973 64.0
989.004395 64.0
996.975708 112.0
998.585144 164.0
1002.173279 208.0
1010.475769 148.0
1017.637573 212.0
1017.834412 240.0
1030.055054 168.0
1030.388062 196.0
1032.606079 128.0
1033.789673 148.0
1034.039185 188.0
1039.492798 224.0
1044.491211 148.0
1044.761353 48.0
1045.51416 96.0
1045.617065 68.0
1046.988403 184.0
1049.037231 152.0
1053.283203 224.0
1058.884399 220.0
1061.949951 144.0
1063.435791 116.0
1073.747803 80.0
1075.398438 176.0
1075.940308 200.0
1078.004272 140.0
1089.115479 128.0
1091.139404 164.0
1094.659546 196.0
1096.194458 176.0
1099.287109 44.0
1100.428955 168.0
1110.195557 188.0
1112.225708 96.0
1112.683716 132.0
1117.295898 96.0
1118.214233 220.0
1121.737671 76.0
1122.25769 176.0
1124.679199 160.0
1126.702515 168.0
1127.698242 176.0
1127.744995 64.0
1130.306274 88.0
1132.093628 180.0
1132.334717 84.0
1133.386353 240.0
1134.492188 144.0
1136.744995 164.0
1138.168823 224.0
1139.565918 156.0
1140.358887 164.0
1140.741943 104.0
1142.799805 168.0
1143.694824 32.0
1146.247314 128.0
1146.38208 216.0
1146.651611 96.0
1146.71228 128.0
1151.08374 164.0
1151.353882 136.0
1153.211792 136.0
1153.60376 160.0
1154.523315 248.0
1156.261963 144.0
1157.494019 192.0
1157.568481 208.0
1158.537109 240.0
1161.668945 176.0
1163.412964 144.0
1164.234497 92.0
1167.204102 184.0
1167.999756 156.0
1170.333984 160.0
1171.287354 196.0
1171.682495 88.0
1173.931763 180.0
1176.859009 32.0
1177.446289 68.0
1180.815552 212.0
1181.923828 88.0
1185.162476 172.0
1186.13562 40.0
1189.531006 176.0
1189.716431 32.0
1197.114502 160.0
1199.801636 140.0
1201.042847 140.0
1202.132935 268.0
1203.886353 184.0
1204.73584 184.0
1209.216431 176.0
1210.614868 132.0
1210.836548 44.0
1212.901245 176.0
1213.462769 160.0
1214.50293 252.0
1214.835815 116.0
1215.085571 132.0
1216.563843 176.0
1219.134766 120.0
1220.447388 152.0
1221.838379 120.0
1222.054077 52.0
1222.318481 132.0
1222.381104 96.0
1223.021362 240.0
1223.278931 136.0
1223.801025 176.0
1224.016968 160.0
1226.741089 116.0
1228.7146 168.0
1231.688354 148.0
1231.925903 136.0
1235.805908 92.0
1240.133667 124.0
1241.760254 160.0
1242.209106 116.0
1244.784912 200.0
1245.494141 176.0
1248.087402 156.0
1250.704346 132.0
1251.795654 148.0
1252.591431 180.0
1258.233032 68.0
1258.875488 132.0
1259.793701 100.0
1260.754639 172.0
1262.521973 156.0
1263.236328 164.0
1265.139893 136.0
1268.093628 156.0
1268.412598 96.0
1270.59668 204.0
1271.62561 188.0
1273.571045 160.0
1281.167969 72.0
1282.493408 172.0
1283.619751 176.0
1284.35437 136.0
1285.724243 132.0
1289.052002 148.0
1292.269531 168.0
1293.199829 240.0
1294.953979 40.0
1295.10437 160.0
1295.297729 152.0
1295.756226 156.0
1297.841919 140.0
1299.111328 120.0
1303.088501 60.0
1303.217773 108.0
1304.791748 140.0
1305.733765 144.0
1308.741699 120.0
1309.447388 56.0
1309.699463 156.0
1311.688232 76.0
1312.44519 236.0
1312.711914 36.0
1313.231201 244.0
1313.779419 200.0
1314.024658 184.0
1314.286743 148.0
1315.944458 196.0
1317.251587 176.0
1317.930664 144.0
1318.168213 184.0
1320.280029 184.0
1321.63269 116.0
1323.123657 144.0
1324.2677 176.0
1327.050415 116.0
1327.74646 44.0
1328.333984 128.0
1328.827271 76.0
1332.253906 164.0
1332.631714 36.0
1333.888916 144.0
1334.085205 180.0
1336.419678 212.0
1336.761719 96.0
1339.637573 224.0
1342.013428 180.0
1342.801025 200.0
1344.697876 160.0
1344.989868 220.0
1346.391602 84.0
1347.465332 140.0
1348.707642 56.0
1349.365601 196.0
1349.467896 232.0
1349.84082 160.0
1355.587158 168.0
1356.063477 224.0
1356.965088 124.0
1357.815674 140.0
1358.585815 168.0
1359.268188 176.0
1359.334229 180.0
1359.752563 144.0
1360.024048 144.0
1360.273682 176.0
1360.604004 112.0
1361.76416 104.0
1363.02771 216.0
1363.997803 64.0
1364.211304 180.0
1364.350708 148.0
1366.373047 72.0
1366.527588 224.0
1366.814575 176.0
1367.977417 128.0
1368.57373 220.0
1368.779907 184.0
1369.28064 196.0
1370.024536 104.0
1370.120361 176.0
1370.179321 156.0
1371.498291 192.0
1372.670532 168.0
1373.157227 108.0
1374.521973 168.0
1374.640015 160.0
1375.680664 88.0
1377.201782 88.0
1377.800171 56.0
1377.888794 252.0
1379.884277 116.0
1381.222778 124.0
1381.533447 32.0
1381.881104 176.0
1382.769043 124.0
1388.310547 152.0
1390.231934 164.0
1390.558472 116.0
1392.674438 204.0
1392.889893 168.0
1393.216675 224.0
1397.618042 176.0
1399.419312 180.0
1399.717041 132.0
1400.558594 212.0
1401.780396 156.0
1402.965454 132.0
1403.845337 208.0
1404.740356 68.0
1404.964111 184.0
1407.680908 168.0
1408.32312 148.0
1413.084961 192.0
1413.803223 212.0
1414.020264 168.0
1414.491821 196.0
1415.465088 212.0
1416.092651 196.0
1416.61853 180.0
1417.060425 136.0
1417.525024 196.0
1418.589233 136.0
1420.208984 236.0
1420.688965 48.0
1421.146606 92.0
1423.383423 184.0
1424.014282 136.0
1424.787964 156.0
1425.358887 192.0
1427.012451 172.0
1428.223267 232.0
1430.09668 192.0
1431.7229 40.0
1432.046753 152.0
1432.235107 184.0
1432.573975 152.0
1432.890381 184.0
1435.171875 240.0
1435.57373 144.0
1437.904785 80.0
1438.025635 228.0
1438.621948 176.0
1439.950806 152.0
1440.230225 160.0
1440.781738 112.0
1441.000854 160.0
1445.33313 232.0
1447.225464 156.0
1447.853882 120.0
1449.179565 172.0
1452.325562 144.0
1452.568237 56.0
1452.818604 132.0
1453.52417 160.0
1454.286499 200.0
1455.529175 156.0
1457.252197 204.0
1457.890503 112.0
1457.974121 140.0
1458.354126 128.0
1458.544067 132.0
1458.59729 148.0
1458.703735 168.0
1458.924194 228.0
1460.817749 124.0
1462.682007 96.0
1463.108276 160.0
1463.61084 168.0
1465.316895 56.0
1465.415894 204.0
1466.183105 44.0
1466.459839 232.0
1467.107788 88.0
1468.129517 148.0
1469.578735 180.0
1470.212158 192.0
1471.58606 224.0
1472.319092 224.0
1475.941284 188.0
1476.377075 112.0
1476.858887 128.0
1476.912476 144.0
1478.144165 212.0
1478.664551 176.0
1479.215576 204.0
1480.080688 228.0
1480.207397 136.0
1480.279785 176.0
1480.892456 156.0
1481.474609 140.0
1482.685303 200.0
1482.968872 168.0
1483.804321 156.0
1483.973022 120.0
1484.686157 192.0
1484.946899 136.0
1489.275635 184.0
1490.281982 168.0
1490.589355 172.0
1491.450073 168.0
1491.849854 140.0
1493.072388 216.0
1493.587646 104.0
1495.411133 188.0
1495.549683 68.0
1495.726685 256.0
1495.803711 112.0
1495.888428 132.0
1496.658203 172.0
1496.981689 184.0
1498.059937 128.0
1498.22168 140.0
1498.532959 140.0
1500.356323 140.0
1501.713501 28.0
1502.81665 108.0
1503.078979 100.0
1503.588257 220.0
