>compound MLS001141093-01!1-[(2S)-2-amino-4-methylpentanoyl]-N-[(2S)-1-[(2-methoxyphenyl)methylamino]-1-oxopropan-2-yl]piperidine-4-carboxamide
>formula C23H36N4O4
>ionization [M+H]+
>parentmass 433.280548
#inchi InChI=1S/C23H36N4O4/c1-15(2)13-19(24)23(30)27-11-9-17(10-12-27)22(29)26-16(3)21(28)25-14-18-7-5-6-8-20(18)31-4/h5-8,15-17,19H,9-14,24H2,1-4H3,(H,25,28)(H,26,29)/t16-,19-/m0/s1
#inchikey BRFNOJXPTOLWMI
#Ion_Source LC-ESI
#Instrument qTof
#Compound_Source NIH Natural Product Library
#PI Dorrestein
#Data_Collector VVP/LMS
#Scan -1
#Precursor_MZ 433.281
#ExactMass 432.274
#Charge 1
#CAS_Number N/A
#Pubmed_ID N/A
#Smiles COc1ccccc1CNC(=O)[C@H](C)NC(=O)C2CCN(CC2)C(=O)[C@@H](N)CC(C)C
#INCHI_AUX N/A
#Library_Class 1
#SpectrumID CCMSLIB00000080214
#IonMode Positive
#UpdateWorkflowName UPDATE-SINGLE-ANNOTATED-GOLD
#LibraryQualityString Gold
#TaskID b1d8e8f6646f4e71acdff9ca3d919d08
##Scan# 1493
#SpectrumFile p2-F05_GF5_01_18041.mzXML
#LibraryName NIH_Natural_Products_Library.mgf
#MQScore -1
#Organism NIH_Natural_Products_Library
#TIC_Query 0
#RT_Query -1
#MZErrorPPM -1
#SharedPeaks 0
#MassDiff 0
#LibMZ -1
#SpecMZ 433.281
#SpecCharge 0
#internalFilename spec-00000.mgf

>collision 10
94.955177 80.0
95.026947 192.0
95.068565 168.0
95.083534 148.0
95.198883 92.0
95.308052 124.0
95.339577 176.0
95.355125 100.0
95.45816 176.0
95.500954 196.0
95.820206 232.0
95.924294 196.0
96.077728 176.0
96.171219 132.0
96.247353 156.0
96.282509 152.0
96.397766 184.0
96.454445 144.0
96.5131 132.0
96.575676 128.0
96.685242 136.0
96.724388 220.0
96.88105 116.0
96.936737 204.0
96.961388 160.0
97.031952 68.0
97.063324 216.0
97.098625 176.0
97.216339 140.0
97.320374 132.0
97.501099 136.0
97.514854 192.0
97.540405 204.0
97.563995 180.0
97.583656 172.0
97.629692 204.0
97.788246 176.0
97.805962 244.0
98.073387 156.0
98.096428 244.0
98.274994 120.0
98.405258 196.0
98.421059 96.0
98.480301 140.0
98.498077 44.0
98.585014 88.0
98.599854 212.0
98.64431 136.0
98.743172 156.0
98.768883 224.0
98.937088 72.0
98.980652 152.0
99.014313 100.0
99.038086 140.0
99.067383 212.0
99.164848 172.0
99.297729 128.0
99.315582 148.0
99.422722 48.0
99.442566 112.0
99.512047 148.0
99.565659 200.0
99.585518 136.0
99.696777 184.0
99.760384 128.0
99.985146 200.0
100.182274 136.0
100.285896 232.0
100.324188 164.0
100.506393 184.0
100.579102 160.0
100.611046 288.0
100.68692 196.0
100.802788 212.0
100.836761 132.0
100.86602 132.0
100.972717 116.0
101.070793 504.0
101.120773 160.0
101.1548 132.0
101.286964 128.0
101.32016 128.0
101.383133 176.0
101.525467 192.0
101.67794 176.0
101.856644 48.0
101.900841 40.0
101.9571 204.0
102.031471 156.0
102.077721 180.0
102.127998 156.0
102.181473 168.0
102.224571 224.0
102.355415 72.0
102.4944 208.0
102.595177 216.0
102.662735 164.0
102.899818 96.0
102.932121 212.0
102.946259 208.0
102.960396 208.0
102.990692 128.0
103.055336 160.0
103.164474 116.0
103.219063 120.0
103.24131 64.0
103.338402 184.0
103.441757 176.0
103.48008 120.0
103.514503 176.0
103.536781 116.0
103.670486 180.0
103.690758 52.0
103.745483 36.0
103.842819 164.0
103.923958 192.0
103.944252 160.0
104.185867 152.0
104.299667 40.0
104.396561 140.0
104.462341 48.0
104.525414 120.0
104.621078 176.0
104.682159 136.0
104.853287 84.0
104.904243 148.0
104.975609 180.0
105.042862 164.0
105.061272 120.0
105.124527 56.0
105.238831 132.0
105.401634 176.0
105.46151 96.0
105.504433 104.0
105.782654 228.0
105.815598 220.0
105.85022 160.0
105.923225 148.0
105.94648 76.0
106.010002 120.0
106.024345 92.0
106.040184 340.0
106.097542 180.0
106.328766 184.0
106.428467 248.0
106.599159 200.0
106.753136 196.0
106.878616 136.0
106.96711 96.0
107.069565 232.0
107.15847 148.0
107.178894 236.0
107.217377 160.0
107.239006 200.0
107.358139 92.0
107.389519 196.0
107.432838 160.0
107.447281 264.0
107.542206 52.0
107.605591 164.0
107.623505 188.0
107.674339 160.0
107.792099 192.0
107.889244 52.0
107.961609 172.0
108.040207 176.0
108.079521 148.0
108.253403 212.0
108.383904 212.0
108.620255 128.0
108.719841 176.0
108.861008 88.0
108.9067 200.0
109.050064 124.0
109.072929 184.0
109.238182 136.0
109.305862 152.0
109.351646 176.0
109.587921 192.0
109.653648 36.0
109.887199 184.0
109.974846 156.0
110.055183 364.0
110.131447 172.0
110.252625 156.0
110.461716 204.0
110.505646 208.0
110.539124 180.0
110.597725 124.0
110.629128 136.0
110.702408 132.0
110.855331 152.0
110.962234 228.0
111.031433 140.0
111.094353 176.0
111.247551 164.0
111.293739 164.0
111.503815 188.0
111.603836 144.0
111.709869 148.0
111.730141 344.0
111.748283 124.0
111.766678 112.0
111.791931 160.0
111.844543 128.0
111.880333 164.0
111.901222 208.0
111.92244 160.0
111.99826 180.0
112.01226 220.0
112.030769 424.0
112.047279 304.0
112.076263 68744.0
112.139267 104.0
112.171432 88.0
112.185799 144.0
112.209923 136.0
112.263817 36.0
112.30423 76.0
112.322243 108.0
112.332756 172.0
112.369286 56.0
112.400932 200.0
112.423058 504.0
112.449471 192.0
112.489883 140.0
112.548798 164.0
112.578255 52.0
112.601486 44.0
112.63739 56.0
112.652176 92.0
112.69558 96.0
112.733253 108.0
112.771782 260.0
112.823357 88.0
112.898628 96.0
112.920624 72.0
112.943893 44.0
112.97139 80.0
112.99794 68.0
113.079124 6748.0
113.109436 172.0
113.134346 144.0
113.151031 68.0
113.170334 116.0
113.191513 60.0
113.234985 204.0
113.257164 168.0
113.29953 156.0
113.333427 104.0
113.352501 156.0
113.413132 128.0
113.418831 108.0
113.47332 72.0
113.511482 120.0
113.586472 56.0
113.664474 228.0
113.710899 100.0
113.749107 36.0
113.775459 68.0
113.797935 108.0
113.834999 44.0
113.85952 156.0
113.88076 100.0
113.91346 152.0
113.927956 124.0
113.944489 100.0
113.960159 100.0
113.984856 88.0
114.037132 228.0
114.060555 136.0
114.080963 460.0
114.128395 444.0
114.163422 92.0
114.199348 184.0
114.230812 164.0
114.350639 52.0
114.374054 200.0
114.399597 120.0
114.512146 164.0
114.576363 48.0
114.644547 92.0
114.819359 156.0
114.874817 88.0
115.069023 168.0
115.173668 64.0
115.338196 80.0
115.374535 160.0
115.415161 232.0
115.470764 40.0
115.543488 160.0
115.95034 104.0
115.96534 88.0
115.982491 128.0
116.113281 36.0
116.295654 192.0
116.338829 172.0
116.364342 216.0
116.58989 108.0
116.850075 260.0
116.972748 140.0
117.054558 176.0
117.246284 200.0
117.347603 100.0
117.593521 172.0
117.608627 116.0
117.675552 156.0
117.701462 120.0
117.835381 76.0
117.863907 196.0
118.025581 164.0
118.042885 136.0
118.291695 156.0
118.425949 156.0
118.441109 52.0
118.50177 56.0
118.527771 132.0
118.601456 84.0
118.631798 124.0
118.649147 204.0
118.772751 204.0
118.85302 136.0
118.874725 96.0
118.970222 164.0
118.991936 348.0
119.052734 152.0
119.117897 160.0
119.259132 96.0
119.352615 184.0
119.509224 168.0
119.739975 32.0
120.053802 184.0
120.189049 48.0
120.538422 216.0
120.573387 60.0
120.612732 104.0
120.654266 188.0
120.684875 188.0
120.746109 120.0
120.765579 164.0
120.787666 204.0
120.848923 164.0
120.895699 148.0
120.940681 112.0
120.944199 164.0
120.996346 156.0
121.002342 304.0
121.018227 284.0
121.065193 72712.0
121.122574 56.0
121.139511 108.0
121.163322 56.0
121.187569 72.0
121.221169 56.0
121.240891 112.0
121.258301 144.0
121.302261 44.0
121.327469 168.0
121.400925 76.0
121.426071 500.0
121.473305 44.0
121.49305 48.0
121.517181 176.0
121.532539 52.0
121.584106 120.0
121.59481 96.0
121.642273 40.0
121.66642 60.0
121.686478 60.0
121.759903 168.0
121.800858 128.0
121.836624 112.0
121.908035 164.0
121.956993 68.0
121.992043 108.0
122.039925 36.0
122.067543 10536.0
122.108093 88.0
122.156487 36.0
122.182884 100.0
122.218086 44.0
122.306122 132.0
122.334732 28.0
122.374367 76.0
122.429413 148.0
122.447029 60.0
122.51532 64.0
122.550568 72.0
122.627701 92.0
122.69162 156.0
122.711464 96.0
122.726898 132.0
122.757774 124.0
122.783432 44.0
122.804085 76.0
122.843788 104.0
122.869026 164.0
122.890205 124.0
122.915497 152.0
122.922523 76.0
122.930733 128.0
122.951279 84.0
122.991295 104.0
122.999252 80.0
123.008636 268.0
123.02916 84.0
123.07016 724.0
123.107735 136.0
123.364952 76.0
123.530807 188.0
123.575058 168.0
123.928703 116.0
123.964767 112.0
124.051208 60.0
124.080933 216.0
124.18869 60.0
124.348434 196.0
124.521614 40.0
124.68602 64.0
124.701584 40.0
125.088615 36.0
125.222214 160.0
125.607819 136.0
126.306992 148.0
126.506149 136.0
126.541969 56.0
127.083023 320.0
127.677406 164.0
127.70665 220.0
128.08815 260.0
128.506363 180.0
128.603409 96.0
128.890213 152.0
129.101074 292.0
129.276901 104.0
129.702698 212.0
130.086548 332.0
130.106491 128.0
130.199585 184.0
130.438156 124.0
130.615524 124.0
130.708801 76.0
131.301102 148.0
131.444824 176.0
131.495026 128.0
131.865036 200.0
132.10054 200.0
132.48056 68.0
132.638672 92.0
132.916183 236.0
133.253708 60.0
133.481262 124.0
133.881683 76.0
134.968567 56.0
135.081802 108.0
135.2323 188.0
135.375839 160.0
135.571564 172.0
135.797638 148.0
136.067612 140.0
136.081863 92.0
136.310699 176.0
136.906235 108.0
136.962128 164.0
137.45639 192.0
138.091522 3764.0
138.177261 52.0
138.281342 96.0
138.321136 44.0
138.367966 56.0
138.649048 124.0
139.036011 84.0
139.094666 420.0
139.162781 64.0
139.329529 64.0
139.545746 112.0
139.769196 32.0
139.852875 116.0
139.891586 56.0
139.952805 48.0
140.053696 180.0
140.069824 168.0
140.103531 176.0
140.124741 184.0
140.395813 176.0
140.424118 168.0
140.808823 160.0
141.068741 180.0
141.087646 84.0
141.878372 196.0
142.146393 60.0
142.821121 76.0
143.328201 132.0
143.72403 236.0
143.766983 120.0
143.974686 96.0
144.658508 188.0
145.334366 120.0
145.581619 144.0
145.715164 204.0
145.973312 48.0
146.469101 128.0
146.888535 108.0
147.465622 140.0
147.504303 168.0
148.215836 124.0
148.358826 124.0
148.632904 168.0
149.006821 240.0
149.094299 140.0
149.731705 60.0
150.128952 96.0
150.180176 148.0
150.245377 240.0
150.289948 52.0
150.631744 160.0
150.878571 164.0
150.934799 164.0
151.186768 232.0
151.34343 48.0
151.380157 56.0
151.549179 76.0
151.887497 168.0
152.146118 196.0
152.985931 128.0
153.101974 368.0
153.133682 168.0
153.94754 116.0
154.120132 184.0
154.533371 168.0
154.600189 180.0
154.870041 124.0
154.904724 380.0
155.086929 188.0
155.118317 9912.0
155.159866 188.0
155.189728 152.0
155.250122 236.0
155.303802 60.0
155.345978 76.0
155.417923 144.0
155.470032 144.0
155.596634 40.0
155.676086 72.0
155.760529 152.0
155.78537 136.0
156.12149 1380.0
156.145798 156.0
156.342331 156.0
156.872864 184.0
156.932693 172.0
157.044922 48.0
157.12973 128.0
157.197098 84.0
158.041702 192.0
158.169327 120.0
158.359619 60.0
158.452316 148.0
158.640274 152.0
159.433426 152.0
159.579224 136.0
159.757782 136.0
160.246201 168.0
160.306686 100.0
160.597244 80.0
161.177261 168.0
161.336487 216.0
161.376938 88.0
161.518555 64.0
161.584335 76.0
161.71846 120.0
161.76149 152.0
161.8349 108.0
161.995255 228.0
162.458374 180.0
163.093201 116.0
163.123703 148.0
163.378006 68.0
163.43399 72.0
163.79805 188.0
163.854095 64.0
163.899948 204.0
164.073273 188.0
164.106277 784.0
164.274734 68.0
164.918213 68.0
165.10997 248.0
165.393982 128.0
165.447739 168.0
165.744843 172.0
165.82428 96.0
166.084717 140.0
166.119156 308.0
166.415573 128.0
166.558105 36.0
166.82724 196.0
166.894775 72.0
167.120102 424.0
167.218918 60.0
167.677353 176.0
167.728897 224.0
167.85524 80.0
167.997086 116.0
169.374908 168.0
169.971191 96.0
170.145096 40.0
170.858994 152.0
170.883209 124.0
170.909225 152.0
171.57338 184.0
172.050812 136.0
172.377289 108.0
173.25119 124.0
173.296875 256.0
173.581436 76.0
173.859512 40.0
173.880508 108.0
174.531998 184.0
174.955597 224.0
174.979294 124.0
175.100418 132.0
175.1689 124.0
176.434296 200.0
177.142197 176.0
177.563644 84.0
177.648514 120.0
178.668655 176.0
179.10257 152.0
179.153595 152.0
179.31839 40.0
179.897217 168.0
180.132797 144.0
180.353989 156.0
180.482315 212.0
181.095749 372.0
181.124283 156.0
181.156021 144.0
181.207672 160.0
181.317535 168.0
181.422073 140.0
181.615143 112.0
181.658066 164.0
181.70903 104.0
181.730499 56.0
181.794891 136.0
182.044556 116.0
182.103638 48.0
182.146622 220.0
182.321259 112.0
182.470139 104.0
182.498672 128.0
182.689636 124.0
183.113464 18868.0
183.168793 32.0
183.220886 72.0
183.258972 68.0
183.351776 88.0
183.378799 124.0
183.444611 136.0
183.515793 176.0
183.605438 56.0
183.74408 40.0
183.815857 48.0
183.994003 92.0
184.023697 196.0
184.064194 64.0
184.115829 2036.0
184.156021 112.0
184.2435 104.0
184.28569 76.0
184.410004 124.0
184.447845 132.0
184.805435 192.0
184.869766 32.0
184.899536 48.0
184.929306 56.0
185.117477 320.0
185.377136 128.0
185.438492 128.0
185.468735 156.0
185.506271 96.0
185.560486 88.0
186.76622 104.0
187.005661 176.0
187.08461 176.0
187.171738 148.0
187.198959 172.0
187.419601 220.0
187.449585 44.0
187.504089 100.0
188.117798 132.0
188.322586 168.0
188.989624 48.0
189.277039 192.0
189.41124 164.0
190.246155 188.0
190.478287 152.0
190.777832 108.0
191.542831 148.0
191.983826 116.0
192.107941 156.0
192.508163 84.0
193.179794 160.0
193.282166 180.0
193.329208 72.0
193.630966 212.0
194.124268 192.0
194.343399 180.0
195.110062 104.0
195.130051 160.0
196.843033 128.0
197.167084 120.0
197.497009 176.0
197.824402 44.0
198.112259 140.0
198.128677 332.0
198.166077 156.0
198.26976 192.0
198.297775 44.0
198.323013 64.0
198.477203 36.0
198.982239 120.0
199.126572 160.0
199.279953 120.0
199.420456 56.0
200.140289 540.0
200.628067 40.0
200.738022 200.0
201.149948 96.0
202.235367 72.0
202.748001 116.0
202.96344 252.0
203.482681 200.0
203.829208 232.0
204.073654 36.0
204.096405 108.0
204.132385 244.0
204.933228 148.0
205.149826 208.0
205.377945 204.0
205.691818 192.0
205.75177 208.0
206.023087 220.0
206.153336 1856.0
206.197388 92.0
206.366043 120.0
206.772247 100.0
207.035629 116.0
207.101501 116.0
207.15593 132.0
207.385162 100.0
207.571518 156.0
207.881332 148.0
208.135193 236.0
208.478653 136.0
208.697113 216.0
208.809265 160.0
208.972229 172.0
209.034592 196.0
209.128998 18156.0
209.220749 60.0
209.252411 28.0
209.277313 68.0
209.299698 76.0
209.353195 60.0
209.443283 172.0
209.658569 40.0
210.027618 56.0
210.076645 52.0
210.131485 3420.0
210.241119 72.0
210.391205 64.0
210.414307 40.0
210.448959 96.0
210.633789 36.0
211.119858 240.0
211.138565 460.0
211.232147 64.0
211.304474 60.0
211.376816 64.0
211.741577 80.0
211.851639 88.0
211.944351 104.0
212.140167 716.0
212.18782 148.0
212.22261 112.0
212.419815 60.0
212.470367 88.0
212.556183 164.0
212.776779 36.0
212.866791 52.0
213.140305 200.0
213.442139 44.0
213.895996 36.0
213.942581 100.0
214.507721 64.0
214.539795 36.0
215.365601 236.0
215.546738 72.0
216.195923 152.0
216.263245 64.0
217.576508 176.0
217.802628 116.0
219.795746 136.0
220.350845 48.0
221.818695 200.0
222.76532 44.0
223.178436 188.0
223.527832 112.0
223.702057 116.0
224.173996 248.0
224.700409 52.0
224.840668 68.0
225.159058 160.0
226.765747 60.0
227.054565 84.0
228.520477 172.0
229.496353 188.0
229.722549 168.0
230.773849 196.0
231.139542 68.0
231.514908 36.0
231.584564 100.0
231.733002 192.0
231.917862 48.0
232.057312 60.0
232.130722 188.0
232.175568 180.0
232.257462 132.0
232.339371 56.0
232.9617 48.0
232.989044 184.0
233.134903 140.0
233.155594 128.0
233.925705 56.0
234.135788 96.0
234.269806 44.0
234.565399 52.0
234.684296 112.0
234.928284 216.0
235.908569 92.0
236.719376 212.0
237.148285 148.0
238.975479 68.0
240.67569 124.0
240.849838 108.0
241.084641 168.0
241.901184 212.0
242.232529 80.0
242.827652 172.0
243.17128 212.0
243.417297 132.0
244.016983 104.0
244.169357 172.0
244.847824 52.0
244.92569 72.0
245.923462 124.0
246.766907 148.0
248.489517 152.0
249.884506 56.0
250.980591 152.0
251.177261 1364.0
251.378052 88.0
252.17897 556.0
252.25293 40.0
252.38887 32.0
252.730484 132.0
252.844406 148.0
253.176819 140.0
253.408051 124.0
255.144104 72.0
255.179077 96.0
255.649841 52.0
256.324951 72.0
257.288177 144.0
257.550049 164.0
258.118927 148.0
260.150208 116.0
261.168854 52.0
261.780334 88.0
261.944611 144.0
262.547333 164.0
262.844116 104.0
264.023224 192.0
265.075317 184.0
266.945129 40.0
268.058411 168.0
268.110565 56.0
268.201996 4028.0
268.355042 88.0
268.3909 80.0
268.540924 60.0
268.602905 28.0
268.64856 48.0
268.968353 180.0
269.056488 116.0
269.203949 564.0
269.24588 180.0
270.205688 124.0
270.239624 48.0
270.8125 72.0
271.117188 68.0
271.382721 48.0
272.682678 252.0
273.093658 180.0
275.572693 44.0
276.035431 40.0
279.156525 164.0
280.169617 96.0
283.083618 112.0
284.344147 52.0
286.098785 112.0
286.422058 32.0
287.656219 116.0
288.466949 172.0
289.79361 64.0
289.861389 196.0
291.432404 180.0
291.830078 124.0
293.430298 120.0
293.798645 152.0
294.993896 72.0
295.113556 180.0
295.828583 40.0
295.866241 236.0
296.003204 128.0
296.136749 136.0
296.19928 3084.0
296.328583 200.0
296.614685 76.0
296.712433 52.0
296.853027 60.0
297.164154 188.0
297.206482 452.0
297.250946 72.0
297.450012 92.0
297.721252 80.0
298.212555 348.0
298.985992 72.0
299.096527 128.0
301.987976 140.0
302.194122 144.0
303.194122 108.0
303.341858 48.0
303.681671 40.0
304.591095 36.0
306.086578 88.0
312.903839 196.0
313.372253 32.0
313.460358 72.0
313.548462 176.0
315.026886 152.0
315.079865 164.0
315.956635 140.0
317.0047 48.0
317.931366 196.0
318.177856 128.0
318.572968 156.0
318.842987 100.0
319.102478 116.0
319.168884 148.0
319.426117 92.0
319.68103 148.0
319.833282 132.0
319.885162 160.0
320.002625 108.0
320.04892 316.0
320.095215 172.0
320.197845 20288.0
320.24881 240.0
320.390839 56.0
320.459167 88.0
320.504852 28.0
320.551178 48.0
320.608185 44.0
320.65451 80.0
320.772156 52.0
320.80423 120.0
320.894501 88.0
320.928619 112.0
320.96109 88.0
321.001068 172.0
321.024048 104.0
321.153442 112.0
321.200806 3788.0
321.571136 76.0
321.680298 68.0
321.721375 44.0
321.799591 76.0
321.83667 52.0
321.892426 148.0
322.063873 36.0
322.121002 60.0
322.201538 592.0
322.299652 72.0
322.657074 56.0
322.685669 168.0
322.735718 76.0
322.850159 68.0
323.051727 108.0
323.115234 108.0
323.154205 136.0
323.205414 116.0
323.293762 156.0
323.329529 132.0
323.365326 104.0
323.504944 120.0
323.584442 132.0
323.87735 80.0
323.916748 56.0
324.29657 64.0
324.461456 52.0
324.823639 56.0
325.473236 140.0
326.572937 68.0
326.605316 80.0
329.434998 124.0
329.597595 56.0
333.93338 36.0
334.122528 76.0
335.178406 68.0
335.258575 124.0
335.557495 132.0
336.042572 116.0
338.118134 84.0
342.579407 52.0
344.187469 48.0
346.175873 176.0
347.143188 168.0
350.68338 72.0
356.15744 232.0
358.998993 148.0
360.201538 168.0
361.234955 100.0
371.463257 212.0
383.882812 128.0
388.262817 152.0
389.271362 104.0
393.216034 96.0
393.962341 28.0
398.260254 144.0
399.281708 272.0
407.456207 44.0
407.870117 52.0
411.532135 104.0
413.253937 104.0
413.351044 72.0
413.516968 68.0
415.255096 76.0
415.815002 48.0
416.254333 316.0
416.419952 40.0
417.26123 124.0
417.712494 80.0
417.830475 96.0
424.877899 92.0
429.629578 192.0
432.207703 112.0
432.447723 188.0
433.280548 1792.0
433.379486 52.0
433.657135 52.0
433.835388 48.0
434.280029 372.0
435.11731 76.0
435.285217 208.0
435.520111 80.0
435.653046 108.0
436.854431 96.0
437.233063 140.0
437.320465 56.0
438.344971 96.0
440.506165 48.0
444.319916 76.0
460.067993 172.0
461.392365 52.0
461.494965 100.0
464.394135 92.0
465.170776 92.0
471.217072 124.0
473.691772 132.0
482.779785 72.0
489.322174 76.0
497.487732 96.0
558.630005 64.0
562.55542 88.0
568.66156 40.0
582.821167 104.0
604.986572 56.0
610.029602 84.0
610.791748 236.0
615.182373 52.0
619.930542 44.0
623.95105 64.0
624.299133 88.0
633.012146 40.0
634.199463 76.0
690.642395 76.0
721.954224 248.0
724.485962 32.0
726.592834 76.0
757.051086 64.0
770.886475 156.0
782.356689 152.0
790.572754 184.0
791.451599 88.0
799.934692 64.0
811.856384 292.0
818.465149 180.0
829.371094 88.0
831.171875 212.0
833.485962 92.0
852.852051 176.0
853.003235 116.0
860.22644 132.0
868.447632 140.0
871.394531 196.0
872.211365 264.0
886.72522 196.0
890.284851 36.0
890.362061 124.0
893.57782 164.0
899.286621 156.0
900.247803 180.0
902.141846 152.0
906.870605 156.0
908.765625 188.0
920.128723 48.0
920.829163 228.0
923.31311 136.0
923.621582 184.0
924.601746 228.0
928.418396 76.0
930.517883 164.0
932.71698 208.0
934.571838 144.0
944.797241 156.0
948.900574 148.0
951.61853 124.0
952.644104 200.0
955.43512 176.0
963.99939 196.0
966.120117 148.0
969.426453 156.0
972.539795 132.0
973.129517 228.0
973.576599 164.0
975.589783 128.0
975.832214 228.0
976.087158 124.0
978.32074 192.0
979.659607 132.0
982.995239 140.0
985.23053 128.0
987.018005 144.0
988.713257 216.0
988.75708 120.0
993.017334 64.0
993.952087 64.0
994.654968 176.0
994.956299 196.0
999.714417 184.0
1000.721558 160.0
1002.529358 188.0
1005.840515 172.0
1008.35437 172.0
1010.131104 28.0
1014.196289 152.0
1014.538574 176.0
1017.755188 216.0
1021.504883 172.0
1022.217407 204.0
1023.363159 192.0
1025.07019 160.0
1027.116699 204.0
1028.016357 264.0
1030.83252 148.0
1034.522827 132.0
1037.341553 208.0
1039.380981 68.0
1040.125488 164.0
1043.382324 148.0
1044.65564 208.0
1044.94519 72.0
1045.202515 164.0
1045.498535 96.0
1046.097168 108.0
1048.171021 88.0
1049.079712 120.0
1054.812012 184.0
1056.545044 176.0
1056.719727 76.0
1057.250366 156.0
1057.554565 156.0
1061.46106 176.0
1062.381958 116.0
1062.875122 164.0
1065.979004 168.0
1066.882446 236.0
1068.651367 168.0
1068.716431 128.0
1071.007935 200.0
1077.701172 28.0
1077.773071 136.0
1078.596558 208.0
1079.564209 132.0
1080.918213 100.0
1082.345215 100.0
1082.698853 164.0
1083.576538 116.0
1084.638184 180.0
1085.083984 104.0
1089.572998 152.0
1090.433838 40.0
1093.195923 96.0
1093.919922 184.0
1094.097656 156.0
1094.598022 112.0
1095.315918 116.0
1096.838013 192.0
1097.543457 184.0
1097.70166 148.0
1097.866577 176.0
1097.991821 132.0
1098.110596 76.0
1099.859009 156.0
1101.252197 172.0
1103.128784 192.0
1104.047852 156.0
1104.65625 172.0
1105.781128 244.0
1105.973022 168.0
1108.522827 192.0
1109.145874 136.0
1111.672729 176.0
1113.5448 52.0
1114.773804 88.0
1115.086182 136.0
1116.02356 56.0
1116.508911 116.0
1119.457031 112.0
1121.623291 132.0
1123.869751 156.0
1124.910889 252.0
1126.052612 172.0
1129.441284 188.0
1130.638916 184.0
1131.288208 196.0
1134.892578 176.0
1135.543091 228.0
1135.831421 180.0
1136.475464 204.0
1138.90564 188.0
1139.160889 200.0
1139.443115 76.0
1139.537109 176.0
1139.687256 164.0
1140.296387 72.0
1140.410645 128.0
1140.975342 148.0
1141.022461 96.0
1141.446045 212.0
1141.735107 144.0
1141.809204 124.0
1142.824951 68.0
1142.871948 108.0
1143.221924 124.0
1144.292114 208.0
1144.460449 196.0
1144.628784 224.0
1145.578491 204.0
1145.672729 176.0
1146.31958 172.0
1146.595825 192.0
1146.932861 140.0
1147.876709 180.0
1148.901855 148.0
1149.482178 228.0
1149.785767 260.0
1154.02124 112.0
1156.158691 204.0
1156.402344 128.0
1156.849121 148.0
1158.643677 132.0
1160.182129 208.0
1163.981567 48.0
1164.585938 152.0
1164.674316 92.0
1164.796509 156.0
1165.243774 192.0
1165.469116 212.0
1165.863281 72.0
1166.060303 200.0
1166.270996 40.0
1169.168335 188.0
1171.52417 152.0
1172.273682 88.0
1172.771118 256.0
1173.316528 168.0
1175.581055 220.0
1176.065552 128.0
1177.601807 168.0
1178.264404 176.0
1178.324463 208.0
1178.510376 148.0
1179.057007 164.0
1179.364624 52.0
1179.99353 136.0
1181.573364 152.0
1182.750366 176.0
1183.469116 188.0
1183.934814 80.0
1184.119751 172.0
1184.653931 116.0
1184.818359 140.0
1185.435059 136.0
1185.688599 64.0
1185.887329 188.0
1186.120361 136.0
1187.128174 96.0
1187.484863 120.0
1187.721924 156.0
1188.088501 208.0
1188.7677 236.0
1189.474609 148.0
1191.438599 128.0
1191.960815 196.0
1192.348633 196.0
1192.641235 52.0
1193.094849 196.0
1193.796143 184.0
1196.782593 136.0
1196.95752 228.0
1197.174194 160.0
1197.891357 172.0
1199.820923 144.0
1200.441406 188.0
1201.979736 92.0
1202.442017 220.0
1202.607666 148.0
1204.472046 180.0
1204.672363 160.0
1205.079956 268.0
1205.770996 128.0
1206.220215 280.0
1206.320068 176.0
1206.510498 132.0
1208.066528 132.0
1209.090576 228.0
1209.810425 136.0
1210.682861 172.0
1211.936646 240.0
1212.698853 184.0
1214.085449 148.0
1215.216187 108.0
1215.4104 88.0
1216.291748 140.0
1217.451294 96.0
1218.944824 48.0
1219.681396 144.0
1222.094604 152.0
1222.400757 172.0
1223.653687 180.0
1224.461426 144.0
1224.600708 148.0
1225.346069 136.0
1225.75708 192.0
1227.325439 152.0
1227.52771 136.0
1227.68103 132.0
1229.425659 56.0
1230.98877 256.0
1231.07959 192.0
1231.198364 216.0
1231.868774 156.0
1232.700195 180.0
1233.657715 148.0
1233.853516 148.0
1233.937378 112.0
1234.363892 168.0
1235.601929 192.0
1236.049683 192.0
1236.959473 180.0
1237.568604 156.0
1238.282837 160.0
1239.277588 188.0
1239.931519 216.0
1240.272705 212.0
1240.728394 176.0
1243.000854 156.0
1244.762695 136.0
1245.170044 108.0
1245.83728 172.0
1247.073975 176.0
1248.338623 176.0
1250.210693 136.0
1250.302246 188.0
1250.731567 144.0
1252.196045 176.0
1252.414307 232.0
1252.900391 72.0
1253.696655 128.0
1254.293823 136.0
1255.162842 60.0
1256.10791 168.0
1256.164307 64.0
1256.270142 144.0
1256.425293 132.0
1256.644043 76.0
1257.272095 208.0
1257.991943 188.0
1258.613281 132.0
1262.619995 144.0
1263.433472 128.0
1263.69519 156.0
1263.82959 128.0
1263.928711 152.0
1264.25415 140.0
1264.608032 160.0
1265.025635 196.0
1265.50708 184.0
1265.882324 164.0
1266.456055 136.0
1266.682739 32.0
1267.384033 144.0
1269.320068 156.0
1270.397217 168.0
1270.858276 188.0
1271.674438 144.0
1273.037476 180.0
1273.584351 140.0
1274.074463 68.0
1274.145508 64.0
1275.552612 128.0
1276.811035 220.0
1278.155518 208.0
1278.981079 212.0
1279.230225 132.0
1279.422485 220.0
1279.692993 184.0
1280.634521 180.0
1281.708618 212.0
1282.164673 140.0
1282.556763 160.0
1283.847168 224.0
1285.580688 76.0
1285.65918 240.0
1285.973267 136.0
1286.394287 156.0
1286.822632 68.0
1287.093994 116.0
1289.072632 128.0
1289.30127 80.0
1290.359253 204.0
1290.495117 76.0
1290.630859 232.0
1290.745361 128.0
1290.809692 84.0
1291.213257 200.0
1291.388916 32.0
1291.47998 164.0
1292.097168 176.0
1292.333252 136.0
1292.540771 92.0
1292.628174 176.0
1293.220581 148.0
1293.62146 180.0
1293.786133 216.0
1295.103638 160.0
1296.335938 172.0
1296.565186 156.0
1297.210327 176.0
1297.303467 196.0
1299.218262 224.0
1299.47644 148.0
1299.706055 136.0
1300.420898 72.0
1300.703613 124.0
1301.773438 88.0
1304.855835 164.0
1305.081299 188.0
1305.488647 164.0
1305.775635 192.0
1306.610718 52.0
1308.107544 92.0
1308.589844 72.0
1308.647461 124.0
1308.820312 144.0
1309.28833 132.0
1309.482788 200.0
1309.706055 244.0
1309.864502 124.0
1310.757935 188.0
1310.951904 152.0
1311.312744 116.0
1311.557861 152.0
1311.918213 140.0
1312.156128 208.0
1312.437378 120.0
1312.942139 148.0
1313.295532 148.0
1314.334351 148.0
1315.185913 104.0
1315.294189 124.0
1315.763428 172.0
1316.681885 220.0
1317.005493 224.0
1317.171631 84.0
1317.879517 128.0
1318.009644 156.0
1318.710571 148.0
1319.744385 200.0
1320.185425 184.0
1320.293945 88.0
1320.66272 228.0
1321.01001 144.0
1321.183594 208.0
1324.230957 184.0
1326.891235 180.0
1326.947266 128.0
1326.999146 160.0
1327.129639 208.0
1327.52124 208.0
1328.478638 196.0
1328.957397 168.0
1330.111328 240.0
1330.270996 108.0
1330.35083 132.0
1330.924438 152.0
1331.490845 176.0
1331.890259 184.0
1333.386963 224.0
1333.626221 160.0
1334.368286 108.0
1334.586426 96.0
1334.739136 128.0
1335.589966 204.0
1336.390259 148.0
1337.096069 160.0
1337.489136 128.0
1337.722046 160.0
1339.418701 84.0
1339.593506 100.0
1339.97229 148.0
1340.125366 140.0
1340.365723 32.0
1340.424072 136.0
1341.152832 172.0
1341.779785 128.0
1342.756836 196.0
1343.457031 136.0
1343.641602 136.0
1344.471313 180.0
1344.690186 80.0
1345.091675 204.0
1345.682983 144.0
1345.785156 164.0
1347.260498 160.0
1347.435791 216.0
1347.713501 124.0
1349.708862 132.0
1349.899048 180.0
1351.2229 132.0
1351.464355 156.0
1352.196167 160.0
1353.089111 136.0
1353.616333 244.0
1353.814087 164.0
1354.106934 208.0
1354.575684 120.0
1354.978638 144.0
1355.117798 176.0
1355.46228 184.0
1355.660034 160.0
1356.041138 144.0
1356.473633 128.0
1356.737549 216.0
1356.913452 204.0
1357.507446 220.0
1358.270142 156.0
1358.321533 164.0
1358.431519 96.0
1358.739624 96.0
1359.708252 196.0
1360.280762 112.0
1361.029541 180.0
1361.205811 184.0
1361.646362 160.0
1361.852051 152.0
1361.925537 120.0
1362.946655 48.0
1363.321411 152.0
1363.880005 172.0
1364.497437 208.0
1364.768921 180.0
1365.246216 204.0
1365.453369 92.0
1365.880005 36.0
1366.019775 196.0
1366.431763 140.0
1366.909912 168.0
1367.82251 164.0
1368.337891 180.0
1370.031738 164.0
1370.230591 212.0
1370.694824 192.0
1371.660278 148.0
1371.800293 48.0
1372.515503 204.0
1373.658569 120.0
1374.580811 48.0
1375.163818 80.0
1375.459106 164.0
1375.739624 144.0
1376.647705 68.0
1376.921021 36.0
1377.578369 176.0
1377.644897 128.0
1377.84436 184.0
1378.243286 220.0
1378.420654 196.0
1378.568359 128.0
1378.642334 232.0
1379.011841 148.0
1379.374023 208.0
1379.425781 64.0
1380.497803 124.0
1381.799561 180.0
1382.102905 204.0
1382.495117 164.0
1383.455933 192.0
1383.642456 240.0
1384.531006 116.0
1385.582764 164.0
1386.360596 180.0
1386.671997 148.0
1386.998169 156.0
1387.124146 52.0
1387.910034 152.0
1388.39209 148.0
1388.577393 160.0
1389.252441 108.0
1389.64563 164.0
1389.890503 120.0
1390.165039 88.0
1390.573242 96.0
1391.218994 208.0
1391.434326 200.0
1391.746094 136.0
1391.894653 100.0
1392.199097 148.0
1392.689209 220.0
1392.815552 144.0
1393.03833 240.0
1393.323975 140.0
1393.380127 240.0
1393.986938 148.0
1394.145386 208.0
1394.286621 184.0
1395.104248 184.0
1395.981567 160.0
1396.472412 204.0
1397.937988 120.0
1398.243042 204.0
1399.611572 188.0
1400.536255 200.0
1401.020508 220.0
1401.392944 184.0
1401.58667 176.0
1403.405396 116.0
1403.584351 136.0
1404.061523 124.0
1404.479248 208.0
1404.874634 184.0
1405.314697 200.0
1405.762451 180.0
1406.008667 188.0
1406.09082 116.0
1406.463989 244.0
1406.658081 128.0
1406.971558 196.0
1407.270264 152.0
1407.61377 200.0
1407.800415 144.0
1408.017456 192.0
1408.711548 144.0
1409.152344 88.0
1409.316772 44.0
1410.10144 132.0
1410.406494 212.0
1410.584351 52.0
1410.772705 228.0
1410.88623 172.0
1411.237671 40.0
1412.052734 140.0
1412.202271 120.0
1413.046631 164.0
1413.930542 144.0
1415.000977 176.0
1415.8396 152.0
1416.573608 160.0
1416.753418 100.0
1417.337769 164.0
1417.675049 144.0
1417.9823 192.0
1419.999023 168.0
1420.539062 120.0
1420.696655 188.0
1420.906616 108.0
1421.619507 152.0
1422.377563 136.0
1422.940552 28.0
1423.278442 180.0
1423.39856 136.0
1424.074463 180.0
1424.141968 84.0
1424.329834 280.0
1424.700562 188.0
1424.848145 232.0
1424.915771 188.0
1426.493896 252.0
1426.899902 64.0
1427.508911 288.0
1427.584106 140.0
1427.704468 76.0
1428.43396 108.0
1429.449707 148.0
1429.968872 192.0
1430.066772 44.0
1430.194702 120.0
1430.577271 160.0
1431.579956 92.0
1431.986694 76.0
1432.450806 168.0
1432.724854 192.0
1433.274902 76.0
1434.058594 152.0
1434.525879 232.0
1434.601318 204.0
1434.9104 136.0
1434.98584 124.0
1435.65686 68.0
1435.91333 136.0
1436.524292 212.0
1436.712891 172.0
1436.886353 188.0
1436.954224 176.0
1437.293823 88.0
1437.391846 128.0
1437.520142 200.0
1438.003174 96.0
1438.116333 168.0
1438.206909 180.0
1438.312622 176.0
1438.889282 196.0
1438.96936 120.0
1439.331787 92.0
1440.645996 56.0
1441.174805 140.0
1441.5979 176.0
1441.885132 212.0
1442.64856 204.0
1443.926392 136.0
1444.319702 184.0
1444.455811 176.0
1444.856812 124.0
1445.08374 176.0
1445.409058 128.0
1445.49231 44.0
1446.249146 144.0
1446.309692 80.0
1446.945557 112.0
1447.558838 120.0
1448.497925 200.0
1449.929932 148.0
1450.960815 152.0
1451.408203 144.0
1451.521851 152.0
1451.63562 96.0
1452.598877 224.0
1452.856812 120.0
1453.190552 148.0
1454.427612 64.0
1454.647705 164.0
1454.958984 136.0
1455.40686 52.0
1455.536011 120.0
1455.72583 148.0
1456.280151 168.0
1456.348511 40.0
1456.591553 120.0
1456.819458 212.0
1457.017456 192.0
1457.662842 256.0
1457.829956 152.0
1458.536865 160.0
1458.590088 140.0
1458.726807 64.0
1458.954956 176.0
1459.319824 184.0
1459.836914 144.0
1459.996582 116.0
1460.498535 180.0
1461.411499 184.0
1464.403076 152.0
1464.585938 48.0
1465.172485 124.0
1465.682983 184.0
1465.781982 212.0
1466.00293 208.0
1467.519897 172.0
1467.763794 124.0
1468.092651 420.0
1468.199341 196.0
1469.655518 248.0
1469.998901 176.0
1470.120972 140.0
1470.296509 236.0
1472.174438 232.0
1472.670898 184.0
1472.984009 148.0
1473.365967 208.0
1473.770874 156.0
1474.244629 160.0
1474.481567 184.0
1475.018799 172.0
1475.200073 192.0
1475.383545 164.0
1476.828735 212.0
1476.951172 136.0
1477.218872 120.0
1477.417725 132.0
1477.494263 184.0
1477.55542 192.0
1477.731445 68.0
1478.871582 132.0
1479.078247 80.0
1479.407471 156.0
1479.529907 140.0
1480.203735 208.0
1480.742554 184.0
1481.023071 168.0
1481.245239 188.0
1481.360107 136.0
1481.685059 176.0
1481.920654 192.0
1483.03064 80.0
1483.490479 132.0
1483.935181 220.0
1484.272461 396.0
1485.37915 176.0
1485.453613 224.0
1485.783447 160.0
1487.049561 188.0
1487.740356 128.0
1487.794067 180.0
1489.135376 196.0
1489.644775 128.0
1490.551392 184.0
1490.728149 132.0
1491.381348 136.0
1491.504395 132.0
1491.719604 208.0
1491.804199 180.0
1491.873291 120.0
1492.626831 200.0
1493.019043 104.0
1493.295898 124.0
1493.865112 100.0
1494.026611 48.0
1494.565186 96.0
1494.634399 128.0
1495.973511 76.0
1496.196777 92.0
1496.412354 164.0
1496.720337 104.0
1497.259399 100.0
1497.428833 180.0
1497.921753 228.0
1499.478149 136.0
1499.80957 128.0
1500.065186 180.0
1500.210449 188.0
1501.174194 144.0
1503.720093 152.0
1503.851196 116.0
1503.943848 48.0
