>compound MLS001141310-01!1-[2-(4,8-dimethyl-2-oxochromen-7-yl)oxyacetyl]-4-phenylpiperidine-4-carboxylic acid
>formula C25H25NO6
>ionization [M+H]+
>parentmass 436.1754639720906
#inchi InChI=1S/C25H25NO6/c1-16-14-22(28)32-23-17(2)20(9-8-19(16)23)31-15-21(27)26-12-10-25(11-13-26,24(29)30)18-6-4-3-5-7-18/h3-9,14H,10-13,15H2,1-2H3,(H,29,30)
#inchikey YGZWIBIXFYRNQD
#Ion_Source LC-ESI
#Instrument qTof
#Compound_Source NIH Natural Product Library
#PI Dorrestein
#Data_Collector VVP/LMS
#Scan -1
#Precursor_MZ 436.176
#ExactMass 435.168
#Charge 1
#CAS_Number N/A
#Pubmed_ID N/A
#Smiles Cc1cc(=O)oc2c(C)c(OCC(=O)N3CCC(CC3)(C(=O)O)c4ccccc4)ccc12
#INCHI_AUX N/A
#Library_Class 1
#SpectrumID CCMSLIB00000080179
#IonMode Positive
#UpdateWorkflowName UPDATE-SINGLE-ANNOTATED-GOLD
#LibraryQualityString Gold
#TaskID b1d8e8f6646f4e71acdff9ca3d919d08
##Scan# 2080
#SpectrumFile p2-B05_GB5_01_17993.mzXML
#LibraryName NIH_Natural_Products_Library.mgf
#MQScore -1
#Organism NIH_Natural_Products_Library
#TIC_Query 0
#RT_Query -1
#MZErrorPPM -1
#SharedPeaks 0
#MassDiff 0
#LibMZ -1
#SpecMZ 436.176
#SpecCharge 0
#internalFilename spec-00000.mgf

>collision 10
95.063591 140.0
95.59021 180.0
96.10463 180.0
96.448341 96.0
96.630211 136.0
96.97094 116.0
97.050766 200.0
97.49691 160.0
97.546051 96.0
97.565704 160.0
98.060822 204.0
98.130745 184.0
98.193848 72.0
98.369461 108.0
98.410919 176.0
98.776527 144.0
98.865562 96.0
98.942757 144.0
99.042557 304.0
99.394661 144.0
99.619011 144.0
99.664703 152.0
99.688545 44.0
99.943077 236.0
100.264717 148.0
100.443123 236.0
100.586792 40.0
100.988419 144.0
101.018425 272.0
101.154495 148.0
101.208549 208.0
101.350769 140.0
101.380821 188.0
101.450974 108.0
101.57531 212.0
101.683655 196.0
101.816162 216.0
101.840263 60.0
101.99498 72.0
102.047249 180.0
102.206146 204.0
102.248405 156.0
102.393356 60.0
102.475952 160.0
102.621063 100.0
102.816734 208.0
102.830864 200.0
102.895454 124.0
103.054451 2684.0
103.072136 236.0
103.09745 48.0
103.127762 44.0
103.145958 176.0
103.27417 184.0
103.307732 64.0
103.406876 172.0
103.463554 164.0
103.544548 208.0
103.624229 168.0
103.700554 216.0
103.820168 128.0
103.937828 176.0
103.996681 156.0
104.055237 596.0
104.181465 124.0
104.299324 164.0
104.328461 84.0
104.35218 164.0
104.726616 76.0
104.897781 148.0
104.936516 96.0
104.99157 128.0
105.032249 392.0
105.070175 704.0
105.138458 200.0
105.205811 184.0
105.346718 252.0
105.647232 200.0
105.69429 88.0
105.741356 144.0
105.80481 176.0
105.911293 204.0
106.069069 188.0
106.362396 140.0
106.440414 64.0
106.536949 184.0
106.755241 116.0
106.831993 92.0
106.85067 240.0
106.865891 152.0
106.885231 192.0
107.048256 152.0
107.086586 192.0
107.121643 160.0
107.156197 108.0
107.20977 144.0
107.261299 132.0
107.387077 116.0
107.618202 144.0
107.632652 140.0
107.849579 116.0
107.96122 272.0
107.983063 192.0
108.000519 180.0
108.046028 336.0
108.447754 120.0
108.514084 160.0
108.545189 160.0
108.700768 116.0
108.765106 148.0
108.970695 196.0
109.047585 348.0
109.499062 140.0
109.707161 248.0
109.890961 112.0
109.905563 116.0
109.970253 120.0
110.062141 1268.0
110.154007 180.0
110.264748 68.0
110.421547 132.0
110.729202 332.0
110.857437 172.0
110.97438 176.0
111.059364 168.0
111.324806 156.0
111.560127 176.0
111.59166 88.0
111.733086 148.0
111.884102 208.0
112.075417 612.0
112.109474 196.0
112.124229 200.0
112.306732 92.0
112.514458 132.0
112.596809 176.0
113.286362 164.0
113.360512 128.0
113.483459 160.0
114.05526 368.0
114.080025 172.0
114.435318 128.0
114.526886 144.0
114.575882 156.0
114.605705 132.0
114.71653 156.0
114.855141 136.0
114.991692 128.0
115.010902 136.0
115.054916 3020.0
115.262909 168.0
115.322746 88.0
115.427498 64.0
115.523743 168.0
115.885559 180.0
115.988426 100.0
116.062431 1744.0
116.125648 72.0
116.179276 124.0
116.383163 224.0
116.477661 140.0
116.544258 188.0
116.677513 184.0
116.86248 64.0
117.010986 100.0
117.069 1824.0
117.157433 180.0
117.213448 352.0
117.63401 36.0
117.911736 136.0
118.074005 296.0
118.146179 212.0
118.237053 124.0
118.375603 92.0
119.085022 880.0
119.104317 80.0
119.134735 40.0
119.154282 128.0
119.1847 192.0
119.362946 144.0
119.380341 132.0
119.502151 188.0
119.59137 128.0
119.613136 132.0
119.750313 128.0
120.078674 200.0
120.084442 132.0
120.109955 160.0
120.147041 152.0
120.234322 52.0
120.483246 160.0
120.824287 132.0
120.839607 232.0
120.959969 132.0
121.066422 432.0
121.146103 104.0
121.260048 164.0
121.409126 120.0
121.665848 168.0
121.75853 96.0
121.979988 248.0
122.03495 176.0
122.067932 352.0
122.1735 60.0
122.298935 148.0
122.43103 120.0
122.499313 60.0
122.525749 144.0
122.583527 196.0
122.924835 124.0
123.147804 172.0
123.462593 116.0
123.508087 148.0
123.771446 176.0
123.89769 224.0
124.076363 184.0
124.463264 136.0
124.496574 116.0
124.523224 156.0
124.756531 204.0
125.065735 232.0
125.094666 180.0
125.399826 140.0
125.437721 152.0
125.526901 188.0
125.584885 120.0
125.723213 124.0
125.80043 168.0
126.026901 212.0
126.055519 624.0
126.08947 276.0
126.176643 160.0
126.315292 156.0
126.405907 248.0
126.467018 184.0
126.514458 112.0
126.787727 132.0
126.819099 132.0
127.05648 288.0
127.240829 168.0
127.276756 104.0
127.321663 176.0
127.400284 168.0
127.508133 36.0
127.62278 132.0
127.786972 136.0
127.969276 160.0
128.000809 152.0
128.063797 2820.0
128.221573 204.0
128.273407 172.0
128.300461 60.0
128.346054 180.0
128.401932 184.0
128.550827 160.0
128.887283 48.0
128.939255 172.0
129.070084 1636.0
129.602295 64.0
129.944656 172.0
129.96962 164.0
130.075089 888.0
130.371552 108.0
130.394272 128.0
130.637573 152.0
130.831009 72.0
130.915253 20.0
131.049835 688.0
131.078094 1532.0
131.118011 220.0
131.257065 28.0
131.519424 144.0
131.633575 80.0
131.688385 212.0
131.919174 168.0
131.985474 80.0
132.054672 184.0
132.083939 660.0
132.136429 188.0
132.168457 124.0
132.227966 76.0
132.303497 32.0
132.44548 136.0
132.582947 112.0
132.864716 176.0
132.892502 76.0
133.063354 496.0
133.10376 200.0
133.172577 160.0
133.397751 184.0
133.510422 208.0
133.542618 188.0
133.56102 164.0
133.632339 368.0
133.947723 100.0
134.069626 216.0
134.155121 200.0
134.196625 144.0
134.218323 200.0
134.572708 120.0
134.678925 264.0
134.849915 152.0
135.074188 192.0
135.421387 176.0
135.878052 108.0
135.968552 96.0
136.005692 68.0
136.412186 160.0
136.512161 140.0
136.821625 188.0
136.924072 172.0
136.95668 116.0
137.194366 120.0
137.213013 196.0
137.28064 152.0
137.796494 200.0
137.866592 172.0
138.390564 144.0
138.577942 48.0
138.622452 168.0
138.73027 356.0
139.063354 216.0
139.389786 164.0
139.427399 192.0
139.507309 256.0
139.631927 132.0
140.003769 48.0
140.258224 240.0
140.720612 116.0
141.070084 1152.0
141.164825 120.0
141.188477 172.0
141.245239 180.0
141.294922 48.0
141.335144 68.0
141.547211 92.0
141.832474 88.0
141.972351 56.0
142.077408 1052.0
142.183502 104.0
142.34967 92.0
142.390045 120.0
142.435181 144.0
142.798843 156.0
142.815491 204.0
142.884476 104.0
142.903503 168.0
143.005829 228.0
143.039154 72.0
143.085754 8128.0
143.155823 72.0
143.353546 32.0
143.394058 168.0
143.436951 200.0
143.639648 68.0
143.739838 136.0
143.780411 60.0
143.849625 136.0
143.902161 56.0
144.004837 120.0
144.031845 156.0
144.058105 3188.0
144.082291 3368.0
144.317886 52.0
144.394409 40.0
144.518799 196.0
144.569046 76.0
144.667191 92.0
144.945007 68.0
145.023148 204.0
145.065277 5124.0
145.087723 1188.0
145.139175 28.0
145.196716 104.0
145.249481 180.0
145.285477 76.0
145.302261 40.0
145.587906 156.0
145.871414 104.0
146.070358 1300.0
146.098419 552.0
146.159012 228.0
146.182159 120.0
146.210556 112.0
146.251785 152.0
146.289993 132.0
146.345352 60.0
146.603104 176.0
146.648895 40.0
146.682632 124.0
146.718796 40.0
146.740494 168.0
146.998581 176.0
147.081589 300.0
147.174789 176.0
147.281052 192.0
147.389771 60.0
147.49852 36.0
147.532364 104.0
147.568634 100.0
147.612152 172.0
147.839767 224.0
148.039703 500.0
148.33606 140.0
148.539749 132.0
148.564011 128.0
149.053665 136.0
149.087067 104.0
149.467819 64.0
149.504333 200.0
149.699081 40.0
150.206024 148.0
150.276764 180.0
150.503769 144.0
150.655701 208.0
150.82135 196.0
151.166199 68.0
151.249405 120.0
151.349777 164.0
151.413452 144.0
151.511429 132.0
151.577576 132.0
151.609436 156.0
151.793289 172.0
152.072968 52.0
152.161331 224.0
152.200623 48.0
152.367645 172.0
152.392212 132.0
152.529831 172.0
152.699478 160.0
152.918457 56.0
153.074783 356.0
153.17453 160.0
153.204086 212.0
153.55658 216.0
153.619492 184.0
153.659821 140.0
154.070007 108.0
154.35289 152.0
154.470474 36.0
154.557068 196.0
154.727844 132.0
154.807083 132.0
154.958176 204.0
155.059418 140.0
155.088623 540.0
155.126953 196.0
155.459045 168.0
155.523575 168.0
155.603012 144.0
156.077087 356.0
156.214371 100.0
156.510529 84.0
156.532944 224.0
156.7995 184.0
156.824432 108.0
157.063232 264.0
157.086609 196.0
157.443161 132.0
157.650513 104.0
157.775482 72.0
157.84549 104.0
157.865494 40.0
157.967407 140.0
158.050613 212.0
158.097397 22312.0
158.138199 196.0
158.168228 164.0
158.263367 76.0
158.300919 108.0
158.338028 88.0
158.561462 88.0
158.719391 164.0
158.739456 56.0
158.844788 44.0
159.04451 176.0
159.103699 7056.0
159.170471 224.0
159.193665 68.0
159.299149 96.0
159.331802 36.0
159.374512 72.0
159.433929 56.0
159.555481 184.0
159.588165 32.0
159.62085 64.0
159.726486 184.0
159.751953 160.0
159.784348 40.0
159.960495 92.0
159.990707 68.0
160.040634 116.0
160.075897 728.0
160.112106 4508.0
160.219879 180.0
160.25264 60.0
160.287903 52.0
160.329483 216.0
160.41301 88.0
160.46434 60.0
160.534943 124.0
160.560165 160.0
160.58287 80.0
160.885666 88.0
160.95636 212.0
161.027069 152.0
161.05809 824.0
161.085876 296.0
161.1138 940.0
161.148315 56.0
161.307541 92.0
161.325226 144.0
161.35051 104.0
161.550293 248.0
161.671753 44.0
161.783112 40.0
161.826157 100.0
161.874268 176.0
161.95784 112.0
162.068726 1176.0
162.109848 140.0
162.13266 140.0
162.485123 136.0
162.510483 116.0
162.528244 88.0
162.642456 184.0
162.916702 264.0
163.008163 140.0
163.072342 208.0
163.122543 140.0
163.231857 140.0
163.277634 48.0
163.305618 116.0
163.575333 128.0
163.616058 88.0
164.151123 112.0
164.500656 152.0
164.533844 60.0
164.998825 140.0
165.070419 104.0
165.433731 212.0
165.734665 124.0
165.976883 160.0
166.248795 160.0
166.279495 112.0
166.626251 120.0
166.925201 204.0
166.936462 64.0
166.941513 184.0
167.068436 192.0
167.085007 180.0
167.122467 128.0
167.219757 228.0
167.229645 184.0
167.279449 40.0
167.421066 212.0
167.467422 100.0
167.521515 44.0
168.029388 216.0
168.082352 296.0
168.132599 80.0
168.411438 64.0
168.507019 208.0
169.018951 220.0
169.081436 192.0
169.183853 180.0
169.205307 80.0
169.249329 52.0
169.793518 104.0
169.977707 240.0
170.095261 392.0
170.297028 124.0
170.608841 128.0
170.827286 72.0
170.944366 172.0
171.082779 124.0
171.103287 500.0
171.212509 52.0
171.441757 192.0
171.478241 172.0
171.569473 164.0
171.939865 140.0
172.033829 92.0
172.074402 164.0
172.112823 3772.0
172.373367 44.0
172.681854 48.0
172.826141 128.0
172.849045 220.0
172.967056 128.0
173.061401 660.0
173.097595 1100.0
173.118729 852.0
173.157776 76.0
173.175415 152.0
173.289169 80.0
173.317993 216.0
173.367783 148.0
173.464752 64.0
173.546021 68.0
173.643051 100.0
173.96579 76.0
174.062866 168.0
174.093857 388.0
174.126053 476.0
174.325623 160.0
174.654251 176.0
174.688446 136.0
175.07605 3068.0
175.128036 120.0
175.241318 36.0
175.560257 56.0
175.63147 32.0
175.821442 92.0
175.979813 144.0
176.000946 40.0
176.079941 328.0
176.413086 128.0
176.733109 176.0
176.809845 40.0
176.889252 124.0
176.950134 104.0
177.008392 48.0
177.079895 136.0
177.109024 168.0
177.153275 68.0
177.310379 104.0
177.381958 72.0
177.437622 120.0
177.527771 60.0
177.652435 144.0
177.984192 148.0
178.316254 56.0
178.512985 248.0
178.608734 184.0
178.645966 120.0
178.84288 64.0
178.989304 204.0
179.069199 124.0
179.205048 128.0
179.626266 40.0
179.879776 184.0
180.368591 152.0
180.470184 60.0
180.753723 36.0
181.03212 160.0
181.087555 216.0
181.28392 180.0
181.584183 112.0
181.737091 152.0
181.975967 188.0
182.043091 228.0
182.096863 624.0
182.123672 192.0
182.150528 236.0
182.378922 192.0
182.772614 248.0
183.077545 264.0
183.104187 212.0
183.210419 176.0
183.576981 168.0
183.792786 192.0
184.111313 156.0
184.146423 56.0
184.284195 204.0
184.489594 160.0
184.565292 156.0
184.795197 92.0
185.060089 120.0
185.491196 192.0
185.596924 164.0
185.881744 144.0
185.97673 96.0
186.05545 124.0
186.091568 2516.0
186.202087 124.0
186.275421 56.0
186.389526 128.0
186.408539 96.0
186.506378 116.0
186.541718 176.0
186.646545 212.0
186.677658 184.0
186.768204 124.0
186.832291 180.0
186.973862 164.0
187.027954 212.0
187.100021 43836.0
187.160629 84.0
187.246445 76.0
187.279129 84.0
187.328156 40.0
187.352676 136.0
187.374466 68.0
187.413498 88.0
187.466705 80.0
187.52002 96.0
187.549957 80.0
187.57341 120.0
187.626266 144.0
187.674271 212.0
187.721542 36.0
187.75296 136.0
187.88974 68.0
188.007065 140.0
188.103119 7860.0
188.16539 44.0
188.240417 92.0
188.263687 36.0
188.351074 88.0
188.478546 152.0
188.512268 68.0
188.534134 76.0
188.553268 56.0
188.638763 72.0
188.752106 112.0
188.799011 156.0
188.892303 36.0
188.96344 92.0
189.054016 576.0
189.109818 664.0
189.14389 128.0
189.187851 132.0
189.22345 104.0
189.242615 76.0
189.286423 128.0
189.341187 72.0
189.382263 128.0
189.422134 108.0
189.483627 76.0
189.571304 120.0
189.596512 176.0
189.666245 100.0
189.84819 56.0
189.894806 92.0
189.916748 68.0
189.941742 212.0
190.061951 748.0
190.124023 3180.0
190.353119 64.0
190.504166 100.0
190.726746 176.0
190.754242 56.0
190.908203 80.0
191.068695 1396.0
191.104141 240.0
191.12793 584.0
191.604584 132.0
192.074966 108.0
192.142197 116.0
192.22496 52.0
192.887802 124.0
193.06752 156.0
193.167099 172.0
193.388458 32.0
193.9729 136.0
194.758163 196.0
194.794281 116.0
195.879135 60.0
196.121567 168.0
196.380859 44.0
197.134659 104.0
197.279999 180.0
197.943085 164.0
198.0047 160.0
198.363342 172.0
198.475479 44.0
198.913147 68.0
199.207993 172.0
199.292267 44.0
199.331619 60.0
199.393433 108.0
199.516785 168.0
199.646454 232.0
199.882751 180.0
199.943085 108.0
200.074142 168.0
200.106308 1344.0
200.302246 40.0
200.637589 172.0
200.850357 80.0
200.973221 68.0
201.069153 172.0
201.115982 2124.0
201.210297 108.0
201.258286 60.0
201.297821 96.0
201.491913 140.0
201.642471 176.0
201.719543 76.0
201.744232 116.0
201.896927 112.0
201.967453 64.0
201.975357 60.0
201.985855 108.0
202.079681 328.0
202.122772 3288.0
202.318512 88.0
202.389297 84.0
202.649872 144.0
202.692383 52.0
203.009872 152.0
203.030243 108.0
203.070892 14640.0
203.125565 660.0
203.173752 36.0
203.205582 32.0
203.239639 32.0
203.380112 136.0
203.409912 52.0
203.435455 152.0
203.480881 52.0
203.509277 88.0
203.631393 108.0
203.68013 220.0
203.71965 56.0
203.756378 220.0
203.827408 72.0
203.91835 140.0
204.006454 176.0
204.072159 2288.0
204.102219 5088.0
204.176331 140.0
204.239639 52.0
204.356262 120.0
204.38472 68.0
204.541245 80.0
204.629501 108.0
204.694992 224.0
204.848785 88.0
204.87442 44.0
204.916565 96.0
204.996948 56.0
205.033981 60.0
205.05394 68.0
205.108826 1264.0
205.190765 100.0
205.216431 76.0
205.264893 60.0
205.478821 64.0
205.589462 124.0
205.644318 68.0
205.869858 84.0
206.117767 2328.0
206.349899 196.0
206.575836 68.0
206.7332 96.0
206.890625 144.0
207.124741 592.0
208.112793 152.0
208.324493 108.0
208.778625 64.0
208.824646 40.0
209.818085 100.0
211.852615 76.0
212.513626 216.0
214.092026 164.0
214.118225 164.0
214.919769 104.0
215.06871 164.0
215.609039 116.0
216.021301 156.0
216.495468 128.0
216.896851 140.0
217.049301 188.0
217.474686 148.0
217.512833 180.0
217.597977 48.0
217.785919 80.0
217.818222 108.0
217.859344 116.0
218.038589 132.0
218.117981 10028.0
218.179672 84.0
218.22966 56.0
218.423752 80.0
218.447281 48.0
218.809265 136.0
219.006561 140.0
219.122498 1940.0
219.363098 60.0
219.542953 112.0
219.666824 104.0
219.775986 36.0
219.799591 140.0
219.861572 84.0
219.891083 44.0
220.122604 216.0
220.286743 140.0
220.342865 104.0
220.422638 104.0
220.746536 144.0
221.040665 128.0
223.212006 60.0
224.212234 48.0
227.739685 96.0
228.103271 44.0
228.644669 104.0
229.107635 312.0
230.043228 212.0
231.064819 1484.0
231.176636 56.0
231.464218 52.0
231.997452 112.0
232.067535 620.0
232.103561 104.0
233.063293 176.0
233.120468 168.0
233.208603 96.0
234.724701 72.0
235.94519 76.0
241.697617 104.0
244.275772 80.0
244.851593 88.0
245.10704 164.0
246.033356 180.0
246.115143 944.0
246.222321 124.0
246.373764 140.0
246.445618 88.0
247.074036 136.0
247.122757 292.0
247.772186 180.0
248.094177 508.0
248.132599 104.0
249.097229 168.0
250.143158 156.0
259.118042 84.0
260.088959 480.0
260.442932 28.0
261.099518 192.0
261.326965 48.0
262.463959 172.0
272.085205 108.0
280.731293 44.0
285.368927 128.0
286.129303 148.0
292.779633 208.0
295.862915 176.0
299.210205 60.0
300.00946 68.0
300.861542 136.0
303.789246 148.0
303.823914 128.0
305.049774 88.0
307.107666 172.0
310.104065 208.0
311.781677 144.0
316.267914 40.0
318.789551 80.0
320.205444 56.0
326.126831 140.0
331.536926 64.0
335.159851 72.0
336.407166 140.0
340.309814 112.0
340.776276 52.0
341.118073 60.0
342.188599 144.0
344.153778 136.0
345.151398 100.0
346.635742 156.0
356.893433 96.0
361.147308 164.0
362.171814 360.0
362.843781 136.0
363.181274 136.0
363.23056 40.0
363.534088 44.0
366.210541 160.0
367.434174 68.0
369.133881 68.0
372.960022 56.0
374.148651 80.0
376.261322 60.0
382.378113 48.0
383.850677 124.0
386.855164 120.0
389.934265 128.0
390.170288 1936.0
390.280212 68.0
390.586945 72.0
390.948914 76.0
391.177429 676.0
391.614258 44.0
391.900299 112.0
392.180054 180.0
392.351135 80.0
392.733643 72.0
392.9151 48.0
393.155792 92.0
395.725128 84.0
396.117188 60.0
397.080353 192.0
399.212952 96.0
402.999756 60.0
408.178436 116.0
409.196411 128.0
410.288208 80.0
410.437378 96.0
413.713989 100.0
417.259735 84.0
433.721863 116.0
433.887665 52.0
434.20697 76.0
434.978699 32.0
435.157227 92.0
435.261017 128.0
435.780212 64.0
436.17804 2204.0
436.303864 144.0
436.449402 60.0
436.59079 72.0
436.82785 80.0
436.960968 148.0
437.174316 680.0
437.327179 132.0
437.622742 92.0
437.726837 76.0
437.826782 108.0
438.167908 140.0
438.190582 188.0
439.231354 136.0
441.035156 100.0
442.2565 44.0
456.185211 92.0
457.167725 100.0
479.124176 88.0
484.949036 168.0
492.508118 56.0
514.822388 80.0
515.536194 80.0
517.770996 92.0
522.145996 88.0
528.971802 100.0
532.672363 72.0
537.441895 88.0
543.127502 92.0
547.198303 132.0
570.543884 56.0
585.660645 60.0
587.511658 60.0
593.421631 88.0
594.78479 64.0
597.301819 104.0
597.486633 124.0
610.704102 64.0
640.969482 20.0
649.898987 60.0
651.615112 48.0
655.176331 68.0
699.994507 108.0
723.976685 120.0
728.342407 164.0
784.171448 64.0
788.569397 116.0
806.595215 48.0
824.418884 152.0
842.679993 100.0
846.300598 184.0
855.031128 128.0
862.332947 156.0
862.753845 112.0
864.239319 168.0
891.827087 100.0
899.791443 160.0
903.359131 176.0
906.71814 232.0
922.336853 140.0
936.839661 92.0
937.814636 236.0
940.571533 248.0
942.22644 156.0
942.397522 164.0
944.586121 200.0
946.997742 112.0
958.054321 180.0
972.927368 100.0
987.258179 144.0
987.508301 136.0
1004.763794 152.0
1006.070129 192.0
1021.920532 84.0
1025.225342 168.0
1043.210693 84.0
1050.590576 144.0
1057.672852 160.0
1065.402466 188.0
1071.504639 176.0
1073.114502 160.0
1077.134399 176.0
1084.980591 204.0
1088.149292 56.0
1090.113281 176.0
1090.270996 184.0
1091.822388 148.0
1098.362549 172.0
1099.213623 164.0
1100.619629 136.0
1102.112305 200.0
1102.185059 100.0
1104.221069 180.0
1106.960815 128.0
1107.424438 60.0
1108.663208 40.0
1114.801636 148.0
1123.470581 136.0
1125.33252 212.0
1126.557373 180.0
1138.678223 144.0
1140.082275 56.0
1147.783081 204.0
1150.529053 216.0
1151.163818 164.0
1156.220337 176.0
1156.511353 144.0
1158.068604 128.0
1158.454712 64.0
1160.5625 196.0
1162.00708 180.0
1166.863037 132.0
1166.91748 192.0
1167.808228 48.0
1170.128662 180.0
1172.430908 184.0
1175.219849 220.0
1179.009644 84.0
1182.928711 136.0
1183.407959 124.0
1184.188599 168.0
1188.55542 212.0
1193.50769 176.0
1199.710815 212.0
1199.89856 188.0
1203.263672 104.0
1203.422485 236.0
1203.532959 44.0
1204.334106 176.0
1205.349609 56.0
1210.191284 120.0
1214.210449 176.0
1215.979492 100.0
1216.493164 148.0
1217.687378 132.0
1217.9375 116.0
1228.755127 144.0
1234.265869 132.0
1238.170654 116.0
1244.31311 156.0
1245.970581 44.0
1246.349976 156.0
1253.055054 220.0
1253.745605 224.0
1254.943848 244.0
1256.657715 124.0
1257.158691 116.0
1259.114258 244.0
1262.181152 164.0
1263.885742 236.0
1264.451904 108.0
1265.513672 172.0
1265.655273 136.0
1266.03772 172.0
1268.290649 132.0
1275.011841 156.0
1275.445312 68.0
1277.102051 100.0
1279.407471 44.0
1281.216431 156.0
1282.520386 156.0
1283.482788 136.0
1284.802246 148.0
1288.436035 188.0
1289.908081 168.0
1291.910278 192.0
1292.740234 140.0
1293.556152 124.0
1293.957031 268.0
1301.995117 224.0
1309.921143 212.0
1310.605591 156.0
1312.032593 152.0
1312.710327 188.0
1313.95813 108.0
1314.398193 104.0
1316.224365 176.0
1316.390503 36.0
1316.52771 132.0
1317.112671 220.0
1317.452271 192.0
1322.260498 180.0
1323.483887 128.0
1326.78772 108.0
1328.165405 200.0
1329.645508 212.0
1329.986694 144.0
1334.039795 96.0
1337.61145 92.0
1337.931763 172.0
1338.026367 128.0
1339.664917 156.0
1341.020264 112.0
1344.64502 204.0
1345.64502 184.0
1346.287598 144.0
1349.137085 132.0
1349.444214 76.0
1351.060425 240.0
1352.106812 200.0
1352.58252 116.0
1354.955078 164.0
1355.299438 136.0
1356.00293 108.0
1359.669922 140.0
1359.948853 176.0
1362.004639 128.0
1364.539917 144.0
1367.592651 160.0
1367.828247 160.0
1368.240479 232.0
1368.615967 176.0
1369.624878 200.0
1370.553101 128.0
1370.722534 264.0
1372.779175 192.0
1372.852905 232.0
1373.664185 184.0
1374.328125 144.0
1374.815186 172.0
1377.000366 140.0
1379.290894 84.0
1381.435303 56.0
1381.797729 192.0
1383.944092 168.0
1386.055054 148.0
1387.003662 128.0
1387.768066 176.0
1387.908081 124.0
1388.987671 180.0
1389.131836 140.0
1389.35437 56.0
1390.652832 164.0
1390.838379 160.0
1391.061157 60.0
1391.788696 148.0
1392.063354 108.0
1392.271362 80.0
1392.568359 196.0
1394.737915 136.0
1395.131958 268.0
1395.905151 100.0
1397.22168 164.0
1397.742432 176.0
1398.702515 176.0
1401.167358 140.0
1404.354126 228.0
1407.10376 180.0
1408.14917 136.0
1409.508789 168.0
1411.168091 52.0
1413.232422 108.0
1413.299683 192.0
1416.181763 204.0
1416.526367 184.0
1417.005859 172.0
1421.129395 184.0
1423.403687 136.0
1423.771606 184.0
1424.515259 180.0
1425.694824 168.0
1426.408813 204.0
1427.288452 168.0
1427.769653 124.0
1428.8302 124.0
1432.955933 156.0
1433.905396 196.0
1434.365112 220.0
1434.696777 204.0
1436.121948 176.0
1437.027222 148.0
1437.932617 140.0
1440.069336 164.0
1443.447266 112.0
1443.666626 132.0
1445.618286 188.0
1445.815063 212.0
1447.079102 132.0
1448.381714 164.0
1450.124268 164.0
1450.927856 136.0
1453.696167 188.0
1453.764526 140.0
1454.075684 156.0
1458.30603 104.0
1461.142334 68.0
1461.598755 212.0
1462.01062 176.0
1462.595703 232.0
1463.616089 184.0
1463.783447 44.0
1465.603882 80.0
1466.365845 116.0
1466.548828 168.0
1466.769897 184.0
1467.303467 264.0
1467.982056 236.0
1468.859131 144.0
1469.393066 188.0
1470.12561 168.0
1471.980591 188.0
1474.310425 52.0
1474.814819 116.0
1475.403442 180.0
1476.259766 164.0
1479.310913 192.0
1482.529297 180.0
1483.916626 144.0
1484.2771 92.0
1484.737183 128.0
1485.811035 200.0
1490.824829 188.0
1491.201416 152.0
1492.539062 76.0
1492.623535 132.0
1493.231079 140.0
1493.515015 236.0
1495.677734 172.0
1497.564209 256.0
1497.864624 152.0
1498.750488 220.0
1499.960449 140.0
1502.366333 160.0
1503.477417 92.0
