>compound NCGC00160211-01!2,3-Dihydro-1H-pyrrolo[2,1-c][1,4]benzodiazepine-5,11(10H,11aH)-dione
>formula C12H12N2O2
>ionization [M+H]+
>parentmass 217.097336
#inchi InChI=1S/C12H12N2O2/c15-11-10-6-3-7-14(10)12(16)8-4-1-2-5-9(8)13-11/h1-2,4-5,10H,3,6-7H2,(H,13,15)/t10-/m0/s1
#inchikey MXBNEEHQIDLPLQ
#Ion_Source LC-ESI
#Instrument qTOF
#Compound_Source Prestwick Phytochem Lib
#PI Dorrestein
#Data_Collector VVP/LMS
#Scan -1
#Precursor_MZ 217.098
#ExactMass 216.09
#Charge 1
#CAS_Number N/A
#Pubmed_ID N/A
#Smiles [H][C@@]12CCCN1C(=O)C3=C(NC2=O)C=CC=C3
#INCHI_AUX N/A
#Library_Class 3
#SpectrumID CCMSLIB00000078794
#IonMode Positive
#UpdateWorkflowName UPDATE-SINGLE-ANNOTATED-BRONZE
#LibraryQualityString Bronze
#TaskID 67c915c6594c435cadc1fe2b5358144d
##Scan# 1456
#SpectrumFile p1-C04_GC4_01_17900.mzXML
#LibraryName phytochem_lib.mgf
#MQScore -1
#Organism phytochem_lib
#TIC_Query 0
#RT_Query -1
#MZErrorPPM -1
#SharedPeaks 0
#MassDiff 0
#LibMZ -1
#SpecMZ 217.098
#SpecCharge 0
#internalFilename spec-00000.mgf

>collision 10
96.171654 120.0
98.060417 132.0
99.599739 96.0
101.957336 104.0
102.817253 216.0
104.050797 120.0
104.316078 168.0
106.065163 160.0
106.081818 164.0
107.401932 148.0
111.913887 272.0
113.723434 172.0
114.998329 156.0
116.727165 172.0
116.933678 168.0
117.058487 172.0
117.509018 160.0
118.05941 148.0
118.429901 156.0
118.464561 196.0
119.070473 216.0
119.304375 164.0
120.0467 1040.0
120.430923 124.0
121.030113 124.0
121.054207 224.0
121.439911 84.0
121.657143 92.0
123.39534 188.0
125.832558 156.0
128.055725 208.0
128.487549 120.0
129.065903 176.0
129.192398 120.0
130.027252 172.0
130.070694 160.0
131.072052 344.0
132.047623 428.0
132.074478 152.0
133.046066 172.0
136.346817 152.0
136.921448 40.0
142.102386 220.0
142.948257 172.0
143.073669 184.0
144.085526 424.0
145.037964 164.0
145.061935 116.0
146.024826 144.0
146.065659 140.0
146.098801 220.0
147.051254 352.0
147.094559 140.0
147.396439 32.0
147.935776 44.0
148.040497 1228.0
148.134338 36.0
149.540207 192.0
150.056625 168.0
154.065811 192.0
155.057434 340.0
156.074463 220.0
156.564499 60.0
160.879684 164.0
161.18277 60.0
162.037949 152.0
170.06218 84.0
171.091553 208.0
172.079376 368.0
172.259796 36.0
172.780014 76.0
173.104935 168.0
174.064285 216.0
175.044434 192.0
182.907303 160.0
183.532318 216.0
184.0616 888.0
184.174591 60.0
184.696259 80.0
184.761169 196.0
184.785522 36.0
185.075119 176.0
189.09848 280.0
190.096115 104.0
190.925735 132.0
194.525879 188.0
197.060883 116.0
198.916809 192.0
199.086502 404.0
200.069351 56.0
200.089066 96.0
202.962448 160.0
203.090057 180.0
203.99585 128.0
208.03801 152.0
210.144623 184.0
210.745178 276.0
215.954544 112.0
216.545761 224.0
216.759613 108.0
216.783051 224.0
217.035141 52.0
217.097336 1984.0
217.304489 48.0
217.321487 108.0
217.444656 152.0
217.580841 52.0
217.607269 88.0
218.102341 172.0
219.104233 132.0
219.932846 76.0
229.64563 128.0
234.35144 20.0
259.018372 156.0
291.89035 120.0
373.695526 144.0
373.722443 68.0
519.038452 112.0
565.48999 96.0
831.611816 20.0
942.860657 156.0
947.602905 116.0
1022.637756 220.0
1134.82373 120.0
1141.343262 228.0
1141.397095 60.0
1147.200562 132.0
1168.601196 164.0
1178.569336 212.0
1248.356934 92.0
1298.955444 108.0
1338.961914 60.0
1350.603027 192.0
1369.304199 128.0
1372.841553 76.0
1380.388428 116.0
1402.720703 188.0
1457.579834 100.0
1479.17041 176.0
1492.188721 176.0
1499.069824 128.0
