>compound MLS001140844-01!3-(5-hydroxy-1H-indol-3-yl)-2-[2-(2-oxo-4-phenylchromen-7-yl)oxypropanoylamino]propanoic acid
>formula C29H24N2O7
>ionization [M+H]+
>parentmass 513.166
#inchi InChI=1S/C29H24N2O7/c1-16(28(34)31-25(29(35)36)11-18-15-30-24-10-7-19(32)12-23(18)24)37-20-8-9-21-22(17-5-3-2-4-6-17)14-27(33)38-26(21)13-20/h2-10,12-16,25,30,32H,11H2,1H3,(H,31,34)(H,35,36)
#inchikey ZRCVGVWBLFFPAV
#Ion_Source LC-ESI
#Instrument qTof
#Compound_Source NIH Natural Product Library
#PI Dorrestein
#Data_Collector VVP/LMS
#Scan -1
#Precursor_MZ 513.166
#ExactMass 512.158
#Charge 1
#CAS_Number N/A
#Pubmed_ID N/A
#Smiles CC(Oc1ccc2c(cc(=O)oc2c1)c3ccccc3)C(=O)NC(Cc4c[nH]c5ccc(O)cc45)C(=O)O
#INCHI_AUX N/A
#Library_Class 1
#SpectrumID CCMSLIB00000079982
#IonMode Positive
#UpdateWorkflowName UPDATE-SINGLE-ANNOTATED-GOLD
#LibraryQualityString Gold
#TaskID b1d8e8f6646f4e71acdff9ca3d919d08
##Scan# 1977
#SpectrumFile p2-E02_GE2_01_18026.mzXML
#LibraryName NIH_Natural_Products_Library.mgf
#MQScore -1
#Organism NIH_Natural_Products_Library
#TIC_Query 0
#RT_Query -1
#MZErrorPPM -1
#SharedPeaks 0
#MassDiff 0
#LibMZ -1
#SpecMZ 513.166
#SpecCharge 0
#internalFilename spec-00000.mgf

>collision 10
94.985077 120.0
95.014099 528.0
95.136444 136.0
95.540657 44.0
96.020912 144.0
96.21106 168.0
96.412239 108.0
97.132751 140.0
97.395782 128.0
97.818542 128.0
97.881546 192.0
98.311287 80.0
98.372467 52.0
98.508728 100.0
98.542313 192.0
98.645073 188.0
98.813171 92.0
98.840874 76.0
98.858681 156.0
99.026962 220.0
99.298492 80.0
99.38974 36.0
99.435387 208.0
99.796921 280.0
100.18103 104.0
100.226852 148.0
100.288635 156.0
100.33448 140.0
100.525963 176.0
100.769562 108.0
101.04747 160.0
101.12751 176.0
101.197578 136.0
102.042252 164.0
102.100563 164.0
102.158783 140.0
102.195107 128.0
102.559608 200.0
102.728989 172.0
102.898514 164.0
103.05584 360.0
103.525337 144.0
103.679298 160.0
103.727943 188.0
104.04847 112.0
104.170311 128.0
104.237358 100.0
104.284103 156.0
104.733765 152.0
104.970177 168.0
105.013 148.0
105.033165 204.0
105.068077 168.0
105.139496 224.0
105.155823 120.0
105.178276 72.0
105.215019 48.0
105.239517 196.0
105.578728 176.0
105.865227 136.0
106.035271 172.0
106.063965 452.0
106.681839 68.0
107.04612 148.0
107.06768 144.0
107.608917 196.0
107.691521 140.0
108.042923 292.0
108.714256 56.0
108.737083 40.0
109.052673 164.0
109.337708 192.0
109.768936 156.0
110.054802 156.0
110.305496 156.0
110.330582 216.0
110.621361 156.0
111.040428 140.0
111.556961 52.0
111.590599 132.0
111.655785 180.0
111.742027 176.0
111.782005 72.0
112.005173 228.0
112.207474 36.0
112.726715 144.0
112.840851 156.0
112.925438 108.0
113.416656 160.0
113.448456 108.0
113.480255 228.0
113.641449 164.0
113.698738 92.0
113.949303 188.0
114.053436 196.0
114.302261 176.0
114.351204 188.0
114.506622 168.0
115.018341 132.0
115.056137 624.0
115.340881 196.0
115.56115 92.0
115.588966 112.0
115.805191 184.0
115.980888 44.0
116.060211 148.0
116.377762 76.0
116.7108 196.0
116.861366 36.0
116.990494 184.0
117.055779 252.0
117.514198 168.0
117.773247 220.0
117.95475 180.0
118.064911 140.0
118.309525 144.0
118.339828 40.0
118.409546 184.0
118.515274 152.0
118.584618 180.0
118.823151 156.0
118.890411 216.0
119.064087 152.0
119.194427 196.0
119.579353 204.0
119.675133 180.0
119.87989 104.0
120.023758 156.0
120.044838 132.0
120.07724 304.0
120.230995 188.0
120.305206 120.0
120.78595 176.0
120.917229 64.0
121.048584 184.0
121.085808 52.0
121.978821 132.0
122.059731 560.0
123.058304 132.0
123.621956 196.0
124.04055 184.0
124.067154 112.0
124.138107 44.0
124.782021 48.0
125.11351 152.0
125.144684 208.0
125.394173 136.0
125.559158 128.0
125.983246 108.0
126.092735 196.0
126.224632 212.0
126.285011 164.0
126.305145 52.0
126.457291 84.0
126.486389 168.0
127.037643 168.0
127.369865 172.0
127.466469 212.0
127.833008 188.0
127.905022 44.0
128.048874 180.0
128.227112 148.0
128.283463 196.0
128.315018 156.0
129.008942 216.0
129.068802 232.0
129.698502 108.0
129.800522 184.0
129.895782 124.0
130.06221 488.0
130.093201 112.0
130.115906 180.0
130.481689 172.0
130.604477 140.0
130.837402 212.0
130.907181 204.0
131.048477 936.0
131.077744 196.0
131.082581 196.0
131.112198 228.0
131.26265 72.0
131.347046 40.0
131.396484 172.0
131.520462 84.0
131.570679 148.0
131.901917 116.0
131.922485 124.0
132.054001 216.0
132.081863 320.0
132.144318 136.0
132.416733 124.0
132.574799 60.0
132.744446 192.0
132.957779 120.0
133.054642 544.0
133.088623 188.0
133.35051 28.0
133.54364 156.0
133.725403 148.0
133.872742 124.0
134.060272 2012.0
134.458313 64.0
134.730774 84.0
135.039658 192.0
135.064484 372.0
135.306641 116.0
135.816452 152.0
136.027603 44.0
136.067062 112.0
136.417862 184.0
136.513184 200.0
137.02652 236.0
137.151108 136.0
137.498627 216.0
137.744858 156.0
138.030563 340.0
138.096725 152.0
138.131821 216.0
138.187958 36.0
138.370514 156.0
138.775833 172.0
138.979904 132.0
139.073761 144.0
139.477768 172.0
139.912964 144.0
139.964767 112.0
140.061325 200.0
140.157913 132.0
140.294601 60.0
140.525726 248.0
141.066544 216.0
142.090576 184.0
142.407684 124.0
142.476578 208.0
142.702362 112.0
143.047241 128.0
143.078506 156.0
143.5858 184.0
143.659744 188.0
143.676437 72.0
143.881683 160.0
143.929428 160.0
144.052902 200.0
144.843002 164.0
144.993958 104.0
145.027512 68.0
145.06076 216.0
145.067444 188.0
145.315277 48.0
145.413666 56.0
145.665771 156.0
145.689804 164.0
145.72583 120.0
145.752899 168.0
145.968491 184.0
146.021301 192.0
146.060913 18276.0
146.139374 76.0
146.168259 88.0
146.201111 144.0
146.23082 52.0
146.262115 48.0
146.58725 116.0
146.907913 72.0
147.062531 2076.0
147.253082 76.0
147.356949 96.0
147.480301 176.0
147.501953 68.0
147.518875 220.0
147.857498 120.0
148.041489 192.0
148.076187 2176.0
148.123825 220.0
148.254669 112.0
148.924271 80.0
149.026306 152.0
149.071808 160.0
149.085648 200.0
149.145798 116.0
149.186707 160.0
149.327744 200.0
149.463974 136.0
149.536972 176.0
149.880341 196.0
150.092407 96.0
150.23143 160.0
150.458374 164.0
150.54628 216.0
150.790588 212.0
150.961716 52.0
151.027756 184.0
151.110916 136.0
152.056793 148.0
152.393219 108.0
152.452179 188.0
152.766907 72.0
153.068619 188.0
153.109024 188.0
153.283936 140.0
153.466339 44.0
153.646378 140.0
153.910461 132.0
153.949982 156.0
154.070999 224.0
154.340408 44.0
154.61499 188.0
154.85762 112.0
155.051819 124.0
155.08522 116.0
155.335999 144.0
155.636292 220.0
155.752945 148.0
156.051224 160.0
156.082932 340.0
156.940094 108.0
156.992462 132.0
157.052322 304.0
157.083939 260.0
157.363922 132.0
157.801483 80.0
158.059982 4512.0
158.099594 292.0
158.326965 128.0
158.354507 160.0
158.404602 52.0
158.452209 116.0
158.625122 260.0
158.785583 168.0
159.026443 152.0
159.065887 788.0
159.16954 216.0
159.244888 64.0
159.55899 80.0
159.689743 124.0
159.830627 36.0
159.918701 72.0
159.958969 80.0
160.019394 92.0
160.039093 296.0
160.074951 2328.0
160.205338 120.0
160.224121 124.0
160.286377 112.0
160.515762 40.0
160.633575 56.0
160.662048 68.0
160.765503 176.0
160.833649 172.0
160.995224 192.0
161.043213 180.0
161.078857 256.0
161.111633 136.0
161.467819 60.0
161.546234 180.0
161.634781 116.0
161.743607 100.0
161.809418 200.0
161.931976 232.0
162.055786 4832.0
162.084991 536.0
162.11084 72.0
162.131119 56.0
162.250244 40.0
162.26799 100.0
162.389709 156.0
163.004074 124.0
163.036865 428.0
163.05835 796.0
163.23793 40.0
163.309143 36.0
163.482147 228.0
163.976212 32.0
164.04248 180.0
164.059631 132.0
164.152115 144.0
164.680389 196.0
165.007477 144.0
165.070023 1800.0
165.232529 216.0
165.347687 188.0
165.385696 136.0
165.470551 148.0
165.831741 168.0
166.077072 552.0
166.319077 148.0
166.817398 148.0
167.046631 140.0
167.082474 400.0
167.164612 160.0
168.064117 212.0
168.33493 136.0
168.518326 100.0
168.970779 168.0
169.063828 732.0
169.096558 216.0
169.618179 168.0
170.061615 556.0
170.49025 184.0
170.638412 196.0
170.82045 204.0
171.068329 528.0
171.15358 120.0
171.588699 72.0
171.643448 64.0
171.692993 184.0
171.820816 44.0
171.862549 164.0
172.075394 376.0
172.147079 72.0
173.038696 208.0
173.07692 960.0
173.303238 140.0
174.078995 3988.0
174.132187 160.0
174.191589 52.0
174.276657 72.0
174.392288 132.0
174.44223 52.0
174.608856 184.0
174.631546 40.0
174.651047 116.0
174.728882 40.0
174.763077 28.0
174.876236 68.0
174.95784 164.0
175.028931 132.0
175.055099 188.0
175.08577 5776.0
175.123154 184.0
175.237 40.0
175.260727 64.0
175.418854 104.0
175.487396 40.0
175.513763 88.0
175.548035 100.0
175.64299 380.0
175.677277 40.0
176.091644 544.0
176.12001 116.0
176.183716 124.0
176.289825 36.0
176.313614 140.0
176.482788 88.0
177.021576 104.0
177.071747 540.0
177.205353 168.0
177.255692 188.0
177.31134 36.0
177.443878 44.0
178.040909 156.0
178.079071 1024.0
178.947662 204.0
179.082733 568.0
179.232651 104.0
179.344574 64.0
179.723267 56.0
179.851364 44.0
179.998199 72.0
180.087219 228.0
180.174469 176.0
180.543335 156.0
181.057175 184.0
181.1017 716.0
181.24736 40.0
181.266113 64.0
181.295593 40.0
181.326538 44.0
181.477875 104.0
181.789032 136.0
182.065536 60.0
182.104156 168.0
182.718704 116.0
183.064316 188.0
183.080383 76.0
183.575241 192.0
183.599503 44.0
183.648056 52.0
183.836899 52.0
183.890884 64.0
184.004257 76.0
184.028549 172.0
184.075119 2516.0
184.258118 172.0
184.390533 44.0
184.50946 60.0
185.023483 44.0
185.077728 552.0
185.10527 168.0
185.164291 40.0
185.386444 48.0
185.454193 212.0
186.055023 6436.0
186.08992 1900.0
186.409485 76.0
186.436661 52.0
186.673172 60.0
186.841797 164.0
186.901657 56.0
187.007797 128.0
187.058533 848.0
187.090988 720.0
187.16568 220.0
187.318192 176.0
187.879761 60.0
188.065857 176.0
188.190887 60.0
188.308655 196.0
188.559662 116.0
188.701813 168.0
189.365189 168.0
190.016434 152.0
190.068192 144.0
190.365021 164.0
190.392487 64.0
190.474884 208.0
190.636978 168.0
191.090286 332.0
191.420975 156.0
192.092377 264.0
192.113495 216.0
192.653854 100.0
193.066544 256.0
193.099915 412.0
193.422592 156.0
193.519485 156.0
193.732742 160.0
193.785385 84.0
194.072784 804.0
194.096207 372.0
194.375977 100.0
194.479095 124.0
194.603577 152.0
195.034164 124.0
195.077087 352.0
195.137024 68.0
195.359512 88.0
195.468018 180.0
196.075302 168.0
196.144775 124.0
196.233994 100.0
196.49057 140.0
197.061966 772.0
197.095383 668.0
197.3564 108.0
197.389954 68.0
197.630493 96.0
198.050415 164.0
198.097534 156.0
198.316605 52.0
198.950546 200.0
198.987045 72.0
199.047012 56.0
199.481476 160.0
199.515213 60.0
199.58551 192.0
199.999054 40.0
200.070221 252.0
200.190491 52.0
200.762558 140.0
200.985413 160.0
201.067368 164.0
201.102951 2156.0
201.7621 176.0
202.079391 308.0
202.105652 304.0
202.531799 56.0
202.588455 204.0
202.679108 160.0
203.057785 556.0
203.093948 432.0
203.11615 348.0
203.402298 48.0
203.470703 168.0
203.584 92.0
203.646866 152.0
203.700455 172.0
203.762955 128.0
203.822617 36.0
203.981766 112.0
204.027313 180.0
204.065903 7992.0
204.126511 164.0
204.229156 40.0
204.249069 68.0
204.291733 60.0
204.493759 80.0
204.5336 72.0
204.582001 128.0
204.71582 60.0
204.752838 176.0
204.97789 76.0
205.068985 900.0
205.123245 68.0
205.41124 60.0
205.513947 80.0
205.539627 40.0
205.619537 60.0
205.973572 116.0
206.382248 76.0
208.043945 176.0
208.130081 96.0
208.739258 172.0
208.793884 120.0
209.064651 192.0
209.095047 956.0
209.141556 224.0
209.283081 120.0
210.066986 260.0
210.097244 292.0
210.699203 64.0
211.087097 308.0
211.315002 60.0
212.068176 172.0
212.09613 148.0
212.818878 156.0
212.949936 48.0
213.079041 556.0
213.101486 880.0
213.44397 48.0
214.083572 804.0
214.136581 136.0
214.39296 152.0
214.84198 36.0
215.082138 1272.0
215.148407 128.0
216.084473 184.0
216.300156 156.0
216.323578 92.0
216.4729 92.0
218.013 144.0
218.086472 204.0
218.454025 156.0
219.078491 600.0
219.853561 124.0
220.080551 600.0
220.677689 180.0
220.751617 32.0
220.994171 184.0
221.060623 988.0
221.094818 752.0
221.687057 208.0
221.77597 52.0
222.064758 268.0
222.095108 260.0
222.386963 44.0
223.03447 148.0
223.069748 892.0
223.611481 88.0
224.052185 132.0
224.075867 160.0
224.287598 212.0
224.493317 240.0
224.588745 160.0
225.069229 128.0
225.684738 96.0
227.746536 60.0
227.920776 48.0
228.09201 176.0
228.233368 128.0
229.054977 184.0
229.099442 860.0
229.865982 72.0
230.02594 200.0
230.103775 2340.0
230.297684 96.0
230.563553 160.0
230.614944 48.0
231.047348 156.0
231.104019 176.0
231.159302 148.0
231.231934 128.0
231.783081 128.0
232.049805 144.0
232.086197 124.0
232.252991 204.0
232.30455 144.0
233.473923 72.0
234.070374 196.0
235.073257 148.0
235.677841 140.0
235.723679 112.0
236.047699 160.0
236.540268 208.0
236.858734 144.0
236.919998 72.0
236.965942 48.0
237.045609 212.0
237.089294 3756.0
237.131424 40.0
237.217255 92.0
237.410416 48.0
237.910538 48.0
237.968872 136.0
238.011856 52.0
238.094543 980.0
238.162338 108.0
238.389679 40.0
238.595612 144.0
238.773956 64.0
238.949295 64.0
238.973907 60.0
239.010834 192.0
239.070602 3488.0
239.19548 60.0
239.28476 184.0
239.605057 56.0
239.823853 72.0
240.074341 748.0
240.237045 100.0
240.443771 68.0
240.561066 92.0
240.999603 136.0
241.077881 76.0
241.324142 44.0
241.512787 100.0
241.552994 68.0
242.709351 116.0
243.002823 104.0
244.755829 144.0
247.080566 324.0
247.110184 460.0
248.123962 204.0
249.59021 28.0
250.059738 444.0
250.118744 144.0
251.060425 140.0
251.077057 148.0
252.988159 100.0
257.091553 44.0
260.093658 140.0
260.623566 168.0
261.437103 76.0
262.093994 96.0
262.123016 160.0
262.896942 76.0
263.032501 76.0
263.067596 184.0
264.076141 148.0
264.157013 40.0
264.266998 88.0
264.3479 128.0
264.746063 56.0
264.804352 244.0
265.086975 11428.0
265.13266 180.0
265.167236 76.0
265.199646 72.0
265.71524 88.0
265.890442 68.0
266.052032 168.0
266.088196 1768.0
266.130676 188.0
266.400238 52.0
266.708923 32.0
266.995026 48.0
267.027557 48.0
267.088348 628.0
267.479828 92.0
267.645599 52.0
267.671906 112.0
267.965057 44.0
270.581085 84.0
273.670593 84.0
274.108673 156.0
275.061798 152.0
278.077148 148.0
279.562683 60.0
280.102051 52.0
282.341614 52.0
283.355835 72.0
284.177246 188.0
285.927979 204.0
289.069794 140.0
290.035004 64.0
290.072296 168.0
291.083344 124.0
292.0896 348.0
292.133545 216.0
293.089752 168.0
293.192444 180.0
295.67868 152.0
295.712921 92.0
297.581146 20.0
302.078552 184.0
306.110626 204.0
310.016998 140.0
310.096252 208.0
310.122559 232.0
311.10495 152.0
314.893066 120.0
319.415802 108.0
320.067078 140.0
323.41214 84.0
324.031647 196.0
326.835785 96.0
329.009064 164.0
334.817871 68.0
335.714386 80.0
336.086426 160.0
336.111969 116.0
336.820221 124.0
337.109558 128.0
337.653564 80.0
338.689362 48.0
340.134033 132.0
342.888916 48.0
344.032349 72.0
346.091644 172.0
348.06424 132.0
350.135559 120.0
350.590057 76.0
351.115723 112.0
352.119629 92.0
359.036407 180.0
360.225342 104.0
360.266907 48.0
360.75061 60.0
361.321655 60.0
367.320038 40.0
368.117706 112.0
369.11322 176.0
369.960602 172.0
378.116211 344.0
378.612549 68.0
380.120514 236.0
380.15155 68.0
380.357239 92.0
387.768036 156.0
388.67392 92.0
393.388855 20.0
393.530975 176.0
393.803467 48.0
394.107635 108.0
396.119659 560.0
396.279785 48.0
396.569092 64.0
396.67215 92.0
396.941742 80.0
397.131012 148.0
398.133789 152.0
398.652618 76.0
399.145538 128.0
406.953064 28.0
417.137848 96.0
420.020813 128.0
422.144562 152.0
427.341553 112.0
427.464996 120.0
433.145905 180.0
439.185455 112.0
439.364838 124.0
443.89035 100.0
449.143188 108.0
449.548218 104.0
450.139191 84.0
466.09201 128.0
467.162109 2052.0
468.074951 124.0
468.161041 1236.0
468.226959 148.0
469.178345 128.0
470.174316 128.0
473.433929 72.0
473.828094 64.0
479.786377 84.0
495.161591 140.0
513.157043 144.0
513.206604 144.0
528.765381 72.0
530.684753 108.0
542.477783 40.0
584.037842 140.0
632.991699 64.0
649.720337 124.0
677.880615 112.0
682.588806 64.0
776.341858 56.0
834.206116 172.0
834.930603 164.0
837.589661 144.0
850.623108 64.0
877.180603 68.0
882.541077 132.0
889.086609 164.0
901.359619 36.0
915.426208 104.0
951.986877 80.0
964.227783 228.0
996.048218 168.0
1009.542725 156.0
1014.562866 48.0
1022.17804 180.0
1053.259399 60.0
1059.909912 68.0
1068.447754 180.0
1071.370728 52.0
1079.156616 204.0
1095.840454 208.0
1134.547485 120.0
1138.177124 216.0
1138.714355 112.0
1151.557983 116.0
1153.307861 160.0
1153.949219 144.0
1159.561646 204.0
1159.907349 204.0
1162.166382 144.0
1180.283569 148.0
1183.691162 188.0
1187.30249 216.0
1199.878662 136.0
1202.272095 128.0
1215.863892 168.0
1222.66748 188.0
1235.422119 80.0
1246.822876 56.0
1247.307861 176.0
1248.137451 36.0
1249.916992 136.0
1250.050659 264.0
1250.71228 124.0
1259.003418 172.0
1262.466064 172.0
1264.121338 144.0
1271.250122 128.0
1280.228394 80.0
1301.702637 48.0
1303.246948 216.0
1305.80603 156.0
1312.416626 180.0
1313.007935 184.0
1322.740112 184.0
1331.912598 200.0
1335.394165 52.0
1336.325195 192.0
1336.790894 60.0
1346.201782 160.0
1346.289429 140.0
1353.09668 180.0
1356.415161 172.0
1357.082275 184.0
1369.236206 128.0
1372.96521 192.0
1373.392944 140.0
1378.789917 160.0
1380.963501 120.0
1383.42749 184.0
1386.278931 204.0
1387.405518 144.0
1388.933105 132.0
1389.771362 160.0
1407.217285 116.0
1407.433838 96.0
1407.859497 48.0
1410.825684 192.0
1413.46582 164.0
1413.712769 144.0
1414.131836 168.0
1417.884033 116.0
1418.813477 192.0
1432.271851 116.0
1441.014893 124.0
1444.552856 176.0
1445.3927 132.0
1450.474243 96.0
1451.816284 172.0
1453.045044 180.0
1453.705078 220.0
1455.245972 184.0
1455.580078 84.0
1458.11731 144.0
1460.64917 164.0
1462.109985 192.0
1462.239258 172.0
1465.925171 192.0
1469.302856 208.0
1470.249023 100.0
1472.386475 144.0
1477.813721 260.0
1478.862061 144.0
1481.105469 124.0
1484.439209 224.0
1487.707642 68.0
1488.9823 164.0
1490.288086 184.0
1490.856689 112.0
1495.455688 56.0
1499.992432 180.0
1503.625122 56.0
1504.157715 188.0
