>compound MLS001148185-01!
>formula C21H27NO3
>ionization [M+H]+
>parentmass 342.207123
#inchi InChI=1S/C21H27NO3/c1-2-14-22-15-18(23)16-25-21-11-7-6-10-19(21)20(24)13-12-17-8-4-3-5-9-17/h3-11,18,22-23H,2,12-16H2,1H3
#inchikey JWHAUXFOSRPERK
#origInchi InChI=1S/C21H27NO3.ClH/c1-2-14-22-15-18(23)16-25-21-11-7-6-10-19(21)20(24)13-12-17-8-4-3-5-9-17;/h3-11,18,22-23H,2,12-16H2,1H3;1H
#Ion_Source LC-ESI
#Instrument qTof
#Compound_Source NIH Pharmacologically Active Library
#PI Dorrestein
#Data_Collector VP/LMS
#Scan -1
#Precursor_MZ 342.21
#ExactMass 341.199
#Charge 1
#CAS_Number N/A
#Pubmed_ID N/A
#Smiles CCCNCC(O)COc1ccccc1C(=O)CCc2ccccc2.Cl
#INCHI_AUX N/A
#Library_Class 1
#SpectrumID CCMSLIB00000085433
#IonMode Positive
#UpdateWorkflowName UPDATE-SINGLE-ANNOTATED-GOLD
#LibraryQualityString Gold
#TaskID d252d724072548979f1f6f1ced849daf
##Scan# 1762
#SpectrumFile p4-A09_GA9_01_18333.mzXML
#LibraryName Pharm_Active_Library.mgf
#MQScore -1
#Organism Pharm_Active_Library
#TIC_Query 0
#RT_Query -1
#MZErrorPPM -1
#SharedPeaks 0
#MassDiff 0
#LibMZ -1
#SpecMZ 342.21
#SpecCharge 0
#internalFilename spec-00000.mgf

>collision 10
44.943104 140.0
44.96312 156.0
45.076633 120.0
45.215714 240.0
45.452908 176.0
45.576439 152.0
45.772823 164.0
45.80986 112.0
46.179031 200.0
46.23315 104.0
46.349606 208.0
46.417381 184.0
46.570736 172.0
46.601978 200.0
46.93409 96.0
46.947727 180.0
47.168907 120.0
47.428982 188.0
47.783279 172.0
47.938873 200.0
47.991253 160.0
48.296448 172.0
48.537422 208.0
48.592903 172.0
48.617878 160.0
48.99469 128.0
49.143867 148.0
49.451302 220.0
49.609585 200.0
49.721798 52.0
49.869267 64.0
50.20575 152.0
50.221264 116.0
50.307339 136.0
50.499508 208.0
50.527802 192.0
50.813984 140.0
50.894886 116.0
50.946014 176.0
51.054039 48.0
51.075375 168.0
51.261879 132.0
51.401623 248.0
51.55442 220.0
51.703148 84.0
51.81197 208.0
52.034267 164.0
52.067291 192.0
52.627453 144.0
52.903591 116.0
52.947029 220.0
52.990486 160.0
53.315521 76.0
53.336815 172.0
53.497334 176.0
53.638634 176.0
53.657585 124.0
54.220348 212.0
54.232075 212.0
54.416912 124.0
54.431595 128.0
54.674149 28.0
54.934944 172.0
54.992489 64.0
55.541428 172.0
55.807255 128.0
56.102036 168.0
56.261658 280.0
56.381153 176.0
56.708916 212.0
56.830383 44.0
56.930954 40.0
57.171482 168.0
57.209114 172.0
57.468334 216.0
57.776539 336.0
57.884003 200.0
57.923378 168.0
57.965801 184.0
58.26926 116.0
58.476063 164.0
58.521732 152.0
58.678661 180.0
58.709156 136.0
58.977863 164.0
59.095615 144.0
59.398949 152.0
59.796902 172.0
59.812294 128.0
59.990978 72.0
60.157585 220.0
60.231705 180.0
60.585949 192.0
60.737862 144.0
61.14027 244.0
61.16597 148.0
61.409798 168.0
61.593979 192.0
61.690861 156.0
61.964733 188.0
62.018013 172.0
62.082291 120.0
62.157589 132.0
62.81049 168.0
63.40181 212.0
63.466805 224.0
63.527069 168.0
63.766834 176.0
64.029343 104.0
64.045273 260.0
64.06279 148.0
64.736809 208.0
64.866585 148.0
65.08638 268.0
65.129738 148.0
65.218109 180.0
65.271164 152.0
65.330673 84.0
65.580261 172.0
65.651199 64.0
65.73185 160.0
66.139114 156.0
66.158539 120.0
66.280388 188.0
66.401596 52.0
66.476219 180.0
66.63372 52.0
66.667839 140.0
67.01606 132.0
67.141579 188.0
67.567902 124.0
67.843033 192.0
67.952911 168.0
68.092445 148.0
68.177872 208.0
68.637146 116.0
68.699821 256.0
69.198921 52.0
69.303261 212.0
69.333092 172.0
69.464073 152.0
70.017555 40.0
70.049202 152.0
70.070862 148.0
70.12252 180.0
70.169189 164.0
70.402794 136.0
70.432854 204.0
70.93988 172.0
71.14286 180.0
71.692863 48.0
71.750175 132.0
72.099579 144.0
72.253448 116.0
72.553207 216.0
72.688889 148.0
72.950447 164.0
72.974251 156.0
72.99295 108.0
73.183525 168.0
73.461319 188.0
73.57679 192.0
73.835373 204.0
74.116119 120.0
74.194954 208.0
74.297852 184.0
74.395676 132.0
74.433441 156.0
74.613853 184.0
74.887451 188.0
74.98394 112.0
75.610855 84.0
75.669708 144.0
75.808281 108.0
75.924431 232.0
75.981667 180.0
76.250816 140.0
76.37426 168.0
76.562225 180.0
76.586609 192.0
76.787041 156.0
76.992981 220.0
77.027916 108.0
77.972313 32.0
77.991646 180.0
78.200951 92.0
78.251999 84.0
78.611572 172.0
78.715721 184.0
78.733383 160.0
78.77047 144.0
78.819939 164.0
78.855286 92.0
78.899475 208.0
79.540749 244.0
79.746788 152.0
79.816116 120.0
80.131157 148.0
80.236305 136.0
80.403976 212.0
81.735443 160.0
82.088501 216.0
82.185905 144.0
82.44413 88.0
82.688278 208.0
83.624786 212.0
83.783203 200.0
84.568398 92.0
84.605431 296.0
84.645287 204.0
84.79184 208.0
85.027725 188.0
85.048615 176.0
85.145927 148.0
85.210213 152.0
85.307617 216.0
85.322319 184.0
85.45816 172.0
85.530396 180.0
85.58358 140.0
85.834175 92.0
86.549255 104.0
86.695595 148.0
86.866173 140.0
87.263596 220.0
87.693604 252.0
88.111595 148.0
88.274208 204.0
88.407021 184.0
88.453812 208.0
88.691696 212.0
88.890495 116.0
89.167404 44.0
89.298157 128.0
89.755768 216.0
89.865166 128.0
90.121948 208.0
90.165604 196.0
90.329903 132.0
90.36396 100.0
90.446899 140.0
90.615761 152.0
90.83567 124.0
91.054321 2252.0
91.078491 156.0
91.084915 224.0
91.116631 60.0
91.164131 180.0
91.721779 168.0
91.847626 80.0
91.943024 156.0
92.038467 152.0
92.057304 248.0
92.650497 256.0
92.665825 160.0
92.803818 180.0
92.861351 68.0
93.011009 168.0
93.203056 172.0
93.287621 160.0
93.376068 96.0
93.539612 104.0
93.903778 200.0
94.10833 40.0
95.029617 188.0
95.225677 140.0
95.515282 168.0
95.606728 160.0
95.700165 36.0
95.898712 236.0
96.029495 136.0
96.082878 152.0
96.162163 112.0
96.279091 184.0
96.4571 176.0
96.834732 60.0
97.005196 188.0
97.032639 152.0
97.181702 168.0
97.323021 144.0
97.354439 120.0
97.448723 128.0
97.639397 244.0
97.767265 136.0
97.94249 136.0
97.956284 164.0
98.044945 136.0
98.063385 168.0
98.097343 6120.0
98.161255 72.0
99.012985 124.0
99.07637 44.0
99.099785 472.0
99.153641 148.0
99.331429 180.0
99.383675 80.0
99.433281 52.0
99.476952 60.0
99.552399 108.0
99.661644 160.0
99.725235 84.0
99.772942 148.0
100.116135 168.0
100.623634 164.0
100.759445 240.0
100.812057 176.0
100.917336 112.0
100.945328 88.0
101.139389 188.0
101.265533 116.0
101.598274 36.0
101.768867 156.0
101.84317 160.0
102.205032 160.0
102.30365 200.0
102.418427 136.0
102.599785 164.0
103.017517 156.0
103.035698 200.0
103.053009 516.0
103.094299 132.0
103.112488 196.0
103.316711 132.0
103.814972 116.0
103.967117 100.0
104.107193 148.0
104.24736 160.0
104.389664 156.0
104.475082 204.0
104.694908 40.0
104.955742 184.0
105.070236 1432.0
105.131165 72.0
105.820015 120.0
106.071426 152.0
106.110939 80.0
106.328369 208.0
106.82972 112.0
107.051193 408.0
107.284828 172.0
107.456009 184.0
107.472511 48.0
107.672745 172.0
108.055153 140.0
108.492126 144.0
108.71199 168.0
108.832382 180.0
108.884293 140.0
109.05674 208.0
109.229317 52.0
109.437431 204.0
109.583221 100.0
109.60614 40.0
110.073387 200.0
110.161102 172.0
110.273941 120.0
110.977303 204.0
111.147202 48.0
111.935455 168.0
112.648315 176.0
114.09375 472.0
114.231812 164.0
114.485092 132.0
114.525551 224.0
114.729446 152.0
114.749306 184.0
114.766365 164.0
114.836739 200.0
114.956421 200.0
115.05545 1180.0
115.075127 132.0
115.144066 76.0
115.159019 108.0
115.244469 44.0
115.434708 232.0
115.458229 164.0
115.65506 204.0
115.726898 108.0
115.755684 156.0
115.774956 212.0
115.859299 180.0
115.905624 152.0
115.933167 164.0
115.972061 112.0
116.002068 224.0
116.020927 304.0
116.035675 408.0
116.059654 404.0
116.081757 384.0
116.108391 42304.0
116.209251 112.0
116.213379 64.0
116.222488 144.0
116.280724 92.0
116.298012 148.0
116.316902 52.0
116.383949 120.0
116.404663 96.0
116.459816 276.0
116.564377 48.0
116.583717 56.0
116.598763 80.0
116.650345 80.0
116.742798 88.0
116.88047 136.0
116.919205 156.0
116.96743 88.0
117.026833 68.0
117.052666 180.0
117.070686 480.0
117.110275 2312.0
117.132355 48.0
117.173286 92.0
117.201759 56.0
117.216377 116.0
117.253014 52.0
117.291809 180.0
117.328453 64.0
117.513931 60.0
117.550613 48.0
117.727623 112.0
117.792419 48.0
117.818344 32.0
117.846428 148.0
117.863716 76.0
117.902611 124.0
117.919899 120.0
117.965294 108.0
117.984749 144.0
118.011505 132.0
118.030151 96.0
118.071899 344.0
118.110573 156.0
118.170738 100.0
118.20536 92.0
118.807686 60.0
119.052475 200.0
119.391968 64.0
119.470268 128.0
119.663963 116.0
119.927551 44.0
120.051819 152.0
120.156517 124.0
120.497093 76.0
120.703964 116.0
120.809723 196.0
121.02829 332.0
121.49321 48.0
122.033478 140.0
122.099449 104.0
122.533081 76.0
123.046951 200.0
123.89949 164.0
124.233154 64.0
125.07534 104.0
125.293571 36.0
125.532059 96.0
125.650276 64.0
125.681511 36.0
126.199699 164.0
126.436813 104.0
126.597992 68.0
127.729164 164.0
128.063217 508.0
128.08931 96.0
128.824692 152.0
129.07074 448.0
129.385529 128.0
129.550858 44.0
129.732147 80.0
129.75708 72.0
129.947586 104.0
129.983902 128.0
130.070084 164.0
130.090561 200.0
130.174576 128.0
130.46994 148.0
131.049271 1724.0
131.686752 52.0
132.051041 144.0
133.03215 684.0
133.066422 956.0
133.084641 268.0
134.026688 200.0
134.065674 148.0
134.091202 172.0
135.043106 176.0
135.084061 124.0
135.236771 84.0
136.0504 160.0
136.345383 172.0
136.920013 76.0
138.065887 160.0
138.878586 168.0
139.11322 140.0
141.069595 144.0
142.751816 188.0
143.044449 164.0
143.086472 184.0
143.106354 104.0
144.244308 112.0
145.06311 292.0
146.100388 148.0
146.326599 212.0
146.863983 136.0
147.042526 468.0
147.0728 176.0
147.322617 140.0
148.057922 228.0
148.169342 88.0
149.062225 192.0
151.044739 168.0
151.962997 204.0
152.058701 124.0
153.081375 136.0
157.064194 392.0
158.945526 144.0
159.005753 116.0
159.082321 48.0
159.151352 136.0
160.096832 196.0
161.059921 1520.0
161.247238 76.0
162.062469 244.0
165.065628 128.0
166.077774 200.0
167.094467 216.0
167.408493 196.0
167.983246 208.0
168.045151 120.0
168.349747 200.0
169.068405 300.0
171.087784 32.0
172.075867 260.0
173.057983 336.0
174.092056 192.0
175.083481 192.0
176.104141 188.0
176.144409 148.0
178.07901 220.0
178.321762 44.0
178.505203 52.0
179.081512 172.0
179.573105 152.0
179.63179 48.0
181.101776 164.0
182.158737 160.0
183.194397 104.0
184.108749 152.0
185.279953 92.0
185.616028 156.0
186.321716 136.0
187.073959 304.0
188.241928 164.0
188.310211 160.0
190.073196 180.0
190.122955 180.0
190.814789 180.0
191.084946 192.0
191.127075 172.0
192.08432 212.0
192.139496 120.0
192.912735 184.0
193.062042 232.0
193.103683 200.0
194.071732 176.0
194.079178 260.0
194.112656 192.0
194.922104 68.0
195.080521 152.0
197.456146 88.0
198.125977 160.0
198.186768 232.0
198.966461 84.0
201.913849 72.0
202.001526 176.0
202.073975 184.0
202.686661 60.0
203.086395 112.0
204.085999 112.0
204.117279 92.0
204.606659 152.0
205.07016 156.0
205.108017 304.0
206.081161 196.0
207.076782 168.0
208.091766 208.0
208.123352 152.0
208.933838 156.0
209.096161 784.0
209.408783 36.0
210.097061 488.0
210.146255 92.0
210.571091 88.0
211.042114 164.0
211.094162 132.0
211.727921 100.0
211.872757 80.0
212.153854 168.0
214.039444 40.0
214.074387 132.0
214.120987 132.0
215.088974 168.0
215.132767 160.0
216.149857 132.0
217.114166 172.0
217.430466 108.0
218.120682 68.0
218.767838 32.0
218.935669 112.0
220.13884 160.0
221.097076 492.0
222.089172 132.0
223.109909 156.0
223.140396 88.0
223.815796 172.0
224.116623 168.0
225.011383 168.0
225.109909 148.0
227.049103 104.0
227.107529 108.0
227.139084 144.0
227.196075 124.0
228.099854 200.0
230.471756 100.0
231.082504 140.0
232.084137 332.0
233.460602 124.0
236.116852 148.0
237.026047 156.0
238.545227 104.0
238.932709 88.0
239.104599 204.0
239.945938 132.0
240.127869 116.0
245.7052 152.0
247.070435 84.0
247.109863 540.0
247.386505 68.0
247.771698 156.0
247.821823 52.0
248.085083 40.0
248.947906 116.0
250.1521 164.0
251.5233 168.0
255.093231 128.0
256.436462 140.0
260.259277 100.0
260.686493 148.0
263.295898 240.0
264.977905 168.0
265.121857 2516.0
265.314972 72.0
265.396027 44.0
265.490051 64.0
266.127045 180.0
266.499573 60.0
268.120087 88.0
269.007263 52.0
272.935455 176.0
273.646149 36.0
274.176483 180.0
276.928558 108.0
278.882782 72.0
280.663818 112.0
282.785126 116.0
288.939728 148.0
294.029877 168.0
301.485748 180.0
306.187744 184.0
308.800598 48.0
309.444458 120.0
311.805206 196.0
313.58252 148.0
315.467407 44.0
319.716583 108.0
322.880981 100.0
324.198395 848.0
324.345367 68.0
324.395538 32.0
324.438568 44.0
324.477997 92.0
324.746948 80.0
324.972931 40.0
325.199554 376.0
325.895691 80.0
326.204742 156.0
327.114838 120.0
327.377655 84.0
337.816467 92.0
339.860748 68.0
340.826416 48.0
341.289551 116.0
341.488129 128.0
342.207123 4676.0
342.29776 36.0
342.56662 52.0
342.603455 92.0
342.662415 68.0
342.776886 56.0
342.865051 84.0
343.034607 52.0
343.209442 820.0
343.414398 44.0
343.624664 80.0
343.923584 76.0
344.226044 172.0
344.599365 60.0
344.994812 96.0
345.028076 116.0
345.131592 112.0
345.212952 48.0
345.294312 88.0
345.952942 120.0
348.712616 88.0
356.283142 60.0
372.170959 56.0
402.179352 100.0
444.173615 84.0
566.285095 64.0
567.322815 40.0
660.96875 196.0
706.055481 64.0
708.532654 68.0
747.402466 88.0
771.297668 164.0
863.389221 156.0
885.76709 248.0
887.811829 132.0
888.019409 80.0
899.156921 108.0
900.207642 188.0
905.260681 172.0
917.77124 164.0
924.772766 180.0
927.152954 104.0
934.46991 164.0
942.090576 112.0
944.9823 56.0
947.572083 144.0
950.134766 208.0
953.893066 140.0
954.969055 208.0
956.451904 76.0
958.163879 52.0
958.545898 100.0
961.647888 176.0
963.939026 176.0
964.965088 232.0
975.647156 136.0
981.38739 148.0
982.054626 168.0
986.456726 108.0
995.554199 192.0
995.799133 212.0
997.495605 208.0
1011.157471 132.0
1014.533569 120.0
1022.307861 168.0
1022.40332 192.0
1024.835815 44.0
1026.327271 168.0
1026.614258 184.0
1029.5625 172.0
1031.210815 144.0
1037.323608 236.0
1042.136841 144.0
1043.640869 160.0
1047.605347 144.0
1053.243164 228.0
1055.776611 120.0
1058.319702 256.0
1068.372925 172.0
1075.743286 200.0
1082.071533 168.0
1083.407471 136.0
1089.029053 112.0
1089.626831 228.0
1089.791138 132.0
1090.231323 172.0
1094.052856 60.0
1094.882446 228.0
1095.106445 152.0
1095.32373 188.0
1095.580688 236.0
1096.529541 76.0
1101.933838 152.0
1102.812744 28.0
1104.161499 200.0
1105.233154 188.0
1112.297852 196.0
1115.466309 192.0
1117.271729 200.0
1119.305176 188.0
1126.488037 240.0
1131.06189 80.0
1131.958984 180.0
1141.675903 204.0
1142.012207 196.0
1143.351074 188.0
1145.485474 196.0
1147.682495 132.0
1148.161255 252.0
1148.451294 180.0
1148.734497 236.0
1152.751709 172.0
1153.643921 144.0
1155.896118 124.0
1158.001465 232.0
1167.161499 212.0
1167.346558 160.0
1169.503174 140.0
1169.789062 28.0
1170.354126 92.0
1171.811646 192.0
1173.951904 168.0
1174.688599 132.0
1177.172852 136.0
1179.010498 136.0
1183.388306 176.0
1183.908691 228.0
1187.53418 152.0
1187.829102 144.0
1189.593262 192.0
1196.756348 148.0
1201.001465 220.0
1207.55603 192.0
1215.113403 176.0
1215.543701 180.0
1218.480713 188.0
1221.05957 208.0
1221.796875 160.0
1225.117554 132.0
1225.222046 96.0
1226.05127 220.0
1228.8125 92.0
1230.285034 152.0
1232.526978 152.0
1234.309448 44.0
1235.106689 144.0
1235.295532 148.0
1235.568359 100.0
1236.115601 156.0
1240.771851 216.0
1241.03125 76.0
1242.104248 152.0
1244.08313 128.0
1247.44104 164.0
1248.059692 140.0
1248.994995 184.0
1249.086426 164.0
1249.937744 208.0
1253.803833 196.0
1255.636841 200.0
1257.083008 184.0
1259.186768 180.0
1259.787109 168.0
1260.430054 160.0
1261.426636 240.0
1266.953369 140.0
1270.512207 120.0
1270.767578 128.0
1271.846313 104.0
1275.966431 96.0
1276.307739 196.0
1278.270996 128.0
1279.139282 180.0
1279.502319 192.0
1282.073608 180.0
1283.841675 36.0
1287.209839 116.0
1290.332275 180.0
1290.539551 188.0
1290.661133 156.0
1292.642456 160.0
1293.479858 204.0
1296.939575 180.0
1297.541626 148.0
1299.808228 220.0
1299.944458 84.0
1300.590454 148.0
1302.263428 148.0
1302.859619 92.0
1302.909912 164.0
1304.13147 136.0
1305.677246 152.0
1306.044067 152.0
1306.342407 148.0
1309.606934 128.0
1310.413696 224.0
1310.608276 152.0
1312.013672 176.0
1312.366943 192.0
1314.314331 164.0
1315.844482 200.0
1317.274414 112.0
1319.724365 232.0
1320.425781 196.0
1321.221436 60.0
1321.518066 180.0
1323.857788 220.0
1324.776001 192.0
1325.15271 92.0
1325.391724 156.0
1329.34375 164.0
1329.488892 188.0
1330.37439 224.0
1330.737305 168.0
1331.035034 72.0
1334.050171 144.0
1338.73584 124.0
1342.817017 176.0
1343.02124 164.0
1343.451538 176.0
1343.976807 188.0
1345.173706 212.0
1345.232178 188.0
1345.83728 228.0
1346.904297 176.0
1347.430298 228.0
1349.067261 188.0
1349.601074 140.0
1365.124268 28.0
1366.352661 136.0
1368.325073 36.0
1368.980347 188.0
1370.365112 236.0
1371.374756 44.0
1372.952393 176.0
1374.531128 176.0
1374.962036 56.0
1375.778442 100.0
1378.725586 204.0
1382.585938 152.0
1382.77832 120.0
1382.970825 212.0
1387.704468 188.0
1389.358276 116.0
1390.256104 168.0
1390.31543 180.0
1393.419189 236.0
1393.723145 216.0
1394.095459 272.0
1394.244019 164.0
1394.637939 32.0
1396.013306 148.0
1400.664917 136.0
1401.925781 160.0
1402.102905 232.0
1402.237061 156.0
1402.512817 116.0
1404.80957 164.0
1406.421265 168.0
1413.640869 212.0
1414.306885 128.0
1416.418457 124.0
1416.63562 132.0
1418.036865 192.0
1418.91394 88.0
1419.888672 144.0
1420.803833 244.0
1423.258057 148.0
1423.723633 208.0
1423.828735 148.0
1424.632446 116.0
1424.700073 160.0
1424.827759 176.0
1426.653931 156.0
1429.489502 152.0
1430.392578 200.0
1430.618408 208.0
1431.130371 176.0
1431.536987 148.0
1431.69519 148.0
1432.116943 184.0
1435.432861 196.0
1435.651611 36.0
1439.673828 120.0
1440.285645 180.0
1440.49707 224.0
1441.071289 128.0
1441.509521 160.0
1441.706055 192.0
1442.665894 144.0
1442.960815 252.0
1443.27832 252.0
1446.478516 212.0
1446.917603 132.0
1447.689819 140.0
1448.348755 160.0
1448.507812 216.0
1448.57605 224.0
1449.689819 252.0
1449.765503 228.0
1450.872192 148.0
1452.684692 172.0
1454.202148 96.0
1457.049805 192.0
1459.109375 272.0
1459.307007 164.0
1460.16626 88.0
1461.893188 252.0
1463.841919 232.0
1465.266357 172.0
1465.761597 152.0
1466.493164 120.0
1467.27832 200.0
1468.597534 172.0
1469.596924 200.0
1469.87915 140.0
1469.985962 208.0
1470.054688 180.0
1471.421021 148.0
1473.055176 104.0
1476.066406 156.0
1477.519653 140.0
1478.162354 136.0
1478.29248 244.0
1480.512451 120.0
1481.056274 160.0
1483.845703 164.0
1483.968384 128.0
1485.885742 192.0
1489.416992 188.0
1489.63208 152.0
1489.885498 184.0
1490.000732 200.0
1490.254272 152.0
1490.400269 172.0
1491.998901 140.0
1492.452515 108.0
1493.167725 180.0
1493.244629 144.0
1493.552246 172.0
1496.237915 228.0
1499.223511 152.0
1499.596436 128.0
1499.84314 96.0
1500.806763 100.0
1503.151611 116.0
