>compound MLS000863279-01!
>formula C18H29NO3
>ionization [M+H]+
>parentmass 308.220123
#inchi InChI=1S/C18H29NO3/c1-14(2)19-11-17(20)13-22-18-7-5-15(6-8-18)9-10-21-12-16-3-4-16/h5-8,14,16-17,19-20H,3-4,9-13H2,1-2H3
#inchikey NWIUTZDMDHAVTP
#origInchi InChI=1S/C18H29NO3.ClH/c1-14(2)19-11-17(20)13-22-18-7-5-15(6-8-18)9-10-21-12-16-3-4-16;/h5-8,14,16-17,19-20H,3-4,9-13H2,1-2H3;1H
#Ion_Source LC-ESI
#Instrument qTof
#Compound_Source NIH Pharmacologically Active Library
#PI Dorrestein
#Data_Collector VP/LMS
#Scan -1
#Precursor_MZ 308.225
#ExactMass 307.215
#Charge 1
#CAS_Number N/A
#Pubmed_ID N/A
#Smiles CC(C)NCC(O)COc1ccc(CCOCC2CC2)cc1.Cl
#INCHI_AUX N/A
#Library_Class 1
#SpectrumID CCMSLIB00000084926
#IonMode Positive
#UpdateWorkflowName UPDATE-SINGLE-ANNOTATED-GOLD
#LibraryQualityString Gold
#TaskID d252d724072548979f1f6f1ced849daf
##Scan# 1608
#SpectrumFile p3-C08_GC8_01_18253.mzXML
#LibraryName Pharm_Active_Library.mgf
#MQScore -1
#Organism Pharm_Active_Library
#TIC_Query 0
#RT_Query -1
#MZErrorPPM -1
#SharedPeaks 0
#MassDiff 0
#LibMZ -1
#SpecMZ 308.225
#SpecCharge 0
#internalFilename spec-00000.mgf

>collision 10
44.990089 100.0
45.058205 52.0
45.126369 164.0
45.186558 120.0
45.254818 168.0
45.272228 176.0
45.466728 100.0
45.537781 184.0
45.684303 132.0
45.774483 228.0
45.791988 248.0
45.928127 104.0
45.972652 196.0
46.114464 208.0
46.205067 148.0
46.45163 104.0
46.753273 132.0
46.852676 188.0
47.039513 252.0
47.180222 196.0
47.226719 48.0
47.241764 152.0
47.3321 184.0
47.359489 180.0
47.419777 168.0
47.521603 160.0
47.533607 148.0
47.596752 152.0
47.849751 148.0
47.98064 168.0
48.05098 92.0
48.092377 236.0
48.13932 140.0
48.3507 196.0
48.422836 188.0
48.476868 104.0
48.539249 196.0
48.612774 104.0
48.765545 140.0
48.833675 88.0
48.946404 48.0
48.984009 120.0
49.056473 52.0
49.286762 132.0
49.404209 160.0
49.44479 180.0
49.467186 136.0
49.582043 160.0
49.653545 196.0
49.706856 232.0
50.055126 128.0
50.154099 132.0
50.329041 52.0
50.449135 184.0
50.488728 152.0
50.52692 60.0
50.81879 188.0
51.098694 44.0
51.527851 124.0
51.537853 60.0
51.720913 100.0
51.798237 208.0
51.848389 184.0
51.89856 44.0
52.073643 116.0
52.607872 128.0
52.716198 136.0
52.78125 168.0
52.852131 196.0
52.883968 224.0
52.927399 144.0
52.95784 204.0
53.451424 152.0
53.642223 164.0
53.763287 132.0
53.941483 140.0
54.015778 208.0
54.064342 248.0
54.188812 176.0
54.241573 168.0
54.369179 168.0
54.385323 156.0
54.57925 60.0
54.618958 156.0
54.652798 176.0
54.689587 156.0
54.751427 220.0
54.789806 148.0
54.913551 160.0
55.056713 180.0
55.525871 160.0
55.571857 56.0
55.629738 124.0
56.171768 188.0
56.299782 196.0
56.367874 188.0
56.556946 220.0
56.60186 128.0
56.612343 148.0
56.637802 224.0
56.712723 204.0
56.909248 140.0
57.21394 104.0
57.276203 140.0
57.337982 172.0
57.564274 124.0
57.671543 160.0
57.834904 152.0
57.890923 140.0
57.969696 136.0
58.565266 172.0
59.304806 176.0
59.327801 172.0
59.395275 200.0
59.490417 116.0
60.013519 152.0
60.11224 208.0
60.186337 156.0
60.348576 148.0
60.58073 144.0
60.619465 200.0
60.864559 236.0
61.228458 208.0
61.239361 104.0
61.468536 144.0
61.479462 76.0
62.128822 148.0
62.153927 164.0
62.218277 164.0
62.397385 132.0
62.417824 88.0
62.690159 104.0
62.797367 160.0
62.966248 176.0
63.242943 196.0
63.637684 184.0
63.742519 184.0
63.939716 168.0
64.001801 228.0
64.405289 108.0
64.665085 192.0
64.943108 144.0
65.032959 52.0
65.265907 184.0
65.307724 92.0
65.909058 132.0
66.017365 128.0
66.172707 152.0
66.302299 196.0
66.432014 180.0
66.781258 200.0
66.846336 160.0
67.128151 204.0
67.198296 156.0
67.337051 160.0
67.381157 144.0
67.724693 156.0
67.778755 112.0
68.087166 192.0
68.100304 192.0
68.123299 176.0
68.378166 188.0
68.755585 192.0
68.841431 88.0
68.862907 236.0
69.00502 176.0
69.048012 108.0
69.147285 148.0
69.651344 80.0
69.742729 192.0
69.76268 192.0
69.774315 116.0
69.839172 100.0
69.856735 244.0
69.956726 168.0
70.016434 140.0
70.202248 176.0
70.248955 164.0
70.593025 192.0
70.688377 196.0
70.870895 180.0
70.986557 228.0
71.070427 60.0
71.134209 156.0
71.239998 128.0
71.283684 180.0
71.345879 180.0
71.387909 56.0
71.436691 220.0
71.482117 108.0
71.552811 120.0
71.589073 232.0
71.652176 140.0
71.663971 80.0
71.743187 164.0
71.847748 76.0
71.883179 168.0
72.082443 220.0
72.259987 204.0
72.385239 208.0
72.507217 152.0
72.569939 64.0
72.800713 132.0
73.040359 132.0
73.401428 120.0
73.425301 112.0
73.44577 32.0
73.467941 164.0
73.594238 224.0
73.734322 200.0
74.001175 96.0
74.021729 200.0
74.103943 200.0
74.261658 128.0
74.280525 116.0
74.599937 208.0
74.841911 168.0
75.0355 164.0
75.259796 144.0
75.273613 44.0
75.456764 248.0
75.482704 116.0
75.757904 180.0
75.81855 84.0
75.845352 240.0
76.30632 116.0
76.589981 172.0
76.680588 148.0
76.72242 172.0
76.7416 148.0
76.785194 116.0
77.125671 60.0
77.153641 228.0
77.213089 160.0
77.396843 136.0
77.533478 168.0
77.691292 188.0
77.717606 164.0
77.843994 180.0
77.884392 244.0
77.989815 228.0
78.056625 236.0
78.280106 212.0
78.336472 176.0
78.613289 56.0
79.023232 124.0
79.239243 228.0
79.501671 152.0
79.592209 168.0
79.656143 184.0
79.68457 108.0
80.140137 172.0
80.214905 44.0
80.325462 92.0
80.425392 196.0
80.464668 148.0
80.521805 124.0
81.037003 124.0
81.41729 140.0
81.573608 172.0
81.600578 72.0
81.955154 128.0
81.971375 128.0
81.996605 156.0
82.106583 248.0
82.130028 132.0
82.474907 228.0
82.521912 204.0
82.987236 184.0
83.209465 184.0
83.382973 192.0
83.552078 32.0
83.885345 160.0
84.020302 212.0
84.290527 148.0
84.394714 164.0
84.517265 72.0
84.680199 164.0
84.786461 156.0
84.837784 144.0
85.120338 116.0
85.225044 156.0
85.567146 100.0
85.716339 160.0
85.801125 116.0
86.087128 136.0
86.545715 144.0
86.790306 128.0
86.804497 184.0
87.202431 128.0
87.438637 136.0
87.481445 164.0
87.602493 224.0
87.753448 164.0
87.82618 56.0
88.022141 144.0
88.132347 168.0
88.173195 140.0
88.386253 132.0
88.482109 244.0
89.007103 140.0
89.1931 132.0
89.319084 160.0
89.524239 128.0
89.592041 116.0
89.712654 224.0
89.735275 108.0
89.759789 252.0
90.258301 188.0
90.400177 204.0
90.545944 176.0
90.805603 204.0
91.053795 2256.0
91.120712 60.0
91.211937 40.0
91.360214 168.0
91.525848 180.0
91.642036 128.0
91.689674 116.0
91.754486 200.0
91.800247 140.0
91.874634 228.0
92.056358 416.0
92.151466 72.0
92.197334 56.0
92.436371 92.0
92.46508 168.0
92.518677 184.0
92.863594 216.0
92.901962 88.0
92.976791 128.0
93.028618 196.0
93.069191 316.0
93.093903 116.0
93.220688 160.0
93.299492 192.0
93.345642 212.0
93.613121 124.0
93.709435 212.0
93.865562 52.0
93.967796 152.0
94.048843 176.0
94.292206 220.0
94.357933 64.0
94.429482 220.0
94.493317 172.0
94.624924 68.0
94.706261 128.0
94.91169 48.0
94.934959 204.0
95.008659 188.0
95.070755 176.0
95.100014 208.0
95.181404 208.0
95.198883 120.0
95.214417 168.0
95.488457 108.0
95.593506 128.0
95.747307 116.0
95.817429 112.0
95.834961 196.0
95.862244 40.0
95.969452 184.0
96.029907 180.0
96.053314 160.0
96.465347 160.0
96.480988 44.0
96.498581 204.0
96.553329 92.0
96.890015 144.0
97.02916 80.0
97.111519 148.0
97.241013 224.0
97.294014 208.0
97.517952 156.0
97.614281 80.0
97.641815 160.0
97.671318 180.0
97.838585 60.0
97.874031 40.0
97.88781 164.0
97.905533 128.0
97.9272 160.0
98.011909 160.0
98.096817 1900.0
98.136086 160.0
99.070915 68.0
99.136307 224.0
99.23938 140.0
99.453629 188.0
99.505249 148.0
99.542969 76.0
99.664139 64.0
99.839073 116.0
99.892776 180.0
99.934509 168.0
99.960426 184.0
100.111191 688.0
100.416641 164.0
100.432594 200.0
100.458527 228.0
100.676086 48.0
100.927872 88.0
101.120056 180.0
101.238045 124.0
101.426376 160.0
101.488525 136.0
102.048714 260.0
102.070831 260.0
102.249878 88.0
102.270004 164.0
102.312279 144.0
102.477425 196.0
102.535866 200.0
102.618515 108.0
102.757683 160.0
102.773819 204.0
102.810143 128.0
102.860603 160.0
102.925209 204.0
103.012894 220.0
103.054161 3228.0
103.339569 188.0
103.392181 136.0
103.493393 44.0
103.647339 132.0
103.825729 148.0
103.886581 132.0
104.06163 904.0
104.091568 136.0
104.105789 176.0
104.274406 52.0
104.522514 76.0
104.65889 180.0
104.801476 168.0
104.98085 88.0
105.069885 5576.0
105.096413 160.0
105.393196 152.0
105.415672 176.0
105.457832 172.0
105.593536 100.0
105.816933 96.0
105.859581 160.0
105.896446 192.0
106.006195 196.0
106.041916 164.0
106.073448 1040.0
106.11161 136.0
106.281853 176.0
106.3311 164.0
106.351631 84.0
106.436829 104.0
106.569313 156.0
106.795448 68.0
106.95388 140.0
106.968292 164.0
107.04892 920.0
107.084328 344.0
107.106255 76.0
107.155693 80.0
107.203087 128.0
107.291718 172.0
107.490036 132.0
107.533066 160.0
107.594994 68.0
107.609444 176.0
107.727165 92.0
107.828407 48.0
107.844948 48.0
107.878021 116.0
108.054688 204.0
108.095192 144.0
108.62973 92.0
108.667076 160.0
108.768768 160.0
109.043648 176.0
109.063347 368.0
109.309135 128.0
109.327858 216.0
109.377815 40.0
109.409042 44.0
109.477753 68.0
109.583984 188.0
109.613159 88.0
109.634743 156.0
109.700691 124.0
109.815376 224.0
109.953079 148.0
110.038666 160.0
110.095901 920.0
110.667999 184.0
110.797859 132.0
110.837669 48.0
111.053596 136.0
111.102295 204.0
111.12912 164.0
111.372643 196.0
111.418854 160.0
111.553352 188.0
111.734207 112.0
112.041588 96.0
112.292435 200.0
112.854156 92.0
112.951439 196.0
113.002213 60.0
113.040298 92.0
113.088974 176.0
113.288017 200.0
113.345085 120.0
113.629349 192.0
113.805511 156.0
114.087074 172.0
114.139107 88.0
114.277367 112.0
114.526443 160.0
114.639359 216.0
114.688377 168.0
114.718216 200.0
114.773651 156.0
114.888824 176.0
115.053436 2560.0
115.071785 176.0
115.157784 272.0
115.442032 124.0
115.544701 152.0
115.645271 140.0
115.697319 168.0
115.784439 112.0
115.850838 212.0
115.88726 96.0
115.947266 156.0
115.966278 124.0
116.04039 184.0
116.059235 1488.0
116.106895 7224.0
116.157387 56.0
116.264671 44.0
116.378441 60.0
116.446663 52.0
116.533081 56.0
116.573914 196.0
116.741592 208.0
116.896904 192.0
117.045006 196.0
117.070351 2028.0
117.110291 496.0
117.195786 112.0
117.456642 156.0
117.482529 92.0
117.627113 128.0
117.730751 76.0
117.776108 80.0
117.82795 48.0
117.979233 100.0
118.039772 140.0
118.072861 516.0
118.111145 264.0
118.386009 156.0
118.804337 212.0
118.925858 68.0
119.048508 812.0
119.084068 1248.0
119.13649 72.0
119.177773 240.0
119.373405 196.0
119.506088 32.0
119.691109 132.0
119.782578 156.0
120.055199 616.0
120.082047 136.0
120.105186 164.0
120.135727 216.0
120.198997 116.0
120.402016 60.0
120.535278 164.0
120.563683 148.0
120.644554 192.0
120.74514 80.0
120.784508 192.0
120.854515 80.0
120.989517 188.0
121.064552 10400.0
121.121605 204.0
121.205589 132.0
121.26403 60.0
121.314445 132.0
121.34446 116.0
121.394836 120.0
121.446014 44.0
121.544739 228.0
121.563904 188.0
121.645691 140.0
121.726929 68.0
121.777443 100.0
121.830162 32.0
121.942223 156.0
121.970795 44.0
122.069839 968.0
122.107117 172.0
122.327156 140.0
122.41082 36.0
122.428436 68.0
122.591454 148.0
122.750175 112.0
122.778847 176.0
122.847221 140.0
123.014938 64.0
123.039848 112.0
123.05909 180.0
123.074547 148.0
123.123123 68.0
123.149628 140.0
123.324181 124.0
123.390495 112.0
123.487793 76.0
123.848572 144.0
124.081253 156.0
125.109879 216.0
125.312546 148.0
126.042175 184.0
126.104744 176.0
126.122627 144.0
126.142746 148.0
126.290321 216.0
126.305984 148.0
126.39547 100.0
126.514091 104.0
126.740303 172.0
126.814255 32.0
127.05439 540.0
127.674141 160.0
127.811363 260.0
128.007202 28.0
128.060501 1668.0
128.102982 76.0
128.124329 212.0
128.144608 188.0
128.196426 232.0
128.252777 124.0
128.30011 192.0
128.426392 172.0
128.548218 84.0
128.638504 60.0
128.862076 44.0
129.067169 2556.0
129.103943 140.0
129.293976 156.0
129.361877 128.0
129.434326 92.0
130.019196 124.0
130.074814 476.0
130.291687 204.0
130.550797 196.0
130.634964 72.0
130.978683 216.0
130.999191 72.0
131.048157 1180.0
131.085571 1920.0
131.124512 236.0
131.211136 252.0
131.44606 128.0
131.509964 64.0
131.557907 56.0
131.829697 52.0
131.866272 52.0
131.943985 64.0
131.996582 132.0
132.054642 692.0
132.087173 392.0
132.259674 88.0
132.323776 44.0
132.387894 176.0
132.477219 140.0
132.495544 88.0
132.756851 52.0
132.928894 64.0
133.064453 8560.0
133.10202 512.0
133.172256 72.0
133.198669 108.0
133.343262 56.0
133.494003 64.0
133.82074 112.0
133.86734 68.0
133.902298 96.0
134.03035 148.0
134.066757 1376.0
134.097183 204.0
134.112518 92.0
134.454666 204.0
134.69133 136.0
134.760696 160.0
134.869583 136.0
134.949005 212.0
135.08136 1004.0
135.122467 104.0
135.216049 144.0
135.312241 48.0
135.367813 184.0
135.604126 200.0
135.782639 100.0
135.802246 44.0
135.870789 240.0
135.893982 180.0
136.087128 228.0
136.119141 228.0
136.174881 188.0
136.212036 188.0
136.488602 52.0
136.907471 144.0
136.970367 144.0
137.060181 160.0
137.357315 172.0
137.88266 144.0
138.135178 84.0
138.207703 84.0
138.774536 152.0
138.797974 148.0
138.835495 208.0
139.013794 128.0
139.05838 76.0
139.129974 136.0
139.431808 80.0
139.885773 160.0
140.100067 216.0
140.300385 204.0
140.526794 124.0
140.739227 180.0
140.87384 208.0
141.069397 2084.0
141.417694 112.0
141.550278 64.0
141.960236 152.0
142.017151 156.0
142.038498 208.0
142.076111 1576.0
142.11441 180.0
142.320908 184.0
142.475296 104.0
142.491928 124.0
142.560837 132.0
142.648773 100.0
142.898483 196.0
143.017471 160.0
143.050735 308.0
143.08345 1560.0
143.396179 168.0
143.481995 232.0
143.679932 212.0
143.720505 180.0
143.804016 144.0
143.909058 160.0
144.055649 1764.0
144.090668 400.0
144.132217 112.0
144.159866 32.0
144.303284 40.0
144.475479 88.0
144.641205 208.0
144.827377 132.0
144.913605 56.0
145.063599 1596.0
145.100098 556.0
145.311615 88.0
145.335602 56.0
145.410004 236.0
145.674118 148.0
145.859146 104.0
146.070221 1100.0
146.102036 192.0
146.323441 168.0
146.374008 72.0
146.559479 128.0
146.701675 52.0
146.819824 232.0
146.843948 172.0
146.942841 196.0
146.971802 232.0
147.08078 3196.0
147.109375 76.0
147.18663 84.0
147.205948 232.0
147.234924 52.0
147.413696 120.0
147.43544 36.0
147.878036 172.0
147.93129 64.0
148.076157 1852.0
148.129852 120.0
148.672974 276.0
148.753067 68.0
148.847748 36.0
148.896317 44.0
148.988617 100.0
149.07135 284.0
149.131989 160.0
149.620941 40.0
150.047287 184.0
150.105804 160.0
150.244827 68.0
150.860245 204.0
150.960495 132.0
151.048538 172.0
151.074539 2412.0
151.565125 132.0
151.987564 112.0
152.023666 28.0
152.05452 176.0
152.073761 172.0
152.148849 172.0
152.291275 48.0
152.888718 104.0
153.070984 576.0
153.714264 68.0
153.887039 40.0
153.995468 168.0
154.076431 364.0
154.104401 72.0
154.227951 136.0
154.287277 224.0
154.945602 92.0
155.057877 348.0
155.083176 768.0
155.635101 184.0
156.055161 208.0
156.093582 312.0
157.064117 792.0
157.100876 452.0
157.160904 152.0
157.602859 48.0
157.975372 168.0
158.072418 1096.0
158.104828 136.0
158.626465 164.0
158.989105 144.0
159.012726 152.0
159.07959 7620.0
159.114304 324.0
159.291443 128.0
159.331635 92.0
159.356766 68.0
160.085922 884.0
160.136597 112.0
160.267593 128.0
160.408722 68.0
160.441498 88.0
160.53479 64.0
160.708832 160.0
160.764343 124.0
160.782013 80.0
160.872879 288.0
161.058151 280.0
161.095001 5664.0
161.136536 180.0
161.191116 32.0
161.517258 88.0
161.712082 232.0
161.782959 180.0
161.820938 184.0
162.096115 984.0
162.611847 104.0
163.077255 552.0
163.112732 520.0
163.351257 128.0
164.010757 160.0
164.080109 156.0
164.400986 108.0
164.633286 100.0
165.090805 500.0
165.121429 180.0
165.395187 68.0
166.087875 120.0
166.775162 136.0
166.967987 152.0
167.024582 76.0
167.084625 332.0
167.106903 160.0
167.660522 52.0
167.701767 36.0
167.853867 180.0
168.055069 64.0
168.08345 184.0
168.336426 208.0
169.036957 128.0
169.079254 220.0
169.096893 160.0
169.210373 48.0
170.07103 104.0
170.105423 152.0
170.146301 124.0
170.20343 52.0
170.247574 80.0
171.080139 1376.0
172.060745 220.0
172.085159 1032.0
172.449066 164.0
172.777054 192.0
173.066437 108.0
173.095428 696.0
173.684921 128.0
173.810852 52.0
173.960449 168.0
173.978836 184.0
174.062851 172.0
174.092377 164.0
174.538452 96.0
175.074158 640.0
175.112717 1384.0
175.428345 68.0
175.483719 196.0
175.61557 172.0
175.702621 208.0
175.992935 192.0
176.105164 1580.0
176.968597 176.0
177.029495 120.0
177.091064 4624.0
177.326218 112.0
177.843414 96.0
178.093857 916.0
178.123581 104.0
178.502289 84.0
178.65921 76.0
179.101471 336.0
179.404877 52.0
180.093506 308.0
180.189499 196.0
180.347168 108.0
180.512924 80.0
180.898193 168.0
181.107056 192.0
181.155273 88.0
181.364288 132.0
181.506363 84.0
182.112885 252.0
182.817276 104.0
183.079285 540.0
183.116104 292.0
183.71991 192.0
184.059982 220.0
184.088074 296.0
184.321991 188.0
184.611237 40.0
185.093582 568.0
185.12384 180.0
185.352951 108.0
185.564377 116.0
186.107666 216.0
187.014999 168.0
187.077347 128.0
187.110062 1164.0
187.7397 196.0
188.075287 120.0
188.109421 340.0
188.285522 64.0
188.58606 76.0
189.091202 1236.0
189.132339 200.0
189.217957 84.0
190.098236 176.0
190.126862 332.0
191.102692 360.0
191.208084 136.0
191.260376 164.0
191.304413 64.0
191.348465 80.0
191.905014 96.0
192.064957 136.0
192.105286 208.0
192.730301 92.0
193.115936 160.0
193.565659 100.0
194.113724 572.0
194.363968 108.0
195.122223 292.0
195.219543 76.0
195.689804 52.0
197.053665 172.0
197.099304 172.0
197.12352 176.0
197.598846 96.0
197.845139 96.0
197.94873 136.0
198.102966 480.0
198.576492 116.0
199.098495 176.0
200.719406 200.0
201.125671 460.0
201.713211 48.0
201.99881 96.0
202.075195 160.0
202.117004 304.0
202.225174 116.0
203.108582 692.0
203.745087 52.0
204.123322 156.0
205.121078 384.0
205.652191 188.0
205.704361 36.0
206.119324 368.0
207.033875 68.0
207.099564 360.0
207.472275 180.0
207.893906 132.0
208.099686 212.0
208.275757 128.0
210.063324 180.0
210.129333 844.0
211.135376 220.0
211.82666 168.0
212.126251 1552.0
212.186005 56.0
212.862061 88.0
213.12532 668.0
213.635178 88.0
214.112549 140.0
214.135086 364.0
214.514633 48.0
214.902512 88.0
215.547821 116.0
215.840118 120.0
216.656708 76.0
217.765503 80.0
218.156311 492.0
218.309204 72.0
218.400375 36.0
218.426849 124.0
218.759369 64.0
219.134628 680.0
219.195267 52.0
219.649292 72.0
219.923706 224.0
220.136353 164.0
220.298721 128.0
223.262741 136.0
223.396591 68.0
224.125534 368.0
224.155807 36.0
225.129944 128.0
227.478668 60.0
229.780899 40.0
229.955917 148.0
230.15213 160.0
231.070969 192.0
231.137741 940.0
231.400864 120.0
231.558319 48.0
231.767349 52.0
232.137054 324.0
233.147568 120.0
234.145355 288.0
236.163696 624.0
237.143143 156.0
237.596985 56.0
238.158661 160.0
238.604324 40.0
239.161118 176.0
241.38858 164.0
242.568176 140.0
246.12735 296.0
247.162796 216.0
248.16864 164.0
248.177536 212.0
249.159195 208.0
252.161087 304.0
252.313934 248.0
254.10968 136.0
254.173676 448.0
255.181091 164.0
256.58725 76.0
258.596497 128.0
259.878326 100.0
262.277405 216.0
264.072632 164.0
264.583893 136.0
265.124817 88.0
266.172791 1348.0
266.322021 48.0
266.903748 88.0
267.177887 152.0
267.521912 48.0
269.602844 136.0
272.21048 204.0
275.064941 160.0
275.596649 152.0
278.223053 116.0
279.096863 124.0
281.178894 192.0
290.210876 580.0
290.248596 272.0
291.217346 148.0
292.217926 160.0
292.29007 120.0
293.250427 140.0
297.340942 124.0
299.427826 76.0
302.189392 104.0
302.867889 164.0
304.946228 132.0
305.878418 80.0
306.184814 44.0
306.902679 68.0
306.944519 80.0
307.042145 112.0
307.077026 152.0
307.174683 96.0
307.296783 132.0
307.485229 124.0
307.617859 176.0
307.698151 96.0
308.0112 156.0
308.220123 10136.0
308.30246 44.0
308.365356 36.0
308.435272 96.0
308.466705 88.0
308.529633 120.0
308.568115 140.0
308.624329 48.0
308.68222 96.0
308.917816 100.0
309.099762 44.0
309.169739 96.0
309.223389 1996.0
309.365753 88.0
309.55481 76.0
310.069794 68.0
310.225525 300.0
310.250153 248.0
310.54599 88.0
310.707977 36.0
310.774628 124.0
310.869385 48.0
310.932556 96.0
311.318726 112.0
311.392487 48.0
311.596222 64.0
312.024994 40.0
312.190247 64.0
312.239471 88.0
315.780457 56.0
315.985626 48.0
321.204285 44.0
324.881714 60.0
328.865143 72.0
330.487732 64.0
331.90036 136.0
335.682068 92.0
337.039978 72.0
346.666473 112.0
348.532959 44.0
353.499878 52.0
356.759247 80.0
357.007385 56.0
357.759918 76.0
367.099792 100.0
374.130737 132.0
375.737793 104.0
383.809204 80.0
390.741852 52.0
410.636658 116.0
425.608856 80.0
429.700073 84.0
445.134552 144.0
496.848999 60.0
498.003143 44.0
508.55835 72.0
528.059875 76.0
528.283997 32.0
595.376465 108.0
598.600647 36.0
612.534729 140.0
626.180786 88.0
640.752808 44.0
641.221436 256.0
676.266663 64.0
676.494385 52.0
695.810059 64.0
731.155762 80.0
731.225708 68.0
737.363281 196.0
737.536255 140.0
757.449402 112.0
763.593994 36.0
794.535583 220.0
800.904663 172.0
805.422729 84.0
816.810547 120.0
818.842529 40.0
828.086487 172.0
840.03949 160.0
854.936035 216.0
861.700073 232.0
864.038635 236.0
865.700989 192.0
865.823975 44.0
867.699036 244.0
877.281738 192.0
888.025879 44.0
892.444946 132.0
900.829468 204.0
903.50769 100.0
910.977356 208.0
913.712708 124.0
914.868164 192.0
925.869629 208.0
932.762207 92.0
935.225708 160.0
936.437317 184.0
937.253662 156.0
944.151672 192.0
951.590698 224.0
959.176025 172.0
959.582886 36.0
962.748352 172.0
964.305237 192.0
964.416504 128.0
967.168945 156.0
968.834717 172.0
971.519043 156.0
975.027283 380.0
980.934082 160.0
982.474426 108.0
982.954834 132.0
983.154541 108.0
983.391724 44.0
986.31488 196.0
987.734314 164.0
990.244263 188.0
992.098999 160.0
992.418762 100.0
1009.141846 124.0
1015.311584 60.0
1020.859863 184.0
1021.11908 132.0
1023.443359 168.0
1027.528931 124.0
1032.178711 144.0
1032.677612 148.0
1039.320801 224.0
1049.058105 216.0
1052.303223 180.0
1053.88562 264.0
1056.03186 176.0
1058.005493 88.0
1059.598633 196.0
1067.588989 132.0
1069.111328 156.0
1070.393799 140.0
1073.802124 160.0
1074.421753 152.0
1077.163574 128.0
1077.359497 216.0
1078.986816 196.0
1084.813354 148.0
1085.01001 128.0
1089.032593 284.0
1090.22168 96.0
1090.418823 44.0
1091.661377 140.0
1093.793091 60.0
1094.405273 224.0
1096.084961 184.0
1100.768433 172.0
1103.477539 64.0
1107.580444 176.0
1108.097168 204.0
1108.209839 120.0
1110.258179 160.0
1111.200073 168.0
1111.253174 120.0
1113.191406 136.0
1113.669556 192.0
1115.197754 172.0
1116.421021 260.0
1116.600586 228.0
1117.505249 236.0
1117.971069 96.0
1120.881104 152.0
1122.014282 136.0
1123.55481 224.0
1123.708252 232.0
1125.089722 240.0
1126.899658 212.0
1127.547852 152.0
1130.483765 124.0
1131.286987 180.0
1131.98999 144.0
1132.693237 176.0
1137.574951 168.0
1137.736084 196.0
1137.944214 112.0
1138.011353 160.0
1138.582153 68.0
1141.505371 152.0
1143.604492 56.0
1144.344971 40.0
1144.755737 40.0
1145.206909 176.0
1145.36853 192.0
1145.536987 264.0
1148.739014 176.0
1149.17749 192.0
1150.426025 124.0
1152.391357 120.0
1153.830933 164.0
1158.683472 136.0
1158.893555 124.0
1161.584961 96.0
1162.752075 164.0
1162.84021 208.0
1164.673462 152.0
1166.678101 132.0
1169.208496 76.0
1169.616821 192.0
1169.712158 216.0
1170.290771 68.0
1174.134155 96.0
1175.437134 184.0
1180.567261 176.0
1180.950317 180.0
1183.160278 196.0
1187.594116 156.0
1187.8479 196.0
1188.733765 184.0
1191.994751 168.0
1192.75769 108.0
1194.009033 56.0
1196.582642 148.0
1198.318237 40.0
1198.890137 268.0
1199.165771 180.0
1199.786133 204.0
1202.780029 160.0
1209.678833 200.0
1210.751953 184.0
1213.225708 248.0
1214.806763 144.0
1215.042725 52.0
1218.534912 132.0
1221.190308 220.0
1224.280396 168.0
1228.281128 132.0
1230.500244 180.0
1231.72937 124.0
1231.799194 216.0
1232.504883 132.0
1233.923706 200.0
1235.259399 152.0
1235.504272 192.0
1236.406982 180.0
1237.68103 160.0
1238.038086 80.0
1238.108154 172.0
1238.283203 92.0
1239.221924 160.0
1241.05127 196.0
1242.24353 272.0
1242.482056 180.0
1244.131348 184.0
1244.398071 176.0
1248.11499 176.0
1248.783081 224.0
1251.75293 256.0
1252.731934 104.0
1253.443604 176.0
1253.591553 160.0
1254.077881 200.0
1254.860352 220.0
1256.115601 180.0
1256.411865 56.0
1257.63269 112.0
1259.256592 192.0
1262.245972 224.0
1262.705688 60.0
1265.359253 96.0
1266.039062 184.0
1266.109863 228.0
1268.022705 176.0
1268.880493 188.0
1269.284546 68.0
1273.294067 216.0
1281.652832 176.0
1282.009033 124.0
1282.828735 188.0
1283.384888 32.0
1284.09082 196.0
1287.595093 184.0
1288.252197 200.0
1288.93811 216.0
1288.988159 224.0
1289.245361 160.0
1293.021484 208.0
1293.429443 144.0
1294.95459 180.0
1298.523926 232.0
1299.549683 168.0
1300.561523 128.0
1305.511719 212.0
1306.238159 132.0
1306.972046 188.0
1307.533325 164.0
1307.842773 144.0
1308.721069 148.0
1308.886719 152.0
1310.103882 140.0
1312.208252 204.0
1314.126831 168.0
1314.718506 88.0
1316.869995 212.0
1317.021729 160.0
1317.664551 68.0
1319.456909 196.0
1320.0354 192.0
1320.664551 164.0
1320.881592 200.0
1321.764282 32.0
1326.500854 112.0
1328.161377 124.0
1328.545898 164.0
1329.96814 108.0
1330.149658 248.0
1330.723145 76.0
1332.778687 244.0
1334.304932 208.0
1336.508789 224.0
1336.581543 120.0
1336.974487 164.0
1337.578613 144.0
1340.856201 128.0
1341.329956 208.0
1342.992554 72.0
1343.320801 136.0
1343.955444 140.0
1345.181519 116.0
1345.780273 156.0
1347.262817 248.0
1347.839966 52.0
1348.643921 156.0
1350.420654 228.0
1350.771729 200.0
1350.859497 164.0
1351.613159 124.0
1352.652344 156.0
1354.336548 156.0
1355.875122 140.0
1359.013672 124.0
1359.945679 60.0
1360.231934 236.0
1360.804565 184.0
1361.208374 204.0
1361.626953 56.0
1364.617798 208.0
1365.382568 152.0
1368.568848 168.0
1369.960815 168.0
1371.692627 128.0
1374.03772 76.0
1374.967407 180.0
1376.126343 236.0
1379.022217 196.0
1383.549316 176.0
1387.001343 184.0
1387.431274 128.0
1388.580566 204.0
1389.812012 160.0
1391.162842 252.0
1391.482056 192.0
1392.826172 152.0
1394.691284 140.0
1395.538696 72.0
1396.438599 176.0
1400.316284 204.0
1400.569458 96.0
1403.147949 180.0
1403.587769 176.0
1403.736938 172.0
1404.915405 48.0
1406.116699 56.0
1407.057251 128.0
1407.490356 84.0
1408.954224 32.0
1409.717773 152.0
1409.873291 196.0
1410.912354 168.0
1411.398315 136.0
1412.071289 124.0
1412.692139 140.0
1416.727173 148.0
1417.034424 192.0
1418.120972 204.0
1418.270874 200.0
1419.103027 156.0
1419.290405 164.0
1421.098145 264.0
1421.353149 172.0
1421.623413 200.0
1423.357422 152.0
1424.701782 156.0
1424.942261 180.0
1425.520752 220.0
1426.565552 172.0
1426.625732 228.0
1431.380737 124.0
1431.576538 176.0
1432.63855 172.0
1433.090576 180.0
1433.271484 64.0
1433.640625 188.0
1433.964722 140.0
1434.356689 136.0
1435.208618 144.0
1435.600708 140.0
1435.909912 208.0
1437.131958 176.0
1437.882202 220.0
1439.993042 60.0
1442.327759 260.0
1443.189697 144.0
1443.507202 192.0
1444.974609 84.0
1446.329224 340.0
1446.548706 164.0
1447.752563 188.0
1448.093384 144.0
1450.609009 128.0
1451.192749 56.0
1451.397583 128.0
1452.482056 156.0
1452.545898 240.0
1453.164795 160.0
1453.809814 156.0
1454.690186 144.0
1455.350708 224.0
1456.67981 276.0
1458.01709 28.0
1458.161499 208.0
1461.97168 140.0
1462.496826 216.0
1464.659302 152.0
1464.77356 128.0
1466.442261 192.0
1467.837402 148.0
1469.797729 176.0
1469.988525 176.0
1472.713989 80.0
1473.141846 144.0
1474.52478 120.0
1476.1073 192.0
1476.609863 188.0
1477.744141 152.0
1478.295166 208.0
1478.700684 228.0
1480.737305 128.0
1481.633545 188.0
1481.794434 192.0
1482.729248 96.0
1483.012817 196.0
1484.714844 56.0
1485.435913 184.0
1486.356567 160.0
1486.870728 136.0
1487.523071 124.0
1489.358276 168.0
1490.672119 168.0
1491.194702 212.0
1491.333008 216.0
1491.894165 84.0
1494.839966 244.0
1495.255615 92.0
1495.47876 92.0
1497.21875 176.0
1499.013672 84.0
1499.506958 44.0
1499.699585 156.0
1499.830688 132.0
1503.841553 88.0
1504.698364 192.0
