>compound MLS001032155-01!N-[2-[2-(1H-indol-3-yl)ethylamino]-2-oxoethyl]-3-oxo-2,4-dihydroquinoxaline-1-carboxamide
>formula C21H21N5O3
>ionization [M+H]+
>parentmass 392.172
#inchi InChI=1S/C21H21N5O3/c27-19(22-10-9-14-11-23-16-6-2-1-5-15(14)16)12-24-21(29)26-13-20(28)25-17-7-3-4-8-18(17)26/h1-8,11,23H,9-10,12-13H2,(H,22,27)(H,24,29)(H,25,28)
#inchikey WLMNOQLTEBGVAO
#Ion_Source LC-ESI
#Instrument qTof
#Compound_Source NIH Natural Product Library
#PI Dorrestein
#Data_Collector VVP/LMS
#Scan -1
#Precursor_MZ 392.172
#ExactMass 391.164
#Charge 1
#CAS_Number N/A
#Pubmed_ID N/A
#Smiles O=C(CNC(=O)N1CC(=O)Nc2ccccc12)NCCc3c[nH]c4ccccc34
#INCHI_AUX N/A
#Library_Class 1
#SpectrumID CCMSLIB00000079960
#IonMode Positive
#UpdateWorkflowName UPDATE-SINGLE-ANNOTATED-GOLD
#LibraryQualityString Gold
#TaskID b1d8e8f6646f4e71acdff9ca3d919d08
##Scan# 1762
#SpectrumFile p2-C02_GC2_01_18002.mzXML
#LibraryName NIH_Natural_Products_Library.mgf
#MQScore -1
#Organism NIH_Natural_Products_Library
#TIC_Query 0
#RT_Query -1
#MZErrorPPM -1
#SharedPeaks 0
#MassDiff 0
#LibMZ -1
#SpecMZ 392.172
#SpecCharge 0
#internalFilename spec-00000.mgf

>collision 10
94.970535 60.0
95.020973 128.0
95.166534 216.0
95.185951 196.0
95.646713 188.0
95.668129 144.0
96.149567 100.0
96.204216 268.0
96.372177 164.0
96.434708 128.0
96.587219 196.0
96.602867 148.0
96.802505 176.0
96.82209 176.0
96.970985 168.0
96.992546 196.0
97.174927 180.0
97.29464 136.0
97.823456 96.0
97.949478 72.0
98.040108 76.0
98.057846 184.0
98.178108 188.0
98.78051 248.0
98.990303 164.0
99.226089 140.0
99.99881 108.0
100.193954 136.0
100.562859 140.0
100.926437 92.0
101.206558 212.0
101.629478 68.0
102.574692 180.0
102.685585 160.0
102.762245 128.0
102.828835 76.0
103.052208 292.0
103.35408 240.0
103.429123 112.0
104.049713 176.0
104.407059 152.0
104.566628 156.0
104.856979 144.0
104.885521 136.0
105.743362 156.0
105.939934 176.0
105.985008 204.0
106.105927 236.0
106.501976 208.0
106.647858 112.0
106.705879 232.0
106.754768 216.0
106.808243 196.0
106.882301 176.0
106.944038 204.0
107.444778 220.0
107.512871 136.0
107.624336 112.0
107.651184 228.0
107.886726 144.0
107.930138 208.0
107.994247 32.0
108.085274 212.0
108.422813 136.0
108.437325 156.0
108.50573 180.0
108.580376 204.0
108.609413 160.0
108.638451 160.0
108.773338 100.0
108.926994 176.0
109.041275 200.0
109.195122 144.0
109.311623 128.0
109.428185 176.0
109.473991 104.0
109.646904 236.0
110.147652 228.0
110.546982 156.0
110.620239 184.0
110.683044 248.0
110.722832 112.0
110.75425 124.0
110.810814 168.0
110.993164 244.0
111.049782 196.0
111.192451 204.0
111.257523 136.0
111.419228 244.0
111.806122 184.0
111.873474 148.0
112.72979 168.0
113.121071 180.0
113.360397 184.0
113.409142 168.0
114.077782 84.0
114.160698 156.0
114.28833 64.0
114.426674 172.0
114.793159 136.0
115.054657 984.0
115.226448 64.0
115.504356 128.0
116.062157 168.0
116.179131 144.0
116.830055 184.0
117.030205 148.0
117.071167 1416.0
117.273636 128.0
117.390053 52.0
117.463379 80.0
117.674873 36.0
117.793007 176.0
117.843338 116.0
117.912483 36.0
118.073395 384.0
118.785057 140.0
119.036819 176.0
119.0625 2312.0
119.11718 32.0
120.062515 168.0
120.273415 272.0
120.406601 104.0
120.808784 104.0
120.894943 180.0
120.94445 160.0
120.989777 136.0
121.018883 192.0
121.03421 180.0
121.077225 1028.0
121.414703 132.0
121.492271 44.0
121.507629 164.0
121.573456 156.0
121.722725 340.0
122.014954 120.0
122.079338 184.0
122.325134 164.0
122.737122 216.0
122.787842 92.0
122.83416 72.0
123.450363 188.0
124.076973 160.0
124.229996 212.0
124.454147 172.0
124.634056 156.0
124.685173 172.0
124.863022 40.0
124.938652 164.0
125.277031 44.0
125.310448 148.0
125.868057 160.0
126.093689 136.0
126.16745 152.0
126.805397 136.0
127.05661 416.0
127.076729 156.0
127.676483 96.0
127.843666 164.0
127.917229 180.0
128.052444 468.0
128.277649 144.0
128.401657 156.0
128.458038 44.0
128.548294 128.0
128.625031 208.0
128.704041 76.0
128.880219 196.0
129.409485 88.0
129.656387 136.0
129.903534 176.0
130.00563 116.0
130.068085 116.0
130.612396 296.0
130.716904 200.0
130.821594 92.0
131.061462 336.0
131.270447 156.0
131.338852 160.0
131.446091 136.0
131.528244 140.0
132.046677 212.0
132.070557 176.0
132.330658 160.0
132.458893 60.0
132.672012 156.0
132.715576 252.0
132.827942 168.0
133.039062 184.0
133.075729 400.0
133.1026 148.0
133.590591 172.0
134.07872 188.0
135.205719 196.0
135.231186 168.0
135.407135 160.0
135.451141 168.0
136.379272 96.0
136.442047 156.0
136.516449 132.0
136.635071 164.0
136.702545 184.0
137.604599 144.0
137.978409 164.0
138.067261 92.0
138.549438 212.0
138.574066 172.0
138.706436 84.0
139.03949 172.0
141.107666 76.0
141.128937 220.0
141.318161 80.0
141.514603 112.0
141.566696 124.0
142.065262 332.0
142.691391 204.0
142.824554 92.0
142.857864 164.0
142.895935 156.0
143.07457 3528.0
143.293533 36.0
143.324493 148.0
143.350708 40.0
143.467499 36.0
143.610565 120.0
143.670212 116.0
143.833969 160.0
143.932739 172.0
143.970459 172.0
143.991089 408.0
144.037369 208.0
144.081894 48776.0
144.125763 188.0
144.147247 40.0
144.21225 60.0
144.240936 64.0
144.299103 144.0
144.324493 232.0
144.362869 92.0
144.43222 40.0
144.451355 164.0
144.477936 36.0
144.544662 60.0
144.638 52.0
144.677063 112.0
144.755081 84.0
144.791229 64.0
144.81279 132.0
144.913742 56.0
144.956528 52.0
144.996307 108.0
145.085907 5040.0
145.138504 100.0
145.177063 32.0
145.256226 188.0
145.29834 56.0
145.385773 52.0
145.402573 56.0
145.419373 100.0
145.488983 88.0
145.513 60.0
145.765915 108.0
145.806046 68.0
145.904938 84.0
145.931046 48.0
145.984741 36.0
146.005585 112.0
146.024826 80.0
146.057617 252.0
146.088821 488.0
146.153641 88.0
146.231354 76.0
146.23732 112.0
146.268723 176.0
146.335251 120.0
146.491791 176.0
146.508652 96.0
146.723129 48.0
146.828339 108.0
146.985977 160.0
147.056366 8812.0
147.121185 60.0
147.181549 76.0
147.221558 84.0
147.263657 40.0
147.34137 116.0
147.418274 80.0
147.575394 80.0
147.623749 88.0
147.655182 60.0
148.062149 1232.0
148.351486 140.0
148.422836 40.0
148.490738 48.0
148.512573 76.0
148.81105 48.0
148.92276 112.0
149.072067 2172.0
149.460007 76.0
149.542755 52.0
149.771622 56.0
149.986038 152.0
150.074677 124.0
151.028656 104.0
151.689774 80.0
151.768234 128.0
151.954636 128.0
152.703857 76.0
152.861298 36.0
152.981903 64.0
153.08284 108.0
153.533813 136.0
154.066971 128.0
154.766891 104.0
155.059372 380.0
156.063721 252.0
157.086914 144.0
158.110046 160.0
158.20015 100.0
158.470627 128.0
158.929474 152.0
159.054947 224.0
159.07251 88.0
161.068909 240.0
161.09967 140.0
161.17041 168.0
162.071182 176.0
169.725342 48.0
170.028854 104.0
170.075562 160.0
171.061859 156.0
171.090485 240.0
173.078827 168.0
175.050369 3716.0
176.056747 384.0
176.079453 848.0
176.689926 48.0
177.055206 288.0
177.434128 92.0
177.479187 80.0
177.768326 76.0
178.004578 72.0
180.063126 140.0
183.095047 204.0
186.74469 108.0
187.894211 124.0
190.341125 108.0
199.086105 196.0
200.117523 168.0
201.101883 180.0
201.135757 144.0
203.000198 124.0
203.772247 220.0
204.078476 1532.0
204.824814 68.0
205.076584 472.0
206.074326 176.0
206.485947 120.0
213.331314 76.0
215.087112 164.0
220.114044 112.0
226.101227 224.0
227.087097 60.0
230.884689 56.0
232.078339 384.0
232.108093 212.0
233.480667 56.0
244.105408 244.0
245.105316 104.0
255.037903 112.0
262.113892 44.0
266.530731 76.0
266.65744 100.0
270.103821 80.0
275.94104 120.0
278.087585 60.0
278.785004 20.0
280.679077 128.0
282.001068 80.0
286.679413 108.0
300.16214 44.0
329.677551 68.0
338.374634 56.0
338.872742 132.0
340.494049 96.0
373.283264 44.0
382.989624 116.0
394.83493 80.0
438.318024 72.0
451.474182 48.0
468.16922 28.0
603.405212 104.0
672.211487 220.0
707.313782 68.0
713.637329 100.0
734.065002 92.0
740.701721 156.0
759.463196 88.0
769.732361 180.0
783.570923 92.0
870.241577 108.0
875.775208 224.0
876.511597 212.0
889.961975 144.0
899.522949 152.0
903.724182 192.0
928.712524 136.0
928.858093 156.0
944.365662 208.0
948.547607 128.0
950.221741 156.0
971.369202 160.0
971.425049 132.0
971.766235 168.0
983.072083 52.0
985.201111 236.0
986.457153 156.0
990.161194 120.0
991.470581 56.0
1000.433472 148.0
1006.542725 160.0
1007.073242 128.0
1047.784912 80.0
1052.073486 80.0
1060.988037 176.0
1063.310059 120.0
1066.6875 180.0
1076.440552 76.0
1079.309082 128.0
1085.608276 64.0
1091.485229 204.0
1116.627808 216.0
1118.071411 208.0
1118.537354 104.0
1119.269653 124.0
1120.774902 128.0
1122.701416 128.0
1125.851196 180.0
1130.858521 20.0
1140.113525 156.0
1143.415527 136.0
1152.160889 128.0
1152.214966 180.0
1156.420898 216.0
1156.657837 168.0
1158.72998 60.0
1159.055176 132.0
1164.067871 96.0
1170.371094 160.0
1171.317749 212.0
1172.360107 180.0
1177.879639 128.0
1181.051147 144.0
1185.254517 216.0
1185.514893 212.0
1188.696655 32.0
1193.195435 36.0
1196.511353 132.0
1199.852661 128.0
1199.949219 176.0
1202.094238 152.0
1204.616333 168.0
1216.524658 140.0
1224.297974 188.0
1229.805542 152.0
1231.865356 192.0
1252.649902 180.0
1253.467163 160.0
1253.882935 144.0
1254.115479 60.0
1254.869751 196.0
1255.377441 252.0
1258.079712 168.0
1262.13501 112.0
1271.333008 20.0
1272.976318 140.0
1273.764648 180.0
1274.062988 80.0
1278.442749 200.0
1280.65686 80.0
1285.782959 104.0
1287.660522 176.0
1289.59668 196.0
1290.433105 176.0
1301.603149 156.0
1303.240845 164.0
1305.591309 216.0
1305.677612 68.0
1305.965332 124.0
1306.807007 184.0
1311.466064 88.0
1311.956177 160.0
1312.56189 140.0
1312.612305 44.0
1320.302856 52.0
1322.386475 176.0
1324.080566 228.0
1325.90625 176.0
1325.985962 228.0
1326.40625 128.0
1328.001465 156.0
1328.509155 184.0
1331.499634 132.0
1336.566284 184.0
1337.213867 188.0
1342.160156 140.0
1342.626831 164.0
1346.107666 156.0
1346.896484 180.0
1354.943115 188.0
1357.618408 68.0
1363.263428 176.0
1365.205322 128.0
1367.241943 124.0
1367.764404 108.0
1368.714111 120.0
1371.35144 184.0
1373.12085 216.0
1374.227295 184.0
1386.568604 168.0
1390.417603 124.0
1390.8927 216.0
1391.709229 196.0
1392.028564 216.0
1394.47998 172.0
1394.68811 124.0
1402.182861 152.0
1402.60022 116.0
1404.471802 184.0
1407.292603 212.0
1408.12146 184.0
1408.987915 200.0
1409.787354 140.0
1410.00415 248.0
1410.923462 148.0
1411.618774 176.0
1412.29187 140.0
1412.478882 132.0
1413.174561 116.0
1417.483765 192.0
1422.925171 92.0
1426.057495 248.0
1428.072388 160.0
1430.848999 156.0
1439.5802 196.0
1439.844482 208.0
1440.003174 76.0
1443.517212 180.0
1444.409546 244.0
1445.158447 164.0
1449.375854 172.0
1450.11084 40.0
1457.844116 160.0
1461.067871 160.0
1461.996094 96.0
1462.970337 160.0
1464.211426 148.0
1464.843628 172.0
1467.587158 184.0
1468.547974 184.0
1469.310791 184.0
1469.875366 160.0
1471.745361 148.0
1472.165283 96.0
1475.053223 148.0
1475.167969 188.0
1477.446777 136.0
1479.122559 64.0
1482.155273 156.0
1482.69165 168.0
1483.028931 120.0
1485.083618 164.0
1485.252441 156.0
1490.54187 208.0
1490.918335 200.0
1491.371826 224.0
1491.886841 144.0
1492.409668 212.0
1492.717163 112.0
1492.794067 48.0
1496.348755 112.0
1496.495117 184.0
1498.150879 176.0
1499.237183 136.0
1499.483887 220.0
1500.254639 44.0
1502.745605 116.0
1503.532715 180.0
