>compound MLS001032327-01!2-[(5-hydroxy-2,2-dimethyl-4-oxo-3H-chromen-7-yl)oxy]-N-[(4-methoxyphenyl)methyl]acetamide
>formula C21H23NO6
>ionization [M+H]+
>parentmass 386.16
#inchi InChI=1S/C21H23NO6/c1-21(2)10-17(24)20-16(23)8-15(9-18(20)28-21)27-12-19(25)22-11-13-4-6-14(26-3)7-5-13/h4-9,23H,10-12H2,1-3H3,(H,22,25)
#inchikey IFOWDUKXBPRLIK
#Ion_Source LC-ESI
#Instrument qTof
#Compound_Source NIH Natural Product Library
#PI Dorrestein
#Data_Collector VVP/LMS
#Scan -1
#Precursor_MZ 386.16
#ExactMass 385.153
#Charge 1
#CAS_Number N/A
#Pubmed_ID N/A
#Smiles COc1ccc(CNC(=O)COc2cc(O)c3C(=O)CC(C)(C)Oc3c2)cc1
#INCHI_AUX N/A
#Library_Class 1
#SpectrumID CCMSLIB00000080098
#IonMode Positive
#UpdateWorkflowName UPDATE-SINGLE-ANNOTATED-GOLD
#LibraryQualityString Gold
#TaskID b1d8e8f6646f4e71acdff9ca3d919d08
##Scan# 2263
#SpectrumFile p2-A04_GA4_01_17981.mzXML
#LibraryName NIH_Natural_Products_Library.mgf
#MQScore -1
#Organism NIH_Natural_Products_Library
#TIC_Query 0
#RT_Query -1
#MZErrorPPM -1
#SharedPeaks 0
#MassDiff 0
#LibMZ -1
#SpecMZ 386.16
#SpecCharge 0
#internalFilename spec-00000.mgf

>collision 10
95.056801 76.0
95.083969 212.0
95.19268 64.0
95.303406 144.0
95.350044 196.0
95.719673 172.0
95.739143 76.0
95.813164 112.0
95.912544 196.0
95.972984 232.0
96.008087 204.0
96.025635 44.0
96.320374 228.0
96.529495 124.0
96.70166 152.0
96.783882 140.0
97.058205 196.0
97.107231 164.0
97.283829 176.0
97.307388 228.0
97.501862 144.0
97.539207 144.0
97.558861 168.0
97.619171 232.0
97.71817 224.0
97.81263 176.0
98.025337 148.0
98.127838 132.0
98.180542 148.0
98.579857 120.0
98.732079 116.0
98.896294 248.0
98.947769 168.0
99.05867 44.0
99.120087 116.0
99.19342 220.0
99.306442 240.0
99.391747 108.0
99.63398 40.0
99.65583 92.0
99.695572 156.0
99.731346 180.0
99.753212 100.0
99.856613 224.0
99.876503 128.0
100.163139 160.0
100.354462 224.0
100.518021 232.0
100.655579 220.0
100.669739 80.0
100.729652 164.0
100.881531 164.0
100.935516 176.0
101.045525 132.0
101.163597 232.0
101.33989 160.0
101.480148 188.0
101.502205 148.0
101.690781 164.0
101.753014 160.0
101.861458 172.0
102.426704 100.0
102.464981 132.0
102.904663 156.0
103.049995 188.0
103.088478 180.0
103.149109 172.0
103.179436 196.0
103.410042 192.0
103.458626 252.0
103.519768 196.0
103.857826 156.0
103.943039 156.0
104.00798 148.0
104.217163 168.0
104.233414 144.0
104.272026 148.0
104.302513 172.0
104.543648 144.0
104.619858 164.0
104.670761 180.0
104.726418 208.0
105.033806 152.0
105.068214 192.0
105.148689 216.0
105.266205 80.0
105.450073 236.0
105.515488 140.0
105.771202 132.0
105.793716 88.0
105.969849 168.0
106.041641 752.0
106.072319 192.0
106.166634 104.0
106.238426 44.0
106.579247 164.0
106.647064 112.0
106.739578 176.0
106.819786 208.0
106.848587 244.0
106.895912 132.0
107.049988 336.0
107.344574 216.0
107.377991 172.0
107.394485 212.0
107.536858 72.0
107.627693 172.0
107.685516 144.0
107.733025 128.0
107.877686 160.0
108.04203 196.0
108.061745 212.0
108.239754 124.0
108.289459 188.0
108.347458 136.0
108.386826 212.0
108.604507 180.0
108.722771 116.0
108.93248 140.0
109.065468 156.0
109.498245 180.0
109.72538 168.0
109.994499 176.0
110.134399 152.0
110.220055 124.0
110.458397 104.0
110.521156 108.0
110.667679 148.0
110.751442 180.0
110.768204 104.0
110.986168 144.0
111.008293 608.0
111.043808 164.0
111.156075 204.0
111.185455 340.0
111.330307 180.0
111.447945 248.0
111.466858 180.0
111.495407 184.0
111.651855 180.0
111.721268 128.0
111.948586 256.0
112.020203 164.0
112.178246 96.0
112.243607 156.0
112.558022 104.0
112.629829 104.0
112.845383 160.0
112.991318 176.0
113.202988 176.0
113.431808 96.0
113.469971 144.0
113.687675 208.0
114.019753 220.0
114.138802 188.0
114.168571 56.0
114.8032 168.0
115.057114 208.0
115.07206 128.0
115.426758 104.0
115.635193 176.0
115.681358 136.0
115.91053 280.0
116.019844 124.0
116.077736 188.0
116.343788 172.0
116.395317 72.0
116.502708 164.0
116.739143 220.0
116.960747 248.0
117.003799 164.0
117.073128 248.0
117.096397 172.0
117.546967 176.0
117.583649 112.0
117.920578 156.0
118.104362 164.0
118.149796 208.0
118.232018 124.0
118.262314 168.0
118.364067 148.0
118.442039 152.0
118.680428 152.0
118.78019 116.0
119.086243 200.0
119.151413 144.0
119.231812 212.0
119.3405 76.0
119.577621 176.0
119.603737 256.0
119.758369 256.0
119.832405 188.0
119.945724 180.0
120.002411 112.0
120.089638 48.0
120.179077 144.0
120.373352 116.0
120.393005 168.0
120.414848 240.0
120.543739 112.0
120.589638 188.0
120.605515 212.0
120.651299 364.0
120.66951 208.0
120.707687 232.0
120.801132 144.0
120.841118 176.0
120.867844 176.0
120.901138 196.0
120.93959 204.0
120.961166 204.0
120.969315 152.0
120.974442 304.0
121.065781 79860.0
121.126144 144.0
121.184113 116.0
121.209099 68.0
121.237022 144.0
121.270828 136.0
121.292709 92.0
121.314468 44.0
121.3339 60.0
121.372017 100.0
121.398178 64.0
121.425262 820.0
121.489029 60.0
121.555435 36.0
121.59494 40.0
121.61689 56.0
121.65036 64.0
121.721794 204.0
121.755211 88.0
121.772781 84.0
121.788155 40.0
121.81012 72.0
121.867241 52.0
121.911186 92.0
121.928772 60.0
121.94635 52.0
122.004402 88.0
122.021095 132.0
122.068062 9592.0
122.126648 48.0
122.192642 92.0
122.240685 96.0
122.285065 44.0
122.324684 140.0
122.439186 48.0
122.481033 84.0
122.558136 160.0
122.574066 280.0
122.602211 76.0
122.630859 188.0
122.648094 88.0
122.654129 72.0
122.662689 128.0
122.677155 248.0
122.703606 44.0
122.741089 72.0
122.879951 88.0
122.888138 84.0
122.911644 164.0
122.944038 104.0
122.9617 156.0
123.006859 52.0
123.04248 428.0
123.072159 536.0
123.085861 244.0
123.175873 52.0
123.200172 132.0
123.297401 100.0
123.65126 56.0
123.795166 60.0
123.961311 96.0
123.99012 120.0
124.009529 100.0
124.0411 32.0
124.54702 156.0
124.747017 172.0
125.060654 160.0
126.495949 132.0
126.733345 208.0
127.040497 160.0
127.694153 156.0
127.824631 40.0
128.063278 172.0
128.491577 232.0
128.563782 60.0
128.6315 44.0
128.762466 120.0
129.264343 136.0
129.583603 36.0
129.656113 64.0
129.798935 204.0
130.057571 44.0
130.080261 164.0
130.193787 68.0
130.31192 36.0
130.705276 92.0
130.773544 72.0
131.302139 88.0
131.477798 100.0
131.804367 84.0
131.971222 80.0
132.053162 168.0
132.156494 156.0
132.479309 68.0
132.81398 72.0
132.905746 72.0
133.045761 196.0
133.061722 180.0
133.093979 32.0
133.480011 140.0
133.523712 180.0
133.654831 140.0
133.676605 148.0
134.065491 144.0
135.008652 164.0
135.079498 496.0
135.103775 168.0
135.187073 52.0
135.376892 80.0
135.495026 152.0
135.578445 36.0
135.641022 180.0
135.726807 140.0
135.801025 128.0
136.035385 144.0
136.077179 184.0
136.507034 156.0
137.007462 196.0
137.022629 140.0
137.057526 504.0
137.116989 180.0
137.305832 88.0
137.529816 72.0
137.655884 80.0
137.854446 116.0
138.02388 172.0
138.06485 76.0
138.633728 144.0
139.036865 324.0
139.281281 48.0
139.537445 116.0
140.446442 164.0
141.015472 40.0
141.244827 152.0
141.34404 172.0
142.4039 156.0
142.691437 108.0
142.78656 168.0
143.072098 132.0
143.434891 204.0
143.498566 160.0
144.002075 120.0
144.128693 192.0
144.420349 140.0
144.496902 156.0
145.357101 36.0
146.056229 200.0
146.275208 240.0
146.836624 124.0
146.880035 40.0
146.928284 120.0
146.966888 204.0
147.048935 264.0
147.140671 168.0
147.382202 60.0
147.870697 152.0
148.052109 224.0
148.663193 160.0
148.682602 128.0
148.733566 264.0
149.015274 104.0
149.05957 156.0
149.158661 120.0
149.221863 248.0
149.78891 136.0
149.893661 168.0
149.978973 80.0
150.020401 84.0
150.093552 192.0
150.264282 116.0
150.397247 116.0
150.54744 132.0
150.779526 44.0
150.948212 84.0
151.039703 1008.0
151.242004 240.0
151.596924 120.0
151.660645 112.0
151.761154 136.0
151.837173 288.0
151.937744 68.0
151.96228 168.0
152.04187 164.0
152.817322 116.0
152.868988 128.0
152.888672 124.0
152.950211 136.0
152.967438 132.0
152.985886 320.0
153.0186 26960.0
153.047318 568.0
153.081619 160.0
153.121582 192.0
153.166901 52.0
153.196808 144.0
153.233414 64.0
153.250656 112.0
153.289825 76.0
153.314728 76.0
153.504547 168.0
153.736435 40.0
153.770996 72.0
153.884552 156.0
153.911713 76.0
153.928986 84.0
153.948746 160.0
154.022766 2152.0
154.064957 88.0
154.09201 120.0
154.131546 84.0
154.255127 60.0
154.28595 68.0
154.381226 124.0
154.440582 64.0
154.457886 120.0
154.527161 68.0
154.590485 108.0
154.960449 76.0
155.020874 756.0
155.086823 96.0
155.13739 116.0
155.158722 112.0
155.215744 112.0
155.257904 136.0
155.319901 132.0
156.02269 136.0
156.099762 84.0
156.443115 72.0
156.78685 36.0
157.797821 148.0
158.09549 116.0
158.538742 140.0
159.2789 152.0
159.92009 120.0
159.940216 88.0
160.070908 212.0
160.161804 92.0
160.698776 204.0
160.792145 188.0
161.072418 120.0
162.058182 160.0
162.18071 68.0
163.037674 368.0
163.076477 592.0
163.295349 68.0
163.371658 184.0
163.552338 116.0
164.013382 192.0
164.078171 124.0
164.238571 228.0
164.309189 48.0
165.017456 1700.0
165.205902 156.0
165.392715 68.0
166.024414 304.0
166.302643 88.0
166.564545 104.0
167.0401 208.0
167.069138 308.0
167.493149 104.0
168.073227 140.0
168.148071 148.0
169.047424 172.0
169.109665 152.0
171.686844 164.0
171.785965 160.0
172.679291 76.0
172.8284 140.0
173.050964 140.0
173.713943 124.0
174.668106 120.0
175.083359 140.0
175.465439 216.0
176.046387 904.0
176.122528 68.0
176.640625 92.0
177.050552 228.0
177.464264 108.0
177.501389 84.0
177.633713 184.0
178.087906 140.0
178.478561 76.0
179.033081 448.0
179.067093 380.0
180.384811 80.0
181.067108 140.0
181.379227 100.0
182.013763 136.0
182.543137 168.0
182.962875 124.0
183.030182 124.0
183.550247 160.0
184.711578 88.0
184.814392 200.0
185.128387 144.0
187.0289 228.0
187.067017 128.0
188.266708 20.0
189.574371 112.0
189.681259 72.0
190.361679 116.0
190.996567 100.0
191.070419 5452.0
191.099442 192.0
191.22493 108.0
191.318527 40.0
191.384598 104.0
191.767532 88.0
191.792328 120.0
192.040482 164.0
192.072662 868.0
192.686447 84.0
192.821854 156.0
192.857773 56.0
192.879898 64.0
193.012939 896.0
193.054077 100.0
193.081726 132.0
193.563248 80.0
194.142426 76.0
194.497559 216.0
194.616943 112.0
194.953049 196.0
195.024078 164.0
195.523163 176.0
196.066254 180.0
196.635193 192.0
196.755219 132.0
196.799896 104.0
197.66362 104.0
199.838226 92.0
200.187271 68.0
200.528152 140.0
200.708572 164.0
201.047089 192.0
201.504532 112.0
202.962204 192.0
203.121017 20.0
205.085861 120.0
205.679169 184.0
206.974258 76.0
207.917389 104.0
208.037949 168.0
208.284912 84.0
208.325119 100.0
208.477402 136.0
208.621124 136.0
208.661362 176.0
208.698746 164.0
208.831039 104.0
208.986374 124.0
209.020905 108.0
209.08139 20432.0
209.117661 224.0
209.147858 36.0
209.173447 84.0
209.205109 136.0
209.266022 76.0
209.294357 68.0
209.41243 44.0
209.51326 64.0
209.576645 36.0
209.605453 112.0
209.662613 48.0
209.821625 60.0
210.026367 204.0
210.08461 2780.0
210.127335 160.0
210.224762 68.0
210.326462 112.0
210.44194 80.0
210.606552 68.0
210.632538 60.0
210.959076 116.0
211.084045 348.0
211.443375 112.0
211.633194 88.0
211.682419 100.0
211.760605 120.0
211.827225 56.0
211.902557 52.0
212.070633 88.0
213.243225 28.0
214.997711 96.0
218.071335 156.0
218.957306 36.0
220.754562 168.0
220.914276 152.0
221.080612 3200.0
221.239807 52.0
221.444122 48.0
221.524109 40.0
222.038361 652.0
222.080368 748.0
222.401825 96.0
222.698746 60.0
222.876999 108.0
223.04483 184.0
223.840759 88.0
224.481445 68.0
227.137329 132.0
227.332336 72.0
231.059647 160.0
233.930573 140.0
240.080124 100.0
242.079575 124.0
244.01268 76.0
248.005386 116.0
248.124512 20.0
248.937195 200.0
248.965454 196.0
249.0746 828.0
249.34874 96.0
249.505905 76.0
249.5625 52.0
249.669418 56.0
250.072128 124.0
258.661621 68.0
259.20929 132.0
260.794708 64.0
265.032043 60.0
267.92041 68.0
278.101501 252.0
279.103882 188.0
287.014069 140.0
289.551971 84.0
292.359619 108.0
294.726196 120.0
316.762726 96.0
317.159576 144.0
320.037201 112.0
325.9823 88.0
329.361725 52.0
330.096588 1084.0
330.891418 52.0
331.097351 440.0
331.438354 60.0
332.072754 76.0
332.098145 152.0
332.519012 52.0
332.892944 40.0
338.420959 72.0
340.889587 60.0
342.077576 204.0
351.820129 68.0
360.973022 44.0
374.394989 80.0
380.562744 20.0
385.263641 108.0
386.143127 148.0
386.171753 136.0
387.176361 112.0
387.282104 136.0
388.175659 52.0
396.248169 64.0
402.500793 108.0
410.808899 76.0
416.508514 80.0
421.48291 52.0
427.980225 104.0
437.690247 72.0
478.677155 48.0
481.306549 36.0
514.201599 84.0
528.182678 76.0
566.802307 44.0
578.025879 212.0
625.493103 128.0
644.94574 60.0
671.012512 144.0
707.704102 164.0
770.610718 60.0
785.332886 180.0
785.818176 152.0
798.489319 52.0
808.605225 204.0
819.587952 128.0
824.718445 188.0
852.527466 136.0
870.514404 120.0
878.937927 176.0
907.21344 128.0
956.587219 272.0
957.566223 204.0
962.586182 104.0
979.804382 168.0
980.957275 144.0
985.125793 184.0
987.282104 200.0
994.625122 184.0
997.061218 152.0
1001.856689 216.0
1008.324341 144.0
1012.246582 140.0
1015.935364 56.0
1017.775879 36.0
1028.828613 244.0
1034.082886 192.0
1034.159668 216.0
1034.383789 124.0
1036.016724 132.0
1037.95874 164.0
1041.93811 240.0
1043.165527 164.0
1043.531982 200.0
1043.872803 100.0
1049.635986 104.0
1064.343872 124.0
1065.467529 164.0
1070.352051 160.0
1074.999756 188.0
1080.082764 132.0
1080.174316 204.0
1081.293213 188.0
1083.591553 120.0
1089.285889 160.0
1090.435791 144.0
1095.871216 152.0
1097.420166 160.0
1099.630005 136.0
1103.897705 132.0
1105.559448 168.0
1105.994995 156.0
1108.080933 140.0
1114.098267 188.0
1114.789185 56.0
1115.101562 148.0
1120.931274 160.0
1121.137939 156.0
1126.05481 100.0
1128.233154 80.0
1130.005371 160.0
1131.846069 168.0
1135.873901 156.0
1142.248535 128.0
1146.018555 48.0
1146.483521 144.0
1147.110352 208.0
1147.224976 156.0
1150.064819 60.0
1158.341187 188.0
1159.65564 148.0
1163.868408 188.0
1164.547607 96.0
1165.239258 184.0
1168.619507 100.0
1173.4552 152.0
1173.959839 140.0
1177.597412 92.0
1177.79541 160.0
1180.084717 156.0
1180.966919 192.0
1181.384155 244.0
1184.300171 188.0
1185.588257 256.0
1188.578003 156.0
1190.046875 176.0
1194.771973 20.0
1196.248047 220.0
1198.121216 192.0
1198.396729 144.0
1198.803345 136.0
1200.678467 144.0
1201.175049 132.0
1203.859863 172.0
1204.426147 68.0
1204.819946 152.0
1206.374878 244.0
1211.211792 188.0
1212.057007 144.0
1218.294312 220.0
1219.36438 176.0
1219.579834 208.0
1220.0177 256.0
1220.900757 196.0
1225.0979 268.0
1225.352173 188.0
1225.655273 52.0
1226.073364 172.0
1227.390869 204.0
1228.911377 148.0
1229.002075 188.0
1229.616211 132.0
1230.131226 148.0
1232.961426 180.0
1233.206055 116.0
1233.842163 52.0
1237.39624 140.0
1238.320557 232.0
1238.824951 172.0
1239.06311 148.0
1239.560547 96.0
1239.616577 152.0
1239.981079 240.0
1240.191284 140.0
1241.435425 196.0
1242.224731 156.0
1243.740479 148.0
1247.491455 156.0
1248.236694 160.0
1248.489868 136.0
1248.806396 52.0
1249.045532 136.0
1249.763062 148.0
1250.220459 240.0
1251.381958 104.0
1254.92688 128.0
1255.264404 96.0
1256.336426 192.0
1260.318359 152.0
1261.286499 168.0
1263.31604 176.0
1266.699707 172.0
1268.081421 176.0
1268.230225 36.0
1269.251099 136.0
1269.704956 172.0
1270.861206 96.0
1271.634644 92.0
1272.763428 136.0
1273.210815 104.0
1273.480713 136.0
1273.74353 160.0
1274.283447 204.0
1274.823364 156.0
1275.619507 284.0
1277.197998 76.0
1278.777588 196.0
1279.012451 280.0
1279.674561 140.0
1281.362427 176.0
1283.315308 64.0
1283.522095 160.0
1283.735962 44.0
1284.799683 180.0
1285.242798 180.0
1285.519409 196.0
1285.60498 180.0
1289.175659 160.0
1290.776855 148.0
1291.921265 144.0
1293.31665 184.0
1294.870239 64.0
1295.300049 184.0
1296.410522 136.0
1299.565552 68.0
1299.651733 244.0
1300.139648 152.0
1302.192993 232.0
1302.530518 92.0
1302.986328 212.0
1304.406006 164.0
1306.210815 112.0
1306.879883 164.0
1309.529053 196.0
1312.00061 224.0
1312.901978 152.0
1313.666504 216.0
1314.979736 72.0
1316.79187 196.0
1318.518555 72.0
1321.599121 36.0
1323.082764 136.0
1323.531616 180.0
1324.53833 148.0
1324.973022 48.0
1325.907715 188.0
1326.125122 160.0
1326.458496 188.0
1326.531006 132.0
1326.813721 136.0
1327.466309 164.0
1327.575073 164.0
1327.633057 136.0
1328.394653 136.0
1330.020142 152.0
1330.804077 144.0
1333.087524 148.0
1334.596924 168.0
1338.12561 132.0
1339.705933 172.0
1340.901001 124.0
1343.365479 152.0
1345.956421 208.0
1346.905762 72.0
1348.177002 96.0
1348.359741 156.0
1348.827515 208.0
1349.29541 152.0
1350.384888 184.0
1351.577393 168.0
1352.097412 120.0
1353.568359 60.0
1354.146851 124.0
1356.51355 128.0
1358.266113 152.0
1359.256592 76.0
1362.266724 164.0
1362.560547 60.0
1363.949463 68.0
1364.574341 108.0
1365.317017 156.0
1365.699463 160.0
1365.934814 400.0
1367.928955 40.0
1368.296997 176.0
1368.908203 152.0
1369.54895 132.0
1370.830811 220.0
1371.855347 180.0
1374.281738 168.0
1374.879395 160.0
1375.610107 48.0
1375.713501 152.0
1377.278931 48.0
1378.054565 188.0
1378.520142 156.0
1378.571777 168.0
1381.677246 208.0
1382.609619 180.0
1383.357178 124.0
1384.223877 268.0
1384.680054 204.0
1384.941772 152.0
1385.704712 160.0
1387.060913 140.0
1387.157349 240.0
1388.306519 156.0
1388.907227 204.0
1389.522949 128.0
1391.333862 184.0
1392.714966 64.0
1396.468506 152.0
1397.242065 200.0
1398.306152 164.0
1399.28125 152.0
1403.528198 172.0
1404.773682 128.0
1406.265991 172.0
1406.370483 152.0
1406.437744 204.0
1406.691528 160.0
1406.878174 128.0
1407.158936 204.0
1409.589355 80.0
1409.895752 116.0
1410.03772 168.0
1411.525391 256.0
1412.288208 236.0
1413.372925 160.0
1414.128784 152.0
1415.31897 180.0
1415.813232 140.0
1415.888184 148.0
1416.460449 184.0
1417.296387 144.0
1417.783569 144.0
1421.855713 184.0
1421.97583 160.0
1423.049316 172.0
1424.588867 136.0
1424.904419 156.0
1425.069702 132.0
1425.550537 228.0
1425.888794 192.0
1427.572754 204.0
1428.452637 52.0
1430.273682 184.0
1430.785522 176.0
1433.376465 108.0
1433.700562 244.0
1435.110107 52.0
1435.977295 164.0
1436.573242 136.0
1437.57666 192.0
1437.969116 212.0
1438.429565 112.0
1438.995728 168.0
1439.65271 108.0
1440.16626 172.0
1441.072754 56.0
1441.140747 248.0
1442.266724 276.0
1443.317627 140.0
1444.452026 152.0
1444.663818 100.0
1445.632324 224.0
1445.836548 176.0
1446.865967 256.0
1447.055298 224.0
1447.380859 152.0
1447.645874 144.0
1447.971558 152.0
1449.024414 216.0
1451.768311 144.0
1452.633057 188.0
1453.862183 68.0
1455.699219 144.0
1455.858643 188.0
1456.000366 224.0
1456.208008 164.0
1458.350586 96.0
1460.106934 136.0
1460.768677 92.0
1460.989258 168.0
1462.054443 124.0
1462.199097 160.0
1462.708984 132.0
1463.043945 168.0
1463.196289 148.0
1463.561646 168.0
1465.823975 128.0
1466.243042 204.0
1466.608887 188.0
1466.708008 64.0
1467.599976 184.0
1467.775391 152.0
1469.255005 144.0
1470.598022 164.0
1472.025635 136.0
1472.407471 220.0
1473.224731 144.0
1473.324097 192.0
1473.461548 164.0
1473.897095 72.0
1474.554321 232.0
1474.730103 228.0
1475.43335 112.0
1475.723877 120.0
1476.236084 180.0
1477.238037 172.0
1477.391113 144.0
1477.972534 148.0
1479.074585 144.0
1479.128174 188.0
1480.230591 84.0
1480.636475 176.0
1480.935181 188.0
1481.708862 136.0
1482.904297 232.0
1483.969727 180.0
1484.189453 164.0
1485.603271 136.0
1487.468018 96.0
1487.592407 180.0
1487.90564 148.0
1488.020752 108.0
1488.473755 184.0
1489.25708 164.0
1490.30957 252.0
1492.307861 124.0
1492.623169 180.0
1493.092163 188.0
1493.169067 180.0
1493.692139 156.0
1494.161377 180.0
1494.484497 192.0
1495.815918 140.0
1496.100708 208.0
1496.231689 112.0
1497.340454 232.0
1500.337891 104.0
1501.44812 156.0
1502.296631 192.0
1503.322754 228.0
1503.670044 152.0
