>compound MLS000563224-01!
>formula C30H46O5
>ionization [M+Na]+
>parentmass 509.322479
#inchi InChI=1S/C30H46O5/c1-25(2)19-9-12-28(5)20(27(19,4)11-10-21(25)32)8-7-17-18-13-26(3,16-31)22(33)14-30(18)15-23(29(17,28)6)35-24(30)34/h7,18-23,31-33H,8-16H2,1-6H3/t18-,19?,20?,21-,22-,23+,26-,27-,28+,29-,30-/m0/s1
#inchikey MINFCKXAWKNBAP
#Ion_Source LC-ESI
#Instrument qTof
#Compound_Source NIH Natural Product Library
#PI Dorrestein
#Data_Collector VVP/LMS
#Scan -1
#Precursor_MZ 509.324
#ExactMass 486.335
#Charge 1
#CAS_Number N/A
#Pubmed_ID N/A
#Smiles CC1(C)[C@@H](O)CC[C@@]2(C)C1CC[C@]3(C)C2CC=C4[C@@H]5C[C@@](C)(CO)[C@@H](O)C[C@@]65C[C@@H](OC6=O)[C@]43C
#INCHI_AUX N/A
#Library_Class 3
#SpectrumID CCMSLIB00000079740
#IonMode Positive
#UpdateWorkflowName UPDATE-SINGLE-ANNOTATED-BRONZE
#LibraryQualityString Bronze
#TaskID b1d8e8f6646f4e71acdff9ca3d919d08
##Scan# 2139
#SpectrumFile p1-D10_GD10_01_17918.mzXML
#LibraryName NIH_Natural_Products_Library.mgf
#MQScore -1
#Organism NIH_Natural_Products_Library
#TIC_Query 0
#RT_Query -1
#MZErrorPPM -1
#SharedPeaks 0
#MassDiff 0
#LibMZ -1
#SpecMZ 509.324
#SpecCharge 0
#internalFilename spec-00000.mgf

>collision 10
120.636322 104.0
132.076782 116.0
142.069183 180.0
146.612198 100.0
146.932892 204.0
159.446518 128.0
171.182678 244.0
175.068802 188.0
183.996384 204.0
184.028778 148.0
188.48877 168.0
189.777954 120.0
192.005295 128.0
192.156998 160.0
193.15979 168.0
199.357773 92.0
206.119125 188.0
211.103607 84.0
211.966217 224.0
212.981613 172.0
213.612366 96.0
214.780411 96.0
219.145493 104.0
220.603378 60.0
221.461472 52.0
221.529602 112.0
222.235184 44.0
223.158875 152.0
227.496765 208.0
229.186966 108.0
231.700668 128.0
246.926926 180.0
252.442978 84.0
254.439102 124.0
262.382935 116.0
264.026428 116.0
265.089325 332.0
273.238098 60.0
275.067047 132.0
275.17926 116.0
278.743195 100.0
286.296722 156.0
293.098755 128.0
295.62561 176.0
304.31543 152.0
304.568939 88.0
312.796631 264.0
316.793945 120.0
319.395844 68.0
323.950592 40.0
334.957489 152.0
335.278107 172.0
336.730103 184.0
337.113708 128.0
338.101074 116.0
339.526154 140.0
340.895416 164.0
347.824005 168.0
358.27594 76.0
362.186096 160.0
363.004211 164.0
366.135529 164.0
373.191711 76.0
373.937958 88.0
377.193298 152.0
379.225342 36.0
379.488953 156.0
387.008667 168.0
392.442535 112.0
397.803131 132.0
402.037964 156.0
405.681671 140.0
409.764709 120.0
410.518463 152.0
410.780609 180.0
415.769348 112.0
418.794159 168.0
420.233124 160.0
422.148804 108.0
425.36496 120.0
428.675751 96.0
431.197205 108.0
431.713959 164.0
431.858704 72.0
438.618378 208.0
443.613556 136.0
445.989349 212.0
447.325348 356.0
447.693237 52.0
447.865906 64.0
451.347534 72.0
452.295166 168.0
453.112427 112.0
457.695221 72.0
457.810181 120.0
460.543915 180.0
460.997803 84.0
463.474304 232.0
463.907166 152.0
465.329865 1064.0
465.434509 132.0
466.176697 200.0
466.335724 536.0
466.487061 112.0
467.189819 148.0
467.336639 88.0
467.962646 132.0
470.743774 132.0
473.450836 72.0
474.724884 112.0
474.755249 56.0
475.731476 36.0
480.370239 136.0
481.269257 216.0
481.775879 108.0
483.341064 160.0
485.838379 84.0
487.234406 52.0
487.533173 36.0
490.102966 128.0
491.291351 152.0
491.317535 164.0
492.145111 52.0
492.306854 152.0
493.289337 104.0
501.15979 108.0
501.870941 96.0
502.370422 28.0
502.963898 116.0
503.566681 88.0
505.126587 100.0
507.195282 60.0
507.733276 88.0
508.033783 120.0
508.608154 96.0
508.662018 128.0
508.832611 136.0
509.052612 256.0
509.169373 72.0
509.245728 128.0
509.322479 9632.0
509.547089 88.0
509.69046 116.0
509.757507 48.0
509.889038 64.0
509.924133 56.0
510.032013 144.0
510.126984 92.0
510.325287 3416.0
510.432129 32.0
510.630005 92.0
510.661469 48.0
510.809906 64.0
510.863892 68.0
511.04364 96.0
511.160828 100.0
511.201324 96.0
511.326782 512.0
511.453339 72.0
511.817993 48.0
511.912567 44.0
512.077454 104.0
512.259338 76.0
512.332886 160.0
512.376465 212.0
512.646851 132.0
513.102051 200.0
513.138123 88.0
513.494385 72.0
513.697327 28.0
513.918396 120.0
514.301941 64.0
514.548706 168.0
517.588562 80.0
526.305054 196.0
527.326538 176.0
527.684875 108.0
528.787231 76.0
530.20697 120.0
530.43158 72.0
531.270691 68.0
535.467285 80.0
537.920227 104.0
550.34259 144.0
551.217102 112.0
633.224976 60.0
645.509155 112.0
656.268616 48.0
659.0401 144.0
691.130127 108.0
697.480896 76.0
699.590271 60.0
731.23584 28.0
743.395325 100.0
834.093201 60.0
848.420715 52.0
858.152893 44.0
884.400452 96.0
942.322998 120.0
979.810242 100.0
1036.944214 112.0
1077.393555 52.0
1112.481201 52.0
1287.432495 84.0
