>compound MLS002154093-01!Azapropazone13539-59-8
>formula C16H20N4O2
>ionization [M+H]+
>parentmass 301.166595
#inchi InChI=1S/C16H20N4O2/c1-5-6-11-14(21)19-13-9-10(2)7-8-12(13)17-16(18(3)4)20(19)15(11)22/h7-9,11H,5-6H2,1-4H3
#inchikey MPHPHYZQRGLTBO
#Ion_Source LC-ESI
#Instrument qTof
#Compound_Source NIH Pharmacologically Active Library
#PI Dorrestein
#Data_Collector VP/LMS
#Scan -1
#Precursor_MZ 301.17
#ExactMass 300.159
#Charge 1
#CAS_Number N/A
#Pubmed_ID N/A
#Smiles CCCC1C(=O)N2N(C1=O)c3cc(C)ccc3N=C2N(C)C
#INCHI_AUX N/A
#Library_Class 1
#SpectrumID CCMSLIB00000086152
#IonMode Positive
#UpdateWorkflowName UPDATE-SINGLE-ANNOTATED-GOLD
#LibraryQualityString Gold
#TaskID d252d724072548979f1f6f1ced849daf
##Scan# 1449
#SpectrumFile p5-G03_GG3_01_18472.mzXML
#LibraryName Pharm_Active_Library.mgf
#MQScore -1
#Organism Pharm_Active_Library
#TIC_Query 0
#RT_Query -1
#MZErrorPPM -1
#SharedPeaks 0
#MassDiff 0
#LibMZ -1
#SpecMZ 301.17
#SpecCharge 0
#internalFilename spec-00000.mgf

>collision 10
44.998653 112.0
45.157673 156.0
45.244652 184.0
45.448372 196.0
45.47924 148.0
45.523544 72.0
45.586681 164.0
45.725201 140.0
45.737312 136.0
45.770969 172.0
45.884148 196.0
45.923252 148.0
46.221813 136.0
46.320648 116.0
46.353161 120.0
46.434502 96.0
46.500984 176.0
46.646992 164.0
46.780991 100.0
46.884506 168.0
46.929489 108.0
46.990868 168.0
47.139698 136.0
47.352886 144.0
47.405174 192.0
47.649414 176.0
47.689262 140.0
47.930096 48.0
48.018322 224.0
48.157722 144.0
48.427433 140.0
48.57436 184.0
48.62431 84.0
48.640965 176.0
48.729622 176.0
48.794895 184.0
48.916199 204.0
49.035984 200.0
49.181038 160.0
49.24387 160.0
49.46759 124.0
49.652546 144.0
49.88422 128.0
49.933434 184.0
50.092484 72.0
50.24897 40.0
50.323956 216.0
50.356251 156.0
50.377567 220.0
50.518803 212.0
50.648117 136.0
50.673119 128.0
50.688705 148.0
50.705711 152.0
50.718464 196.0
50.786526 132.0
50.847534 88.0
51.374008 176.0
51.676888 132.0
51.894592 176.0
51.995003 220.0
52.025146 192.0
52.3634 184.0
52.521599 148.0
52.576427 172.0
52.626949 140.0
52.674606 196.0
52.739632 120.0
52.837963 52.0
53.092899 64.0
53.197365 212.0
53.259808 116.0
53.272881 212.0
53.447346 172.0
53.598778 148.0
53.789833 116.0
53.924923 144.0
54.009014 56.0
54.278484 164.0
54.332752 176.0
54.434029 152.0
54.657459 148.0
54.742836 100.0
54.821075 108.0
55.021511 228.0
55.188465 244.0
55.321617 112.0
55.397141 220.0
55.561695 124.0
55.585434 228.0
55.60918 40.0
55.903442 176.0
55.915348 184.0
56.13583 172.0
56.304462 172.0
56.377666 180.0
56.424004 112.0
56.450077 164.0
56.62751 196.0
56.823883 192.0
56.918076 180.0
56.986034 160.0
57.140896 172.0
57.205605 152.0
57.326099 196.0
57.351719 188.0
57.384884 212.0
57.549343 180.0
57.694382 156.0
57.715549 212.0
57.727646 220.0
58.006229 192.0
58.035034 168.0
58.11087 80.0
58.201939 212.0
58.334114 160.0
58.413189 168.0
58.458832 192.0
58.512104 124.0
58.798676 140.0
58.884174 188.0
59.017204 220.0
59.387722 212.0
59.621086 124.0
59.659515 92.0
59.747173 176.0
60.237396 160.0
60.475521 184.0
60.693954 168.0
60.754444 144.0
60.852215 184.0
60.922104 172.0
61.166245 144.0
61.618492 176.0
61.77639 168.0
61.81081 68.0
61.926388 164.0
61.956417 208.0
62.152401 48.0
62.213612 172.0
62.320408 152.0
62.452461 188.0
62.630322 324.0
62.805283 124.0
62.824211 120.0
63.0481 156.0
63.190735 128.0
63.401337 160.0
63.648804 140.0
63.77113 200.0
63.831539 148.0
63.914253 180.0
63.93494 176.0
64.038429 164.0
64.113304 164.0
64.178665 144.0
64.194962 164.0
64.277557 124.0
64.882149 132.0
65.063545 168.0
65.118027 112.0
65.27713 204.0
65.512115 232.0
65.529839 160.0
65.566902 180.0
65.662018 180.0
65.782463 236.0
65.957489 100.0
65.981743 92.0
66.122467 108.0
66.248764 200.0
66.443306 68.0
66.54393 204.0
66.555298 144.0
66.657959 196.0
66.717766 112.0
66.789314 216.0
66.974876 128.0
67.046562 160.0
67.212898 180.0
67.227585 128.0
67.302673 100.0
67.624718 148.0
68.013176 104.0
68.062431 164.0
68.12854 188.0
68.154411 220.0
68.262901 160.0
68.356667 60.0
68.4011 128.0
68.549332 120.0
68.567459 168.0
68.582291 204.0
68.689468 36.0
68.844612 220.0
69.06443 164.0
69.234901 160.0
69.264709 160.0
69.316795 128.0
69.383568 172.0
69.475243 192.0
69.672798 40.0
69.687752 84.0
69.734276 48.0
69.837364 144.0
69.853996 180.0
70.132072 192.0
70.175415 176.0
70.322212 84.0
70.3339 152.0
70.440765 140.0
70.480492 216.0
70.733398 132.0
70.8657 84.0
70.909271 256.0
71.253265 156.0
71.285187 108.0
71.387733 228.0
71.399506 52.0
71.505493 208.0
71.625038 196.0
71.645248 216.0
71.785149 212.0
71.834061 140.0
72.121117 188.0
72.264862 184.0
72.698647 192.0
72.73259 136.0
72.744469 172.0
72.92112 136.0
73.050346 52.0
73.189903 140.0
73.234184 36.0
73.350052 88.0
73.363686 160.0
73.498421 140.0
73.634995 172.0
73.651932 96.0
73.817848 176.0
73.961563 160.0
74.081429 232.0
74.098564 60.0
74.386673 136.0
74.510315 140.0
74.572174 104.0
74.744148 140.0
74.795776 164.0
75.043854 168.0
75.055923 68.0
75.185303 192.0
75.477242 132.0
75.629486 224.0
75.651985 100.0
75.710854 172.0
76.09407 168.0
76.352982 192.0
76.525253 164.0
76.596649 128.0
77.172562 232.0
77.200539 144.0
77.286255 240.0
77.373764 168.0
77.4841 196.0
77.619057 128.0
77.738342 120.0
77.803444 216.0
77.954338 180.0
78.015854 56.0
78.211113 116.0
78.734344 156.0
78.917145 204.0
79.003426 184.0
79.067123 168.0
79.16803 204.0
79.230026 172.0
79.355858 60.0
79.519638 184.0
79.545685 192.0
79.650642 188.0
79.771286 48.0
79.89399 184.0
80.056976 204.0
80.098701 196.0
80.617897 152.0
80.719788 128.0
80.870071 112.0
81.081406 224.0
81.230225 176.0
81.562424 136.0
81.706284 244.0
81.762062 184.0
82.281197 164.0
82.441956 128.0
82.733162 116.0
82.883484 160.0
83.13736 168.0
83.277153 124.0
83.43161 180.0
83.569832 184.0
83.689957 176.0
83.93412 176.0
84.076408 160.0
84.193253 184.0
84.207863 176.0
84.224297 148.0
84.740181 120.0
84.849411 264.0
85.042755 228.0
85.128502 228.0
85.369781 224.0
85.487511 232.0
85.499619 212.0
85.518799 148.0
85.638481 236.0
85.9076 144.0
85.970337 52.0
86.214104 144.0
86.30838 160.0
86.332413 168.0
86.500786 140.0
86.693405 136.0
86.778671 120.0
87.017517 136.0
87.066292 148.0
87.084862 112.0
87.227936 148.0
87.436256 180.0
87.518158 152.0
87.552475 216.0
87.601967 184.0
87.620598 144.0
87.717506 152.0
87.825653 148.0
87.890945 192.0
88.012276 224.0
88.124344 160.0
88.19162 44.0
88.363663 136.0
88.432899 128.0
88.507782 168.0
88.547104 156.0
88.630844 160.0
88.710121 32.0
88.736366 252.0
88.803871 140.0
89.03952 384.0
89.367439 172.0
89.388138 236.0
89.546272 92.0
89.808258 108.0
89.872398 180.0
90.255836 176.0
90.293655 140.0
90.314461 152.0
90.357971 128.0
90.51886 224.0
90.759506 200.0
90.782257 40.0
90.905563 140.0
91.057838 152.0
91.213242 156.0
91.439583 160.0
91.481461 120.0
91.502403 184.0
91.544289 184.0
91.614761 164.0
91.738632 172.0
91.885475 132.0
92.053444 184.0
92.075348 128.0
92.124115 152.0
92.164238 184.0
92.177612 36.0
92.229179 212.0
92.248329 28.0
92.261711 148.0
92.334373 96.0
92.372627 368.0
92.602318 100.0
92.715347 136.0
92.757515 84.0
92.801613 196.0
92.889832 160.0
93.054558 196.0
93.125923 152.0
93.156654 60.0
93.587456 232.0
93.618263 160.0
93.849503 220.0
94.042412 172.0
94.064896 360.0
94.117699 148.0
94.284821 152.0
94.324417 128.0
94.632019 136.0
94.67849 160.0
94.959511 228.0
94.986664 128.0
95.077858 216.0
95.229294 104.0
95.264252 152.0
95.328369 180.0
95.345863 228.0
95.573593 184.0
95.668747 176.0
95.731049 156.0
95.76416 92.0
95.803406 136.0
95.882271 160.0
96.06044 80.0
96.202888 156.0
96.245842 68.0
96.355217 164.0
96.453506 216.0
96.492027 156.0
96.613281 192.0
96.67981 168.0
96.756142 188.0
96.87365 68.0
96.914787 148.0
97.099052 76.0
97.33847 128.0
97.635208 144.0
97.72963 144.0
97.948151 200.0
98.005287 188.0
98.129456 92.0
98.565666 136.0
98.61705 232.0
98.87812 172.0
98.973137 40.0
99.040474 128.0
99.118988 192.0
99.138809 208.0
99.200974 124.0
99.248558 160.0
99.323921 224.0
99.518402 196.0
99.572021 200.0
99.661415 52.0
99.715065 228.0
99.730965 176.0
99.77636 144.0
99.943756 216.0
99.957687 140.0
99.98555 40.0
100.108978 180.0
100.166733 48.0
100.208572 56.0
100.45179 44.0
100.569511 200.0
100.703285 188.0
100.735245 148.0
100.835152 148.0
100.909119 92.0
101.031113 200.0
101.191216 232.0
101.327408 172.0
101.602074 148.0
101.620125 128.0
101.64621 144.0
101.678322 160.0
101.702408 152.0
102.051285 144.0
102.204819 188.0
102.377937 168.0
102.734695 180.0
102.758904 176.0
103.04303 176.0
103.057724 156.0
103.518913 76.0
103.71138 248.0
103.869347 212.0
103.983162 200.0
104.047417 360.0
104.090752 212.0
104.107002 56.0
104.171997 68.0
104.218719 60.0
104.316277 196.0
104.491173 164.0
104.676392 188.0
104.808792 72.0
104.866051 164.0
105.0485 580.0
105.073853 264.0
105.179962 68.0
105.239166 116.0
105.253464 228.0
105.562019 160.0
105.662239 88.0
105.77684 140.0
105.803452 264.0
105.920181 132.0
105.993935 76.0
106.045166 176.0
106.06517 784.0
106.104614 64.0
106.213303 156.0
106.24202 52.0
106.402092 148.0
106.457535 212.0
106.562294 204.0
106.590294 236.0
106.65477 200.0
106.675323 148.0
106.85218 228.0
106.981834 148.0
107.011162 196.0
107.039482 196.0
107.071655 152.0
107.352707 140.0
107.466156 176.0
107.542511 192.0
107.672585 160.0
107.742813 144.0
107.858536 168.0
107.91642 248.0
107.932961 192.0
107.978462 180.0
108.046722 136.0
108.371773 156.0
108.531372 172.0
108.618469 92.0
109.03373 176.0
109.060745 196.0
109.177177 156.0
109.476845 152.0
109.518501 200.0
109.837418 180.0
109.858276 92.0
110.374016 128.0
110.413879 112.0
110.790649 192.0
110.843025 184.0
110.884941 112.0
110.918472 180.0
111.025406 116.0
111.041351 332.0
111.14917 152.0
111.3339 132.0
111.468346 236.0
111.495667 76.0
111.659653 164.0
111.846909 224.0
111.895325 156.0
111.95639 88.0
112.025894 208.0
112.274612 144.0
112.333672 136.0
112.352654 120.0
112.380081 132.0
112.60807 124.0
112.686226 64.0
112.722153 76.0
112.798233 168.0
112.825714 244.0
112.870117 156.0
112.988564 168.0
113.058647 160.0
113.07914 104.0
113.174812 144.0
113.49688 244.0
113.530807 40.0
113.562622 52.0
113.709015 168.0
113.728119 40.0
113.931969 180.0
114.031845 160.0
114.093483 192.0
114.129631 76.0
114.546761 104.0
114.668213 212.0
114.934776 180.0
115.099136 60.0
115.210197 224.0
115.321312 148.0
115.539421 160.0
115.695648 124.0
115.78344 60.0
115.854126 132.0
115.961266 232.0
116.049171 1164.0
116.186417 56.0
116.310883 104.0
116.423019 192.0
116.457794 236.0
116.477272 196.0
116.557854 112.0
116.798645 168.0
116.977242 176.0
117.055237 624.0
117.085144 248.0
117.192604 136.0
117.313301 128.0
117.375824 152.0
117.785873 184.0
117.950096 200.0
118.064308 1100.0
118.125252 68.0
118.302696 144.0
118.499779 236.0
118.549614 204.0
118.599464 160.0
118.896599 132.0
119.065361 644.0
119.274513 52.0
119.348434 140.0
119.418022 144.0
119.485451 72.0
119.639969 116.0
119.772804 160.0
120.043037 1088.0
120.071632 232.0
120.248123 152.0
120.280869 56.0
120.392212 180.0
120.512352 40.0
120.794373 212.0
120.849068 164.0
120.87751 188.0
120.909607 96.0
121.048965 152.0
121.076508 1016.0
121.105194 128.0
121.234459 176.0
121.629242 180.0
121.679733 152.0
122.042259 180.0
122.05735 148.0
122.078354 476.0
122.134621 144.0
122.198418 116.0
122.625618 120.0
122.654274 104.0
122.819649 96.0
122.8395 148.0
123.223633 200.0
123.245728 128.0
123.54641 120.0
123.705742 188.0
123.869606 188.0
123.971527 200.0
124.062401 76.0
124.086174 232.0
124.290581 144.0
124.501732 148.0
124.808388 104.0
124.868431 184.0
125.057549 60.0
125.233444 48.0
125.264626 156.0
125.384941 140.0
125.442894 112.0
125.855629 116.0
126.061134 64.0
126.208664 248.0
126.526375 80.0
126.555481 236.0
126.665215 140.0
126.694336 196.0
126.777237 128.0
127.026115 168.0
127.04924 168.0
127.057915 204.0
127.162987 112.0
127.655212 116.0
127.699959 140.0
127.821442 204.0
127.843948 96.0
127.909218 176.0
128.231308 180.0
128.452271 180.0
128.556061 164.0
128.701141 256.0
128.829269 196.0
128.915115 140.0
129.021149 172.0
129.044128 160.0
129.229431 192.0
129.745804 160.0
130.05632 372.0
130.179184 80.0
130.345001 40.0
130.426819 36.0
130.460922 156.0
130.749786 216.0
130.982025 276.0
131.059845 964.0
131.538422 164.0
131.64801 72.0
131.780487 168.0
132.041824 152.0
132.066193 1672.0
132.581375 164.0
132.748734 184.0
132.842758 156.0
132.975845 160.0
133.03093 160.0
133.075638 5048.0
133.169266 148.0
133.398483 112.0
133.90239 80.0
133.994537 172.0
134.046036 556.0
134.079758 624.0
134.208878 152.0
134.291901 116.0
134.372635 52.0
134.441864 60.0
134.993973 264.0
135.012482 128.0
135.047165 344.0
135.102325 176.0
135.125824 96.0
135.172104 132.0
135.385071 184.0
135.498566 164.0
136.4664 168.0
136.529175 176.0
136.594299 176.0
136.675919 148.0
136.843307 140.0
137.237076 136.0
137.376999 180.0
137.584702 200.0
137.608047 144.0
137.65007 52.0
137.706131 172.0
137.734146 156.0
137.801895 152.0
137.822922 220.0
137.854645 212.0
138.463898 184.0
138.508392 156.0
138.623199 160.0
138.667725 176.0
138.686478 36.0
138.702881 152.0
138.747421 160.0
139.045319 120.0
139.171204 256.0
139.188522 64.0
139.524506 164.0
139.700882 180.0
139.818527 188.0
140.157639 200.0
140.681213 124.0
140.740234 108.0
140.832336 188.0
140.922104 128.0
141.068375 144.0
141.09227 176.0
141.62233 216.0
141.653137 52.0
141.856918 60.0
142.063232 108.0
142.6474 140.0
142.944702 124.0
143.070602 188.0
143.24231 120.0
143.261368 104.0
143.325699 120.0
143.354294 60.0
143.657455 208.0
143.960205 164.0
144.019913 184.0
144.054352 1120.0
144.078461 316.0
144.120255 128.0
144.189545 156.0
144.304291 192.0
144.323425 148.0
144.404724 180.0
144.469315 204.0
144.548264 192.0
144.574585 60.0
144.746948 128.0
144.766098 172.0
144.905029 148.0
144.996094 56.0
145.040359 460.0
145.076263 16964.0
145.160843 116.0
145.219055 36.0
145.245438 60.0
145.324615 100.0
145.352997 192.0
145.39328 104.0
145.4254 72.0
145.477493 68.0
145.545898 208.0
145.67244 248.0
145.740585 160.0
145.937088 228.0
145.956314 264.0
146.00441 272.0
146.02124 140.0
146.038086 440.0
146.082047 17592.0
146.139114 172.0
146.218796 72.0
146.224487 76.0
146.293152 112.0
146.320938 100.0
146.358154 60.0
146.38945 96.0
146.450653 204.0
146.533981 44.0
146.647232 48.0
146.714722 116.0
146.748474 60.0
146.779831 144.0
146.859406 68.0
147.054535 3792.0
147.084045 3104.0
147.201736 52.0
147.233505 64.0
147.472687 92.0
147.53653 136.0
147.641922 112.0
147.716095 168.0
147.787064 184.0
147.849976 204.0
147.876602 32.0
148.01944 100.0
148.061249 452.0
148.086487 712.0
148.155075 132.0
148.172028 60.0
148.193832 108.0
148.306961 76.0
148.390152 136.0
148.460464 56.0
148.637558 76.0
148.754044 176.0
148.771042 220.0
149.070084 2200.0
149.098953 132.0
149.11441 84.0
149.259399 80.0
149.65686 204.0
150.048264 52.0
150.07254 264.0
150.109222 180.0
150.170197 88.0
150.409317 56.0
150.719467 128.0
150.775681 48.0
150.976151 232.0
151.078873 156.0
151.159607 76.0
151.360336 196.0
151.502396 164.0
151.703339 132.0
151.938766 160.0
152.012375 100.0
152.049194 168.0
152.066376 116.0
152.72731 176.0
153.959625 80.0
154.036194 104.0
154.456406 72.0
154.582581 116.0
154.679108 188.0
154.736038 160.0
154.770706 164.0
154.976288 76.0
155.030807 220.0
155.244003 148.0
155.375458 108.0
155.675797 96.0
155.799988 176.0
156.055969 184.0
156.322128 200.0
156.683167 76.0
157.06868 332.0
157.124435 168.0
157.334076 40.0
157.551346 152.0
157.656281 84.0
157.890625 76.0
158.041382 76.0
158.072098 444.0
158.359299 156.0
158.457001 128.0
158.93338 172.0
159.028748 64.0
159.078262 164.0
159.10405 148.0
159.272293 168.0
159.531113 96.0
159.646774 176.0
159.837952 64.0
159.886322 184.0
160.086899 6168.0
160.127975 188.0
160.215622 28.0
160.235779 60.0
160.447479 108.0
160.554337 180.0
161.070404 864.0
161.095779 1784.0
161.189529 60.0
161.288101 44.0
161.310852 48.0
161.394272 52.0
161.783905 176.0
161.844666 140.0
162.074493 272.0
162.107086 496.0
162.148651 56.0
162.272858 68.0
162.300751 164.0
162.374298 164.0
162.399658 84.0
162.440247 56.0
162.663544 100.0
162.77272 60.0
162.810806 128.0
162.899704 72.0
162.947357 148.0
163.055374 164.0
163.497208 92.0
163.784912 232.0
163.978561 64.0
164.108566 48.0
164.396805 64.0
164.705734 152.0
164.779816 192.0
165.068649 104.0
165.442947 136.0
165.447754 164.0
166.223923 236.0
166.349686 220.0
166.42157 112.0
166.64502 256.0
167.035782 136.0
167.065598 156.0
167.506851 196.0
167.524887 200.0
167.60733 116.0
167.905441 164.0
168.040497 264.0
168.075897 500.0
168.130814 160.0
168.262451 144.0
168.314102 152.0
168.743011 92.0
168.805054 112.0
169.079208 300.0
169.257904 144.0
169.441788 228.0
169.672455 200.0
169.770981 132.0
169.796921 104.0
169.879913 180.0
169.92662 164.0
169.968124 140.0
170.076996 372.0
170.588852 108.0
170.744858 204.0
170.997223 196.0
171.057175 180.0
171.086227 368.0
171.119568 44.0
171.239349 108.0
171.456482 164.0
171.810211 108.0
172.047699 144.0
172.092697 364.0
172.235718 52.0
173.074387 484.0
173.11116 240.0
173.253296 140.0
173.321411 112.0
173.609772 172.0
173.900986 136.0
174.099442 964.0
174.318558 196.0
174.355988 164.0
174.386887 132.0
174.525925 228.0
174.718201 144.0
174.742905 164.0
174.823456 204.0
174.870819 192.0
174.907669 168.0
174.967606 256.0
175.023514 80.0
175.051422 596.0
175.098434 12848.0
175.154633 168.0
175.233276 100.0
175.29483 136.0
175.338058 176.0
175.368622 56.0
175.402878 32.0
175.492523 44.0
175.545258 52.0
175.566345 48.0
175.59436 84.0
175.66922 32.0
175.708786 28.0
175.729889 52.0
175.761551 104.0
175.911987 64.0
175.938385 48.0
176.059845 200.0
176.103348 1912.0
176.157578 80.0
176.252686 148.0
176.413086 64.0
176.477356 76.0
176.741562 72.0
176.781555 112.0
176.89801 108.0
177.023773 144.0
177.059525 96.0
177.117798 536.0
177.20256 184.0
177.250259 128.0
177.425186 132.0
177.470261 120.0
177.495667 116.0
177.868195 56.0
177.905365 56.0
177.93457 40.0
178.083801 160.0
178.564331 120.0
178.66275 44.0
178.782486 220.0
178.838379 160.0
179.429749 268.0
179.456116 176.0
179.847336 260.0
179.967178 352.0
180.23848 84.0
180.569962 44.0
180.896393 60.0
181.035629 172.0
181.341034 64.0
181.392761 200.0
181.716461 112.0
181.905197 176.0
182.113754 84.0
182.226578 128.0
183.046967 184.0
183.088654 168.0
184.077042 148.0
184.10054 320.0
184.38501 184.0
185.055878 132.0
185.087738 256.0
185.105255 216.0
185.972137 76.0
186.05629 208.0
186.092361 208.0
186.144089 444.0
186.667633 156.0
187.076767 148.0
187.096771 1152.0
187.14653 84.0
187.606964 200.0
187.732391 96.0
187.7733 184.0
187.808746 56.0
187.942429 144.0
187.991547 128.0
188.0625 216.0
188.086823 320.0
188.101089 300.0
188.458481 168.0
188.543182 112.0
188.674194 108.0
188.705536 244.0
188.759949 68.0
188.782471 96.0
188.819305 92.0
188.837952 88.0
188.895889 224.0
188.963226 176.0
188.999863 148.0
189.031555 124.0
189.075485 292.0
189.113922 73244.0
189.193817 60.0
189.230957 148.0
189.25441 108.0
189.295486 72.0
189.321259 68.0
189.352997 56.0
189.38327 156.0
189.421478 76.0
189.439621 60.0
189.458191 148.0
189.505539 64.0
189.533371 52.0
189.565414 28.0
189.644516 112.0
189.692749 60.0
189.726837 92.0
189.758545 84.0
189.801208 72.0
189.844406 188.0
189.887436 164.0
189.911469 308.0
189.945663 52.0
189.977951 152.0
190.000809 80.0
190.054626 108.0
190.119492 19016.0
190.167877 128.0
190.204346 104.0
190.255203 72.0
190.28746 112.0
190.308655 88.0
190.332001 112.0
190.35672 108.0
190.386917 36.0
190.408203 64.0
190.434982 48.0
190.472061 44.0
190.499954 52.0
190.520874 124.0
190.585205 44.0
190.636093 160.0
190.65889 48.0
190.77536 68.0
190.815567 100.0
190.947571 32.0
191.005325 68.0
191.064529 108.0
191.089813 156.0
191.123428 1660.0
191.17041 96.0
191.200668 48.0
191.250214 116.0
191.303085 96.0
191.392242 104.0
191.437424 176.0
191.455704 104.0
191.503525 112.0
191.539337 76.0
191.594955 124.0
191.626129 112.0
191.648239 100.0
191.67157 56.0
191.751495 40.0
191.914139 56.0
191.972992 92.0
192.078369 44.0
192.126877 200.0
192.206512 68.0
192.350525 156.0
192.527969 80.0
192.55159 52.0
192.606827 88.0
192.744965 44.0
192.786407 52.0
193.228821 88.0
193.31459 124.0
193.519424 48.0
193.813034 80.0
194.789597 112.0
195.089783 136.0
195.17868 60.0
195.821518 84.0
196.078751 200.0
197.085236 164.0
198.082764 500.0
198.53244 36.0
198.681107 124.0
198.748444 132.0
199.082474 276.0
199.456146 76.0
199.920227 36.0
200.048569 160.0
200.054245 156.0
200.117294 180.0
200.353836 124.0
200.421448 40.0
200.661026 108.0
201.069489 272.0
201.106812 140.0
201.161591 204.0
201.262009 28.0
201.298706 100.0
201.456879 60.0
202.056213 48.0
202.091049 180.0
202.121292 108.0
203.087799 316.0
203.116989 972.0
203.234848 64.0
203.325653 64.0
204.115387 120.0
204.957947 152.0
205.325684 100.0
205.602417 132.0
205.762268 40.0
206.010727 80.0
209.245682 112.0
210.067017 212.0
210.100372 172.0
211.079071 248.0
211.118347 172.0
212.079544 216.0
212.099838 92.0
212.122025 216.0
212.212906 68.0
212.256393 200.0
212.772858 124.0
212.83963 40.0
213.105896 524.0
213.132996 132.0
213.199844 76.0
213.505096 52.0
214.056763 132.0
214.100082 132.0
214.87413 352.0
215.068329 168.0
215.093567 240.0
215.132919 160.0
216.063202 192.0
216.090347 184.0
216.11293 184.0
216.142197 244.0
216.654572 48.0
217.108505 468.0
217.138214 148.0
218.078568 156.0
218.127701 124.0
218.312927 84.0
218.545319 120.0
219.128281 176.0
220.597977 88.0
220.660049 56.0
221.083038 136.0
225.114349 200.0
225.876266 124.0
226.05278 136.0
227.05336 352.0
227.080353 140.0
228.077377 1228.0
228.14032 132.0
229.081863 548.0
230.113647 124.0
230.15535 336.0
230.681595 96.0
231.112717 444.0
231.150391 184.0
231.556046 60.0
231.800491 128.0
232.159149 100.0
232.820709 144.0
235.873627 112.0
235.980637 152.0
237.376877 52.0
238.067337 168.0
239.075668 144.0
239.097214 128.0
239.13414 220.0
239.901138 108.0
240.073792 124.0
240.110809 120.0
240.135483 180.0
240.209503 56.0
241.111084 120.0
241.695541 228.0
242.107254 112.0
243.093063 180.0
243.120987 144.0
244.09642 124.0
244.118179 156.0
244.211487 116.0
245.096817 196.0
245.18045 212.0
246.134308 104.0
246.171783 148.0
246.412292 192.0
249.021698 64.0
252.529663 56.0
252.567612 104.0
252.852371 116.0
253.105621 92.0
254.110382 152.0
254.351562 100.0
255.129837 172.0
255.162292 136.0
256.110565 316.0
256.160889 124.0
257.050415 156.0
257.10376 508.0
257.810455 56.0
258.115082 140.0
258.296417 36.0
259.124146 136.0
261.125427 140.0
261.833466 112.0
268.989502 248.0
269.109406 196.0
271.128571 328.0
271.158051 164.0
272.133606 124.0
272.145447 48.0
272.154053 124.0
273.165863 140.0
274.181671 180.0
276.476898 128.0
278.535858 112.0
280.505798 216.0
283.631195 40.0
284.137573 132.0
286.150726 176.0
287.310059 64.0
290.100037 100.0
291.145081 160.0
292.106964 76.0
301.166595 672.0
301.198395 216.0
301.809509 48.0
302.151917 208.0
302.293793 96.0
305.075439 108.0
305.322327 76.0
313.930481 140.0
324.817688 84.0
325.355957 56.0
333.930908 68.0
346.4039 44.0
353.608887 88.0
360.566711 92.0
380.063843 44.0
384.289337 64.0
389.641418 32.0
416.489685 48.0
450.859741 132.0
459.535004 64.0
464.463226 40.0
516.755432 60.0
517.629028 68.0
532.781128 108.0
575.149048 64.0
575.612183 96.0
632.58136 48.0
650.263733 60.0
655.318359 76.0
659.201416 48.0
675.391296 128.0
759.489563 32.0
785.365295 188.0
867.075256 64.0
894.237915 128.0
899.184692 36.0
909.569336 224.0
934.638306 36.0
946.057495 56.0
961.670715 212.0
972.204285 88.0
981.578918 188.0
983.537842 60.0
992.79126 36.0
993.625488 72.0
1007.248352 144.0
1010.820374 116.0
1012.111694 216.0
1021.421875 144.0
1022.242615 168.0
1023.662964 92.0
1023.993286 180.0
1028.20752 132.0
1033.293823 60.0
1069.152222 88.0
1075.095581 144.0
1077.766357 144.0
1082.665894 156.0
1084.710083 208.0
1087.701294 152.0
1094.28186 288.0
1094.762573 240.0
1109.987793 204.0
1118.86438 156.0
1121.175659 120.0
1123.829712 320.0
1126.299805 156.0
1127.215088 52.0
1134.389771 136.0
1135.603394 200.0
1136.307739 208.0
1137.703735 204.0
1139.60437 140.0
1159.978882 140.0
1161.25354 164.0
1166.57019 36.0
1167.188965 60.0
1167.535767 152.0
1172.519165 128.0
1172.703125 144.0
1177.724854 164.0
1180.246704 44.0
1181.402466 132.0
1181.785645 148.0
1181.888184 112.0
1182.812134 184.0
1183.038086 152.0
1189.214111 224.0
1192.950806 128.0
1193.150146 176.0
1196.913696 92.0
1199.014648 108.0
1199.469604 56.0
1199.938354 172.0
1202.14563 196.0
1209.596191 120.0
1211.38269 152.0
1215.091553 148.0
1216.292114 192.0
1220.516113 168.0
1220.988892 188.0
1221.072388 212.0
1224.378174 128.0
1234.637085 160.0
1235.028687 204.0
1236.666016 184.0
1248.058716 152.0
1251.421997 112.0
1253.196899 128.0
1256.334106 152.0
1261.842773 160.0
1262.542847 164.0
1263.200562 176.0
1265.734253 224.0
1267.26416 192.0
1267.958618 160.0
1270.589355 148.0
1273.052368 148.0
1273.215698 128.0
1273.982788 212.0
1277.928467 228.0
1281.923706 220.0
1284.5896 132.0
1285.096191 144.0
1285.324463 176.0
1286.437866 224.0
1287.858887 216.0
1290.152588 48.0
1291.425415 136.0
1292.376831 196.0
1293.879883 168.0
1295.254761 180.0
1297.074829 136.0
1297.540771 188.0
1298.300903 160.0
1299.19751 144.0
1300.661377 188.0
1304.065918 104.0
1305.273682 68.0
1308.137085 124.0
1308.223511 44.0
1310.023804 32.0
1313.231445 176.0
1313.476685 56.0
1313.931152 192.0
1317.230225 172.0
1317.483032 180.0
1319.470459 100.0
1319.96936 68.0
1320.584106 212.0
1322.95752 156.0
1323.268799 124.0
1323.717773 160.0
1323.768433 140.0
1334.347412 196.0
1335.554565 128.0
1337.264404 88.0
1339.193848 176.0
1340.935181 148.0
1341.49646 156.0
1343.421631 224.0
1344.983154 112.0
1345.297119 100.0
1345.457642 104.0
1347.480713 124.0
1347.575684 232.0
1347.670654 180.0
1348.35022 184.0
1351.180054 216.0
1351.297119 156.0
1353.310791 180.0
1357.794556 68.0
1357.992554 168.0
1360.355225 156.0
1360.714966 96.0
1361.250977 108.0
1362.154297 180.0
1363.947266 52.0
1364.248657 144.0
1365.954712 60.0
1366.020874 184.0
1367.86792 208.0
1368.199219 172.0
1370.7771 204.0
1371.263428 224.0
1373.932739 148.0
1376.944336 164.0
1378.111572 168.0
1378.547485 136.0
1379.855713 148.0
1381.549316 144.0
1384.236084 148.0
1384.776611 168.0
1385.347046 160.0
1386.110107 152.0
1390.693237 272.0
1390.849121 168.0
1392.809448 176.0
1394.169067 168.0
1394.800781 140.0
1396.042358 144.0
1397.291992 200.0
1398.423096 200.0
1398.810181 184.0
1399.197266 208.0
1400.105713 168.0
1400.716431 160.0
1402.385498 140.0
1403.056396 88.0
1405.696777 192.0
1407.174561 76.0
1407.921265 204.0
1408.989502 180.0
1409.17627 164.0
1410.596191 232.0
1411.79248 44.0
1412.26355 172.0
1412.712402 60.0
1419.940552 60.0
1420.098022 176.0
1420.37561 180.0
1421.343384 64.0
1423.15979 108.0
1424.984985 64.0
1425.37561 100.0
1426.893921 40.0
1429.473877 172.0
1432.169067 140.0
1432.801758 176.0
1433.698486 160.0
1435.854614 124.0
1436.601318 112.0
1439.884766 52.0
1441.652466 160.0
1443.292847 96.0
1443.49707 164.0
1446.197876 168.0
1448.42395 180.0
1449.211792 84.0
1449.446655 160.0
1449.99231 172.0
1450.947388 184.0
1452.547485 168.0
1452.926758 112.0
1454.262329 184.0
1457.109985 196.0
1460.660156 208.0
1464.267822 144.0
1469.039429 168.0
1469.825195 132.0
1470.229614 236.0
1470.618896 172.0
1472.581055 128.0
1475.614746 80.0
1477.243774 164.0
1477.626221 96.0
1478.452637 168.0
1479.00647 176.0
1480.305176 144.0
1481.086426 116.0
1483.523193 160.0
1483.975464 136.0
1484.075195 180.0
1486.023315 160.0
1488.141602 168.0
1488.325928 172.0
1489.35498 156.0
1489.608521 80.0
1491.191284 156.0
1491.275879 136.0
1491.391113 168.0
1491.983032 152.0
1492.559692 172.0
1494.182495 88.0
1495.005005 176.0
1495.852539 184.0
1497.677368 200.0
1498.047119 136.0
1499.017944 132.0
1499.1875 188.0
1500.16626 196.0
1500.798462 180.0
1501.56189 212.0
1502.85791 172.0
1503.714478 156.0
1503.768433 116.0
1503.915161 148.0
1504.671631 124.0
