>compound Valsartan
>formula C24H29N5O3 
>ionization [M+H]+
>parentmass 436.236
#inchi InChI=1S/C24H29N5O3/c1-4-5-10-21(30)29(22(16(2)3)24(31)32)15-17-11-13-18(14-12-17)19-8-6-7-9-20(19)23-25-27-28-26-23/h6-9,11-14,16,22H,4-5,10,15H2,1-3H3,(H,31,32)(H,25,26,27,28)/t22-/m0/s1
#inchikey ACWBQPMHZXGDFX
#Ion_Source LC-ESI
#Instrument qTof
#Compound_Source Isolated
#PI Sirenas
#Data_Collector Ed Esquenazi 
#Scan -1
#Precursor_MZ 436.236
#ExactMass 0.0
#Charge 1
#CAS_Number N/A
#Pubmed_ID N/A
#Smiles N/A
#INCHI_AUX N/A
#Library_Class 3
#SpectrumID CCMSLIB00000005789
#IonMode Positive
#UpdateWorkflowName UPDATE-SINGLE-ANNOTATED-BRONZE
#LibraryQualityString Bronze
#TaskID d19310cd93df49b68e9fcbec27720eb5
##Scan# 3
#SpectrumFile Valsartan.mgf
#LibraryName fda_library.mgf
#MQScore -1
#Organism fda_library
#TIC_Query 0
#RT_Query -1
#MZErrorPPM -1
#SharedPeaks 0
#MassDiff 0
#LibMZ -1
#SpecMZ 436.236
#SpecCharge 0
#internalFilename spec-00000.mgf

>collision 10
100.391472 7.115
102.033142 14.8343
102.089279 24.58696
104.049339 53.34626
104.230522 1.502976
104.635933 3.844445
105.040581 15.25287
105.047707 65.929817
105.309715 17.25647
113.039169 31.35178
113.110275 2.871142
114.119797 7.004167
115.005371 1.928571
115.03894 56.59256
115.054543 647.364319
115.098396 2.041667
115.154106 3.074074
115.218079 3.354167
115.243996 3.402778
115.281837 11.68056
115.305115 15.92708
115.423332 8.613426
116.065742 52.114719
116.22818 6.673132
116.340942 6.500534
116.370872 1.168561
116.462837 3.25
116.506012 1.6875
116.897957 3.080044
117.056969 125.1064
117.274437 1.633333
118.085678 60.299789
118.114937 2.680556
118.782036 3.0375
124.598824 4.517857
125.443024 3.125
125.825058 2.0
126.618477 3.168982
127.054344 211.542404
127.300591 5.704166
127.481163 3.760417
128.048355 67.819962
128.06308 10.22255
128.46051 8.41228
128.533508 2.380952
129.044449 419.503204
129.067673 183.209702
129.104599 4.020833
129.170319 2.486742
129.184097 5.044271
129.212051 6.592803
129.242996 3.836111
129.373535 3.878942
129.717682 7.174903
129.94397 0.835648
130.029526 36.743622
130.082748 22.97751
130.162262 3.926697
130.266418 2.895833
138.047119 24.783211
139.055557 53.31226
139.234879 2.568056
139.246384 6.949253
139.276886 10.00794
139.348358 3.555556
139.512619 2.3375
140.04924 1533.313965
140.098984 12.49061
140.117325 2.35
140.137909 2.000992
140.15683 7.987179
140.171799 7.167201
140.199738 4.086925
140.212204 10.51632
140.336273 3.907408
140.34819 17.46417
140.368759 6.432398
140.399765 5.753472
140.426254 4.674819
140.458313 1.724537
140.554169 5.503677
140.620163 2.5
140.824661 4.341374
141.069 253.633606
141.181854 3.683333
141.510086 9.47405
141.680969 14.65583
141.715515 3.836309
142.245926 4.907738
142.487717 2.928571
143.185379 10.34783
143.218002 1.901389
143.452469 13.80952
145.639511 2.083333
150.042679 33.342209
150.290054 6.067819
150.426468 4.926136
151.054413 536.180176
151.105652 3.167339
151.246841 19.176979
151.295181 7.186274
151.375183 2.00463
151.43512 3.175595
151.495056 6.361111
151.591415 2.166667
151.662094 2.011029
151.713516 13.03062
151.758118 3.504167
152.061783 1041.333984
152.097672 6.6875
152.116394 2.008333
152.13623 4.066123
152.15184 9.556818
152.164291 1.667892
152.212494 15.58075
152.232468 7.185023
152.267242 2.706731
152.318298 3.695513
152.353073 8.666667
152.369827 9.699471
152.387009 3.674819
152.410568 9.722922
152.434433 4.531863
152.486435 6.037094
152.502991 3.511111
152.537811 2.010417
152.575958 3.773809
152.610611 10.3809
152.666138 1.502976
152.829666 3.358333
152.843292 12.55408
152.861542 6.946509
152.975922 3.539216
153.0233 12.06618
153.069626 6412.286133
153.123001 67.344162
153.142136 2.334722
153.162781 16.45561
153.17392 2.001389
153.197449 30.68362
153.224258 11.86746
153.257126 7.615705
153.281387 4.167572
153.294525 11.07917
153.310257 16.197981
153.324692 7.883333
153.354416 30.841961
153.389282 3.0625
153.405258 14.71902
153.415054 4.377778
153.429367 14.11135
153.442902 2.820076
153.455383 16.671721
153.468582 35.963589
153.519058 25.697041
153.552933 14.95546
153.565979 6.000425
153.600174 7.234052
153.639771 11.56612
153.684479 8.694303
153.73848 4.5
153.777237 20.728291
153.867798 3.969445
153.880859 2.333333
154.337814 6.527554
154.537537 1.720238
154.810089 2.671296
154.883682 5.84127
154.970291 9.68254
155.059082 1.833333
155.084152 56.49432
155.373306 7.010629
155.850677 3.355392
155.959457 4.222222
156.046524 30.83523
156.598602 3.234167
157.084808 5.6875
157.383377 2.265931
162.072296 1.5625
162.096848 6.067819
162.16301 2.005208
162.31366 1.851852
162.499863 6.375
162.535355 4.500631
163.054108 1338.613037
163.108078 7.712694
163.126938 2.707108
163.137283 8.841697
163.159637 4.796474
163.170197 6.333675
163.179153 3.593364
163.20575 3.375
163.232025 6.496059
163.27269 2.449074
163.339539 10.83477
163.352448 6.837323
163.383347 5.429343
163.405884 9.358913
163.432495 2.520833
163.454529 3.001894
163.487045 12.7861
163.522842 5.026786
163.56604 7.00926
163.605988 4.602083
163.900681 4.88966
164.033829 27.39216
164.083084 4.514423
164.100296 5.000534
164.216217 7.186794
164.234497 14.44664
164.286102 6.370471
164.34549 5.689655
164.390411 1.928571
164.635513 3.224856
165.001755 2.197304
165.069427 1667.331055
165.111038 14.95579
165.128983 17.213909
165.176361 11.98164
165.269989 2.836111
165.281113 6.880029
165.391129 1.854167
165.42543 9.041667
165.450333 7.606826
165.472137 10.94477
165.499634 8.103531
165.511581 6.524982
165.542908 6.384779
165.560822 8.4375
165.569885 3.645833
165.789185 8.240998
165.847107 6.66875
165.896713 5.170493
165.9953 8.676042
166.06778 747.739197
166.129791 7.518578
166.152847 11.54431
166.232941 3.166667
166.27034 1.592803
166.300278 10.0
166.328583 6.906746
166.362091 8.700757
166.416855 4.711111
166.559158 4.594643
166.613205 3.352273
166.704666 11.98171
166.780701 9.17205
167.075195 952.128601
167.14473 4.181548
167.16272 5.547563
167.22583 12.84072
167.239502 5.891523
167.263763 3.333333
167.321686 10.6421
167.342987 9.435382
167.357117 7.536599
167.41243 2.280092
167.464157 2.720395
167.480423 13.90308
167.545258 5.338401
167.561478 2.760417
167.576782 2.336539
167.61879 10.15138
167.649033 5.1875
167.678116 2.708333
167.811035 4.44079
168.031982 1.380682
168.067291 358.042786
168.17627 3.172024
168.28006 5.507246
168.948853 9.461309
169.217789 7.104167
169.260803 3.357143
169.718018 8.866422
170.282959 33.597839
170.916824 2.166667
171.841354 5.545834
171.850845 14.88721
174.981216 5.697601
175.628708 2.770833
176.049332 23.530029
176.061493 30.01804
176.302673 3.000833
176.510666 3.080128
176.986984 2.337121
177.012253 15.04078
177.038086 21.99473
177.066803 241.686493
177.108841 16.92738
177.129944 6.500834
177.141281 3.806818
177.167557 8.354191
177.204926 4.344363
177.225418 1.666667
177.237396 11.00439
177.296295 8.9375
177.311203 2.887061
177.329636 3.025
177.374771 3.666667
177.63089 7.725
177.7677 30.252159
177.839264 3.000833
177.848877 8.676282
177.913895 8.082236
178.00029 10.01858
178.077026 9273.71875
178.134521 29.11961
178.151123 52.825581
178.167816 27.09516
178.189377 9.506682
178.204544 29.88732
178.223175 38.40873
178.238892 10.00854
178.254257 24.56637
178.277359 15.6787
178.292374 19.227381
178.31778 22.30863
178.33876 27.0854
178.359711 5.65438
178.381119 33.636662
178.398499 19.684851
178.419983 62.07341
178.433929 3.701868
178.458939 5.510417
178.470398 4.222994
178.489716 14.16842
178.505905 14.66285
178.528503 12.86227
178.571838 8.080358
178.586823 3.1875
178.6082 8.615287
178.620697 16.060631
178.680893 22.90774
178.693756 9.698413
178.773331 8.174214
178.85321 20.99011
178.940811 9.025407
178.973389 6.208333
179.01503 18.81255
179.033417 29.233841
179.131058 18.703871
179.158813 10.79707
179.180786 43.382969
179.240967 51.45237
179.264694 49.125751
179.279449 12.59649
179.29776 25.923889
179.353195 13.3912
179.363632 18.39649
179.447998 14.87587
179.463943 5.28125
179.485199 37.15583
179.500595 13.07176
179.519379 46.80962
179.562378 12.80833
179.584824 9.946303
179.599319 12.54674
179.634399 18.14904
179.702362 3.983553
179.727982 8.344355
179.81221 6.672715
179.824448 17.23579
179.854919 35.89481
179.890579 2.530637
179.923645 6.692842
179.946533 11.11111
179.970535 6.572024
180.032791 20.383129
180.054642 84.604553
180.081116 22950.160156
180.290878 46.05167
180.307968 58.694099
180.335297 44.91708
180.37175 58.68074
180.388779 16.879141
180.431641 72.902122
180.450775 24.903299
180.48584 36.04845
180.500336 31.730949
180.529007 63.125
180.571503 34.06765
180.580444 11.96693
180.597733 52.920399
180.637268 6.918168
180.649841 41.14727
180.693573 70.002083
180.710419 25.97904
180.741119 20.351139
180.763138 22.59026
180.775299 14.25584
180.819092 19.56695
180.842209 3.3125
180.888779 12.29885
180.901459 30.852631
181.07991 1069.081055
181.130493 12.61761
181.181366 12.89561
181.378464 9.637329
181.546982 5.784722
181.559952 16.753651
181.610092 6.877193
181.63089 19.09874
181.725159 4.669643
181.803192 16.106689
181.825943 12.37177
181.870773 13.16766
181.926682 20.812969
181.93718 10.59643
181.993149 10.00684
182.056656 15.90536
182.06723 72.70182
182.162964 16.005989
182.222717 7.358232
182.706726 9.424756
182.826324 6.314881
183.480835 1.963141
183.577606 3.01282
183.794525 3.960938
183.851166 3.802778
184.307999 2.245192
185.070938 14.79241
186.203293 3.5125
187.63353 6.374281
188.086136 1.613426
188.618134 3.889661
188.861313 4.834821
188.875656 2.0
188.923737 1.745192
188.940613 7.521397
188.985092 32.22538
188.996262 12.10417
189.023911 28.54952
189.046295 17.58036
189.058273 108.450897
189.124069 4.173611
189.141556 24.55208
189.173416 27.02132
189.195404 14.37222
189.214615 91.848373
189.240768 9.354167
189.27829 57.667931
189.296616 2.694079
189.313019 20.92943
189.38649 18.464849
189.399979 35.042042
189.418411 5.005357
189.473907 3.645833
189.517029 11.84594
189.536316 10.55772
189.577774 5.630952
189.627655 10.40237
189.785492 2.003788
189.847473 3.01796
189.938126 13.99755
189.948151 8.025962
189.996338 7.677778
190.033875 78.46196
190.065109 19549.060547
190.101578 3.858135
190.241959 91.565239
190.254745 34.92791
190.293808 53.228279
190.323303 98.579987
190.336868 11.45724
190.360718 4.335907
190.386368 65.561699
190.413971 23.11578
190.450378 12.54943
190.461136 29.46871
190.493759 6.695652
190.510498 53.3447
190.553223 36.245781
190.57196 6.168478
190.600998 47.235512
190.618668 29.84066
190.636154 15.43198
190.658539 7.365079
190.673203 7.776136
190.687286 45.560841
190.716721 7.208333
190.780563 48.01363
190.836304 73.197113
190.860229 6.355053
190.871124 14.18958
190.910416 66.529167
190.943542 8.1375
190.998825 38.49839
191.12973 96.085327
191.153564 30.14023
191.190338 5.833333
191.20224 14.52083
191.216324 20.779169
191.268616 9.027554
191.351166 20.0056
191.389694 28.45833
191.446793 12.59375
191.485886 6.390653
191.501907 3.334722
191.567383 7.666667
191.581055 3.333333
191.63678 7.000463
191.671158 22.498119
191.855667 19.598961
191.943832 38.669579
191.977219 7.833333
192.018326 7.947917
192.04306 3.796875
192.076721 8970.226562
192.171539 12.81945
192.192795 61.013378
192.206009 15.50099
192.218597 32.32095
192.249283 87.681877
192.287247 58.767738
192.346054 64.841843
192.372559 21.12192
192.400909 26.81411
192.430664 26.934151
192.470322 12.86089
192.484161 16.636959
192.52153 17.352961
192.567734 16.042
192.6035 4.109601
192.621124 22.13415
192.651627 37.605339
192.664001 22.08021
192.706894 10.0383
192.805878 6.179167
192.880112 7.780093
192.903412 18.66715
192.966476 15.05524
193.015442 11.96846
193.024704 3.286706
193.196854 12.41798
193.267853 5.074846
193.310593 15.96154
193.329559 9.543269
193.38266 13.53109
193.47406 11.51547
193.521027 8.201982
193.545471 10.35339
193.569351 8.227985
193.582886 10.26339
193.608749 3.740833
193.70639 8.339286
193.755371 5.945
193.7742 9.021656
193.79599 2.604167
194.026611 14.30453
194.058014 14.19828
194.095856 3311.013916
194.155197 33.399929
194.225815 16.371031
194.261017 44.905941
194.302414 8.347318
194.380005 13.4549
194.44635 3.277778
194.457611 4.345238
194.52066 8.528602
194.535202 6.505682
194.550949 13.51814
194.584686 7.989805
194.60318 4.335648
194.685028 31.74087
194.711304 10.41618
194.748413 2.615741
194.781845 3.816667
194.846207 2.432598
194.901627 24.53624
195.025497 7.266401
195.082016 829.062317
195.13887 12.29223
195.18631 19.023451
195.200806 2.335648
195.289062 9.231359
195.307831 12.2283
195.545395 8.349116
195.584763 12.54381
195.604202 2.834005
195.621613 3.633333
195.702133 4.59375
195.808502 6.011111
195.873611 2.19391
195.978653 5.374166
196.500488 2.166667
196.59288 11.51442
197.318634 11.00732
197.526932 2.14881
198.386337 5.352941
199.385315 3.316886
201.416977 1.224537
202.255508 12.23393
203.738754 2.666667
203.833908 3.03125
203.85376 7.002884
203.903427 6.195652
203.947342 27.351021
203.983429 3.791667
204.018967 17.51754
204.043503 3.0375
204.078262 36.210579
204.151794 4.175595
204.189743 7.193452
204.435318 6.666667
204.619049 1.928571
204.737137 12.27192
204.779221 10.10723
204.82756 7.195875
204.844025 14.5952
204.868301 4.509804
204.885056 19.92601
204.912872 7.415213
204.924316 8.092642
204.975021 10.02222
204.987823 5.004167
205.009644 16.133141
205.021973 11.91557
205.075699 3321.746094
205.156052 20.27252
205.189163 3.691468
205.222961 16.40064
205.237045 7.00926
205.260162 12.40758
205.279297 10.70629
205.30217 11.51408
205.333115 12.42596
205.352753 32.40554
205.386063 13.09081
205.411423 12.5002
205.441086 17.460711
205.482635 11.23971
205.53537 52.87154
205.57515 13.27355
205.584259 13.50885
205.605362 22.22607
205.640869 2.881944
205.689987 4.776268
205.706726 5.610165
205.755341 13.86232
205.785538 6.69697
205.81282 27.934259
205.874893 19.032801
205.88797 15.24107
205.899521 43.02396
205.93187 83.926582
205.959305 81.794823
205.99263 27.66312
206.018097 64.627533
206.054367 31.52268
206.08403 12275.459961
206.159546 44.87941
206.187698 78.610657
206.207687 24.58346
206.225967 50.728298
206.249054 30.9811
206.260406 30.57682
206.281235 64.220123
206.302139 13.87756
206.32225 80.437401
206.337128 10.85757
206.36319 33.94236
206.378937 98.984169
206.418533 26.59861
206.449051 76.020554
206.480713 12.57317
206.49881 25.519529
206.549759 102.146599
206.568008 8.151395
206.58847 27.73859
206.600967 9.261825
206.629532 21.835159
206.661789 57.331959
206.742615 29.76535
206.797592 9.388074
206.837509 29.97616
207.029984 17.64768
207.092148 44722.191406
207.386108 25.733431
207.408478 17.25271
207.430389 32.678341
207.46077 22.219151
207.490265 13.00644
207.503769 63.903801
207.528122 61.629551
207.572113 42.71637
207.59111 22.2768
207.606674 22.98778
207.640289 60.10284
207.668365 21.38788
207.684418 58.52243
207.714066 20.137381
207.744446 120.9011
207.785202 59.195042
207.802734 17.55477
207.813187 100.436096
207.850937 77.103477
207.862717 11.75
207.876862 29.36385
207.904358 24.6637
207.921631 18.63954
207.944199 17.12483
207.977264 70.516853
207.98851 27.959629
208.032623 69.710419
208.077377 7410.898926
208.135956 90.629768
208.15242 25.503691
208.185791 16.874769
208.212585 24.221649
208.227539 35.424992
208.258301 46.447449
208.269638 5.858077
208.340317 13.36218
208.385132 66.46521
208.40715 19.49683
208.423477 18.401831
208.466309 29.86651
208.571625 25.125059
208.612061 24.63946
208.702576 31.05002
208.718018 16.658541
208.856033 7.697867
208.909882 18.62925
209.009506 6.016801
209.042191 3.364268
209.059326 3.483553
209.106979 2231.897949
209.183258 25.687719
209.29306 14.52255
209.317062 43.80444
209.358841 9.88845
209.411377 33.028061
209.449493 20.160589
209.488892 16.665251
209.544159 5.074167
209.559814 23.345751
209.598923 9.293702
209.719589 7.047619
209.751663 14.2369
209.773804 8.791111
209.968704 4.349638
210.008316 3.370471
210.024963 1.777778
210.049377 3.174819
210.15097 4.714881
210.281387 14.22322
210.659897 7.542726
210.836578 6.126984
210.851822 3.011111
210.943848 34.8964
210.968658 6.371212
211.05899 2.181818
212.207489 4.788075
212.23317 4.335648
212.329468 3.503205
212.415649 2.194079
212.517212 2.604167
212.616379 7.115661
212.798172 15.59922
213.197189 3.342262
213.436005 2.000992
213.456345 3.666667
213.919113 3.835227
214.341965 9.553572
215.102753 1.633333
215.194168 13.35943
216.209839 1.333333
216.819 7.712121
217.077545 77.239113
217.116211 2.334326
217.937164 7.416667
218.072006 51.71566
218.107529 31.363359
218.142639 1.339286
218.291672 3.565104
219.090256 33.640701
219.116867 26.44187
219.820908 1.5
220.077621 59.166618
220.182114 4.667092
220.414337 1.5625
220.693344 15.57926
221.105515 154.1091
221.806015 6.021719
222.112564 9.901389
222.635117 1.592803
225.271454 14.7125
227.111816 5.667076
229.101181 49.226261
229.340195 6.967741
229.96312 3.555556
230.100845 26.713961
230.135574 2.648284
231.107605 10.97008
231.119461 39.85923
231.224869 7.208841
231.258987 6.314881
231.542389 5.004361
232.070328 22.35692
232.109009 66.771057
232.417038 7.994877
233.075333 151.187393
233.09668 40.630951
233.133209 3.834239
233.708191 20.196091
233.772202 9.515834
233.787018 4.886968
233.856308 11.54141
233.940384 7.2375
233.971649 4.296875
234.037247 3.260031
234.115143 68.248367
234.331253 4.111883
234.655212 7.848215
234.676102 4.537809
234.729385 3.711051
234.742126 2.568056
234.795975 3.1875
234.990738 4.368535
235.048035 102.759399
235.094955 4647.266113
235.164795 33.04945
235.189453 24.061041
235.216995 20.839729
235.229736 19.05475
235.264008 25.24568
235.291229 3.826993
235.309998 8.700521
235.335922 16.378189
235.36824 4.708333
235.398682 12.71629
235.430817 13.48347
235.452789 19.54426
235.473511 9.427232
235.510574 25.767179
235.530411 14.96771
235.587143 17.05521
235.604416 6.181667
235.628342 9.03283
235.731964 13.08889
235.782242 12.79868
235.825073 10.69705
235.843628 11.3649
235.865845 8.668056
235.879898 7.323253
235.973007 6.71423
236.294144 15.0137
236.312073 15.03198
236.427521 8.362268
236.448944 9.192246
236.475616 8.514794
236.49791 7.481482
236.930756 5.88033
237.113113 2.568056
237.35379 5.692308
237.922974 5.667201
238.158432 7.292929
239.642517 9.218178
241.920746 5.390752
242.548645 3.859509
243.112701 4.011111
244.114578 5.482254
245.559525 10.33704
246.082092 11.99305
246.128021 36.171291
247.087479 411.719788
247.129684 24.37044
247.153809 3.5
247.389191 4.335648
247.471268 2.6875
248.141144 23.118031
248.72612 3.940025
248.791962 4.335
249.103363 65.392288
249.137161 110.596298
249.443832 2.708333
250.898041 3.834052
260.377014 9.222552
260.746399 7.501736
261.099609 47.111179
261.136993 14.64725
261.358826 7.568182
261.873199 6.673611
262.104706 51.323349
263.150208 101.624199
272.098328 18.467489
273.134613 109.594597
275.094879 4.083333
275.496033 3.5625
289.128723 301.137604
289.206024 3.227273
289.283905 2.84375
289.31015 9.796569
289.351929 28.11006
289.43692 4.640351
289.461029 3.336806
289.552734 4.399457
289.590118 2.595238
289.709198 26.1432
289.793518 11.32064
289.910583 5.169117
289.946106 8.337838
290.104553 19.40667
290.228027 7.120039
290.254242 2.5075
290.329681 11.03781
290.770111 8.166978
290.912476 2.704167
291.032928 3.040441
291.066803 2.6875
291.149017 3082.184082
291.22049 20.3626
291.257202 13.2836
291.29422 29.277491
291.332825 7.407738
291.389404 8.868378
291.416718 18.00218
291.496979 24.02883
291.537903 18.199881
291.578644 17.413321
291.648804 3.282051
291.674561 15.03373
291.779633 6.677296
291.835754 20.249359
291.856201 8.035088
291.888031 27.067129
291.944336 7.362103
292.016907 6.511905
292.467499 12.32381
292.70401 8.992676
292.725067 6.398902
292.936279 9.689073
293.821899 7.185957
294.792419 5.630952
295.039062 4.010417
295.517548 5.036599
297.092804 2.816667
304.434113 9.739583
306.171478 13.84605
309.144684 7.241578
345.190094 4.545455
364.080017 8.848958
532.422974 2.722222
595.729736 11.66745
747.549377 31.817801
776.674988 5.986742
837.468933 6.394737
849.304443 6.358135
1148.634155 12.20417
1249.170898 10.3912
1295.074707 13.85227
1318.26355 7.246795
1336.581177 5.701106
1381.919189 3.387769
1566.357544 12.44983
