>compound MLS002222241-01!
>formula C15H23NO2
>ionization [M+H]+
>parentmass 250.180405
#inchi InChI=1S/C15H23NO2/c1-4-7-13-8-5-6-9-15(13)18-11-14(17)10-16-12(2)3/h4-6,8-9,12,14,16-17H,1,7,10-11H2,2-3H3
#inchikey PAZJSJFMUHDSTF
#origInchi InChI=1S/C15H23NO2.ClH/c1-4-7-13-8-5-6-9-15(13)18-11-14(17)10-16-12(2)3;/h4-6,8-9,12,14,16-17H,1,7,10-11H2,2-3H3;1H
#Ion_Source LC-ESI
#Instrument qTof
#Compound_Source NIH Pharmacologically Active Library
#PI Dorrestein
#Data_Collector VP/LMS
#Scan -1
#Precursor_MZ 250.185
#ExactMass 249.173
#Charge 1
#CAS_Number N/A
#Pubmed_ID N/A
#Smiles CC(C)NCC(O)COc1ccccc1CC=C.Cl
#INCHI_AUX N/A
#Library_Class 1
#SpectrumID CCMSLIB00000086027
#IonMode Positive
#UpdateWorkflowName UPDATE-SINGLE-ANNOTATED-GOLD
#LibraryQualityString Gold
#TaskID d252d724072548979f1f6f1ced849daf
##Scan# 1536
#SpectrumFile p5-B04_GB4_01_18443.mzXML
#LibraryName Pharm_Active_Library.mgf
#MQScore -1
#Organism Pharm_Active_Library
#TIC_Query 0
#RT_Query -1
#MZErrorPPM -1
#SharedPeaks 0
#MassDiff 0
#LibMZ -1
#SpecMZ 250.185
#SpecCharge 0
#internalFilename spec-00000.mgf

>collision 10
45.233212 220.0
45.526833 120.0
45.716377 112.0
45.820057 68.0
45.899574 196.0
45.922501 184.0
46.183174 100.0
46.577602 132.0
46.602055 60.0
46.706734 140.0
46.721695 192.0
47.013279 156.0
47.024197 160.0
47.175812 184.0
47.207779 188.0
47.536018 184.0
47.652729 144.0
47.729698 148.0
47.791592 168.0
47.808105 228.0
47.871429 120.0
47.905861 152.0
48.017506 56.0
48.436295 184.0
48.77636 208.0
49.782185 176.0
49.798306 176.0
50.039497 84.0
50.187435 148.0
50.276302 44.0
50.587246 196.0
50.673634 172.0
50.850883 36.0
50.879272 112.0
51.086754 156.0
51.237656 196.0
51.297508 124.0
51.444435 224.0
51.514408 40.0
51.707432 272.0
51.827721 168.0
51.86068 132.0
52.380821 64.0
52.460079 176.0
52.529293 212.0
53.067268 196.0
53.119476 136.0
53.535149 152.0
53.575932 192.0
53.617973 212.0
53.657539 112.0
53.853077 228.0
53.978756 220.0
54.239353 60.0
54.293598 212.0
54.355209 132.0
54.422729 144.0
54.553482 40.0
54.688805 236.0
54.741806 64.0
54.811039 152.0
55.14307 240.0
55.276165 148.0
55.744747 100.0
56.012543 112.0
56.285461 180.0
56.494698 92.0
56.5336 80.0
56.690838 144.0
56.776287 56.0
56.992657 168.0
57.144299 100.0
57.181915 164.0
57.198475 212.0
57.468227 200.0
57.752228 80.0
57.93084 128.0
58.094555 152.0
58.399868 52.0
58.480507 180.0
58.544449 144.0
59.400341 136.0
59.472458 160.0
59.500092 148.0
59.599922 48.0
59.705986 216.0
59.71983 140.0
59.881432 212.0
60.035545 124.0
60.262447 240.0
60.379925 160.0
60.410862 120.0
60.641571 240.0
60.754765 172.0
60.882038 104.0
60.925529 148.0
61.122982 140.0
61.395588 128.0
61.701626 156.0
61.778255 228.0
61.914425 156.0
61.956718 64.0
62.311272 140.0
62.408714 136.0
62.61013 180.0
63.162533 204.0
63.822258 136.0
63.917694 160.0
63.970215 32.0
64.03231 172.0
64.496597 220.0
64.73658 184.0
64.980209 208.0
65.200195 128.0
65.589684 188.0
66.090317 168.0
66.101639 68.0
66.445137 164.0
66.739105 176.0
67.139679 200.0
67.386154 180.0
67.507111 224.0
67.611809 116.0
67.785767 192.0
67.826363 176.0
68.05439 140.0
68.210457 204.0
68.424309 100.0
68.635201 88.0
68.671478 160.0
68.712723 196.0
68.864586 128.0
69.119171 208.0
69.296333 148.0
69.453812 132.0
69.54673 148.0
69.746048 144.0
69.837494 180.0
69.909035 136.0
69.930664 176.0
69.957298 192.0
70.108864 156.0
70.342361 196.0
70.646492 96.0
70.661552 180.0
70.897644 188.0
70.941223 28.0
71.350838 92.0
71.763313 156.0
71.979286 176.0
72.056984 132.0
72.089157 192.0
73.841835 160.0
74.180855 188.0
74.479424 136.0
74.529243 32.0
75.043869 160.0
75.392548 208.0
76.306015 132.0
76.391228 164.0
76.835457 48.0
76.952385 220.0
77.177773 48.0
77.480553 52.0
77.696182 212.0
77.903336 148.0
78.007011 160.0
78.112518 108.0
78.390686 196.0
78.858353 184.0
79.07943 188.0
79.134308 92.0
79.281326 168.0
79.502998 156.0
79.534943 144.0
79.573997 80.0
79.792519 148.0
80.103943 72.0
80.451675 244.0
80.544533 160.0
80.99707 184.0
81.31263 176.0
81.332375 196.0
81.598236 64.0
81.64679 196.0
82.126167 172.0
82.756531 220.0
83.066429 168.0
83.868301 168.0
84.256981 148.0
84.362968 216.0
85.114136 156.0
85.307037 184.0
85.450485 248.0
85.605095 160.0
85.824371 184.0
85.907356 200.0
86.239723 152.0
86.767288 136.0
86.887833 128.0
86.962059 132.0
87.045593 136.0
87.067879 132.0
87.210938 140.0
87.410667 240.0
87.449005 180.0
87.702309 148.0
88.053062 176.0
88.1745 176.0
89.077606 156.0
89.258026 212.0
89.376526 100.0
89.540298 160.0
89.638252 176.0
89.830559 160.0
89.889046 124.0
90.346268 128.0
90.507141 276.0
91.055275 3344.0
91.119759 104.0
91.134956 96.0
91.277512 48.0
91.40686 100.0
91.564857 192.0
91.763031 204.0
92.020592 172.0
92.059074 448.0
92.096977 108.0
92.289986 192.0
92.416222 188.0
92.651711 188.0
92.925865 100.0
92.962318 100.0
93.058296 196.0
93.117821 232.0
93.731483 44.0
93.978287 108.0
94.0439 116.0
94.171326 76.0
94.186775 180.0
94.612198 160.0
95.048279 144.0
95.269608 160.0
95.689674 160.0
95.796783 144.0
95.950737 152.0
96.21801 68.0
96.403564 144.0
96.900558 68.0
96.988739 188.0
97.764511 204.0
97.947609 184.0
98.096718 1036.0
99.099335 276.0
99.164726 208.0
99.363014 76.0
99.813873 104.0
99.986946 204.0
100.113869 324.0
101.110527 128.0
101.131493 168.0
101.487114 36.0
101.581375 184.0
101.713806 128.0
101.914635 188.0
102.005066 196.0
102.033211 196.0
102.048752 384.0
102.06337 148.0
102.709824 152.0
103.055733 1612.0
103.328636 144.0
103.356293 72.0
103.542526 152.0
103.62355 140.0
103.708656 84.0
103.984489 136.0
104.06237 1288.0
104.209892 160.0
104.457909 160.0
104.476219 184.0
104.905899 140.0
104.973183 160.0
105.016006 144.0
105.037254 376.0
105.070702 1596.0
105.148621 140.0
105.260895 168.0
105.841606 72.0
106.021873 168.0
106.069008 128.0
106.411598 84.0
106.625221 108.0
106.688942 92.0
106.795868 164.0
106.818497 204.0
106.900787 168.0
106.921371 60.0
106.977486 196.0
107.050247 7216.0
107.09581 44.0
107.147865 60.0
107.175018 156.0
107.209679 84.0
107.434425 148.0
107.925957 72.0
108.051949 1748.0
108.684036 228.0
109.012115 60.0
109.301147 180.0
109.661415 40.0
109.707275 136.0
110.191444 160.0
110.965805 172.0
111.677673 208.0
112.242065 168.0
112.271584 108.0
112.37072 136.0
113.25222 188.0
113.273399 156.0
113.744141 244.0
113.814194 168.0
113.964996 220.0
114.050003 84.0
114.256271 112.0
114.5756 152.0
114.961525 92.0
115.05529 4332.0
115.145119 192.0
115.211334 72.0
115.262611 36.0
115.474243 96.0
115.617584 128.0
115.711761 144.0
115.731033 200.0
116.007401 60.0
116.022408 180.0
116.060211 952.0
116.084587 168.0
116.107956 2428.0
116.230446 56.0
116.438675 180.0
116.752434 80.0
116.872894 56.0
116.905174 104.0
117.02356 140.0
117.04509 188.0
117.070419 3452.0
117.109215 540.0
117.286377 76.0
118.074951 908.0
118.55069 136.0
118.69809 188.0
118.732788 132.0
119.050179 2144.0
119.086151 3460.0
119.127815 40.0
119.182129 76.0
119.560493 76.0
119.693283 44.0
119.78257 52.0
119.847931 184.0
120.009216 196.0
120.035385 52.0
120.050644 544.0
120.092087 204.0
120.17498 148.0
120.336487 128.0
120.74073 212.0
120.878548 68.0
120.896057 144.0
120.990173 164.0
121.044907 124.0
121.065018 532.0
121.474464 176.0
122.038872 168.0
122.070297 184.0
122.386505 216.0
122.450371 128.0
122.635437 140.0
123.120804 192.0
123.762413 180.0
124.378365 144.0
124.651527 156.0
124.924995 240.0
126.047363 460.0
127.052834 388.0
127.076385 88.0
127.145943 40.0
127.240219 80.0
127.930374 120.0
128.000168 212.0
128.062744 2296.0
128.635941 136.0
128.918259 164.0
128.965729 236.0
129.06987 2768.0
129.332138 32.0
129.379669 100.0
129.470245 68.0
129.816956 48.0
129.869431 148.0
130.042984 196.0
130.079041 1280.0
130.373123 36.0
130.520889 132.0
130.589111 208.0
130.778015 132.0
130.796158 92.0
130.846237 104.0
130.93277 144.0
130.955536 144.0
131.003372 120.0
131.021591 156.0
131.050232 9904.0
131.085526 492.0
131.251785 40.0
131.337112 68.0
131.569168 76.0
131.657974 168.0
131.67395 112.0
131.689941 144.0
131.785889 52.0
131.927582 76.0
132.056839 6076.0
132.09494 64.0
132.100296 136.0
132.216782 56.0
132.442429 76.0
132.577606 56.0
133.006485 156.0
133.06369 1016.0
133.102036 324.0
133.13736 60.0
133.185577 76.0
133.468246 80.0
133.640747 100.0
133.880142 128.0
133.953842 88.0
134.07016 240.0
134.387253 60.0
134.645782 36.0
135.079559 580.0
135.443726 48.0
136.04895 84.0
138.235168 176.0
138.513779 128.0
138.935715 132.0
139.013153 176.0
139.05304 180.0
140.055862 108.0
140.802277 128.0
141.071976 384.0
141.109467 72.0
142.068146 128.0
142.457916 168.0
143.011932 136.0
143.054779 396.0
143.086212 404.0
143.114304 252.0
143.440674 136.0
144.008545 144.0
144.030045 40.0
144.057266 1952.0
144.400513 60.0
144.92955 88.0
145.065323 3228.0
145.103806 816.0
145.365952 72.0
145.964066 52.0
145.995331 104.0
146.072754 796.0
146.108368 208.0
146.178146 60.0
146.693558 168.0
146.80928 108.0
146.888504 52.0
146.910583 132.0
146.961243 128.0
147.081299 2728.0
147.120529 52.0
147.272385 156.0
147.296814 44.0
147.550552 48.0
147.748856 132.0
147.869843 128.0
147.891617 32.0
148.084518 284.0
148.138596 80.0
148.274292 72.0
148.340012 100.0
148.778809 76.0
148.95639 124.0
149.058105 124.0
149.095566 212.0
151.06218 148.0
152.01033 152.0
152.03978 156.0
152.061295 252.0
152.358978 132.0
153.070953 532.0
154.077087 452.0
154.629959 160.0
155.059174 640.0
155.085815 664.0
155.54454 44.0
155.676117 184.0
155.817703 120.0
156.081497 220.0
156.108505 192.0
156.581345 100.0
156.760712 52.0
157.066589 1040.0
157.599091 80.0
157.684067 84.0
157.794037 152.0
157.901566 204.0
158.072906 2084.0
158.281937 56.0
158.384613 88.0
158.592575 48.0
159.07756 304.0
160.072296 76.0
160.208298 96.0
160.227997 136.0
161.094421 608.0
162.08548 224.0
162.207138 96.0
163.077728 216.0
165.634369 136.0
165.854721 72.0
166.049576 88.0
166.979279 132.0
169.068954 172.0
171.082504 104.0
172.782013 204.0
173.097397 2068.0
173.16745 80.0
173.638535 60.0
173.788055 72.0
173.827423 68.0
174.105957 220.0
176.104614 264.0
176.493088 60.0
176.789337 72.0
177.072601 168.0
179.107101 184.0
180.916153 200.0
183.089752 144.0
190.12706 188.0
191.125885 188.0
197.666183 128.0
204.086151 148.0
208.136017 348.0
211.033508 88.0
211.189667 52.0
220.729782 164.0
225.602783 80.0
232.180435 252.0
233.433014 52.0
242.350174 148.0
250.180405 1152.0
250.272339 96.0
250.488602 60.0
251.18132 444.0
251.289322 108.0
252.182968 204.0
269.976929 104.0
274.099915 108.0
308.98822 44.0
331.697174 84.0
344.893188 96.0
376.999054 92.0
456.600403 168.0
470.669159 80.0
484.933868 172.0
488.69278 112.0
491.596527 124.0
502.213043 144.0
508.701141 60.0
514.761169 64.0
541.215088 52.0
658.834045 84.0
733.431458 156.0
733.868103 168.0
760.936401 112.0
771.713013 56.0
792.243835 136.0
810.220398 128.0
833.510498 232.0
840.102661 180.0
847.664978 192.0
850.878235 140.0
858.937927 180.0
861.319397 252.0
878.282715 156.0
882.848022 184.0
885.890259 92.0
886.263489 208.0
896.781799 160.0
899.871765 172.0
907.362183 148.0
917.437805 196.0
927.872192 168.0
936.714172 140.0
941.263794 44.0
951.942932 192.0
955.1203 180.0
962.31189 220.0
962.373657 116.0
964.263855 164.0
965.951782 180.0
987.629089 120.0
988.817871 220.0
990.921814 228.0
994.571472 68.0
997.372803 124.0
999.882263 112.0
1015.89325 120.0
1016.940247 160.0
1022.991394 52.0
1024.825562 148.0
1026.412598 112.0
1027.088623 188.0
1028.319946 172.0
1028.466797 192.0
1028.926392 132.0
1030.638062 32.0
1036.492676 212.0
1039.756714 152.0
1043.154419 164.0
1051.682495 156.0
1053.425903 172.0
1053.645508 184.0
1053.949219 192.0
1055.862671 116.0
1061.418701 196.0
1063.721802 196.0
1064.948975 132.0
1065.351807 76.0
1069.767212 168.0
1070.730835 140.0
1077.044189 140.0
1079.96582 128.0
1083.349976 116.0
1086.299805 32.0
1087.946899 208.0
1091.060791 156.0
1091.987915 132.0
1092.047119 168.0
1093.770996 240.0
1093.922363 164.0
1095.733398 160.0
1103.197144 76.0
1109.956787 124.0
1111.117554 148.0
1114.25769 156.0
1116.996582 260.0
1121.484253 176.0
1122.257568 132.0
1122.871094 164.0
1124.585693 160.0
1125.266602 172.0
1125.406738 120.0
1125.820801 128.0
1126.274902 144.0
1127.45752 188.0
1139.142456 64.0
1140.002441 188.0
1142.786133 200.0
1143.169678 76.0
1147.65564 156.0
1150.610718 208.0
1151.839722 208.0
1152.035645 144.0
1154.083374 184.0
1154.347168 208.0
1155.199341 92.0
1155.253418 232.0
1156.403687 232.0
1161.241089 168.0
1161.756592 172.0
1168.182861 80.0
1173.051636 176.0
1174.299438 168.0
1179.536377 248.0
1180.384155 148.0
1181.553711 156.0
1182.101074 152.0
1184.339722 180.0
1185.586548 240.0
1185.888184 128.0
1187.314209 176.0
1187.986328 160.0
1192.250122 184.0
1192.868652 192.0
1193.281128 160.0
1197.230713 140.0
1197.926392 112.0
1202.842896 172.0
1204.35498 200.0
1207.755615 148.0
1208.39209 140.0
1210.489258 104.0
1210.884033 156.0
1211.050171 176.0
1211.82605 40.0
1213.690552 192.0
1214.578125 112.0
1217.187622 144.0
1217.638916 112.0
1217.69458 208.0
1218.00708 48.0
1227.492798 220.0
1228.573853 148.0
1230.102051 204.0
1230.751343 156.0
1231.219238 200.0
1241.387207 184.0
1243.365479 212.0
1244.228882 224.0
1247.003418 168.0
1247.593872 184.0
1248.887695 172.0
1249.450439 184.0
1250.667725 220.0
1250.759277 136.0
1250.871948 272.0
1253.851196 220.0
1255.380981 100.0
1256.764404 180.0
1257.073975 176.0
1261.777954 64.0
1262.447998 180.0
1263.70874 140.0
1265.164307 196.0
1266.81665 232.0
1270.368042 124.0
1271.914917 96.0
1273.988403 184.0
1275.146606 124.0
1277.578369 128.0
1280.048096 64.0
1280.37561 152.0
1281.821655 220.0
1282.099609 196.0
1282.491577 60.0
1285.686646 196.0
1287.614258 184.0
1289.822021 132.0
1293.620239 168.0
1293.913696 224.0
1294.207275 184.0
1294.429199 200.0
1298.678955 100.0
1299.26001 188.0
1303.999023 176.0
1304.308105 136.0
1308.199707 152.0
1313.560913 148.0
1313.77002 168.0
1318.253662 152.0
1320.675537 128.0
1320.733398 128.0
1321.572632 124.0
1324.30896 172.0
1327.113281 156.0
1327.214844 80.0
1330.312744 36.0
1331.982788 112.0
1333.116211 52.0
1335.042603 72.0
1338.899536 364.0
1339.037964 196.0
1339.307373 152.0
1341.653809 204.0
1342.608887 196.0
1342.980835 136.0
1343.075684 148.0
1346.308838 192.0
1347.49939 160.0
1348.259277 200.0
1351.52063 120.0
1351.718262 164.0
1355.108276 172.0
1358.78125 176.0
1361.805542 68.0
1362.341797 144.0
1365.363525 172.0
1366.532227 68.0
1368.975952 140.0
1371.915649 204.0
1372.601318 184.0
1374.165039 72.0
1374.755249 180.0
1374.947144 184.0
1376.512085 144.0
1378.890869 140.0
1379.105225 144.0
1383.935791 164.0
1384.617065 128.0
1384.876221 168.0
1385.394775 124.0
1386.113403 132.0
1387.388184 60.0
1389.457275 80.0
1393.770874 180.0
1394.090454 104.0
1397.518188 144.0
1400.980103 168.0
1401.553711 188.0
1406.505615 144.0
1407.700073 144.0
1408.865234 184.0
1409.545166 200.0
1414.630737 156.0
1415.821289 200.0
1417.094604 140.0
1418.061279 220.0
1418.271118 128.0
1419.508179 132.0
1421.150757 228.0
1423.22229 192.0
1424.73938 176.0
1425.73877 220.0
1427.332397 152.0
1428.994629 164.0
1431.455811 144.0
1432.035767 168.0
1433.188232 240.0
1438.248413 256.0
1439.803711 192.0
1441.337158 236.0
1442.168457 136.0
1442.432983 248.0
1442.750488 216.0
1444.762085 224.0
1446.230103 56.0
1447.297485 188.0
1449.638062 216.0
1452.154907 232.0
1457.886719 236.0
1458.031128 68.0
1458.297119 196.0
1459.551392 168.0
1461.247437 68.0
1465.00061 180.0
1465.640625 192.0
1466.28833 104.0
1466.753296 204.0
1467.256348 200.0
1468.59082 180.0
1470.109009 148.0
1471.192749 148.0
1472.666504 188.0
1473.155396 176.0
1475.096313 196.0
1475.769043 140.0
1476.174316 172.0
1477.474487 96.0
1477.788208 44.0
1478.629883 128.0
1480.275757 156.0
1483.010742 124.0
1483.539551 184.0
1483.909668 60.0
1485.0271 148.0
1485.211182 136.0
1486.009033 128.0
1490.807983 168.0
1491.684204 172.0
1492.391479 140.0
1494.360352 212.0
1494.891235 112.0
1496.207397 156.0
1496.392212 196.0
1497.115967 208.0
1500.02063 168.0
1500.606445 260.0
