>compound SphingomyelinSM_d18_0_18_1_9Z
>formula C41H83N2O6P
>ionization [M+H]+
>parentmass 731.606
#inchi InChI=1S/C41H83N2O6P/c1-6-8-10-12-14-16-18-20-21-23-25-27-29-31-33-35-41(45)42-39(38-49-50(46,47)48-37-36-43(3,4)5)40(44)34-32-30-28-26-24-22-19-17-15-13-11-9-7-2/h20-21,39-40,44H,6-19,22-38H2,1-5H3,(H-,42,45,46,47)
#inchikey XYLWKHKCYHMVMA
#Ion_Source ESI
#Instrument Q-TOF
#Compound_Source Commercial standard
#PI Dorrestein
#Data_Collector Amina
#Scan -1
#Precursor_MZ 731.606
#ExactMass 730.599
#Charge 1
#CAS_Number N/A
#Pubmed_ID N/A
#Smiles CCCCCCCCCCCCCCCC(C(COP(=O)([O-])OCC[N+](C)(C)C)NC(=O)CCCCCCCC=CCCCCCCCC)O
#INCHI_AUX N/A
#Library_Class 2
#SpectrumID CCMSLIB00000077200
#IonMode Positive
#UpdateWorkflowName UPDATE-SINGLE-ANNOTATED-SILVER
#LibraryQualityString Silver
#TaskID 9bb88c04c6204bd4ae13def29ea30c87
##Scan# 3446
#SpectrumFile Sphingomyelin.mzXML
#LibraryName gnps_library.mgf
#MQScore -1
#Organism Standards_Silver
#TIC_Query 0
#RT_Query -1
#MZErrorPPM -1
#SharedPeaks 0
#MassDiff 0
#LibMZ -1
#SpecMZ 731.606
#SpecCharge 0
#internalFilename spec-00000.mgf

>collision 10
76.473808 160.0
94.124031 144.0
94.359604 144.0
104.107094 196.0
124.996895 140.0
158.80188 116.0
161.035461 116.0
183.641098 112.0
184.073959 7044.0
184.234558 188.0
184.261566 92.0
184.32637 92.0
185.075134 500.0
186.079575 168.0
186.197098 152.0
194.592117 112.0
254.729248 112.0
264.269135 696.0
264.590942 80.0
265.273895 320.0
265.329132 76.0
265.51709 100.0
267.227875 88.0
278.284454 268.0
284.282318 120.0
308.301788 128.0
315.015503 164.0
318.31076 220.0
353.125153 148.0
388.270844 124.0
394.452484 280.0
417.321777 400.0
418.305756 400.0
419.296509 140.0
419.329102 148.0
420.886444 112.0
424.640778 156.0
428.152435 92.0
429.392151 92.0
430.309052 392.0
431.17868 92.0
431.294312 176.0
431.327362 132.0
432.310944 340.0
439.703796 96.0
445.314667 128.0
446.25116 156.0
446.339417 144.0
447.230713 192.0
447.334412 6252.0
447.718781 80.0
447.798767 92.0
448.244324 140.0
448.334229 1108.0
449.337036 252.0
450.344635 116.0
451.024445 104.0
451.396271 96.0
462.275146 132.0
462.326447 84.0
485.301849 144.0
528.205017 108.0
528.442749 76.0
528.525024 144.0
530.250366 140.0
530.534058 148.0
531.540222 268.0
531.584045 124.0
533.773743 80.0
558.482239 84.0
563.556213 84.0
616.668335 144.0
654.519287 692.0
655.506531 180.0
656.51123 128.0
672.543213 188.0
705.453857 88.0
708.743652 88.0
709.10376 128.0
711.491272 104.0
711.540649 140.0
711.603882 200.0
713.049927 76.0
713.432373 112.0
713.589844 2040.0
714.1073 88.0
714.190247 68.0
714.245483 116.0
714.46875 112.0
714.598572 2004.0
714.782471 100.0
714.862244 76.0
714.936707 100.0
715.609009 592.0
716.218994 160.0
716.456543 160.0
716.606201 252.0
716.824646 100.0
717.747498 96.0
718.072632 88.0
719.240662 72.0
726.566956 164.0
728.460754 76.0
730.462891 200.0
730.500061 360.0
730.582825 136.0
730.969971 188.0
731.598083 344.0
731.943604 76.0
732.596741 796.0
732.668152 124.0
733.614929 176.0
734.615112 184.0
734.776855 100.0
735.472534 92.0
737.399536 136.0
744.166565 76.0
885.174438 176.0
988.196777 88.0
1014.391602 224.0
1019.897766 212.0
1053.680542 184.0
1112.968262 104.0
1134.765869 180.0
1160.783203 244.0
1246.868652 88.0
1369.604614 176.0
1438.94043 116.0
1768.283569 132.0
1773.431274 180.0
1777.21936 192.0
1958.268433 156.0
