>compound MLS001160293-01!N-(3,5-dimethoxyphenyl)-2-[(5-hydroxy-2,2-dimethyl-4-oxo-3H-chromen-7-yl)oxy]acetamide
>formula C21H23NO7
>ionization [M+H]+
>parentmass 402.155
#inchi InChI=1S/C21H23NO7/c1-21(2)10-17(24)20-16(23)8-15(9-18(20)29-21)28-11-19(25)22-12-5-13(26-3)7-14(6-12)27-4/h5-9,23H,10-11H2,1-4H3,(H,22,25)
#inchikey FBZHLBKQISORMN
#Ion_Source LC-ESI
#Instrument qTof
#Compound_Source NIH Natural Product Library
#PI Dorrestein
#Data_Collector VVP/LMS
#Scan -1
#Precursor_MZ 402.155
#ExactMass 401.147
#Charge 1
#CAS_Number N/A
#Pubmed_ID N/A
#Smiles COc1cc(NC(=O)COc2cc(O)c3C(=O)CC(C)(C)Oc3c2)cc(OC)c1
#INCHI_AUX N/A
#Library_Class 1
#SpectrumID CCMSLIB00000080152
#IonMode Positive
#UpdateWorkflowName UPDATE-SINGLE-ANNOTATED-GOLD
#LibraryQualityString Gold
#TaskID b1d8e8f6646f4e71acdff9ca3d919d08
##Scan# 2340
#SpectrumFile p2-H04_GH4_01_18064.mzXML
#LibraryName NIH_Natural_Products_Library.mgf
#MQScore -1
#Organism NIH_Natural_Products_Library
#TIC_Query 0
#RT_Query -1
#MZErrorPPM -1
#SharedPeaks 0
#MassDiff 0
#LibMZ -1
#SpecMZ 402.155
#SpecCharge 0
#internalFilename spec-00000.mgf

>collision 10
95.02623 140.0
95.049133 156.0
95.085258 168.0
95.108772 200.0
95.158432 144.0
95.193031 92.0
95.232224 120.0
95.296585 216.0
95.442108 408.0
95.521851 188.0
95.564651 152.0
95.584106 68.0
95.751526 192.0
95.825554 192.0
95.887909 200.0
95.958084 192.0
96.045357 576.0
96.11998 172.0
96.313263 80.0
96.379684 180.0
96.395317 228.0
96.414864 128.0
96.469589 156.0
96.561935 160.0
96.598656 144.0
96.637787 136.0
96.714111 148.0
96.737602 136.0
96.753258 112.0
96.833549 140.0
96.851173 172.0
96.90799 84.0
96.962852 148.0
97.015778 188.0
97.029503 320.0
97.068718 208.0
97.086365 60.0
97.133438 256.0
97.157677 272.0
97.172676 248.0
97.188377 140.0
97.302216 140.0
97.335594 208.0
97.370018 136.0
97.388618 124.0
97.47506 168.0
97.512405 264.0
97.556114 252.0
97.657654 224.0
97.683472 44.0
97.752335 228.0
97.805473 144.0
97.92952 144.0
97.959282 184.0
98.029999 136.0
98.083214 76.0
98.142357 92.0
98.240967 124.0
98.351654 132.0
98.367264 152.0
98.411179 248.0
98.471916 248.0
98.515373 140.0
98.560822 172.0
98.663597 124.0
98.771408 200.0
98.804016 116.0
98.833694 132.0
98.885147 140.0
98.926712 52.0
99.006432 308.0
99.045525 112.0
99.134682 152.0
99.238518 188.0
99.259575 128.0
99.34684 76.0
99.436134 164.0
99.473846 188.0
99.635284 220.0
99.753944 188.0
99.855354 164.0
99.966766 148.0
100.00856 116.0
100.074013 152.0
100.102127 172.0
100.163872 216.0
100.285423 200.0
100.363167 80.0
100.385101 184.0
100.44294 80.0
100.534721 92.0
100.632538 120.0
100.662483 216.0
100.680542 216.0
100.704964 148.0
100.752365 180.0
100.768349 148.0
100.860283 180.0
100.906258 196.0
100.978249 168.0
101.016251 156.0
101.079018 248.0
101.326561 164.0
101.4869 176.0
101.64537 152.0
101.70816 208.0
101.785881 184.0
101.929352 180.0
101.949448 180.0
101.969055 224.0
102.028801 160.0
102.093346 120.0
102.155693 180.0
102.232155 88.0
102.254295 176.0
102.288513 144.0
102.331535 248.0
102.445587 144.0
102.51812 192.0
102.602783 268.0
102.655205 124.0
102.867058 220.0
102.949837 248.0
103.137741 204.0
103.228722 168.0
103.244896 132.0
103.265121 160.0
103.313812 176.0
103.463432 144.0
103.481651 192.0
103.503922 88.0
103.588989 108.0
103.732864 232.0
103.761246 148.0
103.790985 120.0
103.813965 180.0
103.852501 164.0
103.878876 160.0
103.924347 212.0
104.048332 1056.0
104.148849 192.0
104.193542 128.0
104.234177 188.0
104.282951 132.0
104.333771 200.0
104.396805 224.0
104.433411 188.0
104.618591 128.0
104.638947 192.0
104.788734 184.0
104.832458 168.0
104.846725 144.0
104.869141 44.0
104.942528 180.0
105.028183 184.0
105.050575 176.0
105.115913 148.0
105.354805 80.0
105.382996 160.0
105.450844 68.0
105.532616 132.0
105.560448 172.0
105.835442 168.0
105.862061 172.0
105.89859 172.0
105.993164 184.0
106.064705 3980.0
106.098503 148.0
106.120247 220.0
106.173561 140.0
106.19519 176.0
106.2351 84.0
106.288445 152.0
106.440918 256.0
106.51223 80.0
106.541588 204.0
106.559479 156.0
106.610847 204.0
106.717735 88.0
106.818512 124.0
106.86377 152.0
106.94165 232.0
107.014923 504.0
107.049736 872.0
107.068771 620.0
107.083755 124.0
107.104637 36.0
107.209717 192.0
107.230324 88.0
107.360214 212.0
107.420029 240.0
107.585121 152.0
107.618156 76.0
107.71315 88.0
107.740005 120.0
107.809792 148.0
107.882607 160.0
107.934296 116.0
108.005508 192.0
108.043739 668.0
108.066032 280.0
108.080009 336.0
108.358612 152.0
108.40728 172.0
108.511078 92.0
108.606216 184.0
108.665466 84.0
108.684135 260.0
108.717339 48.0
108.742241 160.0
108.763 196.0
108.979942 252.0
109.006439 152.0
109.028854 576.0
109.06311 1840.0
109.112 100.0
109.374123 160.0
109.432411 140.0
109.605293 196.0
109.624046 172.0
109.640358 228.0
109.669899 136.0
109.803337 172.0
109.880524 172.0
110.04332 144.0
110.062714 620.0
110.137291 44.0
110.170715 228.0
110.262657 156.0
110.285645 228.0
110.398544 204.0
110.438286 204.0
110.467567 172.0
110.626617 168.0
110.681053 168.0
110.704086 48.0
110.77739 64.0
110.871819 184.0
110.938759 200.0
111.005013 332.0
111.041054 132.0
111.067459 2540.0
111.083984 208.0
111.170387 236.0
111.234543 172.0
111.268135 168.0
111.387833 132.0
111.484482 144.0
111.539131 136.0
111.675804 160.0
111.772583 176.0
111.903084 152.0
111.974678 136.0
112.012596 324.0
112.051537 212.0
112.077011 188.0
112.118713 208.0
112.164314 108.0
112.210075 164.0
112.307701 136.0
112.476501 116.0
112.503944 212.0
112.522949 144.0
112.582069 156.0
112.630653 44.0
112.732063 144.0
112.765877 140.0
112.958298 192.0
113.117004 120.0
113.324554 120.0
113.419922 152.0
113.470795 148.0
113.605133 140.0
113.727486 140.0
113.812759 120.0
113.907974 68.0
114.231087 144.0
114.318321 132.0
114.38385 224.0
114.544014 200.0
114.584488 188.0
114.624969 84.0
114.67186 160.0
114.688911 224.0
114.827499 152.0
114.848831 196.0
114.940567 136.0
114.972572 188.0
115.025932 224.0
115.055267 168.0
115.068893 164.0
115.357048 140.0
115.620132 28.0
115.635117 124.0
115.652237 88.0
115.675789 180.0
115.742157 88.0
115.776421 180.0
115.881378 60.0
115.896378 284.0
115.994965 188.0
116.048683 232.0
116.110748 156.0
116.164162 200.0
116.183678 144.0
116.268646 248.0
116.340347 116.0
116.376846 176.0
116.697708 312.0
116.741272 188.0
116.757202 220.0
116.858299 176.0
116.90094 172.0
116.921959 200.0
116.970215 48.0
117.036949 172.0
117.071068 296.0
117.155411 96.0
117.284348 144.0
117.328308 212.0
117.364471 240.0
117.504669 164.0
117.603935 368.0
117.673019 180.0
117.688133 212.0
117.726707 176.0
117.834084 156.0
117.895508 208.0
117.98439 168.0
118.074951 116.0
118.144165 180.0
118.200424 184.0
118.228554 168.0
118.268013 208.0
118.293488 140.0
118.345444 196.0
118.388519 108.0
118.417801 156.0
118.426521 64.0
118.435249 120.0
118.466728 100.0
118.601082 120.0
118.629036 152.0
118.806877 164.0
118.848312 140.0
118.956833 120.0
119.035675 1136.0
119.06974 240.0
119.19574 160.0
119.219643 140.0
119.345726 104.0
119.410965 192.0
119.534973 132.0
119.552376 152.0
119.612976 152.0
119.704765 60.0
119.760063 164.0
119.785355 200.0
119.85289 164.0
119.870323 144.0
119.964043 184.0
119.988022 140.0
120.018547 132.0
120.044136 924.0
120.064346 300.0
120.404808 72.0
120.420097 176.0
120.468147 152.0
120.504616 168.0
120.564293 136.0
120.634232 116.0
120.822311 176.0
121.023666 156.0
121.052689 4564.0
121.183563 28.0
121.244919 388.0
121.426888 172.0
121.503662 224.0
121.525604 88.0
121.562912 192.0
121.661682 160.0
121.769279 84.0
121.977043 232.0
122.039543 608.0
122.059158 1672.0
122.083557 100.0
122.112144 32.0
122.15834 172.0
122.24855 92.0
122.305771 36.0
122.3564 140.0
122.378418 84.0
122.445038 128.0
122.739784 100.0
122.755219 156.0
122.843445 156.0
122.858887 168.0
123.008286 372.0
123.044273 444.0
123.067223 3076.0
123.098831 192.0
123.114929 164.0
123.154686 156.0
123.174568 36.0
123.234215 72.0
123.301331 108.0
123.338081 228.0
123.444206 48.0
123.468536 208.0
123.528252 76.0
123.676514 164.0
123.83815 220.0
123.880234 72.0
123.928978 220.0
123.944489 128.0
123.97551 68.0
124.018082 136.0
124.049683 536.0
124.074631 1040.0
124.15065 136.0
124.19944 232.0
124.226059 176.0
124.255287 184.0
124.297058 48.0
124.317032 216.0
124.416916 104.0
124.452438 140.0
124.539047 164.0
124.563484 112.0
124.614059 188.0
124.659019 136.0
124.734589 208.0
124.830193 52.0
124.903587 180.0
124.956978 196.0
124.999252 36.0
125.021896 828.0
125.058495 1016.0
125.077156 156.0
125.099411 188.0
125.339951 120.0
125.373383 68.0
125.391212 208.0
125.467995 148.0
125.582954 168.0
125.618645 120.0
125.634262 140.0
125.681114 200.0
125.748062 156.0
125.835121 244.0
125.852989 144.0
125.873085 72.0
126.064987 468.0
126.163544 76.0
126.239571 112.0
126.445389 92.0
126.50135 192.0
126.5215 104.0
126.552841 196.0
126.57299 236.0
126.734268 188.0
126.754433 156.0
126.837364 196.0
126.86618 56.0
126.931526 92.0
127.042213 228.0
127.066101 140.0
127.200752 152.0
127.33181 284.0
127.363708 148.0
127.526871 152.0
127.585922 220.0
127.636612 224.0
127.731071 156.0
127.798103 156.0
127.899841 200.0
127.960625 120.0
128.044922 152.0
128.073227 144.0
128.197144 208.0
128.218658 180.0
128.255737 132.0
128.485748 136.0
128.539902 152.0
128.621429 196.0
128.709198 156.0
128.813095 96.0
128.855942 128.0
129.019272 184.0
129.086578 152.0
129.117905 136.0
129.148819 184.0
129.204193 32.0
129.244919 220.0
129.317337 140.0
129.550568 112.0
129.772675 108.0
129.958908 192.0
130.026749 148.0
130.063065 140.0
130.115265 200.0
130.185669 140.0
130.406036 192.0
130.442413 64.0
130.47699 172.0
130.644806 40.0
130.665283 200.0
130.694855 220.0
130.858734 208.0
130.963486 156.0
130.995377 152.0
131.045578 128.0
131.072845 36.0
131.090988 196.0
131.218719 152.0
131.245316 216.0
131.273453 196.0
131.352158 200.0
131.380646 188.0
131.410309 196.0
131.430847 296.0
131.652267 188.0
131.677399 356.0
131.809891 120.0
131.899033 124.0
131.981339 128.0
132.044312 244.0
132.084396 252.0
132.18721 96.0
132.236893 224.0
132.302048 116.0
132.358887 164.0
132.428329 160.0
132.537552 112.0
132.68425 128.0
132.840195 224.0
133.050323 360.0
133.078873 28.0
133.09494 196.0
133.173035 228.0
133.276413 60.0
133.306274 224.0
133.335556 108.0
133.575287 216.0
133.607498 72.0
133.676468 164.0
133.699539 236.0
133.724854 180.0
133.879105 200.0
133.895218 116.0
133.934494 128.0
133.959717 128.0
133.975845 168.0
134.005798 148.0
134.05983 28568.0
134.095871 268.0
134.149597 192.0
134.222839 224.0
134.267563 100.0
134.297745 56.0
134.427765 116.0
134.517776 60.0
134.663849 168.0
134.709442 204.0
134.726395 180.0
134.742523 88.0
134.828568 224.0
134.876724 196.0
134.965988 164.0
135.007629 2360.0
135.041473 648.0
135.062347 2788.0
135.079041 1992.0
135.13176 256.0
135.160294 132.0
135.208893 176.0
135.285278 40.0
135.313049 148.0
135.352417 212.0
135.541336 108.0
135.570175 180.0
135.614212 128.0
135.707306 164.0
135.72316 76.0
135.75795 132.0
135.829849 124.0
135.857681 288.0
135.946014 60.0
135.982986 120.0
136.00827 396.0
136.039093 932.0
136.075562 25644.0
136.134491 140.0
136.150146 76.0
136.198181 100.0
136.224472 52.0
136.280243 136.0
136.351501 60.0
136.389465 172.0
136.419678 200.0
136.498734 72.0
136.517334 64.0
136.53595 36.0
136.573593 152.0
136.663895 52.0
136.698364 172.0
136.825714 204.0
136.898987 144.0
136.922455 212.0
136.943237 84.0
136.987503 164.0
137.022446 1348.0
137.059372 1640.0
137.078125 2588.0
137.213608 116.0
137.292908 128.0
137.321655 124.0
137.425812 52.0
137.456131 176.0
137.561172 236.0
137.582184 212.0
137.63121 60.0
137.675537 172.0
137.710602 188.0
137.757324 208.0
137.858994 140.0
137.981674 76.0
138.0112 180.0
138.031937 416.0
138.066925 2436.0
138.089432 908.0
138.180481 56.0
138.196854 140.0
138.344299 76.0
138.409866 60.0
138.5457 156.0
138.676926 84.0
138.747253 52.0
138.803528 68.0
138.857468 184.0
138.932526 104.0
138.979462 116.0
138.99588 180.0
139.038147 628.0
139.065048 3004.0
139.124969 252.0
139.168884 188.0
139.218887 40.0
139.289352 172.0
139.376282 84.0
139.40683 84.0
139.512604 60.0
139.594894 172.0
139.664825 196.0
139.719559 200.0
139.858398 40.0
139.96669 208.0
139.992477 152.0
140.016144 48.0
140.045197 336.0
140.062042 152.0
140.115082 48.0
140.2117 216.0
140.236252 172.0
140.471054 128.0
140.518677 152.0
140.59375 204.0
140.832214 156.0
141.015518 188.0
141.072693 172.0
141.153625 260.0
141.274246 196.0
141.451736 208.0
141.510925 116.0
141.64592 124.0
141.702774 128.0
141.805527 176.0
141.935059 80.0
142.112961 76.0
142.198822 192.0
142.267227 180.0
142.402573 160.0
142.485718 128.0
142.62117 192.0
142.647308 48.0
142.701996 176.0
142.723389 80.0
142.778091 88.0
142.835175 108.0
143.014908 120.0
143.0784 176.0
143.099335 36.0
143.16124 132.0
143.211258 40.0
143.25325 180.0
143.308929 152.0
143.337524 144.0
143.410553 200.0
143.542526 204.0
143.676102 108.0
143.778763 156.0
143.852707 220.0
144.079819 340.0
144.10347 188.0
144.129745 184.0
144.175156 112.0
144.263596 204.0
144.32814 156.0
144.538635 144.0
144.631973 256.0
144.713379 144.0
144.745026 108.0
144.770844 112.0
144.805481 208.0
145.0224 136.0
145.068008 328.0
145.107712 144.0
145.127884 196.0
145.22142 196.0
145.281387 156.0
145.377365 64.0
145.439758 180.0
145.461365 224.0
145.516586 180.0
145.538193 192.0
145.600632 160.0
145.630264 224.0
145.650269 228.0
145.723145 136.0
145.776001 52.0
145.874542 124.0
146.071732 128.0
146.179443 408.0
146.220917 148.0
146.242569 180.0
146.271454 112.0
146.297943 112.0
146.319611 116.0
146.384613 128.0
146.423157 172.0
146.478546 144.0
146.507462 212.0
146.524323 116.0
146.555649 72.0
146.601425 100.0
146.623123 220.0
146.76535 184.0
146.837692 48.0
146.980026 120.0
147.006012 320.0
147.037201 324.0
147.042953 376.0
147.074921 160.0
147.12001 144.0
147.14415 216.0
147.22142 48.0
147.366364 88.0
147.395355 188.0
147.603241 176.0
147.627045 240.0
147.707245 264.0
147.750778 212.0
147.806427 152.0
147.828217 40.0
147.862091 152.0
148.041458 352.0
148.07515 208.0
148.094528 72.0
148.134018 196.0
148.215652 156.0
148.414413 168.0
148.618164 160.0
148.640015 184.0
148.673981 164.0
148.722519 144.0
148.78508 136.0
148.812347 176.0
148.841476 148.0
148.950775 148.0
149.035782 232.0
149.057327 980.0
149.186493 136.0
149.235123 148.0
149.317795 128.0
149.344559 96.0
149.361572 176.0
149.39563 48.0
149.441864 220.0
149.480789 148.0
149.548935 208.0
149.619537 152.0
149.65361 264.0
149.716049 140.0
150.055038 696.0
150.221481 128.0
150.267822 204.0
150.335236 160.0
150.372757 68.0
150.453308 168.0
150.504593 124.0
150.53389 212.0
150.555145 188.0
150.597382 164.0
150.729584 176.0
151.001022 216.0
151.03598 1272.0
151.061966 5112.0
151.145004 76.0
151.17569 208.0
151.206192 96.0
151.2323 108.0
151.255142 52.0
151.284515 148.0
151.488693 120.0
151.63443 132.0
151.66156 52.0
151.852997 112.0
151.992844 84.0
152.037018 188.0
152.068848 1600.0
152.115555 168.0
152.15242 156.0
152.199036 92.0
152.241669 188.0
152.30954 164.0
152.410278 228.0
152.429932 32.0
152.47171 56.0
152.501205 180.0
152.535614 284.0
152.60199 88.0
152.660919 108.0
152.690521 144.0
152.733536 188.0
152.779068 88.0
152.815292 232.0
152.837296 216.0
152.862732 120.0
152.940018 220.0
152.965668 160.0
152.992844 144.0
153.018433 54240.0
153.056107 340.0
153.078781 1544.0
153.116928 188.0
153.136765 88.0
153.177872 116.0
153.215576 92.0
153.262421 72.0
153.306625 172.0
153.339005 92.0
153.353897 64.0
153.420715 88.0
153.482803 72.0
153.593903 124.0
153.639908 124.0
153.692001 276.0
153.735092 132.0
153.787521 132.0
153.850677 184.0
153.881378 76.0
153.900482 84.0
153.947403 108.0
153.971802 168.0
154.02092 3944.0
154.086411 22376.0
154.151367 64.0
154.21022 148.0
154.243896 128.0
154.276031 44.0
154.320358 56.0
154.401184 188.0
154.443787 76.0
154.460312 244.0
154.478806 44.0
154.498596 68.0
154.515915 56.0
154.54808 48.0
154.572617 96.0
154.586166 144.0
154.63736 196.0
154.667801 96.0
154.708954 72.0
154.736191 72.0
154.768387 120.0
154.835236 120.0
154.852585 80.0
154.873276 156.0
154.916794 108.0
154.959106 80.0
154.97644 60.0
154.99379 136.0
155.027695 648.0
155.086823 3192.0
155.162338 96.0
155.191452 172.0
155.231979 128.0
155.257736 76.0
155.286972 136.0
155.311127 144.0
155.365692 88.0
155.474869 56.0
155.494736 60.0
155.735565 56.0
155.772293 220.0
155.838455 144.0
155.882156 156.0
155.914459 60.0
155.951736 144.0
156.003937 92.0
156.026001 192.0
156.068222 140.0
156.09404 388.0
156.115829 120.0
156.135727 84.0
156.237701 108.0
156.29245 176.0
156.327286 56.0
156.364609 268.0
156.391983 108.0
156.45549 164.0
156.506516 56.0
156.563782 52.0
156.720718 192.0
156.76059 120.0
157.074738 140.0
157.231934 220.0
157.306305 40.0
157.376709 60.0
157.404175 136.0
157.559036 72.0
157.778976 228.0
157.823975 148.0
158.016571 252.0
158.074112 52.0
158.139191 196.0
158.171722 160.0
158.324463 148.0
158.389572 232.0
158.607574 204.0
158.943649 168.0
159.016357 168.0
159.074158 168.0
159.164536 184.0
159.478577 132.0
159.760208 44.0
159.875961 76.0
160.077347 48.0
160.205811 48.0
160.304062 124.0
160.457825 144.0
160.483032 172.0
160.631836 148.0
160.737808 308.0
161.050858 224.0
161.076111 100.0
161.124115 64.0
161.192337 188.0
161.311127 76.0
161.384445 52.0
161.427429 184.0
161.756348 200.0
161.793076 228.0
161.824692 224.0
161.976654 60.0
162.009583 144.0
162.055145 5280.0
162.090652 140.0
162.11853 236.0
162.138809 244.0
162.166687 184.0
162.194565 160.0
162.290909 140.0
162.311188 192.0
162.389816 212.0
162.542023 132.0
162.615616 68.0
162.649124 160.0
162.745087 112.0
162.859375 136.0
162.8797 64.0
162.927963 40.0
162.960571 144.0
163.073395 3380.0
163.149475 148.0
163.261597 232.0
163.296539 172.0
163.454269 76.0
163.698654 36.0
163.719025 40.0
163.790344 108.0
163.859131 60.0
164.03418 540.0
164.071335 1024.0
164.182846 108.0
164.233856 248.0
164.323151 56.0
164.356323 60.0
164.478821 108.0
164.580948 140.0
164.611588 156.0
164.639679 168.0
164.746948 112.0
164.787827 40.0
164.882385 132.0
164.975281 100.0
165.01796 13432.0
165.047165 156.0
165.068039 160.0
165.120148 60.0
165.150833 64.0
165.191772 48.0
165.209671 104.0
165.276199 88.0
165.304276 136.0
165.345291 144.0
165.407913 164.0
165.450241 244.0
165.50351 124.0
165.562912 56.0
165.605438 336.0
165.62822 184.0
165.648438 112.0
165.67305 92.0
165.712646 236.0
165.770416 180.0
165.788345 76.0
165.837158 164.0
165.898636 152.0
165.960098 168.0
166.02243 1112.0
166.086685 102368.0
166.141006 436.0
166.156113 264.0
166.219925 308.0
166.252853 128.0
166.263199 76.0
166.273422 92.0
166.305344 104.0
166.31488 68.0
166.322464 84.0
166.330811 116.0
166.338989 76.0
166.366943 84.0
166.386276 144.0
166.402618 68.0
166.432938 100.0
166.50766 192.0
166.551056 88.0
166.596512 180.0
166.601685 188.0
166.650726 56.0
166.678818 56.0
166.696808 48.0
166.768005 96.0
166.815033 176.0
166.897415 180.0
166.920441 40.0
166.956451 60.0
167.025314 808.0
167.089386 10132.0
167.131058 64.0
167.157104 44.0
167.193604 196.0
167.229172 96.0
167.296097 80.0
167.31813 64.0
167.323837 36.0
167.33371 92.0
167.375916 188.0
167.409897 96.0
167.432556 80.0
167.468628 48.0
167.520996 108.0
167.577301 64.0
167.630936 36.0
167.726974 180.0
167.759796 40.0
167.829407 64.0
167.855194 72.0
167.88356 36.0
167.944702 132.0
167.949921 44.0
168.012772 128.0
168.056396 192.0
168.091812 856.0
168.148514 40.0
168.170807 96.0
168.176544 136.0
168.221573 100.0
168.239639 156.0
168.290054 152.0
168.314514 132.0
168.348083 68.0
168.379074 96.0
168.407486 100.0
168.424332 92.0
168.435043 48.0
168.444458 76.0
168.464874 92.0
168.510818 68.0
168.534073 144.0
168.554749 64.0
168.645203 40.0
168.695236 56.0
168.758942 44.0
168.808075 128.0
168.852036 132.0
169.014236 160.0
169.042313 220.0
169.093765 164.0
169.136658 56.0
169.183258 68.0
169.284225 76.0
169.377472 72.0
169.449326 212.0
169.553665 180.0
169.685867 184.0
169.724747 196.0
169.786987 88.0
169.916687 140.0
170.015289 164.0
170.043839 196.0
170.064606 120.0
170.209991 48.0
170.2827 148.0
170.416306 88.0
170.46196 48.0
170.493149 160.0
170.599716 84.0
170.987289 132.0
171.027115 632.0
171.083603 136.0
171.3284 76.0
171.435226 116.0
171.534271 148.0
171.771576 84.0
172.031204 324.0
172.118683 52.0
172.314575 188.0
172.845367 132.0
173.062622 132.0
173.096664 124.0
173.607666 148.0
174.023773 232.0
174.053635 160.0
174.36377 104.0
174.516235 228.0
174.571457 96.0
174.742432 200.0
174.895065 48.0
175.036453 308.0
175.076385 276.0
175.416626 72.0
175.590652 116.0
175.902008 228.0
176.001892 192.0
176.047928 964.0
176.216278 152.0
176.250626 140.0
176.282333 152.0
176.827133 220.0
176.933014 124.0
177.028336 124.0
177.078156 368.0
177.270706 212.0
177.343613 48.0
177.619385 72.0
177.65387 160.0
177.746735 176.0
177.77327 104.0
178.052628 176.0
178.083832 168.0
178.437317 220.0
178.700638 88.0
179.034164 692.0
179.062698 1412.0
179.118607 72.0
179.24382 56.0
179.267807 172.0
179.427734 52.0
179.462387 60.0
179.873245 204.0
179.918625 68.0
180.001404 40.0
180.037415 132.0
180.063004 1136.0
180.087845 248.0
180.308624 76.0
180.487732 56.0
180.581329 56.0
180.664246 100.0
180.717758 164.0
180.784653 180.0
180.872986 200.0
180.990784 88.0
181.017563 72.0
181.036301 64.0
181.07753 192.0
181.148788 152.0
181.389969 240.0
181.604477 128.0
181.633987 92.0
181.711792 72.0
182.824249 88.0
182.907684 108.0
183.029266 500.0
183.061142 132.0
183.284729 168.0
183.492264 172.0
183.722855 140.0
183.969788 136.0
184.026932 120.0
184.385757 124.0
184.615555 64.0
185.091827 160.0
185.322067 72.0
185.3573 164.0
185.625656 200.0
185.975647 28.0
186.058472 140.0
186.198273 80.0
186.760895 136.0
187.060654 172.0
187.220856 104.0
187.768661 224.0
188.022385 116.0
188.068787 152.0
188.339096 148.0
188.66156 244.0
188.762726 124.0
189.039017 180.0
189.058167 120.0
189.079147 268.0
189.192291 112.0
189.260742 136.0
189.370285 140.0
189.742966 112.0
189.915726 100.0
190.08757 620.0
190.368576 144.0
190.986954 152.0
191.069443 8676.0
191.121765 188.0
191.14653 52.0
191.292389 48.0
191.441071 88.0
191.47963 140.0
191.531021 164.0
191.562271 108.0
191.677979 108.0
191.814056 260.0
191.945374 72.0
192.026276 184.0
192.072891 1664.0
192.350937 116.0
192.428238 84.0
192.453583 44.0
192.571014 68.0
192.660233 108.0
192.704437 164.0
192.776276 56.0
192.820496 108.0
192.87381 180.0
192.911713 112.0
192.964233 112.0
193.013153 17308.0
193.049149 1112.0
193.073853 472.0
193.106369 60.0
193.151398 124.0
193.185486 108.0
193.221451 72.0
193.246353 72.0
193.271255 68.0
193.334396 148.0
193.349487 104.0
193.455139 136.0
193.53421 168.0
193.579483 80.0
193.625595 96.0
193.809784 156.0
193.951202 124.0
193.974716 60.0
194.015579 1404.0
194.081802 17452.0
194.157715 88.0
194.181839 120.0
194.265884 212.0
194.296402 68.0
194.335251 72.0
194.406998 112.0
194.487885 40.0
194.539993 160.0
194.562714 92.0
194.594391 88.0
194.651688 144.0
194.698898 52.0
194.843338 60.0
194.865555 92.0
194.987839 112.0
195.012848 192.0
195.043427 124.0
195.084396 2020.0
195.210236 80.0
195.251953 84.0
195.36322 112.0
195.580261 64.0
195.947861 76.0
195.989655 88.0
196.020309 132.0
196.059326 120.0
196.090393 432.0
196.151306 88.0
196.260025 64.0
196.310226 168.0
196.343689 52.0
196.371582 300.0
196.410965 100.0
196.466415 140.0
196.494324 76.0
196.580612 108.0
196.661758 92.0
196.695251 92.0
196.795746 188.0
197.073746 220.0
197.4944 80.0
197.930984 100.0
198.090637 44.0
198.957184 236.0
199.074524 192.0
199.762894 48.0
200.078873 216.0
200.405624 208.0
200.450714 152.0
200.791824 128.0
200.955444 48.0
200.994949 260.0
201.08078 368.0
202.090485 144.0
202.707336 212.0
203.070663 244.0
203.891968 128.0
203.988617 212.0
204.02272 88.0
204.068527 324.0
204.10112 320.0
204.628723 88.0
204.890747 188.0
204.984772 60.0
205.06456 120.0
205.104477 120.0
205.629288 56.0
206.074768 124.0
207.033051 180.0
207.325256 112.0
207.76683 168.0
208.075485 132.0
208.148575 132.0
208.323776 52.0
208.392731 96.0
208.516296 168.0
208.585281 140.0
208.62265 48.0
208.654266 100.0
208.717529 68.0
208.760666 216.0
208.84407 180.0
208.890091 216.0
208.982147 144.0
209.026123 152.0
209.0811 16460.0
209.183609 40.0
209.505325 156.0
209.627167 132.0
209.681915 56.0
209.749344 92.0
209.774155 64.0
209.822205 88.0
209.924088 60.0
210.03656 44.0
210.084366 2432.0
210.116516 112.0
210.154846 76.0
210.201019 96.0
210.333771 56.0
210.469467 92.0
210.510162 84.0
210.590759 104.0
210.631195 68.0
210.749649 116.0
210.769867 96.0
210.928833 48.0
210.95195 52.0
210.972183 48.0
211.038681 168.0
211.087433 380.0
211.180389 92.0
211.206421 68.0
211.36554 48.0
211.565247 56.0
211.675278 76.0
211.710022 52.0
211.791122 68.0
212.073853 148.0
212.417236 120.0
213.04718 168.0
213.074326 176.0
213.195374 72.0
214.047729 76.0
214.081451 308.0
214.443924 164.0
214.662582 100.0
214.822998 52.0
214.895935 136.0
215.050598 88.0
215.073959 148.0
215.138168 104.0
215.643524 60.0
216.07045 156.0
217.001816 152.0
217.069397 172.0
217.462387 64.0
217.835297 68.0
217.879364 84.0
218.026276 228.0
218.081284 296.0
218.894119 60.0
219.592575 284.0
219.961395 80.0
220.165131 156.0
220.563248 204.0
221.031281 136.0
221.080109 14820.0
221.125 144.0
221.164459 176.0
221.208633 104.0
221.248672 72.0
221.321365 68.0
221.342102 76.0
221.38356 92.0
221.409027 60.0
221.457596 84.0
221.528687 56.0
221.552383 92.0
221.579056 76.0
221.706467 136.0
221.79538 68.0
222.035553 136.0
222.084396 2092.0
222.385651 36.0
222.531113 124.0
222.578613 40.0
222.652863 40.0
222.917252 40.0
223.039108 64.0
223.08815 340.0
223.318619 84.0
223.431656 68.0
223.476273 92.0
223.60881 104.0
223.693436 160.0
223.83049 36.0
224.071747 164.0
224.814224 132.0
224.88884 32.0
224.924652 156.0
225.041092 144.0
225.070938 100.0
225.844986 44.0
226.042435 132.0
226.084335 156.0
226.231003 52.0
226.530457 124.0
226.593369 136.0
228.036774 160.0
228.4758 168.0
229.073212 240.0
229.258682 64.0
230.006668 96.0
230.045334 104.0
230.079346 328.0
231.031097 152.0
231.079498 140.0
231.515381 64.0
231.751663 112.0
232.063354 120.0
232.10228 328.0
232.922714 88.0
233.068542 132.0
233.093887 164.0
235.08136 148.0
236.031387 116.0
236.088089 156.0
236.325027 76.0
236.572922 44.0
237.09671 196.0
237.222382 104.0
238.560822 212.0
238.985245 180.0
239.052948 112.0
239.588699 244.0
240.066467 108.0
240.980148 72.0
241.082123 128.0
241.709869 44.0
242.211426 152.0
242.747604 128.0
243.073318 184.0
243.439621 76.0
243.83728 88.0
245.069977 176.0
245.106979 144.0
245.275284 128.0
246.070786 120.0
246.736267 80.0
248.073029 148.0
249.075165 2252.0
249.554886 64.0
250.082336 668.0
250.133759 176.0
250.669174 36.0
251.11055 172.0
251.347153 52.0
251.527039 152.0
252.114517 104.0
253.243988 56.0
254.042801 328.0
254.112595 64.0
255.049423 164.0
256.047943 132.0
257.068207 172.0
257.240997 36.0
257.327209 72.0
258.007721 92.0
258.073883 172.0
259.070221 148.0
259.108673 140.0
259.698486 144.0
260.089172 1144.0
260.215149 76.0
260.38855 136.0
260.655212 36.0
260.677704 96.0
261.096741 220.0
261.697357 56.0
261.723145 32.0
262.074158 240.0
263.248383 100.0
263.300049 48.0
263.409882 148.0
264.007812 84.0
264.651764 216.0
265.111755 100.0
265.520233 44.0
267.049988 140.0
267.202881 84.0
268.059235 116.0
268.274353 84.0
268.94632 164.0
269.949341 112.0
270.031097 76.0
270.977142 60.0
271.039398 272.0
272.046265 264.0
272.233429 116.0
272.73941 88.0
273.08136 180.0
274.045898 132.0
278.090332 144.0
278.631622 76.0
279.110229 36.0
279.166779 212.0
280.601898 88.0
280.731934 216.0
282.0513 172.0
283.211823 60.0
283.265442 96.0
283.801666 84.0
284.049835 156.0
285.070496 152.0
286.070099 252.0
287.077972 208.0
288.085693 320.0
288.708008 68.0
289.032776 136.0
289.076752 92.0
290.069122 44.0
291.069977 64.0
293.540466 88.0
293.758728 80.0
295.042786 116.0
295.094086 92.0
297.069275 240.0
298.034912 92.0
298.839508 56.0
299.02533 188.0
299.311066 132.0
300.048401 116.0
300.084747 456.0
300.489868 60.0
301.059418 84.0
301.096832 124.0
302.106079 508.0
302.141327 168.0
303.070496 204.0
303.106598 184.0
303.599579 56.0
306.04248 192.0
308.093262 136.0
308.977753 100.0
309.761932 104.0
309.909088 36.0
310.073578 452.0
310.308655 100.0
310.427856 84.0
310.620758 100.0
311.087494 212.0
311.35083 88.0
312.064148 168.0
312.088776 132.0
314.046814 168.0
317.413635 96.0
318.100098 792.0
319.093109 144.0
320.374329 96.0
320.538208 120.0
322.100891 64.0
323.939575 188.0
325.553589 48.0
326.114044 172.0
327.149048 148.0
328.079041 1024.0
328.212891 104.0
328.750366 56.0
329.084442 324.0
330.087372 172.0
330.112274 236.0
330.227997 116.0
330.36908 76.0
330.890228 60.0
331.542236 168.0
336.102386 128.0
338.097626 56.0
338.134247 124.0
338.668793 76.0
339.141449 108.0
341.123657 160.0
343.875183 80.0
344.022827 56.0
344.148346 180.0
345.700867 52.0
345.756378 44.0
346.01181 128.0
346.092865 2728.0
346.132538 256.0
346.456207 56.0
346.508087 84.0
347.100403 500.0
347.817169 96.0
348.08078 148.0
348.400177 116.0
349.091522 116.0
349.560242 104.0
350.275085 112.0
352.117676 96.0
352.670654 76.0
353.10437 104.0
353.138031 136.0
353.306366 92.0
354.077454 188.0
354.13736 96.0
355.141876 116.0
356.150208 212.0
357.426056 76.0
361.520416 44.0
363.202637 68.0
364.580841 120.0
364.97998 52.0
366.00354 64.0
366.13092 328.0
366.492462 56.0
367.116272 144.0
367.143463 172.0
367.173462 40.0
367.635101 84.0
368.139008 140.0
369.090515 104.0
369.756134 108.0
370.131317 116.0
375.098969 52.0
375.970642 68.0
376.503418 76.0
377.566223 72.0
379.277557 32.0
381.268646 116.0
384.142914 568.0
385.144958 84.0
387.241852 64.0
388.27652 116.0
391.979736 172.0
394.114502 116.0
400.505676 44.0
401.063538 108.0
402.148407 236.0
403.16687 128.0
404.1586 164.0
405.195587 28.0
409.62674 44.0
410.638458 60.0
413.875427 32.0
420.61203 128.0
421.138763 88.0
422.29953 76.0
423.756866 56.0
427.320679 64.0
431.647552 92.0
433.966339 76.0
440.049286 124.0
441.194031 76.0
441.302734 52.0
441.700012 68.0
456.423584 64.0
465.302338 56.0
466.793304 56.0
471.578705 88.0
472.093201 136.0
475.897766 48.0
491.017303 92.0
497.664001 108.0
512.559326 64.0
520.761353 60.0
523.603943 68.0
533.584106 48.0
536.825684 100.0
555.06897 60.0
581.557373 40.0
591.966248 68.0
594.491882 44.0
601.778748 92.0
616.999817 72.0
623.513123 72.0
629.166687 116.0
634.093811 92.0
645.921326 68.0
661.410889 80.0
676.887146 172.0
693.810486 64.0
717.965149 104.0
722.467957 68.0
745.432068 60.0
753.33783 84.0
758.509033 148.0
773.575134 60.0
783.510437 100.0
783.905823 120.0
784.580261 140.0
785.695618 112.0
801.799927 84.0
816.320923 92.0
819.206543 172.0
837.370178 80.0
843.717529 116.0
846.865479 188.0
850.170166 164.0
868.026794 172.0
869.80072 148.0
873.482971 48.0
880.86908 36.0
893.317749 232.0
897.760986 208.0
898.256042 76.0
900.810913 192.0
908.551392 228.0
908.593384 132.0
921.978943 256.0
925.378479 192.0
929.196777 120.0
935.906799 212.0
941.584167 44.0
947.621704 60.0
948.093567 244.0
953.936768 132.0
954.809875 124.0
954.883667 100.0
956.255676 156.0
956.87738 76.0
961.722717 196.0
966.134766 184.0
968.47467 240.0
969.998962 156.0
971.139893 120.0
974.31189 156.0
976.188965 100.0
980.615356 48.0
982.473572 160.0
984.414734 48.0
985.345398 140.0
986.982971 80.0
988.452881 104.0
995.49884 116.0
1007.478699 124.0
1011.361328 152.0
1013.178711 136.0
1015.378235 104.0
1015.765137 160.0
1026.571045 192.0
1027.361938 148.0
1028.944702 104.0
1032.593384 28.0
1033.559326 132.0
1033.776855 264.0
1035.300537 148.0
1039.210693 84.0
1041.117065 156.0
1047.954834 124.0
1050.462769 164.0
1051.733887 44.0
1054.588867 156.0
1057.551147 148.0
1059.280029 48.0
1062.391602 232.0
1064.202271 88.0
1064.332153 88.0
1067.717896 132.0
1067.8479 204.0
1071.232666 152.0
1072.705322 220.0
1075.960693 168.0
1076.633179 80.0
1077.109985 132.0
1077.684937 144.0
1077.750244 172.0
1078.312256 108.0
1080.856079 208.0
1081.58252 148.0
1082.407471 120.0
1086.011963 196.0
1087.750732 84.0
1088.098633 52.0
1092.501831 88.0
1095.628906 140.0
1095.819946 192.0
1100.77356 164.0
1100.833008 88.0
1102.405273 212.0
1103.317383 148.0
1104.302612 112.0
1104.739136 128.0
1105.01709 164.0
1105.945312 188.0
1108.108887 208.0
1117.430542 192.0
1119.227661 216.0
1119.900269 144.0
1121.925903 196.0
1124.18042 232.0
1125.321777 116.0
1125.909424 52.0
1129.057129 176.0
1132.04187 144.0
1133.401611 176.0
1135.566895 148.0
1136.787964 188.0
1137.687378 244.0
1138.164062 188.0
1139.594727 120.0
1140.958984 164.0
1142.068604 96.0
1142.667236 100.0
1142.734619 252.0
1145.885498 156.0
1147.260376 184.0
1148.163818 168.0
1152.254395 144.0
1152.578735 220.0
1153.058472 200.0
1153.200439 104.0
1153.369385 140.0
1154.018433 132.0
1154.620239 144.0
1156.318359 128.0
1156.907227 164.0
1162.261475 60.0
1163.21167 156.0
1163.700439 200.0
1165.656616 68.0
1165.860474 144.0
1166.356689 120.0
1168.607666 148.0
1168.934204 216.0
1169.64209 228.0
1170.356934 132.0
1171.685059 212.0
1173.170654 80.0
1173.832031 240.0
1177.763062 168.0
1178.99292 148.0
1180.496826 200.0
1180.806519 168.0
1181.385986 196.0
1183.069458 248.0
1183.699341 112.0
1185.754517 124.0
1186.618896 80.0
1190.673584 148.0
1192.989258 184.0
1193.718018 156.0
1195.926392 188.0
1197.089844 140.0
1197.744141 160.0
1203.129883 188.0
1203.295532 124.0
1204.200195 196.0
1204.414307 152.0
1205.436768 160.0
1206.978271 88.0
1207.054321 72.0
1209.690308 160.0
1214.291138 168.0
1214.672607 120.0
1214.887695 128.0
1215.276123 144.0
1216.157471 224.0
1218.393555 88.0
1218.574097 68.0
1220.381226 208.0
1222.586304 168.0
1222.63501 172.0
1223.073486 184.0
1225.092896 140.0
1226.974487 156.0
1229.262329 172.0
1229.799683 180.0
1231.629028 160.0
1236.698242 248.0
1238.084473 92.0
1238.756958 132.0
1239.569702 140.0
1241.490356 132.0
1241.784912 200.0
1243.019653 176.0
1244.760498 168.0
1246.214478 112.0
1248.084106 196.0
1248.492065 188.0
1248.787354 160.0
1251.630493 132.0
1252.412231 172.0
1253.23645 164.0
1253.363281 120.0
1253.66626 172.0
1254.286499 160.0
1254.43457 164.0
1254.805786 192.0
1255.160767 240.0
1255.379272 140.0
1257.114624 156.0
1259.458618 140.0
1260.285156 148.0
1260.377075 136.0
1260.610229 220.0
1261.521973 128.0
1261.776489 60.0
1262.58252 152.0
1262.674561 256.0
1263.862915 144.0
1264.344116 212.0
1266.871948 176.0
1267.04187 148.0
1267.233276 164.0
1267.856812 124.0
1269.033447 80.0
1269.395142 156.0
1269.536987 108.0
1271.232422 152.0
1271.502075 44.0
1271.736206 108.0
1272.467407 136.0
1272.67334 96.0
1273.63208 176.0
1273.724365 204.0
1275.074341 64.0
1275.344482 176.0
1275.664307 228.0
1276.880249 240.0
1277.876099 236.0
1279.69812 116.0
1280.773438 188.0
1281.48584 144.0
1282.569092 148.0
1283.232056 224.0
1284.208984 172.0
1285.179199 164.0
1286.064087 208.0
1286.206787 180.0
1287.434814 128.0
1287.556274 60.0
1287.779785 216.0
1288.191895 184.0
1288.306274 152.0
1289.156494 224.0
1290.264404 164.0
1290.343018 188.0
1290.75769 96.0
1291.222534 172.0
1291.30127 64.0
1291.437134 172.0
1291.558716 200.0
1292.034912 208.0
1292.266968 152.0
1293.769897 140.0
1294.220947 124.0
1295.012451 188.0
1295.990112 156.0
1296.339355 196.0
1296.756836 120.0
1296.821411 216.0
1299.840576 188.0
1300.213745 216.0
1302.683716 44.0
1303.481201 192.0
1303.969849 188.0
1304.638428 232.0
1305.378906 160.0
1305.630615 184.0
1307.896973 136.0
1308.548828 200.0
1308.624146 152.0
1309.869995 172.0
1310.619263 228.0
1313.604004 204.0
1314.787231 116.0
1321.109497 108.0
1321.203613 116.0
1324.982666 128.0
1326.098633 212.0
1327.903931 148.0
1328.179565 184.0
1329.027466 176.0
1329.23877 180.0
1329.304077 216.0
1329.833862 172.0
1330.370972 160.0
1330.501709 184.0
1332.280884 144.0
1333.7052 76.0
1333.850586 248.0
1335.421143 224.0
1336.694214 28.0
1336.839722 188.0
1337.953369 52.0
1338.113525 144.0
1338.528564 188.0
1338.659668 244.0
1339.074829 168.0
1339.912476 52.0
1340.223389 200.0
1341.486938 156.0
1341.727173 156.0
1342.3396 112.0
1344.469727 232.0
1344.5354 200.0
1345.32373 92.0
1346.901001 212.0
1347.039795 160.0
1347.427002 128.0
1348.559692 72.0
1348.63269 184.0
1348.705811 168.0
1349.392944 164.0
1349.641602 156.0
1350.175415 208.0
1350.599609 188.0
1351.645752 160.0
1352.427856 204.0
1352.553345 160.0
1352.875366 264.0
1353.051025 104.0
1354.86731 44.0
1354.969849 104.0
1355.380127 216.0
1355.614624 132.0
1357.088013 244.0
1357.146606 144.0
1358.048706 76.0
1359.501343 184.0
1360.235229 184.0
1361.46875 224.0
1361.578857 144.0
1362.364868 112.0
1362.570557 192.0
1362.702759 84.0
1362.952637 172.0
1363.327393 64.0
1365.775635 152.0
1366.114014 156.0
1368.270264 240.0
1368.365967 188.0
1368.645752 136.0
1368.925537 96.0
1369.109619 148.0
1369.293823 80.0
1369.632568 172.0
1370.693481 64.0
1372.020142 124.0
1372.757446 112.0
1375.192017 156.0
1375.996704 208.0
1376.092651 144.0
1376.609497 160.0
1377.665771 168.0
1378.307861 212.0
1378.411987 52.0
1378.907104 132.0
1379.010498 212.0
1380.185913 116.0
1381.546875 120.0
1381.79834 176.0
1382.183105 184.0
1382.397705 172.0
1383.31543 176.0
1383.36731 116.0
1383.522705 188.0
1383.811523 156.0
1384.796387 40.0
1385.040771 140.0
1386.32251 48.0
1387.797607 72.0
1388.435303 144.0
1388.754272 124.0
1392.524658 136.0
1392.598877 196.0
1392.680664 164.0
1393.11145 92.0
1393.349243 140.0
1393.832153 56.0
1394.976685 132.0
1395.504517 232.0
1395.653198 124.0
1396.582764 216.0
1398.331299 124.0
1398.398315 120.0
1398.606689 208.0
1398.993774 164.0
1399.678711 176.0
1400.170166 148.0
1401.756958 196.0
1402.107178 128.0
1402.338257 52.0
1404.470703 152.0
1405.843506 220.0
1406.589844 180.0
1409.427734 192.0
1409.868652 204.0
1411.543091 124.0
1411.812378 52.0
1412.717407 56.0
1412.986694 156.0
1413.877197 220.0
1414.191528 48.0
1414.887695 184.0
1415.09729 84.0
1415.269531 152.0
1415.56897 200.0
1415.838623 184.0
1416.108154 236.0
1416.931885 200.0
1417.089478 88.0
1417.546631 56.0
1418.333496 176.0
1418.858276 164.0
1419.150635 144.0
1419.285645 128.0
1420.110596 224.0
1420.170532 168.0
1421.130737 152.0
1421.190796 176.0
1421.28833 136.0
1421.926147 112.0
1423.074707 152.0
1424.298828 148.0
1425.801514 168.0
1425.906738 192.0
1426.034424 168.0
1426.124634 88.0
1426.530518 160.0
1427.109497 88.0
1427.229736 152.0
1427.690674 200.0
1427.770996 180.0
1428.929565 152.0
1429.418701 184.0
1429.922852 92.0
1431.405884 164.0
1431.699585 164.0
1431.759888 180.0
1432.031006 188.0
1432.151489 164.0
1432.324707 144.0
1434.766235 180.0
1434.826538 156.0
1435.208862 184.0
1435.399658 68.0
1435.716309 148.0
1435.806885 124.0
1436.998657 168.0
1437.066528 164.0
1437.383423 216.0
1437.821167 152.0
1437.92688 228.0
1438.085327 172.0
1438.893066 212.0
1439.65564 120.0
1440.033325 164.0
1440.244751 188.0
1440.630005 148.0
1441.25708 176.0
1442.481445 152.0
1442.617432 68.0
1442.851807 164.0
1445.060181 124.0
1445.427246 88.0
1445.635254 180.0
1446.059082 204.0
1446.263428 124.0
1446.316406 176.0
1446.422363 216.0
1446.694946 72.0
1448.072998 120.0
1448.194214 196.0
1448.444214 144.0
1448.95166 176.0
1449.52002 168.0
1449.603394 192.0
1449.694214 192.0
1449.747314 232.0
1451.562866 152.0
1451.983765 120.0
1452.287109 140.0
1453.910767 116.0
1454.054932 156.0
1454.297729 148.0
1454.502686 188.0
1455.77063 168.0
1455.922485 44.0
1455.975708 232.0
1456.233887 160.0
1456.818726 244.0
1457.213867 208.0
1457.358154 36.0
1457.783691 96.0
1457.935669 200.0
1459.463623 132.0
1459.790527 220.0
1460.300171 200.0
1461.182495 168.0
1461.441162 104.0
1461.578125 168.0
1462.148926 108.0
1462.384766 120.0
1462.575073 176.0
1462.750122 220.0
1462.955688 160.0
1463.305908 140.0
1464.699463 136.0
1465.095581 200.0
1465.187012 240.0
1465.430908 140.0
1465.552734 188.0
1465.659424 204.0
1466.025146 268.0
1466.269043 144.0
1466.634888 160.0
1466.825439 124.0
1466.886475 200.0
1467.717407 56.0
1467.999634 216.0
1468.220703 64.0
1468.983521 132.0
1469.639648 84.0
1470.105103 148.0
1470.333984 188.0
1470.486694 108.0
1470.975098 292.0
1471.616455 108.0
1471.8302 52.0
1472.143311 172.0
1472.380005 152.0
1472.502197 152.0
1473.021606 144.0
1473.693848 116.0
1474.396973 136.0
1474.733154 148.0
1475.818726 188.0
1475.902832 120.0
1476.904663 148.0
1476.96582 140.0
1477.524292 212.0
1477.983398 132.0
1478.036865 84.0
1478.182251 132.0
1478.488403 168.0
1479.674805 148.0
1479.942749 160.0
1481.160889 192.0
1482.02478 96.0
1482.520264 176.0
1482.63147 188.0
1482.7771 128.0
1482.89209 128.0
1483.9021 132.0
1484.003662 164.0
1484.448364 80.0
1484.747437 140.0
1485.307373 112.0
1485.660156 168.0
1485.921021 116.0
1487.079712 216.0
1488.461548 164.0
1488.906982 156.0
1489.435059 180.0
1489.736572 248.0
1490.635498 296.0
1490.727661 116.0
1492.034302 128.0
1492.780151 164.0
1493.29541 236.0
1494.056885 160.0
1494.156982 140.0
1494.833984 168.0
1494.888672 192.0
1495.095703 40.0
1496.642944 132.0
1496.889282 220.0
1497.10498 124.0
1499.377563 136.0
1499.531738 48.0
1499.886353 160.0
1499.994263 128.0
1501.405151 140.0
1501.59021 160.0
1502.060791 48.0
1502.15332 152.0
1503.50354 172.0
1504.036133 60.0
