>compound MLS001401372-01!9-AMINO-1,2,3,4-TETRAHYDROACRIDINE HYDROCHLORIDE
>formula C13H14N2
>ionization [M+H]+
>parentmass 199.124557
#inchi InChI=1S/C13H14N2/c14-13-9-5-1-3-7-11(9)15-12-8-4-2-6-10(12)13/h1,3,5,7H,2,4,6,8H2,(H2,14,15)
#inchikey YLJREFDVOIBQDA
#origInchi InChI=1S/C13H14N2.ClH/c14-13-9-5-1-3-7-11(9)15-12-8-4-2-6-10(12)13;/h1,3,5,7H,2,4,6,8H2,(H2,14,15);1H
#Ion_Source LC-ESI
#Instrument qTof
#Compound_Source NIH Pharmacologically Active Library
#PI Dorrestein
#Data_Collector VP/LMS
#Scan -1
#Precursor_MZ 199.127
#ExactMass 198.116
#Charge 1
#CAS_Number N/A
#Pubmed_ID N/A
#Smiles Nc1c2CCCCc2nc3ccccc13.Cl
#INCHI_AUX N/A
#Library_Class 1
#SpectrumID CCMSLIB00000085457
#IonMode Positive
#UpdateWorkflowName UPDATE-SINGLE-ANNOTATED-GOLD
#LibraryQualityString Gold
#TaskID d252d724072548979f1f6f1ced849daf
##Scan# 1289
#SpectrumFile p4-B03_GB3_01_18339.mzXML
#LibraryName Pharm_Active_Library.mgf
#MQScore -1
#Organism Pharm_Active_Library
#TIC_Query 0
#RT_Query -1
#MZErrorPPM -1
#SharedPeaks 0
#MassDiff 0
#LibMZ -1
#SpecMZ 199.127
#SpecCharge 0
#internalFilename spec-00000.mgf

>collision 10
44.890995 224.0
44.925453 216.0
44.957775 196.0
44.985008 44.0
45.000389 336.0
45.017052 104.0
45.043274 240.0
45.078503 136.0
45.139992 160.0
45.170753 144.0
45.22963 136.0
45.249287 184.0
45.253105 104.0
45.257072 176.0
45.277828 160.0
45.316673 68.0
45.351517 184.0
45.372963 100.0
45.395756 184.0
45.410507 212.0
45.433311 136.0
45.493702 72.0
45.503098 136.0
45.523239 164.0
45.550102 196.0
45.590717 156.0
45.599815 216.0
45.617287 156.0
45.656281 120.0
45.69125 136.0
45.743736 140.0
45.777393 156.0
45.801636 180.0
45.831272 156.0
45.858028 136.0
45.941387 208.0
45.961819 220.0
45.963863 180.0
45.96946 100.0
45.973156 128.0
46.013351 168.0
46.026855 172.0
46.039009 128.0
46.052513 184.0
46.098446 176.0
46.120071 172.0
46.15522 188.0
46.167389 176.0
46.179562 192.0
46.253979 128.0
46.267235 232.0
46.269928 184.0
46.27578 192.0
46.304077 140.0
46.351166 168.0
46.379623 200.0
46.412487 76.0
46.425365 120.0
46.466736 160.0
46.487011 140.0
46.523735 200.0
46.549534 160.0
46.568546 112.0
46.583488 128.0
46.66367 184.0
46.697662 52.0
46.73167 204.0
46.757526 108.0
46.784748 140.0
46.813343 52.0
46.829685 156.0
46.861015 152.0
46.887882 156.0
46.910076 200.0
46.940071 80.0
46.954769 140.0
47.011086 136.0
47.049221 160.0
47.075165 172.0
47.097015 156.0
47.107941 100.0
47.125702 224.0
47.154514 192.0
47.176899 156.0
47.202248 132.0
47.229324 192.0
47.252853 184.0
47.267838 168.0
47.292538 152.0
47.318546 128.0
47.341824 140.0
47.377434 192.0
47.42622 400.0
47.439175 152.0
47.447807 252.0
47.459827 204.0
47.488819 140.0
47.509041 168.0
47.524132 144.0
47.554283 164.0
47.60318 136.0
47.638081 156.0
47.654659 176.0
47.687546 244.0
47.706791 60.0
47.765388 184.0
47.83197 232.0
47.853767 176.0
47.870518 148.0
47.90633 164.0
47.929749 148.0
47.94215 116.0
47.964203 128.0
47.989017 192.0
48.006508 140.0
48.00927 244.0
48.02763 116.0
48.05632 196.0
48.071777 204.0
48.098 112.0
48.136593 176.0
48.151077 208.0
48.161514 148.0
48.189144 160.0
48.198814 132.0
48.217243 228.0
48.248573 172.0
48.278412 160.0
48.291294 116.0
48.316338 124.0
48.330173 204.0
48.382767 112.0
48.406303 88.0
48.415997 112.0
48.436771 200.0
48.482494 136.0
48.506054 208.0
48.612846 188.0
48.622562 100.0
48.643383 96.0
48.664204 124.0
48.704479 236.0
48.817722 124.0
48.832474 176.0
48.890858 72.0
48.932121 364.0
48.942284 204.0
48.960388 256.0
49.045376 156.0
49.081619 100.0
49.119865 132.0
49.134621 124.0
49.15834 128.0
49.203865 208.0
49.253277 312.0
49.278603 184.0
49.313358 144.0
49.344402 172.0
49.384663 128.0
49.400047 228.0
49.421036 160.0
49.44902 40.0
49.484539 180.0
49.50222 144.0
49.526482 136.0
49.541435 124.0
49.556847 132.0
49.580669 200.0
49.619915 152.0
49.635338 132.0
49.65918 136.0
49.687233 44.0
49.702667 180.0
49.718102 92.0
49.73877 160.0
49.754597 148.0
49.793056 244.0
49.807899 192.0
49.86697 160.0
49.920391 168.0
49.949471 172.0
49.968216 188.0
50.00621 156.0
50.017467 128.0
50.067036 196.0
50.08083 160.0
50.115807 164.0
50.127319 108.0
50.161144 124.0
50.176651 116.0
50.265511 96.0
50.275391 128.0
50.289501 188.0
50.344563 184.0
50.357273 152.0
50.371399 160.0
50.381287 180.0
50.406715 228.0
50.431126 132.0
50.441296 128.0
50.454559 132.0
50.470325 164.0
50.487293 176.0
50.553783 148.0
50.606155 68.0
50.650055 120.0
50.691139 276.0
50.722321 156.0
50.745003 132.0
50.803146 140.0
50.854229 92.0
50.886204 132.0
50.914021 244.0
50.92522 228.0
50.935162 184.0
50.955154 164.0
50.989021 172.0
51.000526 168.0
51.028229 188.0
51.051704 148.0
51.069527 136.0
51.097221 168.0
51.137066 168.0
51.162685 128.0
51.215374 184.0
51.23074 168.0
51.278065 204.0
51.295303 128.0
51.329288 180.0
51.377876 144.0
51.406414 68.0
51.434406 248.0
51.453514 120.0
51.473503 104.0
51.580654 132.0
51.596378 116.0
51.61282 164.0
51.644997 176.0
51.675236 204.0
51.697933 112.0
51.709381 228.0
51.740871 112.0
51.762348 160.0
51.789558 160.0
51.801018 172.0
51.82394 180.0
51.835644 144.0
51.868366 284.0
51.898472 188.0
51.912811 156.0
51.944363 148.0
52.004627 196.0
52.101448 188.0
52.120949 164.0
52.131008 216.0
52.147167 180.0
52.175568 172.0
52.201447 144.0
52.225704 120.0
52.230598 104.0
52.29208 148.0
52.307911 192.0
52.320869 116.0
52.384232 140.0
52.405842 288.0
52.42313 148.0
52.457722 204.0
52.496651 132.0
52.586094 248.0
52.708847 296.0
52.755093 80.0
52.777439 184.0
52.805702 164.0
52.899754 116.0
52.924362 32.0
53.002579 136.0
53.146126 52.0
53.169342 248.0
53.198784 240.0
53.231796 184.0
53.252583 180.0
53.337822 140.0
53.358238 184.0
53.377045 196.0
53.405941 188.0
53.4338 216.0
53.473087 192.0
53.50972 292.0
53.525497 196.0
53.544426 108.0
53.566715 132.0
53.576664 152.0
53.589027 116.0
53.630386 152.0
53.650421 172.0
53.701832 148.0
53.787918 148.0
53.816547 124.0
53.836098 164.0
53.894527 100.0
53.905647 268.0
53.942753 132.0
53.954449 208.0
53.995392 180.0
54.027569 124.0
54.050526 168.0
54.07732 208.0
54.093422 52.0
54.131489 164.0
54.179821 124.0
54.197403 152.0
54.263355 64.0
54.302948 204.0
54.357075 192.0
54.427685 96.0
54.44384 192.0
54.458527 160.0
54.475151 176.0
54.493782 60.0
54.512318 212.0
54.52317 148.0
54.556675 156.0
54.583439 188.0
54.609837 156.0
54.626091 184.0
54.653915 232.0
54.684872 156.0
54.717632 196.0
54.735001 156.0
54.771816 192.0
54.816013 184.0
54.859634 136.0
54.874973 640.0
54.914787 152.0
54.945766 164.0
54.96244 224.0
54.977139 292.0
55.013649 164.0
55.053181 176.0
55.109646 204.0
55.130333 168.0
55.170238 144.0
55.263775 180.0
55.274921 216.0
55.309288 140.0
55.324093 168.0
55.358147 72.0
55.374916 160.0
55.448513 160.0
55.502937 196.0
55.535988 288.0
55.559719 120.0
55.61314 40.0
55.630325 104.0
55.640469 176.0
55.688862 116.0
55.727486 164.0
55.746799 80.0
55.760609 204.0
55.77058 136.0
55.801796 180.0
55.816666 176.0
55.835255 176.0
55.86277 136.0
55.878597 276.0
55.981838 176.0
56.029594 192.0
56.068241 184.0
56.144272 236.0
56.166645 176.0
56.223339 180.0
56.247219 116.0
56.271107 176.0
56.291309 168.0
56.316902 168.0
56.39061 156.0
56.469849 52.0
56.482708 172.0
56.5252 180.0
56.53717 200.0
56.579082 204.0
56.592556 280.0
56.616516 208.0
56.661449 216.0
56.713898 160.0
56.730385 44.0
56.745377 92.0
56.785866 160.0
56.806866 76.0
56.830326 148.0
56.922428 156.0
56.946457 160.0
56.973495 144.0
56.993027 124.0
57.030521 164.0
57.072689 172.0
57.12925 276.0
57.195118 124.0
57.235191 76.0
57.281879 144.0
57.29393 64.0
57.351192 116.0
57.376122 196.0
57.420544 168.0
57.431992 136.0
57.447697 116.0
57.482395 200.0
57.502014 124.0
57.583511 188.0
57.625839 220.0
57.640949 140.0
57.690823 168.0
57.722572 124.0
57.734673 488.0
57.763035 212.0
57.783073 140.0
57.819389 132.0
57.864799 152.0
57.883865 156.0
57.899471 156.0
58.007427 188.0
58.070885 184.0
58.090603 68.0
58.151024 224.0
58.155453 184.0
58.181656 156.0
58.192284 232.0
58.225689 128.0
58.246952 204.0
58.283413 180.0
58.309246 76.0
58.321407 140.0
58.342686 128.0
58.376137 180.0
58.38678 208.0
58.40554 220.0
58.450672 176.0
58.487705 228.0
58.534393 180.0
58.561176 184.0
58.563778 108.0
58.595318 132.0
58.631886 220.0
58.667427 164.0
58.702011 328.0
58.717262 168.0
58.732513 208.0
58.816433 188.0
58.852161 188.0
58.885139 168.0
58.899837 148.0
58.924858 164.0
58.935551 196.0
58.96917 172.0
59.006756 200.0
59.033691 156.0
59.05632 164.0
59.102844 176.0
59.125168 176.0
59.148125 120.0
59.16893 196.0
59.197029 140.0
59.242352 216.0
59.255322 188.0
59.278008 208.0
59.359547 192.0
59.371815 160.0
59.446983 188.0
59.488422 160.0
59.525269 160.0
59.539089 120.0
59.565201 140.0
59.580563 112.0
59.628662 132.0
59.662014 148.0
59.680462 156.0
59.703526 196.0
59.729675 148.0
59.746593 164.0
59.871269 224.0
59.895912 116.0
59.925182 64.0
59.945213 148.0
59.965248 124.0
59.999161 180.0
60.040791 120.0
60.054672 116.0
60.083981 136.0
60.12215 184.0
60.163376 144.0
60.215183 64.0
60.232174 176.0
60.245678 216.0
60.275433 148.0
60.300156 56.0
60.344849 224.0
60.439632 516.0
60.524464 124.0
60.538403 152.0
60.562435 316.0
60.575573 160.0
60.603458 144.0
60.715065 136.0
60.7616 264.0
60.772461 156.0
60.814358 136.0
60.907654 188.0
60.914124 176.0
60.91877 232.0
60.954128 188.0
60.978992 32.0
61.014744 128.0
61.045841 148.0
61.074154 212.0
61.093136 180.0
61.131611 176.0
61.153187 120.0
61.164082 68.0
61.181202 156.0
61.199886 232.0
61.273087 160.0
61.298016 116.0
61.309792 240.0
61.322952 128.0
61.37907 180.0
61.41338 128.0
61.430538 148.0
61.466423 208.0
61.480469 148.0
61.50544 120.0
61.52573 104.0
61.565643 228.0
61.603951 228.0
61.625687 184.0
61.643127 148.0
61.680382 88.0
61.697578 164.0
61.723866 216.0
61.74292 60.0
61.850876 136.0
61.866531 348.0
61.902542 148.0
61.913502 160.0
61.969894 184.0
62.009502 220.0
62.057663 180.0
62.074913 224.0
62.115688 200.0
62.17374 160.0
62.231819 160.0
62.261654 148.0
62.282074 116.0
62.293068 196.0
62.36692 44.0
62.388927 160.0
62.450253 140.0
62.49902 148.0
62.592499 144.0
62.613934 160.0
62.639133 92.0
62.694073 156.0
62.721069 120.0
62.732105 184.0
62.752598 144.0
62.775856 128.0
62.802181 208.0
62.820412 124.0
62.855122 156.0
62.970165 160.0
62.986156 148.0
63.096775 164.0
63.147373 140.0
63.165997 260.0
63.208359 196.0
63.222458 200.0
63.243507 184.0
63.262089 160.0
63.327805 148.0
63.378494 184.0
63.431946 176.0
63.473598 144.0
63.491043 148.0
63.533112 176.0
63.595943 200.0
63.619564 160.0
63.78318 164.0
63.797485 172.0
63.822926 100.0
63.883358 364.0
63.951157 184.0
63.999538 52.0
64.023422 176.0
64.052094 148.0
64.0728 140.0
64.195526 160.0
64.211479 116.0
64.23381 52.0
64.268906 204.0
64.284859 168.0
64.339127 224.0
64.371063 56.0
64.403 64.0
64.55703 384.0
64.615608 68.0
64.706833 104.0
64.722839 120.0
64.790825 144.0
64.818947 160.0
64.841385 140.0
64.869507 220.0
64.9039 180.0
64.918381 136.0
64.945671 176.0
64.960037 216.0
64.99836 140.0
65.01619 184.0
65.045082 244.0
65.078796 248.0
65.094849 148.0
65.106094 240.0
65.181381 180.0
65.205551 180.0
65.211655 164.0
65.216118 132.0
65.256645 196.0
65.286079 60.0
65.298943 124.0
65.316635 100.0
65.369034 204.0
65.390648 160.0
65.414795 132.0
65.429283 192.0
65.45504 56.0
65.467926 120.0
65.497536 156.0
65.591675 180.0
65.614548 188.0
65.658363 188.0
65.826591 180.0
65.874367 196.0
65.885674 140.0
65.896988 152.0
65.919182 204.0
65.972946 176.0
65.985878 140.0
66.020172 172.0
66.05703 160.0
66.11264 216.0
66.183266 156.0
66.200081 192.0
66.230232 192.0
66.256149 80.0
66.283691 188.0
66.302536 172.0
66.316101 224.0
66.330002 212.0
66.399223 208.0
66.418251 152.0
66.465294 152.0
66.488014 104.0
66.513985 72.0
66.539452 116.0
66.552948 128.0
66.570808 80.0
66.627655 156.0
66.643906 180.0
66.672379 176.0
66.744675 140.0
66.770699 180.0
66.861801 156.0
66.884583 204.0
66.927711 188.0
66.981705 160.0
67.006721 124.0
67.029533 148.0
67.109398 392.0
67.151794 136.0
67.163216 196.0
67.177048 220.0
67.220497 144.0
67.244789 192.0
67.308456 108.0
67.381958 220.0
67.413002 156.0
67.429344 76.0
67.445686 116.0
67.48983 120.0
67.519264 140.0
67.553612 140.0
67.567627 120.0
67.613777 176.0
67.650162 184.0
67.703552 72.0
67.720215 184.0
67.738586 180.0
67.768074 52.0
67.794289 160.0
67.872971 200.0
67.886093 156.0
67.912331 172.0
67.964828 80.0
67.995621 204.0
68.02227 132.0
68.086807 156.0
68.107651 184.0
68.160225 172.0
68.195435 272.0
68.213478 128.0
68.229248 208.0
68.256218 160.0
68.326279 84.0
68.359772 232.0
68.433914 180.0
68.449722 188.0
68.51725 40.0
68.616135 132.0
68.645409 180.0
68.696785 168.0
68.71344 188.0
68.780914 248.0
68.824387 164.0
68.837234 124.0
68.859772 136.0
68.876869 84.0
68.961136 192.0
68.972702 72.0
69.032219 36.0
69.070534 204.0
69.081841 152.0
69.111618 164.0
69.131477 104.0
69.154648 160.0
69.171196 152.0
69.182785 196.0
69.19603 132.0
69.219398 172.0
69.240738 140.0
69.263924 36.0
69.293739 192.0
69.340141 164.0
69.356712 160.0
69.409767 68.0
69.42469 160.0
69.478882 204.0
69.496017 112.0
69.525887 80.0
69.57402 100.0
69.625488 208.0
69.642097 168.0
69.685287 188.0
69.715202 176.0
69.833237 200.0
69.863174 200.0
69.891457 92.0
69.941383 156.0
70.008492 156.0
70.026039 204.0
70.056282 184.0
70.1446 212.0
70.168518 172.0
70.207954 196.0
70.226303 136.0
70.29303 128.0
70.353119 116.0
70.392708 180.0
70.404381 40.0
70.4095 172.0
70.421577 132.0
70.496758 112.0
70.520157 144.0
70.538757 152.0
70.582008 192.0
70.671165 132.0
70.717514 124.0
70.742622 180.0
70.782799 128.0
70.838074 392.0
70.886658 220.0
70.901741 228.0
70.913467 80.0
70.92688 160.0
70.965439 100.0
70.992264 68.0
71.032516 140.0
71.075905 176.0
71.124527 144.0
71.146629 136.0
71.158379 40.0
71.175171 168.0
71.185699 104.0
71.205605 196.0
71.223869 120.0
71.238991 164.0
71.264191 132.0
71.297066 404.0
71.321327 140.0
71.339813 148.0
71.447441 200.0
71.481094 156.0
71.504654 140.0
71.519798 148.0
71.534462 348.0
71.560204 168.0
71.573669 104.0
71.593712 200.0
71.623329 132.0
71.693275 100.0
71.70507 176.0
71.762383 76.0
71.78093 140.0
71.850082 164.0
71.899559 212.0
71.971603 216.0
71.986801 224.0
72.004723 124.0
72.024673 272.0
72.040848 136.0
72.057838 132.0
72.071251 164.0
72.121269 328.0
72.155762 100.0
72.186195 144.0
72.210739 140.0
72.243698 172.0
72.270729 156.0
72.301231 136.0
72.342712 180.0
72.377403 156.0
72.389259 132.0
72.539955 156.0
72.564194 180.0
72.584122 124.0
72.600815 204.0
72.631691 164.0
72.660446 156.0
72.709656 80.0
72.782646 148.0
72.796257 168.0
72.809822 160.0
72.821709 180.0
72.867569 164.0
72.886261 156.0
72.942345 204.0
72.976349 172.0
73.035866 160.0
73.059677 100.0
73.0886 220.0
73.144905 188.0
73.183922 240.0
73.243523 124.0
73.255447 184.0
73.296333 152.0
73.308266 48.0
73.344055 188.0
73.355904 168.0
73.376442 140.0
73.391785 244.0
73.521431 160.0
73.569885 164.0
73.623383 188.0
73.645233 140.0
73.734901 148.0
73.778969 184.0
73.823799 100.0
73.856293 160.0
73.868263 140.0
73.909325 120.0
73.921532 132.0
73.938721 156.0
73.953819 136.0
74.058266 184.0
74.083954 80.0
74.097664 204.0
74.116508 144.0
74.139412 208.0
74.207352 188.0
74.287949 272.0
74.329781 188.0
74.366882 140.0
74.383163 160.0
74.397781 176.0
74.480019 148.0
74.486816 132.0
74.511124 168.0
74.540627 164.0
74.564392 112.0
74.583298 192.0
74.595329 180.0
74.629715 164.0
74.648399 132.0
74.726028 228.0
74.770767 140.0
74.87751 188.0
74.903343 132.0
74.917122 144.0
74.952522 196.0
75.039482 120.0
75.066055 204.0
75.089493 212.0
75.11351 160.0
75.13089 144.0
75.156769 136.0
75.198967 132.0
75.249969 328.0
75.308678 120.0
75.374443 116.0
75.398788 208.0
75.414078 200.0
75.426178 188.0
75.44519 84.0
75.502251 88.0
75.556892 176.0
75.60305 120.0
75.647583 204.0
75.675285 192.0
75.709915 176.0
75.75322 164.0
75.780937 196.0
75.840561 444.0
75.889091 140.0
75.916138 152.0
76.039841 108.0
76.100067 116.0
76.150932 68.0
76.193848 168.0
76.218178 80.0
76.263359 132.0
76.275528 40.0
76.292908 208.0
76.332901 152.0
76.34507 148.0
76.362465 160.0
76.379852 132.0
76.402466 140.0
76.418129 92.0
76.491158 236.0
76.514969 180.0
76.57653 144.0
76.623566 184.0
76.684814 216.0
76.700241 160.0
76.724648 56.0
76.738594 164.0
76.803177 220.0
76.8311 196.0
76.857193 128.0
76.871155 188.0
76.902565 100.0
76.918274 144.0
76.963669 156.0
76.989861 68.0
77.007324 76.0
77.077202 68.0
77.152359 176.0
77.18383 104.0
77.275734 176.0
77.297523 144.0
77.371033 128.0
77.406052 156.0
77.437576 136.0
77.514931 152.0
77.568985 220.0
77.626839 128.0
77.642624 136.0
77.682968 272.0
77.709282 180.0
77.740868 196.0
77.797028 204.0
77.854973 116.0
77.919594 192.0
77.932823 388.0
77.96389 240.0
78.028923 196.0
78.069366 108.0
78.155556 136.0
78.182732 236.0
78.208733 260.0
78.271729 112.0
78.284058 160.0
78.298065 180.0
78.324562 164.0
78.343559 148.0
78.390236 188.0
78.405609 228.0
78.453201 180.0
78.490219 192.0
78.504997 112.0
78.527718 152.0
78.553711 184.0
78.583702 144.0
78.597816 176.0
78.610168 196.0
78.714317 60.0
78.775452 156.0
78.82914 84.0
78.845657 184.0
78.864479 124.0
78.968796 140.0
78.988251 152.0
79.048409 132.0
79.071411 120.0
79.142593 212.0
79.184341 204.0
79.227234 176.0
79.370789 104.0
79.390297 144.0
79.423996 196.0
79.4506 84.0
79.470116 116.0
79.484314 168.0
79.525131 196.0
79.562408 32.0
79.593529 196.0
79.667183 172.0
79.711601 160.0
79.773804 168.0
79.807579 160.0
79.873383 132.0
79.900085 236.0
79.980141 180.0
79.992599 120.0
80.00473 384.0
80.044235 164.0
80.062042 176.0
80.138634 40.0
80.169518 184.0
80.197441 104.0
80.215263 152.0
80.240227 176.0
80.277664 140.0
80.299065 176.0
80.327606 52.0
80.397186 204.0
80.470375 108.0
80.597588 176.0
80.654785 156.0
80.694687 232.0
80.802795 176.0
80.831421 252.0
80.861168 200.0
80.911964 116.0
80.930923 160.0
80.978218 156.0
81.003296 100.0
81.021294 168.0
81.04808 148.0
81.090759 172.0
81.117981 152.0
81.171761 192.0
81.195076 108.0
81.221977 116.0
81.288361 184.0
81.325684 192.0
81.370926 132.0
81.40863 112.0
81.424789 136.0
81.462509 140.0
81.491257 160.0
81.516411 108.0
81.535828 184.0
81.557747 168.0
81.572128 144.0
81.604485 192.0
81.618866 136.0
81.680435 144.0
81.741188 192.0
81.810295 292.0
81.831177 136.0
81.850983 48.0
81.868996 100.0
81.913979 172.0
81.982483 196.0
82.015602 160.0
82.054947 140.0
82.090645 60.0
82.111465 176.0
82.206093 220.0
82.247604 112.0
82.276253 220.0
82.299957 204.0
82.312599 148.0
82.336075 180.0
82.373466 136.0
82.422783 96.0
82.476997 164.0
82.514633 156.0
82.536652 100.0
82.563782 152.0
82.594528 172.0
82.617424 140.0
82.643372 240.0
82.656036 136.0
82.726624 112.0
82.80629 216.0
82.84433 148.0
82.89325 200.0
82.932213 184.0
82.97757 184.0
82.999817 156.0
83.00721 124.0
83.011848 140.0
83.045486 180.0
83.100006 156.0
83.114464 152.0
83.167091 212.0
83.183426 136.0
83.196136 152.0
83.223366 180.0
83.256958 224.0
83.283295 48.0
83.297829 144.0
83.325073 252.0
83.339615 208.0
83.41552 172.0
83.452301 156.0
83.466843 52.0
83.492302 140.0
83.523224 172.0
83.661301 204.0
83.714317 220.0
83.749763 148.0
83.767136 40.0
83.781708 172.0
83.852318 176.0
83.891052 100.0
83.934807 108.0
83.947571 136.0
83.993164 160.0
84.011406 36.0
84.041695 216.0
84.117249 144.0
84.14463 232.0
84.178177 160.0
84.254944 188.0
84.273514 180.0
84.288918 312.0
84.382133 120.0
84.455284 180.0
84.554077 196.0
84.585197 188.0
84.601669 68.0
84.781166 172.0
84.810211 156.0
84.83432 176.0
84.872818 128.0
84.910316 212.0
84.99791 164.0
85.025078 128.0
85.052605 324.0
85.111351 160.0
85.133385 164.0
85.177467 260.0
85.212372 232.0
85.262489 204.0
85.289551 244.0
85.320801 168.0
85.352119 120.0
85.383316 208.0
85.397209 208.0
85.431137 60.0
85.484436 236.0
85.532776 188.0
85.618881 188.0
85.639359 168.0
85.653877 112.0
85.713371 216.0
85.733101 168.0
85.765419 328.0
85.784706 48.0
85.80867 192.0
85.845551 72.0
85.867676 216.0
85.891655 88.0
85.909935 176.0
85.917206 160.0
85.954384 188.0
85.988434 88.0
86.017128 104.0
86.032669 172.0
86.082596 192.0
86.124222 80.0
86.161713 176.0
86.182915 156.0
86.202972 308.0
86.264656 176.0
86.284988 68.0
86.316422 96.0
86.332329 184.0
86.386703 156.0
86.418152 72.0
86.466667 184.0
86.482925 140.0
86.503281 168.0
86.518089 92.0
86.536606 132.0
86.599998 292.0
86.733948 200.0
86.777458 136.0
86.796005 156.0
86.841614 100.0
86.888062 220.0
86.922134 168.0
86.935127 192.0
86.985237 200.0
87.085503 96.0
87.189545 196.0
87.239731 172.0
87.33931 164.0
87.388046 112.0
87.394882 324.0
87.487144 144.0
87.556038 192.0
87.579971 160.0
87.598877 212.0
87.623093 176.0
87.638 112.0
87.711105 176.0
87.788979 192.0
87.830009 116.0
87.903511 248.0
87.939087 148.0
87.990494 212.0
88.012901 204.0
88.02597 116.0
88.093208 44.0
88.152992 168.0
88.1978 156.0
88.237106 80.0
88.304108 144.0
88.341827 224.0
88.354927 144.0
88.400337 184.0
88.470955 148.0
88.499039 148.0
88.532738 108.0
88.55835 172.0
88.600174 180.0
88.620781 152.0
88.637764 180.0
88.693863 168.0
88.716362 196.0
88.769844 152.0
88.813866 172.0
88.838249 204.0
88.860764 160.0
88.9058 100.0
88.950844 140.0
89.042236 148.0
89.055992 164.0
89.123619 160.0
89.146164 140.0
89.202553 212.0
89.245789 192.0
89.277077 188.0
89.313538 172.0
89.362404 184.0
89.383102 200.0
89.422043 328.0
89.450851 36.0
89.467796 160.0
89.497917 168.0
89.548759 132.0
89.571365 172.0
89.584549 48.0
89.620346 60.0
89.654259 204.0
89.714577 84.0
89.761009 140.0
89.791519 188.0
89.810745 204.0
89.856018 204.0
89.878662 200.0
89.906967 176.0
89.988129 132.0
90.074997 180.0
90.107475 188.0
90.179893 240.0
90.199715 32.0
90.269661 72.0
90.318832 160.0
90.362343 108.0
90.405861 128.0
90.43425 136.0
90.521339 176.0
90.555428 172.0
90.609657 340.0
90.624649 220.0
90.647308 152.0
90.669098 164.0
90.709908 136.0
90.76767 136.0
90.813187 200.0
90.828362 56.0
90.866302 176.0
90.893272 176.0
90.932716 180.0
90.947899 160.0
90.964981 152.0
90.978271 100.0
91.05191 236.0
91.113106 204.0
91.126404 120.0
91.217621 124.0
91.234734 188.0
91.255646 192.0
91.283745 144.0
91.345024 112.0
91.396393 124.0
91.440155 316.0
91.491554 168.0
91.522499 156.0
91.552017 164.0
91.604912 176.0
91.62867 56.0
91.664871 168.0
91.680115 168.0
91.712517 192.0
91.741959 144.0
91.792213 164.0
91.848701 148.0
91.903214 96.0
91.920387 68.0
91.94857 156.0
91.975128 164.0
92.0504 148.0
92.092209 76.0
92.108383 316.0
92.162888 132.0
92.180084 88.0
92.213524 112.0
92.229149 188.0
92.246979 128.0
92.27565 44.0
92.322464 208.0
92.373276 160.0
92.413361 148.0
92.440147 160.0
92.53968 228.0
92.568398 112.0
92.654587 164.0
92.692909 192.0
92.709183 152.0
92.733154 64.0
92.823257 128.0
92.848877 232.0
92.882706 176.0
92.932587 196.0
92.999748 148.0
93.020866 80.0
93.057144 232.0
93.087769 104.0
93.098701 192.0
93.114944 188.0
93.134155 128.0
93.214844 164.0
93.252747 188.0
93.287872 124.0
93.366707 128.0
93.422569 88.0
93.476357 84.0
93.508072 156.0
93.536018 116.0
93.55719 168.0
93.576263 128.0
93.64962 96.0
93.753654 88.0
93.767143 128.0
93.792198 128.0
93.810455 176.0
93.871246 204.0
93.887672 200.0
93.958038 140.0
93.983124 68.0
94.064178 184.0
94.087341 112.0
94.120163 128.0
94.139473 136.0
94.152992 72.0
94.214798 124.0
94.240639 160.0
94.264748 160.0
94.295952 124.0
94.353943 144.0
94.377144 156.0
94.402283 28.0
94.451218 212.0
94.504799 68.0
94.556938 208.0
94.578339 164.0
94.653564 140.0
94.660103 120.0
94.66407 168.0
94.69838 172.0
94.793304 180.0
94.882462 340.0
95.002701 164.0
95.039558 176.0
95.053146 144.0
95.121071 128.0
95.158455 196.0
95.179314 100.0
95.218155 136.0
95.318794 104.0
95.398849 132.0
95.454422 124.0
95.480515 168.0
95.512863 228.0
95.579727 188.0
95.625549 160.0
95.653679 160.0
95.671196 116.0
95.700401 100.0
95.817566 176.0
95.840637 168.0
95.88546 180.0
95.936134 172.0
95.994629 76.0
96.070694 156.0
96.107758 96.0
96.135994 132.0
96.187111 236.0
96.208755 160.0
96.224861 128.0
96.248291 108.0
96.299065 184.0
96.329086 120.0
96.366295 232.0
96.383072 56.0
96.414337 104.0
96.47493 176.0
96.531624 232.0
96.580521 108.0
96.645073 132.0
96.675735 316.0
96.699867 240.0
96.719238 196.0
96.846428 164.0
96.897644 304.0
96.923111 188.0
96.970146 108.0
96.995628 156.0
97.030907 200.0
97.150536 136.0
97.202682 180.0
97.2397 152.0
97.291832 156.0
97.340919 128.0
97.366447 160.0
97.493301 256.0
97.541313 212.0
97.606186 104.0
97.688492 236.0
97.710426 124.0
97.804886 172.0
97.856857 140.0
97.90136 76.0
97.97226 196.0
98.003082 280.0
98.058128 152.0
98.113831 172.0
98.195 44.0
98.228531 172.0
98.259537 188.0
98.267494 112.0
98.400215 164.0
98.492409 140.0
98.55822 112.0
98.585884 44.0
98.612488 148.0
98.633324 92.0
98.694603 200.0
98.763817 112.0
98.815254 152.0
98.856804 240.0
98.903519 172.0
98.977554 252.0
98.991417 200.0
99.031075 156.0
99.12413 192.0
99.139984 152.0
99.159966 148.0
99.233147 156.0
99.250992 140.0
99.274483 184.0
99.338821 196.0
99.397774 120.0
99.415634 132.0
99.467232 208.0
99.481133 164.0
99.526794 128.0
99.582397 180.0
99.701599 104.0
99.763214 84.0
99.778816 292.0
99.866608 168.0
99.882523 204.0
99.904404 168.0
99.917877 340.0
99.932259 160.0
100.005882 164.0
100.027847 124.0
100.059631 120.0
100.116577 200.0
100.157211 148.0
100.261322 124.0
100.304657 108.0
100.327606 188.0
100.382408 168.0
100.398361 224.0
100.474159 140.0
100.49411 132.0
100.52404 188.0
100.540009 168.0
100.600647 188.0
100.671761 172.0
100.757927 172.0
100.819588 124.0
100.885544 128.0
100.901543 180.0
100.929527 144.0
101.03849 352.0
101.069542 212.0
101.090736 196.0
101.163605 124.0
101.205437 152.0
101.231682 168.0
101.255714 128.0
101.285751 184.0
101.301781 56.0
101.333832 124.0
101.382256 144.0
101.512222 152.0
101.552658 224.0
101.630569 192.0
101.660667 80.0
101.674713 124.0
101.793152 124.0
101.807213 120.0
101.8293 116.0
101.856796 160.0
101.883537 204.0
101.926529 160.0
101.945824 204.0
102.000084 220.0
102.037193 148.0
102.045204 108.0
102.162971 236.0
102.19516 140.0
102.237411 148.0
102.293282 176.0
102.305847 276.0
102.33403 276.0
102.348129 188.0
102.386383 268.0
102.400482 344.0
102.424652 136.0
102.468971 104.0
102.504776 200.0
102.585854 140.0
102.624161 40.0
102.66449 44.0
102.738388 220.0
102.793594 112.0
102.829918 48.0
102.846764 276.0
103.029823 164.0
103.055435 3580.0
103.106606 88.0
103.244072 160.0
103.262276 120.0
103.310822 152.0
103.333313 200.0
103.383659 244.0
103.430206 108.0
103.481163 396.0
103.523888 192.0
103.567894 188.0
103.587395 140.0
103.615158 48.0
103.620155 180.0
103.688896 208.0
103.725937 128.0
103.770538 140.0
103.869911 160.0
103.922462 128.0
103.973381 192.0
103.992783 208.0
104.030212 208.0
104.050011 636.0
104.156113 188.0
104.176788 112.0
104.243469 144.0
104.26786 120.0
104.310539 148.0
104.402031 128.0
104.438637 84.0
104.453636 208.0
104.485428 108.0
104.603455 200.0
104.619743 112.0
104.633995 148.0
104.656387 128.0
104.684898 140.0
104.705261 148.0
104.733772 84.0
104.768402 60.0
104.811188 88.0
104.845825 168.0
104.886154 204.0
104.931442 140.0
104.947746 100.0
104.997139 132.0
105.037483 216.0
105.056206 304.0
105.082359 112.0
105.143578 224.0
105.234085 176.0
105.268105 176.0
105.296692 344.0
105.340637 140.0
105.357048 160.0
105.392319 148.0
105.499451 208.0
105.545998 152.0
105.570541 108.0
105.584854 180.0
105.619621 388.0
105.672813 140.0
105.701454 192.0
105.78537 132.0
105.80584 124.0
105.840645 92.0
105.88623 160.0
105.910271 148.0
106.0373 132.0
106.070137 200.0
106.129547 104.0
106.230042 188.0
106.291588 120.0
106.312111 100.0
106.453751 52.0
106.561394 168.0
106.579056 120.0
106.62426 108.0
106.661163 176.0
106.669434 168.0
106.694618 192.0
106.710594 180.0
106.753777 112.0
106.786682 68.0
106.831932 108.0
106.860291 168.0
106.920403 148.0
106.982155 184.0
107.008919 172.0
107.030739 248.0
107.054214 68.0
107.078926 196.0
107.155144 216.0
107.202538 128.0
107.247879 104.0
107.32621 164.0
107.47818 124.0
107.561394 108.0
107.575844 164.0
107.598557 172.0
107.623329 76.0
107.648109 108.0
107.672363 156.0
107.716263 124.0
107.736923 156.0
107.780754 184.0
107.800049 144.0
107.836105 176.0
107.860733 144.0
108.020126 132.0
108.044189 120.0
108.068504 52.0
108.100815 332.0
108.125648 168.0
108.145607 248.0
108.187744 140.0
108.225006 64.0
108.260208 152.0
108.309685 144.0
108.44252 128.0
108.490082 144.0
108.521294 112.0
108.535805 156.0
108.602165 56.0
108.652855 284.0
108.695518 176.0
108.714195 208.0
108.749481 148.0
108.78566 212.0
108.882256 176.0
108.941879 164.0
108.977905 176.0
109.002228 364.0
109.052711 160.0
109.098442 236.0
109.158737 208.0
109.260696 200.0
109.333481 232.0
109.350464 124.0
109.422585 168.0
109.440895 292.0
109.510376 132.0
109.543297 124.0
109.602104 232.0
109.616692 40.0
109.716789 232.0
109.741753 184.0
109.806923 268.0
109.84314 220.0
109.881485 164.0
109.914871 252.0
109.939911 160.0
109.988106 156.0
110.009308 224.0
110.048454 116.0
110.11528 156.0
110.150787 192.0
110.170311 196.0
110.190475 44.0
110.215546 152.0
110.25943 184.0
110.29496 44.0
110.322136 92.0
110.370224 128.0
110.393227 116.0
110.522911 144.0
110.53756 128.0
110.562332 104.0
110.575226 168.0
110.598251 48.0
110.617088 168.0
110.640114 108.0
110.685158 140.0
110.751099 120.0
110.792992 112.0
110.811844 180.0
110.906921 152.0
110.945976 188.0
110.992096 144.0
111.010971 364.0
111.116196 168.0
111.218666 176.0
111.243103 144.0
111.264854 160.0
111.296341 160.0
111.313141 44.0
111.350945 52.0
111.409836 200.0
111.43293 216.0
111.46228 184.0
111.487495 112.0
111.523224 164.0
111.540039 160.0
111.567368 116.0
111.624138 128.0
111.788208 196.0
111.832405 128.0
111.908188 132.0
111.950302 156.0
111.969254 184.0
111.992424 244.0
112.012665 164.0
112.042976 152.0
112.165199 288.0
112.245316 96.0
112.302254 176.0
112.321236 48.0
112.380302 124.0
112.395073 196.0
112.418282 176.0
112.466827 200.0
112.48484 184.0
112.576607 232.0
112.606171 184.0
112.654755 140.0
112.686447 144.0
112.712456 180.0
112.758286 116.0
112.78788 156.0
112.809013 148.0
112.825928 172.0
112.876671 80.0
112.912621 52.0
112.931656 192.0
112.993004 140.0
113.018387 288.0
113.046249 192.0
113.081116 128.0
113.130554 280.0
113.149612 68.0
113.211891 116.0
113.274551 148.0
113.302094 108.0
113.342346 148.0
113.404518 180.0
113.4356 136.0
113.454674 132.0
113.473755 208.0
113.505562 216.0
113.531006 140.0
113.558578 60.0
113.675087 196.0
113.686287 224.0
113.768646 172.0
113.800491 176.0
113.836586 124.0
113.859947 148.0
113.932518 240.0
113.981033 156.0
114.039963 312.0
114.108559 176.0
114.234024 124.0
114.272362 220.0
114.451637 204.0
114.489929 224.0
114.581482 168.0
114.65181 164.0
114.717415 148.0
114.757973 168.0
114.80619 292.0
114.836967 172.0
114.862961 204.0
114.907211 72.0
114.92215 76.0
114.97123 112.0
115.022446 136.0
115.055458 2500.0
115.10144 40.0
115.119629 108.0
115.13298 244.0
115.158195 160.0
115.200424 184.0
115.216774 128.0
115.231728 36.0
115.272324 180.0
115.364227 120.0
115.379196 148.0
115.405121 156.0
115.439056 136.0
115.483971 216.0
115.578094 208.0
115.595627 104.0
115.618752 144.0
115.659416 196.0
115.700706 112.0
115.70694 140.0
115.730064 188.0
115.798592 196.0
115.813583 112.0
115.875702 140.0
115.929276 152.0
115.96785 148.0
116.005035 184.0
116.050362 5112.0
116.110695 68.0
116.131142 196.0
116.149185 160.0
116.18013 64.0
116.268105 36.0
116.296005 196.0
116.321762 148.0
116.37207 220.0
116.390457 84.0
116.405495 152.0
116.420525 180.0
116.459183 168.0
116.480659 76.0
116.495697 124.0
116.532219 112.0
116.547256 144.0
116.573044 72.0
116.641861 192.0
116.68911 132.0
116.714989 572.0
116.738564 80.0
116.781578 64.0
116.820404 196.0
116.880531 164.0
116.930031 56.0
117.006783 416.0
117.031204 64.0
117.06958 4020.0
117.134903 388.0
117.212021 324.0
117.263855 192.0
117.299911 104.0
117.326363 128.0
117.345764 196.0
117.384575 76.0
117.443771 200.0
117.478676 140.0
117.54142 208.0
117.557144 72.0
117.585197 160.0
117.606781 144.0
117.649956 132.0
117.669388 108.0
117.723366 132.0
117.792389 192.0
117.835686 172.0
117.874573 196.0
117.897064 152.0
117.953804 212.0
117.986969 48.0
118.015984 276.0
118.065536 2004.0
118.103737 208.0
118.129997 184.0
118.164787 216.0
118.201088 140.0
118.233994 156.0
118.261681 180.0
118.342186 212.0
118.36235 144.0
118.395912 112.0
118.463058 188.0
118.497719 184.0
118.612572 116.0
118.684113 108.0
118.705711 128.0
118.767303 100.0
118.799057 328.0
118.833771 164.0
118.903206 92.0
118.955299 92.0
119.018959 160.0
119.069878 488.0
119.121262 224.0
119.202576 140.0
119.221397 248.0
119.237656 140.0
119.297974 176.0
119.31591 140.0
119.355049 312.0
119.37027 108.0
119.442039 184.0
119.489891 144.0
119.617096 208.0
119.64006 152.0
119.655296 152.0
119.687958 236.0
119.729332 148.0
119.770714 152.0
119.788139 108.0
119.807739 84.0
119.870926 132.0
119.903618 140.0
119.955925 60.0
119.996384 200.0
120.015358 152.0
120.045273 212.0
120.050903 192.0
120.060173 128.0
120.065376 140.0
120.123833 48.0
120.181496 176.0
120.23407 380.0
120.270081 164.0
120.32798 168.0
120.352982 104.0
120.388374 212.0
120.438148 148.0
120.494949 188.0
120.525536 208.0
120.588905 156.0
120.610764 184.0
120.685089 160.0
120.700401 84.0
120.746323 168.0
120.761627 156.0
120.849129 72.0
120.92572 48.0
120.954178 180.0
120.979324 204.0
121.011093 132.0
121.053993 220.0
121.076782 192.0
121.131538 192.0
121.157829 160.0
121.28492 136.0
121.341919 136.0
121.391068 164.0
121.455948 112.0
121.49324 208.0
121.608315 136.0
121.670998 140.0
121.690758 152.0
121.761681 40.0
121.862068 80.0
121.917 152.0
121.932388 164.0
121.965355 132.0
122.051094 244.0
122.072121 220.0
122.117065 232.0
122.14566 144.0
122.167656 140.0
122.253235 152.0
122.29528 120.0
122.387733 180.0
122.422966 196.0
122.504463 192.0
122.55954 188.0
122.605812 184.0
122.665543 200.0
122.695892 120.0
122.71418 148.0
122.804543 344.0
122.830704 172.0
122.865311 168.0
122.888062 140.0
122.907913 144.0
122.923363 172.0
122.947639 120.0
123.016151 188.0
123.054352 196.0
123.07589 200.0
123.135292 88.0
123.188301 156.0
123.25016 44.0
123.349609 116.0
123.410011 260.0
123.449104 188.0
123.511024 192.0
123.619431 180.0
123.677834 236.0
123.694679 188.0
123.752243 164.0
123.781029 144.0
123.842194 148.0
123.971527 116.0
123.997147 200.0
124.038406 184.0
124.060188 168.0
124.104523 148.0
124.120049 220.0
124.177704 60.0
124.279747 176.0
124.331276 320.0
124.386269 244.0
124.479515 136.0
124.501724 184.0
124.532814 132.0
124.57946 100.0
124.649788 196.0
124.72612 136.0
124.86174 172.0
124.92234 196.0
124.986313 132.0
125.03833 256.0
125.073112 168.0
125.097595 156.0
125.226738 76.0
125.249008 128.0
125.291069 132.0
125.297173 220.0
125.387146 152.0
125.44519 192.0
125.563271 176.0
125.616806 104.0
125.65696 112.0
125.687988 88.0
125.695755 144.0
125.773674 224.0
125.815849 164.0
125.8489 212.0
125.947205 204.0
126.000771 192.0
126.020454 188.0
126.044434 492.0
126.08255 360.0
126.224281 132.0
126.277946 204.0
126.378616 112.0
126.441223 196.0
126.494987 296.0
126.519608 112.0
126.539452 208.0
126.571106 192.0
126.669647 100.0
126.70549 384.0
126.785591 208.0
126.815285 160.0
126.84288 116.0
126.884781 184.0
126.963257 160.0
126.98568 168.0
127.05481 1680.0
127.089661 352.0
127.093941 124.0
127.103508 260.0
127.131508 84.0
127.221283 56.0
127.237 148.0
127.262833 200.0
127.327782 232.0
127.34478 256.0
127.360504 148.0
127.403183 244.0
127.423401 136.0
127.443626 112.0
127.463844 108.0
127.478928 108.0
127.508789 204.0
127.53569 248.0
127.585213 288.0
127.63018 184.0
127.659409 168.0
127.694107 160.0
127.72226 144.0
127.774124 244.0
127.841621 176.0
127.864128 152.0
127.897888 124.0
127.936157 128.0
127.978935 68.0
128.00145 168.0
128.016769 144.0
128.051804 3020.0
128.120819 200.0
128.161377 76.0
128.210953 132.0
128.237991 168.0
128.267288 208.0
128.312378 188.0
128.389038 268.0
128.443176 96.0
128.472488 180.0
128.542068 180.0
128.636078 220.0
128.695923 144.0
128.716248 108.0
128.77948 132.0
128.823212 128.0
128.876617 200.0
128.897232 196.0
128.917282 164.0
128.989609 132.0
129.006699 164.0
129.049423 640.0
129.136917 80.0
129.153549 180.0
129.18634 164.0
129.23732 172.0
129.279114 52.0
129.351532 104.0
129.458572 100.0
129.539474 108.0
129.56572 144.0
129.614304 172.0
129.643707 176.0
129.73436 220.0
129.76384 88.0
129.784241 124.0
129.82959 156.0
129.846115 140.0
129.88176 220.0
129.958893 80.0
129.979309 188.0
129.997467 156.0
130.013351 112.0
130.06604 7800.0
130.125961 96.0
130.145004 80.0
130.169983 124.0
130.208588 72.0
130.226761 84.0
130.285812 48.0
130.303986 168.0
130.383514 224.0
130.444885 148.0
130.474442 128.0
130.494904 176.0
130.529007 148.0
130.544922 232.0
130.559906 156.0
130.585861 156.0
130.608887 124.0
130.690491 152.0
130.706421 180.0
130.745102 32.0
130.873108 216.0
130.918121 200.0
130.959671 240.0
130.994003 76.0
131.013779 148.0
131.069199 1164.0
131.099335 132.0
131.12088 32.0
131.150513 188.0
131.168747 128.0
131.185913 232.0
131.273621 72.0
131.298706 156.0
131.37854 128.0
131.44014 104.0
131.54834 224.0
131.651398 248.0
131.832901 140.0
131.86261 112.0
131.878601 164.0
131.912216 180.0
131.938034 212.0
131.958618 204.0
131.981476 40.0
132.027206 136.0
132.067612 296.0
132.13472 208.0
132.191269 200.0
132.206924 200.0
132.255371 176.0
132.299484 264.0
132.331543 56.0
132.444504 156.0
132.471237 136.0
132.542252 116.0
132.560593 140.0
132.616684 100.0
132.805893 248.0
132.841797 264.0
132.880707 300.0
132.916916 376.0
132.952728 164.0
132.994034 172.0
133.01239 132.0
133.070419 188.0
133.118011 220.0
133.193054 144.0
133.278793 204.0
133.309738 216.0
133.352341 112.0
133.464981 188.0
133.54776 272.0
133.568466 176.0
133.596069 144.0
133.632874 284.0
133.695007 36.0
133.754837 68.0
133.780167 96.0
133.798584 188.0
133.817001 84.0
133.869965 140.0
133.901962 152.0
133.968994 172.0
134.026596 176.0
134.056549 132.0
134.074982 68.0
134.11647 108.0
134.151047 196.0
134.225586 156.0
134.29129 204.0
134.344757 152.0
134.38858 152.0
134.437042 148.0
134.559677 180.0
134.605621 136.0
134.628647 188.0
134.644806 148.0
134.697937 268.0
134.741821 104.0
134.790344 140.0
134.810806 168.0
134.838867 140.0
134.8703 168.0
134.959076 108.0
135.067764 144.0
135.090897 176.0
135.156815 132.0
135.199646 96.0
135.229736 136.0
135.278336 184.0
135.338531 148.0
135.358459 212.0
135.558853 208.0
135.666092 136.0
135.711563 148.0
135.764893 136.0
135.785767 68.0
135.843765 164.0
135.880875 48.0
135.947144 148.0
135.994583 136.0
136.017792 244.0
136.073502 164.0
136.101425 148.0
136.152451 148.0
136.186737 200.0
136.252335 104.0
136.32901 188.0
136.361542 168.0
136.389435 144.0
136.415146 188.0
136.423782 180.0
136.430649 148.0
136.454529 176.0
136.475449 148.0
136.513382 216.0
136.535904 264.0
136.55452 192.0
136.629822 244.0
136.664398 100.0
136.742966 228.0
136.7686 304.0
136.805817 160.0
136.829559 184.0
136.88269 200.0
136.945526 160.0
136.968475 192.0
137.003754 152.0
137.134247 184.0
137.15126 380.0
137.187851 124.0
137.225159 176.0
137.24707 196.0
137.322769 176.0
137.365875 296.0
137.407074 156.0
137.442062 36.0
137.458405 172.0
137.535416 144.0
137.582092 112.0
137.614777 180.0
137.638138 144.0
137.659149 108.0
137.675491 144.0
137.692368 180.0
137.722198 112.0
137.747894 156.0
137.768921 80.0
137.817978 132.0
137.834335 80.0
137.864716 172.0
137.948471 144.0
137.9673 176.0
138.07605 232.0
138.156982 192.0
138.189117 304.0
138.241211 188.0
138.259796 136.0
138.285675 188.0
138.307251 164.0
138.451904 208.0
138.519821 176.0
138.589584 200.0
138.651031 220.0
138.7612 152.0
138.782303 204.0
138.80809 116.0
138.880798 200.0
138.947876 180.0
138.972275 144.0
139.030945 116.0
139.055573 252.0
139.111801 124.0
139.127182 172.0
139.228134 120.0
139.315048 176.0
139.36908 56.0
139.406677 140.0
139.430176 176.0
139.474838 220.0
139.604095 192.0
139.665283 148.0
139.724091 168.0
139.782913 112.0
139.813507 280.0
139.893539 176.0
139.976639 200.0
140.050629 2908.0
140.114899 128.0
140.138458 168.0
140.176163 120.0
140.294006 64.0
140.33345 180.0
140.423584 180.0
140.45372 164.0
140.485016 224.0
140.534561 184.0
140.579559 176.0
140.671097 184.0
140.720901 164.0
140.746994 116.0
140.768234 176.0
140.843811 56.0
140.869797 148.0
140.888702 152.0
140.909958 156.0
141.051147 392.0
141.101395 180.0
141.21962 176.0
141.241837 204.0
141.273605 200.0
141.32608 152.0
141.356842 212.0
141.432571 64.0
141.456238 216.0
141.48938 144.0
141.551559 216.0
141.595932 172.0
141.657516 64.0
141.676178 168.0
141.709091 208.0
141.726227 132.0
141.759628 208.0
141.789139 168.0
141.831497 160.0
141.875534 124.0
141.955017 176.0
142.063797 1656.0
142.105576 152.0
142.140106 160.0
142.252716 232.0
142.269333 124.0
142.299561 60.0
142.319183 176.0
142.338181 216.0
142.379486 212.0
142.442673 176.0
142.471191 112.0
142.492569 208.0
142.521072 140.0
142.537704 40.0
142.599503 76.0
142.649414 64.0
142.673187 160.0
142.705475 216.0
142.77652 188.0
142.915268 172.0
142.94194 124.0
142.982407 152.0
143.015717 348.0
143.072586 11448.0
143.10527 180.0
143.139343 168.0
143.172852 48.0
143.237152 196.0
143.287186 184.0
143.303864 132.0
143.329865 140.0
143.346756 192.0
143.402802 184.0
143.465927 144.0
143.507797 128.0
143.537323 180.0
143.561295 120.0
143.583481 144.0
143.654312 192.0
143.722748 164.0
143.788788 180.0
143.82077 160.0
143.830688 240.0
143.866699 204.0
143.924088 192.0
143.940781 264.0
143.959335 184.0
143.994247 196.0
144.029663 160.0
144.082092 91084.0
144.176132 144.0
144.201721 108.0
144.218613 224.0
144.258469 152.0
144.288666 160.0
144.312897 52.0
144.352631 104.0
144.370422 140.0
144.396225 52.0
144.411499 184.0
144.434769 148.0
144.474854 472.0
144.508804 84.0
144.546509 212.0
144.607681 68.0
144.658615 100.0
144.67627 184.0
144.702042 152.0
144.724976 200.0
144.764496 192.0
144.802628 140.0
144.903442 164.0
144.931976 76.0
144.990875 64.0
145.034073 148.0
145.083633 9756.0
145.138519 88.0
145.15863 180.0
145.1745 140.0
145.189423 296.0
145.214462 136.0
145.25621 108.0
145.277679 156.0
145.314163 68.0
145.324005 56.0
145.372177 60.0
145.486298 124.0
145.513779 164.0
145.542603 144.0
145.564209 76.0
145.632645 96.0
145.696304 240.0
145.742218 72.0
145.773193 128.0
145.806534 96.0
145.853607 180.0
145.915833 116.0
145.939438 192.0
145.96048 140.0
145.991272 100.0
146.009613 184.0
146.032822 160.0
146.060394 540.0
146.087769 592.0
146.140076 240.0
146.17717 108.0
146.200928 152.0
146.236298 100.0
146.252335 232.0
146.273315 232.0
146.311722 124.0
146.331879 132.0
146.367935 124.0
146.507355 160.0
146.538345 56.0
146.593765 192.0
146.654007 200.0
146.679367 208.0
146.807343 80.0
146.899124 180.0
146.963318 180.0
147.018173 116.0
147.039902 116.0
147.061325 344.0
147.090881 260.0
147.176651 184.0
147.25235 80.0
147.324814 216.0
147.348984 156.0
147.4263 108.0
147.486725 220.0
147.510895 48.0
147.54744 136.0
147.655212 180.0
147.716217 140.0
147.739868 168.0
147.845291 244.0
147.92453 112.0
147.94632 36.0
148.001999 196.0
148.03035 152.0
148.064957 76.0
148.200607 288.0
148.264557 344.0
148.295334 288.0
148.360565 212.0
148.396927 224.0
148.421173 40.0
148.542435 116.0
148.571106 152.0
148.656464 68.0
148.705002 176.0
148.748703 132.0
148.780258 132.0
148.872513 56.0
149.030411 40.0
149.074142 48.0
149.09845 176.0
149.139755 160.0
149.23349 136.0
149.300217 112.0
149.319672 60.0
149.380478 128.0
149.397507 148.0
149.441299 124.0
149.470505 204.0
149.498886 192.0
149.657928 156.0
149.682266 164.0
149.779678 128.0
149.823532 88.0
149.99411 148.0
150.050323 140.0
150.169952 208.0
150.206253 172.0
150.230637 188.0
150.252594 132.0
150.408783 172.0
150.442947 156.0
150.4991 152.0
150.540619 208.0
150.647705 204.0
150.755585 180.0
150.855789 60.0
150.912018 228.0
150.934021 204.0
150.960922 108.0
151.007385 32.0
151.038452 160.0
151.056305 360.0
151.085663 132.0
151.127258 116.0
151.144379 84.0
151.176193 108.0
151.291229 164.0
151.330399 132.0
151.347534 100.0
151.435699 172.0
151.602295 196.0
151.619446 60.0
151.696121 168.0
151.717484 156.0
151.744461 376.0
151.778778 92.0
151.815567 196.0
151.851166 124.0
151.910309 152.0
151.964798 176.0
152.009354 132.0
152.045883 160.0
152.062943 396.0
152.122253 164.0
152.151703 108.0
152.225372 132.0
152.272827 124.0
152.313782 160.0
152.355545 112.0
152.476776 212.0
152.677536 184.0
152.747681 200.0
152.793137 112.0
152.817734 44.0
152.834961 132.0
152.864487 44.0
152.96048 148.0
152.982635 200.0
153.005402 212.0
153.022018 184.0
153.056549 476.0
153.125443 104.0
153.164841 116.0
153.182083 132.0
153.248611 156.0
153.310211 156.0
153.386612 168.0
153.569077 100.0
153.608536 132.0
153.655411 136.0
153.689941 116.0
153.719559 212.0
153.778778 160.0
153.813339 48.0
153.830612 148.0
153.859558 208.0
154.066208 2536.0
154.146744 124.0
154.233246 140.0
154.250549 44.0
154.267853 196.0
154.316193 180.0
154.391479 276.0
154.445892 120.0
154.492889 108.0
154.657654 184.0
154.698288 152.0
154.738846 356.0
154.777512 152.0
154.80722 180.0
154.869141 252.0
154.940979 120.0
154.978134 56.0
155.002243 164.0
155.061462 3184.0
155.1194 124.0
155.151627 120.0
155.181366 48.0
155.20369 104.0
155.240875 132.0
155.275604 84.0
155.35994 184.0
155.409546 316.0
155.431885 152.0
155.496399 128.0
155.513779 440.0
155.548523 48.0
155.588242 180.0
155.618042 160.0
155.665222 236.0
155.776978 136.0
155.86145 88.0
155.880249 148.0
155.919022 212.0
155.938477 156.0
155.985703 92.0
156.039963 180.0
156.068588 4124.0
156.147766 188.0
156.221939 68.0
156.266724 68.0
156.294098 196.0
156.326447 60.0
156.493835 160.0
156.563782 128.0
156.595306 120.0
156.640945 172.0
156.675018 52.0
156.729126 156.0
156.784653 128.0
156.824524 72.0
156.857391 216.0
156.918915 164.0
156.95665 144.0
156.974106 120.0
157.077347 11736.0
157.121643 104.0
157.207321 204.0
157.238541 64.0
157.315918 72.0
157.343369 36.0
157.368042 68.0
157.558151 128.0
157.579208 256.0
157.615616 192.0
157.645599 160.0
157.686768 84.0
157.794342 148.0
157.835571 84.0
157.858078 52.0
157.910599 80.0
157.928101 152.0
157.945618 96.0
157.993134 144.0
158.013153 144.0
158.039551 152.0
158.084305 18056.0
158.127548 156.0
158.207397 64.0
158.224457 184.0
158.244385 92.0
158.298492 108.0
158.323532 100.0
158.403687 64.0
158.43074 192.0
158.456284 88.0
158.485397 84.0
158.523331 148.0
158.564041 108.0
158.704727 52.0
158.768021 196.0
158.859909 76.0
158.899155 124.0
158.957748 84.0
158.975311 48.0
159.005432 168.0
159.060654 172.0
159.086288 1776.0
159.124054 140.0
159.181152 164.0
159.235184 148.0
159.274078 60.0
159.314545 224.0
159.335831 152.0
159.4198 76.0
159.454987 136.0
159.495193 116.0
159.52536 148.0
159.54657 64.0
159.603302 116.0
159.64856 128.0
159.671188 84.0
159.711823 208.0
159.785431 144.0
159.812057 152.0
159.882507 152.0
159.95047 124.0
160.003326 200.0
160.04361 160.0
160.090851 132.0
160.133881 152.0
160.199768 48.0
160.232651 144.0
160.271027 152.0
160.301163 140.0
160.33078 120.0
160.355988 228.0
160.396317 160.0
160.413956 212.0
160.439163 76.0
160.482025 200.0
160.60054 128.0
160.726685 148.0
160.74585 208.0
160.929153 128.0
160.981628 100.0
161.027084 208.0
161.049316 412.0
161.072601 424.0
161.135696 68.0
161.153397 48.0
161.17865 76.0
161.239304 168.0
161.368225 128.0
161.413727 196.0
161.509262 176.0
161.539597 172.0
161.589935 204.0
161.65657 180.0
161.703354 148.0
161.742615 160.0
161.843887 148.0
161.990768 136.0
162.056641 188.0
162.102249 364.0
162.163071 132.0
162.256851 184.0
162.287277 112.0
162.426544 208.0
162.457199 164.0
162.501389 176.0
162.573517 280.0
162.650055 72.0
162.696884 188.0
162.812546 212.0
162.850632 196.0
162.896362 80.0
162.933334 172.0
162.964951 176.0
162.992905 52.0
163.058975 92.0
163.076767 112.0
163.188614 60.0
163.233292 136.0
163.30304 228.0
163.342972 244.0
163.397156 116.0
163.442963 136.0
163.565109 236.0
163.608383 152.0
163.664398 116.0
163.68222 136.0
163.700043 160.0
163.730606 120.0
163.777924 176.0
163.8172 52.0
163.860519 220.0
164.052246 220.0
164.082245 96.0
164.133224 148.0
164.255646 220.0
164.469986 244.0
164.521881 168.0
164.554535 128.0
164.588455 224.0
164.607834 96.0
164.671677 220.0
164.705017 152.0
164.832626 140.0
164.864212 268.0
164.950607 48.0
165.034546 116.0
165.065109 216.0
165.111267 264.0
165.134277 140.0
165.254517 160.0
165.326157 128.0
165.348297 304.0
165.386627 184.0
165.418289 116.0
165.581711 180.0
165.620575 108.0
165.664688 184.0
165.733307 160.0
165.797394 320.0
165.858871 48.0
165.905014 236.0
165.948593 76.0
165.996933 160.0
166.033218 204.0
166.06604 672.0
166.103577 208.0
166.137146 316.0
166.212784 184.0
166.234604 172.0
166.298447 240.0
166.40271 88.0
166.615875 236.0
166.644135 244.0
166.695679 172.0
166.78804 204.0
166.83876 104.0
166.862595 212.0
166.914017 200.0
166.939728 64.0
166.962875 104.0
167.010727 244.0
167.073303 6444.0
167.118454 124.0
167.155807 232.0
167.184875 168.0
167.214996 104.0
167.25116 168.0
167.274902 204.0
167.293289 96.0
167.346985 160.0
167.377182 168.0
167.485336 60.0
167.560516 176.0
167.65538 164.0
167.685822 192.0
167.707733 228.0
167.761063 40.0
167.784256 172.0
167.807465 64.0
167.886124 132.0
167.915756 116.0
167.936401 148.0
167.977661 128.0
168.026672 92.0
168.078674 2420.0
168.127304 132.0
168.14537 216.0
168.253784 152.0
168.271851 156.0
168.494736 148.0
168.519791 36.0
168.563721 176.0
168.711044 120.0
168.765335 196.0
168.817047 56.0
168.850677 208.0
168.956726 208.0
169.018814 40.0
169.077103 2856.0
169.140442 188.0
169.18187 124.0
169.27507 112.0
169.303558 148.0
169.350174 124.0
169.401978 84.0
169.424637 164.0
169.451202 116.0
169.500427 120.0
169.521164 140.0
169.570618 232.0
169.647598 168.0
169.689636 148.0
169.720749 160.0
169.808914 244.0
169.830734 128.0
169.875137 160.0
169.903549 124.0
169.956985 268.0
169.995712 108.0
170.024353 244.0
170.086044 2916.0
170.148849 52.0
170.21376 208.0
170.257904 120.0
170.28598 212.0
170.32196 140.0
170.330963 124.0
170.336349 156.0
170.359024 220.0
170.385178 180.0
170.415695 64.0
170.485657 184.0
170.5289 128.0
170.554642 204.0
170.594208 128.0
170.68927 180.0
170.723587 184.0
170.729309 160.0
170.761353 272.0
170.795395 188.0
170.824509 36.0
170.876617 248.0
170.918671 164.0
170.965759 384.0
170.995316 308.0
171.093002 124284.0
171.148026 132.0
171.192429 44.0
171.227936 32.0
171.271423 240.0
171.288284 144.0
171.310196 88.0
171.345673 156.0
171.351669 248.0
171.381256 136.0
171.419586 92.0
171.445587 148.0
171.473389 76.0
171.520935 1044.0
171.577805 152.0
171.628204 40.0
171.656464 56.0
171.678101 60.0
171.714081 60.0
171.757935 184.0
171.810715 164.0
171.82547 300.0
171.858932 64.0
171.889542 60.0
171.924545 140.0
171.950256 68.0
171.973831 224.0
172.027588 120.0
172.095535 20284.0
172.163467 44.0
172.191605 120.0
172.232315 88.0
172.284332 76.0
172.305222 116.0
172.326126 76.0
172.345428 52.0
172.398163 300.0
172.454178 144.0
172.481812 112.0
172.509476 152.0
172.540436 68.0
172.591324 284.0
172.62355 152.0
172.647644 92.0
172.694107 192.0
172.771729 144.0
172.806015 168.0
172.850784 100.0
172.909653 52.0
172.928909 72.0
172.958984 96.0
173.024048 148.0
173.066833 120.0
173.099945 2480.0
173.153671 112.0
173.19368 252.0
173.21373 96.0
173.248993 124.0
173.285202 236.0
173.341812 180.0
173.364471 116.0
173.382568 352.0
173.414276 188.0
173.422302 152.0
173.431641 260.0
173.460938 300.0
173.503845 36.0
173.560013 244.0
173.582504 168.0
173.6297 76.0
173.67691 148.0
173.742493 104.0
173.760849 68.0
173.797577 188.0
173.83432 80.0
173.943069 192.0
173.979553 152.0
174.031189 52.0
174.102081 108.0
174.133591 144.0
174.167358 140.0
174.173874 120.0
174.207733 160.0
174.228149 108.0
174.269516 188.0
174.311569 96.0
174.334778 116.0
174.368668 160.0
174.392105 132.0
174.421753 196.0
174.442657 32.0
174.513474 284.0
174.601395 160.0
174.654007 64.0
174.73291 48.0
174.781158 48.0
174.811859 68.0
174.853958 56.0
174.959671 176.0
175.009262 60.0
175.033813 224.0
175.062973 404.0
175.133041 180.0
175.201523 36.0
175.230499 64.0
175.320099 84.0
175.41684 192.0
175.462433 104.0
175.501968 272.0
175.570541 84.0
175.591629 172.0
175.673401 156.0
175.773346 120.0
175.875671 280.0
175.984818 196.0
176.011215 252.0
176.057709 244.0
176.133972 100.0
176.151184 140.0
176.211945 192.0
176.233093 384.0
176.447159 124.0
176.542358 116.0
176.596375 132.0
176.640213 48.0
176.703705 168.0
176.791016 192.0
176.838654 236.0
176.865128 80.0
176.938797 192.0
176.978958 172.0
177.059952 132.0
177.100769 104.0
177.161697 112.0
177.206741 124.0
177.262375 48.0
177.286224 184.0
177.357788 196.0
177.479736 28.0
177.531677 208.0
177.699875 136.0
177.771515 136.0
177.928116 56.0
177.967941 120.0
177.991837 116.0
178.031662 128.0
178.065689 572.0
178.100708 232.0
178.119308 52.0
178.249481 120.0
178.38237 84.0
178.456802 192.0
178.52861 96.0
178.674896 156.0
178.696182 168.0
178.720123 212.0
178.898438 124.0
178.962326 44.0
178.988953 176.0
179.062119 304.0
179.194046 120.0
179.223358 188.0
179.298462 148.0
179.37793 128.0
179.396576 40.0
179.473892 68.0
179.492569 128.0
179.554596 200.0
179.644577 128.0
179.67926 152.0
179.705444 108.0
179.735291 168.0
179.764648 88.0
179.788666 228.0
179.814041 180.0
179.866058 44.0
179.916779 52.0
179.971649 240.0
180.026245 72.0
180.081207 3380.0
180.138428 188.0
180.16246 84.0
180.205215 128.0
180.242615 88.0
180.266663 196.0
180.28537 224.0
180.314011 152.0
180.351212 176.0
180.378922 68.0
180.435059 116.0
180.472488 88.0
180.51918 164.0
180.579132 132.0
180.627594 208.0
180.715881 72.0
180.753342 124.0
180.785446 104.0
180.967468 140.0
181.048462 96.0
181.07811 4460.0
181.138855 36.0
181.165649 144.0
181.22995 72.0
181.270142 180.0
181.307648 288.0
181.372726 156.0
181.447037 108.0
181.52211 88.0
181.559982 64.0
181.598145 148.0
181.648163 156.0
181.701813 132.0
181.781555 128.0
181.787552 92.0
181.796417 124.0
181.825241 96.0
181.857452 172.0
181.891785 212.0
181.951401 60.0
182.025055 228.0
182.085526 12420.0
182.150116 104.0
182.224274 152.0
182.252213 124.0
182.30426 128.0
182.350662 204.0
182.39888 76.0
182.421524 260.0
182.440338 68.0
182.478363 116.0
182.548935 112.0
182.572083 128.0
182.601669 48.0
182.633942 28.0
182.658157 56.0
182.731735 148.0
182.787292 200.0
182.808823 140.0
182.851135 208.0
182.903778 168.0
182.947754 180.0
183.002609 76.0
183.021469 120.0
183.053772 172.0
183.092377 34532.0
183.173431 48.0
183.212677 32.0
183.24585 80.0
183.32518 80.0
183.358185 68.0
183.384781 60.0
183.460617 156.0
183.482773 216.0
183.525314 44.0
183.556976 140.0
183.598114 68.0
183.662857 76.0
183.697998 140.0
183.719498 160.0
183.762665 32.0
183.784241 96.0
183.81662 72.0
183.867905 36.0
183.908386 56.0
183.959671 40.0
184.027161 64.0
184.096725 5268.0
184.196198 128.0
184.218903 104.0
184.283737 184.0
184.31076 52.0
184.345886 152.0
184.408051 60.0
184.521576 108.0
184.654083 76.0
184.686539 76.0
184.746048 224.0
184.833588 212.0
184.924622 176.0
184.943573 84.0
185.038315 60.0
185.098618 616.0
185.130386 136.0
185.161102 152.0
185.193069 164.0
185.250885 244.0
185.374176 92.0
185.444641 92.0
185.471741 164.0
185.503586 176.0
185.563919 76.0
185.612717 68.0
185.631699 136.0
185.66153 100.0
185.713058 188.0
185.811813 216.0
185.905685 256.0
185.930099 172.0
186.033249 68.0
186.232712 140.0
186.299713 160.0
186.336426 156.0
186.389023 160.0
186.437943 116.0
186.508606 144.0
186.639603 148.0
186.707077 68.0
186.745148 108.0
186.807709 128.0
186.95192 188.0
187.111145 152.0
187.134277 48.0
187.192627 188.0
187.294952 48.0
187.444794 128.0
187.514343 148.0
187.556534 152.0
187.679199 88.0
187.706467 268.0
187.905579 176.0
187.927414 156.0
188.044739 164.0
188.069305 152.0
188.151199 164.0
188.200348 92.0
188.375122 172.0
188.424301 72.0
188.448898 180.0
188.580063 172.0
188.700333 144.0
188.719467 44.0
188.768692 196.0
188.812439 260.0
189.087357 132.0
189.168137 160.0
189.239319 208.0
189.286057 168.0
189.326935 204.0
189.359802 40.0
189.533386 184.0
189.568008 72.0
189.611847 184.0
189.694077 144.0
189.866821 200.0
190.074493 184.0
190.190781 192.0
190.432175 180.0
190.498093 272.0
190.684937 180.0
190.827881 152.0
190.869125 252.0
191.003876 112.0
191.061646 168.0
191.16069 156.0
191.219788 136.0
191.312073 128.0
191.455246 76.0
191.559906 112.0
191.609497 148.0
191.747269 120.0
191.965057 160.0
192.064346 136.0
192.097443 88.0
192.152618 152.0
192.188477 128.0
192.227112 144.0
192.2547 36.0
192.285065 148.0
192.420319 196.0
192.461731 44.0
192.577713 148.0
192.613907 192.0
193.075195 120.0
193.288193 76.0
193.343536 48.0
193.398895 96.0
193.490234 104.0
193.559448 156.0
193.608963 164.0
193.642532 180.0
193.69516 140.0
193.853073 140.0
193.894638 84.0
193.969482 120.0
194.005524 204.0
194.08403 220.0
194.141373 100.0
194.182968 204.0
194.28006 156.0
194.43544 116.0
194.560349 144.0
194.70195 232.0
194.728607 188.0
194.780899 160.0
194.812454 192.0
194.832504 152.0
194.860703 184.0
194.897903 192.0
194.924179 140.0
194.954758 108.0
195.043686 148.0
195.092453 7060.0
195.207718 64.0
195.232742 144.0
195.33844 160.0
195.35791 52.0
195.37973 76.0
195.507828 136.0
195.547119 68.0
195.583298 96.0
195.654572 152.0
195.767044 120.0
195.789322 192.0
195.833237 208.0
195.889587 148.0
196.03447 160.0
196.097855 1372.0
196.17662 120.0
196.198914 164.0
196.235153 100.0
196.257462 228.0
196.366226 144.0
196.397903 100.0
196.511276 148.0
196.555908 104.0
196.594986 180.0
196.645218 180.0
196.673126 52.0
196.702164 176.0
196.752625 108.0
196.779205 36.0
196.827957 148.0
196.971893 124.0
197.039551 224.0
197.108017 34076.0
197.160248 168.0
197.206604 96.0
197.23735 128.0
197.267822 180.0
197.322433 56.0
197.403168 204.0
197.451752 76.0
197.486984 172.0
197.564117 276.0
197.588943 92.0
197.625702 92.0
197.665237 40.0
197.723999 56.0
197.759506 140.0
197.792007 40.0
197.826218 136.0
197.851791 152.0
197.875153 172.0
197.903152 112.0
197.931152 48.0
197.950745 124.0
197.975952 224.0
198.00676 168.0
198.057175 84.0
198.111816 4224.0
198.20285 356.0
198.224731 104.0
198.256088 152.0
198.276733 264.0
198.307678 192.0
198.34491 168.0
198.411209 188.0
198.42894 192.0
198.467575 144.0
198.515228 160.0
198.537338 292.0
198.596069 212.0
198.627197 164.0
198.665878 124.0
198.700607 232.0
198.738007 88.0
198.742828 76.0
198.766647 184.0
198.809586 204.0
198.839722 212.0
198.846466 148.0
198.896484 224.0
198.904572 184.0
198.946411 804.0
198.982529 212.0
199.005707 132.0
199.046021 772.0
199.072266 836.0
199.124557 221064.0
199.21312 208.0
199.232819 276.0
199.267944 120.0
199.279449 92.0
199.308533 152.0
199.343826 116.0
199.348602 124.0
199.389755 140.0
199.411499 244.0
199.435776 168.0
199.459305 164.0
199.493118 80.0
199.511871 228.0
199.536224 76.0
199.553879 72.0
199.586411 2676.0
199.60997 200.0
199.618683 148.0
199.627869 280.0
199.659409 124.0
199.699127 40.0
199.738159 100.0
199.782593 136.0
199.819763 152.0
199.854019 64.0
199.88829 140.0
199.908524 120.0
199.942963 208.0
199.970398 48.0
200.01506 28.0
200.071198 212.0
200.126831 32644.0
200.197571 56.0
200.227295 40.0
200.241806 80.0
200.245682 164.0
200.288666 236.0
200.308167 232.0
200.330612 72.0
200.356033 140.0
200.362595 40.0
200.374481 156.0
200.423615 56.0
200.468811 100.0
200.48114 88.0
200.48967 80.0
200.522736 60.0
200.559616 136.0
200.580612 96.0
200.602966 76.0
200.628113 200.0
200.666428 152.0
200.712555 92.0
200.776718 96.0
200.810913 48.0
200.819916 68.0
200.919876 64.0
200.950455 88.0
200.983444 56.0
201.011688 144.0
201.05127 208.0
201.129318 2300.0
201.194412 164.0
201.213547 84.0
201.240875 132.0
201.29863 244.0
201.350266 244.0
201.394897 128.0
201.465393 52.0
201.476974 84.0
201.494324 280.0
201.559113 180.0
201.588776 168.0
201.617645 100.0
201.646317 356.0
201.654922 112.0
201.687424 92.0
201.731888 152.0
201.758575 136.0
201.876312 84.0
201.898941 120.0
201.934067 152.0
202.005844 60.0
202.048843 60.0
202.082794 68.0
202.113922 56.0
202.136551 128.0
202.186813 132.0
202.284225 136.0
202.354492 36.0
202.425568 120.0
202.490417 136.0
202.630768 88.0
202.692078 64.0
202.736893 88.0
202.763702 148.0
202.807739 68.0
202.830414 96.0
202.853088 72.0
202.921127 56.0
202.966492 88.0
203.062912 120.0
203.140244 120.0
203.184891 148.0
203.321075 40.0
203.366806 72.0
203.641891 128.0
203.812347 36.0
204.048248 100.0
204.082367 132.0
204.102264 80.0
204.14325 116.0
204.420853 48.0
204.743713 124.0
204.865005 76.0
205.024918 64.0
205.18988 36.0
205.249405 96.0
205.341003 36.0
205.537842 80.0
205.560669 64.0
205.706223 76.0
206.040344 48.0
206.168915 60.0
206.314117 60.0
206.509125 60.0
207.491318 124.0
207.56012 68.0
207.720718 56.0
208.027771 128.0
208.224976 140.0
208.48732 156.0
208.616653 100.0
208.94162 36.0
209.007797 60.0
209.197739 64.0
209.356094 88.0
209.44249 28.0
209.497223 92.0
209.880539 52.0
209.922668 124.0
210.016083 120.0
210.367416 84.0
210.564453 80.0
210.824448 44.0
210.902481 52.0
211.706772 176.0
211.952988 68.0
212.022537 112.0
212.121078 96.0
212.158768 96.0
212.277634 144.0
212.500977 36.0
212.59964 44.0
212.640259 40.0
212.733154 112.0
213.107788 112.0
213.355927 84.0
213.380981 36.0
213.430405 108.0
213.459488 92.0
213.997772 120.0
214.099686 88.0
214.947968 104.0
215.242783 104.0
215.619629 88.0
216.084549 124.0
216.35965 32.0
217.168411 60.0
217.23587 48.0
217.262268 92.0
217.755402 112.0
217.958099 104.0
222.117828 100.0
223.255356 96.0
225.545074 68.0
225.763321 40.0
228.101913 44.0
229.731003 72.0
230.117294 128.0
230.872696 48.0
234.58905 56.0
234.857376 128.0
236.225815 104.0
236.718567 68.0
237.371246 52.0
237.426453 60.0
237.855988 52.0
240.555557 72.0
241.746536 116.0
242.036438 88.0
242.065948 68.0
242.321396 112.0
242.591003 88.0
246.237701 96.0
249.700836 48.0
250.881607 80.0
251.99881 92.0
256.798523 84.0
257.293121 80.0
262.25235 84.0
263.960114 52.0
267.802521 52.0
269.847076 44.0
271.256256 96.0
272.979889 104.0
273.019348 40.0
274.319885 104.0
275.355927 156.0
277.208527 76.0
279.359955 72.0
280.398804 72.0
280.542114 48.0
280.86557 100.0
281.192566 88.0
281.215912 40.0
282.167938 80.0
283.999634 32.0
285.944946 108.0
285.968506 104.0
286.089691 72.0
287.836121 68.0
288.965027 156.0
289.02594 88.0
290.608246 48.0
291.17511 100.0
291.939758 68.0
295.21347 52.0
296.408142 92.0
300.88974 88.0
302.72226 68.0
304.407562 52.0
305.12677 100.0
305.658936 52.0
309.617523 104.0
310.93219 64.0
312.872467 72.0
316.406311 88.0
316.845459 52.0
317.735321 72.0
318.821838 120.0
321.02182 60.0
323.376099 64.0
325.53067 64.0
325.724609 128.0
326.93985 44.0
329.377075 60.0
330.389252 80.0
330.725769 60.0
333.860382 104.0
333.914948 112.0
334.573547 116.0
335.068817 80.0
335.863495 76.0
336.35611 92.0
338.117767 76.0
340.005157 96.0
341.168854 68.0
341.345978 64.0
342.696808 60.0
343.869446 84.0
346.365173 40.0
347.358582 104.0
349.799927 112.0
352.26474 60.0
352.615967 96.0
352.679504 88.0
352.769226 60.0
352.858948 48.0
354.899414 60.0
356.979645 132.0
357.194031 48.0
362.896484 96.0
363.31369 84.0
363.822205 44.0
364.559052 72.0
367.063812 132.0
368.029144 52.0
368.292664 48.0
370.541962 72.0
370.963501 56.0
372.260315 124.0
373.18631 64.0
375.558472 72.0
377.589996 128.0
378.762756 80.0
383.374451 64.0
384.657623 68.0
386.310547 76.0
388.735779 84.0
390.904877 68.0
391.609558 48.0
392.224213 64.0
395.684723 52.0
396.239166 88.0
397.107269 104.0
397.13504 36.0
397.837372 96.0
397.877075 68.0
398.44101 52.0
398.886078 124.0
402.283936 68.0
405.543915 68.0
406.895752 152.0
408.724487 76.0
410.48877 48.0
410.617828 72.0
412.798523 68.0
416.38092 56.0
418.20639 56.0
422.278229 80.0
424.001831 128.0
424.055115 108.0
425.564697 120.0
430.237518 84.0
431.774597 96.0
432.179962 160.0
432.726288 80.0
433.965088 56.0
435.363464 56.0
438.046112 64.0
440.519745 112.0
441.828217 28.0
442.192261 64.0
442.694611 88.0
443.247559 52.0
443.507385 64.0
445.992188 112.0
447.388733 64.0
448.070953 100.0
448.1763 60.0
449.719727 44.0
449.964569 52.0
453.263611 60.0
457.779022 124.0
463.665833 44.0
467.10495 52.0
467.29425 96.0
470.319397 48.0
471.21759 60.0
471.878845 60.0
474.897064 52.0
476.173065 188.0
477.429047 68.0
481.726562 48.0
483.78183 72.0
486.675385 56.0
487.7341 68.0
492.360229 40.0
494.376099 64.0
497.833862 80.0
502.315704 136.0
504.19986 36.0
506.566742 104.0
507.68277 48.0
509.383789 52.0
510.849213 100.0
512.262695 32.0
512.514954 84.0
514.553589 52.0
517.528564 128.0
528.497864 44.0
532.995911 76.0
533.749695 120.0
534.090027 64.0
536.065063 112.0
540.516479 140.0
542.424561 68.0
543.81604 72.0
545.042053 92.0
547.409668 116.0
548.695618 44.0
551.56189 112.0
557.692688 80.0
558.59552 112.0
561.845886 60.0
562.044067 72.0
566.246582 96.0
571.872681 92.0
571.92981 112.0
578.473999 84.0
582.156189 76.0
584.87738 96.0
592.342407 76.0
594.635803 68.0
602.079651 84.0
603.70697 48.0
605.796875 72.0
606.478027 104.0
608.317444 52.0
622.805176 48.0
624.450256 88.0
629.233948 48.0
635.976807 76.0
639.424622 76.0
639.52124 104.0
645.690613 88.0
647.659424 48.0
648.404175 60.0
650.920349 80.0
653.339661 208.0
654.489868 96.0
658.349976 104.0
661.883423 44.0
680.424377 44.0
688.38031 112.0
694.335571 68.0
695.358643 44.0
707.339111 88.0
707.720276 60.0
709.887512 116.0
725.965515 40.0
727.161865 52.0
733.384705 40.0
734.198792 68.0
738.860168 164.0
743.178223 112.0
748.984192 80.0
749.180298 160.0
751.922913 164.0
755.365112 176.0
759.703613 56.0
760.191956 200.0
760.499268 80.0
765.089172 172.0
768.919983 32.0
770.714722 168.0
774.40448 212.0
774.448792 108.0
780.225342 88.0
787.988708 168.0
798.425903 148.0
799.79303 108.0
803.709717 128.0
803.918518 60.0
805.877869 40.0
809.271423 64.0
809.781067 124.0
815.244324 172.0
817.410889 144.0
820.777283 140.0
821.524414 216.0
822.562988 64.0
823.77356 48.0
826.168762 72.0
826.529175 148.0
827.628174 56.0
829.851257 96.0
832.812317 76.0
834.427063 48.0
842.807312 208.0
850.03949 96.0
851.746338 76.0
854.653076 76.0
859.314148 80.0
863.210083 68.0
863.993774 40.0
865.468689 208.0
868.128967 48.0
874.356079 148.0
877.943787 60.0
894.337158 180.0
895.188477 108.0
899.749023 164.0
901.948059 44.0
905.999207 164.0
921.45459 148.0
924.92572 136.0
927.100037 84.0
929.119141 68.0
931.346924 248.0
931.644531 176.0
933.668579 212.0
937.753723 160.0
938.442566 124.0
941.841675 120.0
942.458679 80.0
943.699402 136.0
945.914001 72.0
950.179138 140.0
951.111938 64.0
958.02356 176.0
958.615051 52.0
961.920837 204.0
963.026062 100.0
965.541504 144.0
965.807434 192.0
968.518494 64.0
970.439514 172.0
970.755798 152.0
970.985229 44.0
971.084473 36.0
973.883606 60.0
974.219055 120.0
974.622864 144.0
975.337585 68.0
979.425537 160.0
985.85791 92.0
986.357849 68.0
986.432861 124.0
989.128906 128.0
989.635986 164.0
990.049255 184.0
990.493958 88.0
991.903809 128.0
992.957153 188.0
994.318542 176.0
995.009033 104.0
995.22876 180.0
995.944641 120.0
996.321533 120.0
997.430725 152.0
999.792358 160.0
1002.424622 160.0
1004.776428 184.0
1006.379517 160.0
1006.688904 272.0
1007.724792 176.0
1011.000183 32.0
1015.225586 168.0
1019.612305 160.0
1020.692993 56.0
1025.594971 160.0
1027.31665 148.0
1027.641968 80.0
1029.397339 136.0
1029.62085 136.0
1030.099854 56.0
1031.499268 60.0
1033.596924 152.0
1033.750488 156.0
1043.692993 208.0
1045.172363 172.0
1047.50293 88.0
1047.882935 120.0
1048.372681 196.0
1050.164917 184.0
1050.732544 192.0
1052.985352 132.0
1054.36145 228.0
1055.82251 140.0
1056.178223 216.0
1056.262329 116.0
1056.546875 216.0
1057.155151 204.0
1057.303955 184.0
1058.106567 64.0
1062.844482 32.0
1063.207886 144.0
1063.480469 128.0
1063.571289 96.0
1064.79187 168.0
1066.747681 236.0
1067.053223 212.0
1072.280151 168.0
1073.160156 196.0
1078.349854 140.0
1079.121216 176.0
1079.925537 72.0
1081.790405 228.0
1082.432007 92.0
1084.148193 168.0
1084.384155 184.0
1085.111816 216.0
1085.19043 100.0
1086.377441 128.0
1088.254395 88.0
1089.778198 168.0
1090.395874 136.0
1092.822388 160.0
1092.947388 132.0
1094.053101 84.0
1096.523071 40.0
1096.780151 56.0
1097.366943 72.0
1097.531738 156.0
1097.999878 180.0
1098.148071 128.0
1100.177368 116.0
1100.553711 156.0
1102.350342 124.0
1102.634521 188.0
1102.991333 220.0
1104.036011 176.0
1104.393188 128.0
1105.107544 156.0
1106.351807 172.0
1106.532837 152.0
1107.649658 36.0
1108.550781 44.0
1111.839966 184.0
1112.045654 68.0
1113.154419 228.0
1115.911865 200.0
1116.616699 92.0
1122.030151 96.0
1122.103516 152.0
1122.276855 144.0
1122.443604 220.0
1124.358154 44.0
1124.571655 172.0
1125.880249 192.0
1126.020508 148.0
1127.316528 152.0
1127.964844 76.0
1128.091797 116.0
1128.225464 112.0
1129.215088 184.0
1129.288696 152.0
1132.628662 144.0
1133.419189 140.0
1134.008911 160.0
1134.679199 76.0
1136.845703 192.0
1137.174561 144.0
1137.375854 56.0
1138.134521 208.0
1138.973999 156.0
1139.961548 92.0
1140.389526 64.0
1142.287842 52.0
1143.815308 68.0
1143.990234 204.0
1144.185547 60.0
1144.286499 152.0
1144.44812 208.0
1144.542358 92.0
1144.757812 168.0
1144.858887 172.0
1145.727661 200.0
1145.943359 148.0
1146.657593 132.0
1147.918213 160.0
1147.999146 36.0
1148.241943 124.0
1150.664307 132.0
1150.71167 144.0
1151.258545 120.0
1151.960938 124.0
1152.724365 204.0
1155.970215 144.0
1157.567749 56.0
1158.035034 216.0
1158.536255 68.0
1158.739502 168.0
1158.786987 180.0
1158.895386 160.0
1159.45105 156.0
1159.567017 72.0
1160.589844 128.0
1161.512085 120.0
1161.634277 152.0
1162.197266 124.0
1162.543335 160.0
1162.638428 180.0
1163.622559 48.0
1164.865356 124.0
1166.312744 208.0
1167.210083 60.0
1168.053345 80.0
1168.740479 192.0
1169.10791 220.0
1170.115356 120.0
1170.278687 168.0
1171.402466 164.0
1171.892944 88.0
1172.008789 128.0
1172.179077 196.0
1173.221924 248.0
1174.633423 136.0
1175.090576 144.0
1175.902588 160.0
1176.936768 212.0
1177.186035 108.0
1177.30896 136.0
1177.773315 44.0
1177.862183 168.0
1178.317749 204.0
1179.201294 252.0
1179.365356 176.0
1179.488403 168.0
1179.809692 140.0
1180.807983 60.0
1181.013184 120.0
1181.279907 128.0
1181.854614 176.0
1182.210449 120.0
1182.497925 156.0
1182.559448 192.0
1182.648438 164.0
1182.963257 304.0
1183.038574 228.0
1185.607056 72.0
1186.059448 36.0
1188.459717 112.0
1188.60376 44.0
1189.296875 256.0
1189.646973 180.0
1190.395386 132.0
1190.553345 168.0
1191.61792 144.0
1192.289673 260.0
1193.006226 140.0
1193.288086 144.0
1193.343018 124.0
1194.498413 228.0
1195.358398 128.0
1195.551025 160.0
1200.042114 240.0
1200.090454 76.0
1200.352417 268.0
1200.66272 44.0
1202.118408 140.0
1202.594482 164.0
1202.981079 32.0
1204.134155 128.0
1204.645264 172.0
1204.693604 48.0
1204.811035 176.0
1205.253296 168.0
1205.474365 168.0
1206.981323 188.0
1207.105713 40.0
1209.637939 188.0
1210.122559 228.0
1211.660034 124.0
1212.172729 168.0
1212.304443 200.0
1213.281738 168.0
1213.7948 164.0
1215.750977 228.0
1216.542236 192.0
1216.789185 168.0
1216.815308 256.0
1216.965698 128.0
1217.750366 212.0
1218.007324 136.0
1218.799316 152.0
1220.293701 192.0
1220.342407 384.0
1220.808228 144.0
1221.121216 176.0
1221.468994 224.0
1221.761108 132.0
1222.568237 112.0
1223.333862 176.0
1223.925659 192.0
1224.587158 132.0
1225.060913 140.0
1225.736694 104.0
1227.381714 220.0
1228.113892 172.0
1228.441772 248.0
1228.671997 156.0
1228.90918 208.0
1229.041748 144.0
1231.373291 132.0
1231.806396 68.0
1232.197632 128.0
1232.872192 172.0
1233.616211 196.0
1233.923828 188.0
1234.035645 108.0
1235.088379 172.0
1235.336426 148.0
1236.008057 208.0
1236.581909 136.0
1236.728882 132.0
1238.654419 108.0
1239.964722 140.0
1240.132935 96.0
1240.693604 120.0
1240.946045 68.0
1241.605225 168.0
1242.271484 152.0
1242.51001 144.0
1242.825806 100.0
1243.380127 64.0
1244.355835 96.0
1245.893799 132.0
1246.105835 204.0
1249.106323 164.0
1250.548828 204.0
1251.32312 192.0
1252.548462 88.0
1252.717529 124.0
1252.949951 76.0
1253.429077 176.0
1253.929443 128.0
1255.762573 152.0
1255.974121 176.0
1256.722778 176.0
1257.12793 228.0
1257.321655 172.0
1257.596924 120.0
1258.126343 176.0
1258.239258 100.0
1258.366333 144.0
1258.422852 160.0
1258.733521 212.0
1258.910034 192.0
1259.263184 128.0
1259.35498 108.0
1259.538696 156.0
1260.704346 176.0
1261.291016 144.0
1261.340454 104.0
1262.192505 180.0
1262.316162 120.0
1262.386841 196.0
1262.775024 172.0
1263.341675 172.0
1263.553467 216.0
1263.688354 140.0
1263.787354 116.0
1264.445435 176.0
1266.612061 176.0
1267.292114 92.0
1268.170776 128.0
1268.695312 100.0
1269.510742 132.0
1269.9646 132.0
1271.868286 212.0
1272.072021 108.0
1272.640015 216.0
1272.931152 168.0
1273.754883 128.0
1273.875732 144.0
1273.946777 32.0
1274.586182 244.0
1274.728271 384.0
1275.401245 128.0
1275.865479 112.0
1277.131226 168.0
1277.678955 136.0
1278.340698 132.0
1278.483032 188.0
1278.625244 212.0
1278.917114 192.0
1279.230347 204.0
1279.629028 196.0
1280.661499 140.0
1281.70166 64.0
1282.343018 152.0
1282.727905 180.0
1283.269653 112.0
1283.882935 104.0
1284.567627 184.0
1285.759155 152.0
1285.851929 204.0
1286.001831 164.0
1286.658569 220.0
1286.772705 132.0
1287.001221 200.0
1287.32251 156.0
1287.465332 104.0
1287.786743 172.0
1288.03125 176.0
1288.286743 156.0
1289.953491 204.0
1290.609497 48.0
1290.859741 156.0
1291.453369 204.0
1292.182983 224.0
1292.290283 120.0
1292.726807 112.0
1293.313599 188.0
1293.72876 180.0
1294.276489 172.0
1294.809937 56.0
1295.311401 92.0
1295.734009 144.0
1296.880493 152.0
1297.088379 180.0
1297.195923 144.0
1297.633179 48.0
1297.984619 168.0
1298.407715 172.0
1299.074707 180.0
1299.239746 184.0
1299.419067 196.0
1299.835205 52.0
1300.52417 176.0
1300.77417 196.0
1302.469971 140.0
1302.6875 152.0
1303.094971 216.0
1303.41272 228.0
1303.662598 76.0
1303.885376 76.0
1304.467529 196.0
1305.452515 164.0
1305.697021 224.0
1306.695923 140.0
1306.744019 264.0
1307.236572 176.0
1308.143433 124.0
1308.575317 192.0
1309.302612 144.0
1310.066162 176.0
1310.484009 152.0
1311.737915 220.0
1312.473267 164.0
1312.927612 76.0
1313.01416 128.0
1313.764282 220.0
1313.814697 204.0
1314.009521 56.0
1315.229126 156.0
1315.445679 116.0
1317.222046 116.0
1318.717651 44.0
1319.209229 228.0
1319.411621 132.0
1320.120239 100.0
1320.228638 148.0
1320.337158 184.0
1320.677002 40.0
1322.297729 80.0
1323.883179 136.0
1323.941162 180.0
1324.730591 96.0
1325.389893 36.0
1325.86084 132.0
1326.360962 116.0
1327.223633 132.0
1327.383179 64.0
1327.731323 116.0
1328.826538 248.0
1328.920898 124.0
1329.022461 164.0
1329.167603 72.0
1329.329468 200.0
1329.472412 124.0
1329.624756 228.0
1330.677246 208.0
1330.9823 56.0
1331.425171 36.0
1331.650391 196.0
1332.020752 168.0
1332.304077 220.0
1334.03418 252.0
1334.157227 132.0
1334.983398 196.0
1335.393311 172.0
1335.509766 176.0
1336.091675 192.0
1336.579102 112.0
1338.18042 132.0
1339.833618 144.0
1341.31665 152.0
1341.648193 156.0
1341.852417 176.0
1342.027344 60.0
1342.578125 200.0
1342.887817 212.0
1343.04834 184.0
1343.296265 168.0
1343.398438 128.0
1344.49292 128.0
1344.602295 244.0
1344.952637 52.0
1345.237305 160.0
1345.500122 148.0
1345.996582 136.0
1346.186523 144.0
1346.653931 180.0
1346.938721 184.0
1347.397339 216.0
1347.559692 140.0
1347.727783 152.0
1348.432617 204.0
1348.502319 252.0
1348.685059 156.0
1350.220459 136.0
1350.608032 176.0
1351.156738 164.0
1351.222534 132.0
1351.456665 100.0
1351.734741 164.0
1352.027466 276.0
1352.195801 56.0
1352.658325 176.0
1352.839844 232.0
1354.056274 96.0
1354.905029 168.0
1355.19812 136.0
1355.666992 164.0
1355.967529 140.0
1356.458618 176.0
1356.553833 168.0
1356.795776 152.0
1356.995605 200.0
1357.448364 176.0
1358.416504 124.0
1358.482422 124.0
1358.797974 148.0
1359.480347 160.0
1360.008789 100.0
1360.184937 92.0
1360.830933 172.0
1360.94104 140.0
1361.24939 32.0
1361.631348 160.0
1362.064697 236.0
1362.380493 144.0
1362.578857 176.0
1362.72583 240.0
1362.850708 160.0
1363.129883 92.0
1363.394531 144.0
1364.173584 168.0
1364.504395 172.0
1364.717651 252.0
1365.12207 164.0
1365.301758 180.0
1366.806519 136.0
1367.064697 248.0
1367.299561 140.0
1367.623413 92.0
1367.858887 156.0
1369.272583 156.0
1369.412476 212.0
1369.581909 104.0
1369.920776 124.0
1370.355469 152.0
1370.510132 44.0
1371.740845 104.0
1372.456055 192.0
1372.55188 188.0
1372.809326 168.0
1373.060669 68.0
1373.2229 168.0
1373.370483 32.0
1374.078613 92.0
1374.410645 132.0
1375.406982 104.0
1375.820312 192.0
1376.2854 112.0
1376.506958 100.0
1376.653442 220.0
1377.245483 224.0
1377.636963 92.0
1377.733032 108.0
1378.597412 176.0
1378.841309 188.0
1379.15918 208.0
1379.218262 176.0
1379.57312 128.0
1379.809692 116.0
1380.297607 136.0
1381.49585 184.0
1381.791748 192.0
1382.339233 152.0
1382.420654 236.0
1382.509399 228.0
1382.672241 156.0
1383.812134 204.0
1384.426758 144.0
1384.952637 124.0
1385.241455 268.0
1385.65918 216.0
1385.819336 160.0
1386.530762 128.0
1386.908691 144.0
1387.494263 172.0
1388.042969 76.0
1388.25061 272.0
1388.332153 180.0
1388.428589 176.0
1388.606567 132.0
1388.769775 124.0
1389.170288 192.0
1389.906128 196.0
1390.060547 156.0
1390.112549 104.0
1390.869507 48.0
1391.196167 60.0
1391.277832 144.0
1391.678711 168.0
1391.923706 140.0
1392.45105 108.0
1392.956055 144.0
1393.498413 140.0
1394.122559 164.0
1394.182007 172.0
1394.273315 180.0
1394.406006 148.0
1394.843506 88.0
1394.9104 136.0
1395.051636 220.0
1395.200317 132.0
1396.434692 48.0
1396.607788 200.0
1396.672607 116.0
1397.133789 184.0
1397.357056 176.0
1397.729004 240.0
1397.833252 140.0
1398.078735 204.0
1398.153198 128.0
1398.957031 272.0
1399.210205 160.0
1399.470703 236.0
1399.530273 268.0
1399.880249 164.0
1400.185669 144.0
1400.63208 192.0
1400.803833 96.0
1400.967651 200.0
1401.325317 136.0
1401.966064 152.0
1403.53894 224.0
1403.852173 84.0
1403.993896 60.0
1404.217529 184.0
1404.296753 156.0
1405.388794 124.0
1405.709595 124.0
1405.933472 148.0
1406.052856 296.0
1406.149902 116.0
1406.545532 128.0
1406.833618 252.0
1407.336792 144.0
1407.463745 60.0
1407.559204 212.0
1407.579468 168.0
1408.382324 152.0
1408.703491 148.0
1408.822998 196.0
1408.964966 244.0
1409.293701 124.0
1409.359253 164.0
1409.585083 164.0
1409.652344 68.0
1409.966187 160.0
1410.063354 136.0
1411.169678 180.0
1411.700562 148.0
1411.89502 104.0
1412.111938 60.0
1412.433472 124.0
1412.547119 140.0
1412.687866 140.0
1412.979614 148.0
1413.215698 152.0
1413.675415 132.0
1415.015259 232.0
1415.329712 84.0
1415.60498 196.0
1416.168457 192.0
1416.393188 204.0
1416.732422 336.0
1417.059937 160.0
1417.427002 168.0
1417.771729 144.0
1417.921631 144.0
1417.974121 128.0
1418.671143 172.0
1418.881104 160.0
1419.465942 76.0
1419.938354 192.0
1420.365845 92.0
1420.455933 168.0
1421.19104 168.0
1421.543701 120.0
1421.702393 192.0
1422.511963 140.0
1422.677124 168.0
1422.894775 176.0
1423.007446 164.0
1423.427856 148.0
1424.013672 144.0
1424.24646 136.0
1424.411743 168.0
1425.185547 164.0
1425.275635 120.0
1425.568726 212.0
1425.734009 208.0
1425.831787 216.0
1426.20752 136.0
1426.372925 172.0
1427.087158 184.0
1427.154785 152.0
1427.395386 176.0
1427.89917 184.0
1428.063354 244.0
1428.139893 156.0
1428.380615 156.0
1428.764282 204.0
1428.944824 68.0
1429.040527 148.0
1429.178101 172.0
1429.234741 176.0
1429.441406 112.0
1429.873169 168.0
1430.261719 116.0
1430.367065 120.0
1430.623047 192.0
1430.841309 236.0
1431.403931 168.0
1431.639526 172.0
1431.933228 168.0
1432.211914 104.0
1432.528198 184.0
1432.641235 200.0
1432.761719 104.0
1433.228882 148.0
1433.281616 160.0
1433.650879 192.0
1433.85437 148.0
1433.967407 128.0
1434.427124 184.0
1434.510132 148.0
1434.834229 212.0
1435.79187 140.0
1435.946289 176.0
1436.259521 184.0
1436.88562 228.0
1436.938354 152.0
1437.534546 172.0
1437.594849 216.0
1437.859009 100.0
1438.145752 116.0
1438.266602 200.0
1438.711914 144.0
1439.761475 160.0
1439.865845 88.0
1441.121094 104.0
1441.42334 196.0
1441.762573 180.0
1441.952393 132.0
1442.038696 232.0
1442.216919 156.0
1442.496582 148.0
1443.137573 56.0
1443.365967 164.0
1443.676025 176.0
1443.796997 232.0
1444.152466 164.0
1444.220581 28.0
1444.844116 224.0
1445.241821 200.0
1445.438599 124.0
1445.521729 120.0
1445.786621 176.0
1445.945557 184.0
1446.17334 88.0
1446.240723 172.0
1446.361816 160.0
1446.422363 148.0
1446.884155 136.0
1447.520142 116.0
1447.891235 124.0
1447.989746 40.0
1448.186646 176.0
1448.663818 164.0
1448.786499 212.0
1448.966797 188.0
1449.194092 180.0
1450.02771 160.0
1450.838745 160.0
1451.437622 96.0
1451.551392 140.0
1451.748535 132.0
1452.135376 188.0
1452.249146 220.0
1452.423584 80.0
1452.927734 204.0
1453.591919 48.0
1454.320435 120.0
1454.866943 132.0
1455.13269 228.0
1455.299683 244.0
1455.489502 172.0
1455.908691 160.0
1456.157837 168.0
1456.499634 200.0
1456.565674 196.0
1456.894653 160.0
1457.054199 112.0
1457.215088 176.0
1457.320068 180.0
1457.472046 160.0
1457.616455 164.0
1457.875244 124.0
1457.973511 156.0
1458.186401 156.0
1458.524048 168.0
1458.771606 124.0
1459.440674 208.0
1459.744751 144.0
1459.966919 188.0
1460.223877 160.0
1460.665039 160.0
1460.786743 124.0
1461.364868 216.0
1461.598511 212.0
1461.650879 152.0
1462.361816 132.0
1462.651001 92.0
1463.732056 184.0
1464.196655 128.0
1464.501221 160.0
1464.585083 204.0
1464.805908 112.0
1465.042114 144.0
1465.598267 152.0
1465.735352 184.0
1465.846191 204.0
1466.002075 128.0
1466.108765 52.0
1466.497437 184.0
1466.627075 132.0
1467.165161 116.0
1467.938354 124.0
1468.70166 236.0
1468.952759 208.0
1469.067139 36.0
1469.501953 208.0
1469.593506 180.0
1470.074219 168.0
1471.562622 184.0
1472.662354 156.0
1472.738647 204.0
1473.05188 152.0
1473.219971 112.0
1473.426147 128.0
1473.785278 160.0
1473.876953 156.0
1474.327759 188.0
1474.450073 168.0
1474.769165 192.0
1474.939209 176.0
1475.306152 128.0
1475.539917 268.0
1476.330688 148.0
1476.55481 148.0
1477.428589 144.0
1477.608032 60.0
1477.837646 84.0
1477.914062 156.0
1478.556885 176.0
1478.870728 188.0
1479.192139 184.0
1480.034302 156.0
1480.623901 124.0
1481.290283 144.0
1481.435791 164.0
1482.240234 32.0
1482.539185 164.0
1482.684692 184.0
1482.914673 164.0
1483.382202 188.0
1484.731689 204.0
1484.831421 84.0
1484.88501 164.0
1485.408325 148.0
1485.552368 160.0
1485.813232 212.0
1485.966675 172.0
1486.089355 36.0
1486.235107 148.0
1486.649536 228.0
1486.726318 168.0
1487.271118 140.0
1487.478394 160.0
1487.854614 148.0
1488.10022 116.0
1488.305786 232.0
1488.43811 144.0
1488.514893 204.0
1488.653076 40.0
1489.221436 144.0
1489.751465 128.0
1489.828247 116.0
1490.281494 148.0
1490.834717 120.0
1491.042236 184.0
1491.390869 180.0
1491.452881 180.0
1491.649414 236.0
1491.787842 152.0
1492.05481 236.0
1492.487427 148.0
1492.572021 168.0
1493.048828 128.0
1493.118042 200.0
1493.594849 188.0
1493.733276 172.0
1494.102539 164.0
1494.387207 96.0
1494.90271 164.0
1495.164429 188.0
1495.526123 152.0
1495.603149 184.0
1496.480713 36.0
1497.158325 180.0
1497.584229 188.0
1497.820679 96.0
1498.43689 108.0
1498.6521 172.0
1498.891479 120.0
1498.99939 180.0
1499.423218 188.0
1500.093872 152.0
1500.718262 152.0
1500.99585 176.0
1501.720703 116.0
1501.821045 164.0
1501.905884 168.0
1502.090942 108.0
1502.800781 232.0
1502.947388 132.0
1503.171143 72.0
1503.456665 72.0
1503.641846 120.0
1504.112671 144.0
1504.297974 100.0
1504.44458 32.0
