>compound ethyl 4-[6-(diaminomethylideneamino)hexanoyloxy]benzoate
>formula C16H23N3O4
>ionization [M+H]+
>parentmass 322.17613266809053
#inchi InChI=1S/C16H23N3O4/c1-2-22-15(21)12-7-9-13(10-8-12)23-14(20)6-4-3-5-11-19-16(17)18/h7-10H,2-6,11H2,1H3,(H4,17,18,19)
#inchikey YKGYIDJEEQRWQH
#Ion_Source LC-ESI
#Instrument qTof
#Compound_Source Commercial
#PI Dorrestein
#Data_Collector Garg_Neha
#Scan -1
#Precursor_MZ 322.176
#ExactMass 321.169
#Charge 1
#CAS_Number N/A
#Pubmed_ID N/A
#Smiles CCOC(=O)c1ccc(OC(=O)CCCCCN=C(N)N)cc1
#INCHI_AUX N/A
#Library_Class 1
#SpectrumID CCMSLIB00000078976
#IonMode Positive
#UpdateWorkflowName UPDATE-SINGLE-ANNOTATED-GOLD
#LibraryQualityString Gold
#TaskID 278b19f5865741e282cec7349aa7e7a1
##Scan# 1157
#SpectrumFile NCP003352_A2_B11_BC4_01_15718.mzXML
#LibraryName NIHcollectionI_05062014.mgf
#MQScore -1
#Organism NIHcollectionI_05062014
#TIC_Query 0
#RT_Query -1
#MZErrorPPM -1
#SharedPeaks 0
#MassDiff 0
#LibMZ -1
#SpecMZ 322.176
#SpecCharge 0
#internalFilename spec-00000.mgf

>collision 10
45.576843 152.0
45.753036 140.0
45.894505 156.0
46.873173 156.0
48.120003 160.0
48.684959 168.0
49.621258 204.0
50.154045 160.0
50.186298 164.0
51.185432 172.0
51.340267 104.0
51.707924 164.0
51.941471 180.0
52.029011 164.0
52.808586 156.0
54.654064 160.0
54.668777 156.0
54.855831 164.0
56.671989 188.0
56.760426 144.0
58.207542 204.0
58.750904 172.0
60.899876 172.0
61.209354 188.0
62.001373 232.0
62.93364 136.0
63.966274 168.0
64.109619 148.0
64.224411 164.0
66.007095 144.0
66.298485 168.0
66.951561 156.0
67.267868 148.0
67.4263 192.0
67.524399 140.0
68.244286 196.0
70.094872 188.0
71.328339 140.0
71.782913 164.0
73.810448 188.0
74.709167 152.0
75.005356 164.0
75.793427 156.0
78.77301 160.0
79.144402 156.0
79.482956 164.0
79.497154 184.0
79.88092 176.0
80.106995 148.0
80.390488 240.0
80.511879 204.0
81.326492 172.0
81.946907 180.0
82.195732 160.0
82.347374 164.0
82.716232 220.0
83.86055 140.0
84.212685 140.0
85.042099 196.0
85.556793 196.0
85.705978 168.0
86.252243 148.0
86.78727 140.0
87.074898 180.0
87.770889 144.0
89.062195 180.0
90.204086 188.0
91.995445 140.0
92.270538 192.0
92.357658 144.0
93.657974 216.0
94.066032 676.0
95.049576 1316.0
95.471466 168.0
96.081078 4052.0
97.066528 612.0
97.085052 268.0
97.70327 152.0
98.365402 148.0
99.849457 212.0
100.138039 140.0
100.443001 160.0
101.092323 152.0
101.408745 152.0
101.529037 152.0
101.633347 176.0
101.664673 236.0
102.165764 264.0
102.43148 160.0
102.673347 152.0
103.747017 144.0
104.223969 140.0
104.814049 168.0
104.875183 152.0
105.373108 184.0
105.481415 172.0
106.393005 172.0
107.046837 184.0
107.139526 232.0
107.397194 240.0
108.820946 148.0
109.205383 140.0
109.369759 172.0
110.005524 232.0
110.059593 168.0
110.239441 152.0
110.511276 160.0
110.576141 164.0
110.735535 132.0
111.06086 172.0
111.092194 1348.0
112.074409 312.0
112.107124 200.0
112.581779 168.0
113.110344 148.0
113.231033 160.0
113.63591 164.0
113.992622 216.0
114.09153 7068.0
114.132919 220.0
114.645927 144.0
115.095169 840.0
116.304611 108.0
116.877251 168.0
117.815109 288.0
118.191307 188.0
118.624451 168.0
118.680824 272.0
118.871704 168.0
119.173523 164.0
119.706436 140.0
120.802078 184.0
120.983711 180.0
121.029022 8180.0
122.032364 900.0
122.060158 352.0
122.551834 196.0
123.039589 180.0
123.081345 808.0
123.201752 144.0
124.116745 200.0
124.762825 176.0
127.462784 148.0
127.860817 172.0
128.119873 160.0
129.067688 172.0
129.359543 192.0
129.969193 188.0
130.016846 140.0
130.926193 152.0
131.356964 168.0
133.358841 144.0
134.011749 200.0
134.46373 196.0
135.080566 116.0
135.189377 148.0
135.434799 196.0
136.314072 164.0
137.942749 188.0
138.378326 144.0
138.549286 140.0
138.774277 140.0
139.03891 5388.0
139.086502 3180.0
139.276489 156.0
139.386902 148.0
140.041595 580.0
140.091278 560.0
140.394424 204.0
140.53595 140.0
141.046539 332.0
141.090973 192.0
141.299088 168.0
141.829529 152.0
142.166306 144.0
142.646088 168.0
142.70314 156.0
143.479279 204.0
144.056793 204.0
145.059448 164.0
145.292191 144.0
145.436035 168.0
145.594498 184.0
147.007614 240.0
147.447128 192.0
147.626328 128.0
148.286942 168.0
148.687103 148.0
149.905472 148.0
150.852448 160.0
151.667572 144.0
151.696991 192.0
151.961853 140.0
152.017868 208.0
152.199936 172.0
152.271149 144.0
152.533371 188.0
154.529129 140.0
154.902954 144.0
155.699127 160.0
155.910294 200.0
156.113312 1672.0
156.260895 196.0
157.117279 184.0
157.934769 128.0
158.097397 180.0
159.310928 148.0
159.612534 168.0
159.698029 140.0
160.045319 244.0
160.323746 172.0
160.579559 140.0
161.696259 168.0
162.992096 172.0
163.106461 156.0
163.775665 172.0
164.554886 184.0
164.831848 144.0
165.023544 196.0
165.113037 256.0
165.473846 140.0
165.542969 232.0
165.671036 168.0
166.142731 204.0
166.340332 156.0
166.53804 184.0
166.574005 152.0
167.070862 2672.0
167.654617 152.0
167.734512 144.0
168.0746 508.0
169.016449 96.0
169.073517 248.0
169.349426 160.0
169.491913 152.0
169.67334 176.0
170.584534 144.0
171.263672 144.0
173.098053 172.0
173.429733 148.0
174.126556 248.0
174.290115 136.0
174.506027 232.0
174.890106 168.0
175.978836 148.0
176.348663 240.0
177.067657 148.0
177.532089 224.0
178.004425 208.0
178.538574 152.0
178.692841 160.0
178.948349 148.0
179.070007 200.0
179.705276 148.0
180.462677 132.0
180.743134 188.0
181.792007 120.0
182.31337 144.0
182.402069 152.0
182.687103 144.0
182.770508 168.0
182.988525 220.0
183.554352 196.0
183.582123 120.0
183.659515 208.0
184.320938 144.0
184.350662 176.0
184.832001 196.0
185.101013 168.0
185.750427 164.0
185.926773 176.0
186.671112 144.0
187.136398 196.0
188.281677 140.0
188.311722 176.0
189.331833 176.0
189.561951 176.0
189.751068 144.0
190.266846 140.0
190.475555 160.0
190.753082 140.0
190.871307 156.0
190.912552 248.0
191.02211 168.0
191.109573 204.0
192.263397 228.0
193.08017 244.0
193.515762 168.0
194.097183 184.0
194.426575 204.0
195.379623 156.0
195.490921 148.0
195.518753 204.0
195.891846 148.0
196.125916 160.0
196.588882 140.0
197.371017 152.0
197.874649 172.0
198.847336 140.0
199.324738 188.0
199.64238 172.0
200.30191 144.0
200.481293 168.0
202.082321 288.0
202.291748 152.0
202.804443 196.0
202.940506 180.0
203.19577 184.0
203.723801 144.0
203.914185 212.0
204.252533 160.0
204.739227 216.0
205.648697 192.0
205.954208 144.0
206.08847 140.0
208.886536 144.0
211.269318 148.0
211.43425 176.0
211.967087 148.0
212.329453 164.0
212.808243 140.0
212.986282 248.0
213.136459 188.0
213.273041 160.0
214.133179 172.0
214.412643 104.0
214.558075 108.0
214.856369 192.0
216.315399 188.0
216.465317 96.0
216.995041 156.0
217.081299 172.0
218.01947 148.0
218.125275 204.0
218.431091 148.0
218.545822 148.0
218.698853 172.0
219.323273 168.0
219.721375 156.0
219.963348 160.0
220.959244 168.0
221.119934 172.0
221.184143 144.0
221.444702 168.0
221.672821 168.0
222.393478 168.0
222.464722 196.0
222.729004 180.0
222.969666 212.0
223.263977 152.0
224.362686 196.0
224.630646 136.0
225.691284 156.0
226.337585 168.0
226.897873 172.0
227.221771 156.0
227.593933 144.0
228.256149 208.0
229.435226 168.0
229.555832 164.0
230.2771 176.0
231.020676 172.0
231.199203 180.0
231.526154 140.0
232.186813 184.0
232.262634 164.0
232.314209 148.0
233.952179 156.0
234.951752 140.0
235.040237 140.0
235.099335 336.0
235.653214 200.0
236.752075 144.0
236.948105 184.0
237.99704 188.0
239.248352 140.0
239.334564 180.0
240.527634 204.0
240.552338 152.0
240.699066 148.0
241.596161 112.0
242.070374 152.0
242.364639 224.0
242.454514 172.0
245.158188 144.0
245.348328 196.0
245.388855 144.0
246.33078 188.0
246.659424 156.0
247.075333 160.0
247.310013 176.0
247.579269 140.0
249.584427 152.0
250.078339 188.0
250.89418 148.0
251.189026 136.0
251.449753 148.0
251.512451 144.0
252.124847 196.0
252.548828 164.0
253.546127 140.0
254.761368 180.0
254.875748 152.0
255.947678 144.0
256.718811 152.0
256.906982 148.0
257.181427 160.0
258.27417 208.0
258.546112 244.0
259.107483 2084.0
259.686646 164.0
260.11145 500.0
260.299622 156.0
260.349426 140.0
261.11908 192.0
261.480835 172.0
262.868378 160.0
263.124176 416.0
264.133423 284.0
265.440002 144.0
265.582703 140.0
267.822174 156.0
268.128448 184.0
269.234375 144.0
269.433624 140.0
269.770233 200.0
270.129944 188.0
270.581543 144.0
272.536316 140.0
273.197144 192.0
274.204712 160.0
274.339844 148.0
274.659698 196.0
275.798859 160.0
276.06012 132.0
276.116425 152.0
276.314728 176.0
276.612549 200.0
277.023163 160.0
277.076172 180.0
277.118317 1964.0
277.964752 220.0
278.126038 628.0
278.545013 176.0
279.25705 224.0
280.15509 1780.0
281.01593 144.0
281.065979 156.0
281.157959 480.0
281.353424 160.0
281.590088 224.0
281.76712 144.0
282.114685 148.0
282.62973 184.0
283.383087 160.0
283.557312 156.0
283.946228 148.0
284.342102 164.0
285.813995 244.0
287.190308 204.0
288.113373 232.0
288.704895 168.0
289.151459 196.0
289.594971 144.0
290.106628 160.0
290.130341 140.0
291.45874 172.0
291.838074 228.0
291.977509 144.0
292.889648 240.0
293.001068 204.0
293.453552 132.0
293.567871 188.0
294.145172 6732.0
294.219543 244.0
294.321991 140.0
295.149597 828.0
295.214325 140.0
295.354065 152.0
296.149292 160.0
296.20639 176.0
296.720398 200.0
296.761566 148.0
297.784149 196.0
297.945618 140.0
298.113953 212.0
298.447174 124.0
298.794769 188.0
299.4729 204.0
299.876007 168.0
300.408417 128.0
301.684723 164.0
302.352295 168.0
302.442261 208.0
302.483795 164.0
305.149719 636.0
305.801971 148.0
305.923889 184.0
306.150116 144.0
306.449768 164.0
306.686737 172.0
306.87204 152.0
307.049347 172.0
307.647705 108.0
307.85199 152.0
307.977722 152.0
308.225769 148.0
308.65921 192.0
308.942505 140.0
309.01947 164.0
309.28891 140.0
309.957825 148.0
310.329376 172.0
311.455841 160.0
311.888031 144.0
312.257202 164.0
314.116943 144.0
314.19455 176.0
316.027832 120.0
316.215729 144.0
317.067139 200.0
317.154327 196.0
317.934601 192.0
318.005554 204.0
318.317963 212.0
318.585327 148.0
318.641205 180.0
318.88504 128.0
319.032104 176.0
319.138916 104.0
319.191162 148.0
319.268494 108.0
319.320129 196.0
319.400787 204.0
319.659943 108.0
319.690704 168.0
319.938416 100.0
320.045959 124.0
320.135101 140.0
320.176758 232.0
320.205597 192.0
320.263184 108.0
320.465485 108.0
320.479889 164.0
320.747894 180.0
320.779968 100.0
320.830261 156.0
320.870026 144.0
320.965973 156.0
321.022614 452.0
321.063354 288.0
321.092255 260.0
321.144806 116.0
321.285034 176.0
321.328918 224.0
321.393402 236.0
321.45105 204.0
321.488251 212.0
321.512878 192.0
321.543274 216.0
321.586639 188.0
321.646515 236.0
321.712219 388.0
321.737427 264.0
321.795013 336.0
321.84024 364.0
321.877747 160.0
321.927826 308.0
321.938843 228.0
321.957062 140.0
321.963379 220.0
322.004059 392.0
322.031982 292.0
322.069 664.0
322.178833 199920.0
322.283447 108.0
322.308746 156.0
322.359375 216.0
322.423676 216.0
322.513519 928.0
322.567444 300.0
322.615784 264.0
322.663818 120.0
322.724182 452.0
322.768616 8228.0
322.807709 384.0
322.850891 332.0
322.897797 184.0
322.944611 140.0
322.980499 132.0
323.014893 112.0
323.038513 292.0
323.082458 616.0
323.12146 300.0
323.180634 85448.0
323.358185 96.0
323.424744 112.0
323.537415 272.0
323.618713 208.0
323.627655 220.0
323.657654 184.0
323.697845 304.0
323.736572 196.0
323.872833 116.0
323.912262 192.0
324.008087 112.0
324.055328 204.0
324.182831 9472.0
324.303833 108.0
324.380737 152.0
324.442993 136.0
324.474915 272.0
324.509155 104.0
324.552765 204.0
324.664124 100.0
324.706421 132.0
324.736359 208.0
324.83606 144.0
324.893951 284.0
325.00592 360.0
325.031647 164.0
325.069 272.0
325.124481 200.0
325.186005 760.0
325.259338 116.0
325.344513 232.0
325.380127 256.0
325.437347 264.0
325.477173 148.0
325.511292 168.0
325.708069 108.0
325.764771 144.0
325.951263 124.0
325.978027 108.0
326.177582 124.0
326.240784 104.0
326.285858 144.0
326.330688 112.0
326.385223 172.0
326.548126 124.0
327.993408 100.0
328.437317 124.0
329.364441 100.0
329.489746 112.0
333.811462 164.0
334.388641 156.0
338.524902 156.0
339.790497 124.0
341.974457 104.0
384.213959 148.0
498.847412 100.0
819.215576 140.0
1140.333252 164.0
1301.992065 152.0
1307.24707 152.0
1331.341553 168.0
1335.687744 176.0
1348.732544 184.0
1349.609741 144.0
1356.234985 188.0
1412.205688 160.0
1418.502808 152.0
1426.963379 184.0
1499.181274 160.0
1538.943726 156.0
1561.4729 164.0
1571.78479 212.0
1591.43042 192.0
1591.914795 240.0
1594.687378 144.0
1615.546997 228.0
1627.673218 188.0
1636.638672 236.0
1649.58728 168.0
1649.886353 148.0
1653.19458 148.0
1666.85022 140.0
1670.134644 160.0
1680.562134 180.0
1685.314087 160.0
1689.966431 168.0
1737.970337 188.0
1747.716797 164.0
1763.511353 232.0
1766.739014 152.0
1786.192383 140.0
1827.970459 216.0
1849.143433 196.0
1852.782593 140.0
1909.34729 144.0
1931.326172 160.0
1965.818237 204.0
1967.380493 176.0
1977.607788 204.0
1981.628052 244.0
1981.690063 160.0
1985.661377 252.0
1989.414673 184.0
1993.998047 160.0
