>compound MLS002153168-01!(S)-()-3-(3-Hydroxyphenyl)-N-propylpiperidine hydrochloride
>formula C14H21NO
>ionization [M+H]+
>parentmass 220.169769
#inchi InChI=1S/C14H21NO/c1-2-8-15-9-4-6-13(11-15)12-5-3-7-14(16)10-12/h3,5,7,10,13,16H,2,4,6,8-9,11H2,1H3/t13-/m1/s1
#inchikey HTSNFXAICLXZMA
#origInchi InChI=1S/C14H21NO.ClH/c1-2-8-15-9-4-6-13(11-15)12-5-3-7-14(16)10-12;/h3,5,7,10,13,16H,2,4,6,8-9,11H2,1H3;1H/t13-;/m1./s1
#Ion_Source LC-ESI
#Instrument qTof
#Compound_Source NIH Pharmacologically Active Library
#PI Dorrestein
#Data_Collector VP/LMS
#Scan -1
#Precursor_MZ 220.174
#ExactMass 219.162
#Charge 1
#CAS_Number N/A
#Pubmed_ID N/A
#Smiles CCCN1CCC[C@H](C1)c2cccc(O)c2.Cl
#INCHI_AUX N/A
#Library_Class 1
#SpectrumID CCMSLIB00000085477
#IonMode Positive
#UpdateWorkflowName UPDATE-SINGLE-ANNOTATED-GOLD
#LibraryQualityString Gold
#TaskID d252d724072548979f1f6f1ced849daf
##Scan# 1223
#SpectrumFile p4-B06_GB6_01_18342.mzXML
#LibraryName Pharm_Active_Library.mgf
#MQScore -1
#Organism Pharm_Active_Library
#TIC_Query 0
#RT_Query -1
#MZErrorPPM -1
#SharedPeaks 0
#MassDiff 0
#LibMZ -1
#SpecMZ 220.174
#SpecCharge 0
#internalFilename spec-00000.mgf

>collision 10
45.009674 252.0
45.17992 60.0
45.265579 204.0
45.476055 164.0
45.490822 192.0
45.623478 208.0
45.732769 176.0
45.747578 52.0
45.855331 156.0
45.962078 128.0
45.983459 152.0
46.033512 156.0
46.130684 188.0
46.351288 120.0
46.613178 144.0
46.660748 140.0
46.758686 140.0
46.87035 200.0
46.922142 248.0
46.934414 120.0
47.200867 172.0
47.316975 212.0
47.34436 160.0
47.388191 252.0
47.552746 236.0
47.624138 160.0
47.673599 128.0
47.815247 156.0
47.85379 208.0
47.874443 84.0
48.155785 260.0
48.329964 164.0
48.461498 156.0
48.978283 176.0
49.070255 148.0
49.088383 124.0
49.162315 132.0
49.348091 68.0
49.432014 212.0
49.699646 176.0
49.73473 136.0
49.79089 68.0
49.875191 120.0
49.910336 152.0
49.963779 28.0
50.032738 212.0
50.048225 208.0
50.440418 160.0
50.666836 192.0
50.707928 208.0
51.19379 200.0
51.584721 140.0
51.671955 188.0
51.805092 116.0
51.901115 148.0
51.951313 36.0
51.998665 112.0
52.467587 152.0
52.493542 244.0
52.747639 212.0
52.760307 168.0
52.786674 200.0
52.825726 212.0
52.872025 156.0
52.90242 124.0
53.099476 212.0
53.248962 164.0
53.504883 208.0
53.566044 136.0
53.669518 184.0
53.768711 116.0
53.809582 180.0
53.835865 176.0
53.961525 208.0
54.077087 152.0
54.254326 92.0
54.361397 184.0
54.47298 172.0
54.559681 184.0
54.589088 156.0
54.640568 144.0
54.815781 104.0
54.873264 176.0
54.913078 140.0
54.973209 184.0
55.165565 200.0
55.175915 124.0
55.233589 204.0
55.329773 200.0
55.4216 180.0
55.482365 120.0
55.528332 160.0
55.586189 136.0
55.88187 180.0
55.898197 148.0
55.959263 204.0
55.978619 148.0
56.174046 196.0
56.200714 236.0
56.402325 164.0
56.418766 32.0
56.486057 200.0
56.529446 164.0
56.580334 124.0
56.664204 236.0
56.679188 168.0
56.721149 128.0
56.976254 184.0
57.072445 136.0
57.195805 148.0
57.296696 68.0
57.489693 160.0
57.651276 172.0
57.676971 168.0
57.735584 172.0
58.084286 176.0
58.138905 280.0
58.158634 164.0
58.190514 140.0
58.713959 172.0
58.89558 120.0
58.945995 208.0
59.004539 92.0
59.031597 176.0
59.089718 92.0
59.265789 140.0
59.459003 140.0
59.629478 128.0
59.647923 184.0
60.085262 172.0
60.173233 140.0
60.276718 152.0
60.310719 284.0
60.35091 236.0
60.778404 204.0
60.82962 156.0
60.915024 160.0
60.932114 236.0
61.036247 148.0
61.303986 168.0
61.400276 224.0
62.04015 188.0
62.165627 192.0
62.182888 176.0
62.203293 84.0
62.50819 208.0
62.835918 256.0
63.0396 192.0
63.264194 148.0
63.444786 176.0
63.508217 200.0
63.546288 156.0
63.582783 176.0
63.801979 148.0
63.913311 52.0
63.946732 176.0
64.07093 216.0
64.233528 144.0
64.532166 200.0
64.613731 56.0
64.65213 192.0
64.749786 168.0
64.913246 108.0
64.966171 184.0
65.03196 220.0
65.283722 180.0
65.321182 128.0
65.342094 172.0
65.586868 124.0
65.615883 132.0
65.696518 184.0
65.86116 172.0
65.987206 108.0
66.307716 156.0
66.463387 128.0
66.605515 204.0
66.720001 156.0
66.999916 188.0
67.283676 180.0
67.362068 132.0
67.58931 220.0
67.604042 168.0
67.72683 168.0
67.939926 200.0
68.102432 140.0
68.127068 188.0
68.140213 140.0
68.154999 192.0
68.294731 208.0
68.409912 200.0
68.652115 208.0
68.695 152.0
69.593643 168.0
69.766426 188.0
69.834602 216.0
69.941086 212.0
69.986031 120.0
70.099297 168.0
70.414597 224.0
70.578362 152.0
70.608459 188.0
70.635223 176.0
70.703819 64.0
70.874626 36.0
70.888031 108.0
70.916069 180.0
71.329422 200.0
71.42527 184.0
71.467323 116.0
71.630623 144.0
71.659264 176.0
71.731728 212.0
71.745216 124.0
71.792427 204.0
71.87339 40.0
72.0 100.0
72.050667 132.0
72.234932 68.0
72.25486 260.0
72.50753 156.0
72.65844 200.0
72.717827 176.0
72.743286 72.0
72.918236 148.0
72.965828 196.0
73.076378 104.0
73.302834 192.0
73.471634 176.0
74.081924 124.0
75.089165 152.0
75.115036 160.0
75.256554 172.0
75.881134 220.0
76.1362 80.0
76.506554 368.0
76.656342 108.0
76.738266 72.0
76.837677 160.0
76.860352 244.0
77.041931 184.0
77.139786 248.0
77.293694 176.0
77.463516 212.0
77.500305 184.0
77.961792 104.0
78.134109 132.0
78.246742 184.0
78.276672 160.0
78.307259 208.0
78.411438 176.0
78.537498 176.0
78.67514 188.0
79.04953 160.0
79.134796 144.0
79.202087 164.0
79.400597 212.0
79.492844 172.0
79.515915 180.0
79.732582 184.0
80.086632 228.0
80.15789 212.0
80.252357 284.0
80.282669 148.0
80.364723 176.0
80.552177 124.0
80.605774 220.0
80.75415 152.0
80.95459 200.0
80.974289 116.0
81.087158 200.0
81.10508 40.0
81.189346 156.0
81.271858 200.0
81.340057 204.0
81.356209 116.0
81.543015 136.0
81.568184 164.0
81.622116 76.0
81.669876 188.0
81.750618 128.0
81.769623 92.0
81.994743 144.0
82.140793 100.0
82.173264 164.0
82.18589 116.0
82.364616 220.0
82.420616 44.0
82.521835 272.0
82.863899 196.0
82.898323 212.0
83.027039 164.0
83.221191 132.0
83.430122 192.0
83.626572 216.0
83.819321 152.0
83.852409 124.0
83.927155 132.0
84.085854 160.0
84.143921 188.0
84.175308 196.0
84.246536 168.0
84.284904 216.0
84.32328 120.0
84.460403 216.0
84.597641 168.0
84.663559 44.0
84.766144 36.0
85.0504 164.0
85.09079 200.0
85.18261 156.0
85.257942 100.0
85.36824 152.0
85.627724 160.0
85.64061 32.0
85.79171 168.0
85.830429 248.0
85.94294 152.0
86.055527 148.0
86.105385 60.0
86.432587 144.0
86.528824 196.0
87.066559 236.0
87.501663 172.0
87.514694 156.0
87.564972 80.0
87.747581 68.0
87.861343 160.0
87.876274 48.0
88.081619 280.0
88.11525 128.0
88.141403 88.0
88.322746 116.0
88.614777 112.0
88.787224 112.0
88.817238 36.0
88.894157 96.0
89.085663 156.0
89.117599 160.0
89.153297 88.0
89.482468 64.0
89.555908 156.0
89.73304 204.0
89.812241 120.0
89.98774 184.0
90.183517 176.0
90.222008 168.0
90.433861 168.0
90.63649 148.0
90.759697 108.0
90.784348 104.0
90.824173 168.0
90.898163 136.0
91.021545 176.0
91.055603 708.0
91.270462 260.0
91.314201 168.0
91.670197 136.0
91.89328 164.0
92.011612 148.0
92.500992 156.0
92.64653 148.0
92.966721 152.0
92.980156 64.0
93.069145 536.0
93.210594 156.0
93.436989 204.0
93.707008 128.0
94.023239 40.0
94.042542 232.0
94.324959 220.0
94.406235 204.0
94.446358 184.0
94.601158 80.0
94.668922 124.0
94.682648 92.0
94.732834 240.0
94.827782 216.0
94.862671 124.0
95.031395 180.0
95.382889 132.0
95.627968 68.0
95.684418 164.0
95.735039 156.0
95.781784 148.0
95.881149 64.0
96.124908 228.0
96.138565 168.0
96.183456 228.0
96.257645 120.0
96.36116 112.0
96.427597 264.0
96.754257 208.0
96.836502 228.0
97.022652 200.0
97.036377 128.0
97.063828 136.0
97.165817 148.0
97.356209 116.0
97.729683 132.0
98.030952 52.0
98.052628 180.0
98.100914 160.0
98.125557 196.0
98.247833 208.0
98.504456 56.0
98.593369 196.0
98.636848 152.0
98.717911 120.0
98.817513 168.0
98.955345 148.0
99.236687 100.0
99.294189 168.0
99.423141 124.0
99.480698 224.0
99.532318 176.0
99.756821 220.0
99.782661 176.0
99.80056 148.0
99.826408 208.0
99.955704 128.0
99.989532 48.0
100.003464 140.0
100.095039 164.0
100.220528 112.0
100.815155 176.0
100.829147 104.0
101.013092 136.0
101.033096 140.0
101.097122 196.0
101.337402 120.0
101.616089 108.0
101.690331 152.0
101.797028 192.0
101.885109 188.0
101.941368 176.0
102.046761 304.0
102.068001 204.0
102.11425 172.0
102.305405 176.0
102.56929 180.0
102.641869 136.0
102.799202 48.0
103.054802 2096.0
103.07383 144.0
103.152649 168.0
103.371071 120.0
103.484421 180.0
103.616066 120.0
103.883659 40.0
103.924232 208.0
104.039917 124.0
104.059685 444.0
104.084579 212.0
104.480911 124.0
104.641685 140.0
104.769989 132.0
104.890213 172.0
104.930984 116.0
104.974609 208.0
105.002357 152.0
105.043427 472.0
105.071472 6812.0
105.120216 124.0
105.13652 168.0
105.214561 56.0
105.269691 136.0
105.330963 40.0
105.355644 48.0
105.521011 188.0
105.535324 48.0
105.66008 44.0
105.703712 172.0
105.870903 120.0
106.072319 752.0
106.092102 196.0
106.207024 52.0
106.235741 156.0
106.270615 68.0
106.467667 160.0
106.510994 128.0
106.680618 112.0
106.728638 220.0
106.754784 196.0
106.782104 124.0
106.804733 136.0
106.845871 172.0
106.87262 272.0
106.940529 132.0
106.966354 156.0
107.004135 200.0
107.009918 180.0
107.023529 328.0
107.050659 49376.0
107.084435 156.0
107.11142 68.0
107.138199 48.0
107.190689 88.0
107.208031 108.0
107.244537 252.0
107.268028 64.0
107.288643 56.0
107.319565 84.0
107.340698 80.0
107.38839 160.0
107.457748 144.0
107.513466 56.0
107.565063 48.0
107.616676 92.0
107.657967 88.0
107.686882 68.0
107.754623 96.0
107.782631 80.0
107.837708 96.0
107.876976 80.0
107.914192 84.0
107.929489 80.0
108.052383 4316.0
108.087929 204.0
108.161552 84.0
108.288734 48.0
108.390244 56.0
108.659782 172.0
108.687881 96.0
108.788284 148.0
108.823738 68.0
108.840355 64.0
108.855721 100.0
108.877731 56.0
108.908882 88.0
108.930695 120.0
109.016914 88.0
109.054321 160.0
109.191544 40.0
109.339256 92.0
109.357986 80.0
109.399612 48.0
109.80175 196.0
109.822609 100.0
109.958221 164.0
110.052155 180.0
110.066772 56.0
110.096008 36.0
110.284035 120.0
110.50988 140.0
110.899384 52.0
111.216095 212.0
111.817192 148.0
111.848763 80.0
111.909813 100.0
112.113007 7592.0
112.154175 144.0
112.16893 48.0
112.207336 184.0
112.220795 100.0
112.337624 120.0
112.405144 68.0
112.50856 192.0
112.566727 176.0
112.59935 164.0
112.624695 80.0
112.838127 108.0
113.087738 156.0
113.114983 440.0
113.350334 196.0
113.377281 84.0
113.674767 92.0
113.721458 40.0
113.806366 44.0
113.880692 64.0
114.091057 132.0
114.26757 56.0
114.533669 72.0
114.770218 56.0
114.8022 148.0
114.836327 140.0
114.964333 76.0
115.054726 1796.0
115.216278 60.0
115.316704 188.0
115.444565 144.0
115.46209 88.0
115.601135 40.0
116.061974 432.0
116.080971 120.0
116.106705 60.0
116.160324 160.0
116.585434 176.0
116.628418 72.0
116.675713 80.0
116.845604 132.0
116.93428 144.0
117.071075 832.0
117.211624 84.0
117.226707 172.0
117.271965 180.0
117.34095 92.0
117.919449 176.0
117.934578 60.0
117.964844 88.0
118.041267 172.0
118.076973 332.0
118.105392 68.0
118.276321 156.0
119.013405 68.0
119.05262 484.0
119.089188 320.0
119.343658 84.0
119.550308 80.0
119.817207 72.0
120.061462 572.0
120.249863 100.0
120.47258 172.0
120.538124 84.0
120.643036 52.0
120.737053 144.0
121.064903 1280.0
121.415947 132.0
122.065956 132.0
122.092346 56.0
122.114342 168.0
122.200127 188.0
122.224335 224.0
122.34758 176.0
123.315926 72.0
123.782707 128.0
124.42569 136.0
125.097054 56.0
125.121544 152.0
125.226196 196.0
125.529282 212.0
125.839424 152.0
126.129631 128.0
126.275169 236.0
126.308716 204.0
126.913376 100.0
127.056305 292.0
127.097298 180.0
127.130959 168.0
127.931107 148.0
127.969376 56.0
128.061752 1796.0
128.104492 332.0
128.327606 144.0
128.456146 68.0
128.889618 216.0
129.043427 168.0
129.069305 1108.0
129.586502 56.0
129.693008 212.0
129.765549 208.0
129.788223 192.0
129.960602 176.0
129.978745 208.0
129.994629 168.0
130.010513 132.0
130.076248 200.0
130.133087 60.0
130.834198 100.0
130.924393 252.0
130.942612 196.0
131.049561 3628.0
131.084961 528.0
131.617615 44.0
131.674698 120.0
131.702103 172.0
132.010635 172.0
132.026642 120.0
132.057281 1784.0
132.088394 192.0
132.269165 96.0
132.546265 140.0
132.727356 264.0
132.861694 188.0
132.924622 120.0
133.035965 148.0
133.065475 9576.0
133.100266 1652.0
133.138107 52.0
133.161072 140.0
133.257538 48.0
133.282822 48.0
133.34256 212.0
133.370148 92.0
133.726654 100.0
134.067612 720.0
134.10437 180.0
134.166611 124.0
134.226547 132.0
134.244995 180.0
134.321106 284.0
134.381088 36.0
134.81749 116.0
134.935379 144.0
135.018616 128.0
135.075851 156.0
135.152786 80.0
135.196747 104.0
135.66925 188.0
136.003281 44.0
136.07782 148.0
137.336502 184.0
139.504791 208.0
139.707031 132.0
139.770554 48.0
139.881165 224.0
140.180267 240.0
140.380646 180.0
140.821945 28.0
140.904633 176.0
141.068024 340.0
141.626114 216.0
142.067001 208.0
142.753403 52.0
143.08725 560.0
143.177002 40.0
143.198441 80.0
144.030838 148.0
144.057037 564.0
144.087448 160.0
144.212433 120.0
144.810562 240.0
145.065338 2912.0
145.532364 56.0
145.589996 216.0
145.609207 44.0
145.662048 108.0
146.037018 108.0
146.07254 5244.0
146.328186 60.0
146.357071 48.0
146.523254 64.0
146.689529 164.0
146.7715 148.0
147.076706 896.0
147.116501 208.0
148.075958 364.0
148.14183 72.0
148.272675 196.0
148.996109 164.0
149.096848 304.0
149.603714 148.0
149.96666 160.0
150.093414 140.0
150.122681 124.0
150.205597 60.0
150.439865 100.0
150.64743 100.0
151.329742 140.0
152.959808 200.0
153.474701 156.0
153.602936 96.0
154.638214 136.0
155.05867 432.0
155.43866 156.0
155.753952 60.0
156.062103 196.0
156.084488 228.0
156.614563 204.0
157.807388 76.0
157.899918 184.0
158.310333 136.0
159.081711 304.0
159.328659 44.0
159.778656 164.0
160.082626 216.0
160.11525 172.0
160.667969 120.0
160.852173 168.0
160.900146 120.0
160.98851 144.0
161.09671 5872.0
161.291687 80.0
161.316971 44.0
161.724197 116.0
161.843185 44.0
161.957138 40.0
162.098007 676.0
162.129425 156.0
162.289124 84.0
162.339828 136.0
163.105286 304.0
163.280991 56.0
163.382462 40.0
163.475327 148.0
164.561172 108.0
166.931305 36.0
167.137085 100.0
169.075623 320.0
169.847092 124.0
171.091812 260.0
171.303497 96.0
172.469116 168.0
173.081009 192.0
173.193878 156.0
173.424454 52.0
173.686661 68.0
174.35878 128.0
175.132278 156.0
175.161255 160.0
176.107803 172.0
177.436539 120.0
177.529343 124.0
177.547913 172.0
177.914078 184.0
178.125824 348.0
178.857315 124.0
179.131241 336.0
182.383102 96.0
184.501862 80.0
187.923874 176.0
189.076996 112.0
189.830353 120.0
191.019333 244.0
191.688568 140.0
191.796051 132.0
192.002838 176.0
192.496796 136.0
192.665283 60.0
193.301193 136.0
194.33194 160.0
194.942795 128.0
196.555069 164.0
197.600037 60.0
198.381363 152.0
198.513138 136.0
201.115479 168.0
202.033829 204.0
202.418747 180.0
203.084732 128.0
204.021774 76.0
204.09285 172.0
204.175323 168.0
207.943634 64.0
208.058456 160.0
208.512283 36.0
208.914825 148.0
208.94072 204.0
209.107605 176.0
209.666321 176.0
212.024521 144.0
212.552292 184.0
215.627472 200.0
216.209442 180.0
217.273071 232.0
217.842575 208.0
218.542267 76.0
218.871918 100.0
218.892532 208.0
218.942596 100.0
219.331497 28.0
219.508392 124.0
219.729599 116.0
219.773849 160.0
219.82106 188.0
219.885986 48.0
220.009964 56.0
220.053787 256.0
220.104431 192.0
220.169769 19988.0
220.249146 32.0
220.399918 64.0
220.441177 92.0
220.466064 76.0
220.523926 108.0
220.559402 148.0
220.603729 92.0
220.647095 108.0
220.708939 164.0
220.781128 80.0
220.801834 68.0
220.896484 40.0
220.920151 88.0
221.083969 68.0
221.137131 120.0
221.171768 2236.0
221.269348 72.0
221.296005 76.0
221.340408 76.0
221.636612 40.0
222.172195 620.0
222.211807 124.0
222.253342 44.0
222.354233 60.0
222.425476 120.0
222.677841 152.0
222.863846 124.0
222.89151 108.0
223.168152 56.0
223.19194 40.0
223.465576 32.0
224.842239 84.0
229.485733 72.0
233.990952 124.0
234.338135 64.0
236.359406 80.0
245.409714 104.0
256.201355 88.0
261.166168 88.0
281.378265 48.0
283.3414 80.0
284.810669 52.0
298.236023 92.0
350.275055 60.0
379.454773 52.0
381.088715 104.0
385.827881 40.0
397.232483 40.0
419.202362 108.0
421.266846 60.0
440.588867 68.0
493.621979 124.0
598.079224 40.0
603.841309 48.0
627.141113 188.0
670.830322 92.0
676.880249 188.0
689.91864 172.0
694.851929 140.0
708.13031 40.0
803.283142 220.0
809.505737 212.0
811.783691 224.0
812.470032 136.0
819.451416 184.0
820.289124 176.0
828.340454 168.0
849.368652 196.0
853.154724 184.0
854.265442 192.0
863.375916 144.0
867.691345 208.0
899.059448 172.0
901.97406 184.0
908.285156 124.0
930.480591 192.0
932.254211 164.0
934.820374 240.0
941.379578 220.0
944.551514 128.0
948.764526 188.0
951.316528 160.0
957.668335 188.0
964.146362 32.0
964.269958 156.0
967.963135 104.0
975.481873 176.0
978.400085 140.0
979.689209 196.0
981.166138 140.0
983.405518 156.0
986.704041 156.0
988.72406 104.0
1002.584167 128.0
1002.710205 160.0
1004.141296 136.0
1006.608826 192.0
1010.616211 168.0
1016.255188 40.0
1023.157227 180.0
1029.118286 196.0
1030.446777 76.0
1033.643677 200.0
1034.149292 108.0
1037.108276 184.0
1038.332886 140.0
1044.087158 136.0
1045.66333 152.0
1046.616089 148.0
1050.611938 148.0
1050.876465 124.0
1053.820557 76.0
1067.133057 140.0
1070.646851 196.0
1071.369873 164.0
1071.571777 164.0
1074.782104 140.0
1075.216919 144.0
1081.000244 176.0
1083.960083 196.0
1084.956299 88.0
1085.264404 196.0
1088.617432 156.0
1088.814453 56.0
1089.63562 68.0
1090.752686 268.0
1094.79895 136.0
1102.167114 160.0
1106.525757 184.0
1108.63208 56.0
1109.487183 180.0
1113.860229 236.0
1118.235229 248.0
1120.086182 160.0
1120.879028 136.0
1121.152222 212.0
1122.772217 52.0
1124.239868 192.0
1127.472046 112.0
1130.575073 200.0
1131.498779 124.0
1133.930298 208.0
1134.278809 216.0
1136.887817 164.0
1138.431763 176.0
1138.841431 200.0
1140.077637 148.0
1140.272461 76.0
1141.011841 160.0
1141.79187 132.0
1141.838989 224.0
1145.823853 152.0
1146.713257 160.0
1148.041382 224.0
1151.152344 32.0
1153.760376 128.0
1154.051025 160.0
1155.59314 92.0
1160.272949 76.0
1160.686523 48.0
1161.432495 172.0
1161.574951 220.0
1166.939941 168.0
1167.545044 208.0
1168.38855 212.0
1169.463623 88.0
1169.899292 76.0
1170.151123 212.0
1171.451904 172.0
1172.010498 192.0
1173.039673 248.0
1173.435059 112.0
1174.819458 152.0
1175.283325 152.0
1175.672363 176.0
1176.102295 100.0
1177.454102 216.0
1179.517456 132.0
1180.091797 164.0
1182.109497 236.0
1184.108521 140.0
1185.040161 172.0
1185.485474 224.0
1185.697998 180.0
1186.595947 164.0
1188.166382 168.0
1189.875244 156.0
1191.640381 188.0
1194.183716 176.0
1194.89917 204.0
1201.968262 164.0
1203.279663 220.0
1204.398315 164.0
1207.729858 212.0
1207.792114 132.0
1210.802856 200.0
1212.784302 172.0
1213.345825 176.0
1218.280029 124.0
1219.579346 116.0
1220.733398 140.0
1224.763062 140.0
1225.466675 196.0
1225.828979 128.0
1226.226196 204.0
1226.505005 164.0
1226.734985 236.0
1227.013794 196.0
1227.18811 140.0
1227.71106 176.0
1227.759888 112.0
1231.200439 196.0
1234.456909 224.0
1234.568726 192.0
1236.060547 196.0
1236.156738 168.0
1238.137817 204.0
1239.230591 56.0
1239.931274 148.0
1241.403442 116.0
1243.016846 96.0
1244.554077 220.0
1244.694458 48.0
1244.835205 168.0
1245.888428 140.0
1246.4646 68.0
1246.787842 140.0
1247.617188 140.0
1253.895874 144.0
1254.494995 188.0
1256.455444 112.0
1258.488037 228.0
1259.038818 144.0
1260.388062 136.0
1261.511719 228.0
1264.447144 204.0
1264.666016 244.0
1265.976196 216.0
1266.309082 192.0
1267.414185 176.0
1267.640991 132.0
1270.065552 128.0
1274.388794 104.0
1275.02832 220.0
1275.092285 216.0
1275.78894 204.0
1276.101685 196.0
1278.299561 156.0
1278.883179 148.0
1278.940063 176.0
1280.670288 184.0
1281.005005 144.0
1281.774536 172.0
1283.485229 176.0
1284.198364 160.0
1284.248291 76.0
1284.669067 164.0
1285.354004 144.0
1286.603027 152.0
1287.366943 124.0
1287.695557 48.0
1289.588867 176.0
1291.662354 180.0
1293.766235 192.0
1295.062256 192.0
1295.964844 152.0
1296.624146 144.0
1297.477051 164.0
1297.584595 148.0
1299.686157 148.0
1299.901367 240.0
1300.719482 196.0
1301.257935 180.0
1302.7948 164.0
1302.952881 48.0
1303.563599 248.0
1305.900024 112.0
1306.871216 180.0
1312.428955 208.0
1312.828125 192.0
1313.651733 188.0
1317.389648 184.0
1318.039917 124.0
1318.206177 216.0
1318.560181 164.0
1319.564941 88.0
1320.447144 40.0
1321.510498 120.0
1322.024292 232.0
1322.277588 136.0
1323.327148 188.0
1324.0802 168.0
1324.210571 212.0
1325.108887 224.0
1326.14502 172.0
1327.138184 172.0
1328.080933 168.0
1328.240479 164.0
1330.64978 176.0
1331.971436 212.0
1334.23877 104.0
1335.394897 116.0
1337.701416 148.0
1338.502319 76.0
1338.560547 72.0
1338.61145 156.0
1338.939209 112.0
1341.401855 220.0
1341.751831 96.0
1343.356201 80.0
1343.932495 148.0
1345.041748 156.0
1346.954834 76.0
1348.679321 168.0
1349.563843 164.0
1350.009888 124.0
1351.114258 192.0
1352.716919 144.0
1353.976318 176.0
1356.269531 152.0
1356.650635 132.0
1356.782593 168.0
1356.899902 132.0
1358.322632 136.0
1358.660034 200.0
1359.679932 156.0
1359.864258 208.0
1360.876465 72.0
1361.17749 152.0
1361.485962 216.0
1361.82373 160.0
1362.440796 156.0
1362.8302 176.0
1363.050537 180.0
1363.300415 124.0
1363.939819 172.0
1365.888428 136.0
1366.675537 64.0
1369.126831 144.0
1370.320068 192.0
1371.16748 240.0
1371.2854 148.0
1371.52124 132.0
1372.752441 52.0
1373.106445 152.0
1375.733154 132.0
1376.227783 176.0
1377.727051 156.0
1378.525024 164.0
1379.315796 164.0
1379.441528 140.0
1380.609741 180.0
1381.800537 220.0
1382.333252 244.0
1382.533081 40.0
1384.13208 124.0
1384.828125 184.0
1386.7323 192.0
1386.962036 144.0
1387.340088 156.0
1389.030762 156.0
1389.238525 144.0
1389.297852 152.0
1390.78186 132.0
1391.034302 64.0
1391.212402 36.0
1391.901489 184.0
1392.222168 236.0
1392.363281 224.0
1393.759888 40.0
1394.086792 184.0
1395.305786 84.0
1397.291504 116.0
1398.415161 140.0
1399.851929 200.0
1400.477539 232.0
1400.59668 160.0
1400.71582 60.0
1401.438477 136.0
1406.390137 224.0
1406.576782 208.0
1406.800659 56.0
1409.310059 144.0
1410.005005 152.0
1411.709473 228.0
1412.113281 188.0
1412.42749 264.0
1413.115723 100.0
1413.512207 152.0
1413.833984 152.0
1415.982666 68.0
1416.267212 164.0
1416.521851 196.0
1416.784058 184.0
1416.971436 168.0
1420.014771 176.0
1422.580933 168.0
1423.294067 44.0
1423.954956 196.0
1424.638428 116.0
1426.497681 168.0
1426.682495 156.0
1429.329956 124.0
1429.676025 160.0
1430.345947 56.0
1431.633301 168.0
1435.069336 160.0
1435.974243 204.0
1436.509766 196.0
1438.418823 136.0
1439.641968 116.0
1439.764038 128.0
1440.231079 128.0
1440.593628 140.0
1441.175415 108.0
1441.507812 148.0
1442.94397 216.0
1445.4021 140.0
1446.143677 160.0
1448.945435 176.0
1449.907715 192.0
1450.605103 196.0
1450.83252 164.0
1451.401123 148.0
1454.109253 192.0
1454.283813 212.0
1455.847778 104.0
1456.402222 176.0
1456.463013 172.0
1458.430908 180.0
1458.55249 228.0
1460.362061 160.0
1461.602173 72.0
1461.94458 128.0
1463.032959 168.0
1463.99231 208.0
1464.289307 176.0
1467.444092 192.0
1467.947266 172.0
1469.015015 124.0
1469.633057 240.0
1469.732178 180.0
1477.930664 128.0
1480.962158 96.0
1481.054077 176.0
1482.686035 152.0
1483.529175 176.0
1484.012207 160.0
1484.978394 240.0
1485.699341 132.0
1486.290161 128.0
1487.541138 168.0
1487.748413 188.0
1488.961548 160.0
1489.814087 188.0
1490.674683 124.0
1491.953369 140.0
1492.104248 44.0
1492.31958 128.0
1492.919312 172.0
1493.357666 72.0
1494.688599 188.0
1497.244263 148.0
1497.775635 204.0
1499.940918 120.0
1500.133667 148.0
1500.303223 216.0
1500.78894 200.0
1502.184814 216.0
1503.187744 128.0
1503.604492 136.0
