>compound MLS002153893-01!Yohimbinic acid monohydrate522-87-2
>formula C20H24N2O3
>ionization [M+H]+
>parentmass 341.185547
#inchi InChI=1S/C20H24N2O3/c23-17-6-5-11-10-22-8-7-13-12-3-1-2-4-15(12)21-19(13)16(22)9-14(11)18(17)20(24)25/h1-4,11,14,16-18,21,23H,5-10H2,(H,24,25)/t11-,14-,16-,17-,18+/m0/s1
#inchikey AADVZSXPNRLYLV
#origInchi InChI=1S/C20H24N2O3.H2O/c23-17-6-5-11-10-22-8-7-13-12-3-1-2-4-15(12)21-19(13)16(22)9-14(11)18(17)20(24)25;/h1-4,11,14,16-18,21,23H,5-10H2,(H,24,25);1H2/t11-,14-,16-,17-,18+;/m0./s1
#Ion_Source LC-ESI
#Instrument qTof
#Compound_Source NIH Pharmacologically Active Library
#PI Dorrestein
#Data_Collector VP/LMS
#Scan -1
#Precursor_MZ 341.192
#ExactMass 340.179
#Charge 1
#CAS_Number N/A
#Pubmed_ID N/A
#Smiles O[C@H]1CC[C@H]2CN3CCc4c([nH]c5ccccc45)[C@@H]3C[C@@H]2[C@H]1C(=O)O.O
#INCHI_AUX N/A
#Library_Class 1
#SpectrumID CCMSLIB00000086119
#IonMode Positive
#UpdateWorkflowName UPDATE-SINGLE-ANNOTATED-GOLD
#LibraryQualityString Gold
#TaskID d252d724072548979f1f6f1ced849daf
##Scan# 1294
#SpectrumFile p5-F02_GF2_01_18465.mzXML
#LibraryName Pharm_Active_Library.mgf
#MQScore -1
#Organism Pharm_Active_Library
#TIC_Query 0
#RT_Query -1
#MZErrorPPM -1
#SharedPeaks 0
#MassDiff 0
#LibMZ -1
#SpecMZ 341.192
#SpecCharge 0
#internalFilename spec-00000.mgf

>collision 10
44.953991 176.0
44.990028 152.0
45.066154 116.0
45.2976 204.0
45.402142 200.0
45.478619 200.0
45.501438 116.0
45.795929 76.0
45.996838 212.0
46.102184 208.0
46.13327 156.0
46.420307 200.0
46.452709 184.0
46.58453 144.0
46.634808 40.0
46.68647 68.0
46.704151 116.0
46.943916 164.0
46.968399 104.0
47.029797 156.0
47.103531 136.0
47.117191 120.0
47.188259 152.0
47.216976 144.0
47.512844 236.0
47.706482 128.0
47.755981 204.0
47.892246 156.0
47.92944 100.0
48.052151 188.0
48.273151 216.0
48.476643 216.0
48.522385 144.0
48.541794 88.0
48.591728 168.0
48.770866 200.0
48.797279 192.0
48.813965 176.0
48.943371 140.0
49.042282 164.0
49.264149 160.0
49.36338 204.0
49.409538 148.0
49.434723 168.0
49.7164 128.0
49.803772 188.0
49.870888 180.0
49.981987 216.0
50.010132 156.0
50.158028 112.0
50.169304 136.0
50.22007 208.0
50.258156 124.0
50.408901 180.0
50.548981 220.0
50.639843 164.0
50.720608 156.0
50.912144 160.0
50.947655 48.0
51.037193 100.0
51.222202 140.0
51.584652 172.0
51.646137 244.0
51.670456 200.0
51.786404 152.0
52.101986 196.0
52.32058 216.0
52.489155 204.0
52.538193 136.0
52.636337 196.0
52.919735 112.0
52.993603 204.0
53.164707 104.0
53.238747 148.0
53.344582 152.0
53.583477 196.0
53.900093 144.0
53.922012 160.0
53.973179 132.0
54.109737 120.0
54.207382 164.0
54.219105 192.0
54.296806 160.0
54.430603 208.0
54.506729 184.0
54.697922 172.0
54.780384 212.0
54.867329 236.0
55.263142 156.0
55.458618 192.0
55.6292 52.0
55.713848 220.0
55.773285 200.0
55.953285 48.0
55.993488 168.0
56.012852 160.0
56.112698 216.0
56.187267 180.0
56.199203 188.0
56.218601 168.0
56.236507 160.0
56.42622 140.0
56.438183 228.0
56.460613 188.0
56.556366 148.0
56.614758 220.0
56.650703 236.0
56.671677 220.0
56.706142 148.0
56.734623 116.0
56.983753 132.0
57.030338 104.0
57.188267 180.0
57.28614 152.0
57.344906 136.0
57.374722 164.0
57.474598 48.0
57.551575 160.0
57.631626 52.0
57.672432 164.0
57.690571 204.0
57.761642 116.0
57.787361 172.0
57.9827 104.0
58.260376 132.0
58.520439 132.0
58.634686 236.0
58.872677 208.0
58.921555 84.0
58.962811 132.0
59.028549 128.0
59.089729 216.0
59.160126 156.0
59.187687 128.0
59.339371 324.0
59.360836 116.0
59.434467 152.0
59.488182 172.0
59.684834 148.0
59.780205 180.0
59.808945 172.0
59.992641 164.0
60.035927 216.0
60.151642 176.0
60.239662 168.0
60.742752 132.0
60.775333 148.0
60.803993 136.0
60.846725 132.0
60.940189 180.0
61.098362 236.0
61.201214 200.0
61.363255 272.0
61.422512 44.0
61.550488 176.0
61.748909 136.0
61.789623 160.0
61.817787 152.0
62.310127 140.0
62.569626 144.0
62.632614 76.0
62.873844 156.0
62.895939 196.0
62.985943 144.0
63.033268 88.0
63.057041 156.0
63.210442 120.0
63.265835 180.0
63.513039 116.0
63.829079 152.0
63.846569 140.0
64.000923 168.0
64.042328 80.0
64.252747 196.0
64.313385 212.0
64.38044 180.0
64.780296 152.0
64.841187 168.0
64.863625 44.0
65.024017 220.0
65.091446 156.0
65.307655 140.0
65.364708 132.0
65.504776 132.0
65.854797 140.0
65.867714 48.0
66.03743 176.0
66.220322 100.0
66.4132 184.0
66.591736 192.0
66.850227 188.0
66.895798 216.0
66.920219 176.0
66.942665 240.0
67.045647 224.0
67.179344 176.0
67.264198 212.0
67.421928 176.0
67.435707 152.0
67.524239 160.0
67.613976 196.0
67.713844 124.0
67.771179 160.0
68.084488 76.0
68.174843 168.0
68.258675 236.0
68.365601 140.0
68.424858 148.0
68.449448 184.0
68.484138 152.0
68.568169 172.0
68.601135 160.0
68.941139 76.0
68.974197 188.0
69.03537 116.0
69.071754 180.0
69.121384 48.0
69.228981 144.0
69.303528 180.0
69.768234 184.0
69.882988 156.0
69.921257 220.0
70.02282 116.0
70.047798 64.0
70.174019 152.0
70.227821 132.0
70.463188 168.0
70.553436 220.0
70.593567 152.0
70.692261 240.0
70.71067 184.0
70.72406 196.0
71.264046 376.0
71.304382 200.0
71.418709 208.0
71.491051 128.0
71.528076 192.0
71.839821 152.0
71.973152 144.0
72.236801 184.0
72.282486 184.0
72.35408 200.0
72.390823 224.0
72.443321 116.0
72.565491 92.0
73.068062 196.0
73.275772 152.0
73.432594 120.0
73.499123 64.0
73.777519 216.0
73.905792 124.0
73.981094 192.0
74.042732 132.0
74.063286 144.0
74.481812 176.0
75.156662 108.0
75.294762 152.0
75.422615 196.0
75.468102 220.0
75.512527 156.0
75.740997 164.0
75.961136 84.0
76.002777 168.0
76.270218 60.0
76.386719 184.0
76.430214 160.0
76.454575 124.0
76.496353 152.0
76.521278 100.0
76.86409 208.0
77.068382 148.0
77.150528 52.0
77.542618 168.0
77.735527 184.0
77.777641 120.0
78.299835 168.0
78.357964 164.0
78.428452 228.0
78.738976 124.0
79.005882 152.0
79.129768 144.0
79.271469 200.0
79.480705 120.0
79.507324 144.0
80.174225 140.0
80.27227 148.0
80.288315 64.0
80.481041 60.0
80.654327 200.0
80.706169 228.0
81.046249 128.0
81.184273 220.0
81.552322 72.0
81.877968 88.0
81.913986 184.0
81.982452 184.0
82.281876 176.0
82.357719 116.0
82.904099 160.0
82.924034 120.0
82.951225 156.0
83.161407 164.0
83.299629 140.0
83.532303 176.0
83.639664 156.0
83.916565 196.0
83.998627 212.0
84.033104 196.0
84.172012 212.0
84.285263 232.0
84.299881 248.0
84.321808 168.0
84.433334 220.0
84.488205 180.0
84.598007 184.0
84.643776 176.0
85.06913 124.0
85.205025 144.0
85.269341 76.0
85.285881 152.0
85.377808 132.0
85.407234 236.0
85.495544 96.0
85.74601 108.0
85.864006 212.0
85.92672 152.0
86.039299 80.0
86.362679 56.0
86.394119 140.0
86.631081 84.0
86.818275 160.0
86.990829 64.0
87.031677 164.0
87.150551 100.0
87.263924 184.0
87.662254 216.0
87.690208 268.0
87.716309 100.0
87.77037 116.0
87.889748 104.0
88.111931 120.0
88.192284 76.0
88.237144 188.0
88.325035 220.0
88.422333 200.0
88.474739 192.0
88.545898 132.0
88.559006 184.0
88.588974 204.0
88.660179 124.0
88.673294 200.0
88.849556 224.0
89.06543 200.0
89.191322 128.0
89.212006 196.0
89.385033 220.0
89.411377 132.0
89.739143 180.0
89.761772 164.0
89.822121 152.0
90.152527 124.0
90.22435 108.0
90.294312 164.0
90.355286 204.0
90.409714 192.0
90.493004 160.0
90.724136 136.0
90.792397 168.0
90.936584 168.0
91.053978 160.0
91.210098 72.0
91.550659 132.0
91.636375 144.0
91.830811 192.0
91.954826 256.0
92.046455 184.0
92.101891 164.0
92.40197 148.0
92.821434 76.0
93.059357 132.0
93.0728 172.0
93.201492 124.0
93.416817 164.0
93.676697 156.0
93.88871 168.0
93.910057 268.0
94.000595 180.0
94.046913 108.0
94.067398 312.0
94.485565 92.0
94.526199 172.0
95.068794 168.0
95.095963 192.0
95.233818 144.0
95.272667 44.0
95.533165 128.0
95.566238 184.0
95.698586 124.0
95.755058 144.0
95.875847 124.0
96.541786 164.0
96.578705 236.0
96.606094 92.0
96.641304 176.0
96.982666 168.0
97.176193 200.0
97.284134 132.0
97.443207 212.0
97.476608 160.0
97.665344 204.0
97.97242 140.0
98.323402 184.0
98.395988 160.0
98.601868 156.0
98.957924 200.0
99.051003 212.0
99.086662 116.0
99.175835 136.0
99.259102 108.0
99.318596 148.0
99.358269 180.0
99.437637 156.0
99.640182 128.0
99.72364 152.0
99.779297 252.0
99.811111 136.0
99.850883 160.0
99.886688 140.0
100.141464 176.0
100.233101 128.0
100.34671 108.0
100.891739 176.0
100.923729 148.0
101.273941 76.0
101.482353 180.0
101.512428 156.0
101.588646 196.0
101.854073 204.0
101.966133 160.0
102.046539 148.0
102.195374 56.0
102.22757 204.0
102.334251 152.0
102.406746 108.0
102.688911 120.0
102.747414 164.0
103.053482 772.0
103.114914 88.0
103.167961 148.0
103.250366 128.0
103.329254 108.0
103.404129 184.0
103.454727 220.0
103.724152 152.0
104.034515 152.0
104.05732 240.0
104.123856 136.0
104.158386 140.0
104.184792 44.0
104.278259 148.0
104.310783 68.0
104.440918 48.0
104.542641 68.0
104.636276 176.0
104.778839 144.0
104.801247 204.0
104.947998 168.0
105.033653 164.0
105.06813 196.0
105.096893 160.0
105.286736 60.0
105.356186 124.0
105.648521 176.0
105.779488 168.0
105.826576 164.0
106.063591 364.0
106.14827 200.0
106.181084 196.0
106.337006 76.0
106.643028 236.0
106.957733 236.0
106.984489 132.0
107.044197 196.0
107.066849 40.0
107.087296 224.0
107.239914 128.0
107.431679 100.0
107.472939 172.0
107.684975 208.0
107.706223 172.0
108.022484 236.0
108.045242 188.0
108.082481 172.0
108.15078 180.0
108.463547 72.0
108.513298 204.0
108.548546 176.0
108.959511 224.0
109.064064 412.0
109.171524 160.0
109.725388 156.0
109.752495 136.0
110.096802 124.0
110.224228 184.0
110.332916 196.0
110.44165 168.0
110.724197 164.0
111.25679 160.0
111.601349 112.0
111.683365 92.0
111.73806 116.0
112.003304 128.0
112.018044 48.0
112.218254 168.0
112.247772 204.0
112.285728 144.0
112.813606 176.0
113.061073 164.0
113.241028 72.0
113.300339 208.0
113.679871 168.0
113.949532 124.0
114.089798 156.0
114.208878 184.0
114.351433 152.0
114.428062 180.0
114.487686 56.0
114.59845 120.0
114.747643 160.0
114.854271 248.0
114.941742 92.0
115.007187 144.0
115.054733 2284.0
115.383865 52.0
115.430901 168.0
115.486458 172.0
115.720131 360.0
115.743309 120.0
115.811844 132.0
115.876106 112.0
115.921104 84.0
116.054199 504.0
116.114044 160.0
116.249199 40.0
116.425224 184.0
116.543373 152.0
116.650826 136.0
116.685226 176.0
116.917534 52.0
116.990715 208.0
117.02301 104.0
117.070625 7460.0
117.130684 144.0
117.22979 212.0
117.281517 76.0
117.30954 160.0
117.37178 184.0
117.43676 56.0
117.471268 212.0
117.747551 68.0
118.015503 60.0
118.072304 952.0
118.238312 112.0
118.272942 156.0
118.506821 216.0
118.532822 128.0
118.556664 208.0
118.589622 152.0
118.608673 44.0
118.762627 108.0
118.786484 204.0
118.829872 96.0
118.860252 92.0
118.987564 152.0
119.050232 148.0
119.082146 204.0
119.518631 196.0
119.729782 192.0
119.753746 176.0
120.084892 192.0
120.154831 148.0
120.248665 112.0
120.318512 116.0
120.665886 64.0
120.773041 120.0
120.948082 148.0
121.013756 72.0
121.072876 124.0
121.088211 160.0
121.713196 136.0
121.768097 220.0
121.886726 152.0
121.926277 216.0
121.970238 160.0
121.994415 112.0
122.097626 228.0
122.333191 244.0
122.401443 52.0
122.421265 168.0
122.566643 236.0
122.584274 148.0
122.877533 88.0
122.996696 152.0
123.098076 196.0
123.129173 152.0
123.308121 216.0
123.409813 164.0
123.4673 180.0
123.555779 148.0
123.985344 224.0
124.07534 216.0
124.12278 128.0
124.52668 196.0
124.544449 68.0
124.828918 184.0
125.015778 140.0
125.534821 136.0
125.562675 224.0
125.610649 168.0
126.046005 64.0
126.075058 140.0
126.153282 112.0
126.345604 212.0
126.560463 124.0
126.676926 172.0
126.849472 140.0
126.979515 132.0
127.017647 236.0
127.055534 1144.0
127.405998 172.0
127.93898 72.0
128.05481 824.0
128.204758 140.0
128.33551 176.0
128.405411 180.0
128.818466 92.0
129.033157 68.0
129.068024 344.0
129.469864 140.0
129.580856 96.0
129.725891 108.0
130.013947 172.0
130.064697 1036.0
130.091125 180.0
130.109283 48.0
130.161499 44.0
130.247803 80.0
130.30687 32.0
130.472778 196.0
130.704773 216.0
130.763931 164.0
130.889145 136.0
131.048477 468.0
131.072235 104.0
131.11467 180.0
131.160248 204.0
131.44989 128.0
131.666763 164.0
131.856384 172.0
132.082642 792.0
132.549774 188.0
132.591019 64.0
133.064178 320.0
133.086517 256.0
133.327713 156.0
133.440338 100.0
133.566818 156.0
133.6026 168.0
133.813065 140.0
133.978882 172.0
134.052612 164.0
134.09613 2052.0
134.15863 28.0
134.597 192.0
134.620087 124.0
134.744812 188.0
134.811829 64.0
134.948196 172.0
135.048676 260.0
135.102371 192.0
135.151733 160.0
135.235046 104.0
135.487442 124.0
135.821259 56.0
135.881577 72.0
136.075119 168.0
136.116348 240.0
136.167084 48.0
136.227478 108.0
136.362244 132.0
136.625 132.0
136.883347 128.0
137.062714 168.0
137.113983 104.0
137.263168 236.0
137.363464 132.0
137.477783 144.0
137.907516 168.0
137.965942 124.0
138.057709 132.0
138.089874 176.0
138.167068 132.0
138.384735 112.0
138.43515 120.0
138.476059 168.0
138.815872 168.0
139.005875 168.0
139.066895 208.0
139.088013 76.0
139.278214 96.0
139.508499 148.0
139.588425 108.0
139.906067 60.0
140.052429 180.0
140.070908 184.0
140.379654 120.0
140.412766 200.0
140.665131 192.0
140.714706 56.0
141.064926 196.0
141.071732 224.0
141.265335 228.0
141.319763 156.0
141.537506 152.0
141.705673 184.0
141.816315 244.0
142.06749 392.0
142.16568 164.0
142.265381 44.0
142.365097 212.0
142.578903 144.0
142.709641 116.0
142.766708 176.0
142.783356 252.0
143.002243 172.0
143.028427 140.0
143.073593 6092.0
143.123657 144.0
143.2332 136.0
143.302292 148.0
143.54303 68.0
143.603729 136.0
143.623718 48.0
143.657516 128.0
143.702835 84.0
143.72908 304.0
143.757614 172.0
143.77919 120.0
143.810226 124.0
143.847427 108.0
143.898544 92.0
143.924805 96.0
143.972412 184.0
143.996445 164.0
144.025467 164.0
144.055222 348.0
144.08168 67528.0
144.153168 60.0
144.194748 92.0
144.231796 88.0
144.258392 80.0
144.288376 72.0
144.333405 48.0
144.360092 296.0
144.405823 140.0
144.444305 64.0
144.474579 304.0
144.524826 136.0
144.577316 68.0
144.635864 116.0
144.688141 104.0
144.731766 124.0
144.768906 48.0
144.785675 48.0
144.807236 92.0
144.870926 136.0
144.905441 136.0
144.992416 152.0
145.031067 136.0
145.084717 9580.0
145.154617 88.0
145.18956 68.0
145.228333 136.0
145.274643 120.0
145.291428 60.0
145.328781 92.0
145.358612 124.0
145.387405 40.0
145.430603 56.0
145.463715 96.0
145.48407 104.0
145.50502 72.0
145.620285 92.0
145.677933 72.0
145.730789 88.0
145.798065 120.0
145.891815 108.0
145.949509 84.0
145.976273 140.0
146.004822 148.0
146.066483 556.0
146.092346 584.0
146.129898 152.0
146.146744 216.0
146.180435 40.0
146.228012 52.0
146.260559 96.0
146.281509 108.0
146.311752 64.0
146.334473 80.0
146.363373 140.0
146.428391 52.0
146.471741 68.0
146.556061 52.0
146.756119 52.0
146.775406 88.0
146.794693 208.0
146.838104 72.0
147.074554 160.0
147.093872 84.0
147.212173 136.0
147.301529 60.0
147.378845 32.0
147.535934 140.0
147.729401 52.0
147.925415 88.0
147.985931 192.0
148.114853 320.0
148.647659 72.0
148.698624 100.0
149.062897 152.0
150.504913 188.0
150.793167 60.0
150.974075 64.0
151.074356 176.0
151.093933 60.0
151.125732 104.0
151.265228 44.0
152.054474 168.0
152.072922 348.0
152.104965 308.0
152.129318 144.0
152.50885 92.0
153.212616 156.0
153.47879 156.0
154.070084 132.0
154.087265 128.0
154.194687 80.0
154.434509 208.0
154.733932 168.0
154.828018 60.0
154.866577 140.0
154.897369 204.0
154.951874 140.0
155.059448 1488.0
155.266678 164.0
155.77301 104.0
155.850037 52.0
155.911758 76.0
156.077713 640.0
156.272705 44.0
156.60878 72.0
156.775696 76.0
157.064911 180.0
157.086487 376.0
157.28949 68.0
157.484238 36.0
157.791611 44.0
158.011688 124.0
158.097092 1004.0
158.758118 84.0
158.793228 144.0
159.098419 580.0
159.966644 72.0
160.079422 216.0
160.334381 84.0
160.735336 128.0
161.087494 156.0
161.905762 68.0
162.091187 824.0
162.32135 152.0
163.042297 76.0
163.074005 188.0
163.571335 52.0
163.991608 48.0
164.027298 108.0
164.0784 176.0
164.101135 120.0
164.114212 128.0
164.261887 72.0
165.074066 152.0
165.094513 192.0
166.016434 120.0
166.09166 244.0
166.706985 52.0
167.071823 156.0
167.097183 228.0
167.532898 172.0
167.556091 156.0
168.081635 320.0
169.088684 520.0
169.802368 56.0
169.968399 144.0
170.059235 276.0
170.094498 292.0
170.547531 136.0
170.903809 188.0
171.08078 100.0
171.140656 164.0
172.053177 192.0
172.076675 128.0
172.107376 132.0
172.672455 40.0
173.308563 164.0
173.544464 160.0
173.688705 120.0
173.851364 196.0
174.095505 148.0
174.902649 176.0
174.926346 112.0
175.094849 164.0
175.20285 88.0
176.533112 128.0
176.935303 148.0
177.00679 148.0
177.155106 172.0
178.084686 328.0
179.090393 196.0
179.291351 204.0
179.373978 196.0
179.704666 168.0
180.100967 2596.0
180.126892 176.0
180.190582 36.0
181.103073 468.0
181.60936 152.0
181.79715 176.0
182.097595 316.0
182.12738 152.0
182.326202 36.0
182.358444 160.0
182.630005 144.0
183.105988 236.0
183.990829 128.0
184.025925 136.0
184.096954 172.0
184.117737 192.0
185.134567 128.0
186.553604 220.0
186.583511 160.0
187.735275 156.0
188.136353 188.0
188.57341 188.0
189.344925 88.0
190.299194 236.0
191.121017 48.0
191.801239 280.0
192.076981 192.0
192.098526 436.0
192.140427 168.0
192.259079 228.0
192.438492 220.0
193.084778 168.0
194.045959 140.0
194.095505 328.0
194.290024 128.0
194.550888 128.0
194.873047 132.0
195.048126 148.0
195.09729 244.0
196.047287 136.0
196.071915 148.0
196.111115 328.0
196.641312 116.0
196.898163 88.0
196.934479 92.0
197.103363 184.0
197.255814 88.0
198.112976 9164.0
198.193344 240.0
198.270569 60.0
198.361511 56.0
198.411957 184.0
198.526917 68.0
199.077713 212.0
199.118423 976.0
199.439377 44.0
199.644608 64.0
199.974686 184.0
200.111237 168.0
200.410263 76.0
200.596268 84.0
200.678024 140.0
200.945953 44.0
201.072937 80.0
201.343964 52.0
202.110031 188.0
202.305313 108.0
203.019333 148.0
203.348419 52.0
204.087708 180.0
205.089188 372.0
205.733749 112.0
206.045044 76.0
206.097092 576.0
206.605377 104.0
207.104492 388.0
207.281082 64.0
207.932053 52.0
208.115372 380.0
209.072998 148.0
209.118607 256.0
209.865143 120.0
210.078568 144.0
210.111374 1196.0
210.51149 88.0
210.534607 44.0
211.107681 340.0
211.129929 160.0
211.219589 36.0
211.491577 80.0
212.127304 180.0
212.740906 152.0
214.824509 132.0
215.764862 112.0
216.125412 160.0
216.932922 176.0
217.086685 316.0
218.0905 228.0
218.701233 204.0
219.101715 280.0
220.117081 344.0
221.115128 300.0
222.092026 156.0
222.120758 384.0
223.120712 168.0
224.15947 176.0
224.257828 76.0
224.481415 76.0
224.973709 108.0
225.846252 84.0
226.858368 152.0
226.978287 360.0
227.02327 124.0
227.761581 128.0
227.977905 292.0
228.360977 104.0
228.579315 136.0
228.853226 72.0
230.098419 112.0
230.333969 48.0
231.103287 168.0
231.138153 116.0
231.455978 132.0
232.109818 268.0
233.112961 96.0
233.835983 32.0
234.127655 172.0
234.679794 88.0
235.122116 204.0
235.14653 120.0
236.105835 148.0
236.148148 148.0
240.098267 120.0
240.737076 32.0
243.105255 120.0
244.065094 96.0
244.114853 140.0
244.385468 88.0
245.116882 124.0
246.129257 500.0
247.134735 164.0
248.058151 248.0
248.139465 428.0
249.137192 188.0
249.165924 52.0
250.125061 128.0
250.156265 136.0
250.628952 76.0
251.095505 120.0
251.165253 140.0
252.105728 212.0
252.134171 252.0
253.102158 196.0
255.55571 160.0
255.985413 64.0
256.115997 236.0
257.45871 228.0
258.1138 128.0
259.105988 148.0
260.080841 120.0
260.140503 436.0
262.071472 172.0
262.158264 328.0
262.348633 44.0
263.129364 136.0
264.099731 128.0
264.134399 108.0
264.163483 132.0
264.969574 64.0
265.121887 148.0
265.180206 184.0
265.767181 76.0
266.108337 140.0
266.158447 328.0
268.160583 80.0
268.829163 92.0
269.619446 112.0
271.014191 208.0
272.263245 60.0
274.105408 92.0
274.487793 68.0
275.15097 152.0
276.079468 104.0
276.122437 116.0
276.146851 356.0
277.146545 188.0
277.173676 152.0
278.138153 144.0
278.173431 48.0
279.050476 96.0
279.13028 152.0
279.193146 252.0
279.87561 80.0
279.945557 44.0
280.149872 128.0
281.134613 156.0
281.289185 40.0
281.980591 216.0
282.171112 160.0
282.45871 76.0
285.497406 116.0
285.921295 124.0
287.147614 204.0
288.131256 376.0
289.174744 72.0
289.950317 52.0
292.136383 344.0
293.135712 236.0
294.148834 368.0
294.239685 60.0
295.167511 136.0
295.815643 56.0
296.781769 120.0
297.100708 84.0
297.150238 148.0
298.15741 224.0
299.327911 156.0
300.589508 116.0
305.162384 172.0
306.145691 420.0
306.174255 108.0
307.244324 40.0
308.746307 144.0
309.236084 156.0
311.139496 120.0
312.16037 440.0
313.150848 132.0
313.175507 148.0
316.236664 204.0
319.981689 132.0
321.974976 164.0
323.173096 136.0
323.20108 76.0
323.566162 104.0
324.15744 448.0
326.166962 128.0
328.222626 84.0
332.977753 68.0
334.909027 168.0
336.769196 100.0
337.002991 188.0
339.165588 148.0
339.833221 140.0
340.549072 100.0
340.633545 108.0
340.901764 120.0
341.133301 80.0
341.185547 5240.0
341.412109 92.0
341.442169 48.0
341.499634 108.0
341.543243 108.0
341.615021 52.0
341.743805 92.0
341.787964 80.0
341.983002 96.0
342.111816 92.0
342.186401 952.0
342.40271 48.0
342.623718 36.0
342.830048 76.0
342.86322 36.0
343.084381 36.0
343.181091 268.0
343.357239 84.0
344.006622 128.0
344.191223 152.0
344.567963 112.0
344.656647 128.0
346.265808 176.0
346.532532 32.0
347.144135 56.0
347.656067 32.0
360.652466 100.0
363.451111 88.0
363.914185 84.0
376.022491 64.0
378.85675 88.0
392.55661 124.0
402.66861 84.0
422.582581 132.0
438.210388 100.0
504.171265 36.0
505.351746 80.0
505.535217 68.0
523.948914 104.0
535.409424 56.0
545.338013 88.0
564.352478 164.0
582.380798 52.0
616.986816 56.0
647.34491 48.0
667.218994 148.0
775.014465 76.0
788.950623 156.0
814.961121 180.0
818.447815 108.0
858.154846 100.0
861.82605 188.0
863.234802 168.0
866.489136 160.0
869.555908 172.0
884.023987 140.0
922.495911 168.0
932.351257 168.0
935.228027 124.0
939.53009 60.0
943.346802 160.0
945.579346 176.0
951.617371 208.0
955.870789 152.0
977.217896 248.0
980.300049 32.0
980.848511 184.0
999.864014 136.0
1003.114075 64.0
1005.895874 80.0
1011.705322 172.0
1012.337769 176.0
1014.125061 180.0
1018.680908 156.0
1027.47876 200.0
1038.436279 128.0
1040.57959 188.0
1044.216675 152.0
1046.011719 164.0
1051.322632 100.0
1054.971924 196.0
1056.543335 192.0
1057.209839 132.0
1067.485229 132.0
1080.242554 140.0
1084.00061 176.0
1086.196899 100.0
1089.420044 156.0
1091.496826 180.0
1093.602051 212.0
1100.77478 176.0
1106.731934 204.0
1107.427734 144.0
1112.394165 116.0
1126.939087 164.0
1132.752563 188.0
1133.355591 180.0
1146.607178 148.0
1146.789185 164.0
1149.999634 156.0
1154.431519 84.0
1160.634155 180.0
1161.122437 180.0
1165.446533 160.0
1165.528076 48.0
1169.227295 132.0
1172.305542 80.0
1174.446167 180.0
1178.713013 108.0
1179.293945 232.0
1181.057983 260.0
1182.364746 160.0
1183.062988 136.0
1186.035889 132.0
1186.577393 164.0
1187.791138 76.0
1188.827148 96.0
1195.18335 184.0
1196.904175 144.0
1201.729004 196.0
1202.777954 44.0
1205.139771 60.0
1205.671875 64.0
1213.576904 184.0
1214.769775 168.0
1220.158691 68.0
1220.63147 220.0
1222.106079 204.0
1222.412231 88.0
1238.301392 172.0
1244.128296 180.0
1245.350098 160.0
1245.834839 200.0
1246.523315 164.0
1247.205078 132.0
1247.472168 164.0
1248.941772 60.0
1254.878296 160.0
1258.455444 244.0
1259.062622 160.0
1260.143433 244.0
1260.609741 100.0
1261.917358 48.0
1267.197266 188.0
1267.73584 148.0
1268.579224 152.0
1269.976074 172.0
1271.728638 212.0
1273.453979 60.0
1282.105103 144.0
1282.767944 100.0
1283.366821 192.0
1283.65918 64.0
1284.436523 228.0
1285.492432 132.0
1285.856445 104.0
1287.262817 112.0
1288.262695 204.0
1291.679565 180.0
1293.883667 180.0
1296.168457 156.0
1296.333252 72.0
1296.412109 196.0
1298.297485 160.0
1300.571777 140.0
1301.002441 252.0
1303.271973 164.0
1304.098389 160.0
1307.80249 192.0
1309.278442 56.0
1315.39978 144.0
1317.074951 164.0
1317.197754 56.0
1319.633179 172.0
1320.428589 176.0
1321.166382 128.0
1323.851685 192.0
1327.822998 216.0
1329.549683 116.0
1333.020874 60.0
1335.223633 208.0
1336.78772 104.0
1339.270264 212.0
1340.144409 160.0
1340.639893 168.0
1342.542603 184.0
1345.723999 168.0
1345.97229 168.0
1346.717163 156.0
1348.397583 132.0
1351.65918 44.0
1352.266479 212.0
1354.990479 120.0
1356.001709 180.0
1356.448853 184.0
1356.874023 148.0
1357.115967 140.0
1360.446777 132.0
1364.310913 188.0
1366.112549 156.0
1369.14502 216.0
1369.498535 44.0
1370.065796 140.0
1371.841797 208.0
1371.944946 112.0
1372.608521 124.0
1374.356689 68.0
1376.54895 68.0
1378.439941 120.0
1382.425659 52.0
1385.187378 132.0
1385.831787 200.0
1389.813477 164.0
1390.050903 88.0
1391.060181 228.0
1391.57251 48.0
1392.753174 264.0
1393.674438 128.0
1395.108765 196.0
1398.828247 140.0
1400.503662 104.0
1400.779175 56.0
1402.977539 240.0
1404.92395 168.0
1407.282349 196.0
1407.879639 128.0
1407.969238 244.0
1408.170898 68.0
1410.053711 172.0
1410.95813 176.0
1415.814209 108.0
1416.840454 112.0
1418.069336 152.0
1420.97876 144.0
1421.481567 172.0
1422.134399 108.0
1422.427124 184.0
1422.547241 116.0
1424.041504 172.0
1424.371948 176.0
1425.003052 200.0
1426.972168 120.0
1427.927124 156.0
1428.551392 180.0
1428.784668 160.0
1430.327271 144.0
1431.464111 204.0
1431.554443 184.0
1434.00293 176.0
1434.500366 128.0
1434.560669 116.0
1435.15625 220.0
1435.246826 64.0
1436.332764 164.0
1436.423218 164.0
1437.419189 128.0
1438.226685 228.0
1438.702271 184.0
1439.343994 164.0
1439.895264 96.0
1442.146729 176.0
1442.501953 200.0
1446.677612 192.0
1448.161743 180.0
1449.335938 176.0
1449.419312 104.0
1451.101929 152.0
1451.268799 140.0
1452.846313 40.0
1454.834473 228.0
1455.943115 132.0
1456.748169 236.0
1459.86438 136.0
1467.242432 156.0
1468.401489 220.0
1468.897217 240.0
1469.423584 164.0
1470.163818 196.0
1470.728516 228.0
1472.96582 260.0
1473.68396 152.0
1476.1604 272.0
1478.126343 260.0
1479.036987 100.0
1482.32251 152.0
1482.935669 140.0
1483.027588 196.0
1483.640869 152.0
1484.522583 112.0
1487.706665 184.0
1491.993408 104.0
1492.147095 144.0
1494.100586 48.0
1494.523682 188.0
1496.10144 120.0
1496.340088 136.0
1496.732788 204.0
1497.25647 48.0
1497.918823 160.0
1498.762085 88.0
1498.843262 212.0
1499.613892 52.0
1499.89917 184.0
1501.417969 164.0
1502.359009 140.0
1503.277222 188.0
1503.593628 204.0
1504.133789 92.0
1504.658813 176.0
1505.230103 104.0
