>compound Indapamide
>formula C16H16ClN3O3S 
>ionization [M+H]+
>parentmass 366.068
#inchi InChI=1S/C16H16ClN3O3S/c1-10-8-11-4-2-3-5-14(11)20(10)19-16(21)12-6-7-13(17)15(9-12)24(18,22)23/h2-7,9-10H,8H2,1H3,(H,19,21)(H2,18,22,23)
#inchikey NDDAHWYSQHTHNT
#Ion_Source LC-ESI
#Instrument qTof
#Compound_Source Isolated
#PI Sirenas
#Data_Collector Ed Esquenazi 
#Scan -1
#Precursor_MZ 366.068
#ExactMass 0.0
#Charge 1
#CAS_Number N/A
#Pubmed_ID N/A
#Smiles N/A
#INCHI_AUX N/A
#Library_Class 3
#SpectrumID CCMSLIB00000005622
#IonMode Positive
#UpdateWorkflowName UPDATE-SINGLE-ANNOTATED-BRONZE
#LibraryQualityString Bronze
#TaskID d19310cd93df49b68e9fcbec27720eb5
##Scan# 3
#SpectrumFile Indapamide.mgf
#LibraryName fda_library.mgf
#MQScore -1
#Organism fda_library
#TIC_Query 0
#RT_Query -1
#MZErrorPPM -1
#SharedPeaks 0
#MassDiff 0
#LibMZ -1
#SpecMZ 366.068
#SpecCharge 0
#internalFilename spec-00000.mgf

>collision 10
103.055832 72.653893
104.607758 16.032
105.06942 637.157898
105.204285 16.491631
111.001419 23.778351
115.053947 435.879089
116.486778 24.27503
116.559151 17.914339
116.618454 17.01993
117.057449 10268.769531
117.103844 96.943176
117.119209 27.94809
117.157089 40.175411
117.192574 28.81702
117.299629 33.046429
117.315216 21.01796
117.337189 29.353479
117.408508 16.088131
117.465347 17.36129
117.472267 28.664391
117.509247 18.06255
117.52935 15.40045
117.539093 15.75223
117.692947 13.65125
118.216057 21.058729
126.00901 194.051102
126.99559 80.611191
130.063614 214.676804
131.072433 360.421906
131.249908 24.783171
131.332901 21.53846
131.416122 41.5205
131.489807 17.715599
131.507584 30.16964
132.080826 13422.919922
132.192184 21.05724
132.236328 22.09918
132.263504 34.982399
132.330338 55.069592
132.350815 37.015831
132.371658 21.680161
132.448837 22.03142
132.521194 15.96457
132.551514 34.078869
132.591019 16.37154
132.601105 25.54389
132.619827 19.624069
132.635574 15.27344
133.148056 26.914289
137.989899 24.88814
142.989716 31.326559
144.983185 56.099251
147.088577 48.854752
148.092834 19.392389
149.083237 13.78514
152.946594 32.603378
153.998932 19.8794
154.357086 22.057119
217.968704 86.516068
320.027618 48.136162
