>compound MLS000877012-01!8-hydroxy-5,7-dimethoxy-2-phenyl-2,3-dihydrochromen-4-one
>formula C17H16O5
>ionization [M+H]+
>parentmass 301.108
#inchi InChI=1S/C17H16O5/c1-20-13-9-14(21-2)16(19)17-15(13)11(18)8-12(22-17)10-6-4-3-5-7-10/h3-7,9,12,19H,8H2,1-2H3
#inchikey TVWVHFSJQNXIRZ
#Ion_Source LC-ESI
#Instrument qTof
#Compound_Source NIH Natural Product Library
#PI Dorrestein
#Data_Collector VVP/LMS
#Scan -1
#Precursor_MZ 301.108
#ExactMass 300.1
#Charge 1
#CAS_Number N/A
#Pubmed_ID N/A
#Smiles COc1cc(OC)c2C(=O)CC(Oc2c1O)c3ccccc3
#INCHI_AUX N/A
#Library_Class 3
#SpectrumID CCMSLIB00000079448
#IonMode Positive
#UpdateWorkflowName UPDATE-SINGLE-ANNOTATED-BRONZE
#LibraryQualityString Bronze
#TaskID b1d8e8f6646f4e71acdff9ca3d919d08
##Scan# 1800
#SpectrumFile p1-E06_GE6_01_17926.mzXML
#LibraryName NIH_Natural_Products_Library.mgf
#MQScore -1
#Organism NIH_Natural_Products_Library
#TIC_Query 0
#RT_Query -1
#MZErrorPPM -1
#SharedPeaks 0
#MassDiff 0
#LibMZ -1
#SpecMZ 301.108
#SpecCharge 0
#internalFilename spec-00000.mgf

>collision 10
95.049911 252.0
95.364517 120.0
95.409225 200.0
95.893906 120.0
96.019325 196.0
97.03157 200.0
98.033043 180.0
98.928726 228.0
101.44474 124.0
103.056038 328.0
103.081024 192.0
103.125481 36.0
104.083694 128.0
105.738991 104.0
105.794258 36.0
105.884354 128.0
106.241005 180.0
108.027046 244.0
108.926689 220.0
109.025017 208.0
110.726692 188.0
110.841911 232.0
111.00518 220.0
111.043007 164.0
112.011879 168.0
113.044518 108.0
113.474495 184.0
114.256042 144.0
114.841835 200.0
115.056488 128.0
116.498604 100.0
117.075027 128.0
118.366364 100.0
118.984291 160.0
122.809433 156.0
123.045547 144.0
124.014603 300.0
124.094238 40.0
125.027168 156.0
125.316643 80.0
126.032944 368.0
126.943886 80.0
128.507156 216.0
129.329727 232.0
129.522186 176.0
129.53804 44.0
130.391159 172.0
131.046722 316.0
131.673813 56.0
132.007462 156.0
133.34169 68.0
133.527908 180.0
135.045502 184.0
135.821426 232.0
136.014145 328.0
137.022812 188.0
137.122543 112.0
137.251663 144.0
137.80484 40.0
139.003204 308.0
139.037598 212.0
139.539185 80.0
139.706161 148.0
140.012146 184.0
142.971405 164.0
151.040131 172.0
151.335129 204.0
152.059387 124.0
152.747345 288.0
153.008194 160.0
154.026443 612.0
154.365234 84.0
155.033615 136.0
155.224487 164.0
156.16571 228.0
156.935181 132.0
157.063889 164.0
157.831558 152.0
160.011017 280.0
161.09375 116.0
162.988831 28.0
163.037109 144.0
163.558487 40.0
164.01442 396.0
164.920532 164.0
165.068817 140.0
165.99321 136.0
166.075562 164.0
166.673431 64.0
166.709396 144.0
166.996704 388.0
167.035919 176.0
167.39624 184.0
168.000717 464.0
169.042572 144.0
169.061264 264.0
171.025925 100.0
173.090942 372.0
173.127609 196.0
176.731247 180.0
178.277161 40.0
178.739853 160.0
179.029999 148.0
180.051392 212.0
181.046234 168.0
182.020645 4156.0
182.769577 216.0
183.025604 496.0
183.860931 48.0
184.02005 272.0
185.006622 280.0
185.340088 108.0
185.451202 88.0
186.281494 164.0
189.024246 208.0
189.100861 156.0
195.030991 180.0
195.075455 168.0
195.581711 172.0
196.032883 60.0
196.665955 92.0
197.043503 6276.0
197.252518 80.0
197.328003 36.0
197.437057 68.0
197.621674 56.0
198.048264 784.0
198.3638 44.0
198.647018 52.0
199.048874 108.0
199.10733 104.0
199.601913 52.0
200.030792 308.0
200.936966 116.0
201.026932 140.0
201.047012 224.0
201.086517 64.0
202.092514 60.0
204.598557 120.0
207.997452 168.0
209.04071 192.0
209.201889 188.0
212.061508 180.0
212.235443 132.0
213.059692 224.0
215.001801 116.0
215.550797 48.0
215.866501 128.0
216.955673 196.0
217.087601 184.0
219.030273 176.0
221.274612 84.0
222.98616 116.0
224.087173 188.0
225.068451 48.0
227.00444 156.0
227.068817 164.0
229.060165 104.0
230.904343 240.0
233.047485 68.0
236.037613 156.0
237.04776 68.0
238.554718 224.0
240.084946 148.0
241.038803 168.0
243.051483 68.0
246.073685 156.0
246.595352 140.0
253.167526 72.0
255.083588 184.0
256.082947 188.0
257.036133 140.0
257.077637 208.0
259.034302 164.0
269.069366 68.0
270.060608 160.0
279.052338 92.0
279.36496 92.0
283.116547 164.0
283.411316 64.0
285.072296 164.0
297.04071 84.0
300.922607 36.0
301.026184 92.0
301.064178 32.0
301.097717 180.0
302.11145 140.0
315.523743 64.0
319.058289 68.0
359.52829 44.0
372.103119 20.0
419.239166 76.0
475.277161 40.0
539.321655 76.0
580.057861 40.0
840.045776 76.0
1015.794128 228.0
1054.268555 164.0
1118.683472 196.0
1155.223389 208.0
1271.699829 184.0
1285.870239 220.0
1335.81189 156.0
1356.755737 164.0
1409.925293 180.0
1437.923218 208.0
1473.353516 96.0
1493.72937 68.0
