>compound NCGC00160181-01!MAHANIMBINE
>formula C23H25NO
>ionization [M+H]+
>parentmass 332.201
#inchi InChI=1S/C23H25NO/c1-15(2)8-7-12-23(4)13-11-18-21-19(14-16(3)22(18)25-23)17-9-5-6-10-20(17)24-21/h5-6,8-11,13-14,24H,7,12H2,1-4H3
#inchikey HTNVFUBCWIYPJN
#Ion_Source LC-ESI
#Instrument qTOF
#Compound_Source Prestwick Phytochem Lib
#PI Dorrestein
#Data_Collector VVP/LMS
#Scan -1
#Precursor_MZ 332.201
#ExactMass 331.194
#Charge 1
#CAS_Number N/A
#Pubmed_ID N/A
#Smiles C\C(C)=C/CCC1(C)OC2=C(C=C1)C3=C(C=C2C)C4=C(N3)C=CC=C4
#INCHI_AUX N/A
#Library_Class 1
#SpectrumID CCMSLIB00000078729
#IonMode Positive
#UpdateWorkflowName UPDATE-SINGLE-ANNOTATED-GOLD
#LibraryQualityString Gold
#TaskID 67c915c6594c435cadc1fe2b5358144d
##Scan# 3216
#SpectrumFile p1-H02_GH2_01_17958.mzXML
#LibraryName phytochem_lib.mgf
#MQScore -1
#Organism phytochem_lib
#TIC_Query 0
#RT_Query -1
#MZErrorPPM -1
#SharedPeaks 0
#MassDiff 0
#LibMZ -1
#SpecMZ 332.201
#SpecCharge 0
#internalFilename spec-00000.mgf

>collision 10
95.015213 212.0
95.069542 124.0
95.087006 164.0
95.137474 176.0
95.369911 164.0
95.786987 160.0
95.93898 120.0
96.423065 88.0
96.444565 56.0
96.786926 116.0
96.814339 228.0
96.894646 140.0
97.104393 152.0
97.638596 148.0
97.831429 92.0
98.209763 204.0
98.598717 156.0
99.222237 112.0
99.350723 188.0
99.482124 196.0
99.553604 168.0
99.674782 76.0
99.698624 200.0
99.780121 220.0
99.826057 172.0
99.889496 96.0
100.034767 132.0
100.331596 112.0
100.81263 168.0
101.20269 176.0
101.250748 72.0
101.647675 144.0
101.6838 212.0
101.86451 96.0
102.011208 176.0
102.558723 116.0
102.574844 180.0
102.891098 208.0
102.913773 108.0
103.053139 356.0
103.459656 160.0
103.477875 156.0
103.78788 112.0
104.069229 156.0
104.325905 60.0
104.610703 144.0
104.820488 164.0
105.06884 480.0
105.116165 208.0
105.265182 132.0
105.357094 112.0
105.449043 168.0
105.665802 108.0
106.069229 120.0
106.179947 124.0
106.339981 160.0
106.374878 204.0
106.557648 152.0
106.619293 240.0
106.695351 200.0
106.866051 168.0
106.925728 176.0
107.047188 148.0
107.084381 732.0
107.411987 168.0
108.083435 196.0
108.278023 136.0
108.605499 172.0
108.848312 152.0
108.939697 184.0
109.072693 188.0
109.098862 172.0
109.168663 124.0
109.666878 176.0
109.830627 84.0
109.899475 176.0
110.507484 76.0
110.664459 156.0
110.729378 124.0
111.054306 140.0
111.163338 148.0
111.432106 156.0
111.591835 52.0
111.806396 156.0
111.920067 184.0
112.014839 168.0
112.263542 188.0
112.713173 128.0
112.791374 196.0
112.873825 184.0
112.963676 348.0
113.328911 180.0
113.458199 128.0
113.683029 172.0
114.126984 124.0
114.150375 112.0
114.188652 148.0
114.288635 168.0
114.305656 164.0
114.348221 184.0
114.533463 140.0
114.802002 196.0
115.055534 200.0
115.119972 152.0
115.429825 168.0
115.787209 156.0
115.892174 180.0
116.03363 152.0
116.127983 152.0
116.265289 196.0
116.297485 132.0
116.516518 164.0
116.682007 216.0
116.90786 236.0
117.064377 68.0
117.504723 136.0
117.588882 208.0
117.815605 144.0
117.832893 264.0
118.064178 120.0
118.19397 136.0
118.438606 140.0
118.657478 172.0
118.876556 200.0
118.928642 172.0
119.081726 156.0
119.517586 180.0
119.824577 164.0
119.918282 48.0
120.091522 164.0
120.339302 108.0
120.520592 132.0
120.559921 132.0
120.964554 132.0
121.038994 168.0
121.606789 120.0
121.622154 188.0
122.032959 112.0
122.118721 120.0
122.283737 232.0
122.327759 160.0
122.459877 148.0
122.554604 184.0
122.689041 156.0
122.964767 104.0
123.114708 500.0
123.201035 120.0
123.265114 104.0
123.355728 100.0
123.565819 44.0
123.64991 168.0
123.698601 188.0
124.002052 88.0
124.117332 332.0
124.301437 44.0
124.479027 168.0
124.58786 52.0
124.901299 132.0
125.146484 160.0
125.199539 128.0
125.469154 164.0
125.94223 152.0
126.044998 192.0
126.235008 264.0
126.328941 104.0
126.387115 112.0
126.45649 124.0
126.484718 124.0
126.749855 116.0
126.790192 140.0
126.850716 156.0
126.911247 136.0
127.068245 68.0
127.08844 112.0
127.580101 208.0
127.874969 96.0
128.359314 184.0
128.609741 80.0
128.638336 96.0
128.688751 196.0
129.009567 172.0
129.06604 168.0
129.12262 172.0
129.659195 60.0
129.808807 136.0
129.888184 100.0
129.981201 100.0
130.059082 224.0
130.39679 124.0
130.444519 144.0
130.756134 156.0
130.91777 108.0
131.141052 72.0
131.223114 128.0
131.330292 160.0
131.679504 176.0
131.754883 184.0
131.784576 72.0
132.015457 184.0
132.040604 204.0
132.070343 192.0
132.445724 132.0
132.587784 200.0
132.619858 236.0
132.888168 176.0
132.99144 196.0
133.112366 220.0
133.138382 132.0
133.165939 160.0
133.743057 152.0
133.855865 156.0
133.874283 64.0
134.083923 36.0
134.157684 96.0
134.360626 64.0
134.96344 164.0
135.11348 264.0
135.178574 176.0
135.199402 120.0
135.307144 184.0
135.382278 108.0
135.484192 224.0
135.736832 260.0
135.908478 72.0
136.070953 156.0
136.119614 192.0
136.326462 136.0
136.605469 236.0
136.663635 80.0
136.838196 132.0
137.096741 88.0
137.148026 116.0
137.171326 136.0
137.453537 148.0
137.69165 144.0
137.983734 124.0
138.308899 68.0
138.676636 180.0
138.805573 128.0
138.850143 204.0
138.894699 192.0
138.983856 200.0
139.054245 116.0
139.241669 188.0
139.368927 60.0
139.538147 168.0
139.780426 180.0
139.825195 148.0
139.928711 160.0
140.058228 156.0
140.520279 168.0
140.591064 204.0
140.6548 232.0
140.978363 196.0
141.070419 148.0
141.292847 208.0
141.842255 152.0
142.122101 224.0
142.226517 132.0
142.323959 168.0
142.450027 160.0
142.494858 188.0
142.877625 64.0
142.894287 144.0
142.987091 204.0
143.073563 172.0
143.13707 100.0
143.234711 168.0
143.616089 136.0
144.184326 220.0
144.272766 152.0
144.511932 196.0
144.724945 128.0
144.921356 136.0
144.988449 136.0
145.041183 224.0
145.34816 192.0
145.544983 128.0
145.626633 152.0
146.99649 200.0
147.121994 44.0
148.039948 172.0
148.348511 204.0
148.394562 208.0
148.501266 204.0
148.711517 184.0
148.743912 144.0
148.80217 196.0
148.865311 136.0
149.020081 184.0
149.052353 88.0
149.096085 168.0
149.142273 136.0
149.283279 184.0
149.448685 160.0
149.470581 52.0
149.558197 204.0
150.052719 148.0
150.101486 140.0
150.385162 184.0
150.648193 148.0
150.921921 164.0
151.019745 140.0
151.325638 176.0
151.445633 280.0
151.580368 108.0
151.695557 176.0
152.059967 88.0
152.183777 152.0
152.242706 168.0
152.726883 144.0
152.837585 192.0
153.078827 100.0
153.524857 128.0
154.057266 216.0
154.45105 144.0
154.475784 156.0
154.567322 184.0
154.688599 64.0
155.010574 136.0
155.072266 196.0
155.285202 180.0
155.335358 136.0
155.734985 180.0
156.082672 164.0
156.117737 88.0
156.152542 44.0
156.17244 68.0
156.18985 132.0
156.535797 200.0
156.939468 104.0
157.009293 120.0
157.086609 164.0
157.543442 168.0
157.603409 168.0
157.738358 180.0
157.928391 204.0
158.035965 180.0
158.065994 196.0
158.902863 132.0
159.086075 132.0
159.447769 176.0
159.865234 188.0
159.882599 176.0
160.101883 48.0
160.341217 172.0
160.429443 184.0
160.469772 200.0
160.694244 144.0
161.128494 116.0
161.502625 68.0
161.596222 124.0
161.672134 176.0
161.745544 128.0
161.783508 232.0
162.381516 316.0
162.430511 136.0
162.554016 44.0
162.617462 216.0
163.041611 124.0
163.283127 100.0
163.848221 240.0
164.207642 232.0
164.342834 120.0
164.644058 88.0
164.674698 208.0
164.894424 144.0
165.076935 164.0
165.341995 48.0
165.421341 184.0
165.574966 168.0
165.802979 180.0
165.874741 136.0
166.063522 332.0
166.205582 92.0
166.354446 200.0
166.387817 160.0
167.071793 4524.0
167.120316 136.0
167.558014 104.0
167.606964 48.0
167.823471 60.0
167.859573 48.0
168.07988 1404.0
168.220779 204.0
168.295654 52.0
168.530701 72.0
168.603058 100.0
168.654739 120.0
168.781006 228.0
169.082428 540.0
169.125504 112.0
169.38443 176.0
169.423294 80.0
169.570984 164.0
169.628021 120.0
169.665176 144.0
169.686462 212.0
170.019669 188.0
170.086868 188.0
170.139069 200.0
170.224747 56.0
170.2715 256.0
171.056732 52.0
171.090576 124.0
171.409012 152.0
171.987305 116.0
172.188339 200.0
172.214462 356.0
172.541107 180.0
172.784332 124.0
173.11937 164.0
173.323685 92.0
173.480942 180.0
173.940002 188.0
174.247253 140.0
174.339233 148.0
174.457504 128.0
174.562668 168.0
174.64946 124.0
174.78363 104.0
175.099533 180.0
175.117966 160.0
175.183823 76.0
175.491791 108.0
175.542267 92.0
175.576553 188.0
175.803436 148.0
175.909012 140.0
176.219406 160.0
176.503464 84.0
177.037994 144.0
177.300262 164.0
177.41954 68.0
177.47522 112.0
177.499084 140.0
177.595627 264.0
177.812119 160.0
177.902374 172.0
177.95282 232.0
178.076843 268.0
178.202484 100.0
178.603897 104.0
179.074799 192.0
179.173569 48.0
179.200211 64.0
179.277496 104.0
179.45076 148.0
179.480087 128.0
179.997742 128.0
180.042496 164.0
180.079742 2052.0
180.206085 72.0
180.363754 148.0
180.387817 148.0
180.449295 156.0
180.569641 160.0
180.593704 92.0
180.719437 132.0
180.83638 188.0
180.888046 248.0
181.086838 2428.0
181.252274 124.0
181.388962 184.0
181.828842 36.0
181.941574 168.0
181.96843 64.0
182.059387 188.0
182.095886 7908.0
182.173355 156.0
182.223572 120.0
182.246216 140.0
182.392883 76.0
182.651016 80.0
182.746109 92.0
182.909332 32.0
183.067123 588.0
183.10022 956.0
183.135513 68.0
183.326797 108.0
183.348358 44.0
183.386093 68.0
183.752838 264.0
183.848923 196.0
184.075729 172.0
184.146957 68.0
184.246841 184.0
184.368484 76.0
184.452271 88.0
184.609085 104.0
184.866089 132.0
184.890442 120.0
185.134094 104.0
185.220764 148.0
185.380615 144.0
185.521545 84.0
185.779175 128.0
186.080429 160.0
186.142868 60.0
186.199905 180.0
186.243362 72.0
186.43898 100.0
186.667328 88.0
186.857727 132.0
187.067276 68.0
187.11084 180.0
187.347778 76.0
187.470383 96.0
187.710266 172.0
187.797546 164.0
187.835724 220.0
187.955765 168.0
188.152283 76.0
188.507751 140.0
188.808075 60.0
188.827225 132.0
189.139145 112.0
189.202103 136.0
189.333527 148.0
189.374619 144.0
189.947479 128.0
189.977661 88.0
190.238358 168.0
190.278015 144.0
190.315231 160.0
190.39212 44.0
190.71907 156.0
191.07164 876.0
191.17012 84.0
191.266449 144.0
191.638229 96.0
191.690582 140.0
191.855957 112.0
192.07811 976.0
192.144791 104.0
193.087204 1192.0
193.120651 108.0
193.253448 92.0
193.334488 128.0
193.458252 128.0
193.671463 100.0
193.743484 140.0
193.823837 212.0
193.868179 144.0
193.926376 52.0
193.948547 184.0
194.042801 132.0
194.095581 3828.0
194.145401 168.0
194.318176 220.0
194.964355 160.0
195.057144 128.0
195.097168 908.0
195.150604 80.0
195.37822 76.0
195.447189 184.0
195.609634 140.0
195.715439 184.0
195.968903 140.0
196.073624 1716.0
196.189072 28.0
196.222519 160.0
196.283859 44.0
196.345215 148.0
196.3759 148.0
196.560013 52.0
196.585129 60.0
196.649323 92.0
196.677231 60.0
196.774933 180.0
196.936905 32.0
197.017914 156.0
197.051437 136.0
197.081848 1144.0
197.294586 168.0
197.641388 36.0
197.691757 92.0
198.085434 944.0
198.495255 232.0
198.593887 48.0
198.77211 76.0
198.85202 108.0
198.930603 148.0
199.097733 192.0
199.748337 76.0
200.283157 116.0
200.3564 184.0
200.460648 100.0
200.500107 80.0
200.739731 152.0
200.852539 192.0
201.092377 56.0
201.120605 224.0
201.617691 100.0
201.64595 140.0
201.682693 120.0
201.788422 140.0
202.050308 188.0
202.078064 148.0
202.20311 104.0
202.228592 192.0
203.08194 244.0
203.339615 164.0
203.498581 48.0
203.580933 160.0
203.69931 164.0
203.830902 188.0
203.853638 160.0
204.078003 1960.0
204.206161 48.0
204.297195 176.0
204.536224 140.0
204.906433 156.0
205.086792 2420.0
205.12587 200.0
205.182877 36.0
205.205688 64.0
205.328308 160.0
205.55368 152.0
205.66037 176.0
206.059067 56.0
206.094193 2676.0
206.247665 64.0
206.45639 44.0
206.499283 212.0
206.522171 88.0
206.824905 104.0
206.980057 160.0
207.064713 384.0
207.101501 2100.0
207.143311 68.0
207.171951 220.0
207.206329 60.0
207.372528 108.0
207.438461 148.0
207.472855 48.0
207.528442 52.0
207.633438 124.0
207.679321 184.0
207.819901 64.0
208.074661 568.0
208.110397 904.0
208.164749 144.0
208.333801 68.0
208.535538 76.0
209.006577 156.0
209.079758 980.0
209.120636 544.0
209.311691 80.0
209.340485 48.0
209.375046 208.0
209.538605 156.0
209.648727 104.0
209.7229 136.0
209.745255 196.0
209.778427 92.0
209.983154 128.0
210.089615 9856.0
210.167786 40.0
210.19664 40.0
210.234146 52.0
210.29187 68.0
210.352493 72.0
210.453537 44.0
210.502625 36.0
210.722137 40.0
210.881073 40.0
211.094406 1048.0
211.20491 48.0
211.323746 52.0
211.381393 96.0
211.601761 88.0
211.647705 136.0
211.964371 136.0
212.073563 96.0
212.09964 312.0
212.233002 128.0
212.285202 176.0
212.41571 80.0
212.506027 120.0
212.557877 160.0
212.592697 76.0
212.73201 104.0
212.761047 56.0
213.525253 192.0
213.60379 100.0
213.666992 88.0
213.677536 136.0
213.932617 140.0
214.174301 80.0
214.292297 160.0
214.32872 76.0
214.395737 72.0
214.494827 96.0
214.669769 200.0
214.716431 112.0
214.783508 80.0
214.865189 156.0
214.973465 168.0
215.086975 160.0
215.381897 76.0
215.688705 128.0
215.887512 104.0
215.951859 168.0
216.039612 136.0
216.079575 344.0
216.194687 144.0
216.672836 148.0
216.859497 60.0
216.938644 112.0
217.0867 844.0
217.231903 60.0
217.290573 188.0
217.402069 128.0
217.701508 72.0
217.766113 48.0
217.81311 124.0
218.01474 180.0
218.036423 124.0
218.094482 1632.0
218.265717 232.0
218.336288 100.0
218.377457 172.0
218.592224 32.0
218.707001 52.0
219.060181 136.0
219.101425 1716.0
219.202789 164.0
219.260712 144.0
219.481812 52.0
219.523087 44.0
219.959747 156.0
219.986313 48.0
220.075027 2460.0
220.112534 1404.0
220.175278 44.0
220.316055 148.0
220.598083 172.0
220.688751 184.0
220.825485 148.0
220.90831 224.0
221.08017 3476.0
221.11853 528.0
221.254562 60.0
221.321747 208.0
221.405563 44.0
221.48967 132.0
221.527008 228.0
221.609955 140.0
221.648483 84.0
221.784805 144.0
221.820374 116.0
221.98938 72.0
222.038376 84.0
222.090515 680.0
222.126877 1252.0
222.194031 32.0
222.262283 36.0
222.297882 20.0
222.398788 52.0
222.761047 120.0
222.793732 88.0
222.838303 176.0
222.930405 168.0
223.096756 592.0
223.13475 172.0
223.313919 32.0
223.599548 112.0
223.72493 96.0
224.104736 472.0
224.272659 152.0
224.30545 84.0
224.564865 84.0
225.110764 192.0
225.227493 136.0
225.361343 164.0
225.627914 172.0
225.882111 164.0
225.953903 148.0
226.02272 196.0
226.25618 88.0
226.705475 152.0
226.888306 156.0
226.973892 196.0
227.005249 224.0
227.806625 112.0
227.986893 188.0
228.068039 116.0
228.504089 228.0
228.525146 112.0
229.092728 176.0
229.187561 224.0
229.61261 180.0
229.872055 172.0
229.929382 156.0
230.044083 116.0
230.068237 136.0
230.098251 512.0
230.182968 96.0
230.512222 208.0
230.657303 172.0
231.102402 1128.0
231.144379 152.0
231.174484 80.0
231.496964 144.0
231.937698 124.0
232.03775 112.0
232.071045 404.0
232.110565 1324.0
232.353165 136.0
232.747726 52.0
232.768982 80.0
233.033234 148.0
233.082321 3300.0
233.120743 288.0
233.154785 92.0
233.191254 72.0
233.282455 96.0
233.346298 128.0
233.522659 88.0
233.741699 188.0
233.832993 124.0
233.918228 160.0
234.090576 4228.0
234.158768 168.0
234.231873 136.0
234.308029 56.0
234.405533 172.0
234.446686 188.0
234.692062 200.0
234.911636 144.0
235.014145 124.0
235.097488 3996.0
235.126053 456.0
235.27623 68.0
235.341965 36.0
235.389511 140.0
235.537415 156.0
235.607681 188.0
235.73703 228.0
235.769623 124.0
236.029465 44.0
236.066162 40.0
236.103668 1264.0
236.139069 168.0
236.316986 52.0
236.354965 48.0
236.503647 92.0
236.675095 36.0
236.759766 184.0
236.822083 168.0
237.051865 84.0
237.107895 496.0
237.257217 128.0
237.336929 156.0
237.462662 220.0
237.576157 56.0
237.703308 164.0
238.121399 1216.0
238.306854 212.0
238.343719 104.0
238.478943 68.0
238.568085 172.0
238.869446 136.0
238.918671 140.0
239.129425 228.0
239.158691 60.0
239.466583 72.0
240.057358 92.0
240.082123 232.0
240.262466 124.0
240.805161 172.0
241.061157 148.0
241.092468 144.0
241.305145 204.0
241.423264 56.0
241.93689 60.0
242.078842 184.0
242.101212 300.0
242.258957 144.0
242.509949 36.0
243.105255 152.0
243.390991 140.0
243.773071 124.0
244.113113 492.0
244.391861 112.0
244.455978 152.0
244.569244 72.0
244.837006 36.0
245.087997 156.0
245.111511 340.0
245.133423 200.0
245.419724 132.0
245.619324 136.0
245.950073 56.0
246.000015 112.0
246.090775 1680.0
246.127502 460.0
246.212341 92.0
246.381012 144.0
246.431 172.0
246.843597 60.0
246.937408 228.0
247.097198 2908.0
247.172043 228.0
247.240891 128.0
247.328522 60.0
247.359833 104.0
247.441223 216.0
247.52356 188.0
247.608887 184.0
247.726212 140.0
247.766937 116.0
247.793457 128.0
247.89946 108.0
247.929871 32.0
247.993179 160.0
248.019363 172.0
248.049927 92.0
248.106567 63796.0
248.20787 112.0
248.233429 72.0
248.24231 60.0
248.251083 112.0
248.299927 100.0
248.356369 284.0
248.489685 64.0
248.509979 112.0
248.582153 32.0
248.619629 112.0
248.662888 112.0
248.770462 44.0
248.831619 52.0
248.921432 48.0
248.96109 124.0
249.027008 264.0
249.109268 10112.0
249.185959 80.0
249.260422 180.0
249.288712 44.0
249.316986 68.0
249.356277 44.0
249.395569 80.0
249.49736 208.0
249.516464 148.0
249.54332 40.0
249.587341 56.0
249.615631 104.0
249.648972 60.0
249.690018 380.0
249.741425 224.0
249.766602 56.0
249.791763 44.0
249.86911 88.0
249.903763 288.0
250.012009 64.0
250.118652 4872.0
250.198013 84.0
250.241791 40.0
250.265945 184.0
250.34256 80.0
250.364594 88.0
250.389786 68.0
250.411835 44.0
250.437042 124.0
250.468536 56.0
250.493729 128.0
250.528381 108.0
250.572495 96.0
250.629211 96.0
250.667023 88.0
250.735519 152.0
250.779694 228.0
250.818298 88.0
251.125198 988.0
251.191513 72.0
251.326035 72.0
251.398621 68.0
251.427017 120.0
251.553268 36.0
251.629044 60.0
251.739563 96.0
251.969925 124.0
252.041122 60.0
252.102844 156.0
252.137604 212.0
252.437927 132.0
252.510666 100.0
252.661392 160.0
252.690979 96.0
252.865021 56.0
252.912491 52.0
252.93782 64.0
252.988464 108.0
253.149948 176.0
253.641022 176.0
253.834427 68.0
253.99617 92.0
254.059616 76.0
254.116714 76.0
254.554749 64.0
254.942307 52.0
255.098053 152.0
256.109344 152.0
256.297913 36.0
256.756927 68.0
257.112518 136.0
257.210022 68.0
258.027802 148.0
258.093414 204.0
258.123047 192.0
259.042297 112.0
259.135651 140.0
259.506989 72.0
259.702606 108.0
260.036285 92.0
260.106384 828.0
260.155823 164.0
260.180725 40.0
260.322021 140.0
260.868225 144.0
261.019318 192.0
261.112793 2328.0
261.524414 88.0
261.620972 60.0
261.778748 60.0
262.068665 172.0
262.11792 1540.0
262.15509 312.0
262.181427 156.0
262.310364 80.0
262.336151 72.0
262.632812 48.0
263.126587 704.0
263.439789 48.0
263.885803 44.0
264.034546 56.0
264.137787 1104.0
264.173615 156.0
264.481049 96.0
264.574921 108.0
264.756226 36.0
264.876068 80.0
265.0737 60.0
265.140625 236.0
266.06665 148.0
266.147369 172.0
266.855682 148.0
268.069824 76.0
270.617645 52.0
271.125366 164.0
272.112152 240.0
273.3815 52.0
274.121613 288.0
274.161987 76.0
274.933685 212.0
275.127167 144.0
276.095154 168.0
276.135864 2152.0
276.225555 140.0
276.321503 108.0
277.073029 36.0
277.142639 236.0
277.580139 84.0
278.145294 128.0
284.127655 32.0
286.558411 96.0
287.111237 148.0
288.138123 288.0
289.141663 216.0
290.149292 120.0
291.505371 76.0
292.161591 112.0
292.270447 64.0
294.804077 48.0
298.282867 92.0
299.814514 76.0
300.165863 164.0
302.034546 56.0
302.1604 180.0
302.681732 56.0
303.168488 152.0
314.181213 196.0
316.171753 140.0
317.174957 416.0
324.369843 76.0
325.126617 44.0
325.205566 92.0
325.395844 120.0
331.216339 116.0
332.205139 120.0
332.336548 160.0
333.19342 108.0
333.237 60.0
342.477844 112.0
361.350037 136.0
361.376526 132.0
361.554382 68.0
375.912537 60.0
376.194275 104.0
378.003113 20.0
378.928497 64.0
384.114532 48.0
388.727325 120.0
392.41687 96.0
394.750488 112.0
396.97998 76.0
416.409393 44.0
420.011536 40.0
427.299408 44.0
435.226929 112.0
449.146729 40.0
454.023376 88.0
455.152161 100.0
461.64209 148.0
462.942993 140.0
463.979919 92.0
475.549377 32.0
482.335602 88.0
486.444458 76.0
491.417511 136.0
493.466858 80.0
495.972473 56.0
507.223267 60.0
508.761932 40.0
519.085266 72.0
531.02478 48.0
540.519592 104.0
548.517151 80.0
563.776062 100.0
565.34137 84.0
578.803711 52.0
602.074646 108.0
659.884033 68.0
661.976807 56.0
704.676025 92.0
707.336121 92.0
708.125061 100.0
723.6427 72.0
770.757141 36.0
823.4245 76.0
845.119873 56.0
870.570496 108.0
901.632263 44.0
905.383362 28.0
934.564514 28.0
947.146729 40.0
958.136658 152.0
969.425476 80.0
969.803528 244.0
972.600891 132.0
976.484253 96.0
980.998535 96.0
1007.898743 228.0
1009.53595 200.0
1037.251343 172.0
1054.171875 56.0
1065.290161 132.0
1076.858521 88.0
1097.293091 132.0
1110.432495 112.0
1110.492188 48.0
1123.670044 120.0
1134.041748 52.0
1136.878784 60.0
1147.607788 112.0
1149.779907 84.0
1162.224487 104.0
1163.330688 160.0
1166.958618 220.0
1171.102905 72.0
1171.709106 144.0
1173.672119 64.0
1174.968018 88.0
1195.964722 180.0
1215.162231 128.0
1215.974121 148.0
1250.789917 56.0
1267.889404 56.0
1283.835327 116.0
1288.446411 144.0
1290.597778 176.0
1300.806885 84.0
1304.578247 108.0
1320.375366 132.0
1321.193848 212.0
1322.546997 200.0
1326.378784 44.0
1326.603516 136.0
1334.262451 76.0
1343.708374 88.0
1350.823975 188.0
1352.5802 152.0
1354.125122 148.0
1364.868652 144.0
1369.843872 168.0
1370.838501 44.0
1380.804932 76.0
1381.300415 124.0
1382.75061 180.0
1383.446411 52.0
1385.112549 112.0
1385.231079 112.0
1397.510498 52.0
1403.90918 96.0
1407.550781 64.0
1411.608398 136.0
1419.433594 148.0
1422.622192 144.0
1424.131592 212.0
1442.282959 192.0
1447.783325 88.0
1450.700439 228.0
1452.94519 184.0
1460.0625 148.0
1475.771118 260.0
1502.460449 212.0
