>compound MLS001141216-01!N-cyclopropyl-2-[(4,8,8-trimethyl-2-oxo-9,10-dihydropyrano[2,3-h]chromen-5-yl)oxy]acetamide
>formula C20H23NO5
>ionization [M+H]+
>parentmass 358.166351
#inchi InChI=1S/C20H23NO5/c1-11-8-17(23)25-19-13-6-7-20(2,3)26-14(13)9-15(18(11)19)24-10-16(22)21-12-4-5-12/h8-9,12H,4-7,10H2,1-3H3,(H,21,22)
#inchikey JZICABCSNXQWEX
#Ion_Source LC-ESI
#Instrument qTof
#Compound_Source NIH Natural Product Library
#PI Dorrestein
#Data_Collector VVP/LMS
#Scan -1
#Precursor_MZ 358.165
#ExactMass 357.158
#Charge 1
#CAS_Number N/A
#Pubmed_ID N/A
#Smiles Cc1cc(=O)oc2c3CCC(C)(C)Oc3cc(OCC(=O)NC4CC4)c12
#INCHI_AUX N/A
#Library_Class 1
#SpectrumID CCMSLIB00000080078
#IonMode Positive
#UpdateWorkflowName UPDATE-SINGLE-ANNOTATED-GOLD
#LibraryQualityString Gold
#TaskID b1d8e8f6646f4e71acdff9ca3d919d08
##Scan# 2068
#SpectrumFile p2-G03_GG3_01_18051.mzXML
#LibraryName NIH_Natural_Products_Library.mgf
#MQScore -1
#Organism NIH_Natural_Products_Library
#TIC_Query 0
#RT_Query -1
#MZErrorPPM -1
#SharedPeaks 0
#MassDiff 0
#LibMZ -1
#SpecMZ 358.165
#SpecCharge 0
#internalFilename spec-00000.mgf

>collision 10
95.183281 120.0
95.731667 64.0
95.85244 144.0
96.351944 156.0
96.502434 140.0
96.870369 84.0
97.099701 164.0
97.431442 68.0
97.466805 172.0
97.753906 92.0
97.868073 200.0
97.990189 216.0
98.061226 3468.0
98.14196 244.0
98.165619 128.0
98.207039 136.0
98.242546 148.0
98.299759 100.0
98.501144 220.0
98.712624 44.0
98.807564 112.0
98.936211 168.0
98.999573 92.0
99.063629 424.0
99.701859 140.0
99.89473 44.0
100.067871 144.0
100.572235 92.0
101.171936 204.0
101.280067 104.0
101.773422 156.0
102.068794 228.0
102.155281 196.0
102.459274 88.0
102.896919 216.0
102.965576 132.0
103.057175 180.0
103.661507 104.0
103.716225 48.0
103.816872 156.0
104.396378 100.0
104.422821 128.0
104.770905 40.0
105.032707 124.0
105.071144 360.0
105.12365 156.0
105.20121 224.0
105.24408 116.0
105.329857 232.0
105.472893 160.0
105.704002 92.0
106.015274 88.0
106.076767 324.0
106.093163 164.0
106.173134 128.0
106.203896 100.0
106.431694 188.0
106.556992 172.0
106.941536 72.0
107.051392 176.0
107.112442 68.0
107.363899 132.0
108.048065 136.0
108.186272 68.0
108.85183 112.0
109.074135 228.0
109.148987 120.0
109.42572 88.0
109.64444 220.0
110.061661 96.0
110.232948 160.0
110.251755 152.0
110.268478 148.0
110.293556 140.0
110.467117 48.0
111.213097 132.0
111.675354 52.0
112.524605 48.0
112.587952 220.0
112.835175 100.0
113.08268 212.0
113.663353 92.0
114.5755 188.0
114.782249 52.0
114.865425 184.0
114.899559 92.0
115.053062 192.0
115.166397 232.0
115.56189 136.0
115.958054 188.0
115.994492 80.0
116.271187 104.0
116.507385 124.0
116.677437 160.0
117.069267 232.0
117.428688 100.0
117.821564 124.0
118.074471 132.0
118.479248 180.0
118.591927 104.0
118.617943 124.0
118.68515 188.0
119.054871 160.0
119.227852 176.0
119.340889 128.0
119.457245 20.0
119.495316 60.0
119.573654 204.0
119.867653 108.0
120.65123 212.0
120.806503 244.0
121.040695 144.0
121.06749 336.0
121.207169 156.0
121.50975 164.0
121.529503 92.0
121.973122 64.0
121.990707 152.0
122.07206 144.0
122.865005 244.0
122.928993 136.0
122.992996 156.0
123.048187 172.0
123.136513 120.0
123.244766 96.0
123.32653 128.0
123.583061 164.0
123.864227 104.0
124.037064 164.0
125.767639 136.0
125.801125 168.0
125.9217 208.0
126.035637 180.0
126.375504 256.0
126.456062 148.0
126.695663 176.0
127.038666 192.0
127.054367 320.0
127.083534 60.0
127.933083 100.0
128.062759 244.0
128.900681 112.0
129.070221 164.0
129.14032 140.0
129.695068 56.0
129.967209 196.0
130.185608 136.0
131.017624 160.0
131.048187 652.0
131.081421 180.0
131.953354 168.0
132.056534 196.0
132.357422 228.0
132.498062 152.0
132.807541 192.0
132.894714 120.0
132.910767 120.0
133.023239 136.0
133.065201 572.0
133.229919 60.0
133.595444 164.0
133.763428 200.0
133.986816 132.0
134.060547 136.0
134.090515 200.0
134.134308 164.0
134.498764 144.0
135.04274 928.0
135.078766 132.0
135.113464 140.0
135.287033 144.0
135.669281 108.0
135.727249 116.0
136.047882 264.0
136.070648 196.0
136.121735 204.0
136.291306 108.0
136.77504 180.0
137.056183 184.0
137.590958 164.0
138.060623 68.0
138.437393 352.0
138.73732 160.0
139.133789 188.0
139.519089 144.0
139.570816 204.0
140.107437 232.0
140.156921 144.0
140.997025 116.0
141.039566 172.0
141.075027 140.0
141.477203 156.0
141.631119 176.0
142.207306 140.0
142.525528 160.0
142.884552 60.0
143.054871 196.0
143.859283 144.0
144.052704 84.0
144.143494 112.0
144.267792 176.0
145.031403 196.0
145.062561 120.0
145.664886 204.0
146.063919 168.0
147.043442 664.0
147.085617 140.0
147.298111 160.0
148.05014 156.0
148.079391 84.0
148.295029 196.0
148.311996 80.0
148.884583 140.0
148.998749 132.0
149.022842 364.0
149.05925 2468.0
149.207764 64.0
149.938019 236.0
149.996521 172.0
150.025986 136.0
150.059906 172.0
150.096481 36.0
150.403885 136.0
150.420959 96.0
150.462463 252.0
150.976044 176.0
151.007401 136.0
151.03186 104.0
151.212921 108.0
151.286346 220.0
151.315735 128.0
151.381836 116.0
151.681686 156.0
151.911255 200.0
152.714493 168.0
152.86702 208.0
153.076263 148.0
153.228989 196.0
153.438477 60.0
154.359467 164.0
155.015457 108.0
155.518921 184.0
155.975952 216.0
156.090317 80.0
156.324158 148.0
156.46106 136.0
156.768356 204.0
157.059128 184.0
157.081985 196.0
157.173889 136.0
157.20134 132.0
157.510941 216.0
158.611954 96.0
158.895325 252.0
159.044449 524.0
159.109177 172.0
159.369858 152.0
159.437714 136.0
159.769623 128.0
159.814911 68.0
160.052231 364.0
160.447083 196.0
160.500031 192.0
160.628662 172.0
161.024948 220.0
161.058197 1672.0
161.131042 40.0
161.525406 136.0
161.740494 240.0
161.793655 180.0
162.063507 420.0
162.171097 128.0
162.272491 196.0
162.358719 32.0
162.515991 212.0
162.678421 196.0
162.879028 88.0
163.038818 644.0
163.34166 72.0
163.359467 216.0
164.048004 204.0
165.016144 156.0
165.055481 176.0
165.155289 120.0
165.219238 32.0
166.865768 80.0
166.901764 240.0
167.035156 148.0
167.955093 92.0
168.479126 164.0
169.099731 168.0
169.319794 176.0
169.628128 156.0
169.882263 56.0
171.045639 392.0
171.081558 156.0
171.447556 96.0
172.128433 180.0
172.632782 84.0
173.052414 356.0
173.557144 144.0
174.037766 140.0
174.068832 156.0
174.586533 168.0
174.818024 188.0
174.968063 208.0
175.03775 372.0
175.076187 128.0
175.616318 160.0
175.687531 224.0
175.783539 248.0
176.046127 4928.0
176.104614 56.0
176.170654 112.0
176.598877 132.0
176.680878 116.0
176.765549 120.0
176.982605 80.0
177.053909 3128.0
177.132278 132.0
177.300491 52.0
177.345551 156.0
177.637222 52.0
178.056076 348.0
178.295715 108.0
178.37619 172.0
178.612106 204.0
179.062561 152.0
179.267075 112.0
179.757751 160.0
179.992661 188.0
180.027374 104.0
180.398758 224.0
180.722382 192.0
181.003433 132.0
181.92038 52.0
183.809799 108.0
184.720291 184.0
185.432419 76.0
185.475784 56.0
186.031891 180.0
186.059036 116.0
186.09433 184.0
186.904327 96.0
186.985962 196.0
187.039734 580.0
187.068237 108.0
187.258224 60.0
187.329056 128.0
187.912476 72.0
188.027084 116.0
188.069046 240.0
188.234558 80.0
188.256409 36.0
188.761948 80.0
189.055283 2200.0
189.210678 96.0
189.405121 228.0
189.687363 156.0
190.05748 416.0
190.09877 176.0
191.033676 260.0
191.066711 144.0
191.145752 172.0
191.18428 56.0
191.365952 100.0
191.748856 100.0
192.041733 124.0
192.203873 172.0
192.595901 100.0
193.049225 320.0
193.317505 56.0
194.053574 208.0
194.342789 120.0
194.789764 180.0
195.064087 128.0
195.08989 92.0
195.557205 176.0
196.033447 188.0
197.057495 180.0
197.753815 136.0
197.890991 100.0
198.336411 68.0
198.529877 172.0
198.5495 216.0
199.034988 496.0
199.054642 120.0
199.630722 120.0
199.793854 112.0
200.771271 108.0
201.056335 180.0
202.124405 132.0
202.492432 72.0
202.574585 156.0
202.673737 64.0
203.033005 1684.0
203.066284 220.0
203.351517 172.0
203.612717 56.0
204.041946 868.0
204.08728 96.0
204.13562 76.0
204.434326 76.0
204.703613 168.0
204.82724 128.0
204.929916 96.0
204.963989 176.0
205.017059 216.0
205.050095 21004.0
205.100784 48.0
205.194855 36.0
205.25473 108.0
205.294662 52.0
205.36882 32.0
205.437271 48.0
205.474365 56.0
205.494339 80.0
205.52002 64.0
205.568527 52.0
205.589294 172.0
205.674118 76.0
205.748337 44.0
205.938065 108.0
205.962524 52.0
205.993942 64.0
206.053833 2500.0
206.142517 44.0
206.165375 96.0
206.253983 44.0
206.305618 60.0
206.385483 56.0
206.462692 116.0
206.549454 72.0
206.714447 72.0
206.751648 160.0
206.828918 56.0
206.866135 116.0
207.028442 116.0
207.049576 176.0
207.201202 136.0
207.344482 144.0
207.4431 244.0
207.48494 116.0
207.568085 144.0
207.863541 136.0
208.03862 192.0
208.466583 68.0
208.567184 172.0
208.595932 124.0
209.309433 104.0
211.526764 44.0
212.117691 84.0
212.343857 120.0
212.764618 120.0
213.875076 28.0
214.073059 180.0
214.163345 116.0
214.822128 84.0
215.059509 620.0
215.108109 132.0
215.531586 156.0
216.066833 344.0
216.106262 200.0
216.251007 48.0
216.722488 124.0
216.951096 268.0
216.986282 100.0
217.049759 6940.0
217.086746 264.0
217.127029 96.0
217.223816 48.0
217.298386 96.0
217.49379 80.0
217.520203 132.0
218.055588 1268.0
218.469391 32.0
218.607681 84.0
218.704803 64.0
218.987457 76.0
219.06929 384.0
219.125916 208.0
219.153778 88.0
219.261475 68.0
219.753922 32.0
219.807037 180.0
219.827698 136.0
219.992981 128.0
220.070618 176.0
220.211487 52.0
220.678406 180.0
221.046097 116.0
221.782623 140.0
222.120651 48.0
223.059143 140.0
223.207672 108.0
224.744675 140.0
226.089401 52.0
227.047913 148.0
227.068375 136.0
227.537186 92.0
228.032837 256.0
228.077927 144.0
228.107986 160.0
229.07074 188.0
229.88501 100.0
229.984604 36.0
230.03894 200.0
230.096298 120.0
230.694473 64.0
231.063065 168.0
231.102768 108.0
231.241959 128.0
232.032593 280.0
232.065643 160.0
233.038254 104.0
233.118332 172.0
233.830887 72.0
234.00441 120.0
234.037674 164.0
234.409515 172.0
234.973602 172.0
236.26593 56.0
237.108002 192.0
237.71521 148.0
237.874817 64.0
238.10817 88.0
238.578308 152.0
240.92894 196.0
242.421112 152.0
243.067902 356.0
244.0625 172.0
244.095749 624.0
244.430267 36.0
244.595215 80.0
244.653976 160.0
244.894135 148.0
244.972015 44.0
245.045563 7164.0
245.155838 56.0
245.258698 96.0
245.302338 40.0
245.339737 108.0
245.411453 88.0
245.570496 60.0
245.732712 68.0
245.801346 80.0
245.901215 68.0
245.951157 44.0
246.010468 56.0
246.047684 956.0
246.095428 168.0
246.291504 28.0
246.453964 48.0
246.516464 56.0
246.588333 40.0
247.061356 740.0
247.094925 164.0
247.141846 56.0
247.508072 128.0
247.56131 68.0
248.059494 108.0
248.084564 172.0
248.175491 136.0
248.435806 104.0
248.529922 32.0
248.771591 68.0
248.937988 144.0
249.270981 124.0
250.734344 180.0
252.312622 176.0
253.642212 128.0
254.136948 100.0
254.622635 116.0
255.312286 60.0
256.426575 148.0
256.611481 188.0
257.035706 96.0
257.342133 96.0
257.623169 168.0
258.064209 144.0
259.101196 148.0
260.063232 156.0
260.106384 856.0
260.554535 84.0
260.623871 96.0
260.805176 48.0
261.110962 2068.0
262.114655 860.0
262.366455 128.0
262.984222 180.0
263.124603 92.0
266.090271 152.0
266.233124 220.0
266.857025 140.0
268.459106 200.0
268.579773 148.0
269.258667 132.0
269.36319 28.0
271.09726 148.0
271.130035 128.0
271.195587 52.0
272.055023 116.0
272.928955 48.0
273.067505 192.0
273.114716 380.0
273.198669 56.0
273.392792 100.0
273.83725 156.0
274.100983 156.0
274.991211 144.0
275.115509 160.0
275.318085 144.0
275.440277 184.0
275.67157 144.0
275.945923 184.0
276.670471 132.0
277.177216 108.0
278.411255 180.0
278.627167 176.0
279.168945 220.0
282.159912 168.0
283.746857 212.0
284.085327 156.0
284.096863 144.0
284.103973 132.0
285.082794 144.0
286.253479 236.0
289.156799 120.0
290.104095 340.0
290.834534 108.0
291.095947 140.0
293.805298 84.0
294.163635 96.0
295.818176 132.0
297.271393 224.0
298.432434 120.0
299.123932 68.0
300.016144 116.0
300.309265 112.0
300.333405 60.0
301.078918 212.0
301.110748 664.0
301.144531 80.0
301.171295 128.0
301.223969 28.0
301.476105 132.0
301.501587 196.0
301.600616 52.0
301.697937 188.0
301.728516 96.0
301.755829 80.0
301.8703 116.0
301.993469 136.0
302.037079 196.0
302.10379 22536.0
302.225708 160.0
302.263031 68.0
302.288879 44.0
302.326935 48.0
302.389221 152.0
302.434235 100.0
302.475769 44.0
302.52948 56.0
302.666168 140.0
302.743286 148.0
302.818542 48.0
302.868469 96.0
302.953644 88.0
303.025055 92.0
303.107544 3464.0
303.151154 176.0
303.214325 68.0
303.252075 32.0
303.345245 48.0
303.38504 140.0
303.577545 84.0
303.633026 88.0
303.678101 40.0
303.735474 64.0
303.900146 56.0
304.056274 36.0
304.108978 620.0
304.162445 68.0
304.327057 60.0
304.424286 92.0
304.469421 88.0
304.643097 56.0
304.743866 160.0
304.92804 200.0
304.966248 132.0
305.067078 144.0
305.092468 144.0
305.199188 140.0
305.22699 124.0
305.341766 60.0
305.407837 48.0
305.473938 80.0
305.797546 132.0
306.170074 40.0
306.403442 48.0
306.487061 48.0
307.107605 60.0
307.582153 156.0
307.948792 52.0
308.354065 52.0
308.843567 44.0
315.362518 96.0
316.115723 288.0
316.59729 124.0
317.639313 104.0
318.242645 36.0
319.479462 48.0
320.601044 72.0
322.903809 100.0
329.272522 104.0
336.674133 28.0
338.213379 140.0
341.166382 128.0
342.060303 112.0
342.097107 92.0
343.434723 112.0
349.064087 172.0
349.800751 156.0
351.589844 156.0
351.615967 136.0
352.998199 48.0
356.266571 108.0
357.17627 152.0
357.276184 76.0
357.955353 140.0
358.166351 6696.0
358.343323 44.0
358.62973 92.0
358.739044 60.0
358.946411 56.0
358.9841 56.0
359.167725 2092.0
359.236816 80.0
359.451874 96.0
359.897278 40.0
359.931274 48.0
360.173309 928.0
360.274689 52.0
360.354309 84.0
360.403412 52.0
360.777588 80.0
361.019592 36.0
361.151947 120.0
361.288147 32.0
361.352448 112.0
361.522736 148.0
361.711975 80.0
361.764954 148.0
363.857666 36.0
374.958679 84.0
376.057892 120.0
376.328125 76.0
376.382172 48.0
390.128296 176.0
424.218262 100.0
438.733276 104.0
452.154114 124.0
452.420776 112.0
453.221252 140.0
453.738342 92.0
455.465515 108.0
456.85556 104.0
481.063629 64.0
492.604309 88.0
505.278992 136.0
509.035095 80.0
512.05719 136.0
522.923462 80.0
545.244507 88.0
564.366394 68.0
573.69574 68.0
576.769958 56.0
577.501526 100.0
578.094727 116.0
599.688416 48.0
602.083984 120.0
620.363708 100.0
632.083069 48.0
673.868835 104.0
685.799377 88.0
689.41095 92.0
696.431396 144.0
754.192627 168.0
822.65332 36.0
852.66394 96.0
874.273682 52.0
879.991455 64.0
893.349792 200.0
920.501221 60.0
960.022156 184.0
960.077698 56.0
989.375183 92.0
990.90332 68.0
994.584412 144.0
1025.234497 88.0
1030.997314 164.0
1058.038818 184.0
1059.068359 208.0
1071.000244 156.0
1085.961548 72.0
1119.322876 196.0
1122.661499 148.0
1153.324219 232.0
1168.977173 188.0
1176.351685 216.0
1180.859619 180.0
1181.504272 212.0
1189.927246 76.0
1194.311523 196.0
1199.461914 128.0
1201.268555 192.0
1220.821289 200.0
1229.759766 132.0
1240.265381 216.0
1246.715332 144.0
1262.408447 192.0
1263.482788 200.0
1276.860718 176.0
1278.027344 196.0
1288.70105 48.0
1306.322998 144.0
1311.940063 236.0
1317.388428 232.0
1321.415283 180.0
1327.731689 180.0
1329.109985 172.0
1329.588989 164.0
1335.430176 180.0
1339.972534 144.0
1348.912354 32.0
1350.001709 132.0
1353.689941 160.0
1355.916992 152.0
1357.243774 264.0
1359.099487 132.0
1376.95105 76.0
1378.199463 124.0
1384.331543 60.0
1385.857422 244.0
1394.093994 132.0
1394.168335 136.0
1395.08252 28.0
1397.856689 160.0
1418.027954 180.0
1419.032471 148.0
1428.276855 164.0
1428.840942 160.0
1428.938843 176.0
1431.377441 164.0
1435.939941 48.0
1436.894775 176.0
1440.60144 156.0
1443.496216 104.0
1451.098267 252.0
1457.686646 56.0
1459.168701 120.0
1465.912598 204.0
1469.664185 204.0
1475.063477 172.0
1476.080322 184.0
1487.572632 160.0
1490.539551 196.0
1491.574707 144.0
1502.586914 96.0
