>compound MLS000697639-01!
>formula C20H20O4
>ionization [M+H]+
>parentmass 325.144
#inchi InChI=1S/C20H20O4/c1-12(2)8-9-14-15(21)10-18-19(20(14)23)16(22)11-17(24-18)13-6-4-3-5-7-13/h3-8,10,17,21,23H,9,11H2,1-2H3
#inchikey UOWOIGNEFLTNAW
#Ion_Source LC-ESI
#Instrument qTof
#Compound_Source NIH Natural Product Library
#PI Dorrestein
#Data_Collector VVP/LMS
#Scan -1
#Precursor_MZ 325.144
#ExactMass 324.136
#Charge 1
#CAS_Number N/A
#Pubmed_ID N/A
#Smiles CC(=CCc1c(O)cc2OC(CC(=O)c2c1O)c3ccccc3)C
#INCHI_AUX N/A
#Library_Class 1
#SpectrumID CCMSLIB00000079745
#IonMode Positive
#UpdateWorkflowName UPDATE-SINGLE-ANNOTATED-GOLD
#LibraryQualityString Gold
#TaskID b1d8e8f6646f4e71acdff9ca3d919d08
##Scan# 2653
#SpectrumFile p1-E10_GE10_01_17930.mzXML
#LibraryName NIH_Natural_Products_Library.mgf
#MQScore -1
#Organism NIH_Natural_Products_Library
#TIC_Query 0
#RT_Query -1
#MZErrorPPM -1
#SharedPeaks 0
#MassDiff 0
#LibMZ -1
#SpecMZ 325.144
#SpecCharge 0
#internalFilename spec-00000.mgf

>collision 10
95.273636 124.0
95.390236 200.0
95.493286 48.0
95.662567 156.0
96.019135 188.0
96.050339 132.0
96.159607 160.0
96.204498 220.0
96.229874 200.0
96.429123 84.0
96.448669 136.0
96.548378 168.0
97.029404 552.0
97.587646 144.0
97.689911 164.0
97.82766 148.0
97.88279 72.0
97.896568 136.0
97.97142 116.0
98.032494 176.0
98.198097 196.0
98.660149 228.0
98.719467 144.0
99.00692 852.0
99.093567 188.0
99.107437 156.0
99.214455 100.0
99.383034 140.0
99.500137 44.0
99.973198 72.0
100.009537 200.0
100.11454 224.0
100.339691 140.0
100.902695 68.0
101.286911 192.0
101.465263 140.0
101.617683 200.0
101.932915 48.0
102.079659 196.0
102.250656 128.0
102.942123 160.0
103.035034 84.0
103.051193 160.0
103.134048 212.0
103.210869 172.0
103.235138 116.0
103.370667 116.0
103.587303 164.0
103.710899 220.0
104.273109 176.0
104.504921 144.0
105.246834 200.0
105.559669 240.0
106.339989 180.0
106.508354 168.0
106.83725 184.0
106.954544 188.0
107.008072 160.0
107.862122 196.0
108.325638 244.0
108.785995 228.0
108.83374 52.0
108.968742 152.0
108.985367 152.0
109.02758 624.0
109.058098 88.0
109.093437 72.0
109.726532 168.0
109.893158 116.0
109.936974 152.0
110.030907 176.0
110.118607 136.0
110.256493 136.0
110.683235 184.0
110.957047 216.0
111.00692 364.0
111.425713 164.0
111.869446 120.0
112.105339 168.0
112.487083 168.0
112.569427 220.0
112.922348 144.0
113.09584 40.0
113.746567 148.0
114.084328 216.0
114.214035 172.0
114.624977 152.0
114.846634 88.0
114.863701 120.0
115.070702 228.0
115.416832 216.0
115.776016 164.0
116.05275 180.0
116.400352 160.0
116.486259 164.0
116.640968 176.0
116.85199 140.0
116.939941 156.0
117.069046 124.0
117.159576 124.0
117.204292 244.0
117.336296 196.0
117.398827 216.0
117.413918 120.0
117.541199 212.0
118.016388 184.0
118.172112 156.0
118.202408 44.0
118.401566 128.0
118.488205 140.0
119.015244 180.0
119.145554 180.0
119.165108 164.0
119.197701 132.0
119.439018 116.0
119.735016 172.0
119.785118 156.0
120.36618 168.0
120.673317 124.0
120.848289 72.0
121.028023 408.0
121.211761 208.0
121.371773 132.0
121.4244 188.0
121.457771 148.0
121.611206 164.0
122.008476 76.0
122.265823 104.0
122.37809 172.0
122.582939 144.0
122.785751 160.0
122.96666 172.0
123.007904 5544.0
123.094696 144.0
123.563278 184.0
123.638512 136.0
123.653999 64.0
123.811188 192.0
124.011192 484.0
124.465355 204.0
124.507545 84.0
124.705276 44.0
124.854233 76.0
125.009407 228.0
125.223671 156.0
125.433113 52.0
125.515602 148.0
126.40239 108.0
126.570267 120.0
126.801003 112.0
126.879456 140.0
126.962418 88.0
127.254128 180.0
127.514694 184.0
128.052414 128.0
128.257446 148.0
128.559662 184.0
128.627365 332.0
128.665741 212.0
128.862228 132.0
128.977478 172.0
129.052078 192.0
129.21492 148.0
129.253387 268.0
130.042023 156.0
130.094223 188.0
130.180496 252.0
130.37587 112.0
130.455414 144.0
130.54863 180.0
131.041428 168.0
131.085861 132.0
131.234024 68.0
131.313828 160.0
131.854919 188.0
132.001221 216.0
132.10643 108.0
132.837173 156.0
133.068954 208.0
133.209045 172.0
133.408966 164.0
133.512436 168.0
133.634354 156.0
133.761978 156.0
133.949738 96.0
134.203247 140.0
134.242447 116.0
134.34462 184.0
134.39006 160.0
134.440826 148.0
134.632431 220.0
135.254364 120.0
135.357101 136.0
135.707809 256.0
135.801712 228.0
136.365372 144.0
136.532761 68.0
136.556015 140.0
136.656036 60.0
136.974976 204.0
137.022705 2816.0
137.093796 60.0
137.1474 48.0
137.466904 100.0
137.550934 64.0
138.026169 380.0
138.19519 200.0
138.575226 180.0
138.910461 228.0
139.03717 260.0
139.220276 68.0
139.713867 160.0
140.045776 228.0
140.658829 140.0
140.852448 216.0
141.018356 828.0
141.488571 44.0
141.524078 176.0
141.896057 52.0
142.024109 152.0
142.401489 176.0
142.515518 56.0
142.65097 204.0
142.712784 152.0
142.938751 172.0
143.653503 176.0
143.834854 152.0
143.966156 220.0
144.364639 188.0
144.762482 152.0
145.191437 64.0
145.416962 96.0
145.452957 164.0
145.488968 192.0
145.520187 128.0
145.585007 132.0
145.642654 156.0
145.769974 164.0
145.943039 148.0
147.003281 248.0
147.87532 216.0
148.219193 236.0
148.364609 76.0
148.551346 124.0
148.69693 144.0
149.710693 32.0
149.837357 48.0
150.654602 192.0
150.850098 104.0
151.038391 160.0
151.430008 156.0
151.920227 144.0
152.050278 196.0
152.067459 88.0
152.26387 152.0
153.068008 272.0
153.440048 136.0
153.585541 140.0
153.800201 180.0
154.945145 404.0
155.03186 132.0
155.076477 96.0
155.096298 140.0
155.664429 180.0
156.343079 144.0
157.013214 76.0
157.060608 164.0
157.370056 176.0
158.400391 196.0
158.859131 68.0
158.949448 144.0
159.85405 76.0
159.982422 140.0
160.294724 164.0
160.550156 196.0
160.925308 176.0
161.445831 176.0
161.597595 300.0
161.726654 128.0
162.395554 88.0
162.712738 216.0
162.979431 68.0
162.999756 152.0
163.350601 112.0
163.528656 180.0
163.638168 80.0
163.658539 100.0
163.816437 168.0
164.020294 108.0
164.048325 152.0
164.17836 232.0
164.390091 152.0
164.414062 204.0
164.433487 128.0
164.474319 92.0
164.502396 240.0
164.543854 216.0
164.584091 208.0
164.613052 124.0
164.676025 176.0
164.716202 164.0
164.753616 328.0
164.789825 204.0
164.871918 292.0
164.8983 160.0
164.917297 112.0
164.936386 196.0
164.946396 176.0
164.971527 184.0
165.018204 82048.0
165.085876 48.0
165.120728 40.0
165.150574 48.0
165.17189 36.0
165.192352 76.0
165.210251 72.0
165.230728 168.0
165.252304 52.0
165.284134 48.0
165.303879 196.0
165.324509 176.0
165.33429 84.0
165.341568 236.0
165.376587 96.0
165.402176 108.0
165.439697 128.0
165.462143 140.0
165.519943 104.0
165.56665 112.0
165.6147 104.0
165.68129 48.0
165.745346 68.0
165.773529 92.0
165.791473 92.0
165.852737 84.0
165.911942 132.0
165.94014 84.0
165.971909 164.0
165.98996 152.0
166.020477 6580.0
166.055542 116.0
166.095657 56.0
166.142746 64.0
166.310104 72.0
166.33873 64.0
166.391678 36.0
166.435333 36.0
166.453308 52.0
166.521103 80.0
166.550888 52.0
166.58429 56.0
166.67421 44.0
166.697342 60.0
166.786377 68.0
166.841263 96.0
166.882401 44.0
166.900406 140.0
166.92868 128.0
166.95697 48.0
167.020584 708.0
167.085587 96.0
167.121597 132.0
167.142181 100.0
167.175293 88.0
167.191818 88.0
167.20755 136.0
167.227112 144.0
167.2966 108.0
167.374603 148.0
167.422775 80.0
167.461395 92.0
167.494888 60.0
167.530945 92.0
167.755142 56.0
167.806702 40.0
167.85054 152.0
167.951111 92.0
168.01561 192.0
168.10849 164.0
168.203979 64.0
168.369217 44.0
168.418289 40.0
168.459625 72.0
168.532883 72.0
169.276917 40.0
169.634445 64.0
169.722595 52.0
169.844482 124.0
170.116943 160.0
170.444183 76.0
170.927826 44.0
171.855423 128.0
172.686127 176.0
173.285568 124.0
174.054077 84.0
175.408966 52.0
175.51178 108.0
175.596176 76.0
176.11084 76.0
176.287842 68.0
176.605087 168.0
177.232498 112.0
177.277542 56.0
177.327896 72.0
178.456085 68.0
179.044159 48.0
180.009506 48.0
180.249908 220.0
181.012268 108.0
181.065826 112.0
182.221939 96.0
182.939987 96.0
182.958832 116.0
182.980362 124.0
183.027695 5168.0
183.117691 36.0
183.160797 60.0
183.191895 72.0
183.214661 88.0
183.519211 72.0
183.664841 152.0
184.030945 276.0
184.110153 72.0
185.032562 180.0
186.228043 144.0
191.038208 368.0
195.104172 152.0
198.389969 120.0
203.425446 164.0
205.100876 160.0
205.739838 52.0
213.049072 56.0
221.082108 176.0
222.366486 256.0
223.077103 196.0
225.063522 128.0
227.067184 756.0
227.272476 104.0
228.075272 276.0
229.68219 64.0
229.742523 116.0
240.076813 132.0
241.073929 76.0
241.265549 96.0
250.890594 192.0
250.96312 200.0
251.060867 56.0
263.239105 64.0
263.377991 100.0
264.454681 72.0
266.468414 160.0
268.607208 228.0
269.026398 204.0
269.080139 4880.0
269.129395 236.0
269.153687 208.0
269.26001 80.0
269.282867 176.0
269.312256 56.0
269.397186 72.0
269.534393 64.0
269.831818 36.0
269.893951 76.0
270.081085 1232.0
270.253754 92.0
270.567932 48.0
270.666168 68.0
271.08432 164.0
271.524719 48.0
272.089111 184.0
272.506195 52.0
276.429993 68.0
281.018707 132.0
283.091095 104.0
324.084991 96.0
325.027985 96.0
327.368103 140.0
330.182953 60.0
333.631226 104.0
336.023926 44.0
360.107605 68.0
365.136932 148.0
368.220154 52.0
383.616211 56.0
388.857574 92.0
390.110565 44.0
410.678558 100.0
433.662842 100.0
436.993225 92.0
452.937836 64.0
453.115753 36.0
465.721405 104.0
471.036682 80.0
520.303955 124.0
568.969299 52.0
720.571716 36.0
782.124023 164.0
834.331299 148.0
861.534668 48.0
890.332153 140.0
907.87146 180.0
912.75946 128.0
917.841492 92.0
920.750122 104.0
924.879578 204.0
931.203369 180.0
938.103394 252.0
958.105957 200.0
959.233704 44.0
973.28363 144.0
989.287781 168.0
1005.864258 48.0
1017.486938 136.0
1017.683716 228.0
1017.765625 192.0
1020.600098 188.0
1036.314209 96.0
1043.682617 84.0
1046.166016 152.0
1047.44751 156.0
1048.96814 204.0
1066.750244 176.0
1083.764282 164.0
1087.974731 128.0
1097.211304 224.0
1099.348389 212.0
1106.685547 140.0
1135.647461 216.0
1136.600098 224.0
1142.505737 144.0
1150.106812 132.0
1160.952026 212.0
1177.024902 52.0
1182.904541 172.0
1193.297729 216.0
1193.572754 208.0
1199.265991 120.0
1204.026489 220.0
1208.796387 200.0
1224.388062 204.0
1244.878296 144.0
1251.177612 144.0
1257.014038 120.0
1263.620483 144.0
1282.730835 232.0
1285.134155 176.0
1286.732788 212.0
1290.004761 124.0
1292.844238 148.0
1301.381348 60.0
1302.523193 104.0
1304.262085 56.0
1317.86792 132.0
1322.474365 140.0
1323.835449 220.0
1338.707642 148.0
1338.926147 156.0
1340.710938 180.0
1342.008423 52.0
1347.68689 148.0
1348.249512 68.0
1350.55249 164.0
1350.969482 160.0
1351.079224 128.0
1354.629639 216.0
1354.966675 144.0
1359.233765 152.0
1362.574463 52.0
1368.369873 104.0
1370.22583 132.0
1371.942871 168.0
1377.337158 224.0
1379.236084 96.0
1389.655518 132.0
1392.216309 176.0
1392.877319 192.0
1394.772095 148.0
1395.322266 164.0
1399.533325 44.0
1401.313354 232.0
1403.333252 232.0
1403.392822 216.0
1403.967041 144.0
1406.973999 240.0
1408.064209 168.0
1409.109863 136.0
1410.619507 184.0
1417.662354 160.0
1421.876953 144.0
1425.376343 172.0
1429.579834 112.0
1431.725342 236.0
1435.274536 152.0
1437.67334 276.0
1437.854492 228.0
1438.23938 64.0
1438.292236 208.0
1438.948975 168.0
1439.335327 184.0
1442.824585 164.0
1444.934692 48.0
1445.312988 228.0
1446.644897 164.0
1446.940186 128.0
1449.629028 152.0
1450.098877 204.0
1451.789551 100.0
1457.354004 168.0
1458.61499 168.0
1462.418091 164.0
1462.84436 224.0
1463.118408 204.0
1463.521973 212.0
1463.598022 160.0
1463.811279 224.0
1465.029907 200.0
1465.47937 128.0
1474.460815 88.0
1489.393433 220.0
1491.168213 156.0
1492.236694 108.0
1493.059448 176.0
1498.332153 68.0
1500.729004 248.0
1502.032349 164.0
1502.919556 196.0
