>compound MLS001159062-01!1-[2-(4-ethyl-7-methyl-2-oxochromen-5-yl)oxyacetyl]-4-phenylpiperidine-4-carboxylic acid
>formula C26H27NO6
>ionization [M+H]+
>parentmass 450.192
#inchi InChI=1S/C26H27NO6/c1-3-18-15-23(29)33-21-14-17(2)13-20(24(18)21)32-16-22(28)27-11-9-26(10-12-27,25(30)31)19-7-5-4-6-8-19/h4-8,13-15H,3,9-12,16H2,1-2H3,(H,30,31)
#inchikey HDVJNJXOXALKRD
#Ion_Source LC-ESI
#Instrument qTof
#Compound_Source NIH Natural Product Library
#PI Dorrestein
#Data_Collector VVP/LMS
#Scan -1
#Precursor_MZ 450.192
#ExactMass 449.184
#Charge 1
#CAS_Number N/A
#Pubmed_ID N/A
#Smiles CCc1cc(=O)oc2cc(C)cc(OCC(=O)N3CCC(CC3)(C(=O)O)c4ccccc4)c12
#INCHI_AUX N/A
#Library_Class 1
#SpectrumID CCMSLIB00000080553
#IonMode Positive
#UpdateWorkflowName UPDATE-SINGLE-ANNOTATED-GOLD
#LibraryQualityString Gold
#TaskID b1d8e8f6646f4e71acdff9ca3d919d08
##Scan# 2156
#SpectrumFile p2-E10_GE10_01_18034.mzXML
#LibraryName NIH_Natural_Products_Library.mgf
#MQScore -1
#Organism NIH_Natural_Products_Library
#TIC_Query 0
#RT_Query -1
#MZErrorPPM -1
#SharedPeaks 0
#MassDiff 0
#LibMZ -1
#SpecMZ 450.192
#SpecCharge 0
#internalFilename spec-00000.mgf

>collision 10
95.20282 128.0
95.418541 72.0
95.451607 132.0
95.490501 144.0
95.5839 252.0
95.770828 224.0
96.115959 364.0
96.256523 152.0
96.301453 140.0
96.78653 228.0
96.953072 172.0
97.23175 244.0
98.07634 260.0
98.373436 228.0
98.454399 56.0
98.476128 56.0
98.659935 140.0
98.76593 196.0
98.802345 104.0
98.865677 216.0
98.958725 48.0
99.113251 104.0
99.205856 184.0
99.248062 116.0
99.367088 212.0
99.504059 224.0
99.690804 164.0
99.96727 108.0
100.190308 160.0
100.287971 48.0
100.611183 180.0
100.972916 248.0
101.094978 128.0
101.415474 208.0
101.696327 100.0
102.060013 236.0
102.460602 172.0
102.480759 240.0
102.817574 144.0
102.942757 84.0
103.031647 120.0
103.088547 372.0
103.543495 128.0
103.610352 52.0
103.713722 140.0
104.082787 348.0
104.152077 152.0
104.17849 192.0
104.302467 116.0
104.32077 64.0
104.34314 160.0
104.562866 124.0
104.621902 148.0
105.075409 148.0
105.104332 272.0
105.209137 48.0
106.106873 148.0
106.193565 176.0
106.361847 148.0
106.552864 88.0
106.624794 120.0
106.713203 144.0
107.087936 204.0
107.118698 120.0
107.137238 144.0
107.153725 204.0
107.776947 228.0
108.093369 168.0
108.50148 100.0
108.825195 164.0
109.06665 136.0
109.101837 184.0
109.136917 156.0
109.436584 120.0
109.499069 128.0
109.607414 116.0
110.098969 552.0
110.13533 248.0
110.331795 232.0
110.440552 44.0
110.668701 160.0
111.012413 180.0
111.087929 160.0
111.320946 120.0
111.568924 164.0
111.766663 176.0
112.11483 176.0
112.453552 176.0
112.777 84.0
112.960999 300.0
113.071045 208.0
113.121849 360.0
113.492676 168.0
114.319138 80.0
114.930809 140.0
115.093613 1020.0
115.464958 88.0
115.811745 152.0
115.914597 72.0
116.004631 216.0
116.102097 596.0
116.182655 200.0
116.539116 176.0
116.773476 116.0
117.111626 1408.0
117.27523 96.0
117.363632 44.0
117.406769 48.0
117.426186 208.0
117.762939 148.0
117.8256 96.0
118.024475 104.0
118.080711 168.0
118.098015 220.0
118.12442 184.0
118.180237 140.0
118.258156 188.0
118.292793 244.0
118.474731 188.0
118.498573 156.0
118.513741 68.0
119.112617 144.0
119.129066 180.0
119.262573 84.0
119.445259 184.0
119.658569 80.0
119.845909 156.0
121.073792 164.0
121.10891 492.0
121.167992 176.0
121.747177 120.0
121.903175 136.0
122.057076 176.0
122.618538 180.0
122.669243 52.0
122.728783 92.0
122.750832 84.0
122.909683 232.0
122.982521 84.0
123.300621 168.0
123.94249 200.0
124.033371 116.0
124.07328 212.0
124.119125 208.0
124.17086 56.0
124.210793 136.0
124.297333 104.0
124.368362 152.0
124.421654 180.0
124.513542 160.0
125.186668 168.0
125.554443 168.0
126.099579 124.0
126.329643 68.0
126.8246 172.0
127.028687 216.0
127.101166 352.0
127.492432 160.0
127.62619 164.0
128.107483 1988.0
128.450623 132.0
128.667297 196.0
128.746338 112.0
129.002121 280.0
129.114639 1076.0
129.14418 176.0
129.279953 80.0
129.34108 156.0
129.4543 156.0
129.862305 120.0
130.122421 520.0
130.150574 148.0
130.282318 160.0
130.391403 212.0
130.436874 148.0
130.677979 160.0
130.778122 128.0
130.812271 60.0
131.090897 164.0
131.129822 1016.0
131.199615 88.0
131.375244 136.0
131.480225 152.0
131.751999 188.0
131.793121 140.0
131.989746 164.0
132.053787 160.0
132.107635 372.0
132.127243 152.0
132.488525 148.0
132.52774 152.0
132.642349 160.0
133.107483 416.0
133.135147 324.0
133.150269 436.0
133.248291 168.0
133.278168 84.0
133.722076 140.0
133.738205 132.0
133.97081 188.0
134.019196 112.0
134.081436 176.0
134.152542 128.0
135.092636 196.0
135.139679 244.0
135.324432 192.0
135.748535 100.0
136.008423 48.0
136.136139 144.0
136.270889 180.0
136.640625 152.0
136.871094 136.0
137.045822 232.0
137.106796 124.0
137.127396 176.0
137.213654 144.0
137.236984 188.0
137.31395 156.0
138.38205 164.0
138.578827 64.0
138.606949 212.0
138.707748 40.0
138.883636 124.0
139.394608 172.0
140.066177 180.0
141.123764 444.0
141.79129 188.0
141.938293 68.0
142.00708 168.0
142.128052 132.0
142.282394 188.0
142.569855 124.0
143.045639 36.0
143.064682 164.0
143.088486 40.0
143.13559 5000.0
143.383911 36.0
143.631927 112.0
143.850159 156.0
144.108932 628.0
144.133591 1964.0
144.791351 200.0
145.119644 284.0
145.146561 524.0
145.275604 44.0
145.405212 88.0
145.700607 56.0
145.741455 184.0
146.123474 248.0
146.150986 28.0
146.256195 124.0
146.330841 104.0
146.415131 148.0
146.841797 132.0
146.981735 128.0
147.054153 200.0
147.092926 164.0
147.10968 188.0
147.132248 476.0
147.631653 184.0
148.106491 128.0
148.132767 172.0
148.430923 144.0
148.622574 188.0
148.89209 48.0
149.104126 280.0
149.492661 204.0
149.619247 156.0
149.641159 92.0
149.823853 172.0
150.431198 140.0
150.574661 192.0
150.648575 48.0
151.096024 152.0
151.443695 92.0
151.784409 196.0
152.11322 84.0
152.368668 220.0
152.535797 120.0
152.624329 204.0
153.099335 72.0
153.126602 228.0
154.395203 232.0
154.489212 236.0
155.113464 100.0
155.144333 236.0
155.211456 136.0
155.366348 144.0
155.455688 56.0
155.597198 192.0
155.949997 152.0
156.135422 436.0
156.343033 184.0
156.848709 72.0
157.095047 196.0
157.116425 304.0
157.143036 160.0
157.442627 88.0
157.710007 40.0
157.732513 184.0
158.015152 120.0
158.080215 128.0
158.097748 204.0
158.151611 8952.0
158.234299 68.0
158.255463 136.0
158.285522 76.0
158.320587 124.0
158.381195 104.0
158.446121 72.0
158.465897 52.0
158.61879 116.0
158.756714 60.0
158.789322 56.0
158.972626 76.0
159.057846 56.0
159.158081 1132.0
159.381882 80.0
159.4422 64.0
159.48996 172.0
159.625748 52.0
159.819458 164.0
159.892456 60.0
160.023376 112.0
160.081299 36.0
160.133575 492.0
160.167404 2092.0
160.251587 108.0
160.275299 80.0
160.353424 72.0
160.38855 116.0
160.446716 68.0
160.471924 96.0
160.799911 132.0
161.115952 560.0
161.154221 912.0
161.537857 80.0
161.583405 48.0
161.970795 64.0
162.077225 176.0
162.123154 296.0
162.163071 344.0
162.186615 364.0
162.35611 68.0
162.373871 196.0
162.475342 192.0
162.546402 220.0
163.131714 192.0
163.168808 92.0
163.191696 240.0
163.223541 160.0
164.141617 68.0
164.289566 144.0
164.414612 180.0
164.483536 68.0
165.089172 184.0
165.112183 512.0
166.709625 212.0
167.13913 180.0
168.030777 184.0
168.580856 196.0
169.927567 156.0
170.124008 176.0
170.159149 524.0
170.444351 132.0
170.71994 164.0
171.040024 148.0
171.101364 236.0
171.146103 464.0
171.378632 164.0
171.811508 64.0
171.939392 120.0
172.098648 132.0
172.132599 132.0
172.169708 1416.0
172.244919 36.0
172.349442 132.0
173.122818 496.0
173.158875 336.0
173.264191 56.0
173.509109 156.0
174.132126 360.0
174.177155 192.0
174.304535 36.0
174.370712 68.0
174.514862 72.0
174.585861 136.0
174.902176 180.0
175.085983 168.0
175.105957 240.0
175.137131 452.0
175.175552 152.0
175.336304 84.0
175.544601 48.0
175.935165 132.0
176.110474 800.0
176.144348 244.0
176.595901 140.0
177.116333 1444.0
177.15451 116.0
177.921066 168.0
178.099014 36.0
178.121704 392.0
178.162781 120.0
178.229218 124.0
178.633392 128.0
178.827667 96.0
179.064667 200.0
179.123276 136.0
179.558273 116.0
179.611176 124.0
179.907425 196.0
180.13446 176.0
180.546143 128.0
180.695953 56.0
181.82428 188.0
182.165787 220.0
183.147324 160.0
183.23085 196.0
183.705414 176.0
184.164383 196.0
184.853897 156.0
184.948639 96.0
185.139084 208.0
185.35495 56.0
186.124466 136.0
186.156891 124.0
186.489532 88.0
186.579422 196.0
186.622772 112.0
186.984634 104.0
187.03363 164.0
187.055405 176.0
187.077194 72.0
187.165253 8952.0
187.265106 212.0
187.314148 144.0
187.344116 68.0
187.431702 104.0
187.443985 68.0
187.856705 64.0
188.05867 120.0
188.169312 1264.0
188.337219 64.0
188.369995 84.0
188.646057 68.0
189.023544 104.0
189.120483 672.0
189.156372 2740.0
189.324722 116.0
189.500061 192.0
189.527466 100.0
189.638992 76.0
189.790649 52.0
189.823563 52.0
189.968948 60.0
190.075974 128.0
190.159897 412.0
190.189362 1596.0
190.23793 60.0
190.861359 96.0
191.057022 48.0
191.173264 308.0
191.195328 512.0
191.227661 76.0
191.329529 56.0
191.442963 84.0
192.013 76.0
192.123352 108.0
192.159225 52.0
192.683899 36.0
193.474991 116.0
193.882233 60.0
194.153976 176.0
194.684128 112.0
194.984222 124.0
195.117661 172.0
195.498795 236.0
195.548904 84.0
197.021469 172.0
197.911026 132.0
198.067886 112.0
198.805389 100.0
199.049652 84.0
199.149155 392.0
199.274399 160.0
199.355896 188.0
199.434601 128.0
200.140427 160.0
200.176483 1104.0
200.200882 128.0
200.259155 40.0
200.862457 32.0
201.111038 148.0
201.177582 948.0
201.396027 64.0
201.56839 120.0
201.836975 136.0
202.133606 832.0
202.193283 1464.0
202.589966 64.0
202.663635 64.0
203.141647 884.0
203.19223 320.0
203.350021 88.0
203.423828 132.0
203.540253 140.0
203.702179 176.0
203.778885 148.0
203.866989 32.0
204.01767 124.0
204.08342 160.0
204.152985 1656.0
204.173218 2880.0
204.232941 52.0
204.240616 72.0
204.487091 196.0
204.555405 60.0
204.675659 88.0
204.803192 124.0
204.965607 124.0
205.01976 148.0
205.170227 348.0
205.456085 36.0
205.932877 48.0
206.191559 968.0
206.398773 104.0
206.533218 120.0
206.722076 128.0
206.905289 56.0
207.168442 128.0
207.190018 500.0
208.200089 136.0
208.238922 112.0
208.718918 48.0
208.943298 116.0
210.046829 416.0
210.199768 184.0
211.651093 124.0
212.218796 152.0
212.523712 80.0
212.694962 96.0
212.921478 192.0
213.17717 36.0
213.219604 180.0
213.942261 172.0
214.781647 124.0
215.145966 204.0
216.178955 564.0
216.661636 144.0
216.734894 172.0
216.975281 76.0
217.063248 176.0
217.118973 172.0
217.163849 4688.0
217.21579 68.0
217.295944 76.0
217.380112 84.0
217.424149 76.0
217.462296 132.0
217.993958 104.0
218.017471 116.0
218.099777 72.0
218.126236 144.0
218.194366 6020.0
218.229156 284.0
218.267395 80.0
218.308563 48.0
218.38504 100.0
218.440933 88.0
218.605728 48.0
218.682266 60.0
218.763626 144.0
218.923721 64.0
218.953171 44.0
219.091644 48.0
219.121109 56.0
219.172684 468.0
219.195328 644.0
219.439468 80.0
219.612946 132.0
219.675446 76.0
219.91745 96.0
220.179977 176.0
220.484604 60.0
220.511215 76.0
220.638336 136.0
220.854248 56.0
220.901581 96.0
221.052505 96.0
221.105774 64.0
221.366333 48.0
222.199387 204.0
222.291382 76.0
224.233688 48.0
225.592056 52.0
226.289246 208.0
227.140488 100.0
227.173492 156.0
227.819031 64.0
228.197769 132.0
229.06163 112.0
229.170105 132.0
229.791321 60.0
229.857712 40.0
230.132431 96.0
230.192841 180.0
231.033234 176.0
232.179398 192.0
232.53038 92.0
232.855301 112.0
234.504623 140.0
239.13031 96.0
242.376572 104.0
242.838577 148.0
244.000137 132.0
244.778137 60.0
245.095917 160.0
245.168518 2428.0
245.491867 76.0
245.553909 72.0
245.666565 72.0
245.703079 148.0
246.128555 40.0
246.171188 492.0
246.200119 1244.0
246.497223 104.0
246.600372 92.0
246.894302 36.0
247.172913 256.0
247.183334 148.0
247.2034 380.0
249.198669 120.0
253.414673 168.0
256.497864 148.0
257.55423 76.0
258.235138 144.0
262.201752 328.0
262.339569 48.0
263.190613 364.0
263.230225 132.0
268.200653 160.0
270.684784 120.0
271.292664 136.0
271.878235 64.0
273.149994 148.0
274.206238 312.0
274.777679 64.0
285.246826 172.0
286.172119 112.0
286.202454 144.0
289.282013 168.0
292.691315 188.0
299.242615 136.0
308.594971 120.0
309.287781 112.0
313.252899 136.0
315.465881 108.0
317.239746 20.0
319.997101 156.0
324.359802 136.0
337.943512 136.0
341.373779 136.0
352.287689 196.0
365.12854 172.0
365.771667 104.0
368.009888 168.0
372.787323 104.0
376.698669 140.0
378.284424 104.0
388.186462 112.0
399.190247 104.0
404.328339 684.0
405.313202 96.0
405.343658 364.0
405.996277 44.0
406.341309 124.0
408.366241 124.0
409.126892 64.0
412.309967 32.0
422.349121 112.0
433.348083 132.0
447.725464 112.0
448.369385 64.0
449.587708 120.0
449.61795 160.0
450.352264 1320.0
450.57663 52.0
450.758331 80.0
450.944336 36.0
451.350159 604.0
451.357941 220.0
451.417908 68.0
452.350037 328.0
452.391205 160.0
453.348602 136.0
458.223175 72.0
499.24292 88.0
505.516174 40.0
506.331085 132.0
510.365997 108.0
511.738556 44.0
522.093689 100.0
560.915283 60.0
602.076111 84.0
634.03833 72.0
657.580933 160.0
692.143127 72.0
695.514709 72.0
707.022339 56.0
714.366943 60.0
718.757751 180.0
723.799255 56.0
733.320312 136.0
757.828125 148.0
792.167908 164.0
804.745178 144.0
824.545471 172.0
829.600525 80.0
829.812683 160.0
905.835327 172.0
906.914062 132.0
938.361023 172.0
964.270325 52.0
965.438965 52.0
989.073303 36.0
990.513733 148.0
997.234863 184.0
1003.575134 48.0
1013.848877 80.0
1024.42334 220.0
1037.327515 196.0
1038.776978 164.0
1048.377808 244.0
1056.52771 140.0
1061.450928 176.0
1066.600098 72.0
1068.564331 80.0
1080.26355 232.0
1102.206787 220.0
1103.026367 172.0
1109.574585 32.0
1130.245483 128.0
1134.438843 64.0
1153.019287 204.0
1153.526367 156.0
1156.516602 212.0
1157.931885 184.0
1160.670044 200.0
1164.049927 204.0
1172.514038 164.0
1176.634644 80.0
1183.657837 156.0
1191.9729 232.0
1194.042358 136.0
1199.579224 168.0
1206.303833 236.0
1207.38269 172.0
1208.109009 108.0
1208.73877 184.0
1209.306396 140.0
1209.472534 152.0
1211.896729 212.0
1215.641724 264.0
1225.168823 192.0
1226.060913 164.0
1232.397949 108.0
1233.565308 96.0
1242.390259 136.0
1243.77417 116.0
1245.40918 92.0
1246.385864 204.0
1252.507568 192.0
1258.813599 180.0
1259.385742 136.0
1262.177734 124.0
1263.564209 132.0
1270.394775 200.0
1274.527466 84.0
1283.012573 136.0
1286.523071 208.0
1294.288818 196.0
1294.904785 140.0
1296.337891 228.0
1298.625244 128.0
1300.490967 252.0
1301.697266 132.0
1303.522095 172.0
1306.168335 152.0
1310.891968 132.0
1314.577515 132.0
1315.241577 164.0
1318.080322 132.0
1324.730347 148.0
1325.121582 132.0
1326.274048 188.0
1330.97583 220.0
1331.673096 152.0
1332.639404 72.0
1333.969604 204.0
1339.559082 168.0
1341.643677 148.0
1345.262573 112.0
1354.954102 52.0
1356.199951 132.0
1368.727783 232.0
1369.088745 132.0
1389.285278 180.0
1391.022095 236.0
1391.363525 192.0
1392.730103 184.0
1396.506592 76.0
1397.697021 140.0
1401.659058 76.0
1403.43335 160.0
1403.701782 208.0
1416.783813 208.0
1416.911133 184.0
1425.300781 168.0
1425.473633 212.0
1427.571533 152.0
1433.790527 32.0
1438.852783 124.0
1440.144287 148.0
1446.867798 60.0
1448.943237 108.0
1449.519165 196.0
1452.081909 84.0
1457.936279 212.0
1458.84082 80.0
1464.061279 220.0
1465.844116 184.0
1471.420654 156.0
1480.054199 196.0
1482.942749 160.0
1487.491943 76.0
1488.037109 160.0
1493.936401 156.0
1494.640503 144.0
1504.322144 228.0
1504.437988 160.0
