>compound MLS001159057-01!1-[2-[(6-methyl-4-oxo-2,3-dihydro-1H-cyclopenta[c]chromen-7-yl)oxy]acetyl]piperidine-4-carboxylic acid
>formula C21H23NO6
>ionization [M+H]+
>parentmass 386.161102
#inchi InChI=1S/C21H23NO6/c1-12-17(27-11-18(23)22-9-7-13(8-10-22)20(24)25)6-5-15-14-3-2-4-16(14)21(26)28-19(12)15/h5-6,13H,2-4,7-11H2,1H3,(H,24,25)
#inchikey JGOQQRJLZBEXQB
#Ion_Source LC-ESI
#Instrument qTof
#Compound_Source NIH Natural Product Library
#PI Dorrestein
#Data_Collector VVP/LMS
#Scan -1
#Precursor_MZ 386.16
#ExactMass 385.153
#Charge 1
#CAS_Number N/A
#Pubmed_ID N/A
#Smiles Cc1c(OCC(=O)N2CCC(CC2)C(=O)O)ccc3c4CCCc4c(=O)oc13
#INCHI_AUX N/A
#Library_Class 1
#SpectrumID CCMSLIB00000079765
#IonMode Positive
#UpdateWorkflowName UPDATE-SINGLE-ANNOTATED-GOLD
#LibraryQualityString Gold
#TaskID b1d8e8f6646f4e71acdff9ca3d919d08
##Scan# 1877
#SpectrumFile p1-G10_GG10_01_17954.mzXML
#LibraryName NIH_Natural_Products_Library.mgf
#MQScore -1
#Organism NIH_Natural_Products_Library
#TIC_Query 0
#RT_Query -1
#MZErrorPPM -1
#SharedPeaks 0
#MassDiff 0
#LibMZ -1
#SpecMZ 386.16
#SpecCharge 0
#internalFilename spec-00000.mgf

>collision 10
95.063515 160.0
95.088745 140.0
95.148918 144.0
95.183868 180.0
96.082458 332.0
96.157242 88.0
96.18457 152.0
96.29586 108.0
96.692749 172.0
97.017906 80.0
97.037178 212.0
97.089523 160.0
97.137527 192.0
97.479149 176.0
97.805626 184.0
97.976944 236.0
98.036057 208.0
98.057739 172.0
98.09716 140.0
98.187859 36.0
98.489838 240.0
98.558983 144.0
98.636055 116.0
98.695366 148.0
98.909027 148.0
99.001549 148.0
99.019905 160.0
99.043938 1168.0
99.241852 132.0
99.418396 212.0
99.477943 124.0
99.634827 68.0
99.753479 244.0
100.047913 196.0
100.080338 196.0
100.361282 120.0
100.48494 188.0
100.858376 168.0
101.047813 280.0
101.6595 140.0
101.968773 204.0
102.051193 108.0
102.329262 116.0
102.637123 100.0
102.919609 100.0
103.075142 220.0
103.408829 180.0
103.51815 148.0
104.549416 188.0
104.9813 220.0
105.069008 96.0
105.35891 96.0
105.579659 196.0
105.614433 48.0
105.774033 160.0
106.073105 156.0
106.399277 184.0
106.501953 180.0
107.255043 84.0
107.374634 116.0
107.533493 160.0
107.566521 160.0
107.801971 200.0
107.99424 224.0
108.057411 184.0
108.097076 192.0
108.468414 132.0
108.665421 92.0
108.686172 108.0
109.340767 92.0
109.63858 60.0
109.667755 188.0
109.899239 72.0
110.064613 156.0
110.072876 192.0
110.281395 56.0
110.503838 96.0
110.586769 148.0
110.921906 224.0
110.951256 204.0
111.018349 176.0
111.042366 176.0
111.181984 192.0
111.377243 160.0
111.648369 160.0
112.048309 164.0
112.074661 1740.0
112.465843 48.0
112.674904 108.0
112.700256 212.0
112.856667 52.0
113.061852 216.0
113.078789 172.0
113.123238 200.0
113.140175 64.0
113.20369 152.0
113.326546 108.0
113.404953 156.0
113.765564 168.0
113.98645 88.0
114.05423 1836.0
114.091438 212.0
114.130989 192.0
114.233078 132.0
114.304611 148.0
115.057922 220.0
115.24575 268.0
115.414612 80.0
115.450958 104.0
115.986221 100.0
116.071976 156.0
116.185654 132.0
116.561386 132.0
116.823692 216.0
117.019882 124.0
117.068558 380.0
117.095924 144.0
117.42466 160.0
117.491524 176.0
117.826157 164.0
117.890976 148.0
118.087715 132.0
118.59436 68.0
118.652893 92.0
118.748299 228.0
119.05648 48.0
119.082542 116.0
119.486862 96.0
120.472267 164.0
120.583702 152.0
120.752052 168.0
120.776108 308.0
120.905197 140.0
121.433197 156.0
121.477066 240.0
121.599945 184.0
121.786568 144.0
122.028526 196.0
122.519089 60.0
122.565353 156.0
123.006439 144.0
123.264847 132.0
123.432556 156.0
123.673988 148.0
123.882133 192.0
124.023949 184.0
124.054985 196.0
124.074333 412.0
124.381073 128.0
124.549828 176.0
124.903252 232.0
125.078812 160.0
125.611603 76.0
125.698616 60.0
125.984406 192.0
126.017914 160.0
126.090652 3768.0
126.114975 228.0
126.16095 216.0
126.449501 40.0
126.615173 52.0
126.644295 44.0
126.66893 56.0
127.095016 296.0
127.213844 96.0
127.588135 168.0
127.627235 188.0
127.719437 220.0
127.944473 172.0
127.980492 136.0
127.998505 72.0
128.070129 14160.0
128.124634 56.0
128.145584 68.0
128.186417 76.0
128.273376 68.0
128.298706 188.0
128.363556 164.0
128.403015 96.0
128.437973 68.0
128.471817 224.0
128.503403 92.0
128.554871 64.0
128.613983 60.0
128.889496 56.0
128.968597 44.0
129.072205 872.0
129.226395 68.0
129.364456 228.0
129.554672 40.0
129.599991 116.0
129.643051 68.0
129.672501 128.0
129.742783 76.0
129.763184 200.0
129.900955 192.0
129.926468 52.0
130.086365 2272.0
130.457886 156.0
130.523819 32.0
130.539734 64.0
130.801376 88.0
131.051071 364.0
131.070114 184.0
131.088699 312.0
131.195465 100.0
132.37674 136.0
132.702103 164.0
132.720444 52.0
132.832825 112.0
133.301193 140.0
134.21965 188.0
134.528809 60.0
134.669662 156.0
134.988586 76.0
135.044098 168.0
135.175964 144.0
135.439896 132.0
135.701767 44.0
135.861786 156.0
136.172836 196.0
136.714523 208.0
137.534912 132.0
137.558258 72.0
137.618958 192.0
137.894608 204.0
137.913315 68.0
138.04657 92.0
138.350739 184.0
138.974167 64.0
139.060989 328.0
139.39682 128.0
139.620148 172.0
140.127426 20.0
140.161591 84.0
140.656845 148.0
140.734756 176.0
140.86937 184.0
141.051331 152.0
141.06955 672.0
141.697388 196.0
141.943893 52.0
141.965225 52.0
142.007919 172.0
142.085907 12900.0
142.15448 72.0
142.192978 88.0
142.561081 136.0
142.822617 40.0
142.941559 124.0
143.005829 116.0
143.04628 108.0
143.086639 1516.0
143.436951 72.0
143.463165 72.0
143.502777 52.0
143.603851 144.0
143.651566 132.0
143.727905 108.0
144.052597 76.0
144.083664 320.0
144.284409 160.0
145.064056 772.0
145.097427 448.0
145.570511 168.0
145.647949 28.0
145.902664 192.0
146.068604 288.0
146.497086 152.0
146.918961 64.0
147.079483 520.0
148.260925 112.0
148.566437 112.0
148.932983 148.0
149.365646 144.0
150.093842 124.0
150.401245 140.0
150.950943 128.0
151.075684 132.0
151.496735 216.0
151.631516 168.0
152.080338 156.0
152.149078 100.0
152.259567 192.0
152.335724 64.0
153.072006 228.0
153.81073 140.0
154.079346 244.0
154.408661 188.0
155.05484 148.0
155.082565 408.0
155.215973 132.0
155.709824 100.0
156.065186 496.0
156.637573 60.0
157.067917 356.0
157.913055 124.0
158.070923 624.0
158.115707 148.0
158.353546 104.0
158.882462 52.0
159.081055 384.0
160.056213 248.0
160.086426 132.0
161.05806 452.0
161.095306 164.0
161.568054 116.0
161.717346 216.0
161.924957 68.0
162.797363 148.0
162.835464 152.0
163.067352 224.0
163.300583 196.0
164.763748 68.0
165.098602 200.0
165.705246 92.0
166.061569 208.0
166.520981 228.0
168.574265 80.0
168.633698 172.0
170.080719 1508.0
171.038132 148.0
171.08284 3008.0
171.13446 36.0
171.204773 56.0
171.504379 76.0
171.7547 112.0
171.913849 104.0
172.091599 348.0
172.130524 80.0
172.807495 88.0
173.057648 412.0
173.095444 940.0
173.126846 52.0
173.75856 124.0
174.068832 420.0
174.099045 168.0
174.646454 104.0
176.606216 60.0
176.648544 140.0
177.061447 176.0
181.493134 140.0
182.215118 224.0
182.411301 124.0
183.0802 328.0
183.372223 100.0
183.560928 188.0
184.927933 136.0
185.05719 176.0
185.873734 212.0
186.066452 140.0
186.359772 156.0
187.073395 1836.0
187.102264 208.0
187.186676 180.0
187.551743 228.0
188.083969 1840.0
188.151886 56.0
188.31572 72.0
188.594406 76.0
188.876053 200.0
188.982742 72.0
189.087021 260.0
189.31395 92.0
189.571457 132.0
190.091217 124.0
190.155609 168.0
191.235764 124.0
191.494568 164.0
191.706696 200.0
192.608887 236.0
192.871399 52.0
194.458481 92.0
195.314255 76.0
196.077148 100.0
197.087631 192.0
197.118073 164.0
197.27739 208.0
197.394821 156.0
197.920883 116.0
198.060852 208.0
198.646759 120.0
198.913345 160.0
199.076447 168.0
199.118301 152.0
199.28685 160.0
199.430176 156.0
199.649475 108.0
200.079971 152.0
200.130661 64.0
200.167267 92.0
200.260193 88.0
200.399933 152.0
200.477127 128.0
200.719559 124.0
201.001633 60.0
201.051712 172.0
201.091309 10132.0
201.162506 44.0
201.204849 80.0
201.243866 88.0
201.259506 112.0
201.453369 88.0
201.767059 88.0
201.84906 80.0
201.888641 96.0
201.990463 68.0
202.018753 128.0
202.092758 1924.0
202.131927 64.0
202.293259 208.0
202.324387 76.0
202.604767 176.0
202.630264 76.0
202.764893 156.0
202.942032 120.0
203.069641 340.0
203.096481 144.0
203.2285 160.0
203.390259 136.0
203.535049 116.0
203.853195 48.0
203.943939 164.0
204.089127 224.0
204.114716 188.0
204.439011 144.0
205.082672 108.0
205.553238 32.0
206.198639 136.0
206.77063 100.0
207.034027 192.0
207.575638 152.0
208.293137 156.0
209.17305 128.0
209.285324 72.0
209.481171 176.0
210.181747 84.0
211.074509 868.0
212.080154 176.0
212.531296 148.0
212.722839 176.0
212.757675 148.0
212.981277 148.0
213.0811 188.0
213.379395 108.0
213.903046 132.0
214.054443 288.0
214.590576 128.0
214.981445 208.0
215.019379 108.0
215.069595 1600.0
215.162415 36.0
215.358887 184.0
215.971863 208.0
216.039139 64.0
216.077072 4852.0
216.162033 32.0
216.390335 152.0
217.083954 3244.0
217.313568 60.0
217.436813 52.0
218.099533 272.0
218.63295 72.0
218.694763 120.0
218.839005 92.0
219.204254 68.0
219.557999 152.0
219.634689 60.0
219.838257 176.0
220.736298 148.0
221.793213 104.0
222.819992 104.0
225.592041 100.0
226.519226 148.0
226.731949 216.0
226.761932 144.0
228.578812 116.0
228.684143 72.0
228.771439 40.0
228.834671 124.0
228.940048 96.0
229.085342 8100.0
229.190079 140.0
229.349808 72.0
229.388992 72.0
229.479431 44.0
229.578934 80.0
229.832321 88.0
229.940964 156.0
230.01944 56.0
230.088074 1212.0
230.224747 92.0
230.535904 108.0
230.886597 36.0
230.925903 96.0
231.09433 224.0
231.649338 128.0
231.836395 100.0
232.234344 52.0
232.270752 100.0
233.096542 108.0
233.294098 68.0
233.43396 76.0
234.094315 180.0
235.130829 108.0
239.07576 144.0
239.721771 44.0
240.205826 76.0
240.421814 140.0
241.082474 228.0
242.088089 44.0
244.098953 128.0
244.450455 172.0
245.631271 64.0
253.054413 108.0
256.067993 192.0
256.163544 116.0
257.077637 1172.0
258.088745 228.0
259.088196 208.0
259.557739 176.0
259.618652 68.0
263.096924 136.0
264.095428 120.0
269.12085 304.0
270.120819 272.0
270.279907 156.0
271.134613 52.0
272.062866 132.0
274.735107 92.0
275.11792 116.0
279.196808 124.0
284.157227 136.0
286.110138 140.0
287.397339 144.0
287.491821 128.0
294.130615 136.0
294.820526 96.0
295.148682 240.0
297.107788 260.0
297.135254 144.0
298.110382 148.0
298.144745 144.0
299.155975 152.0
300.076996 176.0
300.120667 124.0
300.299988 64.0
307.775177 200.0
309.152435 128.0
309.492004 64.0
312.153961 1128.0
312.95755 44.0
313.158051 128.0
315.087494 184.0
315.511932 72.0
319.053619 96.0
320.142395 236.0
322.804535 116.0
323.495087 112.0
331.313446 84.0
339.067535 96.0
340.153198 960.0
340.516724 80.0
340.711426 40.0
340.755493 76.0
340.895111 44.0
341.153046 188.0
341.361969 44.0
342.164093 140.0
342.322418 64.0
357.132782 456.0
358.151062 204.0
359.145142 232.0
359.52417 60.0
363.042419 160.0
368.154175 212.0
368.646118 44.0
369.146881 128.0
369.406982 52.0
372.343018 64.0
372.707977 44.0
372.838623 48.0
383.072906 152.0
383.82901 52.0
384.230743 36.0
385.851501 84.0
386.161102 2856.0
386.363831 68.0
386.402954 36.0
386.743408 52.0
386.921295 72.0
386.962646 52.0
387.119263 72.0
387.161163 552.0
387.307251 68.0
387.470917 72.0
388.160553 340.0
389.374237 40.0
389.437073 80.0
389.959656 72.0
390.179779 32.0
390.396027 48.0
398.324585 64.0
402.254852 148.0
402.678101 96.0
424.111816 140.0
457.472534 100.0
460.026031 52.0
463.263245 52.0
474.693695 36.0
497.670532 20.0
554.770691 52.0
611.919678 80.0
623.405273 72.0
644.608215 92.0
649.001892 56.0
704.780212 120.0
756.488708 232.0
767.077087 20.0
769.247742 76.0
850.943054 160.0
862.226257 56.0
871.197083 152.0
901.020874 168.0
901.719971 160.0
908.582214 80.0
938.046082 260.0
953.956055 88.0
957.296936 192.0
966.089233 20.0
972.586426 48.0
985.015137 188.0
986.627441 140.0
986.764954 88.0
1005.143494 48.0
1008.136658 180.0
1021.203186 220.0
1023.602417 148.0
1040.244751 200.0
1048.548584 172.0
1050.49585 112.0
1055.242676 200.0
1066.217041 96.0
1066.944946 100.0
1067.47168 184.0
1067.585449 20.0
1067.991943 208.0
1074.062622 152.0
1091.319092 176.0
1098.332642 176.0
1099.025391 120.0
1101.302856 112.0
1120.416992 48.0
1125.523193 32.0
1126.217651 176.0
1130.525391 240.0
1136.540771 188.0
1144.526001 60.0
1146.937866 88.0
1147.234497 184.0
1152.093384 192.0
1153.093384 228.0
1154.202148 20.0
1154.749878 148.0
1156.102905 112.0
1157.653198 220.0
1169.234863 212.0
1170.834717 228.0
1170.964111 268.0
1193.726196 152.0
1195.384033 140.0
1198.544678 92.0
1208.964844 232.0
1210.965698 152.0
1211.242798 56.0
1211.977051 232.0
1220.20874 248.0
1221.481445 116.0
1227.02478 132.0
1230.04541 204.0
1234.901611 124.0
1241.050049 140.0
1244.080933 112.0
1244.410889 240.0
1245.998169 196.0
1250.773071 144.0
1252.822266 164.0
1260.38562 68.0
1262.32251 216.0
1270.091675 260.0
1277.50769 116.0
1280.846313 200.0
1282.399658 128.0
1285.601807 228.0
1286.022949 184.0
1288.786621 144.0
1289.129517 180.0
1289.822876 164.0
1290.859497 100.0
1291.868042 148.0
1310.246338 196.0
1313.014282 120.0
1313.540771 152.0
1319.115479 124.0
1320.040894 132.0
1321.451416 132.0
1322.775757 192.0
1323.485229 192.0
1325.288818 200.0
1327.042847 180.0
1327.390015 180.0
1338.348511 164.0
1340.48999 84.0
1341.809326 200.0
1342.210327 260.0
1342.946899 124.0
1344.41333 176.0
1346.639404 232.0
1348.927124 172.0
1349.680176 184.0
1357.559326 148.0
1358.109375 140.0
1363.336792 100.0
1363.623413 184.0
1365.512939 144.0
1370.850342 92.0
1372.324585 236.0
1372.523682 276.0
1372.648926 236.0
1372.914429 164.0
1377.837769 168.0
1379.130981 168.0
1381.460205 224.0
1383.850708 224.0
1384.391235 156.0
1385.250366 192.0
1385.391113 148.0
1386.606323 176.0
1389.58728 156.0
1392.526855 232.0
1393.373657 104.0
1397.71582 200.0
1403.376709 88.0
1409.788818 156.0
1415.039795 116.0
1417.084473 40.0
1418.845703 160.0
1425.112549 164.0
1427.766113 112.0
1429.804932 224.0
1430.93396 152.0
1431.581543 132.0
1434.866821 144.0
1436.201538 208.0
1437.642578 80.0
1439.393921 172.0
1442.21936 112.0
1443.920532 200.0
1444.518066 188.0
1445.53186 124.0
1447.484863 132.0
1448.977051 136.0
1449.204346 164.0
1450.272827 176.0
1456.06189 216.0
1463.171509 176.0
1465.121216 232.0
1467.903198 148.0
1469.672852 156.0
1469.962769 148.0
1471.848267 116.0
1473.299438 168.0
1474.055786 164.0
1476.746826 124.0
1476.807983 104.0
1477.014526 168.0
1478.797363 148.0
1485.333252 188.0
1486.453369 124.0
1487.550903 184.0
1487.903931 188.0
1488.886841 204.0
1489.286255 164.0
1489.99292 160.0
1493.367554 172.0
1502.56958 224.0
1502.802734 204.0
