>compound MLS001146928-01!HYDROCORTISONE HEMISUCCINATE
>formula C25H34O8
>ionization [M+H]+
>parentmass 463.23349
#inchi InChI=1S/C25H34O8/c1-23-9-7-15(26)11-14(23)3-4-16-17-8-10-25(32,24(17,2)12-18(27)22(16)23)19(28)13-33-21(31)6-5-20(29)30/h11,16-18,22,27,32H,3-10,12-13H2,1-2H3,(H,29,30)/t16-,17-,18-,22+,23-,24-,25-/m0/s1
#inchikey VWQWXZAWFPZJDA
#Ion_Source LC-ESI
#Instrument qTof
#Compound_Source NIH Pharmacologically Active Library
#PI Dorrestein
#Data_Collector VP/LMS
#Scan -1
#Precursor_MZ 463.231
#ExactMass 462.225
#Charge 1
#CAS_Number N/A
#Pubmed_ID N/A
#Smiles C[C@@]12C[C@H](O)[C@H]3[C@@H](CCC4=CC(=O)CC[C@]34C)[C@@H]2CC[C@]1(O)C(=O)COC(=O)CCC(=O)O
#INCHI_AUX N/A
#Library_Class 1
#SpectrumID CCMSLIB00000085212
#IonMode Positive
#UpdateWorkflowName UPDATE-SINGLE-ANNOTATED-GOLD
#LibraryQualityString Gold
#TaskID d252d724072548979f1f6f1ced849daf
##Scan# 1862
#SpectrumFile p3-G02_GG2_01_18295.mzXML
#LibraryName Pharm_Active_Library.mgf
#MQScore -1
#Organism Pharm_Active_Library
#TIC_Query 0
#RT_Query -1
#MZErrorPPM -1
#SharedPeaks 0
#MassDiff 0
#LibMZ -1
#SpecMZ 463.231
#SpecCharge 0
#internalFilename spec-00000.mgf

>collision 10
45.17136 216.0
45.523251 84.0
45.707428 180.0
45.728962 164.0
45.982365 196.0
46.080948 200.0
46.338036 72.0
46.369205 160.0
46.506203 192.0
46.602627 188.0
46.731804 196.0
47.459873 152.0
48.00169 92.0
48.124504 196.0
48.377529 184.0
48.43985 116.0
48.546577 148.0
48.962139 180.0
49.066654 56.0
49.305367 116.0
49.565674 224.0
49.874451 152.0
50.079895 140.0
50.103844 176.0
50.294231 104.0
50.342236 56.0
50.992561 156.0
51.190327 132.0
51.33997 48.0
51.479832 128.0
51.780182 140.0
51.795937 152.0
52.205013 192.0
52.983063 104.0
53.570015 220.0
53.743523 40.0
54.04454 148.0
54.098694 236.0
54.108944 52.0
54.167526 184.0
54.396301 128.0
54.694721 160.0
55.211159 156.0
55.37841 200.0
55.688423 228.0
55.755283 212.0
56.063366 196.0
56.11554 84.0
56.184151 164.0
56.538303 96.0
56.695564 148.0
56.806526 140.0
56.863548 172.0
56.919098 180.0
57.540985 120.0
57.811573 232.0
57.861526 72.0
58.020615 180.0
58.680492 152.0
58.842228 176.0
58.932671 208.0
59.174023 104.0
59.952862 148.0
60.048454 164.0
60.505878 136.0
60.668556 112.0
61.532063 80.0
61.753975 152.0
61.964619 152.0
62.326218 208.0
62.552704 68.0
62.612541 164.0
62.790642 204.0
63.6119 156.0
63.794598 192.0
64.117737 104.0
64.297966 176.0
64.41613 168.0
64.787285 104.0
65.518303 252.0
65.539253 168.0
65.589218 176.0
65.671455 240.0
65.747284 144.0
66.046204 184.0
66.131966 120.0
66.540504 84.0
66.928329 156.0
66.987755 128.0
67.349907 36.0
67.495361 212.0
67.582062 192.0
67.752342 96.0
67.886757 96.0
67.954018 200.0
68.541046 200.0
68.889191 188.0
69.064423 52.0
69.538322 244.0
69.659538 176.0
70.147141 40.0
70.350677 200.0
70.559517 100.0
70.639793 124.0
71.429932 148.0
71.754982 64.0
71.837616 140.0
72.302307 52.0
72.483513 180.0
72.73114 164.0
73.035309 180.0
73.086349 276.0
73.263428 148.0
73.650681 68.0
73.674591 148.0
73.765175 44.0
73.878044 316.0
73.956764 180.0
73.975594 64.0
74.04409 256.0
74.242897 64.0
74.260048 192.0
74.799614 136.0
75.733833 176.0
76.480499 108.0
76.572784 92.0
76.699989 144.0
76.752289 132.0
76.949463 148.0
77.187111 264.0
77.430374 236.0
77.563545 160.0
78.014717 120.0
78.14135 120.0
78.209984 132.0
78.811386 224.0
79.000572 156.0
79.442169 192.0
79.537537 164.0
79.644081 184.0
79.711594 104.0
79.768471 160.0
79.891182 152.0
80.049599 144.0
80.506149 128.0
81.033859 52.0
81.545311 136.0
82.42662 148.0
82.524231 120.0
83.053062 28.0
83.151039 104.0
83.365356 132.0
84.29348 168.0
84.510559 128.0
84.541672 176.0
84.860413 164.0
85.11364 92.0
85.507065 112.0
85.637794 188.0
85.923531 48.0
86.265205 88.0
86.787323 188.0
87.043404 184.0
87.377991 156.0
87.465454 148.0
87.534348 180.0
87.8946 220.0
88.39682 172.0
89.197708 188.0
89.286087 164.0
89.321823 188.0
89.805939 240.0
89.888954 140.0
90.290512 232.0
90.427582 132.0
90.643494 196.0
91.05484 180.0
91.302254 236.0
91.395477 224.0
91.494453 156.0
91.686844 144.0
92.152031 188.0
92.183052 192.0
92.215538 112.0
92.3666 124.0
92.797516 152.0
93.070786 248.0
93.354401 72.0
93.423645 184.0
93.452507 100.0
94.492508 144.0
94.597023 208.0
94.883751 112.0
95.052505 208.0
95.078819 188.0
95.28746 172.0
95.314667 172.0
95.339928 176.0
95.495468 128.0
95.799141 164.0
95.928291 148.0
96.085739 112.0
96.86776 120.0
97.061516 712.0
97.352242 132.0
97.686386 204.0
98.066437 172.0
98.245888 144.0
98.287323 116.0
98.591454 140.0
99.043114 252.0
99.44709 164.0
99.520538 228.0
99.749023 172.0
99.860374 176.0
100.023544 176.0
100.567734 64.0
100.731476 144.0
101.022018 1972.0
101.080193 88.0
101.165443 64.0
101.433891 40.0
101.614388 200.0
102.021889 112.0
102.354095 180.0
102.446747 132.0
103.025764 72.0
103.051674 184.0
103.693542 140.0
104.009972 176.0
104.054634 100.0
104.068848 212.0
104.107437 32.0
104.180557 52.0
104.233391 116.0
104.400085 64.0
104.687042 152.0
104.725739 100.0
104.866333 92.0
104.941765 176.0
105.068596 664.0
105.200882 176.0
105.335663 220.0
105.607536 120.0
105.916626 100.0
106.072289 220.0
106.131828 68.0
106.181046 188.0
106.412933 116.0
106.65741 184.0
106.821922 96.0
106.976273 196.0
107.0504 380.0
107.083282 840.0
107.347153 124.0
107.642258 76.0
108.049461 128.0
108.080498 176.0
108.099129 176.0
108.401474 168.0
108.48024 176.0
108.523781 192.0
108.666901 60.0
108.770668 96.0
108.967964 44.0
109.063362 1380.0
109.105141 252.0
109.244484 228.0
109.481781 152.0
110.067474 160.0
110.492104 156.0
110.984322 208.0
111.077477 348.0
111.515472 204.0
112.592133 136.0
112.727341 132.0
113.08477 164.0
113.355865 144.0
113.459724 160.0
114.245537 148.0
114.456253 132.0
114.748177 164.0
114.880409 236.0
114.92614 184.0
115.050117 368.0
115.399399 148.0
115.50206 244.0
116.056854 184.0
116.230515 228.0
116.382919 152.0
117.068542 484.0
117.114143 68.0
117.379234 164.0
118.072479 148.0
118.260719 172.0
118.336487 88.0
119.047752 144.0
119.083755 1840.0
119.112915 232.0
119.421577 140.0
119.469437 224.0
119.49337 72.0
119.604362 80.0
119.697983 76.0
120.037941 108.0
120.06411 200.0
120.092194 228.0
120.653694 68.0
120.67556 68.0
120.90744 192.0
120.93914 124.0
120.981865 196.0
121.063896 3112.0
121.101067 176.0
121.130783 176.0
121.455215 116.0
121.496895 140.0
122.017418 52.0
122.065331 152.0
122.105385 220.0
122.173576 88.0
122.428917 68.0
122.558891 152.0
122.942604 132.0
123.037521 48.0
123.079651 912.0
123.10965 168.0
123.276077 48.0
123.444092 144.0
124.033043 164.0
124.061859 176.0
124.081818 304.0
124.443474 60.0
124.819008 180.0
124.950241 112.0
125.060303 140.0
125.166153 56.0
125.18174 148.0
125.239647 100.0
125.435745 208.0
125.466957 48.0
126.183647 136.0
127.070602 160.0
127.890877 208.0
127.942657 220.0
128.061386 264.0
128.332443 128.0
128.648315 56.0
129.06958 1000.0
129.263107 156.0
129.403458 168.0
129.847626 140.0
129.902069 164.0
130.0746 388.0
130.481186 100.0
131.053604 148.0
131.085251 1220.0
131.18924 64.0
131.328354 148.0
131.476654 204.0
131.49263 32.0
132.019608 228.0
132.045563 156.0
132.085632 152.0
132.18512 64.0
132.62944 104.0
132.893188 112.0
133.067627 436.0
133.100922 964.0
133.274353 64.0
133.38237 60.0
133.824097 200.0
133.87706 64.0
134.067108 160.0
134.104523 204.0
134.1259 172.0
134.411026 188.0
134.529602 168.0
134.739777 164.0
135.080322 928.0
135.110962 284.0
135.306427 208.0
135.450012 164.0
135.75827 112.0
136.086014 240.0
136.224823 156.0
136.717773 120.0
136.931976 168.0
137.057083 164.0
137.093246 164.0
137.134674 120.0
137.225601 164.0
137.657288 176.0
137.778748 88.0
137.986771 216.0
138.39389 72.0
138.80397 192.0
139.073776 204.0
139.099594 96.0
139.202911 116.0
139.242828 196.0
139.90596 140.0
140.174484 140.0
140.464478 140.0
140.551773 124.0
141.066467 776.0
141.992523 116.0
142.074387 452.0
142.377014 148.0
143.083786 2228.0
143.171371 44.0
143.512146 184.0
143.998993 76.0
144.092896 520.0
144.154282 48.0
144.225983 84.0
144.326401 64.0
145.061539 540.0
145.099487 1288.0
145.308456 84.0
145.346848 116.0
145.704605 44.0
145.988251 172.0
146.029144 108.0
146.062393 176.0
146.102982 156.0
146.212372 128.0
146.276993 152.0
146.51059 112.0
146.821548 112.0
146.961472 52.0
147.079483 996.0
147.11467 1112.0
147.265656 40.0
148.088791 192.0
148.117889 148.0
148.228561 120.0
148.920013 180.0
148.971024 160.0
149.014755 164.0
149.058487 132.0
149.094055 484.0
149.12886 176.0
149.180023 112.0
149.333221 64.0
149.620377 192.0
150.039429 216.0
150.110138 124.0
150.676437 196.0
151.076172 156.0
151.770538 132.0
152.069855 164.0
152.180328 160.0
152.236801 164.0
152.374359 132.0
152.986755 152.0
153.062225 92.0
153.089294 276.0
153.839767 188.0
154.017563 80.0
154.075333 256.0
154.962616 124.0
155.007217 224.0
155.058762 180.0
155.085114 1136.0
155.131149 44.0
155.190659 68.0
155.376678 180.0
155.498276 144.0
156.090698 304.0
156.207642 128.0
156.233826 60.0
156.298508 52.0
156.320908 28.0
156.358231 128.0
156.926224 128.0
157.067123 112.0
157.099503 1952.0
157.130737 148.0
157.425293 76.0
157.632645 136.0
157.822617 56.0
158.068451 148.0
158.103546 404.0
158.982483 180.0
159.030533 332.0
159.078461 1284.0
159.116531 1396.0
159.298859 212.0
159.665848 52.0
159.690994 112.0
160.023178 192.0
160.086609 172.0
160.12085 520.0
160.615433 52.0
161.093796 652.0
161.128021 200.0
161.284592 80.0
161.400894 40.0
161.681702 168.0
161.803207 176.0
162.100311 164.0
162.132523 120.0
162.708344 56.0
162.85817 144.0
163.020782 184.0
163.07135 120.0
163.110046 1708.0
163.154617 244.0
163.554901 60.0
163.646545 88.0
164.049103 44.0
164.114151 212.0
164.996277 32.0
165.054901 168.0
165.061768 156.0
165.078934 224.0
165.125015 184.0
165.27507 80.0
165.313461 40.0
166.020538 156.0
166.076065 148.0
166.107742 76.0
167.058258 172.0
167.080902 444.0
168.085571 628.0
169.063171 208.0
169.098816 1516.0
169.12529 224.0
169.296173 196.0
169.371292 44.0
169.905319 160.0
170.066025 464.0
170.104187 480.0
170.460999 164.0
170.538956 180.0
170.882248 124.0
171.082733 296.0
171.116241 1212.0
171.285782 148.0
171.590698 188.0
171.778473 108.0
171.921982 144.0
172.010727 144.0
172.078217 192.0
172.122757 308.0
172.188278 80.0
173.059311 108.0
173.093887 1736.0
173.131256 616.0
173.289612 60.0
173.462585 196.0
173.572708 68.0
173.798294 36.0
174.097382 152.0
174.130951 152.0
174.854752 124.0
174.886337 76.0
175.062744 64.0
175.109039 692.0
175.310379 112.0
175.421082 56.0
176.113052 420.0
176.405777 76.0
176.556503 152.0
177.087234 228.0
177.127914 404.0
177.804367 104.0
178.06723 136.0
178.577545 128.0
178.931488 168.0
179.081406 644.0
179.100906 272.0
179.133881 112.0
179.39238 124.0
180.089905 648.0
181.10112 688.0
181.397385 60.0
181.982269 168.0
182.06282 28.0
182.104675 536.0
182.352997 188.0
182.487411 60.0
183.082886 324.0
183.116699 772.0
183.426697 176.0
184.081787 188.0
184.122589 604.0
185.092804 1148.0
185.132507 1432.0
186.051178 112.0
186.094086 504.0
186.136536 512.0
186.273865 108.0
186.466782 220.0
186.755005 188.0
186.861099 156.0
187.076111 100.0
187.108337 1508.0
187.142502 524.0
187.204086 40.0
187.234039 116.0
187.626923 272.0
188.073837 148.0
188.115326 364.0
188.281342 148.0
188.844376 76.0
189.068176 156.0
189.092224 152.0
189.123367 524.0
189.326096 76.0
189.435654 120.0
189.454834 120.0
189.575394 44.0
190.093704 140.0
190.134232 328.0
190.159576 68.0
191.086182 360.0
191.108658 160.0
191.124924 184.0
191.145859 124.0
191.195755 132.0
191.440781 136.0
191.614319 148.0
191.884415 156.0
192.090897 412.0
192.14093 136.0
193.100876 992.0
193.148041 152.0
193.373413 72.0
193.533981 92.0
194.10405 444.0
194.398865 176.0
194.715363 132.0
194.890381 68.0
195.076248 284.0
195.112534 956.0
195.196152 160.0
195.933777 72.0
196.085648 304.0
196.117645 372.0
197.092834 160.0
197.130402 736.0
198.093353 160.0
198.12677 220.0
198.130859 256.0
198.166199 32.0
198.539032 140.0
198.96962 160.0
199.075333 204.0
199.108978 660.0
199.143845 552.0
199.6315 84.0
199.66243 124.0
200.151031 156.0
200.388718 80.0
201.091431 136.0
201.125305 628.0
201.157181 152.0
201.181244 136.0
201.38739 68.0
201.848068 40.0
202.133774 152.0
202.439514 76.0
202.762482 112.0
203.048843 100.0
203.099136 680.0
203.146881 384.0
203.713074 140.0
204.16217 156.0
204.298706 160.0
204.984909 80.0
205.119019 304.0
205.472504 132.0
205.643738 124.0
206.112427 140.0
206.924454 184.0
207.056168 116.0
207.117004 584.0
207.222321 164.0
207.529022 172.0
208.081635 20.0
208.119354 472.0
208.295303 44.0
208.40448 164.0
208.723557 188.0
209.093811 328.0
209.133865 868.0
209.160873 184.0
209.345139 56.0
209.497803 64.0
209.86673 56.0
209.961884 60.0
210.028229 140.0
210.065735 164.0
210.100418 144.0
210.137833 240.0
210.299469 60.0
210.978317 100.0
211.067154 72.0
211.111435 632.0
211.144257 584.0
212.114243 308.0
212.150421 280.0
212.39444 48.0
213.125107 1532.0
213.165085 556.0
213.378937 72.0
213.614502 48.0
213.733795 64.0
213.829834 168.0
214.132858 632.0
214.160812 204.0
214.182159 100.0
214.55809 104.0
214.616409 88.0
214.770981 140.0
215.110931 164.0
215.141373 360.0
215.614807 84.0
216.018326 88.0
216.100235 196.0
216.185806 200.0
216.554001 68.0
217.017044 152.0
217.128479 380.0
217.160736 220.0
219.093155 240.0
219.11264 152.0
219.120178 184.0
219.128876 140.0
219.773178 164.0
220.121506 216.0
220.496704 72.0
220.931381 176.0
221.105804 148.0
221.132904 944.0
221.218445 52.0
221.893936 144.0
222.136505 172.0
222.641739 92.0
223.111115 392.0
223.146515 696.0
223.494919 140.0
223.542526 100.0
223.628845 136.0
223.721115 128.0
223.902756 40.0
224.102356 160.0
224.156647 256.0
224.60321 72.0
224.910568 136.0
225.047897 60.0
225.086716 176.0
225.125916 1064.0
225.16333 896.0
225.206177 148.0
225.90567 60.0
226.132843 296.0
226.163025 136.0
226.747101 216.0
227.110886 184.0
227.140945 940.0
227.518036 112.0
228.148071 424.0
228.497818 68.0
229.121506 248.0
229.154099 384.0
229.479721 40.0
229.603363 144.0
230.068054 68.0
230.113464 208.0
231.114822 296.0
231.1436 236.0
231.331757 52.0
232.091064 164.0
232.135025 184.0
232.183212 144.0
233.078781 132.0
233.131958 316.0
234.09787 132.0
234.139191 560.0
234.698196 68.0
235.070343 52.0
235.113632 132.0
235.141846 500.0
235.726913 140.0
235.751373 80.0
236.005096 100.0
236.116455 116.0
236.150101 164.0
237.126953 528.0
237.164566 148.0
237.472031 40.0
238.124481 184.0
238.165588 172.0
239.139481 1244.0
239.177475 260.0
239.506149 84.0
239.799606 40.0
239.916748 44.0
240.114105 116.0
240.152985 292.0
240.209717 80.0
240.845627 48.0
240.956833 136.0
241.009369 196.0
241.15683 2972.0
241.21376 152.0
241.266312 92.0
241.303009 88.0
241.612289 136.0
242.126144 140.0
242.162064 560.0
243.112747 164.0
243.135178 424.0
243.156586 116.0
243.509445 56.0
243.571579 72.0
243.759079 148.0
244.131042 136.0
244.174164 176.0
245.154114 160.0
246.100479 80.0
246.142746 180.0
246.456573 92.0
246.512817 88.0
247.11412 136.0
247.149017 304.0
248.151764 152.0
248.516937 232.0
248.582825 76.0
249.130432 100.0
249.161255 848.0
250.115677 148.0
250.133606 172.0
250.170868 472.0
251.141693 812.0
251.17421 304.0
252.146301 648.0
253.114166 160.0
253.156921 904.0
253.19603 164.0
253.575378 28.0
253.683151 100.0
253.718033 176.0
254.127182 176.0
254.154709 148.0
254.17395 384.0
254.206512 204.0
255.168564 304.0
255.38205 124.0
255.614304 72.0
255.709778 76.0
255.97403 76.0
256.168762 208.0
256.247955 48.0
256.44873 44.0
257.121735 168.0
257.15213 304.0
257.18811 20.0
257.779602 176.0
258.131256 160.0
259.173187 204.0
260.162933 176.0
260.45813 92.0
261.118378 288.0
261.149628 124.0
261.181396 192.0
262.521271 64.0
262.872894 88.0
263.136871 448.0
263.179962 516.0
264.147064 424.0
264.174011 164.0
264.459808 216.0
265.155701 392.0
265.473907 48.0
265.623108 176.0
266.128662 404.0
266.161133 292.0
266.561432 164.0
266.626434 124.0
267.129791 140.0
267.170471 1684.0
267.246155 176.0
267.309387 104.0
267.332184 36.0
267.387512 88.0
267.5112 64.0
267.647949 48.0
267.846619 72.0
268.081207 96.0
268.179016 1664.0
268.355011 40.0
268.707275 88.0
268.775818 32.0
268.906342 88.0
268.929199 132.0
269.102203 32.0
269.14566 132.0
269.186096 976.0
269.294891 60.0
269.364716 64.0
269.443726 108.0
270.049927 52.0
270.072845 128.0
270.121887 76.0
270.148071 344.0
270.188416 180.0
270.252777 56.0
270.386932 64.0
271.165283 188.0
271.202515 144.0
273.16272 296.0
273.324127 144.0
275.136993 44.0
276.152191 208.0
277.598816 60.0
278.109741 124.0
278.97345 96.0
279.169037 552.0
280.138214 280.0
280.183502 176.0
280.598145 116.0
281.148956 452.0
281.188141 1264.0
281.288727 48.0
281.512451 52.0
281.545837 64.0
281.886597 120.0
282.145325 216.0
282.187836 316.0
282.893372 144.0
283.162109 596.0
283.195435 424.0
283.84494 56.0
284.141632 100.0
285.137451 148.0
285.181641 556.0
286.190399 592.0
286.298157 148.0
287.090149 96.0
287.180481 180.0
287.201752 484.0
287.248688 76.0
288.163605 124.0
288.335968 68.0
288.616547 192.0
288.734924 96.0
289.147675 144.0
289.489624 84.0
291.174164 680.0
291.596497 56.0
292.17868 452.0
292.220612 160.0
292.244385 172.0
292.327698 64.0
292.610229 124.0
293.185913 176.0
293.543884 56.0
294.162476 496.0
296.179016 100.0
296.561462 96.0
297.18335 704.0
298.184357 128.0
298.241302 32.0
299.149445 172.0
299.197327 388.0
299.807343 56.0
300.200348 176.0
301.181213 312.0
301.799194 100.0
302.650421 116.0
304.189789 136.0
305.183441 64.0
307.196533 144.0
307.308197 72.0
308.744629 100.0
309.183502 2000.0
309.65976 196.0
309.89563 112.0
309.944702 64.0
310.18866 468.0
311.19693 116.0
311.506012 72.0
312.173157 324.0
312.346161 68.0
313.176697 268.0
314.831085 32.0
315.192108 180.0
315.65802 40.0
316.203949 144.0
316.882782 36.0
317.216156 124.0
319.417633 76.0
320.1651 136.0
326.187103 192.0
327.192413 1956.0
327.277252 120.0
327.316833 64.0
328.066284 92.0
328.196716 284.0
328.297058 76.0
328.535126 32.0
328.665009 44.0
328.899597 240.0
329.184845 172.0
329.211243 232.0
329.491852 32.0
330.468079 44.0
331.083496 40.0
340.508026 96.0
343.15036 164.0
343.201874 120.0
343.452667 88.0
345.204407 468.0
346.202545 180.0
347.218048 160.0
347.704071 68.0
351.16803 72.0
355.181641 168.0
359.912506 108.0
363.061066 32.0
363.174835 196.0
364.188324 152.0
375.217651 188.0
383.186462 108.0
399.19397 148.0
399.221771 100.0
400.171234 184.0
401.191193 44.0
413.098907 132.0
420.857819 32.0
427.218903 144.0
428.198608 160.0
428.252167 184.0
433.760376 52.0
434.473663 108.0
436.637878 100.0
445.219238 164.0
445.810699 104.0
452.48819 56.0
462.291504 116.0
463.23349 128.0
472.675751 28.0
472.970062 112.0
499.774841 48.0
510.834991 68.0
511.415466 76.0
513.718201 88.0
552.55072 76.0
566.207031 68.0
626.07019 108.0
744.220642 72.0
763.429138 156.0
777.700562 208.0
827.531372 200.0
834.393555 208.0
853.288574 112.0
869.499268 48.0
871.966064 160.0
901.553345 72.0
930.71106 68.0
942.828003 128.0
970.946472 164.0
971.331055 64.0
1003.40863 208.0
1014.732544 60.0
1020.588013 88.0
1026.489868 168.0
1040.432495 96.0
1052.556885 44.0
1067.29248 152.0
1069.432983 144.0
1076.898804 48.0
1079.186157 112.0
1087.795166 132.0
1090.133423 68.0
1096.306519 176.0
1100.396362 144.0
1101.505859 132.0
1106.552002 196.0
1106.75061 100.0
1115.528442 140.0
1122.052856 176.0
1122.793091 144.0
1124.834839 204.0
1125.041748 144.0
1126.163696 188.0
1157.00415 180.0
1159.219116 188.0
1159.544434 124.0
1159.700317 152.0
1168.596802 60.0
1171.456299 180.0
1171.817383 60.0
1172.335327 184.0
1182.854004 188.0
1183.422241 220.0
1187.348877 200.0
1191.261475 132.0
1205.531494 220.0
1208.560303 196.0
1215.496704 132.0
1224.924683 140.0
1227.217651 96.0
1228.98938 224.0
1231.942749 228.0
1233.277466 220.0
1236.312988 184.0
1237.194946 152.0
1239.884888 124.0
1244.669312 260.0
1245.547241 232.0
1268.269287 220.0
1269.751221 208.0
1271.63855 196.0
1277.437012 244.0
1287.166016 108.0
1288.880493 48.0
1290.252808 180.0
1295.74231 100.0
1295.87854 164.0
1298.193848 224.0
1303.09668 68.0
1303.233154 180.0
1304.232178 144.0
1311.761841 184.0
1319.248169 220.0
1327.386719 148.0
1335.273804 156.0
1337.223633 132.0
1343.242554 136.0
1347.937256 160.0
1351.381348 152.0
1351.644775 200.0
1352.493774 124.0
1353.042847 216.0
1358.532227 180.0
1358.612915 156.0
1359.317383 220.0
1359.999878 192.0
1366.857056 188.0
1369.087646 204.0
1373.111694 104.0
1373.170776 196.0
1381.976685 204.0
1384.227051 172.0
1385.759033 192.0
1394.73291 168.0
1395.528442 44.0
1396.584473 160.0
1396.815063 140.0
1398.556396 328.0
1400.388062 36.0
1401.065918 188.0
1401.930298 188.0
1404.1073 168.0
1405.935181 148.0
1413.790039 120.0
1416.845215 244.0
1417.624512 156.0
1419.776123 232.0
1424.42981 220.0
1428.526978 260.0
1434.815552 96.0
1437.055542 164.0
1440.030029 180.0
1445.594482 124.0
1449.464233 248.0
1455.138062 144.0
1460.077515 172.0
1466.877197 76.0
1468.234375 128.0
1468.562378 136.0
1473.379395 148.0
1473.837769 208.0
1480.814941 148.0
1481.473755 192.0
1481.596313 180.0
1481.741943 152.0
1483.63501 236.0
1483.92627 128.0
1486.841431 128.0
1487.808594 160.0
1489.136353 208.0
1489.352173 164.0
1490.819702 228.0
1492.833862 172.0
1499.162109 264.0
