>compound MLS000881142-01!Rocornal
>formula C10H15N5
>ionization [M+H]+
>parentmass 206.1409
#inchi InChI=1S/C10H15N5/c1-4-14(5-2)9-6-8(3)13-10-11-7-12-15(9)10/h6-7H,4-5H2,1-3H3
#inchikey GSNOZLZNQMLSKJ
#Ion_Source LC-ESI
#Instrument qTof
#Compound_Source NIH Pharmacologically Active Library
#PI Dorrestein
#Data_Collector VP/LMS
#Scan -1
#Precursor_MZ 206.145
#ExactMass 205.133
#Charge 1
#CAS_Number N/A
#Pubmed_ID N/A
#Smiles CCN(CC)c1cc(C)nc2ncnn12
#INCHI_AUX N/A
#Library_Class 1
#SpectrumID CCMSLIB00000085531
#IonMode Positive
#UpdateWorkflowName UPDATE-SINGLE-ANNOTATED-GOLD
#LibraryQualityString Gold
#TaskID d252d724072548979f1f6f1ced849daf
##Scan# 1245
#SpectrumFile p4-C04_GC4_01_18352.mzXML
#LibraryName Pharm_Active_Library.mgf
#MQScore -1
#Organism Pharm_Active_Library
#TIC_Query 0
#RT_Query -1
#MZErrorPPM -1
#SharedPeaks 0
#MassDiff 0
#LibMZ -1
#SpecMZ 206.145
#SpecCharge 0
#internalFilename spec-00000.mgf

>collision 10
44.905125 156.0
44.914459 112.0
44.923798 360.0
44.941006 196.0
45.013222 116.0
45.100594 192.0
45.121445 168.0
45.13348 356.0
45.188316 136.0
45.300304 180.0
45.385204 156.0
45.394173 168.0
45.446903 196.0
45.480453 68.0
45.538189 148.0
45.567741 76.0
45.583862 192.0
45.612087 100.0
45.741219 188.0
45.76276 152.0
45.778915 176.0
45.861099 216.0
45.900192 108.0
45.921772 120.0
46.118267 172.0
46.177032 164.0
46.200687 148.0
46.213558 176.0
46.271351 200.0
46.311028 128.0
46.365219 164.0
46.378773 192.0
46.411308 176.0
46.450638 216.0
46.46756 164.0
46.485912 156.0
46.571442 220.0
46.633942 184.0
46.722328 156.0
46.798542 184.0
46.816277 176.0
46.840698 176.0
46.863922 156.0
46.911621 232.0
46.938889 160.0
46.963436 52.0
47.004364 184.0
47.045307 204.0
47.05896 96.0
47.105392 192.0
47.132717 160.0
47.151848 128.0
47.228413 164.0
47.27219 48.0
47.296825 152.0
47.312775 208.0
47.324207 100.0
47.348961 156.0
47.484535 52.0
47.540783 152.0
47.557251 212.0
47.586079 192.0
47.599808 140.0
47.620407 220.0
47.775734 232.0
47.812885 128.0
47.869328 156.0
47.892818 140.0
47.927177 180.0
47.967144 176.0
47.985065 56.0
48.033295 144.0
48.078865 196.0
48.091286 180.0
48.171371 180.0
48.247375 136.0
48.334511 136.0
48.405106 192.0
48.434189 48.0
48.452198 152.0
48.51733 180.0
48.531197 148.0
48.568638 44.0
48.653286 196.0
48.699108 164.0
48.723286 248.0
48.825584 188.0
48.858967 316.0
48.870094 128.0
48.890968 192.0
48.911572 184.0
48.974396 208.0
49.002014 192.0
49.058109 160.0
49.091076 180.0
49.113884 60.0
49.16132 168.0
49.183651 216.0
49.199005 224.0
49.330318 212.0
49.452011 148.0
49.474407 104.0
49.505211 132.0
49.539028 192.0
49.561852 176.0
49.590668 208.0
49.65937 108.0
49.712681 228.0
49.784275 156.0
49.865757 152.0
49.887627 156.0
49.932495 196.0
50.030331 148.0
50.076797 160.0
50.133152 212.0
50.171207 72.0
50.30381 244.0
50.343346 52.0
50.35323 196.0
50.36594 164.0
50.381481 176.0
50.453823 188.0
50.510887 176.0
50.555431 144.0
50.60635 156.0
50.63184 96.0
50.661583 132.0
50.701256 168.0
50.76363 172.0
50.782066 220.0
50.811855 132.0
50.913296 232.0
50.942463 220.0
50.999298 160.0
51.031998 148.0
51.07111 208.0
51.151497 160.0
51.182816 132.0
51.225544 136.0
51.236938 196.0
51.295368 92.0
51.423737 140.0
51.476559 188.0
51.589432 84.0
51.616596 152.0
51.64949 144.0
51.663792 180.0
51.685253 112.0
51.702427 144.0
51.749664 188.0
51.789761 116.0
51.810131 180.0
51.824142 48.0
51.875732 112.0
51.951736 136.0
51.968952 212.0
51.984737 184.0
52.036411 76.0
52.101036 108.0
52.14558 296.0
52.239044 184.0
52.259182 196.0
52.440628 140.0
52.488201 232.0
52.536499 168.0
52.557438 144.0
52.579082 180.0
52.603619 136.0
52.61517 48.0
52.629604 104.0
52.801277 140.0
52.959324 168.0
52.991192 56.0
53.036213 180.0
53.07272 108.0
53.121666 44.0
53.134724 184.0
53.156189 136.0
53.266827 160.0
53.349659 100.0
53.384827 156.0
53.439827 188.0
53.505318 128.0
53.618935 184.0
53.632053 244.0
53.698235 224.0
53.777908 176.0
53.796883 180.0
53.826084 136.0
53.87574 232.0
54.017536 144.0
54.037075 124.0
54.067284 236.0
54.096558 212.0
54.194679 172.0
54.219593 196.0
54.241577 200.0
54.290791 148.0
54.29467 188.0
54.31636 192.0
54.328094 184.0
54.342766 140.0
54.386791 116.0
54.412201 168.0
54.438175 176.0
54.530727 112.0
54.583649 152.0
54.632187 148.0
54.643955 204.0
54.688103 228.0
54.711655 140.0
54.721958 184.0
54.737408 292.0
54.863392 156.0
54.925323 336.0
54.937126 148.0
55.006481 248.0
55.064064 172.0
55.093605 208.0
55.174889 164.0
55.195587 148.0
55.259186 92.0
55.346512 236.0
55.379093 124.0
55.441315 164.0
55.496162 160.0
55.539165 124.0
55.610386 28.0
55.640911 244.0
55.775253 136.0
55.800526 172.0
55.926971 84.0
55.940365 196.0
55.979076 80.0
56.013332 108.0
56.028229 208.0
56.175068 200.0
56.19968 180.0
56.212818 184.0
56.234005 144.0
56.328983 236.0
56.35051 204.0
56.363926 148.0
56.38485 108.0
56.429691 124.0
56.580795 160.0
56.676651 156.0
56.709621 180.0
56.726109 292.0
56.756092 72.0
56.789085 148.0
56.825916 268.0
56.855095 148.0
56.98423 100.0
57.003845 152.0
57.04134 116.0
57.051861 228.0
57.078922 128.0
57.214333 156.0
57.250469 132.0
57.380054 160.0
57.514313 164.0
57.588295 152.0
57.677441 112.0
57.698605 188.0
57.729382 180.0
57.739429 212.0
57.783298 180.0
57.842316 108.0
57.955898 164.0
58.062008 168.0
58.14122 208.0
58.204655 156.0
58.225914 128.0
58.291237 164.0
58.318592 196.0
58.373322 116.0
58.387005 120.0
58.403736 176.0
58.431118 100.0
58.482857 132.0
58.581833 160.0
58.747993 176.0
58.842613 156.0
58.90675 112.0
58.931194 152.0
58.970924 208.0
59.018314 140.0
59.064194 176.0
59.133045 212.0
59.166721 40.0
59.183563 204.0
59.221848 168.0
59.24176 188.0
59.27853 168.0
59.299988 176.0
59.319912 144.0
59.407322 180.0
59.420361 208.0
59.499397 160.0
59.514751 132.0
59.577721 160.0
59.61005 184.0
59.64687 48.0
59.662243 216.0
59.674629 140.0
59.699142 128.0
59.718838 184.0
59.758785 160.0
59.782215 108.0
59.794525 92.0
59.82069 164.0
59.836086 184.0
59.899223 156.0
59.911549 128.0
59.960854 240.0
60.024059 120.0
60.071869 164.0
60.09964 172.0
60.122898 164.0
60.207695 116.0
60.237041 200.0
60.343674 120.0
60.385422 56.0
60.454517 248.0
60.486118 256.0
60.558769 112.0
60.749424 44.0
60.760284 68.0
60.822353 148.0
60.867378 136.0
60.884457 240.0
60.960579 152.0
61.016533 68.0
61.072514 164.0
61.217251 176.0
61.25061 248.0
61.274879 196.0
61.304485 152.0
61.352802 60.0
61.383987 168.0
61.46822 120.0
61.486946 160.0
61.533775 164.0
61.546265 144.0
61.725956 180.0
61.741596 116.0
61.782265 136.0
61.794777 236.0
61.822945 56.0
61.866066 160.0
61.893383 160.0
61.999744 116.0
62.10495 152.0
62.128479 116.0
62.293308 152.0
62.304306 136.0
62.367161 176.0
62.382877 164.0
62.401745 180.0
62.426903 148.0
62.456783 196.0
62.478806 132.0
62.49139 208.0
62.507996 236.0
62.629925 208.0
62.7355 200.0
62.876644 140.0
62.939022 164.0
63.128639 240.0
63.157108 48.0
63.171345 144.0
63.225239 192.0
63.255211 60.0
63.284946 128.0
63.297863 204.0
63.389832 100.0
63.52301 156.0
63.580128 132.0
63.692585 164.0
63.73098 168.0
63.804092 112.0
63.847023 204.0
63.897923 104.0
63.926563 172.0
63.959984 148.0
63.979088 168.0
63.993416 168.0
64.096947 156.0
64.122444 176.0
64.177422 212.0
64.339378 132.0
64.550278 92.0
64.59346 188.0
64.757034 204.0
64.799973 176.0
64.824005 156.0
64.86087 32.0
64.881432 164.0
64.920189 120.0
64.961891 172.0
64.999611 196.0
65.057487 256.0
65.232246 344.0
65.258301 120.0
65.300804 164.0
65.313675 184.0
65.34906 124.0
65.38694 156.0
65.402168 160.0
65.428078 172.0
65.497169 216.0
65.508446 180.0
65.587402 144.0
65.606743 128.0
65.645439 228.0
65.68737 240.0
65.718025 148.0
65.732544 172.0
65.769669 116.0
65.876236 220.0
65.950844 140.0
66.02494 184.0
66.09935 100.0
66.17057 216.0
66.214287 148.0
66.274223 208.0
66.330048 208.0
66.455818 176.0
66.527229 48.0
66.585701 276.0
66.634415 160.0
66.694496 156.0
66.748184 168.0
66.878334 136.0
66.975182 192.0
67.031174 184.0
67.08683 148.0
67.121071 160.0
67.134117 204.0
67.155319 160.0
67.171631 236.0
67.204254 148.0
67.289124 116.0
67.302185 132.0
67.339745 204.0
67.370781 188.0
67.496628 224.0
67.558777 32.0
67.694626 316.0
67.724106 220.0
67.758507 200.0
67.781441 264.0
67.799469 192.0
67.928337 120.0
68.029099 164.0
68.222939 168.0
68.282242 176.0
68.303513 128.0
68.367393 208.0
68.449989 64.0
68.469749 144.0
68.522461 204.0
68.644432 156.0
68.679062 136.0
68.791267 32.0
68.88044 68.0
68.951485 188.0
68.984543 208.0
69.030838 148.0
69.050682 180.0
69.088806 196.0
69.116852 168.0
69.227753 136.0
69.245972 168.0
69.317207 144.0
69.340408 32.0
69.381844 240.0
69.396767 160.0
69.511215 180.0
69.56765 152.0
69.590889 180.0
69.602509 76.0
69.64901 100.0
69.673927 92.0
69.685562 220.0
69.743721 132.0
69.818535 140.0
69.895058 216.0
69.964249 176.0
70.011581 132.0
70.083206 100.0
70.126534 192.0
70.143204 148.0
70.181549 184.0
70.196556 160.0
70.219902 156.0
70.24826 176.0
70.340729 192.0
70.390121 168.0
70.423195 164.0
70.445236 172.0
70.462166 180.0
70.498108 260.0
70.518753 196.0
70.685989 96.0
70.708885 164.0
70.813217 136.0
70.845047 168.0
70.869431 184.0
70.947266 140.0
71.017693 168.0
71.03447 128.0
71.049568 152.0
71.101913 164.0
71.116684 176.0
71.289673 164.0
71.303116 104.0
71.354004 160.0
71.538597 172.0
71.59584 204.0
71.656479 140.0
71.69355 172.0
71.781204 272.0
71.912796 176.0
71.98539 228.0
72.000511 180.0
72.185699 236.0
72.238907 152.0
72.265419 180.0
72.277817 60.0
72.325203 156.0
72.411552 68.0
72.460678 200.0
72.484398 132.0
72.511192 192.0
72.575928 196.0
72.599663 124.0
72.643761 176.0
72.703148 212.0
72.737091 108.0
72.757462 224.0
72.769348 128.0
72.795784 216.0
72.869553 184.0
72.980026 184.0
73.002129 228.0
73.051453 100.0
73.073624 128.0
73.224548 184.0
73.272766 248.0
73.289803 244.0
73.322182 336.0
73.342628 144.0
73.378433 180.0
73.484169 144.0
73.564812 160.0
73.608772 104.0
73.714676 152.0
73.791595 148.0
73.839577 132.0
73.899345 192.0
74.020874 200.0
74.17849 128.0
74.200775 264.0
74.245361 132.0
74.288239 152.0
74.414665 216.0
74.435837 104.0
74.617966 176.0
74.636879 152.0
74.654076 168.0
74.683311 204.0
74.784828 152.0
74.803757 128.0
74.872627 56.0
74.884682 192.0
74.951866 168.0
74.972549 212.0
74.989784 132.0
75.030518 164.0
75.094955 176.0
75.214005 188.0
75.243355 180.0
75.264069 188.0
75.300339 224.0
75.346977 148.0
75.391899 164.0
75.40918 108.0
75.527763 212.0
75.57 196.0
75.616722 124.0
75.634033 140.0
75.668655 180.0
75.869614 128.0
76.015305 116.0
76.044807 184.0
76.128143 168.0
76.157669 172.0
76.232368 72.0
76.258438 220.0
76.287987 176.0
76.434982 116.0
76.454964 100.0
76.509727 172.0
76.533295 124.0
76.598061 128.0
76.625603 124.0
76.648254 204.0
76.660454 176.0
76.775505 168.0
76.796631 180.0
76.892395 36.0
76.909843 172.0
76.932541 108.0
76.977936 216.0
76.998886 208.0
77.058281 196.0
77.103714 168.0
77.17392 196.0
77.19986 128.0
77.31707 152.0
77.474655 184.0
77.569283 232.0
77.590981 184.0
77.634155 168.0
77.671562 232.0
77.706779 112.0
77.728882 184.0
77.769241 44.0
77.794106 196.0
77.890396 192.0
77.946617 164.0
77.964188 168.0
78.016922 168.0
78.066147 112.0
78.101326 148.0
78.212173 156.0
78.309013 144.0
78.323105 144.0
78.347038 116.0
78.397102 88.0
78.420013 212.0
78.469368 52.0
78.513451 156.0
78.550491 136.0
78.566368 156.0
78.582245 116.0
78.608711 160.0
78.654594 124.0
78.689903 136.0
78.703705 152.0
78.810005 192.0
78.827675 160.0
78.923126 136.0
79.039864 196.0
79.057556 196.0
79.146065 128.0
79.162354 224.0
79.215134 104.0
79.235664 116.0
79.249077 200.0
79.333862 196.0
79.353363 84.0
79.401245 208.0
79.500587 120.0
79.553833 176.0
79.607101 120.0
79.658607 152.0
79.695915 188.0
79.735008 140.0
79.815002 208.0
79.827446 200.0
79.861206 200.0
79.867554 160.0
79.893257 76.0
79.939514 80.0
80.06057 248.0
80.138947 184.0
80.195969 140.0
80.295807 176.0
80.354675 200.0
80.433197 176.0
80.445686 52.0
80.479607 200.0
80.540329 148.0
80.56176 176.0
80.617149 180.0
80.635025 248.0
80.761963 152.0
80.846054 228.0
80.869316 184.0
80.96241 188.0
81.059143 156.0
81.084236 204.0
81.139801 104.0
81.206146 152.0
81.229469 128.0
81.301231 232.0
81.322769 136.0
81.457314 232.0
81.511337 160.0
81.554466 180.0
81.647957 176.0
81.718109 184.0
81.757698 132.0
81.899925 152.0
81.914337 184.0
81.963066 168.0
82.006233 188.0
82.101784 120.0
82.174194 136.0
82.186203 100.0
82.199196 64.0
82.258751 128.0
82.282219 196.0
82.339798 248.0
82.379509 160.0
82.471893 100.0
82.50161 136.0
82.51889 224.0
82.533356 132.0
82.603889 116.0
82.664963 160.0
82.703407 92.0
82.759529 268.0
82.797592 192.0
82.88578 244.0
83.038597 180.0
83.09301 160.0
83.236397 160.0
83.269089 104.0
83.356285 124.0
83.379913 204.0
83.405357 212.0
83.461716 140.0
83.614517 148.0
83.692795 176.0
83.853096 176.0
83.960663 152.0
84.000786 164.0
84.123047 112.0
84.17234 104.0
84.236259 192.0
84.275879 140.0
84.333107 136.0
84.373009 212.0
84.457436 200.0
84.499512 228.0
84.539764 208.0
84.710411 216.0
84.750343 144.0
84.76683 56.0
84.872787 204.0
84.90065 148.0
84.953842 136.0
84.981361 96.0
85.012558 36.0
85.05172 140.0
85.082306 60.0
85.197998 84.0
85.229233 56.0
85.262306 204.0
85.308258 168.0
85.376289 160.0
85.402039 180.0
85.558449 84.0
85.639473 176.0
85.652359 196.0
85.875389 148.0
85.949181 232.0
86.002693 200.0
86.039612 144.0
86.052536 76.0
86.102394 152.0
86.119019 152.0
86.172585 168.0
86.222481 224.0
86.248352 124.0
86.272385 116.0
86.320457 116.0
86.357437 148.0
86.46048 180.0
86.490662 192.0
86.570267 68.0
86.608345 152.0
86.651764 80.0
86.694725 152.0
86.714767 244.0
86.781502 212.0
86.902061 136.0
86.958633 296.0
87.01899 140.0
87.093269 244.0
87.16758 148.0
87.243065 156.0
87.320015 180.0
87.433502 152.0
87.46328 88.0
87.477737 136.0
87.502373 132.0
87.515411 280.0
87.547066 148.0
87.560097 208.0
87.578804 184.0
87.599213 104.0
87.619705 148.0
87.684921 176.0
87.697968 124.0
87.898155 104.0
87.919907 100.0
87.981499 116.0
88.132782 40.0
88.149597 184.0
88.183235 188.0
88.216881 156.0
88.233704 148.0
88.317856 180.0
88.564919 208.0
88.621124 200.0
88.6511 176.0
88.688583 164.0
88.712952 176.0
88.870491 192.0
88.94931 180.0
89.086388 92.0
89.114571 180.0
89.155907 180.0
89.184097 136.0
89.321358 100.0
89.355217 184.0
89.40979 168.0
89.566055 188.0
89.603737 120.0
89.618805 168.0
89.673454 72.0
89.748199 148.0
89.755142 96.0
89.765289 180.0
89.829956 100.0
89.862022 140.0
89.943169 132.0
89.997917 180.0
90.022469 180.0
90.047012 220.0
90.145653 168.0
90.254883 172.0
90.317291 208.0
90.341934 160.0
90.447853 168.0
90.466782 136.0
90.59977 176.0
90.622078 104.0
90.661865 164.0
90.783195 108.0
90.800262 168.0
90.862854 180.0
90.978622 144.0
91.008995 160.0
91.115356 204.0
91.187561 116.0
91.24649 180.0
91.290222 84.0
91.362495 216.0
91.469063 240.0
91.539505 176.0
91.552834 128.0
91.682373 340.0
91.720497 140.0
91.79866 140.0
91.831078 132.0
91.924561 140.0
91.997086 188.0
92.024704 676.0
92.09256 196.0
92.107841 232.0
92.161331 136.0
92.245422 172.0
92.305344 244.0
92.352104 116.0
92.398407 164.0
92.417542 92.0
92.465378 164.0
92.523979 284.0
92.551521 336.0
92.584076 216.0
92.664528 168.0
92.699013 192.0
92.733513 152.0
92.768013 152.0
92.927185 88.0
93.005089 188.0
93.028282 244.0
93.046532 368.0
93.080742 180.0
93.130669 56.0
93.326683 52.0
93.370911 176.0
93.397842 160.0
93.420921 144.0
93.470947 168.0
93.520981 180.0
93.569107 184.0
93.588509 156.0
93.636497 136.0
93.651909 164.0
93.836899 148.0
93.850395 184.0
93.887032 188.0
93.987343 176.0
94.005768 212.0
94.036011 200.0
94.065643 512.0
94.360107 176.0
94.375572 184.0
94.410378 124.0
94.555893 116.0
94.63678 156.0
94.707268 220.0
94.749107 128.0
94.838249 104.0
94.964272 44.0
95.014534 212.0
95.03463 312.0
95.063858 360.0
95.236 156.0
95.258568 220.0
95.325363 224.0
95.344795 176.0
95.459496 192.0
95.478935 156.0
95.556389 456.0
95.622902 220.0
95.792305 176.0
95.922859 148.0
96.000847 132.0
96.055519 780.0
96.081329 152.0
96.121788 220.0
96.170578 148.0
96.44989 204.0
96.470345 172.0
96.5672 180.0
96.610229 208.0
96.702202 52.0
96.778542 224.0
96.830292 188.0
96.907814 164.0
97.011681 44.0
97.035202 216.0
97.05481 172.0
97.076111 172.0
97.199959 148.0
97.338135 164.0
97.35968 220.0
97.408066 224.0
97.433212 140.0
97.455215 188.0
97.643929 44.0
97.754089 168.0
97.866287 220.0
97.958855 156.0
98.006134 184.0
98.021896 168.0
98.071167 172.0
98.096222 152.0
98.1259 148.0
98.159882 140.0
98.193405 196.0
98.216957 208.0
98.251305 204.0
98.370987 216.0
98.50605 372.0
98.523041 196.0
98.570457 188.0
98.614525 188.0
98.669281 152.0
98.744423 136.0
98.803764 212.0
98.843338 172.0
98.920517 84.0
99.164146 180.0
99.245422 176.0
99.267235 108.0
99.316818 112.0
99.531143 92.0
99.699997 216.0
99.751671 164.0
99.785469 232.0
99.819267 184.0
99.88092 156.0
99.919632 200.0
99.95652 164.0
100.170586 204.0
100.235291 164.0
100.279137 232.0
100.384796 176.0
100.454124 184.0
100.486176 208.0
100.52243 152.0
100.670151 176.0
100.704102 144.0
100.951912 48.0
100.988876 108.0
101.051926 132.0
101.208046 236.0
101.238075 164.0
101.344238 220.0
101.374298 140.0
101.43763 180.0
101.528656 184.0
101.560745 140.0
101.670227 176.0
101.761421 180.0
101.800079 236.0
101.847771 144.0
101.879913 132.0
101.922104 220.0
102.040688 52.0
102.10704 108.0
102.197563 140.0
102.245857 60.0
102.300583 168.0
102.483467 180.0
102.539894 112.0
102.578331 172.0
102.594315 52.0
102.660851 188.0
102.707237 184.0
102.735481 212.0
102.838387 128.0
102.866646 208.0
102.956131 212.0
102.978798 184.0
103.03022 140.0
103.054459 136.0
103.082748 132.0
103.208076 168.0
103.238403 136.0
103.274124 224.0
103.351685 144.0
103.369461 208.0
103.519684 168.0
103.546013 156.0
103.748642 200.0
103.800812 180.0
103.832176 220.0
103.916969 168.0
104.020462 164.0
104.126045 104.0
104.207298 216.0
104.280457 160.0
104.300781 180.0
104.345505 176.0
104.428871 168.0
104.469551 240.0
104.535759 148.0
104.541786 80.0
104.548042 188.0
104.563148 200.0
104.605896 204.0
104.726028 136.0
104.772881 144.0
104.83197 136.0
104.848274 204.0
104.863464 228.0
104.9869 472.0
105.045113 360.0
105.097046 220.0
105.123573 132.0
105.244003 140.0
105.264427 84.0
105.397194 164.0
105.44828 52.0
105.532097 172.0
105.681404 168.0
105.707588 196.0
105.72847 164.0
105.744843 156.0
105.765305 172.0
105.847198 384.0
105.906586 208.0
105.922974 52.0
106.042213 484.0
106.170967 132.0
106.201736 176.0
106.261223 172.0
106.296104 156.0
106.355621 136.0
106.3992 260.0
106.424561 172.0
106.464943 224.0
106.539169 176.0
106.624672 128.0
106.645226 40.0
106.673515 168.0
106.741844 204.0
106.791206 444.0
106.867317 160.0
106.933167 148.0
106.988739 148.0
107.057076 372.0
107.134399 104.0
107.139832 164.0
107.186462 216.0
107.209129 144.0
107.254471 140.0
107.283333 52.0
107.359619 104.0
107.491638 128.0
107.604973 176.0
107.625809 128.0
107.654716 116.0
107.746964 200.0
107.797256 192.0
107.817917 220.0
107.844788 220.0
107.906799 216.0
107.925407 124.0
107.984306 208.0
108.056564 24988.0
108.118248 160.0
108.139587 208.0
108.153976 172.0
108.188156 64.0
108.261459 208.0
108.277191 256.0
108.320686 144.0
108.351761 164.0
108.388824 36.0
108.426361 76.0
108.468338 188.0
108.503052 56.0
108.529495 148.0
108.559036 140.0
108.590141 48.0
108.623329 160.0
108.646729 132.0
108.674889 236.0
108.736198 200.0
108.756126 196.0
108.79641 128.0
108.819946 140.0
108.82576 220.0
108.867142 160.0
108.889 228.0
108.916 84.0
108.951866 136.0
108.96769 136.0
108.97625 176.0
108.992981 400.0
109.008591 340.0
109.029167 376.0
109.052101 67068.0
109.117149 164.0
109.151802 208.0
109.212341 132.0
109.242355 80.0
109.267319 52.0
109.295273 64.0
109.312775 52.0
109.340889 156.0
109.358528 48.0
109.393738 572.0
109.419243 212.0
109.46505 180.0
109.47963 84.0
109.50103 176.0
109.521278 76.0
109.540024 80.0
109.557327 196.0
109.586021 196.0
109.604607 104.0
109.631699 60.0
109.654129 152.0
109.673172 124.0
109.680679 116.0
109.733231 108.0
109.748016 68.0
109.787041 124.0
109.810989 160.0
109.85199 128.0
109.857773 140.0
109.86367 188.0
109.887032 44.0
109.917641 64.0
109.942421 316.0
109.959122 76.0
109.996689 168.0
110.05368 4572.0
110.095627 288.0
110.112869 56.0
110.142853 56.0
110.22522 76.0
110.282845 60.0
110.353287 184.0
110.370644 88.0
110.52787 48.0
110.586121 184.0
110.627541 208.0
110.64682 68.0
110.665665 76.0
110.694977 168.0
110.711731 40.0
110.734772 112.0
110.755714 92.0
110.770378 248.0
110.800377 200.0
110.825211 92.0
110.857674 132.0
110.888489 108.0
110.901794 156.0
110.938019 160.0
110.956886 88.0
110.9972 212.0
111.028175 152.0
111.049248 344.0
111.169182 308.0
111.244926 196.0
111.274223 200.0
111.309372 76.0
111.324074 84.0
111.432068 192.0
111.473213 48.0
111.492126 92.0
111.626671 76.0
111.733932 56.0
111.748665 64.0
111.769707 184.0
111.797058 140.0
111.866516 148.0
111.908623 144.0
111.950378 144.0
112.296356 32.0
112.361748 80.0
112.504478 212.0
112.528481 132.0
112.558037 176.0
112.634064 152.0
112.665749 192.0
112.703781 96.0
112.722801 152.0
112.839401 96.0
112.993439 96.0
113.080788 172.0
113.166985 140.0
113.195641 128.0
113.313126 128.0
113.351257 212.0
113.561134 184.0
113.692673 228.0
113.847641 84.0
113.871002 148.0
114.006966 164.0
114.230217 160.0
114.338722 156.0
114.38768 180.0
114.538864 68.0
114.568687 128.0
114.666702 168.0
114.754097 104.0
114.835129 56.0
114.969536 216.0
114.993011 136.0
115.010086 128.0
115.0784 92.0
115.187309 84.0
115.204399 128.0
115.356125 148.0
115.39888 64.0
115.488693 176.0
115.574265 176.0
115.715523 84.0
115.852585 192.0
116.026169 88.0
116.041176 176.0
116.088348 160.0
116.16127 172.0
116.187012 92.0
116.247093 112.0
116.263428 184.0
116.307182 132.0
116.339378 144.0
116.373734 132.0
116.399498 240.0
116.67881 256.0
116.756218 156.0
116.924026 92.0
116.947701 80.0
116.986443 124.0
117.072655 100.0
117.102715 296.0
117.156563 132.0
117.320938 132.0
117.356216 156.0
117.432472 68.0
117.523079 68.0
117.596443 132.0
117.715179 156.0
117.867638 248.0
117.887993 100.0
117.937706 128.0
117.95443 276.0
118.070343 192.0
118.086891 152.0
118.373909 168.0
118.504677 96.0
118.535011 140.0
118.665054 144.0
118.886307 108.0
118.944901 100.0
118.960098 64.0
118.997002 52.0
119.043617 248.0
119.058327 200.0
119.099068 176.0
119.195961 240.0
119.235947 140.0
119.359856 76.0
119.375076 168.0
119.472137 128.0
119.540398 204.0
119.562164 96.0
119.61216 152.0
119.676338 140.0
119.74939 184.0
119.819099 164.0
119.875748 196.0
119.909378 176.0
120.013824 208.0
120.054855 1344.0
120.080574 188.0
120.128654 56.0
120.170105 128.0
120.235565 140.0
120.287949 140.0
120.340347 208.0
120.453903 172.0
120.573654 188.0
120.606926 136.0
120.757721 176.0
120.915245 48.0
120.941505 152.0
120.998421 152.0
121.033455 48.0
121.053123 440.0
121.071533 388.0
121.230598 108.0
121.316078 228.0
121.423515 176.0
121.557335 88.0
121.653908 112.0
121.669273 112.0
121.68605 156.0
121.844963 180.0
121.915718 80.0
122.061462 760.0
122.09404 576.0
122.121933 252.0
122.246803 184.0
122.507309 100.0
122.533569 140.0
122.656982 92.0
122.705475 156.0
122.758392 240.0
122.795258 196.0
123.069267 1008.0
123.142052 208.0
123.33461 208.0
123.414482 220.0
123.509293 152.0
123.535835 136.0
123.553535 160.0
123.792572 168.0
123.847939 44.0
123.896675 64.0
123.97644 148.0
124.049583 104.0
124.067596 156.0
124.087021 436.0
124.113541 292.0
124.158226 64.0
124.211456 208.0
124.229202 172.0
124.373428 124.0
124.441559 124.0
124.646591 184.0
124.822197 168.0
124.860001 44.0
124.900032 192.0
124.944527 136.0
125.05545 212.0
125.061768 180.0
125.0989 140.0
125.343063 104.0
125.405464 60.0
125.515511 104.0
125.599442 144.0
125.635132 192.0
125.876183 96.0
125.923119 208.0
125.956581 88.0
126.066589 1428.0
126.128632 144.0
126.171104 212.0
126.208084 156.0
126.365677 64.0
126.418411 204.0
126.450706 132.0
126.681335 48.0
126.726143 196.0
126.945808 52.0
126.972054 176.0
127.015327 164.0
127.066902 580.0
127.120773 56.0
127.145462 40.0
127.304848 144.0
127.320572 92.0
127.363243 156.0
127.448608 140.0
127.563225 228.0
127.605942 144.0
127.691948 192.0
127.711632 184.0
127.763367 124.0
127.830864 212.0
127.855621 172.0
127.871376 160.0
127.899101 144.0
127.941154 204.0
127.967613 196.0
127.974739 148.0
127.982117 184.0
128.033463 148.0
128.132584 128.0
128.168625 268.0
128.188904 148.0
128.229477 100.0
128.265533 136.0
128.357971 40.0
128.461716 152.0
129.030807 148.0
129.062363 188.0
129.22757 228.0
129.345245 144.0
129.388245 200.0
129.560364 124.0
129.635132 148.0
129.941238 120.0
130.011581 128.0
130.054703 188.0
130.070587 120.0
130.129608 148.0
130.163666 156.0
130.184113 132.0
130.340836 164.0
130.397659 80.0
130.443115 128.0
130.722855 144.0
130.816177 136.0
130.863983 172.0
131.066254 212.0
131.123657 76.0
131.160904 140.0
131.29921 220.0
131.472595 208.0
131.531921 92.0
131.680344 100.0
131.808273 172.0
131.981979 76.0
132.011703 88.0
132.068237 300.0
132.20845 208.0
132.343491 236.0
132.377838 140.0
132.434143 288.0
132.519852 188.0
132.535889 128.0
132.604645 152.0
132.790344 68.0
132.847687 316.0
132.909637 208.0
132.969299 112.0
133.050797 2852.0
133.10704 36.0
133.189713 212.0
133.217285 160.0
133.325272 52.0
133.389618 44.0
133.451691 132.0
133.585083 56.0
133.674805 136.0
133.780685 112.0
133.814301 152.0
133.881729 104.0
133.955688 132.0
133.974472 200.0
133.999466 108.0
134.058182 4400.0
134.119293 248.0
134.137726 64.0
134.188446 140.0
134.273773 172.0
134.324509 120.0
134.421402 144.0
134.580673 160.0
134.663803 40.0
134.767761 140.0
134.797791 132.0
134.823212 188.0
134.964218 136.0
135.005844 184.0
135.065689 3248.0
135.126129 32.0
135.160828 116.0
135.190918 96.0
135.230255 136.0
135.364532 60.0
135.429367 116.0
135.491913 176.0
135.684265 152.0
135.714417 124.0
135.763107 144.0
135.974213 52.0
136.015991 116.0
136.049622 156.0
136.086304 2232.0
136.139038 152.0
136.250534 44.0
136.297729 256.0
136.384384 84.0
136.434128 164.0
136.50119 180.0
136.699936 184.0
136.750473 208.0
136.78772 176.0
136.883041 208.0
136.96701 168.0
136.994965 152.0
137.022049 144.0
137.035767 160.0
137.082703 10656.0
137.148758 300.0
137.182236 212.0
137.273941 120.0
137.320724 180.0
137.374939 52.0
137.475586 88.0
137.526611 160.0
137.556946 292.0
137.57637 176.0
137.623672 152.0
137.655014 64.0
137.820847 156.0
137.867584 76.0
137.923676 88.0
138.003159 100.0
138.035889 108.0
138.061615 128.0
138.084244 1180.0
138.141144 76.0
138.227707 64.0
138.246429 56.0
138.302597 48.0
138.472 136.0
138.513336 40.0
138.532074 152.0
138.597672 108.0
138.667969 56.0
138.80629 48.0
138.960083 212.0
138.984543 56.0
139.003326 28.0
139.081482 184.0
139.12117 168.0
139.167633 52.0
139.184067 56.0
139.259216 216.0
139.475372 156.0
139.552948 104.0
139.690216 228.0
139.802277 80.0
139.992966 156.0
140.122513 172.0
140.157852 184.0
140.32991 216.0
140.41008 132.0
140.542191 164.0
140.700317 204.0
140.801849 176.0
140.938858 180.0
141.137405 224.0
141.213074 176.0
141.388138 52.0
141.425522 172.0
141.520706 80.0
141.610687 140.0
141.655701 92.0
141.688858 232.0
141.731506 212.0
141.750458 208.0
141.921127 132.0
142.125977 208.0
142.203415 124.0
142.322113 196.0
142.38147 64.0
142.416122 136.0
142.640457 128.0
142.8069 168.0
142.883011 56.0
143.016266 200.0
143.213898 104.0
143.635773 188.0
143.721664 228.0
143.788483 96.0
143.817123 128.0
144.115631 140.0
144.172974 104.0
144.24707 60.0
144.512527 160.0
144.543915 164.0
144.692017 208.0
144.708771 188.0
144.747086 212.0
144.778214 144.0
145.04895 156.0
145.171234 112.0
145.226379 152.0
145.322342 136.0
145.408722 156.0
145.485535 168.0
145.814606 184.0
145.879501 104.0
145.917969 144.0
145.949219 64.0
146.026184 208.0
146.061462 208.0
146.075302 244.0
146.211426 152.0
146.247528 176.0
146.290848 172.0
146.331787 132.0
146.394379 156.0
146.647339 188.0
146.69928 184.0
146.85228 112.0
146.934296 148.0
147.016327 168.0
147.063278 192.0
147.090546 300.0
147.270401 188.0
147.368866 104.0
147.388199 128.0
147.686905 164.0
147.95575 200.0
148.000153 248.0
148.074615 2184.0
148.141861 72.0
148.160004 160.0
148.353867 192.0
148.378113 40.0
148.475098 108.0
148.528458 140.0
148.591537 220.0
148.607025 156.0
148.669174 196.0
148.722565 132.0
148.766266 104.0
148.858521 88.0
148.93515 124.0
149.026123 64.0
149.078461 1604.0
149.111176 156.0
149.128189 64.0
149.198669 116.0
149.254593 136.0
149.401215 228.0
149.422409 192.0
149.480804 76.0
149.546524 188.0
149.634155 176.0
149.67067 132.0
149.709641 244.0
149.79245 140.0
149.823471 200.0
149.860397 148.0
149.868484 132.0
149.875885 176.0
149.92157 360.0
149.941071 236.0
149.988205 368.0
150.014191 52.0
150.035736 196.0
150.078415 59072.0
150.115173 352.0
150.138382 232.0
150.179993 68.0
150.211716 156.0
150.243423 48.0
150.274902 296.0
150.298508 56.0
150.30249 132.0
150.321503 36.0
150.377625 36.0
150.427139 224.0
150.479172 64.0
150.529526 72.0
150.568542 64.0
150.582489 44.0
150.686523 212.0
150.741501 36.0
150.761047 76.0
150.790375 120.0
150.853104 236.0
150.871033 80.0
150.88974 120.0
150.974747 96.0
151.003983 68.0
151.080246 4560.0
151.186569 100.0
151.256073 100.0
151.311401 44.0
151.333435 84.0
151.362808 56.0
151.379959 80.0
151.482819 80.0
151.55632 72.0
151.637177 72.0
151.656784 72.0
151.788361 48.0
151.81369 124.0
151.899536 56.0
151.938782 72.0
152.04921 104.0
152.078445 560.0
152.103302 180.0
152.113708 228.0
152.124771 244.0
152.171936 136.0
152.201401 188.0
152.230865 104.0
152.248062 104.0
152.28981 112.0
152.346298 92.0
152.370529 144.0
152.476532 112.0
152.59697 140.0
152.718491 68.0
152.874924 176.0
152.956146 68.0
153.126022 176.0
153.207321 124.0
153.263977 168.0
153.399521 108.0
153.586929 100.0
153.734955 228.0
153.80159 136.0
153.838623 136.0
153.981827 164.0
154.033691 148.0
154.065811 172.0
154.123398 156.0
154.182236 164.0
154.261032 124.0
154.609772 84.0
154.783051 176.0
155.033249 164.0
155.05957 176.0
155.122467 144.0
155.224121 56.0
155.268753 172.0
155.310928 176.0
155.48764 196.0
155.593811 152.0
155.621124 244.0
155.862045 188.0
155.894348 184.0
155.981339 56.0
156.018631 140.0
156.078293 104.0
156.456467 124.0
156.650711 156.0
156.673126 92.0
156.805191 212.0
156.852554 60.0
156.939804 124.0
156.982193 104.0
157.100845 168.0
157.468826 192.0
157.831177 236.0
157.920532 148.0
157.943726 172.0
158.081314 124.0
158.501999 52.0
158.762695 72.0
158.792786 152.0
158.837936 216.0
159.027588 192.0
159.086899 188.0
159.400314 128.0
159.445541 132.0
159.870544 164.0
159.928436 124.0
159.95108 100.0
160.052811 148.0
160.060852 60.0
160.068588 184.0
160.108444 228.0
160.348267 144.0
160.429703 168.0
160.512894 168.0
160.570892 148.0
160.593597 104.0
160.697021 80.0
160.911926 240.0
161.025177 92.0
161.084534 344.0
161.106003 248.0
161.12709 208.0
161.462402 156.0
161.558517 108.0
161.654663 192.0
161.745911 176.0
161.796402 240.0
161.874893 136.0
161.892609 152.0
161.911972 212.0
161.922043 136.0
161.945801 192.0
161.996704 316.0
162.018143 392.0
162.078094 76512.0
162.176437 156.0
162.204712 44.0
162.222336 116.0
162.258163 120.0
162.282196 56.0
162.305878 92.0
162.332184 52.0
162.35582 204.0
162.400284 76.0
162.424316 132.0
162.46048 84.0
162.495407 300.0
162.546631 96.0
162.563797 52.0
162.580734 72.0
162.607529 100.0
162.632523 100.0
162.692352 164.0
162.724289 48.0
162.745483 220.0
162.803009 60.0
162.836029 60.0
162.858887 116.0
162.896988 76.0
162.930008 60.0
162.962677 56.0
162.989456 60.0
163.026566 28.0
163.081894 7348.0
163.143478 136.0
163.1689 40.0
163.219116 48.0
163.257889 52.0
163.29985 72.0
163.33902 80.0
163.390152 116.0
163.410507 96.0
163.43634 52.0
163.458588 76.0
163.486847 72.0
163.591202 64.0
163.617371 128.0
163.641983 140.0
163.71669 84.0
163.809708 204.0
163.842102 84.0
163.878983 72.0
163.89682 80.0
163.925186 120.0
163.987762 184.0
164.112167 464.0
164.146606 112.0
164.187408 116.0
164.221848 168.0
164.291168 124.0
164.319046 116.0
164.337906 140.0
164.358322 124.0
164.383835 64.0
164.409363 88.0
164.462006 236.0
164.590698 104.0
164.616135 96.0
164.690201 204.0
164.777054 80.0
164.823044 44.0
164.973831 128.0
165.114456 136.0
165.198868 112.0
165.221893 104.0
165.24115 124.0
165.395889 44.0
165.442734 120.0
165.505981 252.0
165.659286 136.0
166.013336 176.0
166.049026 2024.0
166.098404 168.0
166.133881 104.0
166.15184 72.0
166.182632 184.0
166.251907 44.0
166.310944 192.0
166.721863 72.0
166.904373 68.0
167.045776 476.0
167.048782 168.0
167.138443 60.0
167.723038 184.0
168.277664 136.0
168.556625 128.0
168.62381 104.0
168.877182 132.0
169.006531 68.0
169.076401 124.0
169.216171 52.0
169.270554 48.0
169.485535 184.0
169.679916 148.0
169.7603 92.0
170.144302 184.0
170.650925 168.0
170.72113 176.0
171.085388 40.0
171.20517 192.0
171.847733 180.0
171.966431 128.0
171.995132 148.0
172.136124 120.0
172.329407 144.0
172.358139 40.0
172.733307 168.0
173.090546 116.0
173.50975 44.0
173.588409 180.0
173.612015 116.0
173.79039 40.0
174.094879 112.0
174.278748 56.0
174.506424 128.0
174.546844 208.0
174.565262 64.0
174.641525 36.0
174.722656 76.0
174.768341 228.0
174.807861 124.0
174.896744 168.0
175.015213 72.0
175.218002 180.0
175.310226 176.0
175.571213 212.0
175.674072 168.0
175.740036 112.0
175.930054 108.0
175.96965 56.0
176.006622 80.0
176.093842 5380.0
176.265472 108.0
176.323929 68.0
176.397614 132.0
176.524521 216.0
176.654114 60.0
176.704376 168.0
176.730835 36.0
176.83934 144.0
176.987579 48.0
177.068634 152.0
177.09581 572.0
177.138535 148.0
177.172974 100.0
177.294861 120.0
177.329041 116.0
177.398224 144.0
177.479645 248.0
177.546707 160.0
177.757248 284.0
177.806473 192.0
177.883667 172.0
177.912872 48.0
177.950043 244.0
177.994583 180.0
178.034073 192.0
178.074097 144.0
178.109497 59104.0
178.180557 168.0
178.296677 112.0
178.337875 116.0
178.37468 132.0
178.421097 48.0
178.453644 92.0
178.470795 132.0
178.48941 40.0
178.510681 64.0
178.551376 172.0
178.559143 220.0
178.619904 60.0
178.647522 88.0
178.758667 180.0
178.885284 40.0
178.939056 64.0
178.960358 108.0
179.034912 128.0
179.111359 3768.0
179.338638 56.0
179.357285 60.0
179.405273 76.0
179.442596 68.0
179.49971 76.0
179.527924 84.0
179.629272 64.0
179.784012 120.0
179.808029 172.0
179.869431 64.0
179.992233 172.0
180.016266 112.0
180.049744 56.0
180.113983 316.0
180.156311 120.0
180.180267 100.0
180.199234 80.0
180.23262 164.0
180.320007 92.0
180.366241 152.0
180.392975 60.0
180.422379 72.0
180.470505 60.0
180.523987 96.0
180.574142 164.0
180.609573 64.0
180.628296 88.0
180.668411 88.0
180.72728 172.0
181.016357 64.0
181.809845 76.0
182.129745 812.0
182.169632 140.0
182.271713 84.0
182.693329 192.0
182.771851 56.0
183.847015 72.0
183.91449 132.0
184.438492 160.0
184.633148 108.0
185.109436 156.0
185.664963 236.0
186.476715 164.0
186.653412 72.0
187.505463 68.0
187.617218 84.0
187.911758 96.0
188.095123 220.0
188.351273 112.0
188.46875 176.0
188.62178 92.0
188.788559 104.0
188.859665 60.0
189.182556 92.0
189.55777 72.0
189.67836 180.0
190.107941 6124.0
190.158356 40.0
190.18306 148.0
190.232468 56.0
190.787369 68.0
191.010117 144.0
191.110596 512.0
191.168411 180.0
191.307312 56.0
191.673599 152.0
191.874802 64.0
192.116272 144.0
192.244415 48.0
192.30513 88.0
192.879623 176.0
193.164444 72.0
193.360886 116.0
193.920334 64.0
195.076843 152.0
195.25296 128.0
195.592407 48.0
195.731598 44.0
195.776154 196.0
196.010147 116.0
196.272156 64.0
196.369766 168.0
196.701797 156.0
197.347137 60.0
197.4422 204.0
197.556885 200.0
197.945908 88.0
199.227661 96.0
199.250137 68.0
199.533981 64.0
200.564285 128.0
201.294968 168.0
201.326035 160.0
201.741379 184.0
202.338287 180.0
203.041 48.0
203.378632 80.0
204.111588 148.0
204.495621 184.0
204.709137 112.0
205.008255 104.0
205.183441 208.0
205.320053 96.0
205.358917 92.0
205.381729 156.0
205.438782 200.0
205.858337 116.0
205.910431 184.0
205.969727 124.0
206.070816 216.0
206.1409 49448.0
206.201157 116.0
206.241165 76.0
206.263306 224.0
206.31778 80.0
206.389816 64.0
206.413483 88.0
206.440292 80.0
206.483307 52.0
206.507294 52.0
206.612549 32.0
206.65181 60.0
206.755966 76.0
206.80748 44.0
206.844696 60.0
206.873322 80.0
206.961044 224.0
206.987839 160.0
207.013611 64.0
207.094498 100.0
207.141327 4624.0
207.219849 32.0
207.343063 44.0
207.368851 52.0
207.466309 96.0
207.572388 60.0
207.598206 36.0
207.704315 40.0
207.776031 52.0
207.896545 48.0
207.930984 36.0
208.008469 84.0
208.131058 180.0
208.295624 72.0
208.353073 28.0
208.410538 80.0
208.542618 108.0
208.586517 152.0
208.623215 104.0
208.661041 124.0
208.697952 100.0
208.988449 72.0
209.094925 132.0
209.564301 92.0
209.595993 68.0
209.933243 84.0
210.068802 140.0
210.236145 76.0
210.293869 68.0
212.731064 96.0
212.850098 80.0
212.995316 40.0
213.556274 56.0
213.986954 56.0
214.811676 136.0
215.424698 80.0
215.664291 96.0
216.70314 120.0
216.887772 36.0
217.700439 44.0
217.979507 88.0
218.005951 80.0
218.391083 52.0
219.368668 128.0
219.952713 32.0
221.439941 40.0
223.146194 108.0
223.259186 108.0
226.269867 80.0
229.373047 36.0
230.797989 52.0
235.209183 48.0
237.823135 116.0
238.081024 32.0
242.034286 92.0
243.317871 64.0
250.454025 132.0
251.63974 60.0
257.099426 72.0
257.948975 76.0
264.967743 88.0
266.14505 76.0
267.201355 60.0
268.866394 108.0
269.509705 80.0
269.960785 108.0
279.301147 88.0
279.833618 72.0
292.743988 52.0
294.100861 136.0
298.905609 56.0
299.745789 76.0
302.848114 92.0
306.265869 104.0
306.520172 64.0
308.712341 100.0
312.20163 80.0
316.301331 84.0
317.988464 92.0
319.274536 64.0
320.249695 100.0
321.872314 72.0
322.95874 44.0
325.592987 84.0
327.452332 172.0
328.512024 116.0
331.694153 48.0
333.069366 64.0
333.461761 56.0
335.146637 80.0
335.591309 80.0
338.192261 48.0
344.295349 116.0
346.900116 44.0
356.131683 84.0
356.996063 96.0
372.90329 56.0
374.149597 56.0
384.819153 48.0
387.423798 36.0
390.450043 68.0
397.787292 60.0
415.570679 64.0
422.72171 76.0
426.564636 84.0
433.792633 80.0
438.268585 84.0
438.518616 48.0
447.828369 48.0
460.416229 52.0
475.714661 68.0
477.230865 116.0
480.078613 80.0
486.229492 72.0
487.546997 84.0
489.279999 48.0
492.039795 68.0
493.979828 116.0
503.826477 44.0
516.6073 72.0
522.059082 104.0
526.840271 76.0
529.658081 120.0
541.467529 60.0
541.838135 96.0
543.13147 44.0
554.447083 128.0
569.958435 72.0
575.841675 180.0
580.838623 136.0
628.727234 128.0
657.913391 92.0
680.136292 60.0
728.635925 112.0
731.722961 188.0
773.311218 52.0
790.726135 124.0
800.848999 204.0
807.848328 152.0
809.540649 128.0
811.444458 76.0
813.952332 224.0
822.469116 216.0
829.372925 116.0
833.706055 148.0
836.996399 136.0
838.015869 168.0
840.454773 128.0
841.30896 52.0
841.955627 168.0
844.51593 212.0
847.016418 172.0
849.491577 180.0
851.557922 176.0
853.266296 48.0
855.081177 168.0
858.133545 80.0
861.197144 48.0
861.652771 80.0
862.687195 52.0
868.419678 220.0
880.030151 164.0
888.665466 120.0
891.729553 176.0
895.412292 164.0
897.056763 176.0
906.571899 92.0
906.667786 48.0
907.722839 168.0
909.600647 128.0
912.057373 236.0
912.231689 152.0
913.013367 152.0
917.016907 192.0
918.699219 144.0
933.112793 96.0
933.434998 168.0
934.834106 124.0
936.447388 200.0
940.367737 212.0
940.801086 144.0
942.382874 172.0
946.138 156.0
946.689087 76.0
946.952393 84.0
947.840698 192.0
948.882629 144.0
949.097229 152.0
949.600098 224.0
952.939453 176.0
955.195618 160.0
955.472412 48.0
958.705017 164.0
958.834412 180.0
964.191284 132.0
964.543579 156.0
965.39679 172.0
966.95575 164.0
968.18158 116.0
974.235229 176.0
974.378113 144.0
976.771484 116.0
977.984802 208.0
978.787903 236.0
979.722107 248.0
979.771912 176.0
979.98999 56.0
981.835083 156.0
982.527466 136.0
984.456116 152.0
984.918274 180.0
986.474182 164.0
988.800964 132.0
989.445679 64.0
990.259766 136.0
990.867371 172.0
990.942505 148.0
991.393677 164.0
992.070618 196.0
992.371521 144.0
992.848083 208.0
992.967224 152.0
994.403992 136.0
995.364441 188.0
995.565369 176.0
995.647034 148.0
996.275146 128.0
997.192505 160.0
1000.601868 168.0
1000.922974 236.0
1001.011169 144.0
1001.294556 148.0
1007.349609 152.0
1010.048767 124.0
1010.333435 152.0
1011.459778 80.0
1012.745178 168.0
1013.220215 160.0
1014.018616 132.0
1014.367249 220.0
1014.791992 172.0
1018.631409 144.0
1019.018982 136.0
1021.313843 64.0
1021.918152 184.0
1022.102661 124.0
1022.770874 228.0
1023.152832 156.0
1023.566711 132.0
1025.184692 144.0
1025.58728 212.0
1027.129272 168.0
1027.466431 140.0
1028.967041 172.0
1030.046387 164.0
1032.50708 188.0
1033.344971 180.0
1034.836304 172.0
1036.449707 160.0
1036.956543 200.0
1037.661621 168.0
1038.174683 224.0
1038.880127 132.0
1039.130371 104.0
1041.717529 212.0
1041.762451 108.0
1042.045166 124.0
1044.507324 192.0
1044.584473 156.0
1045.176392 184.0
1045.620361 156.0
1046.727661 152.0
1047.964355 72.0
1049.195312 172.0
1049.266235 212.0
1049.349976 36.0
1050.252808 152.0
1050.678589 116.0
1050.852783 184.0
1053.538452 188.0
1054.502563 204.0
1054.611084 96.0
1054.662842 128.0
1054.824341 100.0
1057.15918 196.0
1059.431763 112.0
1059.677979 84.0
1060.138062 196.0
1060.2677 152.0
1062.019165 136.0
1065.244141 88.0
1068.826416 196.0
1068.930542 180.0
1069.015137 196.0
1069.307983 188.0
1070.37561 204.0
1070.850952 232.0
1070.929199 160.0
1071.665283 156.0
1072.949219 160.0
1073.157837 236.0
1073.966431 156.0
1074.514404 192.0
1075.734741 168.0
1077.524048 188.0
1078.530396 148.0
1079.020752 196.0
1079.576538 236.0
1079.622314 196.0
1080.158569 260.0
1080.655762 196.0
1081.159668 160.0
1081.715942 156.0
1083.392334 140.0
1084.68335 168.0
1085.496216 232.0
1085.738892 168.0
1090.05835 124.0
1090.538086 148.0
1090.676147 88.0
1091.057373 112.0
1091.760986 48.0
1091.839844 48.0
1092.223267 156.0
1092.339722 56.0
1093.458252 160.0
1093.57019 208.0
1093.64917 228.0
1094.590576 184.0
1096.257202 196.0
1096.58667 144.0
1098.386719 164.0
1098.617554 68.0
1098.934204 120.0
1101.139038 168.0
1102.969238 168.0
1104.238647 136.0
1105.264038 140.0
1106.256714 192.0
1106.454346 124.0
1106.925415 192.0
1107.932251 128.0
1108.150879 68.0
1108.303223 92.0
1108.356201 120.0
1109.297363 176.0
1109.748169 176.0
1109.880737 160.0
1111.744751 180.0
1113.185181 168.0
1114.985474 184.0
1115.052002 136.0
1116.374878 128.0
1117.179688 92.0
1117.299438 208.0
1118.151123 160.0
1118.523926 148.0
1119.622437 156.0
1121.494629 172.0
1122.674683 120.0
1122.908081 188.0
1124.289062 200.0
1124.7229 224.0
1124.809692 148.0
1126.739502 180.0
1126.83313 164.0
1126.926636 148.0
1127.421143 56.0
1127.828735 168.0
1128.271362 168.0
1128.497314 152.0
1130.771606 120.0
1131.400879 212.0
1132.030273 136.0
1134.167358 156.0
1134.301392 208.0
1134.395264 228.0
1134.442261 132.0
1134.871338 168.0
1135.107422 268.0
1135.588867 204.0
1136.655518 208.0
1136.702393 124.0
1137.454102 164.0
1137.55481 132.0
1138.582031 196.0
1138.803711 80.0
1139.159668 128.0
1139.576172 136.0
1140.174316 104.0
1140.261597 132.0
1141.081665 264.0
1141.343872 172.0
1141.478394 212.0
1142.097168 172.0
1142.823608 148.0
1144.180664 216.0
1144.452515 152.0
1145.974609 128.0
1146.062256 172.0
1146.260498 164.0
1146.702393 136.0
1147.221436 180.0
1147.666382 176.0
1148.484985 224.0
1148.752197 216.0
1148.981567 160.0
1149.285156 136.0
1150.216553 240.0
1151.905273 212.0
1152.404541 172.0
1152.715332 200.0
1153.053223 168.0
1153.479004 140.0
1153.546631 144.0
1154.35791 112.0
1155.135742 92.0
1156.58374 136.0
1156.698853 152.0
1157.660278 92.0
1158.981079 232.0
1159.719849 188.0
1159.814697 188.0
1159.916382 164.0
1160.546875 60.0
1160.824829 140.0
1161.143555 132.0
1161.638672 212.0
1161.869385 164.0
1162.649658 56.0
1163.199463 112.0
1163.810425 116.0
1164.435181 124.0
1165.392944 152.0
1166.092896 172.0
1167.581787 64.0
1167.744995 124.0
1168.00354 180.0
1168.085083 160.0
1169.561646 172.0
1170.487549 148.0
1170.664551 32.0
1171.073242 120.0
1171.904297 124.0
1172.407227 220.0
1172.994629 148.0
1173.10376 180.0
1173.417358 156.0
1175.047363 184.0
1176.371216 160.0
1176.657959 196.0
1176.75354 212.0
1177.477417 200.0
1177.894043 80.0
1178.03064 236.0
1178.262939 152.0
1178.3927 152.0
1178.583984 160.0
1179.260498 148.0
1179.30835 152.0
1179.472412 168.0
1179.533936 180.0
1180.244995 184.0
1180.675781 164.0
1181.168213 172.0
1182.420288 176.0
1182.694092 196.0
1184.474365 188.0
1185.317017 128.0
1186.112061 188.0
1186.358765 56.0
1186.804443 156.0
1186.927856 104.0
1187.325562 200.0
1187.805664 160.0
1189.074951 176.0
1189.431885 160.0
1189.603516 132.0
1190.763916 88.0
1190.812012 192.0
1191.162231 140.0
1191.395874 200.0
1192.316528 176.0
1194.44104 140.0
1194.853882 60.0
1195.817261 92.0
1196.526245 156.0
1196.746582 208.0
1197.173462 164.0
1198.957642 168.0
1199.281616 188.0
1200.026123 184.0
1201.157104 144.0
1202.122925 132.0
1203.337769 180.0
1203.917847 136.0
1204.415039 160.0
1204.80188 148.0
1205.133545 176.0
1206.061279 232.0
1206.273804 224.0
1207.124268 64.0
1207.891968 204.0
1208.445312 148.0
1208.694458 164.0
1208.853638 88.0
1210.868164 72.0
1212.184326 128.0
1212.281372 160.0
1213.023682 188.0
1214.70105 92.0
1215.380981 204.0
1216.088745 132.0
1216.484375 184.0
1217.019043 176.0
1217.359253 124.0
1217.782837 136.0
1218.505249 164.0
1219.019409 164.0
1219.130615 216.0
1219.568481 184.0
1219.624146 148.0
1221.125854 168.0
1221.543213 200.0
1222.078857 136.0
1222.538208 140.0
1222.726074 168.0
1222.983643 160.0
1223.470825 176.0
1225.37207 152.0
1225.692627 144.0
1226.319824 124.0
1227.093628 92.0
1227.156372 224.0
1227.588623 144.0
1228.390747 208.0
1228.475708 172.0
1229.032593 152.0
1229.234863 212.0
1230.628906 236.0
1231.077759 52.0
1231.214722 200.0
1231.47583 220.0
1231.999756 192.0
1232.363037 36.0
1232.991943 208.0
1233.390259 176.0
1234.019409 228.0
1234.17334 36.0
1234.879639 132.0
1235.313232 156.0
1235.718994 40.0
1236.684692 80.0
1236.880737 160.0
1237.293701 72.0
1237.356689 156.0
1237.427856 72.0
1237.818848 216.0
1238.070923 140.0
1238.72229 112.0
1238.883423 168.0
1238.932373 196.0
1239.366821 152.0
1239.822266 204.0
1239.878296 176.0
1240.067627 152.0
1240.460083 204.0
1240.761597 124.0
1240.852661 156.0
1242.065918 160.0
1242.11499 124.0
1242.276245 164.0
1242.872681 160.0
1243.116333 144.0
1243.827026 132.0
1243.904297 200.0
1244.142944 124.0
1244.802979 152.0
1245.357788 168.0
1245.779175 152.0
1246.50293 212.0
1247.065063 248.0
1247.212646 140.0
1247.325195 124.0
1247.402466 248.0
1248.316406 148.0
1248.478149 96.0
1248.745483 212.0
1249.07605 184.0
1249.132324 136.0
1249.695068 160.0
1250.000977 180.0
1252.032104 152.0
1253.025269 192.0
1253.187256 184.0
1253.617188 136.0
1253.87085 160.0
1254.765991 140.0
1255.057373 152.0
1255.11853 168.0
1255.908447 188.0
1256.105957 168.0
1257.030151 140.0
1257.178345 148.0
1257.460571 192.0
1257.552368 172.0
1257.686523 152.0
1258.406494 212.0
1259.359863 176.0
1259.684814 136.0
1262.561401 184.0
1262.63916 104.0
1263.289917 160.0
1263.594116 152.0
1264.584839 188.0
1264.768799 112.0
1265.094482 120.0
1265.675049 124.0
1267.842651 216.0
1268.643555 148.0
1269.260376 184.0
1270.146851 176.0
1270.536987 192.0
1273.901978 168.0
1274.186035 132.0
1274.832642 120.0
1274.932129 148.0
1275.770874 88.0
1276.254272 116.0
1276.417847 188.0
1277.4375 192.0
1277.939941 152.0
1279.491455 120.0
1280.424316 200.0
1284.030518 132.0
1284.451294 184.0
1284.936401 68.0
1285.49292 104.0
1285.812866 172.0
1286.277954 140.0
1286.806274 160.0
1286.949097 176.0
1287.277466 168.0
1287.729614 200.0
1287.827393 176.0
1288.234619 80.0
1288.520386 176.0
1288.591797 48.0
1289.50647 192.0
1289.985352 208.0
1290.049683 136.0
1291.429688 132.0
1291.508423 140.0
1291.901855 144.0
1292.273804 156.0
1292.746094 112.0
1293.153931 128.0
1293.418823 164.0
1293.569092 220.0
1293.824341 216.0
1293.919922 148.0
1294.378174 104.0
1294.435425 244.0
1295.072754 196.0
1295.703125 104.0
1296.826782 232.0
1298.082764 56.0
1298.519531 172.0
1298.792847 176.0
1298.950562 192.0
1299.553223 184.0
1301.160889 196.0
1301.33313 136.0
1303.128784 60.0
1304.26416 176.0
1304.386353 260.0
1304.465454 96.0
1305.60144 156.0
1306.119263 216.0
1306.406982 136.0
1306.687622 208.0
1307.896484 104.0
1308.666748 160.0
1309.991943 184.0
1310.11438 172.0
1311.923218 128.0
1312.153931 148.0
1312.384644 124.0
1312.586548 180.0
1312.889404 152.0
1313.076904 116.0
1313.199463 204.0
1313.34375 156.0
1315.340698 256.0
1315.703369 140.0
1315.860107 216.0
1316.29541 184.0
1316.526489 152.0
1316.584229 104.0
1317.378784 136.0
1317.790527 232.0
1317.913452 176.0
1319.684204 100.0
1320.725586 168.0
1320.855713 176.0
1321.210205 184.0
1321.260864 164.0
1321.405518 40.0
1321.716675 156.0
1321.854126 148.0
1322.282593 180.0
1322.693726 156.0
1323.533447 112.0
1323.798462 168.0
1324.119995 120.0
1324.663208 60.0
1325.481934 60.0
1325.779053 128.0
1326.315308 160.0
1327.098267 128.0
1327.852417 196.0
1328.606812 136.0
1329.179932 184.0
1329.43396 216.0
1329.593628 156.0
1329.709717 212.0
1329.776611 192.0
1330.15979 164.0
1330.261353 172.0
1330.348511 160.0
1330.500977 180.0
1330.892944 196.0
1331.611938 164.0
1332.178467 180.0
1333.668091 144.0
1334.598633 184.0
1334.940308 156.0
1335.187622 184.0
1335.631226 172.0
1336.387817 164.0
1336.831665 120.0
1337.348389 192.0
1338.134644 104.0
1338.928223 180.0
1340.363403 92.0
1341.077515 200.0
1341.194214 160.0
1341.616943 156.0
1342.593994 232.0
1342.776367 92.0
1343.330688 204.0
1343.454712 80.0
1343.505737 76.0
1344.133179 204.0
1344.519897 40.0
1344.680542 184.0
1344.906738 168.0
1345.04541 176.0
1345.651367 88.0
1346.242798 164.0
1346.94397 152.0
1347.404175 48.0
1348.032471 164.0
1349.658447 236.0
1349.889282 156.0
1350.328003 180.0
1350.540161 204.0
1351.096069 184.0
1351.147339 120.0
1351.306152 140.0
1351.536987 284.0
1351.857056 48.0
1352.2229 104.0
1352.497437 204.0
1353.43811 132.0
1353.526001 172.0
1354.89563 180.0
1355.005493 164.0
1355.43042 208.0
1356.170654 164.0
1356.735107 156.0
1356.999023 212.0
1357.277588 112.0
1358.033447 160.0
1358.531738 192.0
1359.059937 40.0
1359.683716 124.0
1360.733398 204.0
1361.0271 216.0
1361.49707 232.0
1362.976562 124.0
1363.487915 156.0
1363.612915 180.0
1363.737793 152.0
1364.26709 200.0
1364.818481 204.0
1365.002319 212.0
1365.509766 116.0
1365.803955 184.0
1365.936279 112.0
1366.885376 92.0
1367.459351 176.0
1368.18811 204.0
1368.283813 116.0
1368.438477 176.0
1368.607788 72.0
1368.850708 160.0
1369.08606 220.0
1369.261963 192.0
1369.565063 164.0
1370.279663 180.0
1370.633301 144.0
1371.311279 136.0
1371.45874 176.0
1371.974731 176.0
1372.151611 136.0
1372.232788 64.0
1372.358032 228.0
1373.611816 256.0
1373.774048 104.0
1375.965942 116.0
1376.069214 264.0
1376.139404 184.0
1377.051392 180.0
1377.922974 180.0
1378.233276 152.0
1378.839233 132.0
1379.032959 156.0
1380.975952 196.0
1381.412354 216.0
1381.996826 176.0
1383.2771 56.0
1383.432617 140.0
1384.484009 160.0
1384.824585 140.0
1385.232056 124.0
1385.543091 176.0
1385.876343 140.0
1386.24707 180.0
1386.432251 164.0
1386.967651 192.0
1387.240234 132.0
1387.566406 64.0
1388.055786 176.0
1388.174316 60.0
1388.493286 132.0
1390.051147 212.0
1390.592896 224.0
1390.682739 184.0
1391.186646 188.0
1391.394531 132.0
1391.914307 160.0
1392.181641 152.0
1392.946533 156.0
1393.199219 224.0
1393.28833 172.0
1393.585449 92.0
1393.866333 100.0
1394.209717 104.0
1394.55896 160.0
1395.398926 36.0
1395.607178 64.0
1396.387939 180.0
1397.191284 40.0
1397.259521 248.0
1397.957642 172.0
1398.486084 92.0
1399.237915 212.0
1400.101685 156.0
1400.414429 80.0
1401.120117 164.0
1401.420166 52.0
1402.247314 200.0
1402.44104 116.0
1403.261108 144.0
1403.61145 160.0
1403.693481 128.0
1403.827759 44.0
1404.361694 220.0
1404.812256 200.0
1404.983765 108.0
1405.080811 116.0
1405.744873 60.0
1405.909058 176.0
1406.162842 160.0
1407.484131 172.0
1407.566284 84.0
1407.730469 324.0
1408.096436 152.0
1408.148682 176.0
1408.230835 164.0
1408.432495 112.0
1408.69397 152.0
1408.776123 156.0
1409.979126 164.0
1410.158447 112.0
1410.577026 152.0
1411.436768 152.0
1411.738159 200.0
1412.147217 128.0
1412.42395 144.0
1412.835449 160.0
1413.022461 200.0
1414.227173 104.0
1414.870972 60.0
1415.192871 204.0
1415.727783 132.0
1415.896851 148.0
1416.143921 164.0
1416.263794 228.0
1416.481079 100.0
1416.548462 140.0
1416.83313 316.0
1416.900513 220.0
1416.960449 144.0
1417.125244 140.0
1417.290161 192.0
1417.860229 144.0
1417.957031 176.0
1418.144409 60.0
1418.234375 152.0
1419.708008 172.0
1419.85376 216.0
1419.921265 180.0
1420.468872 144.0
1421.151489 212.0
1422.742676 236.0
1422.832764 68.0
1424.101807 192.0
1424.447266 92.0
1424.619995 184.0
1424.95813 196.0
1425.206055 204.0
1425.491577 184.0
1425.995117 156.0
1426.082031 172.0
1426.716675 176.0
1428.78479 164.0
1428.837524 112.0
1428.91272 184.0
1429.492065 196.0
1429.567261 248.0
1430.297363 164.0
1430.869507 136.0
1431.682617 128.0
1432.179688 176.0
1432.563843 128.0
1432.628662 160.0
1433.076172 180.0
1433.21936 80.0
1433.272095 72.0
1433.535889 180.0
1433.724243 116.0
1433.9729 88.0
1434.666382 216.0
1435.47229 148.0
1435.639038 108.0
1436.204712 204.0
1436.363037 164.0
1436.710083 176.0
1438.143799 132.0
1438.498535 140.0
1438.869263 188.0
1439.016846 204.0
1439.887817 152.0
1440.111572 348.0
1440.220215 232.0
1440.288086 140.0
1440.431641 132.0
1440.522339 216.0
1441.066284 224.0
1441.149292 168.0
1441.5271 104.0
1441.723633 136.0
1441.957886 144.0
1442.192261 124.0
1442.411377 148.0
1442.797485 164.0
1442.887695 164.0
1443.182495 180.0
1443.628662 200.0
1444.105103 212.0
1444.3396 156.0
1445.179321 160.0
1445.663574 228.0
1445.890625 200.0
1445.989014 176.0
1447.086548 160.0
1447.503052 192.0
1447.84375 148.0
1448.025513 160.0
1448.464844 172.0
1449.010254 184.0
1449.22998 204.0
1449.366455 156.0
1449.533081 200.0
1449.813477 288.0
1450.00293 108.0
1450.157349 204.0
1450.84436 180.0
1451.921021 128.0
1452.421631 152.0
1452.937378 260.0
1453.020874 60.0
1453.369873 100.0
1453.430542 204.0
1453.772095 140.0
1454.403198 180.0
1455.14917 204.0
1455.282593 200.0
1455.404053 244.0
1455.540771 204.0
1455.730591 160.0
1456.095093 132.0
1456.611572 144.0
1456.740723 188.0
1457.018311 156.0
1457.979126 124.0
1458.153931 216.0
1458.534058 176.0
1458.79248 248.0
1460.161133 164.0
1460.275146 96.0
1460.358765 108.0
1460.792358 144.0
1460.868408 192.0
1461.33252 136.0
1461.682495 172.0
1461.743408 176.0
1461.81189 208.0
1461.964111 52.0
1462.161987 176.0
1462.481812 176.0
1463.159058 52.0
1463.410278 48.0
1464.054321 188.0
1464.103271 220.0
1464.590698 120.0
1464.674438 160.0
1464.980835 196.0
1465.238159 192.0
1465.421021 204.0
1465.840088 160.0
1466.43457 184.0
1466.564087 84.0
1466.907104 236.0
1466.983398 188.0
1467.257812 180.0
1467.440796 360.0
1467.814331 80.0
1468.554077 156.0
1468.65332 116.0
1468.798218 160.0
1469.850952 184.0
1469.995972 124.0
1470.27832 184.0
1471.530151 140.0
1471.843262 112.0
1471.904297 40.0
1471.977905 224.0
1473.355469 168.0
1473.936157 188.0
1474.425171 92.0
1474.494019 156.0
1474.63916 164.0
1474.937256 152.0
1475.159912 204.0
1475.660889 236.0
1475.862305 68.0
1476.244629 212.0
1476.405273 132.0
1476.524536 228.0
1476.842896 200.0
1476.994141 192.0
1477.055298 36.0
1477.162476 200.0
1477.805054 148.0
1478.700317 184.0
1479.519409 232.0
1479.672485 132.0
1479.726074 136.0
1479.879272 164.0
1480.346313 168.0
1480.744507 172.0
1480.859375 176.0
1481.525757 200.0
1481.770996 104.0
1481.870605 176.0
1482.100464 112.0
1483.42627 148.0
1483.985962 92.0
1484.070312 120.0
1484.561035 184.0
1484.867798 180.0
1485.251221 156.0
1485.335571 156.0
1485.8573 196.0
1486.179199 176.0
1486.647583 320.0
1486.839478 128.0
1486.923828 116.0
1487.115723 92.0
1487.27771 180.0
1488.052246 180.0
1488.413086 176.0
1489.088867 204.0
1489.196411 176.0
1489.818604 184.0
1489.995361 200.0
1490.25647 168.0
1490.425537 140.0
1491.132568 240.0
1491.43396 200.0
1491.532227 200.0
1491.662842 124.0
1491.860352 164.0
1492.182007 244.0
1492.454712 148.0
1493.100708 124.0
1493.339111 120.0
1493.546753 172.0
1493.692871 168.0
1493.746704 160.0
1493.869873 40.0
1496.578857 100.0
1496.671265 176.0
1497.233398 188.0
1498.219238 124.0
1498.337158 136.0
1498.550537 128.0
1498.843384 208.0
1500.153564 180.0
1500.238403 44.0
1501.371826 132.0
1501.556885 112.0
1501.695679 172.0
1502.521118 188.0
1502.806519 164.0
1502.929932 192.0
1503.439209 176.0
1503.647583 188.0
1503.732544 100.0
1504.157104 332.0
1504.774658 96.0
1505.199341 144.0
