>compound NCGC00160273-01!4-Hydroxy-3-[3-(4-hydroxy-3-methoxy-phenyl)-acryloyl]-6-methyl-pyran-2-one
>formula C16H14O6
>ionization [M+H]+
>parentmass 303.087
#inchi InChI=1S/C16H14O6/c1-9-7-13(19)15(16(20)22-9)12(18)6-4-10-3-5-11(17)14(8-10)21-2/h3-8,17,19H,1-2H3/b6-4+
#inchikey LRCLIDIMQAJTGZ
#Ion_Source LC-ESI
#Instrument qTOF
#Compound_Source Prestwick Phytochem Lib
#PI Dorrestein
#Data_Collector VVP/LMS
#Scan -1
#Precursor_MZ 303.087
#ExactMass 303.087
#Charge 1
#CAS_Number N/A
#Pubmed_ID N/A
#Smiles COC1=C(O)C=CC(\C=C\C(=O)C2=C(O)C=C(C)OC2=O)=C1
#INCHI_AUX N/A
#Library_Class 1
#SpectrumID CCMSLIB00000078767
#IonMode Positive
#UpdateWorkflowName UPDATE-SINGLE-ANNOTATED-GOLD
#LibraryQualityString Gold
#TaskID 67c915c6594c435cadc1fe2b5358144d
##Scan# 2167
#SpectrumFile p1-F03_GF3_01_17935.mzXML
#LibraryName phytochem_lib.mgf
#MQScore -1
#Organism phytochem_lib
#TIC_Query 0
#RT_Query -1
#MZErrorPPM -1
#SharedPeaks 0
#MassDiff 0
#LibMZ -1
#SpecMZ 303.087
#SpecCharge 0
#internalFilename spec-00000.mgf

>collision 10
95.051529 192.0
95.786423 152.0
96.238869 176.0
96.258392 96.0
96.743271 220.0
97.349121 136.0
97.925346 52.0
100.20739 168.0
100.990402 196.0
101.137978 188.0
101.354263 160.0
101.53669 204.0
101.815643 148.0
103.50351 180.0
103.998161 152.0
108.018532 176.0
108.604729 112.0
109.030342 160.0
110.042694 60.0
110.259933 140.0
111.00634 164.0
111.204491 168.0
111.673027 180.0
112.830696 136.0
112.993538 76.0
113.037971 88.0
113.243324 168.0
114.306915 204.0
114.713707 52.0
115.055031 188.0
115.17675 116.0
115.240845 200.0
115.351974 140.0
115.561554 208.0
116.38031 164.0
117.033257 1404.0
117.432617 168.0
117.521065 152.0
117.739082 164.0
118.035721 416.0
118.598007 84.0
118.702072 152.0
118.73243 156.0
118.84523 60.0
119.045464 440.0
119.36219 132.0
120.053658 172.0
121.020493 208.0
121.968208 160.0
123.297241 124.0
123.522758 232.0
123.890228 164.0
125.021332 384.0
125.7313 208.0
126.01712 136.0
126.25853 248.0
126.71965 132.0
127.336525 260.0
128.069748 176.0
129.528915 72.0
130.039078 320.0
130.994064 44.0
131.019119 72.0
131.046463 160.0
131.443192 160.0
132.517853 248.0
133.100449 148.0
134.036102 532.0
135.046204 188.0
136.052734 352.0
136.374008 132.0
136.762436 168.0
136.813644 172.0
137.026443 336.0
137.051208 188.0
137.11412 144.0
138.178909 152.0
138.260803 60.0
140.639297 40.0
141.031387 168.0
141.059753 100.0
143.724442 44.0
144.058685 76.0
144.082581 208.0
144.257034 140.0
144.804977 196.0
144.888809 132.0
145.02832 1584.0
145.056564 204.0
145.279572 56.0
145.497955 40.0
145.536377 240.0
146.03833 360.0
146.142059 48.0
146.618851 216.0
146.753845 72.0
146.968506 232.0
147.0578 92.0
147.427307 172.0
148.063553 148.0
148.121689 144.0
148.422195 192.0
148.473129 164.0
149.059601 424.0
149.157806 68.0
149.257477 184.0
150.063187 168.0
150.6418 52.0
151.032898 172.0
151.052475 184.0
151.074051 700.0
151.936813 220.0
152.081589 308.0
152.731323 148.0
152.872955 208.0
152.934479 188.0
152.956635 108.0
153.018051 18296.0
153.121597 120.0
153.183182 116.0
153.239838 56.0
153.259933 104.0
153.296509 144.0
153.319977 48.0
153.365524 40.0
153.385956 96.0
153.413391 104.0
153.432068 48.0
153.449326 104.0
153.634293 96.0
153.68364 96.0
153.715714 104.0
154.02066 1008.0
154.10585 76.0
154.528625 48.0
154.711777 156.0
154.795944 80.0
154.951996 96.0
154.99411 68.0
155.026886 172.0
155.06102 92.0
155.179581 116.0
155.358566 52.0
155.961975 48.0
156.260391 196.0
157.092468 36.0
162.029984 132.0
162.047714 184.0
163.044952 148.0
163.077988 220.0
166.072968 188.0
166.974457 112.0
167.96608 120.0
170.607407 228.0
170.737427 44.0
171.028152 3988.0
171.060059 36.0
171.1642 48.0
171.315247 88.0
171.925369 64.0
172.03035 320.0
172.186447 76.0
173.03627 208.0
173.32962 48.0
173.347961 92.0
176.168472 132.0
177.052124 1580.0
177.123413 96.0
177.22142 80.0
178.062332 224.0
179.03569 152.0
179.454041 120.0
180.054443 156.0
181.507538 112.0
183.044739 160.0
186.023972 344.0
187.035156 132.0
187.078705 120.0
193.016037 164.0
195.176071 204.0
197.060242 212.0
200.982697 148.0
201.066956 216.0
202.056335 168.0
203.067596 72.0
204.983688 168.0
207.100647 160.0
214.049286 152.0
216.174393 108.0
219.063446 160.0
219.087021 128.0
223.974792 120.0
225.051361 152.0
234.170898 112.0
235.919327 84.0
240.981094 124.0
241.005814 164.0
243.071106 208.0
253.048126 132.0
261.080017 344.0
261.495026 188.0
285.072388 240.0
302.351868 116.0
310.851593 44.0
312.01767 44.0
363.59137 132.0
367.194183 120.0
395.860016 20.0
405.04425 116.0
417.133911 48.0
421.629578 96.0
428.857117 20.0
431.193146 40.0
634.846985 160.0
753.34259 140.0
831.635986 132.0
855.922852 88.0
920.285095 152.0
940.1521 220.0
948.016418 164.0
1007.94812 144.0
1021.744751 136.0
1030.562134 160.0
1051.87085 156.0
1064.339966 120.0
1066.191284 268.0
1072.067871 220.0
1083.993774 208.0
1111.935913 176.0
1122.320068 172.0
1127.566895 208.0
1135.259033 164.0
1166.411377 236.0
1192.109497 200.0
1199.694336 128.0
1204.918457 148.0
1211.012695 168.0
1232.208618 152.0
1232.963257 180.0
1275.19458 228.0
1276.630615 176.0
1312.117432 72.0
1324.090698 96.0
1328.30896 204.0
1328.88208 192.0
1336.460205 156.0
1338.673096 108.0
1348.828857 152.0
1355.957764 152.0
1362.172485 96.0
1364.707886 164.0
1380.250977 192.0
1385.172607 216.0
1388.263184 172.0
1388.878784 136.0
1389.435181 196.0
1390.926758 228.0
1398.671997 160.0
1403.469727 132.0
1414.900879 220.0
1419.486328 128.0
1420.941406 72.0
1430.621094 212.0
1435.427856 168.0
1438.536377 108.0
1440.953003 184.0
1442.796997 160.0
1456.44458 212.0
1468.302612 144.0
1470.553223 36.0
1485.328125 216.0
1489.427002 196.0
1496.078613 168.0
1499.113281 160.0
1499.352173 96.0
1503.084595 120.0
