>compound MLS001332498-01!(R)-(+)-Atenolol
>formula C14H22N2O3
>ionization [M+H]+
>parentmass 267.1703190160905
#inchi InChI=1S/C14H22N2O3/c1-10(2)16-8-12(17)9-19-13-5-3-11(4-6-13)7-14(15)18/h3-6,10,12,16-17H,7-9H2,1-2H3,(H2,15,18)/t12-/m1/s1
#inchikey METKIMKYRPQLGS
#Ion_Source LC-ESI
#Instrument qTof
#Compound_Source NIH Pharmacologically Active Library
#PI Dorrestein
#Data_Collector VP/LMS
#Scan -1
#Precursor_MZ 267.165
#ExactMass 266.163
#Charge 1
#CAS_Number N/A
#Pubmed_ID N/A
#Smiles CC(C)NC[C@@H](O)COc1ccc(CC(=O)N)cc1
#INCHI_AUX N/A
#Library_Class 1
#SpectrumID CCMSLIB00000085362
#IonMode Positive
#UpdateWorkflowName UPDATE-SINGLE-ANNOTATED-GOLD
#LibraryQualityString Gold
#TaskID d252d724072548979f1f6f1ced849daf
##Scan# 1090
#SpectrumFile p3-H09_GH9_01_18314.mzXML
#LibraryName Pharm_Active_Library.mgf
#MQScore -1
#Organism Pharm_Active_Library
#TIC_Query 0
#RT_Query -1
#MZErrorPPM -1
#SharedPeaks 0
#MassDiff 0
#LibMZ -1
#SpecMZ 267.165
#SpecCharge 0
#internalFilename spec-00000.mgf

>collision 10
45.035221 152.0
45.54961 132.0
45.563046 240.0
45.62487 180.0
45.654453 208.0
45.980499 220.0
46.185814 160.0
46.351059 176.0
46.900146 104.0
47.055672 184.0
47.096642 208.0
47.111668 124.0
47.164967 136.0
47.318161 184.0
47.51693 108.0
47.919792 252.0
48.175037 228.0
48.514107 164.0
48.875233 80.0
49.485222 136.0
49.722137 160.0
49.804977 144.0
49.996201 160.0
50.275253 140.0
50.302074 184.0
50.490002 208.0
50.5933 184.0
51.027454 212.0
51.843983 152.0
51.931446 148.0
52.257557 164.0
53.615929 212.0
53.786587 220.0
54.301651 192.0
54.336857 140.0
54.654236 140.0
54.707226 156.0
54.754345 144.0
55.404312 132.0
55.426537 60.0
55.534763 132.0
56.189331 176.0
56.38047 188.0
56.393921 140.0
56.485138 156.0
56.498604 152.0
56.727737 148.0
56.880753 100.0
57.062538 268.0
57.903095 132.0
58.127472 176.0
58.180595 208.0
58.361404 176.0
58.391819 84.0
58.40855 184.0
59.762558 120.0
59.805653 164.0
59.878017 156.0
60.28223 116.0
60.796394 88.0
60.929935 152.0
61.317413 208.0
61.99728 116.0
62.768356 180.0
62.939598 180.0
63.56488 104.0
64.346443 32.0
64.504601 180.0
64.70298 52.0
66.040291 220.0
66.239395 160.0
66.278282 180.0
66.343117 132.0
66.758797 212.0
66.96875 200.0
67.241043 68.0
67.265526 92.0
67.334106 156.0
67.806953 80.0
67.84465 44.0
68.023468 184.0
68.312706 192.0
69.018623 160.0
69.045082 252.0
69.5438 148.0
69.665024 180.0
70.085968 220.0
70.267715 216.0
70.407936 160.0
70.459717 120.0
71.074219 144.0
71.309334 164.0
71.807716 192.0
71.829643 140.0
72.009621 180.0
72.089668 164.0
72.201248 148.0
72.218163 116.0
72.326454 136.0
72.404343 180.0
72.843658 224.0
73.207657 100.0
73.596458 60.0
73.760468 188.0
73.782692 212.0
73.991425 92.0
74.065063 216.0
75.346718 144.0
75.633789 220.0
75.754791 220.0
76.082787 212.0
76.20784 152.0
76.590584 180.0
76.63414 244.0
76.88176 236.0
76.956825 84.0
77.115799 136.0
77.225952 208.0
77.435989 164.0
77.769135 180.0
78.081886 184.0
78.134659 132.0
78.981445 172.0
79.321571 168.0
79.372192 208.0
79.800797 140.0
80.135414 96.0
80.153236 112.0
80.452888 160.0
81.053864 144.0
81.096878 108.0
81.473724 156.0
81.486298 120.0
81.504265 176.0
82.388947 160.0
82.582367 116.0
82.83036 180.0
83.222099 192.0
83.773186 188.0
83.913521 152.0
84.002884 208.0
84.07222 160.0
84.148888 200.0
84.673721 164.0
84.855141 156.0
85.428154 132.0
85.536728 156.0
85.621429 180.0
85.855492 180.0
85.886841 44.0
85.907135 188.0
85.938499 76.0
86.374512 184.0
86.700386 180.0
86.781952 240.0
87.095589 68.0
87.208939 188.0
87.30748 168.0
88.028702 148.0
88.08847 64.0
88.273506 172.0
88.456871 140.0
88.846672 120.0
89.039215 352.0
89.278702 180.0
89.570442 160.0
89.621315 136.0
90.043884 180.0
90.100555 140.0
90.397423 124.0
90.603813 132.0
90.793373 152.0
91.053215 788.0
91.205391 80.0
91.317574 144.0
91.420311 76.0
92.053146 176.0
92.999023 64.0
93.071007 184.0
93.743332 132.0
93.812721 168.0
93.828148 224.0
94.067368 316.0
94.870209 224.0
95.442978 228.0
96.232132 180.0
96.400124 140.0
96.572166 216.0
96.693481 128.0
96.995125 200.0
97.095123 100.0
97.206947 40.0
97.358109 196.0
97.536911 168.0
97.794586 144.0
97.961967 180.0
98.050941 156.0
98.09462 500.0
98.259659 156.0
98.587456 192.0
98.71991 120.0
98.747597 184.0
98.983101 184.0
99.435112 144.0
99.735039 120.0
99.758896 100.0
100.109085 200.0
100.587608 148.0
100.719406 176.0
100.85128 204.0
101.425766 264.0
101.748749 172.0
102.08432 196.0
102.142647 80.0
102.351959 136.0
102.619949 216.0
103.053864 1184.0
103.219658 176.0
103.292473 32.0
103.367332 132.0
103.403763 188.0
104.062599 204.0
104.552505 56.0
104.955856 124.0
105.037437 164.0
105.070236 792.0
105.513275 196.0
105.590981 40.0
105.783325 140.0
106.043472 128.0
106.067413 1068.0
106.107018 112.0
106.131226 188.0
106.803192 192.0
107.049911 4232.0
107.103722 52.0
107.132561 76.0
107.161407 52.0
107.26239 48.0
107.328369 124.0
107.718445 192.0
108.052711 128.0
108.084396 132.0
108.672867 192.0
108.747574 124.0
108.83477 68.0
108.892921 184.0
109.208855 88.0
109.235893 200.0
109.321205 152.0
109.337852 204.0
109.648178 160.0
109.719048 92.0
110.013214 184.0
110.456238 52.0
111.063713 180.0
111.149727 84.0
111.681259 188.0
111.733856 228.0
111.900124 140.0
111.925392 100.0
112.332169 84.0
112.644592 176.0
113.809456 164.0
113.868912 192.0
115.053963 2744.0
115.119072 84.0
115.209473 148.0
115.396858 96.0
115.484543 48.0
115.734932 72.0
115.801323 120.0
116.050903 688.0
116.106773 692.0
116.127113 152.0
116.343849 144.0
116.795128 36.0
116.810188 88.0
116.8274 88.0
116.941444 64.0
117.034225 648.0
117.070099 3072.0
117.113701 212.0
117.544891 76.0
117.71759 152.0
118.043091 228.0
118.070656 456.0
119.049385 1656.0
119.087448 296.0
119.481995 112.0
119.867393 204.0
120.035248 224.0
120.051468 284.0
120.738457 120.0
121.065102 2768.0
121.082497 224.0
121.423973 260.0
122.060898 336.0
122.278641 148.0
122.490028 188.0
122.99279 224.0
123.041359 152.0
123.065651 188.0
123.660324 140.0
123.735588 204.0
123.861824 112.0
124.047966 156.0
124.079002 208.0
124.769478 148.0
124.983002 192.0
125.609055 64.0
125.984093 88.0
126.019844 212.0
126.453682 144.0
127.05265 352.0
127.489853 144.0
127.546043 136.0
127.674202 84.0
127.827179 168.0
128.356552 220.0
128.430984 148.0
130.032944 124.0
130.066986 200.0
130.166885 220.0
130.373611 196.0
130.637375 212.0
131.049255 444.0
131.11554 36.0
131.254608 112.0
132.054733 300.0
132.079086 168.0
132.124847 132.0
132.154114 216.0
132.520935 176.0
132.942871 188.0
133.025986 220.0
133.064682 7196.0
133.110443 136.0
133.129807 148.0
133.154083 68.0
133.264343 68.0
133.319504 32.0
133.475815 44.0
133.524109 208.0
133.623032 112.0
133.824036 188.0
134.061981 1056.0
134.129684 52.0
134.173477 192.0
134.254181 48.0
134.284164 100.0
134.725067 112.0
135.043777 140.0
135.0672 648.0
135.113464 200.0
135.21991 104.0
136.073181 328.0
136.519135 156.0
136.702316 156.0
137.061539 144.0
137.4953 104.0
137.805878 200.0
138.063019 212.0
138.807724 60.0
139.469803 140.0
139.486252 72.0
139.509766 60.0
139.888519 160.0
140.107529 136.0
140.300781 136.0
140.522491 192.0
140.718384 164.0
141.254868 176.0
141.55545 276.0
141.62413 104.0
141.735474 204.0
142.250153 228.0
142.468628 140.0
142.563675 116.0
142.927521 196.0
142.987015 212.0
143.821228 152.0
143.861816 96.0
144.053635 376.0
144.082474 500.0
144.511902 136.0
144.875809 228.0
144.929382 56.0
144.95488 160.0
144.988876 240.0
145.038071 328.0
145.064941 20052.0
145.102798 180.0
145.165833 100.0
145.290558 56.0
145.398544 48.0
145.427353 80.0
145.468155 104.0
145.542587 48.0
145.590607 96.0
145.631439 64.0
145.689087 80.0
145.809235 40.0
145.955887 76.0
145.987152 44.0
146.067657 2888.0
146.143509 104.0
146.210892 80.0
146.247635 104.0
146.372177 52.0
146.581757 56.0
146.711914 40.0
146.890366 148.0
146.984467 40.0
147.043411 1020.0
147.075165 592.0
147.1409 108.0
147.241409 92.0
147.452972 56.0
147.489227 52.0
147.743149 92.0
147.793945 108.0
148.050262 132.0
148.080002 228.0
148.111099 40.0
148.384949 84.0
148.916397 124.0
149.042725 172.0
149.53154 136.0
149.606995 168.0
150.895187 144.0
151.590347 128.0
152.071045 328.0
152.125046 148.0
152.171692 40.0
152.815659 52.0
153.071655 192.0
154.090363 136.0
155.013321 160.0
155.06308 152.0
155.179398 144.0
155.328201 72.0
156.964737 148.0
160.838547 176.0
161.054337 184.0
161.187073 176.0
162.065933 988.0
162.09021 964.0
162.503769 220.0
162.734741 188.0
163.052292 144.0
163.075409 636.0
163.159042 60.0
163.95105 140.0
164.071747 2256.0
164.192886 124.0
164.690598 272.0
164.734024 80.0
165.074936 260.0
165.322113 80.0
165.409134 36.0
165.724136 100.0
166.311417 132.0
166.634995 108.0
168.182739 172.0
169.133957 228.0
171.062698 84.0
172.727585 164.0
173.056137 688.0
173.093994 204.0
174.066498 200.0
175.058273 136.0
175.638107 104.0
175.912552 264.0
177.600815 232.0
177.956436 120.0
178.003006 160.0
178.086441 3264.0
178.139694 148.0
178.92955 208.0
179.085129 512.0
180.101822 1032.0
180.412918 52.0
181.097961 136.0
181.440964 80.0
182.079056 312.0
183.648773 116.0
184.926804 160.0
185.606796 92.0
186.315201 112.0
187.62973 172.0
188.760147 216.0
189.162338 28.0
189.976242 208.0
190.025635 244.0
190.085114 4628.0
191.085953 484.0
191.612061 56.0
191.901459 80.0
192.013855 84.0
192.362183 84.0
192.566528 120.0
192.585861 104.0
194.055344 48.0
194.105255 68.0
195.074249 152.0
197.276566 92.0
204.134659 464.0
205.147614 144.0
205.233154 152.0
208.097092 732.0
208.126038 140.0
208.240906 52.0
209.094681 168.0
209.123611 192.0
210.103638 168.0
210.406403 76.0
211.189545 48.0
214.211334 104.0
216.80304 112.0
221.763397 132.0
222.843613 260.0
224.952194 112.0
225.122025 904.0
225.197052 104.0
225.232895 100.0
226.123932 116.0
226.153854 72.0
227.067703 52.0
250.149124 220.0
258.111206 148.0
267.167297 1176.0
267.213959 240.0
267.953033 40.0
268.190918 152.0
268.308289 28.0
269.182739 240.0
269.519196 68.0
269.944153 144.0
291.92804 80.0
297.906189 44.0
310.521088 72.0
329.561615 120.0
353.773224 72.0
361.383392 92.0
364.948792 68.0
393.450623 116.0
406.851807 80.0
448.111145 96.0
491.05838 136.0
537.958435 68.0
688.949585 116.0
699.932678 228.0
749.286743 200.0
765.439819 216.0
775.162231 100.0
775.406067 92.0
812.939331 132.0
883.807678 160.0
892.741394 196.0
917.83313 180.0
948.892639 124.0
974.060242 212.0
986.217407 144.0
1001.60968 132.0
1002.781677 132.0
1006.472229 132.0
1007.621826 68.0
1022.485718 56.0
1024.262207 188.0
1024.504272 68.0
1025.568481 156.0
1036.59314 252.0
1044.831299 104.0
1049.391235 180.0
1053.282837 144.0
1054.232544 132.0
1061.204224 180.0
1069.5979 232.0
1079.855225 236.0
1081.903442 124.0
1086.838745 112.0
1090.588745 124.0
1102.643921 80.0
1105.65979 128.0
1118.383423 180.0
1122.660767 144.0
1124.815918 136.0
1128.002319 48.0
1134.569702 164.0
1140.667358 52.0
1153.351562 192.0
1155.021851 52.0
1160.399048 180.0
1160.812622 240.0
1167.053101 148.0
1168.501831 156.0
1168.876099 164.0
1186.663086 180.0
1187.108765 224.0
1188.0896 168.0
1193.880127 244.0
1199.078125 136.0
1201.92627 76.0
1202.499023 104.0
1208.324463 140.0
1210.511841 160.0
1212.714966 160.0
1212.805054 112.0
1217.341675 148.0
1219.169678 320.0
1219.579712 56.0
1221.624146 184.0
1225.320923 148.0
1236.472778 188.0
1237.137817 128.0
1239.981812 136.0
1241.818726 192.0
1242.681641 64.0
1244.569702 192.0
1246.079834 168.0
1247.7948 156.0
1253.179199 140.0
1259.436768 164.0
1260.326904 196.0
1262.65271 120.0
1262.716431 136.0
1265.695801 132.0
1266.290649 128.0
1281.407593 116.0
1281.592773 152.0
1288.456665 160.0
1291.051392 136.0
1291.344604 136.0
1295.374634 124.0
1297.589111 248.0
1298.248779 196.0
1301.169312 140.0
1306.300537 76.0
1308.258057 204.0
1311.413208 172.0
1311.654907 200.0
1313.699097 168.0
1314.305054 212.0
1314.391724 120.0
1314.709229 136.0
1326.470093 184.0
1327.818726 180.0
1330.387451 204.0
1331.207886 148.0
1337.657104 240.0
1338.880371 204.0
1341.510864 228.0
1341.933716 156.0
1342.838013 204.0
1344.464966 128.0
1347.517334 120.0
1349.432251 172.0
1350.251221 108.0
1351.546143 184.0
1357.00293 64.0
1360.355835 116.0
1360.436523 268.0
1362.184326 168.0
1363.043945 172.0
1364.293457 224.0
1365.63916 48.0
1369.739136 172.0
1370.483276 256.0
1371.515015 196.0
1376.406494 192.0
1377.935425 68.0
1378.075806 156.0
1378.216187 204.0
1378.837036 124.0
1381.099487 192.0
1382.623657 144.0
1389.01062 124.0
1389.411255 160.0
1391.675049 152.0
1394.877075 44.0
1395.970093 84.0
1398.633667 180.0
1404.438232 136.0
1407.445923 200.0
1408.797729 200.0
1410.561401 112.0
1412.550537 104.0
1414.009644 252.0
1415.020142 220.0
1416.061157 148.0
1420.836182 172.0
1430.907349 172.0
1439.110718 152.0
1439.956543 176.0
1440.991455 144.0
1443.417847 116.0
1443.735352 260.0
1446.656128 200.0
1449.064453 224.0
1449.140259 184.0
1449.269043 40.0
1454.266724 152.0
1454.965088 188.0
1455.284058 220.0
1458.84729 168.0
1463.282715 184.0
1471.24231 156.0
1472.639771 64.0
1475.023804 176.0
1477.073242 144.0
1477.478638 128.0
1479.659912 212.0
1480.088623 144.0
1483.268188 136.0
1484.594604 200.0
1488.800171 188.0
1490.643921 124.0
