>compound MLS001139300-01!(2S)-2-[[2-[(4-oxo-2,3-dihydro-1H-cyclopenta[c]chromen-7-yl)oxy]acetyl]amino]-3-phenylpropanoic acid
>formula C23H21NO6
>ionization [M+H]+
>parentmass 408.145
#inchi InChI=1S/C23H21NO6/c25-21(24-19(22(26)27)11-14-5-2-1-3-6-14)13-29-15-9-10-17-16-7-4-8-18(16)23(28)30-20(17)12-15/h1-3,5-6,9-10,12,19H,4,7-8,11,13H2,(H,24,25)(H,26,27)/t19-/m0/s1
#inchikey OWFZDADMSQYQET
#Ion_Source LC-ESI
#Instrument qTof
#Compound_Source NIH Natural Product Library
#PI Dorrestein
#Data_Collector VVP/LMS
#Scan -1
#Precursor_MZ 408.145
#ExactMass 407.137
#Charge 1
#CAS_Number N/A
#Pubmed_ID N/A
#Smiles OC(=O)[C@H](Cc1ccccc1)NC(=O)COc2ccc3c4CCCc4c(=O)oc3c2
#INCHI_AUX N/A
#Library_Class 1
#SpectrumID CCMSLIB00000079398
#IonMode Positive
#UpdateWorkflowName UPDATE-SINGLE-ANNOTATED-GOLD
#LibraryQualityString Gold
#TaskID b1d8e8f6646f4e71acdff9ca3d919d08
##Scan# 2069
#SpectrumFile p1-G05_GG5_01_17949.mzXML
#LibraryName NIH_Natural_Products_Library.mgf
#MQScore -1
#Organism NIH_Natural_Products_Library
#TIC_Query 0
#RT_Query -1
#MZErrorPPM -1
#SharedPeaks 0
#MassDiff 0
#LibMZ -1
#SpecMZ 408.145
#SpecCharge 0
#internalFilename spec-00000.mgf

>collision 10
94.964043 108.0
95.074753 188.0
95.194992 124.0
95.292107 156.0
95.359062 228.0
95.375046 184.0
95.408722 72.0
95.649933 160.0
95.668182 172.0
95.712234 140.0
96.008438 140.0
96.057198 48.0
96.330482 112.0
96.576775 216.0
96.66481 176.0
96.986 128.0
97.076187 196.0
97.146797 132.0
97.193878 252.0
97.313614 144.0
97.513977 172.0
97.616211 160.0
97.751938 204.0
97.866104 220.0
97.932236 192.0
97.972458 212.0
98.530769 152.0
98.613762 200.0
98.864937 176.0
98.955986 152.0
99.021339 204.0
99.251213 156.0
99.626328 180.0
99.683945 168.0
99.827072 240.0
100.081772 148.0
100.107658 180.0
100.225182 116.0
100.332809 192.0
100.391602 152.0
100.492363 196.0
100.560211 192.0
100.707962 272.0
100.74192 188.0
100.789871 96.0
100.805855 136.0
101.071808 260.0
101.127838 188.0
101.161865 108.0
101.233948 208.0
101.278008 248.0
101.374176 132.0
101.638863 180.0
101.731186 104.0
101.966194 192.0
102.036552 192.0
102.050621 176.0
102.102905 192.0
102.159225 108.0
102.251785 68.0
102.267883 188.0
102.594208 148.0
102.656715 192.0
102.856453 168.0
103.053391 2812.0
103.216064 168.0
103.280785 44.0
103.511497 160.0
103.888481 176.0
104.059151 304.0
104.089417 48.0
104.105659 72.0
104.351524 188.0
104.520348 76.0
104.540695 212.0
104.613968 228.0
104.880814 40.0
104.927704 224.0
104.962364 232.0
105.031578 128.0
105.070023 7908.0
105.131676 40.0
105.213318 32.0
105.288872 72.0
105.305206 120.0
105.347008 104.0
105.544312 124.0
105.712044 172.0
105.92292 80.0
105.98848 152.0
106.073311 872.0
106.111458 156.0
106.355019 224.0
106.528061 136.0
106.665741 56.0
106.830254 172.0
106.854942 164.0
106.898148 88.0
106.95166 48.0
107.048065 536.0
107.089615 152.0
107.190559 164.0
107.256508 192.0
107.848907 232.0
108.008118 88.0
108.097084 208.0
108.16745 184.0
108.353828 48.0
108.376617 76.0
108.48439 116.0
108.527924 100.0
108.805946 180.0
109.032356 120.0
109.188278 216.0
109.36097 136.0
109.419258 152.0
109.477554 172.0
109.617126 160.0
109.740105 72.0
110.007149 212.0
110.103195 196.0
110.266151 204.0
110.404137 204.0
110.59243 212.0
110.628014 152.0
110.749466 176.0
110.797646 116.0
110.860504 228.0
110.900322 136.0
110.946442 116.0
110.979553 200.0
111.315498 152.0
111.490074 140.0
111.515297 208.0
111.647751 180.0
111.842102 180.0
112.254242 84.0
112.416672 156.0
112.448822 156.0
112.483154 48.0
112.659485 216.0
112.959663 152.0
113.143776 232.0
113.37677 136.0
113.436119 168.0
113.463676 180.0
113.480637 164.0
113.70108 148.0
113.718231 160.0
113.781906 144.0
113.806068 184.0
114.096336 160.0
114.200531 172.0
114.434616 144.0
114.541092 76.0
114.92057 232.0
115.003792 88.0
115.054222 2112.0
115.134033 44.0
115.234428 124.0
115.533737 212.0
115.696381 52.0
115.739204 184.0
115.788452 140.0
115.916992 116.0
116.059128 640.0
116.154968 456.0
116.189293 212.0
116.245079 152.0
116.376015 148.0
116.416817 200.0
116.455475 156.0
116.517769 72.0
116.756363 124.0
117.06012 3236.0
117.09729 244.0
117.139481 156.0
117.249367 164.0
117.307564 44.0
117.339905 152.0
117.439102 200.0
117.549126 140.0
117.793091 200.0
117.905449 60.0
117.983261 144.0
118.02002 156.0
118.071434 844.0
118.123825 136.0
118.149788 104.0
118.268806 32.0
118.30777 176.0
118.338074 180.0
118.610512 248.0
118.723785 112.0
118.838745 160.0
118.971138 124.0
119.049301 164.0
119.077881 332.0
119.127495 220.0
119.247002 76.0
119.377441 124.0
119.653778 188.0
120.02636 208.0
120.080353 7144.0
120.133224 56.0
120.320908 216.0
120.340553 152.0
120.498878 216.0
120.860756 192.0
120.882637 168.0
120.98288 180.0
121.084831 1052.0
121.384277 200.0
121.454453 124.0
121.507103 164.0
121.540016 152.0
121.586098 52.0
121.693657 172.0
121.737572 112.0
121.851791 120.0
121.968262 132.0
122.058403 164.0
122.093582 180.0
122.518402 152.0
122.562469 176.0
122.672661 204.0
122.855698 164.0
123.049911 136.0
123.074196 216.0
123.096275 184.0
123.421097 196.0
123.609116 176.0
123.96785 152.0
124.111938 112.0
124.329559 152.0
124.535805 88.0
124.573563 152.0
124.677994 152.0
124.744675 216.0
125.044952 192.0
125.189667 120.0
125.662216 148.0
125.751472 52.0
125.94796 208.0
126.044029 88.0
126.222847 152.0
126.426414 232.0
126.700706 192.0
126.820595 132.0
126.84301 224.0
127.052277 312.0
127.143555 148.0
127.240074 116.0
127.293961 204.0
127.550087 208.0
127.673111 184.0
127.88073 256.0
127.928902 200.0
127.986534 180.0
128.011307 144.0
128.061981 3864.0
128.103653 108.0
128.132935 188.0
128.175751 156.0
128.238846 100.0
128.543304 56.0
128.563614 36.0
128.757767 56.0
128.816483 196.0
128.854889 180.0
128.936234 148.0
129.026657 84.0
129.069489 5636.0
129.171295 108.0
129.227936 56.0
129.259613 124.0
129.289032 64.0
129.431656 52.0
129.563019 192.0
129.651382 72.0
129.764725 156.0
129.966583 152.0
130.065598 6008.0
130.134552 184.0
130.159531 36.0
130.211761 136.0
130.29126 48.0
130.363968 104.0
130.384415 148.0
130.456253 60.0
130.529907 64.0
130.559479 116.0
130.695953 120.0
130.837067 80.0
130.896271 92.0
131.047607 916.0
131.086533 1376.0
131.114532 100.0
131.14003 176.0
131.260864 52.0
131.287186 132.0
131.295944 176.0
131.352081 172.0
131.502686 172.0
131.536911 116.0
131.614548 92.0
131.760712 180.0
131.795547 228.0
131.863541 60.0
131.906967 164.0
131.984695 96.0
132.016724 168.0
132.054108 332.0
132.081161 25252.0
132.154343 48.0
132.173508 48.0
132.208481 212.0
132.23024 60.0
132.254654 48.0
132.280136 152.0
132.321045 48.0
132.3508 156.0
132.371414 44.0
132.554672 40.0
132.608871 80.0
132.717422 96.0
132.754105 212.0
132.825211 68.0
132.906448 180.0
132.920746 152.0
132.994995 88.0
133.065811 1200.0
133.083908 2432.0
133.118973 76.0
133.148834 68.0
133.199356 108.0
133.265976 168.0
133.429169 52.0
133.643066 80.0
133.762726 124.0
133.868637 60.0
133.976898 160.0
134.0345 84.0
134.068527 140.0
134.087112 168.0
134.119766 84.0
134.175095 148.0
134.265015 60.0
134.454193 36.0
134.599625 88.0
134.615799 104.0
134.687393 84.0
134.973969 116.0
135.376602 76.0
135.80304 52.0
135.930634 40.0
136.05365 184.0
136.155823 136.0
136.20459 128.0
136.499756 172.0
136.744019 120.0
136.783585 80.0
136.881378 160.0
137.016464 164.0
137.223892 140.0
137.310165 148.0
137.36615 76.0
137.496811 180.0
138.010727 148.0
138.080887 92.0
138.144028 136.0
138.193161 160.0
138.415527 64.0
138.811539 156.0
138.985123 140.0
139.050827 148.0
139.457153 168.0
139.551178 120.0
140.059494 52.0
140.554581 176.0
140.585266 56.0
140.684387 184.0
140.767029 184.0
140.981995 196.0
141.068512 828.0
141.237335 184.0
141.365097 124.0
141.436096 56.0
141.815079 156.0
141.978668 72.0
142.073227 364.0
142.163712 84.0
142.591187 44.0
142.985977 136.0
143.07576 356.0
143.126434 132.0
143.600662 156.0
143.789154 76.0
143.834503 172.0
144.054703 884.0
144.082855 136.0
144.109131 252.0
144.192764 76.0
144.405563 176.0
144.913055 156.0
145.032867 100.0
145.06395 812.0
145.162338 124.0
145.215088 112.0
145.822525 92.0
146.002838 188.0
146.026886 136.0
146.062607 296.0
146.173645 104.0
146.334915 172.0
146.687256 224.0
146.778046 236.0
146.809601 168.0
146.976044 172.0
147.042923 960.0
147.081039 540.0
147.205368 108.0
147.401031 52.0
148.041122 160.0
148.056595 320.0
148.0784 160.0
148.934586 96.0
149.058197 136.0
149.885818 164.0
150.054001 172.0
150.092575 528.0
150.561539 68.0
150.639694 176.0
151.094406 72.0
151.679688 144.0
151.927353 36.0
152.651917 84.0
152.750305 152.0
152.917618 120.0
153.213104 168.0
153.245132 120.0
153.405319 100.0
153.54834 164.0
154.407806 156.0
154.580978 92.0
155.05864 436.0
155.197754 216.0
155.763596 264.0
155.895279 208.0
156.059326 260.0
156.206055 136.0
156.315536 56.0
156.43042 196.0
156.452423 128.0
156.554504 176.0
156.708954 180.0
156.79866 176.0
156.855988 108.0
156.970673 60.0
157.031311 416.0
157.064255 7104.0
157.230118 108.0
157.310593 88.0
157.455917 116.0
157.652161 96.0
157.669662 56.0
157.734634 96.0
157.834641 156.0
157.947189 168.0
158.06778 1300.0
158.179901 52.0
158.252502 80.0
158.397751 112.0
158.778732 72.0
158.899139 144.0
158.941788 220.0
159.045486 360.0
159.079224 3556.0
159.20787 80.0
159.227966 164.0
159.248062 108.0
159.373672 76.0
159.408844 124.0
159.564682 132.0
159.889175 136.0
160.052002 236.0
160.083633 340.0
160.183762 104.0
160.229111 136.0
160.367706 164.0
160.468536 228.0
160.920151 172.0
161.061172 288.0
161.086914 668.0
161.124725 36.0
161.144943 36.0
161.211685 116.0
161.357239 100.0
161.529205 176.0
162.082581 132.0
162.124191 184.0
162.185028 48.0
162.30925 84.0
162.590836 76.0
162.623825 60.0
162.887894 124.0
163.017471 116.0
163.037796 112.0
163.28186 116.0
163.607559 84.0
163.658478 188.0
164.390045 132.0
165.166733 152.0
165.325363 40.0
165.904221 108.0
166.087753 212.0
166.789841 212.0
167.049561 128.0
167.070145 196.0
167.703598 168.0
168.093826 204.0
169.020676 156.0
169.063812 256.0
169.468613 196.0
169.512665 116.0
169.849701 148.0
169.875641 148.0
169.974228 108.0
170.065063 168.0
170.722366 164.0
170.987732 172.0
171.047592 188.0
171.076691 204.0
171.093353 348.0
171.495605 92.0
172.053238 120.0
172.295425 184.0
172.688812 144.0
172.984497 132.0
173.059494 284.0
173.157303 148.0
173.382614 276.0
173.406204 40.0
173.52417 176.0
173.668396 44.0
174.06752 1056.0
174.098816 136.0
174.406204 180.0
175.034973 120.0
175.073654 796.0
175.311569 168.0
175.580475 184.0
175.963089 216.0
176.080048 204.0
176.388412 192.0
176.544403 144.0
176.795731 136.0
176.943954 164.0
177.335999 204.0
177.489761 180.0
177.64624 152.0
177.850555 72.0
178.084686 172.0
178.246277 160.0
178.583893 184.0
178.953796 128.0
179.108261 84.0
179.82283 144.0
180.284851 80.0
180.664536 168.0
181.062057 188.0
181.100845 140.0
181.183899 224.0
181.344666 192.0
181.400955 100.0
182.784119 60.0
182.846024 100.0
182.980606 92.0
183.004837 204.0
183.042877 188.0
183.144867 244.0
183.217606 184.0
183.279572 96.0
183.452057 180.0
184.056412 176.0
184.283295 160.0
184.553589 180.0
184.58873 188.0
184.629303 124.0
184.797012 172.0
184.834885 180.0
184.856537 92.0
184.994965 136.0
185.024353 156.0
185.060135 13684.0
185.098068 180.0
185.167862 52.0
185.189529 84.0
185.253784 156.0
185.376465 60.0
185.437607 100.0
185.463196 84.0
185.533676 32.0
185.671951 84.0
185.70993 52.0
185.756042 76.0
185.834717 56.0
185.864563 160.0
186.062378 1548.0
186.38147 152.0
186.426666 52.0
186.451126 136.0
186.942596 188.0
186.989624 96.0
187.029434 224.0
187.073898 7772.0
187.139343 32.0
187.169296 48.0
187.211853 140.0
187.264603 108.0
187.302734 40.0
187.381744 32.0
187.412918 72.0
187.460754 64.0
187.526169 104.0
187.793365 88.0
187.891571 80.0
187.940674 48.0
188.008896 52.0
188.07785 1600.0
188.123535 56.0
188.150833 36.0
188.322861 128.0
188.358368 48.0
188.809357 36.0
188.84491 76.0
189.022736 76.0
189.050095 200.0
189.082169 128.0
189.178741 52.0
189.252655 40.0
189.408752 144.0
189.427933 212.0
189.477249 140.0
189.503647 140.0
189.614258 80.0
190.080444 148.0
190.844055 124.0
191.240189 232.0
191.499008 140.0
191.893066 44.0
192.124725 180.0
194.604523 120.0
194.854492 144.0
195.571426 132.0
196.037048 152.0
196.26004 176.0
196.71759 200.0
196.938171 84.0
197.052704 60.0
197.276291 52.0
197.589508 148.0
198.152237 208.0
198.342804 112.0
198.777512 108.0
198.940292 76.0
199.063843 188.0
200.084488 176.0
201.049957 224.0
201.243256 140.0
201.313858 108.0
201.89035 128.0
202.000656 192.0
202.062393 2064.0
202.38858 176.0
202.441177 56.0
202.5923 160.0
202.648956 80.0
202.853897 64.0
202.898376 128.0
202.934677 164.0
203.070145 8928.0
203.125244 248.0
203.179138 68.0
203.250061 64.0
203.29689 96.0
203.326691 144.0
203.406158 84.0
203.462936 48.0
203.644669 92.0
203.670227 96.0
203.801651 104.0
203.920273 152.0
204.072327 1900.0
204.121277 192.0
204.181839 40.0
204.241562 80.0
204.346817 128.0
204.452103 44.0
204.526108 44.0
204.565948 48.0
204.708313 56.0
205.065994 224.0
205.219635 80.0
205.389145 180.0
205.393112 116.0
205.495026 144.0
205.689072 140.0
205.796585 92.0
205.897507 48.0
206.083176 56.0
206.489105 52.0
206.574921 52.0
206.652161 84.0
207.009521 132.0
208.024918 120.0
208.122528 128.0
208.524704 188.0
208.705811 92.0
210.414368 116.0
210.971939 72.0
211.078918 180.0
211.790863 192.0
212.089218 264.0
212.698441 144.0
213.064316 1740.0
213.183456 44.0
213.319702 64.0
213.375305 72.0
213.610855 116.0
213.779617 56.0
213.936783 52.0
214.075775 320.0
214.169739 116.0
214.312485 60.0
214.487793 180.0
214.516495 136.0
214.688522 172.0
214.717682 28.0
215.069824 15568.0
215.143692 48.0
215.21376 48.0
215.310135 40.0
215.426956 72.0
215.542984 152.0
215.596436 44.0
215.722107 64.0
215.748428 96.0
215.84491 180.0
215.964813 100.0
216.074112 2600.0
216.166672 36.0
216.201797 76.0
216.295456 80.0
216.614624 48.0
216.643921 64.0
216.684937 196.0
216.781631 48.0
216.857834 56.0
216.881271 72.0
217.033722 60.0
217.074188 260.0
217.308212 68.0
217.462021 88.0
217.617599 32.0
217.696884 144.0
217.999466 120.0
218.062454 156.0
219.058655 132.0
219.72197 32.0
222.370361 52.0
223.005951 216.0
223.124863 116.0
224.208344 80.0
224.58699 96.0
225.596283 52.0
226.616821 144.0
227.067902 192.0
227.958084 124.0
228.066284 56.0
228.087326 148.0
228.706955 48.0
229.396744 76.0
232.263382 56.0
232.384735 112.0
233.084122 184.0
233.295837 48.0
235.550873 128.0
237.930313 160.0
240.957748 40.0
242.080231 160.0
243.062805 1108.0
243.221466 72.0
243.268036 96.0
244.72612 100.0
244.997086 160.0
245.071854 76.0
246.007477 148.0
246.119873 100.0
247.10939 320.0
247.141968 120.0
247.663147 52.0
249.098862 188.0
249.126541 40.0
250.082458 172.0
250.249298 68.0
250.869949 96.0
254.511505 112.0
256.101593 120.0
257.102692 188.0
258.537598 184.0
260.094391 180.0
261.075897 208.0
262.07843 204.0
263.586395 64.0
265.026276 124.0
265.149445 176.0
270.065765 124.0
275.106781 144.0
275.525909 104.0
277.123962 180.0
281.147461 64.0
284.907684 84.0
286.404602 76.0
288.892426 132.0
289.759094 76.0
294.210907 148.0
295.4104 184.0
301.468658 100.0
302.509735 144.0
303.097809 140.0
304.114624 140.0
304.506958 92.0
305.113098 1320.0
305.490662 36.0
306.119385 352.0
306.326111 28.0
306.378357 136.0
306.531677 32.0
306.894165 84.0
307.117371 92.0
312.357544 108.0
314.207001 108.0
315.230957 48.0
316.13269 188.0
316.486664 108.0
317.067627 144.0
317.12915 112.0
320.065826 56.0
321.138519 112.0
323.754639 28.0
326.237579 72.0
327.102814 92.0
328.01947 184.0
329.686981 124.0
331.974884 88.0
334.137909 148.0
337.177185 160.0
337.707336 52.0
339.567932 252.0
341.139465 68.0
342.033356 80.0
344.126526 264.0
345.127167 124.0
346.131104 116.0
346.523987 88.0
350.846283 160.0
351.554962 148.0
358.134735 148.0
359.24295 124.0
360.107361 140.0
360.243347 116.0
360.72702 44.0
362.136932 2864.0
362.275726 60.0
363.145386 1140.0
363.400757 180.0
364.132538 172.0
364.707123 68.0
364.862976 56.0
366.187164 48.0
366.606262 88.0
370.112946 108.0
373.09021 44.0
394.190063 120.0
406.202179 56.0
408.130707 164.0
409.143799 144.0
415.622681 120.0
427.061615 76.0
432.383972 80.0
434.522125 88.0
436.877686 88.0
453.180542 80.0
461.822418 64.0
468.41983 40.0
473.932495 40.0
483.788544 28.0
496.301147 92.0
513.428528 128.0
520.415283 68.0
526.55835 120.0
541.932312 40.0
542.30304 136.0
545.70575 92.0
579.158386 172.0
637.976807 76.0
658.453247 56.0
667.16925 144.0
671.102661 240.0
720.476318 176.0
723.487183 64.0
724.654724 140.0
736.981384 116.0
754.668152 76.0
760.1073 216.0
766.210327 200.0
778.700806 136.0
789.082214 48.0
826.676758 180.0
828.600586 160.0
833.764893 144.0
835.046997 76.0
837.256958 196.0
845.396912 44.0
849.382996 116.0
861.269104 192.0
862.484436 84.0
864.080933 112.0
867.383789 164.0
871.010132 192.0
875.391724 172.0
898.335388 88.0
913.599487 184.0
926.816284 196.0
930.539734 156.0
930.582275 64.0
931.456787 180.0
931.529663 152.0
934.338257 180.0
937.760437 160.0
943.229431 192.0
947.690796 204.0
949.787415 152.0
961.212097 84.0
977.055176 156.0
978.25 176.0
980.673096 152.0
982.500122 132.0
986.309326 44.0
989.787781 152.0
993.862061 200.0
1002.330872 128.0
1010.768005 128.0
1014.327271 104.0
1015.863464 140.0
1029.405884 188.0
1030.088379 140.0
1030.990234 116.0
1031.706055 60.0
1034.482422 128.0
1039.539429 148.0
1041.150757 148.0
1041.324097 196.0
1041.985718 116.0
1045.464355 220.0
1046.069458 172.0
1050.367432 168.0
1051.503052 100.0
1053.330322 272.0
1055.993286 180.0
1056.258545 192.0
1056.362061 200.0
1056.530273 216.0
1060.05249 188.0
1061.018188 140.0
1062.380127 168.0
1068.259155 52.0
1072.72644 144.0
1074.102295 120.0
1074.624146 212.0
1076.699951 72.0
1077.60144 200.0
1079.464233 104.0
1079.817383 204.0
1081.81311 216.0
1082.140503 144.0
1084.83313 148.0
1088.224854 108.0
1089.229614 188.0
1091.049927 204.0
1093.661499 76.0
1094.543701 180.0
1094.984863 104.0
1096.084961 212.0
1101.118408 160.0
1101.488281 144.0
1102.459595 172.0
1103.689087 200.0
1107.116821 196.0
1108.6604 164.0
1112.354736 176.0
1112.739746 104.0
1114.194214 48.0
1114.307129 120.0
1117.691528 136.0
1120.394653 164.0
1122.13562 88.0
1122.694214 180.0
1122.747559 156.0
1126.999756 152.0
1129.192383 52.0
1137.212158 164.0
1137.742554 152.0
1141.222656 128.0
1146.567505 212.0
1149.629272 164.0
1150.661987 108.0
1151.587158 128.0
1161.984741 176.0
1167.343994 128.0
1169.133057 168.0
1172.429199 140.0
1174.338135 328.0
1175.047607 132.0
1182.89978 172.0
1183.947388 76.0
1185.043335 156.0
1190.118896 184.0
1190.180664 284.0
1193.884521 176.0
1196.905518 168.0
1200.143921 68.0
1200.647339 204.0
1200.716309 152.0
1204.581543 196.0
1209.906372 152.0
1211.222168 184.0
1214.160889 48.0
1214.854492 204.0
1215.152832 196.0
1215.985474 168.0
1218.137939 132.0
1218.888306 132.0
1220.848633 112.0
1222.246826 216.0
1225.442749 144.0
1226.069946 160.0
1226.759888 196.0
1231.96582 140.0
1232.43396 96.0
1233.726929 152.0
1235.461304 112.0
1235.846069 164.0
1236.440918 128.0
1238.450317 204.0
1238.849487 40.0
1239.115723 160.0
1239.234863 148.0
1239.620239 196.0
1240.966064 164.0
1245.703247 180.0
1248.634155 200.0
1250.639404 184.0
1252.758911 108.0
1253.851074 156.0
1257.765503 176.0
1257.970215 52.0
1258.203247 248.0
1258.930542 160.0
1260.703613 184.0
1261.035767 180.0
1261.608398 120.0
1262.470947 292.0
1262.534668 56.0
1264.345703 132.0
1264.720825 212.0
1266.965576 164.0
1273.52002 204.0
1276.767944 36.0
1279.101685 180.0
1282.050415 216.0
1282.934204 36.0
1283.804077 200.0
1284.067993 236.0
1284.581543 156.0
1284.645752 108.0
1285.822998 88.0
1286.322632 152.0
1287.265137 104.0
1288.500732 64.0
1290.494751 136.0
1294.057861 172.0
1294.838379 184.0
1294.960205 56.0
1295.203735 180.0
1297.088257 160.0
1299.418945 176.0
1304.812622 164.0
1306.049438 140.0
1307.841064 164.0
1310.102173 160.0
1310.707397 108.0
1312.297241 132.0
1313.670532 112.0
1316.85376 136.0
1317.092041 204.0
1317.460449 148.0
1320.120361 140.0
1320.684448 188.0
1321.994019 192.0
1322.21106 224.0
1322.422974 140.0
1326.491699 28.0
1329.164795 244.0
1329.429077 96.0
1332.689453 180.0
1333.452515 52.0
1335.146484 172.0
1336.586792 148.0
1338.435669 196.0
1346.262085 176.0
1347.114624 244.0
1348.576904 172.0
1348.875732 148.0
1350.257568 152.0
1350.342651 212.0
1350.469727 212.0
1351.34021 228.0
1353.001587 200.0
1353.331055 200.0
1353.448242 140.0
1354.678589 116.0
1355.272095 264.0
1355.98291 256.0
1357.317139 212.0
1357.405029 224.0
1357.87439 200.0
1360.993164 168.0
1362.616455 192.0
1363.814209 124.0
1364.012695 216.0
1364.130249 160.0
1364.343506 148.0
1365.586182 44.0
1366.682251 116.0
1368.154297 60.0
1370.768311 204.0
1372.206299 168.0
1374.485474 120.0
1374.906006 128.0
1375.828735 188.0
1375.976318 128.0
1377.512451 196.0
1378.775879 188.0
1379.138062 228.0
1381.615234 136.0
1381.93335 104.0
1381.985229 56.0
1382.747314 164.0
1382.858398 172.0
1382.917603 124.0
1384.687134 176.0
1384.938965 232.0
1385.650146 180.0
1385.805664 172.0
1386.25769 60.0
1387.169312 160.0
1389.030518 152.0
1389.276123 188.0
1390.061768 148.0
1390.789185 216.0
1391.524048 160.0
1393.261963 196.0
1393.351074 200.0
1395.826172 64.0
1396.740967 160.0
1398.608521 128.0
1399.613647 184.0
1400.59668 164.0
1400.887207 216.0
1404.069824 188.0
1404.293579 36.0
1405.934937 160.0
1407.487671 152.0
1408.675171 232.0
1410.04248 208.0
1410.76001 196.0
1411.059082 152.0
1411.290894 104.0
1411.567505 212.0
1414.088623 212.0
1414.14856 160.0
1414.53772 212.0
1417.17395 224.0
1417.930786 188.0
1418.065674 184.0
1418.920166 172.0
1422.048218 192.0
1423.241943 124.0
1423.512207 180.0
1425.006958 84.0
1425.570557 168.0
1426.404785 168.0
1426.893433 84.0
1427.171631 100.0
1429.623779 160.0
1430.428345 192.0
1432.085693 200.0
1432.823975 144.0
1433.095093 76.0
1434.474365 152.0
1435.1604 180.0
1436.246338 228.0
1436.683838 144.0
1437.498657 204.0
1437.596802 156.0
1438.147705 244.0
1440.024292 192.0
1440.405396 160.0
1441.028442 160.0
1442.687622 148.0
1442.81604 48.0
1444.184814 136.0
1445.039551 168.0
1446.545654 136.0
1447.302734 228.0
1447.499512 248.0
1447.575317 164.0
1449.719116 172.0
1449.810059 32.0
1451.447388 124.0
1452.122314 148.0
1452.751953 112.0
1453.002319 208.0
1453.51062 68.0
1455.119751 132.0
1455.666382 148.0
1456.509399 256.0
1456.683105 140.0
1457.869385 224.0
1459.02478 156.0
1459.480957 212.0
1460.393555 176.0
1460.591309 56.0
1461.960815 124.0
1462.881714 156.0
1463.209106 240.0
1463.369019 56.0
1464.404663 164.0
1464.61792 132.0
1465.151123 188.0
1466.827637 120.0
1467.269775 156.0
1467.925537 220.0
1468.100952 176.0
1469.504395 148.0
1470.481201 120.0
1471.06897 180.0
1471.259766 40.0
1471.473511 140.0
1472.1073 156.0
1472.237061 128.0
1472.748779 172.0
1473.749634 208.0
1474.796509 228.0
1474.964722 208.0
1475.19397 176.0
1475.64502 176.0
1479.409058 168.0
1481.08606 200.0
1482.158691 108.0
1482.327271 164.0
1482.955688 172.0
1483.338867 160.0
1484.266602 120.0
1486.053711 168.0
1487.036011 164.0
1489.623413 148.0
1491.598389 140.0
1492.736328 152.0
1493.104736 220.0
1496.537476 172.0
1498.154785 152.0
1498.278076 136.0
1498.470581 152.0
1500.343384 124.0
1502.348511 208.0
1503.035156 172.0
1504.324097 160.0
