>compound MLS002153151-01!(R,R)-cis-Diethyltetrahydro-2,8-chrysenediol138090-06-9
>formula C22H24O2
>ionization [M+H]+
>parentmass 321.18490646009053
#inchi InChI=1S/C22H24O2/c1-3-13-9-15-11-17(23)6-8-20(15)22-14(4-2)10-16-12-18(24)5-7-19(16)21(13)22/h5-8,11-14,23-24H,3-4,9-10H2,1-2H3/t13-,14-/m1/s1
#inchikey MASYAWHPJCQLSW
#Ion_Source LC-ESI
#Instrument qTof
#Compound_Source NIH Pharmacologically Active Library
#PI Dorrestein
#Data_Collector VP/LMS
#Scan -1
#Precursor_MZ 321.191
#ExactMass 320.178
#Charge 1
#CAS_Number N/A
#Pubmed_ID N/A
#Smiles CC[C@@H]1Cc2cc(O)ccc2C3=C1c4ccc(O)cc4C[C@H]3CC
#INCHI_AUX N/A
#Library_Class 1
#SpectrumID CCMSLIB00000086066
#IonMode Positive
#UpdateWorkflowName UPDATE-SINGLE-ANNOTATED-GOLD
#LibraryQualityString Gold
#TaskID d252d724072548979f1f6f1ced849daf
##Scan# 2308
#SpectrumFile p5-D02_GD2_01_18453.mzXML
#LibraryName Pharm_Active_Library.mgf
#MQScore -1
#Organism Pharm_Active_Library
#TIC_Query 0
#RT_Query -1
#MZErrorPPM -1
#SharedPeaks 0
#MassDiff 0
#LibMZ -1
#SpecMZ 321.191
#SpecCharge 0
#internalFilename spec-00000.mgf

>collision 10
45.037422 288.0
45.494537 148.0
45.877934 100.0
46.231808 160.0
46.56395 96.0
46.885014 196.0
47.08556 120.0
47.359093 180.0
47.431713 140.0
48.054676 196.0
48.210705 64.0
48.321323 52.0
49.744202 208.0
49.959202 108.0
50.05209 212.0
50.66647 176.0
50.889133 36.0
51.367298 40.0
51.587719 156.0
51.747433 180.0
51.873501 196.0
53.232597 96.0
53.555454 76.0
53.572933 212.0
53.724541 132.0
53.893898 136.0
54.220215 212.0
54.466702 176.0
54.615154 144.0
54.93037 92.0
55.447861 156.0
56.620342 136.0
56.800194 164.0
56.977329 228.0
57.088558 104.0
57.144211 216.0
57.180325 172.0
57.349007 152.0
57.533035 100.0
58.050484 64.0
58.363281 156.0
58.405861 160.0
58.436287 164.0
58.497162 212.0
59.121407 140.0
59.679752 88.0
60.197483 140.0
60.256176 128.0
60.452541 128.0
60.639927 156.0
60.866417 212.0
60.886604 168.0
60.964279 168.0
61.520317 128.0
61.621826 144.0
61.673393 192.0
63.901684 216.0
64.072037 152.0
64.560455 112.0
64.621231 104.0
65.34803 220.0
65.46714 44.0
67.196663 164.0
68.16433 220.0
68.350143 152.0
68.768723 100.0
69.306168 144.0
70.25882 172.0
70.525993 40.0
70.556084 164.0
70.842865 204.0
70.855644 80.0
71.154167 220.0
71.233093 128.0
71.628387 160.0
71.763206 120.0
71.780067 216.0
72.483246 112.0
73.206879 152.0
73.257973 232.0
73.33976 144.0
74.072784 64.0
76.06443 148.0
76.285034 148.0
76.552971 156.0
77.273849 208.0
77.991074 84.0
78.217972 180.0
78.394089 140.0
79.213875 196.0
79.605835 120.0
79.932907 144.0
81.396881 180.0
81.896828 128.0
82.040733 148.0
82.313454 176.0
82.497696 144.0
83.365868 204.0
83.398582 40.0
83.485847 148.0
83.580437 48.0
83.59317 44.0
83.680542 132.0
83.842651 80.0
84.304352 136.0
84.457924 136.0
84.749001 180.0
85.007538 352.0
85.763405 188.0
85.96627 188.0
86.054863 240.0
86.518906 132.0
86.657806 156.0
86.783836 176.0
87.110466 160.0
88.073471 164.0
88.456795 180.0
89.40461 124.0
89.641884 208.0
89.851173 84.0
91.051231 184.0
91.127213 128.0
92.141708 176.0
92.247787 128.0
93.073509 160.0
93.09079 112.0
93.486786 160.0
93.986481 200.0
94.64109 180.0
95.127701 196.0
95.168472 96.0
95.419098 184.0
96.282303 144.0
96.692848 212.0
97.137611 224.0
97.485123 120.0
97.880501 164.0
98.966476 84.0
99.30732 132.0
99.335091 220.0
100.108223 208.0
101.254517 132.0
101.585228 128.0
101.994858 148.0
102.248276 116.0
102.266396 212.0
102.626984 144.0
103.055527 392.0
103.609207 172.0
103.998543 100.0
104.063828 380.0
104.111237 236.0
104.492332 180.0
104.885353 112.0
105.04644 124.0
105.07032 1300.0
105.788216 160.0
106.075035 196.0
106.423752 64.0
106.925323 316.0
107.049095 2916.0
107.094147 132.0
107.388878 176.0
107.415688 152.0
107.535362 236.0
107.634453 132.0
107.853439 148.0
108.053307 488.0
108.103683 80.0
108.39151 100.0
109.049736 44.0
109.273933 160.0
110.66877 156.0
110.716286 140.0
111.101952 176.0
111.32444 96.0
111.408447 88.0
111.9869 164.0
112.077484 124.0
112.85421 220.0
113.385521 232.0
113.824638 172.0
114.058327 212.0
114.34333 156.0
114.59034 200.0
114.641479 88.0
115.056786 420.0
115.459099 128.0
115.99865 200.0
116.037231 212.0
116.062965 144.0
117.068779 620.0
118.281952 196.0
119.049721 436.0
119.086136 268.0
120.054825 208.0
120.742729 108.0
121.063736 1472.0
121.108231 116.0
121.237488 44.0
121.678368 136.0
122.098053 208.0
122.183838 216.0
122.208038 48.0
122.252045 124.0
122.28286 116.0
122.613205 204.0
123.3526 180.0
123.606941 188.0
123.735313 160.0
123.821671 284.0
124.489182 156.0
124.511383 128.0
124.602455 156.0
125.416901 140.0
126.374916 132.0
127.054405 244.0
127.233284 108.0
127.327591 48.0
127.826653 176.0
127.954941 72.0
128.064911 300.0
128.331192 200.0
129.068848 356.0
129.27536 120.0
129.307037 212.0
129.506271 60.0
130.079941 80.0
130.13443 204.0
131.049866 1376.0
131.082306 316.0
131.105698 204.0
131.367905 128.0
132.056808 2148.0
132.087448 176.0
132.144638 80.0
132.325439 84.0
132.710342 52.0
132.843369 60.0
132.889252 152.0
133.006287 180.0
133.029236 148.0
133.064316 3288.0
133.104889 236.0
133.141739 168.0
133.357697 96.0
133.49794 164.0
133.725693 48.0
133.983582 136.0
134.006622 68.0
134.068405 996.0
134.098755 176.0
134.28093 136.0
134.791107 156.0
135.08609 288.0
135.137939 80.0
135.452774 176.0
135.999985 76.0
138.225601 280.0
138.363693 112.0
139.880173 204.0
140.429169 160.0
140.495209 156.0
140.988693 148.0
141.070007 280.0
141.182541 140.0
141.935562 52.0
142.07312 148.0
142.897491 192.0
143.08699 344.0
143.490509 112.0
144.057343 204.0
144.335724 172.0
145.065048 1904.0
145.133057 36.0
145.159424 180.0
145.341736 68.0
145.877289 76.0
145.92778 216.0
146.073257 2284.0
146.100937 136.0
146.512589 108.0
147.077545 2220.0
147.588058 144.0
148.087997 196.0
148.181976 88.0
148.209763 120.0
148.611115 40.0
148.912125 44.0
149.023865 180.0
149.089722 232.0
151.081512 72.0
151.19162 144.0
151.654495 208.0
151.902145 156.0
152.059174 164.0
153.070343 256.0
153.826416 176.0
154.263657 196.0
154.305679 48.0
154.956573 172.0
155.051361 172.0
155.085953 152.0
155.987396 168.0
156.23761 128.0
157.063126 564.0
157.7388 172.0
157.918823 116.0
158.069138 140.0
158.504623 176.0
159.081375 780.0
159.287369 200.0
159.400421 160.0
159.663437 172.0
160.084015 180.0
160.218124 116.0
160.540741 52.0
160.891464 172.0
160.992462 176.0
161.058121 124.0
161.096344 8116.0
161.192017 48.0
161.290573 84.0
161.324921 140.0
161.368942 140.0
161.533325 64.0
161.585602 52.0
161.600967 184.0
161.637054 112.0
161.669952 96.0
161.687668 52.0
161.814224 64.0
161.892715 72.0
161.978836 48.0
162.098694 1336.0
162.528961 88.0
162.574631 104.0
163.09845 216.0
163.156281 124.0
163.186798 60.0
163.33429 132.0
163.39534 108.0
163.48439 168.0
165.073624 220.0
165.603378 116.0
166.524124 128.0
167.081909 156.0
167.911316 156.0
168.048035 72.0
168.192551 108.0
168.794495 184.0
169.072449 320.0
169.273193 32.0
170.070541 320.0
170.114746 108.0
170.141769 164.0
170.209274 40.0
170.770599 168.0
170.788803 52.0
170.968323 56.0
171.078461 356.0
171.233856 92.0
172.082642 160.0
173.093185 980.0
173.171768 136.0
173.517654 44.0
174.095825 276.0
175.901031 160.0
176.070007 56.0
176.455795 36.0
177.069687 156.0
177.154449 124.0
177.854477 160.0
178.072937 148.0
178.534622 156.0
178.981659 188.0
179.07753 60.0
180.026947 152.0
180.253998 96.0
180.826279 192.0
181.070786 344.0
181.327103 120.0
182.078293 136.0
182.314697 160.0
183.076004 116.0
183.094849 148.0
183.412781 124.0
184.08725 128.0
184.365494 100.0
184.760254 104.0
185.096588 460.0
185.637802 140.0
186.10994 132.0
186.589661 64.0
186.86824 56.0
187.115906 140.0
187.739868 196.0
187.778046 112.0
187.908981 184.0
189.066666 176.0
189.126251 324.0
189.256409 104.0
190.076614 196.0
190.128098 164.0
191.081268 388.0
192.095779 176.0
192.122925 200.0
193.045425 152.0
193.099442 272.0
193.58226 220.0
194.079041 428.0
194.100433 188.0
194.36673 52.0
194.963745 160.0
195.055466 136.0
195.07869 304.0
195.219498 132.0
195.840103 64.0
196.082504 168.0
196.115952 164.0
197.08429 156.0
197.551178 44.0
200.164108 188.0
200.290833 88.0
201.073242 144.0
201.515152 64.0
202.075485 708.0
202.819717 232.0
203.032349 108.0
203.085297 472.0
204.090897 596.0
204.49263 68.0
205.069016 116.0
205.099838 644.0
206.073288 324.0
206.120972 108.0
206.847382 44.0
207.085434 604.0
207.162369 180.0
208.082932 148.0
208.82431 184.0
209.01416 124.0
209.095734 256.0
209.330795 140.0
210.06842 300.0
210.221527 112.0
211.071564 192.0
211.626312 200.0
212.518997 240.0
213.073532 80.0
213.133865 120.0
215.082016 508.0
215.120773 172.0
215.240479 92.0
215.316391 48.0
215.503342 72.0
216.088348 160.0
216.398315 176.0
217.098618 144.0
217.571014 76.0
217.820618 140.0
218.026276 104.0
218.072723 536.0
218.164413 116.0
218.223221 168.0
218.767471 100.0
218.81752 212.0
219.080658 1352.0
219.248215 92.0
219.624939 208.0
219.919998 192.0
219.964264 56.0
220.029205 72.0
220.088272 1216.0
220.623016 140.0
221.092499 436.0
221.196884 224.0
221.220566 116.0
221.507797 136.0
221.670746 124.0
221.732986 140.0
221.919724 60.0
222.094315 168.0
222.649689 80.0
222.718002 68.0
223.075806 296.0
223.119156 144.0
223.339203 56.0
224.079285 292.0
227.084381 152.0
228.084442 208.0
229.074188 148.0
229.978989 132.0
230.081619 148.0
230.102753 112.0
230.824875 144.0
231.080536 1528.0
231.296829 44.0
231.599609 64.0
232.084213 1444.0
233.09613 928.0
233.292801 104.0
233.542145 112.0
234.066635 172.0
234.1035 264.0
234.894531 176.0
235.072189 844.0
235.111115 184.0
235.798294 128.0
235.916595 144.0
236.084412 1340.0
236.143768 72.0
236.180466 164.0
237.095032 576.0
237.139465 204.0
237.460724 136.0
238.458527 144.0
238.879761 40.0
239.387589 196.0
240.843246 124.0
242.960556 252.0
244.0896 524.0
244.598206 92.0
244.719604 116.0
245.095184 740.0
245.155685 44.0
246.104202 180.0
246.888245 88.0
247.075531 1400.0
247.109833 124.0
248.082153 2336.0
248.28334 116.0
248.360229 68.0
248.401016 64.0
248.730484 60.0
248.840363 160.0
248.9534 172.0
249.037354 60.0
249.089676 3632.0
249.12709 140.0
249.305237 64.0
249.651031 84.0
249.817719 48.0
249.902664 136.0
249.990768 128.0
250.034821 172.0
250.056854 168.0
250.097763 1196.0
250.488205 92.0
250.844284 172.0
251.108505 180.0
251.143829 132.0
251.607681 68.0
251.885574 96.0
251.99614 120.0
252.106491 152.0
254.923904 28.0
256.120117 216.0
259.065247 136.0
260.089935 156.0
260.685516 116.0
261.09024 752.0
261.772766 124.0
262.095581 380.0
262.134888 172.0
263.068085 168.0
263.112701 444.0
263.197998 52.0
264.109833 292.0
264.46524 100.0
265.117584 176.0
265.654419 56.0
266.027588 60.0
266.118896 164.0
266.602478 56.0
271.089539 188.0
273.128326 96.0
274.099487 128.0
275.105408 152.0
275.135132 112.0
276.099945 128.0
276.126404 104.0
277.120667 716.0
278.126221 424.0
279.114258 156.0
280.142639 132.0
282.312103 60.0
289.114258 120.0
289.971069 104.0
290.130402 568.0
291.135773 868.0
292.145477 576.0
293.141754 208.0
295.30957 92.0
295.371124 60.0
306.892242 164.0
308.057861 96.0
312.056519 168.0
319.117096 164.0
319.171509 452.0
319.252197 36.0
320.157715 124.0
320.18457 180.0
321.197021 252.0
322.178436 164.0
329.225586 108.0
357.728394 112.0
385.223724 136.0
387.6651 96.0
392.523712 68.0
406.217316 80.0
418.193909 140.0
420.104919 36.0
422.637909 32.0
461.26413 128.0
544.910767 36.0
569.950073 96.0
590.714417 112.0
619.30658 188.0
690.389709 60.0
707.458252 116.0
864.235229 224.0
898.450012 144.0
915.574585 164.0
941.476074 128.0
953.071716 188.0
958.849915 72.0
972.679626 152.0
979.058594 168.0
995.461426 140.0
998.062805 100.0
1001.442139 52.0
1025.639648 220.0
1041.154541 176.0
1042.709229 52.0
1048.913818 224.0
1052.010132 84.0
1058.650146 164.0
1093.993164 36.0
1099.338379 92.0
1106.092773 152.0
1128.077271 128.0
1129.976562 152.0
1133.176758 64.0
1149.124268 52.0
1181.011475 188.0
1181.08667 128.0
1185.187378 176.0
1186.338745 184.0
1199.998779 188.0
1217.887085 188.0
1240.144409 160.0
1241.174927 216.0
1257.80603 180.0
1258.293091 176.0
1261.161011 148.0
1274.007812 156.0
1276.026001 196.0
1279.447998 228.0
1283.951172 168.0
1290.234619 180.0
1307.744141 96.0
1316.857422 44.0
1338.744507 116.0
1339.487427 136.0
1345.63501 228.0
1350.077515 148.0
1367.435181 152.0
1377.50708 136.0
1378.46106 152.0
1381.853882 160.0
1383.119263 184.0
1384.274292 140.0
1385.348145 72.0
1396.742432 224.0
1412.077148 144.0
1422.822266 112.0
1424.992676 208.0
1450.075317 144.0
1451.106201 104.0
1453.844482 40.0
1458.477295 160.0
1465.950806 164.0
1471.160034 144.0
1472.778809 160.0
1477.541016 208.0
1483.874634 180.0
1494.034912 60.0
1498.81604 172.0
