>compound Lamotrigine
>formula C9H7Cl2N5
>ionization [M+H]+
>parentmass 256.01712
#inchi InChI=1S/C9H7Cl2N5/c10-5-3-1-2-4(6(5)11)7-8(12)14-9(13)16-15-7/h1-3H,(H4,12,13,14,16)
#inchikey PYZRQGJRPPTADH
#Ion_Source LC-ESI
#Instrument qTof
#Compound_Source Commercial
#PI Dorrestein
#Data_Collector Garg_Neha
#Scan -1
#Precursor_MZ 256.015
#ExactMass 255.008
#Charge 1
#CAS_Number 84057-84-1, 375347-20-9 (H2O), 493025-05-1 (HCl)
#Pubmed_ID N/A
#Smiles N1=NC(=NC(=C1C2C(=C(C=CC=2)Cl)Cl)N)N
#INCHI_AUX N/A
#Library_Class 1
#SpectrumID CCMSLIB00000078542
#IonMode Positive
#UpdateWorkflowName UPDATE-SINGLE-ANNOTATED-GOLD
#LibraryQualityString Gold
#TaskID 77f51c88eb8b467eb4a01dd2d0cb90d2
##Scan# 1050
#SpectrumFile Plate9_1_20_GC4_01_15750.mzXML
#LibraryName FDALibrary_2_04302014.mgf
#MQScore -1
#Organism FDALibrary_2_04302014
#TIC_Query 0
#RT_Query -1
#MZErrorPPM -1
#SharedPeaks 0
#MassDiff 0
#LibMZ -1
#SpecMZ 256.015
#SpecCharge 0
#internalFilename spec-00000.mgf

>collision 10
45.444775 192.0
45.479668 152.0
45.577705 152.0
45.722939 140.0
45.768707 148.0
45.818542 140.0
45.860317 148.0
46.269627 200.0
46.517715 168.0
46.540794 156.0
47.282341 128.0
47.486523 164.0
47.748848 192.0
47.989838 176.0
48.046383 156.0
48.062939 172.0
48.311634 148.0
48.99049 164.0
49.018356 240.0
49.290462 96.0
50.119759 216.0
50.208569 208.0
50.865875 144.0
51.657387 176.0
51.876488 148.0
52.117035 152.0
52.223984 236.0
52.501953 216.0
52.511288 200.0
52.535126 176.0
52.987637 152.0
53.414444 168.0
53.453724 196.0
53.954014 200.0
54.336262 148.0
54.399364 168.0
54.781818 108.0
56.079777 220.0
56.161781 220.0
56.658077 220.0
57.025719 180.0
57.057285 152.0
57.168453 128.0
57.248379 168.0
57.905334 248.0
58.534058 168.0
58.630028 196.0
59.242744 208.0
59.4436 204.0
59.492714 196.0
60.063625 156.0
60.252346 160.0
60.497852 148.0
60.868412 160.0
61.01733 180.0
61.377239 148.0
61.564499 172.0
61.741093 168.0
61.897583 144.0
62.229996 168.0
62.269253 148.0
62.481464 148.0
62.495625 164.0
62.873817 172.0
63.387775 196.0
63.436909 220.0
63.609818 144.0
63.716217 200.0
64.631409 228.0
65.171761 140.0
65.350235 148.0
65.908127 184.0
66.048775 184.0
66.393761 176.0
66.596634 164.0
67.045677 156.0
67.148392 192.0
67.269135 172.0
67.481514 172.0
67.545296 148.0
67.596497 244.0
67.617287 144.0
67.926971 148.0
68.082893 184.0
68.268593 156.0
68.553391 212.0
68.800804 140.0
68.918068 224.0
69.258858 204.0
69.277863 212.0
69.804886 176.0
70.054756 152.0
70.610374 192.0
70.720802 184.0
71.079437 172.0
71.336411 196.0
71.561844 164.0
73.435287 116.0
73.916183 196.0
73.993202 224.0
74.185081 192.0
74.392654 148.0
74.463051 140.0
74.715736 188.0
74.812111 172.0
75.147499 192.0
75.186142 152.0
75.512672 140.0
75.564568 152.0
76.74913 192.0
76.801453 208.0
77.141953 168.0
77.20665 148.0
77.61116 216.0
77.941154 140.0
77.960617 204.0
78.115204 176.0
78.131035 176.0
78.384583 152.0
78.463898 148.0
79.402855 220.0
80.38665 160.0
80.441978 148.0
81.29393 192.0
81.692802 212.0
81.779175 164.0
82.249619 164.0
82.437653 144.0
82.559349 352.0
82.632736 172.0
83.027618 168.0
83.165512 144.0
83.29261 180.0
85.253075 164.0
85.707649 136.0
86.298241 172.0
86.457321 164.0
86.807449 160.0
87.396286 176.0
88.325188 200.0
88.482544 148.0
88.564941 148.0
88.902412 188.0
89.184135 172.0
89.209229 160.0
89.347733 140.0
89.899811 172.0
90.101845 176.0
90.843956 172.0
90.868614 144.0
91.818306 156.0
92.200699 148.0
92.77494 192.0
92.79879 160.0
92.963753 184.0
93.374878 192.0
93.421181 212.0
94.074326 168.0
94.435822 144.0
94.514816 140.0
94.935699 148.0
95.195374 156.0
95.693153 160.0
95.735985 164.0
96.055634 232.0
96.283997 164.0
96.416847 144.0
96.459846 172.0
97.671669 140.0
97.892097 156.0
98.306076 156.0
98.498451 164.0
98.533142 140.0
99.374588 156.0
100.21563 156.0
100.480797 188.0
102.186768 116.0
102.758286 136.0
102.804398 184.0
102.919456 148.0
103.125511 168.0
103.198288 192.0
103.407272 116.0
104.083748 212.0
104.301125 168.0
104.341782 176.0
105.174965 164.0
105.193336 184.0
105.749313 240.0
106.00531 172.0
106.470985 172.0
106.520279 208.0
106.719627 168.0
107.050919 156.0
107.675789 180.0
108.216232 160.0
108.399574 128.0
108.513855 208.0
108.983223 140.0
109.155449 140.0
109.434273 188.0
109.840652 140.0
109.988808 216.0
110.728973 144.0
110.990921 252.0
111.087395 172.0
111.347672 140.0
111.469513 212.0
111.559891 156.0
111.949135 216.0
112.334846 152.0
112.353828 232.0
112.672615 144.0
112.82901 156.0
112.983391 164.0
113.074379 180.0
113.599861 232.0
113.680489 164.0
113.929184 152.0
114.032562 220.0
114.160583 160.0
114.241409 144.0
114.842102 148.0
115.028519 120.0
115.688286 164.0
116.03894 136.0
116.093239 144.0
116.157585 148.0
116.243401 144.0
116.533279 140.0
116.898819 200.0
117.304077 188.0
117.791412 168.0
117.953476 176.0
119.10408 220.0
119.380096 172.0
119.447517 168.0
119.506256 156.0
119.854637 164.0
119.913475 196.0
120.029022 156.0
120.175163 144.0
120.44368 176.0
120.544174 168.0
120.959633 168.0
121.031975 172.0
121.878647 148.0
122.177658 140.0
122.223862 164.0
122.827515 156.0
122.958038 164.0
123.00032 1124.0
123.048195 168.0
123.523323 148.0
124.0047 248.0
124.068893 188.0
124.855385 164.0
124.998779 580.0
125.243614 144.0
125.749237 176.0
126.009125 204.0
126.592575 168.0
126.687691 120.0
126.996498 140.0
127.361847 160.0
127.469681 160.0
127.564079 144.0
128.001587 144.0
128.674713 148.0
129.013596 164.0
129.047516 152.0
129.106308 156.0
129.486511 140.0
129.579391 164.0
129.967102 208.0
130.339539 144.0
131.059662 548.0
131.587662 164.0
131.928055 204.0
132.211685 144.0
132.684692 136.0
132.885361 152.0
132.922073 144.0
132.961761 492.0
133.204468 304.0
133.236053 192.0
134.817291 144.0
134.861206 160.0
134.958817 152.0
135.060059 144.0
135.180359 140.0
135.497574 152.0
135.7957 188.0
136.005692 172.0
136.158661 160.0
136.700333 180.0
137.063583 168.0
138.010178 748.0
138.772156 152.0
138.880081 156.0
139.01712 172.0
139.051361 180.0
139.351929 152.0
139.445633 160.0
139.801727 180.0
139.8293 188.0
140.007874 188.0
140.680206 176.0
140.876221 148.0
141.015625 164.0
141.046356 156.0
141.211868 184.0
141.855911 144.0
142.173737 144.0
142.385025 144.0
142.463409 212.0
142.556503 156.0
143.017471 192.0
143.110306 180.0
143.780151 148.0
144.018906 172.0
144.049957 140.0
144.300888 152.0
144.341537 224.0
144.507401 128.0
144.549637 184.0
144.960129 672.0
145.019638 204.0
145.477188 156.0
145.960098 176.0
146.590775 204.0
146.954956 156.0
146.97554 396.0
147.162445 168.0
147.251801 144.0
147.364532 144.0
147.611877 232.0
147.694107 164.0
147.812653 152.0
147.994781 336.0
148.384277 176.0
148.544327 176.0
148.651077 168.0
148.871994 216.0
148.953384 164.0
148.975571 148.0
149.466904 164.0
149.570404 200.0
149.944855 140.0
150.009018 524.0
150.86264 168.0
151.018799 2980.0
151.068054 176.0
152.01358 2136.0
152.827301 164.0
153.013123 772.0
153.457657 144.0
153.86969 184.0
154.006714 560.0
154.245178 168.0
154.623611 176.0
154.675858 144.0
154.955429 152.0
155.015259 136.0
155.741806 160.0
155.798935 168.0
156.378311 212.0
156.647232 144.0
156.960342 3568.0
157.060165 284.0
157.962189 472.0
158.092865 172.0
158.258072 148.0
158.378281 148.0
158.59877 196.0
158.924789 164.0
158.959625 3004.0
158.976822 6148.0
159.080826 184.0
159.545135 144.0
159.972473 1016.0
160.244797 148.0
160.678436 164.0
160.784515 104.0
160.9384 172.0
160.972519 2460.0
161.127823 160.0
161.23143 188.0
161.646164 144.0
161.731155 176.0
161.775238 176.0
161.825867 224.0
161.971573 468.0
162.304749 148.0
162.898636 176.0
162.951981 152.0
163.004089 188.0
163.145126 200.0
163.615768 164.0
163.979431 120.0
163.999084 444.0
164.304214 148.0
164.966888 328.0
165.021439 3324.0
165.070129 252.0
165.50769 168.0
165.748459 228.0
165.879166 164.0
165.995956 124.0
166.02858 6532.0
166.081741 172.0
166.618256 152.0
166.762146 164.0
166.795563 172.0
166.844406 156.0
167.022308 724.0
167.441376 200.0
167.55574 180.0
168.024872 2172.0
168.142624 180.0
168.235458 112.0
168.894485 156.0
169.10437 168.0
169.417389 148.0
169.440704 216.0
169.658386 160.0
170.065643 168.0
170.965302 876.0
171.013184 220.0
171.313797 184.0
171.352875 144.0
171.900436 216.0
171.971161 5476.0
172.020493 160.0
172.119705 188.0
172.966522 1060.0
173.72406 140.0
173.888062 120.0
173.969498 2556.0
174.382812 128.0
174.964188 1140.0
174.991379 164.0
175.054001 164.0
175.719528 136.0
175.985168 1020.0
176.01387 592.0
176.100494 296.0
176.130051 204.0
176.669312 164.0
176.830719 144.0
176.981613 144.0
177.013275 96.0
177.74765 144.0
177.907425 140.0
178.016052 1116.0
178.249512 172.0
178.398361 184.0
179.026932 1476.0
179.727341 160.0
180.012589 844.0
180.161499 196.0
180.373642 140.0
180.633026 172.0
181.023926 328.0
181.155014 164.0
181.264862 208.0
181.353302 164.0
181.798508 164.0
182.017593 104.0
182.027924 148.0
182.397446 152.0
182.615234 164.0
182.733597 144.0
183.177795 144.0
183.202042 164.0
183.79248 160.0
183.970856 3788.0
184.975708 1168.0
185.070374 240.0
185.379776 164.0
185.967651 1680.0
185.986481 1236.0
186.078323 880.0
186.255859 204.0
186.982056 5916.0
187.020157 220.0
187.088211 148.0
187.112701 268.0
187.164444 164.0
187.822067 132.0
187.985947 1580.0
188.42305 244.0
188.98024 4156.0
189.063141 124.0
189.098404 148.0
189.144333 184.0
189.557297 208.0
189.985901 412.0
190.059097 140.0
190.122208 144.0
190.322601 188.0
190.61377 144.0
190.784164 140.0
190.971161 148.0
191.028915 180.0
191.235291 140.0
191.711746 148.0
192.033539 364.0
192.224655 164.0
192.915146 164.0
193.038727 904.0
194.04039 172.0
194.283173 156.0
194.319244 176.0
194.849533 148.0
194.966125 100.0
195.043198 168.0
195.881622 156.0
195.90947 164.0
196.344299 156.0
196.535263 200.0
196.964981 640.0
197.595703 244.0
197.97789 208.0
198.147247 164.0
198.385452 160.0
198.963287 816.0
199.04921 132.0
199.238586 164.0
199.601151 148.0
199.967087 100.0
199.995819 320.0
200.527344 172.0
200.620361 188.0
200.979706 184.0
201.733307 132.0
202.326691 192.0
202.556107 176.0
202.992538 200.0
203.111649 140.0
203.616867 184.0
203.726761 216.0
204.094284 192.0
204.384415 184.0
204.429932 148.0
204.461243 144.0
205.274292 108.0
205.34729 248.0
206.049713 208.0
206.398193 224.0
206.835922 296.0
208.001999 164.0
208.735168 148.0
210.155716 140.0
210.434128 164.0
210.481384 160.0
210.777298 152.0
210.825714 160.0
210.854034 192.0
210.982803 11188.0
211.409729 212.0
211.803055 160.0
211.979034 2792.0
212.053528 224.0
212.458176 200.0
212.532578 200.0
212.778275 108.0
212.819733 132.0
212.97966 6092.0
213.08847 120.0
213.229919 232.0
213.279968 252.0
213.480515 160.0
213.921463 128.0
213.976288 1748.0
214.267502 124.0
214.680374 156.0
214.916641 140.0
214.974457 136.0
215.164734 140.0
215.398361 140.0
215.590164 120.0
215.696411 152.0
215.990509 524.0
217.236679 152.0
217.309448 160.0
217.509583 164.0
217.577103 152.0
217.632889 200.0
218.417557 156.0
218.574448 280.0
219.731415 140.0
220.038208 4120.0
220.638092 148.0
221.043182 632.0
221.105438 172.0
221.91098 128.0
221.961563 160.0
222.032547 828.0
223.038635 172.0
223.116547 168.0
223.690689 180.0
223.842529 176.0
224.292404 180.0
224.939682 144.0
225.088959 228.0
225.692551 164.0
225.733582 216.0
225.767303 160.0
226.180191 144.0
226.508621 176.0
226.635406 148.0
226.998306 260.0
227.060165 240.0
227.202057 152.0
227.609772 204.0
227.902496 348.0
228.680466 140.0
228.749695 184.0
228.96347 160.0
229.004333 1656.0
229.647629 172.0
230.009979 128.0
230.355316 140.0
230.840546 160.0
231.001968 1264.0
231.460861 144.0
231.506287 164.0
231.651672 188.0
232.606873 140.0
232.989502 160.0
235.490372 264.0
235.933533 140.0
236.935928 152.0
237.252914 184.0
238.363983 184.0
238.545319 172.0
238.987015 240.0
239.040497 204.0
239.305206 148.0
239.403732 152.0
239.437607 152.0
239.5177 300.0
240.984467 280.0
241.066483 244.0
241.155273 192.0
242.519791 136.0
242.682266 148.0
242.824921 184.0
242.94899 144.0
243.650604 180.0
244.668243 164.0
244.773422 160.0
244.913574 148.0
245.134766 144.0
245.694092 164.0
246.089249 224.0
246.582809 152.0
247.925415 160.0
248.354935 132.0
249.070587 204.0
249.444519 180.0
249.574265 148.0
250.105087 164.0
250.306564 180.0
250.851624 196.0
251.84874 180.0
252.11412 156.0
252.164688 208.0
252.189972 148.0
252.881561 140.0
253.148575 192.0
253.208755 144.0
253.767944 264.0
253.987488 184.0
254.199768 152.0
254.241089 248.0
254.351883 104.0
254.548187 120.0
254.707123 156.0
254.79985 180.0
254.846283 288.0
254.879105 132.0
254.95433 148.0
255.007401 136.0
255.032547 120.0
255.067459 284.0
255.089478 148.0
255.223831 216.0
255.322357 236.0
255.393082 164.0
255.429337 168.0
255.537186 200.0
255.566101 224.0
255.60553 184.0
255.646072 228.0
255.701675 120.0
255.782501 292.0
255.856979 404.0
255.887512 356.0
255.907639 284.0
255.928894 336.0
255.949799 296.0
255.976654 828.0
256.01712 229968.0
256.240051 252.0
256.287689 128.0
256.312225 608.0
256.371338 272.0
256.400452 224.0
256.477539 152.0
256.505768 752.0
256.542572 6604.0
256.729401 176.0
256.756836 192.0
256.849823 392.0
256.869293 216.0
256.913788 204.0
257.018311 39892.0
257.09491 260.0
257.142578 204.0
257.286896 332.0
257.329102 164.0
257.389038 240.0
257.445129 148.0
257.642914 160.0
257.681702 104.0
257.709564 152.0
257.746582 180.0
257.799866 184.0
257.833679 188.0
257.887939 268.0
257.930176 288.0
257.958984 328.0
258.013916 156788.0
258.170166 224.0
258.230988 184.0
258.305969 248.0
258.374481 312.0
258.411469 180.0
258.447662 124.0
258.481995 144.0
258.507629 140.0
258.539948 1908.0
258.579132 188.0
258.590637 180.0
258.650787 448.0
258.69574 112.0
258.721802 248.0
258.776825 164.0
258.805786 124.0
258.844757 320.0
258.869965 336.0
258.899475 336.0
258.912048 292.0
259.015747 13744.0
259.085327 96.0
260.00885 336.0
260.066956 144.0
260.234222 220.0
260.478729 168.0
260.509583 132.0
260.672699 112.0
260.773376 100.0
260.807037 116.0
260.830322 144.0
260.985657 148.0
261.016113 180.0
263.753601 100.0
267.607971 112.0
267.752319 168.0
269.022278 116.0
269.217133 100.0
270.370605 144.0
272.669617 156.0
273.463989 96.0
275.260773 100.0
278.889923 140.0
403.439453 164.0
426.387695 196.0
1069.280029 164.0
1098.662231 280.0
1125.876709 152.0
1170.718506 204.0
1294.816162 188.0
1364.504395 164.0
1389.845825 144.0
1522.503296 188.0
1571.806519 180.0
1617.457886 176.0
1680.234863 148.0
1687.062134 172.0
1689.720093 172.0
1741.630981 164.0
1751.954224 144.0
1774.058228 164.0
1789.415527 204.0
1792.304565 228.0
1812.559814 172.0
1852.911743 180.0
1891.215332 160.0
1894.349976 200.0
1924.13562 168.0
1924.196777 140.0
1942.258911 192.0
1957.023071 248.0
1976.768921 188.0
1993.25354 196.0
1995.217773 152.0
1996.684937 160.0
