>compound MLS000862183-01!SB-200646 hydrochloride
>formula C15H14N4O
>ionization [M+H]+
>parentmass 267.1240375200905
#inchi InChI=1S/C15H14N4O/c1-19-8-6-11-9-12(4-5-14(11)19)17-15(20)18-13-3-2-7-16-10-13/h2-10H,1H3,(H2,17,18,20)
#inchikey OJZZJTLBYXHUSJ
#origInchi InChI=1S/C15H14N4O.ClH.H2O/c1-19-8-6-11-9-12(4-5-14(11)19)17-15(20)18-13-3-2-7-16-10-13;;/h2-10H,1H3,(H2,17,18,20);1H;1H2
#Ion_Source LC-ESI
#Instrument qTof
#Compound_Source NIH Pharmacologically Active Library
#PI Dorrestein
#Data_Collector VP/LMS
#Scan -1
#Precursor_MZ 267.13
#ExactMass 266.117
#Charge 1
#CAS_Number N/A
#Pubmed_ID N/A
#Smiles Cn1ccc2cc(NC(=O)Nc3cccnc3)ccc12.O.Cl
#INCHI_AUX N/A
#Library_Class 1
#SpectrumID CCMSLIB00000085578
#IonMode Positive
#UpdateWorkflowName UPDATE-SINGLE-ANNOTATED-GOLD
#LibraryQualityString Gold
#TaskID d252d724072548979f1f6f1ced849daf
##Scan# 1366
#SpectrumFile p4-C10_GC10_01_18358.mzXML
#LibraryName Pharm_Active_Library.mgf
#MQScore -1
#Organism Pharm_Active_Library
#TIC_Query 0
#RT_Query -1
#MZErrorPPM -1
#SharedPeaks 0
#MassDiff 0
#LibMZ -1
#SpecMZ 267.13
#SpecCharge 0
#internalFilename spec-00000.mgf

>collision 10
44.916298 144.0
44.993698 172.0
45.073833 232.0
45.08987 72.0
45.20488 176.0
45.214249 160.0
45.291904 164.0
45.333435 208.0
45.353539 132.0
45.439362 144.0
45.486332 152.0
45.49707 216.0
45.573624 160.0
45.599155 192.0
45.617973 36.0
45.650639 204.0
45.678486 200.0
45.717506 160.0
45.740387 176.0
45.841396 176.0
45.906101 196.0
45.94252 160.0
45.989746 124.0
45.999195 168.0
46.071594 184.0
46.093735 148.0
46.120766 180.0
46.164131 156.0
46.27092 148.0
46.295292 204.0
46.344059 220.0
46.372517 100.0
46.394203 180.0
46.433525 100.0
46.44709 196.0
46.495934 156.0
46.521721 216.0
46.550236 156.0
46.559742 156.0
46.616592 132.0
46.667091 200.0
46.718769 56.0
46.752785 180.0
46.774563 52.0
46.807236 72.0
46.860401 244.0
46.891701 140.0
46.998066 108.0
47.039009 192.0
47.06683 148.0
47.093628 156.0
47.114117 220.0
47.216633 128.0
47.234413 152.0
47.251678 180.0
47.352123 216.0
47.37952 64.0
47.408291 180.0
47.438446 204.0
47.475464 188.0
47.487808 100.0
47.522102 144.0
47.614307 188.0
47.656658 120.0
47.684143 148.0
47.693764 176.0
47.713009 200.0
47.733631 64.0
47.755634 68.0
47.770767 168.0
47.872066 204.0
47.920826 172.0
47.93047 212.0
47.949764 216.0
48.022835 112.0
48.06974 200.0
48.170528 156.0
48.195396 192.0
48.260361 188.0
48.371037 64.0
48.390415 172.0
48.416725 208.0
48.459667 168.0
48.537285 172.0
48.579338 304.0
48.603867 140.0
48.625553 236.0
48.677433 144.0
48.717712 176.0
48.735775 128.0
48.753838 180.0
48.771908 220.0
48.841431 196.0
48.905788 236.0
48.920746 60.0
49.041931 188.0
49.051689 116.0
49.083755 192.0
49.198162 140.0
49.253418 196.0
49.273575 136.0
49.302917 144.0
49.314098 184.0
49.351845 216.0
49.427376 148.0
49.529575 176.0
49.573006 164.0
49.608044 196.0
49.680965 144.0
49.817139 124.0
49.943645 212.0
49.963341 132.0
49.980225 52.0
50.023853 156.0
50.074543 232.0
50.215481 240.0
50.245102 180.0
50.283203 116.0
50.307198 112.0
50.343906 224.0
50.370743 144.0
50.406063 228.0
50.459774 172.0
50.550297 148.0
50.677734 136.0
50.744347 48.0
50.789726 172.0
50.845062 120.0
50.957241 76.0
51.033989 160.0
51.089455 392.0
51.109375 172.0
51.127872 196.0
51.149223 136.0
51.230389 200.0
51.313049 156.0
51.340141 232.0
51.462856 100.0
51.555706 120.0
51.581432 208.0
51.650906 284.0
51.733063 164.0
51.750244 148.0
51.888943 168.0
51.916462 152.0
51.939407 120.0
51.98819 140.0
52.095875 88.0
52.189293 144.0
52.230995 188.0
52.251057 144.0
52.266964 220.0
52.308701 48.0
52.328854 168.0
52.347572 104.0
52.395103 36.0
52.42392 152.0
52.543598 132.0
52.555138 60.0
52.615757 72.0
52.878838 140.0
52.902786 176.0
53.00193 132.0
53.078754 212.0
53.132416 220.0
53.145473 152.0
53.280499 92.0
53.299358 208.0
53.329094 172.0
53.380787 192.0
53.406967 164.0
53.425732 204.0
53.481766 264.0
53.555428 108.0
53.587479 96.0
53.634109 172.0
53.729156 156.0
53.7537 156.0
53.793915 216.0
53.808178 160.0
53.828007 180.0
53.87196 176.0
53.942104 196.0
54.003517 220.0
54.108875 188.0
54.170383 180.0
54.183567 192.0
54.205544 44.0
54.221664 160.0
54.352177 168.0
54.410885 136.0
54.463753 180.0
54.491661 176.0
54.575439 148.0
54.594864 172.0
54.887596 212.0
54.910515 208.0
54.947582 228.0
55.157764 112.0
55.17255 212.0
55.188648 144.0
55.219868 208.0
55.233177 76.0
55.24501 56.0
55.357498 288.0
55.400448 140.0
55.443707 144.0
55.459721 200.0
55.481956 116.0
55.493816 128.0
55.551655 60.0
55.597652 84.0
55.722382 124.0
55.745411 196.0
55.760689 236.0
55.808586 128.0
55.831131 148.0
55.85915 204.0
56.033325 148.0
56.08548 92.0
56.149593 172.0
56.188377 176.0
56.236126 140.0
56.322727 164.0
56.352604 140.0
56.422112 136.0
56.463223 108.0
56.485657 168.0
56.506702 176.0
56.541553 200.0
56.608383 224.0
56.675789 156.0
56.698265 204.0
56.728241 64.0
56.761227 244.0
56.881248 104.0
56.897762 192.0
56.909771 172.0
56.956326 148.0
56.981865 184.0
57.139725 188.0
57.156277 172.0
57.212753 252.0
57.24213 224.0
57.323421 88.0
57.50227 168.0
57.633698 236.0
57.661461 164.0
57.723442 28.0
57.738914 208.0
57.779404 84.0
57.904522 260.0
57.925472 180.0
58.038395 168.0
58.085411 160.0
58.118786 132.0
58.407433 200.0
58.439381 120.0
58.45916 100.0
58.525597 192.0
58.556595 196.0
58.567257 216.0
58.670876 156.0
58.750175 112.0
58.783741 128.0
58.846325 132.0
58.913265 216.0
58.931854 188.0
58.992985 204.0
59.033993 280.0
59.058739 192.0
59.069447 200.0
59.116875 40.0
59.132179 76.0
59.219448 76.0
59.283794 96.0
59.308315 40.0
59.409519 172.0
59.512348 184.0
59.567635 48.0
59.610653 184.0
59.695198 176.0
59.76442 168.0
59.779804 164.0
59.864471 148.0
59.929653 228.0
59.953819 80.0
59.981564 56.0
60.126408 180.0
60.151241 56.0
60.188293 40.0
60.244648 164.0
60.256252 128.0
60.401566 220.0
60.44334 244.0
60.45417 224.0
60.537766 152.0
60.586826 148.0
60.618317 196.0
60.633812 52.0
60.818378 184.0
60.920864 56.0
60.955044 48.0
60.973694 44.0
61.074753 160.0
61.155872 148.0
61.19458 100.0
61.264664 192.0
61.286472 140.0
61.328548 228.0
61.416676 156.0
61.463051 196.0
61.531342 156.0
61.578186 76.0
61.62505 180.0
61.864578 176.0
61.889381 96.0
61.922264 168.0
62.049191 132.0
62.078983 164.0
62.113487 188.0
62.141724 128.0
62.185661 200.0
62.209206 144.0
62.320713 136.0
62.430744 196.0
62.463776 124.0
62.47636 156.0
62.492092 184.0
62.525616 184.0
62.54245 140.0
62.595978 176.0
62.623352 188.0
62.629253 216.0
62.651104 128.0
62.703102 188.0
62.71571 88.0
62.815048 124.0
62.837132 140.0
62.884472 140.0
62.903416 164.0
62.9492 52.0
62.983326 112.0
63.010799 44.0
63.021858 124.0
63.077171 188.0
63.130928 48.0
63.148323 108.0
63.247551 224.0
63.362064 144.0
63.518963 76.0
63.545933 176.0
63.577667 136.0
63.647511 196.0
63.660217 156.0
63.685627 224.0
63.712631 124.0
63.728519 232.0
63.820705 148.0
63.882729 164.0
63.912224 156.0
63.964878 244.0
63.970531 296.0
64.113602 180.0
64.159821 112.0
64.19809 104.0
64.209251 224.0
64.226799 64.0
64.242752 192.0
64.311363 160.0
64.34169 184.0
64.445503 156.0
64.471367 88.0
64.528618 120.0
64.539101 132.0
64.614838 228.0
64.629379 80.0
64.656586 140.0
64.675789 176.0
64.75264 124.0
64.767059 120.0
64.784676 156.0
64.813515 184.0
65.066933 40.0
65.152046 148.0
65.171547 200.0
65.209892 200.0
65.272591 168.0
65.306358 196.0
65.327003 216.0
65.433487 144.0
65.480186 68.0
65.525284 104.0
65.597809 160.0
65.694557 180.0
65.760719 188.0
65.883438 136.0
65.933525 280.0
65.949348 172.0
65.972321 184.0
66.088768 212.0
66.125984 224.0
66.224747 256.0
66.287926 100.0
66.306068 144.0
66.450073 188.0
66.495506 208.0
66.506866 200.0
66.537254 128.0
66.555573 60.0
66.641655 144.0
66.737549 152.0
66.773933 172.0
66.818871 184.0
66.851418 152.0
66.866058 208.0
66.905128 156.0
66.926369 172.0
67.082695 136.0
67.13324 152.0
67.191956 176.0
67.205009 168.0
67.253967 144.0
67.283348 180.0
67.319267 80.0
67.443436 116.0
67.466324 56.0
67.477768 128.0
67.523552 200.0
67.64299 128.0
67.708488 172.0
67.785477 84.0
67.800224 80.0
67.823174 232.0
67.834236 144.0
67.865799 108.0
67.964211 152.0
67.980621 332.0
68.031502 168.0
68.121819 176.0
68.133316 168.0
68.167824 184.0
68.32402 128.0
68.477104 164.0
68.505104 152.0
68.529816 132.0
68.557831 132.0
68.603981 80.0
68.61882 168.0
68.635551 160.0
68.668289 196.0
68.68148 136.0
68.7267 180.0
68.762329 296.0
68.82341 216.0
68.887817 124.0
68.899384 156.0
68.927467 176.0
69.000191 72.0
69.024132 200.0
69.15403 120.0
69.24012 212.0
69.30307 200.0
69.380966 124.0
69.427811 132.0
69.485451 164.0
69.498718 208.0
69.659172 124.0
69.806015 152.0
69.825974 240.0
69.860901 152.0
69.959084 216.0
70.082329 168.0
70.125717 220.0
70.14399 112.0
70.187332 140.0
70.237404 172.0
70.285751 232.0
70.352509 172.0
70.404266 64.0
70.683434 96.0
70.720253 200.0
70.775497 40.0
70.80899 140.0
70.862587 64.0
71.005074 192.0
71.041977 156.0
71.144341 172.0
71.172882 116.0
71.208145 120.0
71.281776 180.0
71.335022 152.0
71.359383 136.0
71.377876 140.0
71.744919 144.0
71.76178 152.0
71.837669 168.0
71.852852 164.0
71.884911 200.0
71.898407 168.0
71.943985 212.0
72.030106 80.0
72.046997 136.0
72.074028 188.0
72.087547 200.0
72.154579 140.0
72.22821 60.0
72.29216 204.0
72.35479 68.0
72.371719 36.0
72.390343 160.0
72.463181 212.0
72.476738 160.0
72.562042 180.0
72.589783 156.0
72.61235 184.0
72.685295 220.0
72.704552 196.0
72.767273 228.0
72.785446 148.0
72.826202 240.0
72.848282 172.0
72.865273 200.0
72.88736 208.0
72.909447 176.0
72.951942 168.0
73.059082 144.0
73.109276 128.0
73.140755 164.0
73.201302 184.0
73.367805 56.0
73.430412 148.0
73.445763 208.0
73.483292 132.0
73.640335 128.0
73.774422 172.0
73.795837 180.0
73.900169 180.0
73.973763 96.0
74.151894 220.0
74.182747 124.0
74.207306 136.0
74.222183 64.0
74.306229 184.0
74.429802 216.0
74.443542 152.0
74.491463 208.0
74.524269 192.0
74.556923 228.0
74.641151 168.0
74.694466 176.0
75.048843 164.0
75.07682 192.0
75.092247 152.0
75.105141 204.0
75.180328 148.0
75.295998 140.0
75.327087 136.0
75.430977 196.0
75.449783 188.0
75.520782 140.0
75.604996 376.0
75.657379 60.0
75.672119 168.0
75.686813 136.0
75.773415 144.0
75.794205 168.0
75.848343 168.0
75.912079 52.0
75.939827 232.0
75.976006 196.0
75.991867 260.0
76.010956 172.0
76.061287 108.0
76.125519 172.0
76.168938 144.0
76.271461 148.0
76.429718 168.0
76.471481 156.0
76.541115 152.0
76.588135 180.0
76.626465 48.0
76.71534 52.0
76.790321 176.0
76.816483 208.0
76.837418 164.0
76.856606 104.0
77.014046 196.0
77.239113 156.0
77.380951 136.0
77.400215 56.0
77.424202 240.0
77.550873 188.0
77.564713 192.0
77.596451 52.0
77.663086 140.0
77.675362 48.0
77.761337 84.0
77.773628 184.0
77.833313 136.0
77.891273 328.0
77.905319 144.0
77.928162 148.0
78.126823 100.0
78.25354 164.0
78.436752 40.0
78.579597 100.0
78.591942 176.0
78.676659 140.0
78.837395 152.0
78.884674 276.0
78.948586 156.0
78.978828 316.0
78.994186 164.0
79.033669 124.0
79.1362 160.0
79.253227 160.0
79.332977 188.0
79.423058 180.0
79.451797 52.0
79.576027 168.0
79.593788 188.0
79.808784 144.0
79.856796 204.0
79.874588 160.0
79.906609 196.0
79.927956 64.0
80.136276 152.0
80.391258 40.0
80.423386 40.0
80.455551 188.0
80.500153 160.0
80.525154 168.0
80.543015 160.0
80.578079 172.0
80.675896 200.0
80.703857 200.0
80.730675 132.0
80.830849 104.0
80.859482 148.0
80.885834 252.0
80.988396 96.0
81.018845 140.0
81.140541 208.0
81.177612 116.0
81.207062 172.0
81.438591 140.0
81.474297 164.0
81.535606 68.0
81.569756 140.0
81.621895 140.0
81.85762 124.0
81.927864 216.0
81.999939 180.0
82.023758 224.0
82.063438 232.0
82.17305 64.0
82.198311 256.0
82.360794 120.0
82.396919 188.0
82.429443 152.0
82.481857 160.0
82.505356 168.0
82.523483 140.0
82.546936 104.0
82.59034 164.0
82.731483 52.0
82.807533 108.0
82.834435 216.0
82.948914 156.0
83.034081 144.0
83.183594 180.0
83.417198 220.0
83.448425 136.0
83.493561 88.0
83.526299 160.0
83.579056 112.0
83.602715 124.0
83.64502 228.0
83.721817 172.0
83.835808 140.0
83.93425 144.0
84.047424 172.0
84.111214 128.0
84.14772 160.0
84.180588 132.0
84.21376 148.0
84.292015 176.0
84.335876 196.0
84.407173 96.0
84.496796 176.0
84.544373 144.0
84.569992 208.0
84.611595 232.0
84.668861 64.0
84.685768 156.0
84.839264 144.0
84.853928 92.0
84.927277 164.0
84.941956 148.0
84.995308 196.0
85.015343 212.0
85.072243 208.0
85.149361 156.0
85.175072 164.0
85.266937 220.0
85.349663 160.0
85.417709 316.0
85.4729 104.0
85.603592 164.0
85.73439 192.0
85.819183 84.0
85.833931 164.0
85.880035 116.0
85.923851 160.0
85.951988 192.0
85.998123 164.0
86.045006 200.0
86.182793 220.0
86.217896 248.0
86.347313 136.0
86.386154 196.0
86.653793 168.0
86.676826 172.0
86.719452 160.0
86.889549 208.0
86.919731 200.0
86.938293 148.0
86.956848 68.0
86.984688 152.0
87.04039 36.0
87.122108 164.0
87.148117 168.0
87.162979 200.0
87.205673 152.0
87.229889 340.0
87.287521 220.0
87.361916 176.0
87.382378 136.0
87.397049 204.0
87.415359 160.0
87.464264 136.0
87.570389 144.0
87.943283 124.0
88.042313 188.0
88.060913 180.0
88.101074 132.0
88.159927 180.0
88.182487 276.0
88.238434 156.0
88.292656 156.0
88.520966 92.0
88.560295 96.0
88.623985 192.0
88.738319 160.0
88.813332 272.0
88.89212 164.0
88.982216 172.0
89.00663 172.0
89.019768 180.0
89.042305 136.0
89.122826 148.0
89.190735 200.0
89.226456 176.0
89.256538 164.0
89.316719 100.0
89.551201 200.0
89.570831 200.0
89.708389 168.0
89.721581 144.0
89.842278 172.0
89.910202 120.0
89.97438 228.0
90.057465 152.0
90.17083 180.0
90.189728 68.0
90.272911 172.0
90.39209 360.0
90.414795 176.0
90.518913 144.0
90.581413 104.0
90.607933 288.0
90.623093 180.0
90.907516 172.0
90.928391 352.0
90.943268 200.0
91.000526 200.0
91.025208 200.0
91.057487 120.0
91.133591 192.0
91.158173 200.0
91.179077 200.0
91.352104 68.0
91.365425 160.0
91.40918 116.0
91.456764 68.0
91.496735 68.0
91.527924 220.0
91.55957 224.0
91.666252 180.0
91.750114 132.0
91.935135 84.0
91.948494 200.0
91.990479 44.0
92.051575 132.0
92.162361 180.0
92.187202 200.0
92.200584 76.0
92.227341 256.0
92.301895 184.0
92.359268 144.0
92.399254 120.0
92.48938 220.0
92.539154 204.0
92.588943 172.0
92.610008 196.0
92.726883 132.0
92.805473 148.0
92.938095 168.0
93.044449 2044.0
93.112511 120.0
93.149567 176.0
93.163101 208.0
93.204712 112.0
93.225853 124.0
93.252762 132.0
93.481613 200.0
93.508553 164.0
93.543198 180.0
93.719284 260.0
93.787834 84.0
93.826385 180.0
93.922806 208.0
93.936302 224.0
94.029602 1912.0
94.096481 52.0
94.115791 136.0
94.237473 256.0
94.423042 248.0
94.525574 184.0
94.564278 128.0
94.659134 160.0
94.775322 240.0
94.794731 84.0
94.817986 164.0
94.854813 152.0
94.878075 100.0
94.911034 196.0
95.00219 148.0
95.029518 604.0
95.061241 25204.0
95.090492 212.0
95.122505 116.0
95.139137 116.0
95.161331 48.0
95.216789 292.0
95.248718 132.0
95.262138 44.0
95.326431 64.0
95.349754 60.0
95.384735 44.0
95.45417 168.0
95.524742 64.0
95.585052 120.0
95.649826 428.0
95.684319 124.0
95.747169 220.0
95.805061 160.0
95.844032 160.0
95.931732 84.0
96.021843 148.0
96.042877 184.0
96.063019 804.0
96.087173 136.0
96.279037 60.0
96.329819 160.0
96.345444 140.0
96.379158 172.0
96.433372 252.0
96.470512 132.0
96.550682 188.0
96.630882 96.0
96.6996 112.0
96.737114 180.0
96.758095 116.0
96.907112 224.0
96.944168 160.0
96.959846 180.0
96.987885 144.0
97.038414 248.0
97.064697 172.0
97.219292 192.0
97.318817 220.0
97.362022 168.0
97.418983 192.0
97.523125 100.0
97.597351 232.0
97.66272 224.0
97.821121 112.0
97.997383 132.0
98.137314 232.0
98.15506 176.0
98.186615 40.0
98.208313 188.0
98.2379 180.0
98.259598 132.0
98.295113 200.0
98.407623 184.0
98.458961 184.0
98.512291 180.0
98.652596 172.0
98.672363 140.0
98.753441 96.0
98.804672 200.0
98.864227 132.0
98.880066 144.0
98.909996 164.0
99.02459 116.0
99.044395 160.0
99.145439 144.0
99.300079 196.0
99.32785 176.0
99.37262 232.0
99.409187 132.0
99.494537 148.0
99.526306 196.0
99.552116 172.0
99.579926 196.0
99.633553 156.0
99.687202 172.0
99.860161 160.0
99.953659 152.0
99.977539 120.0
100.063126 192.0
100.164688 140.0
100.286232 180.0
100.367973 44.0
100.403862 208.0
100.439766 152.0
100.453728 160.0
100.625351 72.0
100.653305 124.0
100.799126 216.0
100.815109 156.0
100.867073 172.0
100.979042 140.0
101.011047 160.0
101.135101 200.0
101.249222 60.0
101.355392 200.0
101.431549 112.0
101.467636 172.0
101.535812 196.0
101.602005 104.0
101.744492 108.0
101.897125 148.0
101.939316 184.0
101.99157 172.0
102.045853 300.0
102.078018 208.0
102.13031 200.0
102.22084 180.0
102.313423 100.0
102.398773 228.0
102.649902 136.0
102.760841 80.0
102.786644 284.0
102.819359 76.0
102.910194 148.0
102.948563 76.0
103.053612 1388.0
103.144539 36.0
103.170815 172.0
103.340698 176.0
103.35891 52.0
103.439613 196.0
103.658592 172.0
103.717369 204.0
103.853218 220.0
104.050262 680.0
104.131271 136.0
104.208466 84.0
104.25927 224.0
104.281624 144.0
104.407761 180.0
104.446312 208.0
104.482933 48.0
104.543976 168.0
104.562645 204.0
104.592819 208.0
104.792389 140.0
104.85556 128.0
104.926903 116.0
105.052795 312.0
105.055794 472.0
105.08387 216.0
105.185982 160.0
105.216599 156.0
105.292152 72.0
105.435158 168.0
105.602806 124.0
105.680542 92.0
105.705093 144.0
105.754211 252.0
105.840195 136.0
105.922112 152.0
105.995865 176.0
106.023148 192.0
106.065765 5800.0
106.137299 76.0
106.211128 68.0
106.262413 148.0
106.315765 252.0
106.396324 80.0
106.529297 72.0
106.568329 148.0
106.609428 148.0
106.794456 200.0
106.843826 336.0
106.879997 200.0
106.975533 444.0
106.991997 156.0
107.043472 180.0
107.069679 544.0
107.109375 132.0
107.138214 108.0
107.177361 156.0
107.303085 176.0
107.527931 52.0
107.589851 96.0
107.637337 104.0
107.876999 116.0
107.99279 176.0
108.013474 180.0
108.038254 188.0
108.185226 148.0
108.20179 132.0
108.232849 212.0
108.284622 172.0
108.329155 180.0
108.359192 164.0
108.388199 192.0
108.527069 152.0
108.630768 160.0
108.674332 148.0
108.819618 40.0
108.846611 232.0
108.873604 132.0
108.958771 224.0
109.012794 136.0
109.046234 172.0
109.164543 200.0
109.201973 104.0
109.233177 172.0
109.285187 48.0
109.403816 144.0
109.44545 176.0
109.655853 176.0
109.712128 44.0
109.760086 192.0
109.97287 184.0
110.026161 220.0
110.048027 140.0
110.064728 64.0
110.081429 172.0
110.146179 168.0
110.187958 156.0
110.336342 92.0
110.378159 180.0
110.397781 128.0
110.468086 68.0
110.528763 64.0
110.692924 232.0
110.769524 132.0
110.880569 156.0
110.945549 196.0
111.039902 196.0
111.109123 124.0
111.12381 164.0
111.151085 56.0
111.224541 56.0
111.248009 156.0
111.316299 176.0
111.333717 136.0
111.388329 124.0
111.445045 188.0
111.503883 208.0
111.520699 104.0
111.564842 184.0
111.648949 180.0
111.669975 112.0
111.798309 128.0
111.87619 132.0
111.981468 120.0
112.019386 172.0
112.076973 240.0
112.097336 228.0
112.125916 164.0
112.268089 196.0
112.337692 84.0
112.41787 136.0
112.449524 220.0
112.47274 172.0
112.495956 172.0
112.698708 120.0
112.72406 152.0
112.895287 208.0
113.051834 88.0
113.111092 208.0
113.205025 208.0
113.242371 136.0
113.295326 144.0
113.379143 136.0
113.498787 60.0
113.568771 180.0
113.619682 148.0
113.647263 208.0
113.804329 228.0
113.846794 188.0
113.878647 68.0
113.98912 176.0
114.031624 168.0
114.050751 156.0
114.151794 184.0
114.243065 164.0
114.354904 180.0
114.386833 88.0
114.465607 56.0
114.576355 216.0
114.618973 48.0
114.708481 220.0
114.74472 152.0
114.786606 232.0
114.979362 156.0
115.045525 164.0
115.075417 144.0
115.291153 120.0
115.475952 220.0
115.539185 260.0
115.567001 84.0
115.592674 64.0
115.817467 208.0
115.864594 184.0
115.924591 148.0
116.049332 504.0
116.09301 268.0
116.123962 148.0
116.176788 128.0
116.254829 212.0
116.338539 156.0
116.575333 208.0
116.612038 220.0
116.712372 144.0
116.789787 212.0
116.80954 176.0
117.011436 148.0
117.058586 344.0
117.114799 28.0
117.254845 80.0
117.35601 180.0
117.373405 180.0
117.448883 176.0
117.513603 76.0
117.571861 136.0
117.630142 164.0
117.660362 104.0
117.789932 144.0
117.828819 200.0
118.031982 164.0
118.06543 984.0
118.107674 116.0
118.124977 160.0
118.218018 220.0
118.347893 204.0
118.367378 40.0
118.402023 152.0
118.493004 152.0
118.610023 196.0
118.742279 220.0
118.809525 196.0
119.024376 448.0
119.070633 436.0
119.141678 44.0
119.160461 136.0
119.20787 228.0
119.256844 96.0
119.34877 208.0
119.419907 180.0
119.480812 176.0
119.554893 88.0
119.670158 216.0
119.735489 148.0
119.800835 124.0
119.845497 120.0
119.880295 184.0
119.994789 144.0
120.036217 160.0
120.055847 140.0
120.080605 1040.0
120.217278 148.0
120.31575 244.0
120.326172 184.0
120.328987 224.0
120.372261 208.0
120.38755 132.0
120.472733 40.0
120.540459 88.0
120.557167 204.0
120.635986 192.0
120.663567 124.0
120.700699 204.0
120.716263 264.0
120.732826 112.0
120.748138 108.0
120.772194 192.0
120.7966 184.0
120.847694 332.0
120.872948 132.0
120.909874 284.0
120.936058 148.0
120.940346 132.0
120.971138 196.0
120.996048 312.0
121.04097 134464.0
121.125206 176.0
121.159653 40.0
121.183754 188.0
121.222328 152.0
121.242378 124.0
121.257126 144.0
121.271584 100.0
121.303757 100.0
121.338943 84.0
121.352417 88.0
121.375381 84.0
121.400551 1804.0
121.462791 140.0
121.480476 96.0
121.511154 68.0
121.551064 92.0
121.576248 116.0
121.596001 92.0
121.628738 112.0
121.68161 44.0
121.712502 172.0
121.740234 172.0
121.776886 72.0
121.797997 64.0
121.847954 184.0
121.871506 56.0
121.947411 76.0
121.982574 68.0
122.043129 12304.0
122.094711 32.0
122.110107 44.0
122.147499 28.0
122.184891 60.0
122.208633 192.0
122.224274 100.0
122.312531 232.0
122.327934 40.0
122.343346 88.0
122.376366 224.0
122.391785 36.0
122.424812 104.0
122.448265 160.0
122.515701 136.0
122.562119 108.0
122.590889 112.0
122.631035 80.0
122.68187 84.0
122.710449 184.0
122.751549 44.0
122.806084 192.0
122.832466 104.0
122.861229 64.0
122.886597 64.0
122.92498 112.0
122.966675 224.0
122.984512 212.0
123.009613 52.0
123.043732 632.0
123.101936 136.0
123.161438 160.0
123.214455 32.0
123.229919 56.0
123.305054 120.0
123.508461 184.0
123.632362 64.0
123.729752 76.0
123.785103 68.0
123.881721 160.0
123.942375 100.0
124.01107 68.0
124.028801 40.0
124.075356 188.0
124.186226 164.0
124.246117 144.0
124.290489 160.0
124.372604 200.0
124.397018 208.0
124.568008 116.0
124.616882 60.0
124.667992 148.0
124.765129 216.0
124.970398 176.0
125.077217 128.0
125.270187 116.0
125.406868 212.0
125.4403 80.0
125.47374 48.0
125.551781 84.0
125.652161 36.0
125.810608 60.0
125.993729 88.0
126.302216 128.0
126.568535 176.0
126.649155 56.0
126.714119 152.0
126.741005 156.0
126.971893 140.0
127.072838 128.0
127.13118 216.0
127.908821 52.0
127.926826 88.0
127.98761 148.0
128.049423 436.0
128.221893 84.0
128.280487 148.0
128.451874 84.0
128.502457 76.0
128.569199 80.0
128.618851 36.0
128.700119 156.0
128.85144 100.0
129.054855 324.0
129.104599 124.0
129.450836 136.0
129.50972 100.0
129.595795 76.0
129.679642 140.0
129.758987 124.0
129.829285 172.0
129.858765 76.0
129.874634 248.0
129.938156 88.0
130.031189 40.0
130.064987 3360.0
130.11972 44.0
130.146957 100.0
130.39003 188.0
130.490036 132.0
130.569626 144.0
130.75618 64.0
130.824463 144.0
130.851791 52.0
130.96109 116.0
130.981583 196.0
131.02066 184.0
131.070541 3276.0
131.220871 228.0
131.264191 84.0
131.293839 84.0
131.355423 112.0
131.426147 100.0
131.613312 44.0
131.684097 144.0
131.745773 88.0
131.802887 60.0
131.872787 136.0
131.918213 88.0
131.950974 192.0
132.068924 38920.0
132.142044 96.0
132.160843 160.0
132.180176 108.0
132.195465 76.0
132.230515 48.0
132.28775 104.0
132.310638 108.0
132.361008 72.0
132.390778 44.0
132.410965 192.0
132.443787 28.0
132.477814 84.0
132.509888 40.0
132.530502 124.0
132.612366 128.0
132.633636 72.0
132.665726 124.0
132.711578 56.0
132.759735 156.0
132.812485 32.0
132.945541 68.0
133.039658 60.0
133.070892 3416.0
133.103943 92.0
133.136368 96.0
133.161346 52.0
133.200394 56.0
133.221069 56.0
133.271606 56.0
133.309906 72.0
133.358932 64.0
133.382721 92.0
133.565872 44.0
133.586578 40.0
133.632584 72.0
133.685516 132.0
133.71312 148.0
133.770676 60.0
133.901917 72.0
133.961792 164.0
133.994049 108.0
134.010178 52.0
134.02861 60.0
134.072006 348.0
134.106964 100.0
134.146149 88.0
134.196869 320.0
134.222229 108.0
134.342163 172.0
134.695343 208.0
134.792374 44.0
134.840912 104.0
134.944931 80.0
134.979614 56.0
135.301208 180.0
135.611618 52.0
135.70433 200.0
135.813324 176.0
136.305496 212.0
136.345001 128.0
136.391495 156.0
136.421707 56.0
136.767288 136.0
137.031357 204.0
137.113007 36.0
137.138641 168.0
137.441803 168.0
137.848099 228.0
138.029922 204.0
138.264359 148.0
138.632019 172.0
138.681244 136.0
138.847702 144.0
138.964996 184.0
140.263123 80.0
140.770355 76.0
141.006607 152.0
141.044418 164.0
141.070419 120.0
141.153168 200.0
141.335297 152.0
141.76947 160.0
142.953613 84.0
143.451401 88.0
143.594452 100.0
143.71373 72.0
143.749527 80.0
143.985855 68.0
144.047958 80.0
144.069183 208.0
144.341919 188.0
144.359344 224.0
144.449539 196.0
144.818161 208.0
144.854095 160.0
144.897202 176.0
145.033279 92.0
145.075317 3776.0
145.302383 108.0
145.350357 76.0
145.628845 120.0
145.926819 100.0
146.084152 3796.0
146.140869 244.0
146.186584 40.0
146.263611 80.0
146.328598 48.0
146.610428 156.0
146.673096 128.0
146.841873 128.0
146.862152 132.0
147.063766 256.0
147.091797 41608.0
147.14093 200.0
147.170395 56.0
147.223175 40.0
147.29805 32.0
147.329453 64.0
147.425552 76.0
147.452682 44.0
147.4841 84.0
147.501022 48.0
147.542114 32.0
147.592896 40.0
147.612228 76.0
147.665436 88.0
147.880768 40.0
147.929184 40.0
148.013916 140.0
148.030869 96.0
148.058853 72.0
148.094681 3368.0
148.148666 132.0
148.193146 228.0
148.275543 76.0
148.300522 92.0
148.350677 72.0
148.379776 44.0
148.452515 40.0
148.493744 84.0
148.542023 44.0
148.576218 76.0
148.653854 52.0
148.716949 36.0
148.884476 112.0
148.903412 60.0
148.928192 56.0
149.095673 304.0
149.1483 144.0
149.183334 124.0
149.207642 120.0
149.227921 140.0
149.282776 124.0
149.326782 112.0
149.358414 92.0
149.56279 152.0
149.74054 72.0
151.406143 100.0
151.501663 64.0
151.879166 96.0
153.080948 68.0
155.153961 64.0
157.797943 84.0
158.046204 468.0
158.072418 552.0
159.053009 156.0
159.076065 484.0
159.374451 156.0
159.427231 128.0
159.479996 84.0
160.103943 52.0
161.431335 184.0
161.614929 48.0
162.576355 60.0
163.053802 168.0
163.982742 124.0
173.07074 524.0
174.067932 128.0
175.093536 212.0
175.227875 68.0
177.426727 80.0
185.656189 112.0
191.097641 200.0
192.973022 100.0
196.676086 72.0
201.579712 44.0
202.150925 164.0
204.8396 60.0
205.603714 60.0
210.98082 48.0
212.106888 172.0
212.52449 48.0
215.593643 52.0
217.708755 160.0
219.810562 96.0
219.928619 56.0
220.197296 92.0
227.925018 48.0
233.517731 92.0
234.095947 188.0
236.504761 60.0
236.936523 192.0
237.451492 232.0
239.825058 96.0
239.877457 96.0
242.867538 104.0
246.466324 36.0
247.060364 100.0
248.969208 108.0
258.108521 196.0
266.417603 148.0
267.128021 188.0
268.116058 160.0
269.127289 216.0
270.0979 208.0
271.50296 92.0
271.650543 44.0
271.785065 132.0
275.013428 68.0
275.081146 184.0
276.28891 52.0
277.139801 128.0
277.842651 112.0
281.153412 40.0
281.684265 32.0
283.263123 72.0
287.010406 128.0
288.107269 116.0
289.091187 104.0
291.111572 104.0
291.808136 124.0
295.813232 120.0
298.967468 48.0
301.10144 120.0
304.575348 56.0
315.098999 196.0
326.369202 64.0
329.746979 92.0
331.1073 152.0
331.132629 148.0
332.216431 100.0
332.673676 48.0
344.0961 180.0
349.615356 64.0
350.073242 116.0
355.37735 84.0
356.872223 68.0
363.023285 84.0
372.031708 68.0
407.741394 76.0
412.307526 88.0
413.613892 96.0
413.89325 80.0
416.444031 120.0
436.986969 48.0
441.178284 60.0
443.367371 120.0
444.172363 148.0
454.792908 48.0
462.148346 116.0
481.943512 72.0
496.935822 60.0
497.250885 92.0
498.298859 56.0
502.135925 52.0
513.027466 56.0
539.474731 160.0
571.676636 36.0
572.143127 72.0
593.684204 144.0
600.346497 60.0
606.447937 68.0
649.585205 140.0
668.577026 52.0
671.013428 72.0
671.405273 152.0
684.047607 232.0
684.219421 248.0
686.167908 112.0
694.288391 28.0
708.212891 88.0
709.002258 84.0
710.699158 176.0
712.424622 232.0
722.90155 284.0
753.856567 192.0
755.721191 144.0
758.475769 52.0
759.852234 212.0
766.031311 116.0
771.621643 204.0
771.947876 48.0
775.75708 148.0
779.686829 168.0
780.487305 88.0
788.853882 64.0
790.001953 80.0
794.814636 72.0
800.131592 100.0
800.520081 164.0
806.850769 140.0
806.912964 116.0
810.04248 164.0
815.47821 184.0
824.625916 200.0
826.181213 160.0
827.514648 176.0
828.448181 52.0
833.38208 192.0
838.65918 172.0
839.720032 152.0
848.40509 224.0
849.773743 108.0
851.89856 208.0
863.913208 200.0
868.224121 116.0
873.080811 184.0
873.280823 36.0
874.722351 128.0
875.687988 144.0
878.069031 244.0
878.316772 52.0
878.770996 192.0
885.379639 156.0
886.659302 160.0
888.972107 164.0
892.44696 196.0
894.398254 140.0
894.731628 168.0
894.838745 156.0
896.637695 148.0
898.677063 116.0
901.848022 56.0
904.40802 192.0
905.012634 136.0
905.330017 196.0
907.732971 196.0
909.844971 164.0
911.208252 224.0
912.145752 188.0
914.997192 176.0
918.88446 204.0
922.054626 176.0
922.272217 180.0
924.679382 152.0
925.417908 144.0
932.132507 164.0
934.54303 204.0
935.45929 180.0
938.310364 176.0
941.361145 172.0
945.187683 148.0
947.514343 224.0
950.230286 164.0
950.96051 212.0
951.40863 116.0
953.189758 260.0
953.921143 112.0
955.24939 156.0
955.347778 112.0
955.76001 72.0
958.906799 168.0
958.949951 196.0
959.147156 148.0
959.344421 96.0
959.529358 104.0
959.849976 148.0
959.899292 172.0
960.571594 40.0
961.225525 156.0
964.560547 188.0
966.292114 132.0
970.813782 144.0
971.917969 176.0
973.991455 208.0
976.602051 156.0
979.725891 184.0
979.85144 144.0
980.206604 228.0
984.642029 224.0
985.816467 128.0
985.985229 220.0
986.591492 100.0
987.054199 188.0
987.523193 68.0
990.027771 172.0
990.621582 92.0
993.003418 200.0
993.147705 168.0
995.155823 164.0
995.808899 192.0
997.769409 180.0
998.40448 124.0
999.713013 184.0
1000.462036 168.0
1005.839111 128.0
1009.630005 136.0
1010.224548 188.0
1012.034546 160.0
1012.705811 232.0
1014.213806 184.0
1015.133057 148.0
1015.678528 116.0
1018.147461 156.0
1018.388794 228.0
1018.636475 176.0
1021.064514 160.0
1023.648193 48.0
1023.820129 156.0
1023.953857 228.0
1024.520752 192.0
1025.349121 140.0
1025.865356 172.0
1026.222412 248.0
1026.401001 204.0
1028.755127 164.0
1028.812622 136.0
1029.055176 148.0
1030.460327 116.0
1032.326782 208.0
1032.608154 132.0
1032.908813 96.0
1034.214111 128.0
1035.590698 224.0
1036.00708 160.0
1036.212036 104.0
1036.436279 204.0
1039.469238 168.0
1040.367798 168.0
1040.810791 192.0
1041.375854 156.0
1044.654053 172.0
1045.371704 188.0
1046.172729 152.0
1046.25 144.0
1047.937378 172.0
1048.440063 160.0
1049.297241 160.0
1049.81311 112.0
1050.090454 128.0
1050.2323 32.0
1051.503418 100.0
1051.677612 72.0
1052.88501 216.0
1053.459839 184.0
1053.664062 212.0
1054.577637 188.0
1054.842651 176.0
1054.997803 36.0
1055.683228 84.0
1056.278198 216.0
1056.672852 56.0
1059.068726 148.0
1059.968506 132.0
1061.841919 204.0
1062.127319 248.0
1062.328491 192.0
1062.471191 116.0
1063.256348 152.0
1064.398804 48.0
1068.109741 248.0
1068.584595 68.0
1068.903442 204.0
1069.580322 184.0
1069.925293 212.0
1070.849976 136.0
1071.905273 168.0
1072.648315 132.0
1073.222046 156.0
1074.226318 128.0
1075.094116 136.0
1075.283325 136.0
1076.262573 80.0
1076.706543 220.0
1076.765381 60.0
1077.594971 188.0
1079.425171 224.0
1080.223022 184.0
1080.419312 164.0
1081.341919 100.0
1081.41394 144.0
1081.708496 228.0
1082.448242 92.0
1083.745239 188.0
1085.849365 136.0
1086.282349 108.0
1087.082764 112.0
1087.240234 144.0
1087.568359 216.0
1087.61438 172.0
1088.139526 176.0
1089.058838 116.0
1092.042847 40.0
1093.003296 200.0
1093.069092 132.0
1096.796631 132.0
1097.59436 128.0
1097.858154 164.0
1098.049438 112.0
1098.3396 152.0
1099.58667 136.0
1099.72522 152.0
1100.213745 148.0
1100.378784 228.0
1100.490967 76.0
1100.708862 180.0
1101.105103 112.0
1102.029907 124.0
1104.118774 220.0
1104.819946 216.0
1105.478027 232.0
1105.926758 196.0
1106.408203 104.0
1108.38855 168.0
1108.454834 192.0
1109.11084 204.0
1109.568237 164.0
1109.641235 208.0
1111.160034 148.0
1111.883301 160.0
1111.929688 180.0
1112.673096 140.0
1112.73291 140.0
1115.091064 208.0
1116.640137 156.0
1117.025879 132.0
1117.564819 376.0
1117.784424 116.0
1118.756104 124.0
1119.461792 212.0
1120.547607 200.0
1121.407227 76.0
1122.147095 36.0
1122.307129 140.0
1122.493774 116.0
1122.680542 132.0
1122.820557 128.0
1123.167358 156.0
1124.682007 184.0
1124.762207 68.0
1126.084229 216.0
1126.338013 160.0
1126.859009 168.0
1127.892822 228.0
1129.084961 184.0
1130.20874 108.0
1130.483154 200.0
1130.536743 132.0
1131.440308 204.0
1132.062988 120.0
1133.168213 124.0
1133.409424 148.0
1133.456299 172.0
1136.225342 188.0
1136.352783 168.0
1136.560791 164.0
1137.735352 64.0
1137.789062 200.0
1139.421021 52.0
1141.452515 228.0
1141.612183 56.0
1142.130127 144.0
1142.971069 132.0
1143.260376 152.0
1143.354614 200.0
1143.644043 104.0
1144.078369 156.0
1144.505737 80.0
1144.566284 136.0
1145.381226 132.0
1145.825806 40.0
1146.14917 176.0
1146.641113 128.0
1146.856812 164.0
1147.018555 196.0
1150.020142 196.0
1151.985107 184.0
1152.708008 168.0
1154.60083 156.0
1155.642578 108.0
1156.095947 192.0
1156.251587 204.0
1158.025391 156.0
1159.387085 204.0
1159.48877 92.0
1160.139526 308.0
1160.505615 160.0
1160.668335 48.0
1161.123413 216.0
1161.185913 196.0
1161.990967 184.0
1163.56543 164.0
1164.203735 188.0
1164.529663 188.0
1164.74707 128.0
1164.794556 152.0
1165.929199 172.0
1166.078735 48.0
1166.445801 200.0
1166.670166 128.0
1166.962769 168.0
1168.070923 28.0
1169.479492 232.0
1171.488159 164.0
1172.189941 68.0
1173.682739 184.0
1174.248779 180.0
1174.651123 148.0
1175.681396 132.0
1176.507324 160.0
1176.72583 168.0
1177.394897 180.0
1178.057495 168.0
1179.055054 168.0
1179.171265 204.0
1179.369507 148.0
1179.574463 136.0
1180.30603 188.0
1180.983032 192.0
1181.072021 168.0
1181.530273 112.0
1183.480835 172.0
1184.247925 176.0
1184.336914 112.0
1184.480713 224.0
1184.80957 60.0
1186.893066 184.0
1187.476074 200.0
1188.10022 208.0
1188.148193 192.0
1189.802246 152.0
1190.468262 180.0
1190.694824 164.0
1191.024536 144.0
1191.718384 180.0
1192.309326 220.0
1193.361084 252.0
1194.041748 204.0
1194.220581 132.0
1195.355713 124.0
1196.126587 80.0
1196.39502 88.0
1198.066406 216.0
1199.122681 144.0
1199.357056 212.0
1199.674194 112.0
1201.011841 260.0
1201.756958 120.0
1204.048706 148.0
1205.32666 60.0
1206.404907 96.0
1206.482666 224.0
1206.702148 36.0
1207.020142 152.0
1207.282959 108.0
1207.711792 100.0
1207.815552 60.0
1207.87085 204.0
1208.590332 60.0
1208.901733 204.0
1209.247803 188.0
1210.299927 176.0
1210.708496 76.0
1210.957886 208.0
1211.726807 176.0
1211.996948 152.0
1212.19104 156.0
1213.230591 252.0
1213.320801 136.0
1213.632812 128.0
1213.882446 172.0
1214.083496 72.0
1214.464966 156.0
1214.908936 176.0
1215.005981 132.0
1215.817871 220.0
1216.886841 112.0
1217.227051 152.0
1217.567261 188.0
1217.734009 96.0
1219.012207 168.0
1219.415283 168.0
1219.658569 184.0
1219.853271 204.0
1220.152222 160.0
1222.697998 228.0
1222.781494 184.0
1223.192139 144.0
1223.387085 140.0
1223.742188 188.0
1224.696167 96.0
1226.4729 208.0
1226.974854 180.0
1227.135254 192.0
1227.734863 212.0
1227.985962 148.0
1228.062622 172.0
1228.19519 128.0
1228.481201 192.0
1228.850952 140.0
1229.311401 96.0
1229.513794 184.0
1230.295532 176.0
1230.477051 176.0
1231.59436 228.0
1231.845825 172.0
1231.894775 120.0
1232.670288 116.0
1233.529907 172.0
1233.851562 128.0
1235.467041 172.0
1236.292603 136.0
1236.509521 148.0
1237.734619 76.0
1238.035767 88.0
1238.336914 88.0
1238.903564 116.0
1240.824463 200.0
1240.953735 292.0
1242.655029 160.0
1243.181274 44.0
1244.149902 184.0
1244.602661 224.0
1244.68335 188.0
1244.922241 196.0
1246.362305 192.0
1246.776855 168.0
1247.128296 48.0
1247.209106 176.0
1247.451538 168.0
1247.578125 204.0
1247.796021 160.0
1248.042114 244.0
1248.351562 40.0
1248.661011 324.0
1248.885986 180.0
1249.144775 168.0
1249.371338 140.0
1250.286133 180.0
1251.025146 180.0
1251.300537 172.0
1251.546143 176.0
1251.771484 92.0
1252.933594 132.0
1253.645264 180.0
1253.70874 108.0
1253.842651 76.0
1254.335938 156.0
1254.885864 148.0
1255.2948 140.0
1255.49231 184.0
1255.699707 208.0
1255.957764 176.0
1256.733765 184.0
1256.917236 152.0
1257.015991 216.0
1257.113525 224.0
1257.213623 172.0
1257.415039 236.0
1258.21582 112.0
1258.371216 168.0
1258.420654 164.0
1259.402222 248.0
1260.610352 208.0
1261.21814 104.0
1261.677612 176.0
1261.748291 188.0
1262.060425 180.0
1262.370483 124.0
1262.65332 120.0
1263.028198 168.0
1263.565796 188.0
1263.707397 208.0
1264.542358 196.0
1265.044922 192.0
1265.342285 140.0
1265.901611 160.0
1266.46106 160.0
1266.694824 212.0
1267.013672 180.0
1267.537964 212.0
1268.303345 244.0
1268.713989 168.0
1268.723022 156.0
1268.870483 68.0
1269.380981 172.0
1270.09729 160.0
1270.395142 132.0
1270.58667 180.0
1270.913086 152.0
1271.278076 180.0
1271.857788 192.0
1272.233154 88.0
1273.355103 120.0
1273.518433 80.0
1273.77417 180.0
1274.250122 184.0
1274.306885 80.0
1274.441895 180.0
1275.109863 244.0
1275.351562 184.0
1275.809692 180.0
1276.752197 52.0
1277.065063 216.0
1277.358276 196.0
1277.57251 212.0
1277.669678 168.0
1278.196167 112.0
1278.779785 200.0
1278.886597 172.0
1279.007568 180.0
1279.299438 212.0
1280.9729 192.0
1281.671021 248.0
1281.770752 60.0
1282.241455 164.0
1282.412109 188.0
1283.032349 172.0
1283.174927 128.0
1284.19458 128.0
1284.808105 144.0
1284.872314 188.0
1285.785645 160.0
1286.270996 180.0
1286.320923 172.0
1286.463745 156.0
1286.884888 96.0
1287.336182 168.0
1287.391968 60.0
1288.306152 204.0
1288.734863 120.0
1289.02771 152.0
1289.206421 124.0
1289.49231 188.0
1289.735352 96.0
1289.963989 168.0
1290.121338 148.0
1290.48291 280.0
1291.068481 204.0
1291.587158 140.0
1291.651611 184.0
1291.773193 76.0
1291.887939 196.0
1292.123779 172.0
1292.939453 84.0
1293.819824 124.0
1294.356812 136.0
1294.793701 120.0
1296.212036 56.0
1297.258423 144.0
1298.269409 180.0
1298.348267 48.0
1298.463013 104.0
1298.979492 152.0
1299.287964 132.0
1299.345337 144.0
1300.098755 196.0
1300.213623 116.0
1300.698242 132.0
1301.23291 216.0
1301.326172 152.0
1301.397949 168.0
1301.789429 172.0
1301.864746 124.0
1302.0802 72.0
1302.39624 132.0
1302.611694 140.0
1302.978027 168.0
1303.136108 148.0
1304.271606 100.0
1304.731689 184.0
1305.019165 52.0
1305.105469 132.0
1305.493774 220.0
1305.680786 124.0
1306.644653 188.0
1306.824463 132.0
1307.05481 164.0
1308.803833 152.0
1308.897461 156.0
1309.10022 200.0
1309.16394 204.0
1309.271973 148.0
1310.085815 160.0
1310.532471 212.0
1310.755859 244.0
1311.411743 80.0
1312.276733 140.0
1314.382812 52.0
1314.895264 192.0
1314.974609 148.0
1315.062256 136.0
1315.703247 120.0
1315.775879 148.0
1315.978027 264.0
1316.606201 144.0
1316.729492 136.0
1316.837402 216.0
1317.464355 232.0
1317.733032 140.0
1317.906494 172.0
1318.325562 124.0
1318.614624 188.0
1319.785767 164.0
1319.915894 196.0
1320.501709 128.0
1321.029663 100.0
1321.087524 156.0
1321.413086 212.0
1321.760376 84.0
1321.811035 168.0
1322.151123 260.0
1322.700073 224.0
1322.759155 140.0
1323.39624 108.0
1323.852417 40.0
1323.997192 196.0
1324.062378 144.0
1324.489746 172.0
1324.866455 164.0
1325.130981 188.0
1325.547485 192.0
1325.721436 208.0
1326.190063 168.0
1326.533203 144.0
1326.982666 188.0
1327.403198 260.0
1327.468506 56.0
1327.678711 116.0
1327.780273 140.0
1329.129517 160.0
1329.310913 72.0
1329.390747 52.0
1330.280029 168.0
1330.421509 168.0
1331.481567 128.0
1331.67041 124.0
1332.05542 136.0
1332.963501 152.0
1333.145142 180.0
1333.581299 148.0
1334.010132 184.0
1334.177246 136.0
1334.467529 140.0
1335.522583 48.0
1335.835327 120.0
1336.31543 200.0
1336.542358 192.0
1336.853882 128.0
1337.057739 244.0
1338.111816 212.0
1338.513672 236.0
1339.037964 224.0
1340.546021 192.0
1341.792358 92.0
1342.477783 152.0
1342.660034 88.0
1342.820557 44.0
1343.002808 168.0
1343.549927 76.0
1343.746948 140.0
1344.184692 200.0
1344.498535 216.0
1345.381714 88.0
1345.498535 272.0
1345.608032 140.0
1345.768677 184.0
1345.834351 124.0
1346.036987 140.0
1346.097168 216.0
1346.38208 188.0
1346.571899 96.0
1346.893311 164.0
1347.419189 116.0
1347.631104 160.0
1348.018433 180.0
1348.303345 120.0
1348.456909 68.0
1348.581177 200.0
1348.924683 148.0
1349.407104 208.0
1349.641113 104.0
1350.07251 180.0
1350.372437 132.0
1350.717407 164.0
1351.059937 60.0
1351.352661 208.0
1352.311279 164.0
1352.508911 176.0
1352.633301 188.0
1352.838257 200.0
1353.175049 400.0
1354.15625 52.0
1354.727661 208.0
1354.793579 148.0
1354.965576 156.0
1355.247803 56.0
1355.304688 200.0
1355.41272 184.0
1355.760742 88.0
1355.8927 188.0
1356.0979 164.0
1356.317749 148.0
1356.713623 144.0
1356.911499 104.0
1357.006836 128.0
1357.775757 140.0
1358.70105 52.0
1358.891724 144.0
1359.515503 164.0
1359.566772 176.0
1359.74292 120.0
1359.889771 176.0
1360.021851 64.0
1361.930908 104.0
1362.096069 128.0
1362.246704 200.0
1362.338379 160.0
1363.150513 132.0
1363.209229 188.0
1363.782471 228.0
1364.429321 120.0
1364.649902 116.0
1365.753052 176.0
1366.172241 164.0
1366.415039 240.0
1366.797607 216.0
1367.401123 164.0
1368.078247 136.0
1368.129761 188.0
1368.490601 252.0
1368.674683 168.0
1369.337402 168.0
1369.683594 240.0
1370.221313 228.0
1370.346558 44.0
1370.420288 168.0
1370.678101 192.0
1370.818115 152.0
1370.869751 160.0
1371.053955 144.0
1371.422485 184.0
1371.516846 168.0
1371.768921 188.0
1371.886841 224.0
1372.225952 40.0
1372.484009 164.0
1372.764282 196.0
1372.845337 264.0
1373.280518 180.0
1373.332153 88.0
1373.53125 60.0
1373.822754 204.0
1373.929688 152.0
1374.12439 260.0
1374.697021 148.0
1375.937012 172.0
1376.151123 124.0
1376.328247 88.0
1377.254517 184.0
1377.879395 156.0
1378.300537 176.0
1378.669922 116.0
1379.172485 124.0
1379.423828 40.0
1379.77124 168.0
1380.000488 92.0
1380.140991 136.0
1380.311035 196.0
1380.599487 168.0
1380.680786 132.0
1381.24292 200.0
1381.501831 160.0
1381.723755 136.0
1381.805054 172.0
1382.056641 172.0
1382.249023 152.0
1383.225952 140.0
1383.559082 140.0
1383.922119 144.0
1384.78833 192.0
1384.884521 92.0
1385.89209 192.0
1386.106934 232.0
1386.18103 112.0
1387.006836 164.0
1387.151978 168.0
1387.789551 204.0
1388.849976 352.0
1389.220825 188.0
1389.796143 180.0
1390.036987 128.0
1390.163208 192.0
1391.068604 144.0
1391.395264 220.0
1392.056152 132.0
1392.286255 136.0
1392.613037 132.0
1392.665039 148.0
1393.898315 60.0
1394.128662 184.0
1394.819824 48.0
1394.938843 144.0
1395.474121 208.0
1395.548462 140.0
1395.897949 236.0
1396.478027 204.0
1396.782959 100.0
1396.909424 148.0
1397.01355 216.0
1397.251587 184.0
1397.943604 44.0
1398.375244 160.0
1398.457031 156.0
1398.658081 40.0
1398.769653 84.0
1399.268433 180.0
1400.266235 156.0
1401.227173 176.0
1401.383667 164.0
1401.599731 184.0
1401.882935 152.0
1402.091553 36.0
1402.158691 176.0
1402.262939 64.0
1403.246948 148.0
1403.366211 244.0
1403.656982 84.0
1403.761475 164.0
1404.022461 168.0
1404.126831 132.0
1404.529541 328.0
1404.663818 180.0
1405.021973 200.0
1405.521851 180.0
1406.238281 196.0
1406.708496 176.0
1406.820435 148.0
1406.902588 196.0
1407.813477 144.0
1408.38855 92.0
1408.463257 96.0
1408.911499 120.0
1409.113159 216.0
1409.852905 116.0
1410.376099 164.0
1410.488159 144.0
1410.622803 160.0
1410.869507 172.0
1411.033936 144.0
1411.392822 184.0
1411.58728 172.0
1412.095703 208.0
1414.29541 156.0
1414.544189 208.0
1414.774536 164.0
1414.914795 120.0
1415.890259 88.0
1416.01001 204.0
1416.107422 252.0
1416.594238 140.0
1416.774048 180.0
1417.328491 176.0
1417.583252 100.0
1418.032959 124.0
1418.145386 148.0
1418.227783 164.0
1418.595093 140.0
1419.112305 188.0
1419.33728 172.0
1419.742188 200.0
1420.162231 196.0
1420.642334 148.0
1420.7323 176.0
1420.889893 108.0
1421.009888 148.0
1421.340088 204.0
1421.407593 76.0
1421.602661 56.0
1422.540894 148.0
1422.826172 204.0
1423.186523 40.0
1423.839844 168.0
1423.944946 120.0
1424.312988 140.0
1424.928955 160.0
1425.17688 172.0
1425.552612 224.0
1426.018555 188.0
1426.206421 112.0
1426.634888 200.0
1426.830444 164.0
1426.913086 160.0
1427.583374 160.0
1428.036743 200.0
1428.221558 96.0
1428.905396 116.0
1429.146851 148.0
1429.478027 248.0
1429.808594 164.0
1430.87793 152.0
1432.137207 156.0
1432.30127 184.0
1432.730591 188.0
1432.843628 224.0
1433.220337 208.0
1433.853271 192.0
1433.913574 160.0
1434.418579 128.0
1434.531738 176.0
1435.119751 168.0
1435.172485 160.0
1435.474121 180.0
1435.768188 180.0
1435.94165 220.0
1436.27356 136.0
1436.356567 136.0
1436.680908 120.0
1437.387695 184.0
1437.90332 136.0
1438.801514 68.0
1439.314941 168.0
1439.707642 188.0
1439.964355 192.0
1440.727295 88.0
1440.780151 132.0
1440.908569 92.0
1440.991699 144.0
1441.089966 196.0
1441.339233 208.0
1441.856567 140.0
1442.238647 156.0
1442.89624 224.0
1442.949219 168.0
1443.23645 32.0
1443.455811 152.0
1443.554077 160.0
1443.833862 168.0
1443.909546 164.0
1445.558716 128.0
1445.770508 152.0
1446.255005 116.0
1446.383667 204.0
1447.019531 184.0
1447.136841 176.0
1447.227173 196.0
1447.640381 148.0
1447.867554 172.0
1448.208374 148.0
1449.322021 208.0
1449.753906 260.0
1450.004028 172.0
1450.072266 152.0
1450.549805 164.0
1450.741699 208.0
1451.080444 144.0
1451.656738 220.0
1451.762817 196.0
1451.944824 152.0
1452.210327 200.0
1452.30127 124.0
1452.772095 196.0
1452.97644 144.0
1453.272339 168.0
1453.492432 148.0
1453.735229 284.0
1454.137451 132.0
1454.509399 172.0
1455.033081 156.0
1455.298828 148.0
1455.503906 52.0
1455.606079 212.0
1455.746826 180.0
1456.164551 168.0
1456.346802 216.0
1457.311646 280.0
1457.691528 164.0
1457.843506 68.0
1457.980347 212.0
1458.337524 148.0
1458.709961 188.0
1459.211426 120.0
1459.736328 152.0
1459.895996 168.0
1460.162231 144.0
1460.557739 184.0
1460.801147 196.0
1461.364136 196.0
1461.820679 68.0
1461.980469 188.0
1462.360962 156.0
1462.596924 180.0
1462.695923 172.0
1463.684448 156.0
1463.967407 172.0
1464.729004 188.0
1464.85083 124.0
1465.201294 176.0
1465.812012 184.0
1466.581421 176.0
1466.655762 156.0
1466.938843 160.0
1468.204468 60.0
1468.326538 180.0
1468.601074 164.0
1468.669678 132.0
1469.005371 196.0
1470.287231 192.0
1470.394043 136.0
1471.042847 136.0
1471.600098 160.0
1471.928467 108.0
1472.065918 136.0
1473.283936 100.0
1474.632812 208.0
1474.724854 164.0
1474.808594 216.0
1474.999634 112.0
1475.267212 152.0
1475.641846 188.0
1476.184692 176.0
1476.605347 128.0
1476.964966 148.0
1477.11853 188.0
1478.135254 204.0
1478.265381 176.0
1478.621094 216.0
1478.862305 172.0
1479.367554 144.0
1479.612549 184.0
1479.888184 200.0
1480.07959 212.0
1481.075073 164.0
1481.220703 204.0
1482.896973 212.0
1483.435181 172.0
1483.563721 172.0
1484.102173 148.0
1484.332275 164.0
1484.431885 168.0
1485.198853 168.0
1485.705078 120.0
1485.835571 240.0
1486.117188 148.0
1486.188477 184.0
1486.349609 148.0
1486.856079 204.0
1487.239868 128.0
1487.669678 120.0
1488.1073 140.0
1488.245483 244.0
1488.483521 200.0
1488.675537 188.0
1489.044189 72.0
1489.256836 144.0
1489.658569 176.0
1489.873657 200.0
1490.864868 152.0
1491.495117 124.0
1491.741089 36.0
1492.240845 80.0
1492.302246 148.0
1492.771362 136.0
1493.202026 108.0
1493.394287 120.0
1493.555786 208.0
1494.13269 172.0
1494.425049 68.0
1494.548218 160.0
1495.256226 188.0
1495.62561 136.0
1495.972046 176.0
1496.133667 188.0
1496.218384 180.0
1496.387695 108.0
1496.564819 164.0
1496.641846 240.0
1497.296387 164.0
1497.642944 172.0
1497.729004 140.0
1498.19751 144.0
1498.690674 152.0
1499.646606 144.0
1499.847534 164.0
1500.27832 192.0
1500.352295 168.0
1500.632935 192.0
1500.864258 156.0
1501.071411 160.0
1501.380859 224.0
1501.990234 148.0
1502.807983 120.0
1503.116577 76.0
1503.432983 144.0
1504.058105 104.0
1504.204712 136.0
1504.320557 188.0
1504.374634 132.0
1504.969116 120.0
1505.154419 192.0
