>compound Cefaclor (Ceclor)
>formula C15H14ClN3O4S
>ionization [M+H]+
>parentmass 368.047
#inchi InChI=1S/C15H14ClN3O4S/c16-8-6-24-14-10(13(21)19(14)11(8)15(22)23)18-12(20)9(17)7-4-2-1-3-5-7/h1-5,9-10,14H,6,17H2,(H,18,20)(H,22,23)/t9-,10-,14-/m1/s1
#inchikey QYIYFLOTGYLRGG
#Ion_Source LC-ESI
#Instrument qTof
#Compound_Source Commercial
#PI Dorrestein
#Data_Collector Garg_Neha
#Scan -1
#Precursor_MZ 368.047
#ExactMass 367.039
#Charge 1
#CAS_Number 53994-73-3
#Pubmed_ID N/A
#Smiles [C@]12(N(C(=C(CS1)Cl)C(O)=O)C([C@H]2NC(=O)[C@@H](C3=CC=CC=C3)N)=O)[H]
#INCHI_AUX N/A
#Library_Class 1
#SpectrumID CCMSLIB00000078165
#IonMode Positive
#UpdateWorkflowName UPDATE-SINGLE-ANNOTATED-GOLD
#LibraryQualityString Gold
#TaskID 77f51c88eb8b467eb4a01dd2d0cb90d2
##Scan# 1003
#SpectrumFile Plate3_1_20_GG9_01_16498.mzXML
#LibraryName FDALibrary_2_04302014.mgf
#MQScore -1
#Organism FDALibrary_2_04302014
#TIC_Query 0
#RT_Query -1
#MZErrorPPM -1
#SharedPeaks 0
#MassDiff 0
#LibMZ -1
#SpecMZ 368.047
#SpecCharge 0
#internalFilename spec-00000.mgf

>collision 10
44.893475 156.0
48.526051 168.0
48.771763 188.0
49.530834 176.0
55.572311 216.0
56.010868 176.0
61.164917 152.0
61.681229 156.0
63.968594 172.0
66.482475 188.0
71.868019 196.0
72.370018 188.0
73.183319 204.0
74.095352 144.0
76.865356 164.0
88.105873 156.0
90.267387 188.0
90.53421 212.0
91.432182 160.0
95.803322 188.0
96.807251 196.0
100.358253 184.0
103.656853 168.0
104.686768 192.0
104.957787 148.0
106.065262 1484.0
107.062126 160.0
107.078804 160.0
107.815323 200.0
108.734856 248.0
111.017204 164.0
113.751648 168.0
113.999268 360.0
115.039536 160.0
116.000031 168.0
116.053627 184.0
116.120102 220.0
116.216637 188.0
117.059387 176.0
118.041611 1388.0
118.062096 596.0
118.077843 168.0
118.292053 292.0
119.022682 160.0
119.045456 148.0
120.250488 152.0
121.021828 268.0
123.025459 192.0
124.708519 220.0
126.074715 184.0
127.010582 224.0
131.077881 216.0
132.080139 144.0
132.808517 196.0
135.065842 192.0
135.684143 148.0
137.76001 204.0
146.062149 144.0
147.025803 172.0
147.05899 140.0
148.169754 156.0
148.902313 168.0
150.036758 148.0
150.063049 144.0
151.047272 184.0
152.978439 176.0
157.017319 176.0
157.088623 224.0
157.271805 188.0
157.99147 156.0
158.978683 204.0
159.415634 176.0
159.563934 176.0
159.962311 204.0
161.364075 196.0
161.961075 188.0
162.039352 128.0
163.993988 196.0
164.053284 280.0
167.073364 188.0
168.603546 216.0
170.014969 164.0
171.200409 164.0
171.956451 192.0
173.182693 180.0
173.885361 176.0
174.054138 4020.0
175.013092 168.0
175.059586 420.0
177.32988 144.0
177.526062 144.0
177.973572 492.0
178.034912 396.0
178.952957 152.0
179.968536 148.0
181.073227 144.0
187.113968 140.0
189.968262 140.0
190.033554 172.0
191.0392 1012.0
191.081711 772.0
192.046738 1188.0
193.050888 276.0
194.048721 160.0
195.095886 108.0
199.954086 156.0
200.165222 140.0
204.419861 180.0
204.980835 228.0
205.03212 220.0
206.030807 168.0
207.054825 156.0
211.213882 180.0
213.057541 156.0
215.060974 144.0
218.024902 160.0
221.053513 216.0
225.058441 196.0
228.170441 160.0
232.972641 184.0
235.046036 148.0
235.067398 160.0
243.075562 140.0
249.298218 140.0
257.190887 164.0
261.086853 156.0
269.14624 208.0
277.019714 168.0
277.092834 172.0
279.044342 172.0
281.066101 156.0
291.556152 180.0
295.02948 144.0
297.070496 164.0
306.000854 196.0
306.999817 156.0
307.039246 116.0
308.107361 208.0
311.224487 180.0
311.456268 144.0
315.056396 168.0
323.008728 148.0
323.040924 140.0
324.010284 180.0
325.027496 132.0
335.001007 140.0
336.139282 180.0
340.054382 216.0
342.234283 176.0
346.192749 152.0
350.037659 152.0
351.014252 212.0
352.176849 168.0
353.021484 168.0
365.291077 184.0
366.138702 160.0
367.245117 140.0
367.290894 200.0
368.051544 164.0
368.154114 124.0
369.062897 176.0
369.167755 136.0
369.277039 148.0
370.034729 148.0
370.130432 156.0
1347.935059 180.0
1541.709473 180.0
1590.002563 144.0
1600.567383 152.0
1620.135254 208.0
1685.80603 200.0
1701.721436 204.0
1704.76062 164.0
1810.951538 152.0
1844.177002 176.0
1890.118408 148.0
1901.592285 148.0
1902.686035 204.0
1909.829102 188.0
1925.779419 140.0
1961.570923 168.0
1965.063232 176.0
1970.660889 204.0
1973.816406 140.0
1978.1604 140.0
1981.224487 184.0
