>compound Nisoldipine (Sular)
>formula C20H24N2O6
>ionization [M+H]+
>parentmass 389.17071294009054
#inchi InChI=1S/C20H24N2O6/c1-11(2)10-28-20(24)17-13(4)21-12(3)16(19(23)27-5)18(17)14-7-6-8-15(9-14)22(25)26/h6-9,11,18,21H,10H2,1-5H3
#inchikey MRSJBSHLMOBYSH
#Ion_Source LC-ESI
#Instrument qTof
#Compound_Source Commercial
#PI Dorrestein
#Data_Collector Garg_Neha
#Scan -1
#Precursor_MZ 389.171
#ExactMass 388.163
#Charge 1
#CAS_Number 63675-72-9
#Pubmed_ID N/A
#Smiles C1(=C(C(C(=C(N1)C)C(OC)=O)C2=CC=CC(=C2)[N+](=O)[O-])C(OCC(C)C)=O)C
#INCHI_AUX N/A
#Library_Class 1
#SpectrumID CCMSLIB00000078275
#IonMode Positive
#UpdateWorkflowName UPDATE-SINGLE-ANNOTATED-GOLD
#LibraryQualityString Gold
#TaskID 77f51c88eb8b467eb4a01dd2d0cb90d2
##Scan# 2161
#SpectrumFile Plate4_41_60_GH4_01_16505.mzXML
#LibraryName FDALibrary_2_04302014.mgf
#MQScore -1
#Organism FDALibrary_2_04302014
#TIC_Query 0
#RT_Query -1
#MZErrorPPM -1
#SharedPeaks 0
#MassDiff 0
#LibMZ -1
#SpecMZ 389.171
#SpecCharge 0
#internalFilename spec-00000.mgf

>collision 10
44.926144 204.0
45.070332 208.0
45.170601 192.0
45.646721 232.0
45.7584 192.0
45.974064 200.0
47.502048 156.0
48.077171 180.0
48.131008 156.0
49.141479 172.0
49.528713 172.0
49.866859 196.0
50.46032 256.0
50.726467 168.0
51.129848 152.0
52.509541 208.0
52.872169 176.0
53.198292 148.0
53.849167 192.0
54.241299 156.0
54.526039 160.0
55.804718 156.0
56.053288 180.0
56.79332 208.0
56.911877 208.0
57.465763 164.0
57.714977 140.0
58.210472 152.0
58.37307 148.0
58.441517 156.0
59.249176 208.0
59.542149 180.0
60.007454 176.0
60.036156 192.0
60.348072 152.0
61.201447 188.0
61.488277 200.0
61.610073 164.0
62.142372 212.0
62.96249 168.0
63.008297 236.0
63.537075 196.0
64.028236 172.0
64.063278 180.0
64.171654 180.0
64.342361 184.0
64.628456 196.0
64.786995 148.0
65.001801 144.0
65.016243 168.0
65.477646 164.0
65.696854 172.0
65.808212 164.0
66.039299 152.0
66.194664 168.0
66.556259 152.0
66.816315 148.0
69.393288 144.0
69.758522 228.0
70.874191 148.0
71.711945 148.0
72.7845 228.0
73.068336 220.0
73.112579 160.0
73.642807 160.0
73.895805 216.0
75.100021 152.0
77.365997 164.0
78.543358 172.0
79.144226 160.0
79.239876 172.0
79.353302 248.0
80.154922 156.0
80.636757 200.0
80.772644 196.0
80.928345 192.0
81.457397 144.0
81.493324 168.0
81.707275 168.0
82.555023 172.0
82.641853 152.0
83.554451 168.0
83.787483 180.0
84.446457 192.0
85.593437 172.0
86.013779 168.0
88.514397 204.0
88.911812 152.0
89.146553 208.0
89.302597 200.0
89.860191 176.0
91.069832 148.0
91.142021 188.0
91.452003 140.0
91.829254 176.0
93.219139 212.0
93.995163 176.0
94.797661 180.0
94.849991 200.0
95.022583 160.0
96.825676 236.0
97.047112 176.0
97.701118 160.0
98.313904 188.0
98.539001 144.0
98.649673 168.0
98.873177 144.0
99.241623 156.0
99.320953 160.0
99.491501 144.0
99.628639 208.0
100.432838 172.0
100.962105 168.0
101.410568 176.0
101.876091 180.0
104.555244 196.0
105.495308 172.0
106.838776 228.0
107.083725 184.0
107.407326 156.0
107.47541 180.0
108.016685 144.0
108.045418 184.0
108.242271 152.0
108.517853 212.0
108.791702 224.0
109.072136 152.0
109.542412 236.0
109.836319 220.0
111.469337 160.0
111.578636 156.0
112.440163 340.0
112.805565 192.0
112.989548 152.0
113.489388 220.0
113.87986 180.0
114.300781 188.0
115.050812 164.0
115.264603 156.0
115.904388 168.0
116.035088 212.0
117.044975 188.0
117.068657 164.0
117.318596 140.0
117.48465 220.0
117.637863 156.0
118.067451 180.0
119.019142 244.0
119.059181 196.0
119.50602 168.0
120.043274 268.0
120.107285 156.0
120.998878 172.0
121.029533 200.0
122.026772 364.0
122.057457 120.0
122.377678 192.0
123.05455 200.0
125.852142 172.0
126.827522 212.0
126.845451 140.0
127.060738 248.0
127.318871 144.0
127.419945 176.0
127.551865 120.0
127.88768 196.0
128.053986 680.0
128.367538 172.0
129.060257 180.0
129.189682 196.0
130.065048 160.0
130.264191 184.0
130.611969 148.0
131.071854 180.0
131.496017 144.0
132.044342 180.0
132.403656 140.0
132.646515 148.0
137.667374 152.0
137.828552 180.0
138.057648 160.0
138.661652 212.0
139.119034 192.0
139.591293 140.0
140.047852 184.0
140.340073 144.0
140.982132 152.0
141.06485 288.0
142.065598 840.0
143.069305 252.0
144.040253 180.0
144.467865 192.0
145.05455 180.0
146.111191 144.0
146.195404 164.0
146.392807 152.0
146.412064 176.0
147.152451 176.0
147.258591 160.0
147.918686 148.0
148.437943 160.0
148.888031 220.0
149.523056 224.0
149.812805 152.0
149.834732 192.0
150.210144 188.0
150.498123 168.0
151.055634 236.0
151.944595 148.0
152.059586 168.0
153.056366 180.0
153.154053 176.0
153.523743 212.0
154.063324 956.0
155.068008 324.0
155.103592 212.0
155.411118 148.0
155.569946 148.0
156.04364 360.0
156.078217 388.0
156.280746 176.0
157.047058 300.0
157.068176 180.0
157.222656 188.0
158.042038 160.0
158.055099 164.0
158.277573 208.0
158.640854 200.0
158.884109 220.0
159.167725 160.0
159.494324 208.0
160.032669 176.0
160.078003 144.0
160.980774 176.0
162.045654 192.0
162.387863 140.0
162.484268 244.0
162.933548 128.0
164.719391 200.0
165.161606 200.0
165.261383 168.0
165.394455 180.0
165.996506 188.0
166.0672 216.0
166.913223 160.0
167.069321 576.0
167.224503 144.0
168.078705 1724.0
168.583618 168.0
168.930084 204.0
169.078598 620.0
169.313156 140.0
170.06044 940.0
170.08252 748.0
171.06131 112.0
172.036118 272.0
172.073639 304.0
173.047272 216.0
173.065598 184.0
173.288223 160.0
174.090866 140.0
174.874313 180.0
175.021744 172.0
175.108643 168.0
175.329941 156.0
175.411652 188.0
175.918137 148.0
176.002609 148.0
176.069916 148.0
177.065872 160.0
178.025696 160.0
178.063492 476.0
178.738098 172.0
179.06131 496.0
179.110825 164.0
179.323975 156.0
179.948181 160.0
179.977554 176.0
180.068207 1036.0
180.405014 152.0
181.075562 608.0
182.081772 460.0
182.325073 200.0
182.687134 212.0
183.038193 156.0
183.090393 2692.0
183.139359 148.0
183.271362 144.0
184.04216 136.0
184.093491 464.0
184.145386 148.0
185.073044 488.0
185.105087 256.0
186.055847 168.0
186.880615 172.0
187.160965 204.0
188.027832 160.0
188.074524 312.0
191.540131 180.0
191.939758 152.0
192.071945 180.0
192.262497 220.0
192.626953 204.0
193.075912 1436.0
193.938538 180.0
193.991196 152.0
194.082855 2412.0
194.32399 180.0
194.595978 160.0
194.657074 160.0
194.931046 212.0
195.055511 316.0
195.091415 6756.0
195.149246 184.0
195.248993 168.0
196.01564 192.0
196.097748 2668.0
197.07251 496.0
197.102982 928.0
198.053085 352.0
198.077286 592.0
199.04541 200.0
199.083618 316.0
199.178741 148.0
199.42601 160.0
201.042587 148.0
201.067993 152.0
201.110321 216.0
202.04808 120.0
202.084061 140.0
202.580704 148.0
202.985992 208.0
203.081726 180.0
203.758026 168.0
204.062515 296.0
204.517288 200.0
204.668167 148.0
206.733597 144.0
207.049759 144.0
207.074127 176.0
208.073425 160.0
208.265823 156.0
209.069107 1140.0
210.08075 500.0
210.121918 144.0
210.57576 196.0
211.085922 5244.0
211.444138 156.0
211.959702 152.0
212.061005 160.0
212.092865 2128.0
212.202026 164.0
213.065628 544.0
213.099243 1504.0
214.04866 1532.0
214.100342 448.0
215.05101 296.0
215.09079 192.0
216.06781 320.0
217.106659 276.0
217.165314 168.0
217.273849 152.0
218.084396 148.0
221.070526 376.0
222.056244 492.0
222.078842 1420.0
222.699509 148.0
223.048798 152.0
223.085709 3192.0
223.251434 164.0
223.531921 140.0
224.049377 156.0
224.058151 304.0
224.087128 244.0
225.064743 352.0
225.135712 168.0
225.192459 156.0
225.234268 180.0
226.002579 260.0
226.08493 1520.0
226.889114 220.0
227.051025 172.0
227.082474 1376.0
227.332809 168.0
228.046082 196.0
228.088959 620.0
228.146988 164.0
228.779892 172.0
229.095642 272.0
229.128082 172.0
230.099197 292.0
230.588547 168.0
230.842484 152.0
231.084473 180.0
232.06192 444.0
233.052216 168.0
233.602493 168.0
235.764221 140.0
236.072128 148.0
236.844238 140.0
237.062698 520.0
237.659698 200.0
238.066635 168.0
238.433533 140.0
238.885651 196.0
239.080994 13612.0
239.166183 188.0
240.03624 172.0
240.086807 11012.0
241.058304 188.0
241.09285 4304.0
241.29097 160.0
241.672256 100.0
241.840561 148.0
242.042221 292.0
242.097275 856.0
243.052338 216.0
243.062286 148.0
243.071671 348.0
243.106064 192.0
244.05658 156.0
244.370728 164.0
244.498306 144.0
244.529037 160.0
244.766022 220.0
246.075333 1480.0
247.075027 176.0
248.888306 220.0
250.673889 164.0
251.28244 140.0
251.310837 204.0
252.062958 184.0
252.324661 180.0
252.966858 176.0
253.097351 3644.0
253.917419 140.0
254.104309 6644.0
254.164474 196.0
255.077347 892.0
255.108154 1512.0
256.082458 1832.0
256.322784 104.0
256.736908 116.0
257.091675 2652.0
257.336273 164.0
258.097351 712.0
259.119751 188.0
260.125519 140.0
261.882263 168.0
263.685822 164.0
264.737244 160.0
264.792297 192.0
266.069885 144.0
266.137054 348.0
267.080505 148.0
268.099548 308.0
269.08432 160.0
269.290344 156.0
269.597443 180.0
270.009369 180.0
270.075653 2096.0
271.108124 5344.0
272.073669 324.0
272.10675 708.0
273.095367 480.0
273.57605 140.0
274.07016 140.0
279.154449 296.0
280.239563 144.0
281.12207 188.0
281.924683 232.0
283.072083 140.0
283.135803 288.0
284.090088 584.0
285.115051 204.0
286.091949 332.0
287.108337 176.0
287.485901 152.0
288.124451 696.0
288.644562 140.0
289.125031 128.0
289.395721 164.0
290.867035 168.0
295.139435 1612.0
295.837128 264.0
296.150452 2172.0
296.221924 108.0
297.077637 148.0
297.152069 516.0
298.127899 136.0
299.146362 140.0
301.081573 496.0
302.088318 340.0
303.350433 176.0
307.967896 164.0
308.680817 180.0
310.137207 164.0
311.783264 200.0
312.124115 124.0
312.149994 172.0
313.056732 160.0
313.084686 128.0
313.154419 10172.0
313.210876 116.0
313.83194 156.0
314.11499 156.0
314.157562 2080.0
314.576355 152.0
314.632843 188.0
315.09613 10300.0
315.158966 528.0
315.79892 140.0
316.100067 1680.0
316.321594 100.0
317.102631 588.0
326.149414 124.0
327.153595 164.0
328.142975 404.0
329.151581 268.0
329.396576 140.0
331.078857 132.0
331.106415 140.0
338.404846 156.0
351.80719 176.0
351.866913 156.0
352.62149 208.0
356.921326 200.0
357.094299 256.0
357.143768 10476.0
357.372192 120.0
358.144501 2344.0
359.149139 400.0
361.179138 148.0
363.47876 148.0
365.911316 172.0
369.579163 148.0
371.156036 600.0
372.160309 228.0
388.981415 172.0
389.167511 452.0
389.24826 176.0
389.311218 144.0
390.172241 144.0
393.200806 148.0
611.803345 172.0
1319.388672 148.0
1323.273682 248.0
1384.344238 232.0
1440.379761 164.0
1488.076294 140.0
1535.059937 152.0
1537.603027 140.0
1549.206543 168.0
1564.024048 232.0
1564.622314 208.0
1592.583618 148.0
1619.759155 172.0
1629.152588 240.0
1638.702148 156.0
1665.543701 140.0
1666.364136 196.0
1677.87207 180.0
1709.513184 192.0
1741.649048 168.0
1755.347656 188.0
1791.90918 152.0
1807.148682 144.0
1824.704956 244.0
1838.700073 152.0
1882.051025 220.0
1887.866333 164.0
1908.008301 204.0
1912.618774 220.0
1923.71521 168.0
1970.983643 172.0
