>compound MLS002473044-01!1,5,8-trihydroxy-3-methoxyxanthen-9-one
>formula C14H10O6
>ionization [M+H]+
>parentmass 275.055664
#inchi InChI=1S/C14H10O6/c1-19-6-4-9(17)11-10(5-6)20-14-8(16)3-2-7(15)12(14)13(11)18/h2-5,15-17H,1H3
#inchikey JDIORNFCMMYMLF
#Ion_Source LC-ESI
#Instrument qTof
#Compound_Source NIH Natural Product Library
#PI Dorrestein
#Data_Collector VVP/LMS
#Scan -1
#Precursor_MZ 275.056
#ExactMass 274.048
#Charge 1
#CAS_Number N/A
#Pubmed_ID N/A
#Smiles COc1cc(O)c2c(=O)c3c(O)ccc(O)c3oc2c1
#INCHI_AUX N/A
#Library_Class 1
#SpectrumID CCMSLIB00000080414
#IonMode Positive
#UpdateWorkflowName UPDATE-SINGLE-ANNOTATED-GOLD
#LibraryQualityString Gold
#TaskID b1d8e8f6646f4e71acdff9ca3d919d08
##Scan# 2174
#SpectrumFile p2-E08_GE8_01_18032.mzXML
#LibraryName NIH_Natural_Products_Library.mgf
#MQScore -1
#Organism NIH_Natural_Products_Library
#TIC_Query 0
#RT_Query -1
#MZErrorPPM -1
#SharedPeaks 0
#MassDiff 0
#LibMZ -1
#SpecMZ 275.056
#SpecCharge 0
#internalFilename spec-00000.mgf

>collision 10
95.01741 176.0
95.149384 148.0
95.187119 268.0
95.777504 128.0
96.562141 224.0
96.669739 128.0
96.867485 136.0
98.269211 188.0
99.046135 156.0
99.17691 168.0
99.323647 164.0
100.035034 124.0
100.156502 180.0
100.295982 96.0
100.854866 128.0
101.445381 148.0
102.045433 332.0
102.671898 48.0
103.049377 204.0
103.091805 44.0
103.289101 48.0
104.859482 128.0
104.965492 136.0
106.307419 192.0
107.010406 96.0
107.072182 188.0
107.094833 144.0
108.019577 148.0
108.290726 192.0
108.744789 132.0
108.902588 200.0
108.969063 116.0
109.303825 88.0
109.764175 184.0
109.790306 188.0
110.769455 52.0
111.920349 120.0
112.293358 148.0
113.039101 180.0
113.384293 204.0
113.407608 52.0
113.583595 156.0
114.112389 188.0
114.678635 124.0
114.919609 40.0
115.052513 424.0
115.669731 84.0
116.061836 184.0
116.310654 192.0
116.927513 128.0
117.069305 248.0
117.151451 176.0
117.498535 200.0
117.669037 144.0
117.766212 148.0
118.008247 156.0
119.04834 168.0
119.901138 100.0
121.028336 132.0
121.14222 152.0
121.416206 156.0
121.80909 148.0
121.921143 128.0
123.007088 368.0
123.04232 132.0
123.555046 148.0
124.042244 204.0
125.028412 248.0
125.188698 224.0
125.487282 60.0
125.603241 168.0
125.80854 108.0
126.768074 96.0
126.918259 160.0
127.049873 188.0
127.281586 228.0
128.071136 164.0
128.65744 172.0
129.034729 168.0
129.161362 104.0
130.038086 376.0
130.895294 116.0
131.048965 216.0
131.086639 156.0
131.702637 132.0
132.020905 220.0
133.021576 148.0
133.037643 208.0
134.033356 164.0
134.204086 108.0
134.67717 168.0
135.00647 204.0
135.079376 128.0
135.303848 220.0
135.964462 164.0
136.015533 256.0
136.717438 52.0
136.971222 52.0
137.023407 136.0
137.260208 140.0
137.27887 32.0
137.316177 92.0
138.028458 152.0
138.147736 68.0
138.920792 120.0
139.608978 136.0
140.039673 208.0
140.093857 200.0
140.959747 160.0
141.02356 108.0
141.690872 180.0
142.789902 108.0
143.013565 168.0
143.051651 184.0
143.800095 212.0
144.01976 136.0
144.053192 152.0
145.027084 124.0
145.066833 348.0
145.098999 164.0
146.074005 192.0
146.11972 68.0
146.639847 132.0
146.690475 120.0
146.736267 60.0
147.037796 144.0
147.228516 132.0
148.012024 132.0
148.048859 172.0
149.033691 232.0
149.806854 200.0
150.03038 508.0
150.993118 164.0
151.027359 76.0
151.237793 144.0
152.013031 796.0
153.01738 288.0
153.040833 236.0
153.404327 192.0
154.031113 288.0
154.337555 100.0
155.04805 540.0
155.691833 188.0
156.05336 64.0
156.185165 120.0
156.840027 212.0
157.022034 176.0
157.713638 220.0
157.843643 156.0
157.993713 160.0
158.013718 472.0
158.036148 1688.0
158.068771 196.0
158.26651 44.0
158.755157 152.0
159.042068 572.0
160.015213 164.0
160.046753 108.0
161.022675 128.0
161.060562 300.0
161.389099 80.0
162.037033 148.0
162.054764 140.0
163.039337 120.0
164.465607 172.0
164.552399 148.0
165.058304 144.0
166.922516 172.0
167.039047 104.0
167.094849 212.0
167.651031 96.0
168.536118 144.0
169.017059 216.0
170.027481 184.0
170.056259 208.0
171.04483 276.0
171.63797 224.0
172.039764 92.0
172.060638 264.0
172.559662 88.0
173.061478 120.0
174.076782 176.0
175.545151 48.0
176.020142 192.0
176.046921 736.0
177.016647 416.0
177.059433 188.0
177.488724 136.0
177.602768 232.0
177.711533 164.0
178.026199 292.0
179.043289 160.0
179.591537 176.0
180.465576 176.0
182.675461 152.0
183.41597 204.0
184.747253 124.0
185.031418 188.0
185.993774 68.0
186.031387 2760.0
186.254456 56.0
186.653961 224.0
186.847061 156.0
187.033875 508.0
187.495132 48.0
187.606888 72.0
188.223495 84.0
188.261719 136.0
188.693451 204.0
189.013184 192.0
189.050217 176.0
189.265289 140.0
189.311844 192.0
190.02803 184.0
191.032761 156.0
191.071274 204.0
191.236374 156.0
191.343735 148.0
191.486923 60.0
192.038162 164.0
193.049179 1068.0
193.367111 188.0
194.045776 144.0
195.426163 128.0
195.473465 244.0
196.28685 204.0
196.31752 152.0
196.90358 208.0
197.104721 164.0
198.030716 156.0
198.190399 176.0
198.507141 184.0
198.925186 108.0
198.978531 200.0
199.034683 148.0
200.069336 140.0
200.22702 200.0
200.624313 120.0
200.917603 180.0
201.05217 1760.0
201.095383 164.0
201.569824 220.0
201.713974 136.0
201.846848 112.0
201.906235 180.0
201.951492 128.0
202.019135 280.0
202.056686 892.0
203.030396 408.0
203.090103 124.0
203.285873 76.0
204.039169 1464.0
204.115341 212.0
204.223404 96.0
204.414017 48.0
204.539246 272.0
205.014877 128.0
205.050064 324.0
205.402634 148.0
205.593292 160.0
206.03923 76.0
206.062088 116.0
206.107803 124.0
206.67395 168.0
206.817047 108.0
207.06041 140.0
207.094772 168.0
207.702438 228.0
208.443146 132.0
209.110336 148.0
209.905441 84.0
210.742523 144.0
210.924591 200.0
211.014206 244.0
211.908524 72.0
212.981888 92.0
213.015488 348.0
213.519577 144.0
213.795959 76.0
214.026047 2592.0
214.066696 148.0
214.087082 180.0
214.340515 104.0
214.605759 92.0
215.031998 840.0
215.602371 116.0
216.035614 380.0
216.05545 184.0
216.086548 144.0
216.162628 84.0
217.00914 168.0
217.038467 104.0
217.472641 84.0
217.600403 168.0
217.645844 216.0
218.022751 284.0
218.283478 76.0
219.031128 456.0
219.064835 376.0
219.287369 160.0
219.408218 60.0
220.007095 156.0
220.062027 356.0
221.423447 76.0
221.790848 60.0
222.152618 144.0
222.639389 128.0
223.23671 188.0
225.651932 52.0
225.801453 96.0
225.852295 188.0
226.136536 180.0
226.399994 72.0
227.035324 208.0
227.215302 96.0
228.035065 40.0
228.24852 44.0
228.958694 180.0
229.049774 2392.0
229.446838 56.0
229.467941 144.0
230.028458 360.0
230.049179 268.0
230.11058 48.0
230.640381 148.0
231.029526 1432.0
231.126144 160.0
231.47728 60.0
231.574188 108.0
231.865036 124.0
231.889282 92.0
232.036469 7780.0
232.362335 112.0
232.586899 96.0
232.74173 80.0
232.775131 156.0
232.865967 84.0
232.945206 64.0
233.038712 1488.0
233.398041 40.0
234.041031 412.0
234.1436 56.0
234.204514 32.0
234.283722 56.0
234.35379 32.0
234.40863 100.0
234.557983 64.0
234.832397 76.0
234.89035 64.0
234.93306 80.0
235.131393 68.0
235.67189 116.0
236.665955 116.0
237.042725 188.0
237.950623 188.0
238.611176 184.0
241.912155 68.0
242.022354 400.0
242.875854 188.0
243.028275 392.0
243.335129 52.0
243.574249 60.0
243.847687 144.0
244.998993 144.0
245.023911 80.0
245.049301 396.0
245.672363 148.0
246.016251 252.0
246.202972 80.0
246.987457 260.0
247.056778 1376.0
247.168915 64.0
247.472534 92.0
247.785736 52.0
248.05864 328.0
248.531937 40.0
248.892914 68.0
249.071915 132.0
251.058273 160.0
251.805862 76.0
252.482193 220.0
252.956787 156.0
253.999313 196.0
257.041412 384.0
258.043762 264.0
260.032806 1320.0
260.784576 88.0
261.030365 160.0
261.591949 132.0
271.600647 200.0
271.82373 88.0
273.036224 472.0
273.45047 72.0
273.868622 240.0
273.944397 112.0
273.997101 128.0
274.046478 392.0
274.135498 56.0
274.636597 192.0
274.95993 160.0
274.983032 84.0
275.055664 6924.0
275.138184 172.0
275.25705 80.0
275.408966 48.0
275.527893 40.0
275.590668 96.0
275.656738 64.0
275.769104 48.0
275.84845 84.0
275.997223 92.0
276.060028 2200.0
276.235321 68.0
276.48349 40.0
276.946991 84.0
277.059296 308.0
277.099396 140.0
277.318085 68.0
277.397644 64.0
277.570038 148.0
277.6828 88.0
278.04776 100.0
280.242462 48.0
283.178802 88.0
289.026367 140.0
291.019379 112.0
307.513672 40.0
307.946594 156.0
320.620026 244.0
337.149994 120.0
363.444519 48.0
432.688019 116.0
452.3396 44.0
460.041565 112.0
461.063171 48.0
462.080841 48.0
468.115784 56.0
498.522217 48.0
498.633331 72.0
520.380493 76.0
554.567322 100.0
681.844299 68.0
740.83313 52.0
756.921997 116.0
797.540466 72.0
896.770813 136.0
921.959839 128.0
933.441284 128.0
1149.325684 176.0
1175.258789 164.0
1200.922485 160.0
1259.917603 188.0
1277.761719 192.0
1304.975342 20.0
1318.013916 80.0
1354.543091 128.0
1400.808105 76.0
1425.948608 208.0
1426.90332 176.0
1432.773438 64.0
1435.139893 176.0
1437.961182 52.0
1444.867554 164.0
1459.421875 148.0
1481.033813 180.0
