>compound MLS000863647-01!(E)-1-(2,3-dihydroxy-4,6-dimethoxyphenyl)-3-phenylprop-2-en-1-one
>formula C17H16O5
>ionization [M+H]+
>parentmass 301.108
#inchi InChI=1S/C17H16O5/c1-21-13-10-14(22-2)16(19)17(20)15(13)12(18)9-8-11-6-4-3-5-7-11/h3-10,19-20H,1-2H3/b9-8+
#inchikey IAYOHSHBLLHXFB
#Ion_Source LC-ESI
#Instrument qTof
#Compound_Source NIH Natural Product Library
#PI Dorrestein
#Data_Collector VVP/LMS
#Scan -1
#Precursor_MZ 301.108
#ExactMass 300.1
#Charge 1
#CAS_Number N/A
#Pubmed_ID N/A
#Smiles COc1cc(OC)c(C(=O)/C=C/c2ccccc2)c(O)c1O
#INCHI_AUX N/A
#Library_Class 1
#SpectrumID CCMSLIB00000079943
#IonMode Positive
#UpdateWorkflowName UPDATE-SINGLE-ANNOTATED-GOLD
#LibraryQualityString Gold
#TaskID b1d8e8f6646f4e71acdff9ca3d919d08
##Scan# 2399
#SpectrumFile p2-B02_GB2_01_17990.mzXML
#LibraryName NIH_Natural_Products_Library.mgf
#MQScore -1
#Organism NIH_Natural_Products_Library
#TIC_Query 0
#RT_Query -1
#MZErrorPPM -1
#SharedPeaks 0
#MassDiff 0
#LibMZ -1
#SpecMZ 301.108
#SpecCharge 0
#internalFilename spec-00000.mgf

>collision 10
95.009941 252.0
95.0653 168.0
95.138023 168.0
95.30117 188.0
95.596733 148.0
95.758316 192.0
96.074097 232.0
96.118973 112.0
96.624252 192.0
96.670029 172.0
96.726791 204.0
96.802368 192.0
96.806656 116.0
96.813545 168.0
96.863861 180.0
97.027908 568.0
97.171646 188.0
97.309036 152.0
97.499573 120.0
97.76577 212.0
97.956047 136.0
97.992531 164.0
98.037712 584.0
98.320816 188.0
98.834602 96.0
98.888039 248.0
99.042473 144.0
99.062286 88.0
99.583961 136.0
100.360077 136.0
100.37603 168.0
100.433868 204.0
100.485733 100.0
100.63942 124.0
100.986893 164.0
101.271355 184.0
101.341469 164.0
101.748611 148.0
101.923355 200.0
102.045959 192.0
102.345757 152.0
102.359856 72.0
102.428329 140.0
102.581474 180.0
102.760963 212.0
103.054878 2876.0
103.128494 272.0
103.316559 84.0
103.336151 44.0
103.367142 208.0
103.654678 176.0
104.015686 44.0
104.057747 316.0
104.476982 180.0
104.872025 180.0
105.03923 180.0
105.070442 160.0
105.088188 168.0
105.451683 112.0
105.639801 176.0
105.809662 164.0
106.237984 40.0
106.521271 204.0
106.82962 124.0
107.013405 476.0
107.5075 172.0
107.970261 52.0
108.02243 364.0
108.259995 176.0
108.504494 248.0
108.558403 164.0
109.025452 760.0
109.366585 148.0
109.393646 180.0
109.483177 196.0
109.551918 180.0
109.804131 136.0
109.831245 100.0
109.900085 124.0
110.027397 76.0
110.436974 52.0
110.849716 136.0
110.903893 124.0
111.007439 856.0
111.352234 148.0
111.367599 112.0
111.584045 120.0
111.674469 52.0
111.77124 140.0
111.908058 44.0
112.010696 408.0
112.072342 224.0
112.403397 108.0
112.679993 40.0
112.796227 116.0
112.90641 140.0
112.925201 108.0
112.990776 204.0
113.098701 212.0
113.224495 148.0
113.475784 208.0
113.520309 168.0
113.64122 124.0
114.274376 132.0
114.933327 196.0
114.951439 212.0
115.058685 224.0
115.503174 112.0
115.873528 148.0
116.028 160.0
116.966606 124.0
117.630531 136.0
117.7061 188.0
118.134041 28.0
118.163986 108.0
118.512909 204.0
118.838921 168.0
118.994415 164.0
119.040016 36.0
119.057388 236.0
119.257263 60.0
119.322479 148.0
119.633583 212.0
119.727211 188.0
119.768593 176.0
120.04422 188.0
120.108627 100.0
120.206802 196.0
120.267914 136.0
120.34214 116.0
120.973969 100.0
121.068527 204.0
121.385872 232.0
121.631592 176.0
121.780899 152.0
121.899536 164.0
121.965469 220.0
122.035393 184.0
122.073196 104.0
122.132576 136.0
122.579498 172.0
122.899231 228.0
122.936737 140.0
123.133224 224.0
123.506752 72.0
123.823257 156.0
123.927376 144.0
124.015793 1148.0
124.122429 128.0
124.162346 116.0
124.228889 232.0
124.324295 56.0
124.655182 56.0
124.684074 184.0
124.990952 228.0
125.022652 176.0
125.057716 184.0
125.273712 208.0
125.420082 140.0
125.532257 188.0
125.628159 184.0
125.748657 60.0
125.817856 108.0
126.031815 1240.0
126.052376 52.0
126.654198 100.0
126.970222 60.0
127.035187 332.0
127.077896 116.0
127.183372 68.0
127.293381 64.0
127.315834 52.0
127.333153 304.0
127.464096 68.0
127.518036 204.0
127.553993 184.0
127.770988 148.0
127.91391 196.0
127.939682 156.0
128.060272 160.0
128.116577 152.0
128.141357 156.0
128.263062 40.0
128.540466 184.0
128.565277 168.0
128.655853 160.0
128.702988 132.0
128.942429 176.0
129.632675 152.0
129.986435 120.0
130.006851 188.0
130.397476 44.0
130.526581 152.0
130.84787 176.0
131.051102 912.0
131.789841 148.0
131.961258 20.0
131.993271 156.0
132.057541 200.0
132.15567 104.0
132.32962 132.0
132.567841 192.0
132.65036 144.0
132.687042 76.0
133.065598 168.0
133.214859 300.0
133.235535 64.0
133.253922 148.0
133.327454 124.0
133.644791 84.0
134.062439 140.0
134.203125 196.0
135.005768 148.0
135.039352 168.0
135.16188 172.0
135.190842 116.0
135.46637 132.0
135.489532 192.0
135.515015 116.0
135.705078 160.0
135.837265 132.0
135.872055 116.0
135.920792 124.0
135.946304 180.0
136.015656 2072.0
136.10881 36.0
136.223328 64.0
136.279694 160.0
136.483368 160.0
136.617798 156.0
136.689926 128.0
136.80397 172.0
137.022659 468.0
137.060165 152.0
137.1091 104.0
137.213989 156.0
137.865234 192.0
138.027985 316.0
138.370483 124.0
138.972824 180.0
139.002731 7912.0
139.259232 68.0
139.436096 228.0
139.461288 96.0
139.617859 264.0
139.647034 188.0
139.73407 88.0
139.762314 32.0
140.008469 1080.0
140.05658 220.0
140.197952 108.0
140.263947 104.0
140.332306 204.0
140.381821 208.0
140.530426 140.0
140.733414 64.0
140.938904 164.0
141.017761 1168.0
141.054718 128.0
141.073624 168.0
141.265167 112.0
141.402405 76.0
141.739868 216.0
141.769485 252.0
141.949646 68.0
142.016052 220.0
142.037399 180.0
142.070618 136.0
142.75705 176.0
143.018753 96.0
143.099686 120.0
143.128265 116.0
143.202087 164.0
143.283081 176.0
143.418915 196.0
143.50473 168.0
143.638275 84.0
143.669296 152.0
144.133026 208.0
144.40979 120.0
144.507874 184.0
145.113831 64.0
145.188156 192.0
145.884476 152.0
145.937363 160.0
146.377701 44.0
146.417877 120.0
146.66922 104.0
146.787354 228.0
147.477814 188.0
147.509247 124.0
147.859955 64.0
148.257141 160.0
148.434097 84.0
148.759201 80.0
149.026352 336.0
149.065231 244.0
149.167313 164.0
149.235382 148.0
149.449417 144.0
149.539459 188.0
149.702576 204.0
149.758591 136.0
149.880402 172.0
150.031509 128.0
150.185135 140.0
150.211746 176.0
150.275406 68.0
150.465775 164.0
150.815094 124.0
150.951996 148.0
150.981354 56.0
151.233353 116.0
151.47821 272.0
151.939087 180.0
152.00972 676.0
152.042145 132.0
152.061234 144.0
152.093689 52.0
152.324509 40.0
152.390839 236.0
152.424271 184.0
152.449814 192.0
152.624344 64.0
152.678436 144.0
152.826035 104.0
152.862946 80.0
152.917084 184.0
152.946625 124.0
153.019241 30768.0
153.071655 112.0
153.10434 68.0
153.187943 80.0
153.210114 64.0
153.246338 108.0
153.348099 220.0
153.496017 92.0
153.550262 68.0
153.602066 36.0
153.72049 32.0
153.772324 104.0
153.838196 168.0
153.900681 220.0
153.987122 80.0
154.026337 7396.0
154.11557 140.0
154.211945 164.0
154.298462 148.0
154.352859 36.0
154.399857 88.0
154.471573 136.0
154.595291 56.0
154.642303 76.0
154.741333 84.0
154.852768 88.0
154.899826 156.0
154.934311 52.0
154.986542 76.0
155.031052 740.0
155.094666 164.0
155.127808 60.0
155.18483 136.0
155.246368 88.0
155.301941 124.0
155.341064 68.0
155.522202 236.0
155.539581 216.0
155.681107 144.0
155.777969 40.0
156.024139 136.0
156.05632 152.0
156.083664 96.0
156.133392 132.0
156.205536 136.0
156.688492 144.0
156.780685 156.0
156.902817 132.0
157.011154 204.0
157.222092 176.0
157.80661 92.0
158.234451 180.0
158.269501 188.0
158.412247 68.0
158.971375 116.0
159.061722 164.0
159.227448 156.0
159.526443 208.0
159.99437 92.0
161.182312 220.0
161.270767 100.0
161.870361 132.0
162.029922 136.0
162.978836 104.0
163.156754 172.0
163.182175 224.0
163.329666 152.0
163.696793 80.0
163.879547 108.0
163.927124 96.0
163.971298 256.0
164.008072 520.0
164.356354 232.0
164.653793 156.0
164.690796 116.0
165.021896 508.0
165.054337 1876.0
165.107391 76.0
165.173889 184.0
165.609955 244.0
165.708939 200.0
165.760178 144.0
166.026627 140.0
166.062408 152.0
166.090912 48.0
166.119125 52.0
166.321838 100.0
166.42453 92.0
166.797043 116.0
166.899414 176.0
166.925583 140.0
166.998428 10896.0
167.049683 128.0
167.087769 148.0
167.154526 88.0
167.267776 92.0
167.347 136.0
167.481491 48.0
167.581955 240.0
167.816513 36.0
167.837128 144.0
167.953476 36.0
168.001205 1520.0
168.053802 156.0
168.614151 168.0
168.919266 60.0
168.976181 72.0
169.014282 5268.0
169.046036 136.0
169.066742 52.0
169.123672 100.0
169.193573 116.0
169.237579 40.0
169.307495 84.0
169.3582 60.0
169.551025 56.0
170.014832 292.0
170.373566 52.0
170.75827 68.0
170.963806 56.0
171.017471 264.0
171.044296 160.0
171.109573 124.0
171.362198 96.0
171.429947 136.0
171.742798 184.0
171.969803 148.0
172.270081 156.0
172.921173 188.0
173.065155 144.0
173.112289 176.0
173.38736 76.0
173.418808 88.0
174.077301 80.0
174.297958 140.0
174.939697 116.0
174.966019 36.0
175.039749 64.0
175.432312 192.0
175.925629 136.0
175.952026 136.0
176.068207 56.0
177.023651 220.0
177.733292 220.0
178.89473 136.0
178.998917 268.0
179.52887 40.0
179.571533 44.0
180.022842 152.0
180.075974 200.0
180.150757 164.0
180.21756 112.0
180.380569 40.0
180.527634 104.0
180.741623 96.0
181.012848 912.0
181.06395 168.0
181.116425 60.0
181.175354 156.0
181.293259 192.0
181.338821 240.0
181.365616 184.0
181.724976 132.0
181.767899 132.0
181.869888 180.0
181.934311 64.0
181.953094 176.0
182.02182 24964.0
182.075912 92.0
182.0811 180.0
182.138397 48.0
182.162567 108.0
182.232422 48.0
182.267349 80.0
182.302277 76.0
182.329163 56.0
182.393661 48.0
182.412476 32.0
182.511948 84.0
182.536148 32.0
182.567596 52.0
182.654495 72.0
182.714722 124.0
182.772873 64.0
182.845108 52.0
182.875122 88.0
182.953186 88.0
183.024399 2924.0
183.066284 64.0
183.109375 36.0
183.133606 120.0
183.165924 56.0
183.198257 56.0
183.308716 52.0
183.47583 136.0
183.958725 188.0
184.025925 264.0
184.077515 64.0
184.126129 92.0
184.201752 32.0
184.242279 44.0
184.312531 100.0
184.404404 56.0
184.423325 36.0
184.490906 96.0
184.566605 108.0
185.009216 1884.0
185.075302 172.0
185.205292 52.0
185.484283 112.0
186.017258 188.0
186.874832 220.0
187.152466 92.0
187.542023 128.0
187.714157 144.0
187.962021 84.0
188.915543 48.0
189.033188 180.0
189.959244 204.0
190.425873 108.0
190.868317 48.0
191.034836 140.0
191.20668 76.0
192.058044 72.0
192.543808 136.0
193.015305 148.0
193.057831 64.0
194.022263 416.0
194.07132 148.0
194.715118 124.0
194.804001 116.0
195.020737 476.0
195.077011 196.0
196.111801 160.0
196.242538 176.0
196.382263 100.0
196.410156 92.0
196.496628 132.0
196.820404 160.0
196.886383 224.0
196.958572 76.0
196.979599 88.0
197.045792 20960.0
197.124268 220.0
197.231079 48.0
197.261826 80.0
197.314941 44.0
197.337311 68.0
197.396027 36.0
197.426788 72.0
197.482727 76.0
197.519623 152.0
197.558258 80.0
197.706543 52.0
197.762527 72.0
197.956665 76.0
198.047104 2620.0
198.078934 192.0
198.157364 36.0
198.42923 48.0
198.64798 52.0
198.866837 76.0
199.04715 216.0
199.111099 56.0
199.136383 64.0
199.234695 72.0
199.29715 52.0
199.522949 96.0
199.573227 160.0
199.688583 76.0
200.030731 360.0
200.058685 128.0
200.393814 128.0
200.54599 112.0
200.642014 64.0
201.064941 100.0
201.186325 156.0
202.03978 116.0
205.024048 68.0
205.069656 148.0
206.219879 60.0
209.045074 188.0
211.052429 176.0
211.07135 172.0
212.143906 64.0
212.237137 492.0
214.679306 88.0
215.032303 104.0
215.071503 140.0
215.400208 80.0
215.607651 36.0
217.919662 88.0
221.065903 184.0
222.066528 260.0
223.097641 116.0
224.083588 152.0
225.055756 136.0
227.072006 208.0
227.618179 136.0
228.032761 148.0
229.049744 84.0
230.930206 136.0
234.534302 36.0
237.061813 212.0
237.564651 52.0
237.804001 132.0
241.476593 96.0
243.075134 44.0
246.007019 136.0
249.051254 44.0
250.069397 136.0
253.068359 152.0
254.052216 176.0
254.206299 76.0
255.067001 220.0
256.23172 176.0
259.103943 180.0
264.135529 140.0
264.591797 72.0
267.069275 160.0
269.009857 144.0
269.094727 144.0
270.048859 404.0
270.333557 40.0
271.058899 372.0
272.055389 168.0
272.42868 164.0
274.067108 180.0
283.08255 172.0
284.101471 152.0
285.067108 344.0
285.983215 100.0
286.084198 120.0
288.073822 148.0
292.761261 100.0
300.280548 112.0
301.11026 196.0
317.694672 80.0
326.700897 20.0
330.800385 80.0
334.75061 128.0
338.5961 136.0
364.512604 128.0
365.417542 76.0
367.612305 156.0
376.28717 96.0
377.009491 72.0
390.695953 40.0
405.956696 80.0
405.984772 68.0
414.802582 112.0
421.346375 20.0
434.396698 88.0
445.765747 32.0
484.391632 132.0
492.109772 84.0
509.196625 80.0
522.549988 92.0
570.124939 132.0
690.247192 20.0
694.129944 64.0
702.572876 60.0
724.729065 20.0
736.783447 48.0
826.197266 152.0
843.419861 168.0
868.85199 80.0
875.639709 168.0
913.383118 132.0
927.99762 100.0
945.345398 92.0
949.750366 84.0
960.366516 132.0
968.680176 176.0
1003.219604 236.0
1006.563477 172.0
1010.709961 148.0
1011.735291 204.0
1014.136047 128.0
1016.260437 176.0
1032.702271 80.0
1051.43689 192.0
1055.241577 128.0
1061.613037 160.0
1067.314331 192.0
1069.858154 200.0
1080.142456 196.0
1083.035522 136.0
1084.293457 172.0
1090.390381 248.0
1091.567139 180.0
1099.716431 148.0
1102.2854 152.0
1104.539795 128.0
1113.507446 104.0
1115.407715 132.0
1121.384766 216.0
1140.802856 160.0
1140.95752 192.0
1143.486694 168.0
1147.609253 196.0
1147.663208 156.0
1150.449585 160.0
1152.448608 196.0
1152.941895 240.0
1153.435303 84.0
1156.052612 100.0
1156.580566 256.0
1162.320679 204.0
1165.022827 140.0
1165.926514 56.0
1173.761719 164.0
1174.921265 100.0
1175.630859 192.0
1177.856567 132.0
1182.971436 184.0
1187.013672 100.0
1196.240601 88.0
1202.733887 172.0
1203.914429 164.0
1205.323608 204.0
1205.696777 208.0
1221.769409 128.0
1223.71106 80.0
1227.389893 64.0
1229.601318 80.0
1236.128296 168.0
1244.806396 60.0
1251.669434 200.0
1252.930176 36.0
1254.247925 128.0
1254.381836 144.0
1258.755981 184.0
1260.677368 192.0
1260.974243 144.0
1266.712402 212.0
1278.989502 160.0
1282.679199 128.0
1284.005371 144.0
1285.203735 160.0
1290.975342 88.0
1291.032593 32.0
1291.161377 96.0
1302.485596 220.0
1306.985962 148.0
1311.083252 148.0
1318.09021 100.0
1324.043701 80.0
1327.275635 44.0
1328.174927 184.0
1332.094604 160.0
1336.493042 176.0
1336.907715 96.0
1337.984985 184.0
1339.769165 132.0
1343.691406 84.0
1345.048706 80.0
1345.362549 148.0
1346.567383 136.0
1348.325439 164.0
1356.195801 72.0
1361.213867 140.0
1363.946777 176.0
1365.284912 204.0
1367.786377 232.0
1371.616699 184.0
1372.929077 124.0
1377.1875 256.0
1378.509888 116.0
1378.783325 128.0
1379.61853 212.0
1380.749756 240.0
1380.912476 168.0
1381.200928 104.0
1381.260132 204.0
1382.236694 140.0
1382.421753 244.0
1384.650024 108.0
1385.827759 160.0
1394.116211 156.0
1396.41333 68.0
1405.136108 168.0
1406.680786 132.0
1411.955811 100.0
1413.571655 168.0
1417.50769 244.0
1417.645264 220.0
1421.709839 196.0
1422.520386 192.0
1423.518921 152.0
1426.606934 200.0
1428.133301 120.0
1428.863037 176.0
1429.367065 132.0
1430.17981 156.0
1431.166016 188.0
1434.209473 48.0
1434.473267 108.0
1434.971069 124.0
1436.275513 204.0
1437.542969 116.0
1441.24292 168.0
1443.661743 100.0
1445.356201 164.0
1446.900146 168.0
1447.984009 156.0
1448.384399 216.0
1452.58374 104.0
1457.27002 220.0
1458.894043 76.0
1459.661987 116.0
1459.821655 64.0
1462.370239 156.0
1464.494507 148.0
1464.677246 180.0
1466.437256 228.0
1466.940308 124.0
1467.108032 72.0
1468.190796 100.0
1472.42627 120.0
1475.115845 40.0
1476.841187 224.0
1477.065674 168.0
1481.697021 156.0
1482.018799 200.0
1486.458374 136.0
1494.57251 128.0
1496.920288 200.0
1497.116577 176.0
1497.859863 120.0
1498.661011 124.0
1499.10022 240.0
1503.982056 260.0
