>compound MLS000548114-01!N-[4,6-bis(dimethylamino)-1,3,5-triazin-2-yl]-N-methylamine
>formula C8H16N6
>ionization [M+H]+
>parentmass 197.149704
#inchi InChI=1S/C8H16N6/c1-9-6-10-7(13(2)3)12-8(11-6)14(4)5/h1-5H3,(H,9,10,11,12)
#inchikey XIFVTSIIYVGRHJ
#Ion_Source LC-ESI
#Instrument qTof
#Compound_Source NIH Pharmacologically Active Library
#PI Dorrestein
#Data_Collector VP/LMS
#Scan -1
#Precursor_MZ 197.154
#ExactMass 196.144
#Charge 1
#CAS_Number N/A
#Pubmed_ID N/A
#Smiles CNc1nc(nc(n1)N(C)C)N(C)C
#INCHI_AUX N/A
#Library_Class 1
#SpectrumID CCMSLIB00000085801
#IonMode Positive
#UpdateWorkflowName UPDATE-SINGLE-ANNOTATED-GOLD
#LibraryQualityString Gold
#TaskID d252d724072548979f1f6f1ced849daf
##Scan# 1319
#SpectrumFile p4-F08_GF8_01_18392.mzXML
#LibraryName Pharm_Active_Library.mgf
#MQScore -1
#Organism Pharm_Active_Library
#TIC_Query 0
#RT_Query -1
#MZErrorPPM -1
#SharedPeaks 0
#MassDiff 0
#LibMZ -1
#SpecMZ 197.154
#SpecCharge 0
#internalFilename spec-00000.mgf

>collision 10
45.080452 160.0
45.092484 212.0
45.22356 184.0
45.236946 148.0
45.248997 88.0
45.330704 176.0
45.392368 160.0
45.604492 108.0
45.640793 92.0
45.68383 156.0
45.896637 200.0
46.000523 52.0
46.422672 76.0
46.445728 128.0
46.555668 228.0
46.634468 200.0
46.8522 232.0
46.929886 116.0
47.000816 152.0
47.282333 200.0
47.308342 140.0
47.445343 216.0
47.614124 152.0
47.766693 196.0
47.828617 208.0
48.107079 196.0
48.166458 200.0
48.225716 172.0
48.420963 172.0
48.484695 144.0
48.678921 144.0
49.057377 192.0
49.259727 156.0
49.293259 132.0
49.329601 196.0
49.354767 184.0
49.444298 208.0
49.489094 140.0
49.662872 148.0
49.756893 48.0
49.865059 136.0
49.893173 164.0
49.904423 160.0
50.155014 112.0
50.356789 96.0
50.411888 100.0
50.646751 136.0
50.745956 168.0
50.93755 120.0
51.404552 196.0
51.425961 172.0
51.473076 228.0
51.57629 164.0
51.686066 104.0
51.95113 104.0
52.142109 196.0
52.173733 152.0
52.688244 232.0
52.69836 216.0
53.189316 196.0
53.240131 112.0
53.264824 64.0
53.461109 92.0
53.657757 188.0
53.9249 144.0
54.014095 116.0
54.368675 128.0
54.445019 76.0
54.544933 184.0
54.661121 108.0
54.694973 140.0
54.777439 188.0
55.097916 188.0
55.184772 244.0
55.531303 156.0
55.652992 100.0
55.8703 172.0
55.886356 180.0
55.925049 204.0
55.986095 188.0
56.023369 164.0
56.088902 180.0
56.227615 168.0
56.291813 148.0
56.715221 192.0
57.030437 180.0
57.168804 164.0
57.241066 168.0
57.504898 104.0
57.604557 164.0
57.636284 56.0
57.745132 220.0
57.823811 152.0
57.848026 224.0
57.858624 108.0
57.993446 136.0
58.149673 156.0
58.245335 176.0
58.412548 172.0
58.458191 180.0
58.583046 132.0
58.666866 164.0
58.700409 152.0
58.743114 140.0
59.316574 132.0
59.43927 160.0
59.537521 160.0
59.640465 176.0
59.688122 136.0
59.778885 168.0
59.815823 148.0
59.949726 188.0
60.278526 232.0
60.383652 216.0
60.408401 208.0
60.443989 180.0
60.501255 156.0
60.955719 220.0
61.276257 212.0
61.34795 104.0
61.377575 200.0
61.505505 200.0
61.630447 140.0
62.031109 152.0
62.211514 80.0
62.301029 188.0
62.389038 156.0
62.535332 176.0
62.783585 208.0
62.926289 200.0
63.948792 120.0
63.991776 240.0
64.082558 144.0
64.125587 40.0
64.136749 288.0
64.171822 136.0
64.715073 172.0
65.030891 220.0
65.164177 68.0
65.435997 160.0
65.83429 44.0
65.863358 220.0
65.906982 152.0
66.029839 180.0
66.21759 192.0
66.284012 124.0
66.564644 168.0
66.689743 124.0
66.940292 180.0
67.276176 232.0
67.678383 152.0
67.799606 108.0
67.919296 200.0
67.991493 56.0
68.132713 152.0
68.213234 220.0
68.631424 44.0
68.664406 172.0
68.730392 156.0
69.102165 148.0
69.26606 184.0
69.772217 120.0
70.01683 160.0
70.574203 192.0
70.590919 32.0
70.622704 152.0
70.98278 124.0
71.278221 128.0
71.570915 196.0
71.977295 92.0
72.24604 164.0
72.279877 132.0
72.291397 152.0
72.322189 56.0
72.439026 136.0
72.632278 208.0
72.735786 104.0
72.871651 192.0
73.002541 136.0
73.041656 100.0
73.131844 160.0
73.488014 96.0
73.557991 160.0
73.758896 164.0
73.983665 192.0
73.99736 152.0
74.931702 192.0
74.952377 256.0
74.978226 172.0
75.338867 144.0
75.449471 140.0
75.52729 224.0
75.620728 160.0
75.851105 200.0
76.010666 112.0
76.168663 196.0
76.366821 208.0
76.694168 108.0
76.730774 180.0
76.901733 128.0
76.983788 112.0
77.001251 112.0
77.113075 232.0
77.186501 140.0
77.33696 156.0
77.445518 240.0
77.708481 100.0
77.731293 204.0
77.81028 140.0
78.026382 128.0
78.050995 180.0
78.362549 172.0
78.844292 156.0
78.991051 104.0
79.012283 148.0
79.276115 100.0
79.613182 184.0
79.686012 132.0
80.057785 152.0
80.175369 152.0
80.625114 224.0
80.712708 156.0
80.821899 188.0
80.9328 196.0
80.956078 112.0
80.96862 40.0
81.352341 192.0
81.465485 128.0
81.490631 100.0
81.929634 116.0
81.967468 156.0
82.429428 184.0
82.56321 136.0
82.713387 164.0
82.738731 224.0
82.76046 68.0
83.065498 116.0
83.126625 212.0
83.379059 164.0
83.57 168.0
83.590012 172.0
83.735657 132.0
83.810349 160.0
84.054695 224.0
84.350571 180.0
84.87236 96.0
85.577942 188.0
85.856201 100.0
86.293846 140.0
86.436272 64.0
86.506607 216.0
86.617714 52.0
86.727043 248.0
86.741867 180.0
86.810471 140.0
87.246819 168.0
87.265411 120.0
87.300743 224.0
87.334221 132.0
87.378868 220.0
87.477501 168.0
87.624634 196.0
87.766762 188.0
87.908203 152.0
87.967789 68.0
88.162041 196.0
88.435104 260.0
88.470673 204.0
88.502502 176.0
88.605515 156.0
88.723587 152.0
89.018173 172.0
89.14592 168.0
89.221107 192.0
89.819962 116.0
90.142815 184.0
90.687881 272.0
90.7201 188.0
90.887009 120.0
90.902191 184.0
91.025581 156.0
91.284019 140.0
91.401962 96.0
91.784843 184.0
91.937454 76.0
92.113113 112.0
92.463028 84.0
92.781006 136.0
92.980499 172.0
93.020813 136.0
93.136024 120.0
93.182129 208.0
93.234016 136.0
93.360901 160.0
93.478249 196.0
93.49942 216.0
93.717026 156.0
93.954178 132.0
94.021713 240.0
94.039085 144.0
94.203217 140.0
94.853424 140.0
94.892197 152.0
95.09977 208.0
95.385315 148.0
95.420303 68.0
95.527267 216.0
95.694641 76.0
95.723854 176.0
95.858269 236.0
95.87191 120.0
95.887497 84.0
95.955727 232.0
95.984978 116.0
96.021004 152.0
96.054771 19432.0
96.123474 164.0
96.160553 52.0
96.246452 116.0
96.277702 68.0
96.320198 232.0
96.418365 44.0
96.551308 28.0
96.592247 116.0
96.635429 36.0
96.764603 32.0
96.805725 68.0
96.82531 36.0
96.874275 28.0
96.987938 220.0
97.058876 1716.0
97.125198 100.0
97.195824 48.0
97.276291 28.0
97.362686 184.0
97.390182 60.0
97.460747 236.0
97.518906 116.0
97.580452 184.0
97.712585 84.0
97.832642 148.0
97.87989 148.0
98.059975 156.0
98.067451 196.0
98.098595 88.0
98.706711 120.0
98.948105 144.0
99.0709 140.0
99.128357 172.0
99.409958 156.0
99.544945 244.0
99.713814 192.0
99.845032 36.0
100.510406 124.0
100.755997 80.0
100.843925 192.0
100.873909 128.0
100.997887 108.0
101.077911 200.0
101.151459 204.0
101.382309 140.0
101.420387 124.0
101.524643 144.0
101.576797 124.0
101.659058 68.0
101.949219 124.0
103.046455 184.0
103.149521 88.0
103.446892 176.0
103.527885 136.0
103.689964 116.0
103.766991 180.0
103.982025 176.0
104.573479 172.0
104.654907 116.0
105.888367 156.0
105.960068 100.0
106.404099 168.0
107.028534 184.0
107.054901 184.0
107.166138 72.0
107.634377 60.0
107.847168 220.0
107.927795 164.0
108.0513 404.0
108.29203 184.0
108.687996 180.0
109.03688 160.0
109.059746 204.0
109.130432 164.0
109.871902 180.0
110.020073 184.0
110.055573 92.0
110.122398 164.0
110.147461 144.0
110.195511 232.0
110.546806 96.0
110.597038 48.0
110.676598 144.0
110.789696 136.0
110.901283 112.0
111.065506 504.0
111.49263 212.0
111.688171 64.0
111.755493 168.0
111.881775 48.0
112.062904 172.0
112.105049 240.0
112.355965 116.0
112.387611 160.0
112.448814 164.0
112.681107 140.0
112.761406 160.0
113.08078 212.0
113.095596 148.0
113.328552 124.0
113.458481 184.0
114.077744 224.0
114.352142 128.0
114.597046 124.0
114.733452 184.0
115.450905 156.0
116.864555 144.0
117.211227 148.0
117.29097 204.0
117.99691 128.0
118.492546 228.0
118.629082 116.0
119.573967 172.0
119.857079 228.0
120.000938 80.0
120.336945 164.0
120.594727 144.0
120.870285 152.0
120.948135 196.0
121.047523 116.0
121.253532 160.0
121.54081 132.0
122.0532 152.0
122.153793 152.0
122.31443 168.0
122.666885 152.0
122.794777 148.0
122.878601 212.0
123.065872 324.0
123.592285 128.0
124.059868 332.0
124.157181 184.0
124.501175 148.0
124.543373 168.0
125.081856 636.0
125.13047 108.0
125.199501 28.0
125.373268 140.0
125.411156 92.0
125.442368 260.0
125.585075 48.0
125.649773 104.0
125.810463 176.0
125.935509 200.0
126.076271 96.0
126.11203 56.0
126.340118 232.0
126.37368 156.0
126.577377 128.0
126.727455 192.0
126.801407 152.0
126.971802 44.0
127.09668 15936.0
127.171486 48.0
127.317421 88.0
127.3797 88.0
127.483665 44.0
127.512886 56.0
127.535362 200.0
127.670265 80.0
127.688255 72.0
127.766983 44.0
127.782738 140.0
127.897507 36.0
127.913261 52.0
127.980804 52.0
128.098389 924.0
128.142975 44.0
128.253403 120.0
128.284958 128.0
128.505981 60.0
128.87854 160.0
128.894363 120.0
128.953125 144.0
129.109116 80.0
129.242584 188.0
129.419144 52.0
129.736343 52.0
130.003998 128.0
130.333267 216.0
131.166245 136.0
131.40799 136.0
132.30162 204.0
132.50705 120.0
133.389008 120.0
133.628189 204.0
133.865265 200.0
134.150986 196.0
134.732544 88.0
134.945175 208.0
135.067749 160.0
135.090881 172.0
135.354736 148.0
135.530777 168.0
136.122299 112.0
136.917648 136.0
137.076065 176.0
137.143646 148.0
137.323181 128.0
137.621902 156.0
137.715317 252.0
137.960678 192.0
138.076157 732.0
138.100983 200.0
138.416931 160.0
138.956039 148.0
139.086395 808.0
139.113373 196.0
139.251816 76.0
139.294098 208.0
139.388077 116.0
139.712555 240.0
140.063309 172.0
140.09343 128.0
140.43103 116.0
140.905518 128.0
141.617569 124.0
142.046616 144.0
142.293427 164.0
143.06134 120.0
143.082764 132.0
143.473495 204.0
144.431091 216.0
144.524399 84.0
144.807434 212.0
144.917084 164.0
145.072861 124.0
145.538315 96.0
146.196991 132.0
146.305298 84.0
147.787231 128.0
147.905823 196.0
147.963913 152.0
148.632889 152.0
149.096725 156.0
149.15506 72.0
149.588058 196.0
149.683014 160.0
149.773132 252.0
150.016815 148.0
150.416885 152.0
151.840942 168.0
151.909637 200.0
152.091995 6216.0
152.147675 192.0
152.211517 40.0
152.730087 48.0
152.850647 128.0
152.892487 136.0
152.951553 60.0
152.983551 68.0
153.097961 680.0
153.725464 112.0
153.973358 132.0
154.107666 1528.0
154.204575 108.0
154.766144 76.0
155.105988 256.0
155.475998 60.0
155.514847 128.0
156.053925 188.0
156.237976 220.0
156.780792 232.0
156.958191 152.0
157.234711 140.0
157.897598 184.0
158.655502 248.0
159.57692 152.0
159.916534 116.0
160.146255 172.0
160.301865 48.0
160.89209 164.0
161.169922 156.0
163.520813 96.0
163.69902 232.0
164.009842 132.0
164.402634 140.0
164.972229 216.0
165.105194 180.0
166.060516 180.0
166.108109 1128.0
166.555908 128.0
166.756653 188.0
166.956863 240.0
167.064896 144.0
167.099854 2092.0
167.208984 72.0
167.245026 48.0
167.299088 56.0
167.497375 60.0
167.608154 76.0
167.7164 84.0
168.005219 116.0
168.09259 224.0
168.118607 240.0
168.83696 128.0
169.691498 212.0
171.074936 176.0
171.097076 200.0
171.407043 124.0
171.534744 152.0
172.069565 200.0
172.231476 172.0
172.403915 280.0
173.167877 188.0
173.235977 184.0
173.52951 80.0
174.125198 204.0
174.466797 196.0
174.661392 100.0
174.764008 52.0
174.990356 72.0
175.377625 276.0
175.517349 184.0
175.98703 56.0
176.936218 148.0
177.423706 200.0
177.455521 36.0
177.781784 168.0
178.737167 132.0
179.039276 116.0
179.281708 200.0
179.911209 280.0
180.343964 84.0
180.927216 124.0
181.079758 188.0
181.118469 1248.0
182.120956 372.0
182.38916 132.0
182.862564 76.0
182.900238 132.0
182.940628 52.0
183.223404 140.0
183.69519 272.0
184.113266 372.0
184.475632 156.0
184.989624 148.0
185.085831 128.0
185.125 220.0
185.519302 52.0
185.713135 92.0
186.522308 80.0
186.546768 52.0
186.807831 156.0
187.126251 108.0
188.236038 88.0
188.479156 176.0
189.020584 140.0
189.584717 168.0
189.639526 172.0
190.212814 180.0
190.413269 104.0
190.437988 132.0
191.546509 172.0
191.634674 120.0
192.360001 132.0
192.597473 64.0
193.817551 112.0
195.132767 2192.0
195.263901 208.0
195.319534 52.0
195.391861 44.0
195.645126 156.0
195.742584 96.0
195.834488 40.0
196.079666 144.0
196.131378 316.0
196.168869 136.0
196.227417 196.0
196.316635 56.0
196.492371 184.0
196.517487 96.0
196.553757 164.0
196.603989 196.0
196.629105 144.0
196.757523 220.0
196.858032 132.0
196.93222 248.0
196.959198 36.0
197.001648 168.0
197.057098 76.0
197.066422 160.0
197.149704 51656.0
197.221375 176.0
197.297287 176.0
197.336517 68.0
197.383713 36.0
197.435379 92.0
197.468414 60.0
197.49527 88.0
197.540024 48.0
197.571381 116.0
197.606384 100.0
197.624817 176.0
197.65448 180.0
197.719101 80.0
197.746918 128.0
197.750824 120.0
197.822662 76.0
197.866211 80.0
197.912262 48.0
197.940994 304.0
198.112839 156.0
198.151169 4092.0
198.186768 52.0
198.258408 52.0
198.290726 40.0
198.374542 60.0
198.446381 64.0
198.49791 40.0
198.523148 52.0
198.663391 28.0
198.685837 44.0
198.719498 64.0
198.807709 92.0
199.002991 136.0
199.046036 144.0
199.098465 144.0
199.148605 912.0
199.297913 56.0
199.331635 64.0
199.359741 88.0
199.400772 120.0
199.456406 128.0
199.494644 116.0
199.548065 120.0
199.567749 32.0
199.602493 136.0
199.675613 148.0
199.730865 88.0
199.840591 96.0
199.884079 96.0
199.930634 92.0
200.093903 52.0
200.454437 88.0
200.592545 68.0
200.775818 60.0
201.052307 108.0
201.153915 92.0
201.518234 60.0
201.665192 72.0
201.778259 40.0
202.400742 72.0
202.800201 100.0
203.313568 112.0
203.611664 28.0
204.10614 64.0
205.790146 88.0
206.061478 96.0
206.681946 64.0
207.667465 52.0
208.505829 72.0
210.372375 104.0
211.505554 68.0
213.469757 80.0
214.124573 172.0
215.037155 64.0
218.595062 52.0
240.537018 76.0
249.669846 88.0
254.682693 40.0
309.859467 92.0
358.006042 80.0
389.234955 96.0
404.72818 60.0
409.249451 80.0
414.630341 60.0
436.34726 80.0
458.243469 68.0
475.071594 68.0
488.140289 76.0
491.338074 88.0
541.729492 40.0
548.859192 60.0
589.326111 84.0
592.490417 92.0
620.40271 44.0
645.41803 204.0
653.879944 156.0
732.549255 208.0
761.631592 116.0
789.444702 160.0
816.499146 148.0
827.003174 92.0
836.134888 180.0
851.223877 184.0
864.468628 180.0
877.815674 156.0
882.196777 116.0
882.279541 156.0
885.474915 188.0
886.5354 164.0
892.596436 148.0
897.16925 188.0
897.246704 48.0
901.490723 220.0
903.272461 184.0
907.320801 196.0
909.042297 136.0
911.828918 184.0
914.90271 32.0
920.540405 72.0
936.783569 124.0
938.849854 212.0
943.698425 136.0
946.298828 100.0
947.388977 136.0
963.699402 184.0
969.541077 200.0
972.629883 156.0
974.406006 172.0
975.431458 192.0
976.86792 200.0
978.08136 196.0
982.626038 192.0
986.059021 184.0
988.028809 196.0
989.549683 112.0
989.969238 184.0
992.695251 156.0
993.905945 64.0
1000.429993 156.0
1006.406982 156.0
1006.451172 160.0
1010.021973 132.0
1010.762207 176.0
1011.040649 204.0
1012.515808 72.0
1014.448425 136.0
1018.122253 48.0
1018.223877 168.0
1018.585938 108.0
1020.428955 116.0
1021.942749 148.0
1025.706543 220.0
1028.060181 48.0
1028.411133 172.0
1029.432739 140.0
1029.943604 140.0
1034.515869 136.0
1039.521729 184.0
1040.285522 176.0
1040.93396 52.0
1040.991821 196.0
1041.197266 184.0
1042.22522 220.0
1042.867798 156.0
1044.140869 216.0
1044.320923 228.0
1045.343994 132.0
1046.154907 168.0
1052.111816 148.0
1052.447632 184.0
1054.262817 204.0
1057.58728 108.0
1058.869263 112.0
1059.186646 144.0
1062.129517 84.0
1063.388306 200.0
1064.933594 264.0
1064.998535 212.0
1070.468262 40.0
1070.930664 168.0
1071.536499 200.0
1073.518066 228.0
1085.629639 164.0
1096.154541 40.0
1098.383057 176.0
1098.567749 160.0
1100.125122 168.0
1100.858032 84.0
1103.203735 108.0
1104.546143 212.0
1105.584961 232.0
1105.942383 180.0
1107.836182 84.0
1108.803711 176.0
1110.600464 52.0
1111.297852 168.0
1111.768188 196.0
1113.321655 192.0
1113.726807 216.0
1114.995972 112.0
1115.354858 140.0
1116.485107 164.0
1116.957397 84.0
1117.42981 208.0
1118.91394 184.0
1119.81958 156.0
1121.671997 164.0
1123.71936 88.0
1125.54834 128.0
1127.13147 140.0
1131.037231 192.0
1135.18457 92.0
1137.633545 104.0
1138.81543 40.0
1139.964233 216.0
1142.47229 64.0
1142.660645 188.0
1143.272949 140.0
1145.515137 132.0
1148.09668 144.0
1153.255005 196.0
1154.282593 208.0
1159.800415 200.0
1160.376709 172.0
1161.129395 152.0
1165.147949 164.0
1166.119751 164.0
1168.431763 216.0
1169.690796 128.0
1171.706543 144.0
1171.83606 264.0
1173.655884 188.0
1179.582031 176.0
1180.094849 148.0
1180.36145 180.0
1182.605469 88.0
1183.605103 160.0
1185.009277 112.0
1185.070923 208.0
1185.804199 124.0
1186.126343 92.0
1187.868042 200.0
1191.795166 140.0
1192.097534 104.0
1197.62915 172.0
1198.559204 152.0
1198.662598 196.0
1202.938843 188.0
1203.083862 40.0
1209.540527 188.0
1211.65271 164.0
1213.981689 72.0
1215.112427 236.0
1217.444702 212.0
1218.028198 204.0
1218.125366 164.0
1219.723633 196.0
1222.902466 76.0
1224.441162 144.0
1229.237671 188.0
1229.761108 164.0
1233.82666 56.0
1234.162354 136.0
1235.687134 144.0
1235.938965 116.0
1236.358887 208.0
1237.682007 44.0
1237.765991 204.0
1241.436768 116.0
1243.037476 44.0
1243.781494 196.0
1249.368164 228.0
1249.727051 168.0
1249.966309 204.0
1253.325195 176.0
1257.31665 180.0
1259.787964 188.0
1262.912476 184.0
1263.789673 200.0
1264.009033 140.0
1266.954468 192.0
1268.300903 144.0
1270.57019 148.0
1276.302124 104.0
1277.1698 104.0
1279.119507 152.0
1279.560913 152.0
1282.232178 184.0
1285.969604 188.0
1287.731079 204.0
1288.526123 156.0
1289.312134 36.0
1291.299683 124.0
1294.677856 248.0
1297.257324 156.0
1298.203857 204.0
1298.978394 188.0
1299.875244 192.0
1300.657593 172.0
1301.490356 188.0
1301.626831 160.0
1302.273193 132.0
1303.588013 208.0
1303.968872 244.0
1305.08313 196.0
1308.824829 152.0
1311.634644 192.0
1313.790894 120.0
1315.400146 40.0
1315.486816 128.0
1315.811646 140.0
1317.133179 216.0
1317.198242 184.0
1317.328247 200.0
1319.113159 160.0
1319.655396 188.0
1329.303955 60.0
1329.40564 244.0
1334.708618 176.0
1334.926758 128.0
1338.980347 188.0
1339.257202 116.0
1340.896606 204.0
1341.516113 192.0
1342.945435 196.0
1346.127441 136.0
1348.487183 152.0
1350.702759 180.0
1352.371094 168.0
1354.567871 128.0
1355.088013 224.0
1361.212891 144.0
1362.094238 204.0
1362.623169 176.0
1366.52002 60.0
1368.566162 48.0
1369.258423 228.0
1369.729858 160.0
1374.145874 220.0
1379.160278 248.0
1379.411499 140.0
1387.584717 256.0
1387.784912 192.0
1387.844238 176.0
1390.047363 220.0
1392.764771 76.0
1394.020386 156.0
1395.261719 128.0
1397.143311 232.0
1398.207397 184.0
1399.994141 116.0
1401.588379 192.0
1402.147217 56.0
1403.929077 180.0
1404.555542 260.0
1406.11499 168.0
1407.10791 172.0
1408.848022 164.0
1413.161987 148.0
1413.37146 196.0
1416.740723 156.0
1416.965576 156.0
1417.460083 156.0
1417.54248 172.0
1418.0896 136.0
1418.202026 172.0
1419.176636 208.0
1420.076538 184.0
1422.327637 64.0
1426.00061 140.0
1428.278931 120.0
1429.362305 124.0
1429.415039 52.0
1431.123657 148.0
1431.191528 200.0
1432.034912 164.0
1432.562256 120.0
1432.788208 316.0
1433.699951 180.0
1434.401001 48.0
1435.064453 40.0
1436.972656 180.0
1437.817871 88.0
1441.367188 220.0
1441.571289 164.0
1443.42334 72.0
1446.979614 164.0
1447.509644 152.0
1449.024536 184.0
1449.168579 120.0
1450.449341 160.0
1450.964844 76.0
1453.983887 68.0
1454.302734 180.0
1456.77063 112.0
1457.507568 96.0
1457.758423 104.0
1459.727295 52.0
1461.552979 140.0
1461.872559 212.0
1464.857178 104.0
1464.986694 164.0
1465.61145 172.0
1465.931519 164.0
1466.083984 148.0
1467.501831 152.0
1467.762939 212.0
1468.706787 200.0
1469.820679 168.0
1472.515503 252.0
1473.516235 96.0
1473.783691 192.0
1475.197632 160.0
1476.313965 172.0
1476.627563 144.0
1477.537842 100.0
1478.670288 72.0
1479.964111 156.0
1481.817749 200.0
1483.833496 200.0
1484.009766 168.0
1485.605103 188.0
1489.274414 40.0
1490.480591 140.0
1491.072266 316.0
1491.887085 244.0
1492.563721 228.0
1493.394287 192.0
1493.455811 44.0
1494.671387 40.0
1494.87915 124.0
1495.456299 148.0
1496.14917 164.0
1496.210815 172.0
1496.911499 92.0
1498.413452 100.0
1498.683105 156.0
1499.014526 160.0
1499.153198 52.0
1500.201538 180.0
1502.005981 176.0
1502.144775 184.0
1502.785156 244.0
1503.942749 148.0
1504.645264 92.0
1504.768799 92.0
