>compound Malotilate
>formula C12H16O4S2
>ionization [M+Na]+
>parentmass 311.039368
#inchi InChI=1S/C12H16O4S2/c1-7(2)15-10(13)9(11(14)16-8(3)4)12-17-5-6-18-12/h5-8H,1-4H3
#inchikey YPIQVCUJEKAZCP
#Ion_Source LC-ESI
#Instrument qTof
#Compound_Source Commercial
#PI Dorrestein
#Data_Collector Garg_Neha
#Scan -1
#Precursor_MZ 311.038
#ExactMass 288.049
#Charge 1
#CAS_Number 59937-28-9
#Pubmed_ID N/A
#Smiles C(C(C(=O)OC(C)C)=C1SC=CS1)(=O)OC(C)C
#INCHI_AUX N/A
#Library_Class 1
#SpectrumID CCMSLIB00000078021
#IonMode Positive
#UpdateWorkflowName UPDATE-SINGLE-ANNOTATED-GOLD
#LibraryQualityString Gold
#TaskID 77f51c88eb8b467eb4a01dd2d0cb90d2
##Scan# 2270
#SpectrumFile Plate1_21_40_GG2_01_16489.mzXML
#LibraryName FDALibrary_2_04302014.mgf
#MQScore -1
#Organism FDALibrary_2_04302014
#TIC_Query 0
#RT_Query -1
#MZErrorPPM -1
#SharedPeaks 0
#MassDiff 0
#LibMZ -1
#SpecMZ 311.038
#SpecCharge 0
#internalFilename spec-00000.mgf

>collision 10
46.770901 176.0
47.30875 180.0
47.459461 144.0
47.506096 144.0
48.414452 180.0
50.33884 212.0
50.440567 160.0
50.526833 244.0
51.161228 144.0
51.252384 140.0
51.895607 160.0
51.928589 156.0
52.807194 188.0
53.046116 168.0
53.414963 160.0
57.131603 184.0
57.179756 156.0
57.194809 292.0
57.70472 184.0
57.952946 156.0
58.213856 140.0
58.688629 144.0
58.786255 156.0
60.585308 140.0
60.596153 148.0
61.477833 168.0
61.591808 152.0
61.679317 144.0
62.266895 192.0
62.675919 160.0
63.363239 144.0
63.418705 184.0
63.548744 140.0
63.726578 144.0
64.207329 144.0
64.712296 140.0
65.600754 144.0
66.232597 208.0
67.09063 156.0
67.121605 160.0
68.511536 160.0
68.750626 196.0
68.773735 168.0
68.919067 160.0
69.604836 168.0
69.722786 148.0
70.365784 188.0
70.430916 160.0
70.807251 160.0
70.926216 240.0
71.771873 180.0
72.183899 168.0
72.754906 172.0
72.84491 204.0
73.456047 180.0
74.014923 168.0
74.302879 244.0
76.176056 184.0
76.464706 172.0
76.525635 164.0
77.687881 160.0
78.721085 160.0
79.102997 180.0
81.055069 228.0
81.47493 164.0
83.206955 176.0
83.973068 192.0
84.124519 144.0
89.513237 180.0
90.026176 144.0
91.134346 208.0
91.223671 200.0
91.402458 244.0
93.036667 144.0
94.056953 228.0
94.4086 268.0
94.720222 148.0
95.702942 172.0
97.56559 224.0
97.659981 160.0
97.984802 328.0
99.539505 196.0
100.790489 156.0
101.424919 156.0
101.581329 220.0
101.765968 156.0
102.707825 180.0
102.977852 144.0
103.184425 196.0
103.437302 212.0
103.741173 160.0
103.884567 192.0
104.712463 204.0
104.865273 164.0
105.038597 148.0
105.081436 216.0
106.596695 212.0
107.457405 224.0
109.359818 144.0
110.371651 188.0
110.476227 188.0
111.709763 148.0
112.149864 184.0
112.257393 180.0
112.869789 220.0
114.203773 244.0
114.985733 196.0
115.032692 164.0
116.216232 168.0
116.295631 148.0
117.315269 140.0
118.896461 180.0
118.911652 192.0
119.193977 188.0
120.07785 172.0
120.838058 148.0
121.164284 160.0
121.363739 180.0
121.591881 164.0
121.974075 152.0
123.066818 144.0
125.643692 160.0
127.17659 292.0
128.960526 272.0
129.001221 148.0
130.111313 196.0
130.536209 148.0
130.816071 200.0
131.447418 172.0
132.813278 148.0
132.856873 184.0
132.964722 172.0
133.104752 176.0
133.125427 192.0
133.325287 164.0
134.017944 224.0
134.437637 232.0
134.751678 176.0
135.849075 220.0
135.948853 168.0
136.146179 184.0
136.464539 232.0
138.410568 160.0
139.748886 156.0
139.835587 224.0
140.153519 220.0
140.252502 160.0
140.776871 176.0
140.972351 168.0
141.170929 172.0
142.393845 204.0
142.55777 168.0
142.9216 156.0
143.493256 228.0
144.001358 160.0
144.558594 176.0
144.620819 184.0
144.831528 172.0
145.459793 160.0
145.601456 216.0
145.906631 208.0
146.809601 180.0
147.478104 204.0
147.770996 176.0
148.044525 140.0
148.344986 148.0
149.000244 216.0
149.102295 196.0
149.561996 156.0
149.793335 156.0
150.127258 144.0
150.427368 140.0
150.791321 168.0
152.033035 180.0
153.691635 172.0
154.887344 144.0
155.436157 188.0
156.457718 176.0
156.485107 180.0
156.502533 148.0
156.736679 212.0
157.120667 260.0
157.49762 172.0
158.774109 164.0
158.968491 156.0
160.703568 176.0
162.081635 152.0
162.185547 180.0
163.117142 152.0
163.801666 172.0
164.449341 172.0
164.807068 108.0
164.880981 152.0
164.944504 39584.0
165.112366 96.0
165.654556 176.0
165.946442 3044.0
166.265518 120.0
166.941635 3320.0
167.102982 144.0
167.350372 228.0
167.629562 152.0
167.799683 160.0
167.941528 280.0
169.82341 192.0
169.915344 224.0
169.943893 148.0
170.203461 152.0
171.116119 184.0
171.968567 140.0
172.449158 144.0
173.742767 168.0
173.873978 164.0
174.457108 144.0
175.11496 168.0
175.942978 180.0
177.888794 240.0
178.916275 196.0
179.645187 164.0
182.954453 1204.0
183.958984 240.0
184.950836 220.0
185.963623 164.0
187.097183 160.0
187.672073 172.0
188.490967 148.0
189.484222 164.0
191.016113 176.0
192.024261 144.0
193.79628 144.0
194.300903 156.0
194.320328 140.0
195.515213 188.0
196.521194 148.0
196.722137 172.0
197.110367 156.0
197.817993 188.0
198.493225 140.0
198.964615 164.0
198.993454 160.0
199.492767 164.0
204.747406 152.0
204.82431 216.0
205.893906 148.0
206.983475 152.0
207.009247 224.0
208.933411 5700.0
209.660889 180.0
209.936584 288.0
210.468628 176.0
210.927368 372.0
212.051086 176.0
213.793671 144.0
213.997437 228.0
214.591827 172.0
214.650146 196.0
214.804718 176.0
217.015747 140.0
218.175461 148.0
218.710861 168.0
220.049271 168.0
220.79985 152.0
220.927048 172.0
222.112 172.0
225.0047 300.0
225.237579 204.0
225.386948 156.0
225.990967 144.0
226.945099 2580.0
227.411453 212.0
227.465485 144.0
227.501511 156.0
227.942627 324.0
228.857468 144.0
228.939941 504.0
229.828064 156.0
229.988007 164.0
230.141983 200.0
231.275681 168.0
233.691376 140.0
234.492279 204.0
234.583725 176.0
234.977249 124.0
235.930038 160.0
236.141022 140.0
237.307785 140.0
238.480499 160.0
240.599884 208.0
242.121246 148.0
242.300903 196.0
243.46579 172.0
244.262939 220.0
244.502518 152.0
244.798279 140.0
245.861359 164.0
246.014297 148.0
246.934341 172.0
247.49942 192.0
249.601822 148.0
249.683594 240.0
251.258606 144.0
252.873383 180.0
253.709656 140.0
254.106094 184.0
254.973007 228.0
255.516769 148.0
256.051544 200.0
256.526337 152.0
257.170685 144.0
258.346619 208.0
260.404572 156.0
261.230682 188.0
262.096771 200.0
262.125763 152.0
262.554535 168.0
264.162048 224.0
265.834961 200.0
266.123871 176.0
266.980316 140.0
267.274536 172.0
267.713989 144.0
267.766113 188.0
267.821472 200.0
267.98764 156.0
268.036926 160.0
268.175354 176.0
268.365723 240.0
268.991272 17040.0
269.06723 140.0
269.307495 132.0
269.63327 112.0
269.992462 1568.0
270.090088 236.0
270.987488 1548.0
271.173889 144.0
271.989319 208.0
272.88092 232.0
273.746338 164.0
275.184021 140.0
275.646484 140.0
276.956635 148.0
277.516693 188.0
279.083923 228.0
279.62619 156.0
280.125641 184.0
280.305573 200.0
281.760345 192.0
282.151398 144.0
282.442322 144.0
282.827148 176.0
282.99118 180.0
285.265869 168.0
285.46759 168.0
285.692963 156.0
287.002808 216.0
287.178497 148.0
287.455139 160.0
287.883881 164.0
287.998352 216.0
289.000305 340.0
289.710388 144.0
290.832855 220.0
292.035675 192.0
293.593048 188.0
293.817322 156.0
296.457062 152.0
297.943298 164.0
298.100861 156.0
298.864258 212.0
300.338776 180.0
302.162811 144.0
304.349915 144.0
304.538788 104.0
305.576874 164.0
305.844849 160.0
306.478668 164.0
306.994598 140.0
308.364929 176.0
308.597534 96.0
308.712799 148.0
309.048615 208.0
309.132904 168.0
309.168915 192.0
309.198883 136.0
309.516144 204.0
309.656219 120.0
309.769836 148.0
309.94278 120.0
310.102722 104.0
310.129608 132.0
310.292023 196.0
310.316559 176.0
310.409393 152.0
310.528778 100.0
310.622314 128.0
310.733215 136.0
310.783875 220.0
310.842285 168.0
310.902008 152.0
310.93396 220.0
310.989349 268.0
311.039368 108356.0
311.11377 172.0
311.212524 156.0
311.254425 124.0
311.351898 140.0
311.447266 204.0
311.502106 168.0
311.618347 504.0
311.834656 176.0
311.881256 208.0
311.94101 260.0
311.984222 140.0
312.041412 15248.0
312.153259 200.0
312.34726 212.0
312.441162 128.0
312.652557 148.0
312.749603 184.0
313.034668 10476.0
313.311462 164.0
313.625458 124.0
313.702209 172.0
313.829498 152.0
313.872833 132.0
313.975403 176.0
314.035492 1052.0
314.154449 120.0
314.331726 148.0
314.425323 100.0
315.402527 140.0
328.289886 156.0
329.045502 372.0
331.0495 136.0
352.052246 148.0
433.634308 160.0
456.517273 156.0
629.710632 168.0
1350.157227 160.0
1467.985107 220.0
1563.975586 152.0
1758.801392 164.0
1785.403687 160.0
1830.826172 160.0
1912.442139 148.0
1926.360474 176.0
1971.47998 224.0
1989.505371 152.0
1990.67749 164.0
