>compound MLS001140980-01!4-[[2-(2-oxo-4-propylchromen-7-yl)oxypropanoylamino]methyl]cyclohexane-1-carboxylic acid
>formula C23H29NO6
>ionization [M+H]+
>parentmass 416.207
#inchi InChI=1S/C23H29NO6/c1-3-4-17-11-21(25)30-20-12-18(9-10-19(17)20)29-14(2)22(26)24-13-15-5-7-16(8-6-15)23(27)28/h9-12,14-16H,3-8,13H2,1-2H3,(H,24,26)(H,27,28)/t14?,15-,16-
#inchikey CKVHTTDFJBGBCN
#Ion_Source LC-ESI
#Instrument qTof
#Compound_Source NIH Natural Product Library
#PI Dorrestein
#Data_Collector VVP/LMS
#Scan -1
#Precursor_MZ 416.207
#ExactMass 415.199
#Charge 1
#CAS_Number N/A
#Pubmed_ID N/A
#Smiles CCCc1cc(=O)oc2cc(OC(C)C(=O)NC[C@H]3CC[C@@H](CC3)C(=O)O)ccc12
#INCHI_AUX N/A
#Library_Class 1
#SpectrumID CCMSLIB00000080496
#IonMode Positive
#UpdateWorkflowName UPDATE-SINGLE-ANNOTATED-GOLD
#LibraryQualityString Gold
#TaskID b1d8e8f6646f4e71acdff9ca3d919d08
##Scan# 1960
#SpectrumFile p2-G09_GG9_01_18057.mzXML
#LibraryName NIH_Natural_Products_Library.mgf
#MQScore -1
#Organism NIH_Natural_Products_Library
#TIC_Query 0
#RT_Query -1
#MZErrorPPM -1
#SharedPeaks 0
#MassDiff 0
#LibMZ -1
#SpecMZ 416.207
#SpecCharge 0
#internalFilename spec-00000.mgf

>collision 10
95.014343 368.0
95.047905 188.0
95.085175 6872.0
95.123711 136.0
95.195145 48.0
95.212624 152.0
95.239815 104.0
95.377777 116.0
95.441933 184.0
95.552803 256.0
95.689041 216.0
96.06517 200.0
96.088097 1036.0
96.112 140.0
96.147125 156.0
96.164688 144.0
96.19397 196.0
96.2584 204.0
96.395142 332.0
96.43618 152.0
96.499596 164.0
96.530022 140.0
96.667839 156.0
96.702187 168.0
96.778534 120.0
96.818481 60.0
96.876457 104.0
96.964638 100.0
97.084122 152.0
97.160728 228.0
97.174461 180.0
97.268661 216.0
97.331482 180.0
97.360939 164.0
97.404152 68.0
97.561363 140.0
97.592819 224.0
97.651817 152.0
97.830879 196.0
98.05938 136.0
98.163864 172.0
98.301956 112.0
98.38485 52.0
98.712845 204.0
98.726685 48.0
98.746468 68.0
98.764267 168.0
98.793938 152.0
98.88298 208.0
99.069115 160.0
99.092888 68.0
99.15432 184.0
99.291115 196.0
99.406181 160.0
99.428009 308.0
99.469696 168.0
99.483589 156.0
99.642471 184.0
99.65638 208.0
99.729904 80.0
99.78756 156.0
99.827324 72.0
99.881027 120.0
99.960609 108.0
100.070084 160.0
100.086014 132.0
100.101944 264.0
100.213493 232.0
100.31115 208.0
100.456718 84.0
100.473969 136.0
100.490639 108.0
100.526558 212.0
100.572456 136.0
100.736198 232.0
101.010063 176.0
101.06208 60.0
101.340393 132.0
101.384483 176.0
101.613075 80.0
101.64518 100.0
101.697357 132.0
101.827866 180.0
101.906212 204.0
101.958458 124.0
101.995003 44.0
102.019455 228.0
102.046906 184.0
102.179649 164.0
102.327385 228.0
102.363876 160.0
102.384972 128.0
102.8265 140.0
102.993736 208.0
103.053726 180.0
103.216393 96.0
103.256844 144.0
103.329666 64.0
103.451088 164.0
103.648697 220.0
103.677299 216.0
103.708351 120.0
103.771194 108.0
103.957809 160.0
104.010582 172.0
104.057274 96.0
104.101944 156.0
104.193352 100.0
104.395287 236.0
104.520699 104.0
104.777245 160.0
104.977005 44.0
105.067909 768.0
105.109596 124.0
105.132042 28.0
105.176949 200.0
105.448601 180.0
105.540596 180.0
105.558998 64.0
105.748474 156.0
105.803421 152.0
105.841385 152.0
105.915115 140.0
105.94175 120.0
106.027809 88.0
106.113899 116.0
106.284142 212.0
106.46479 228.0
106.501762 220.0
106.830658 284.0
106.919136 272.0
107.003532 164.0
107.049225 1128.0
107.088936 152.0
107.184792 148.0
107.26078 188.0
107.372955 204.0
107.436333 152.0
107.487915 144.0
107.715019 144.0
107.73568 160.0
107.750137 132.0
107.831635 220.0
107.934097 152.0
108.057335 172.0
108.06485 372.0
108.092415 152.0
108.237816 168.0
108.345978 196.0
108.418503 200.0
108.522148 172.0
108.592659 208.0
108.696388 76.0
108.833443 140.0
109.003716 72.0
109.018265 160.0
109.034889 288.0
109.099808 436.0
109.153381 124.0
109.23658 156.0
109.315643 240.0
109.444702 164.0
109.553001 56.0
109.619675 152.0
109.636353 120.0
109.709305 236.0
109.90744 184.0
109.941872 136.0
110.056801 296.0
110.096062 644.0
110.546875 112.0
110.944839 140.0
111.063889 220.0
111.103035 1176.0
111.181862 208.0
111.440147 180.0
111.457504 124.0
111.534721 228.0
111.660873 64.0
111.738708 184.0
112.086128 52.0
112.111382 2608.0
112.149353 80.0
112.299057 48.0
112.431969 132.0
112.624107 260.0
112.767784 208.0
112.905205 88.0
112.922127 236.0
112.970779 232.0
113.017326 112.0
113.061768 184.0
113.114952 744.0
113.235374 140.0
113.309509 196.0
113.368843 120.0
113.474831 192.0
113.544807 72.0
113.631775 144.0
113.661484 120.0
113.712418 204.0
113.799454 172.0
113.907761 156.0
113.939629 76.0
114.007622 116.0
114.228752 248.0
114.358551 204.0
114.492683 92.0
114.61837 128.0
114.744125 64.0
114.805962 180.0
114.948891 80.0
115.054466 176.0
115.115395 200.0
115.17733 144.0
115.235016 152.0
115.290237 180.0
115.416695 128.0
115.457329 156.0
115.545029 196.0
115.570702 136.0
115.709824 224.0
115.84903 84.0
116.062401 164.0
116.134125 184.0
116.207069 164.0
116.481865 172.0
116.707527 56.0
116.756981 60.0
116.825813 156.0
116.843025 164.0
116.868843 92.0
117.069321 500.0
117.188065 172.0
117.444046 184.0
117.480721 108.0
117.513084 144.0
117.53466 80.0
117.554077 196.0
117.71167 240.0
117.821823 156.0
117.945 128.0
117.99472 120.0
118.033638 204.0
118.128807 124.0
118.176399 200.0
118.291107 88.0
118.349556 124.0
118.366882 84.0
118.410194 216.0
118.440521 144.0
118.652893 232.0
118.68692 208.0
118.802536 136.0
118.9132 76.0
119.049843 1108.0
119.084595 352.0
119.165421 192.0
119.22377 96.0
119.421616 164.0
119.493408 128.0
119.68277 156.0
119.731163 180.0
119.752457 152.0
119.774239 148.0
119.796021 156.0
120.0476 216.0
120.082123 188.0
120.114288 164.0
120.249573 60.0
120.277946 48.0
120.531288 152.0
120.574997 224.0
120.647125 108.0
120.664619 52.0
120.765213 132.0
120.815521 188.0
120.850525 112.0
121.027824 364.0
121.063377 540.0
121.099472 156.0
121.114059 180.0
121.134842 208.0
121.16581 176.0
121.19429 160.0
121.360878 44.0
121.376228 172.0
121.481499 64.0
121.518799 56.0
121.584633 48.0
121.686699 144.0
121.766853 148.0
121.793213 128.0
122.066139 188.0
122.097824 1092.0
122.175713 88.0
122.23732 228.0
122.270744 148.0
122.349571 140.0
122.373787 60.0
122.446457 200.0
122.538979 232.0
122.609489 40.0
122.64476 136.0
122.717506 132.0
122.74897 148.0
123.012154 144.0
123.044472 560.0
123.0783 484.0
123.091591 220.0
123.115128 208.0
123.242828 120.0
123.458832 252.0
123.516968 152.0
123.565636 176.0
123.758881 208.0
123.848991 140.0
124.044868 172.0
124.075859 472.0
124.095718 236.0
124.121025 204.0
124.327896 124.0
124.52327 144.0
124.721024 88.0
124.778824 80.0
124.796608 56.0
124.83886 148.0
124.863319 256.0
125.06134 140.0
125.082787 164.0
125.089165 104.0
125.095886 216.0
125.168205 188.0
125.656342 220.0
125.812569 156.0
125.839355 204.0
125.861687 160.0
125.962189 180.0
126.015488 140.0
126.058258 104.0
126.094017 128.0
126.187904 48.0
126.32209 88.0
126.375641 188.0
126.447395 128.0
126.485443 144.0
126.644424 212.0
126.899895 196.0
126.949226 164.0
127.029976 128.0
127.139053 176.0
127.218475 52.0
127.234192 140.0
127.396797 208.0
127.44532 176.0
127.483521 128.0
127.598152 188.0
128.060776 228.0
128.084244 108.0
128.192154 188.0
128.271271 152.0
128.423233 124.0
128.749619 112.0
128.993301 116.0
129.069458 608.0
129.120255 156.0
129.185852 188.0
129.255997 176.0
129.461624 200.0
129.600174 176.0
129.631897 136.0
129.681763 136.0
129.731628 96.0
129.88356 88.0
129.901703 112.0
130.067352 96.0
130.117294 168.0
130.292175 136.0
130.32399 136.0
130.358078 168.0
130.380798 184.0
130.544479 140.0
130.610443 116.0
131.022476 176.0
131.047073 256.0
131.084091 1944.0
131.14325 40.0
131.234436 56.0
131.273209 180.0
131.309692 140.0
131.330215 208.0
131.362152 168.0
131.663452 68.0
131.720551 180.0
132.029114 60.0
132.053146 300.0
132.087479 540.0
132.11145 184.0
132.161789 156.0
132.312851 156.0
132.335739 52.0
132.390701 128.0
132.452545 144.0
132.642731 192.0
132.66687 264.0
132.722977 180.0
132.788818 84.0
132.966141 164.0
133.035004 140.0
133.064636 1920.0
133.100906 464.0
133.156708 196.0
133.172775 196.0
133.218719 184.0
133.312927 180.0
133.32901 120.0
133.524429 108.0
133.618744 168.0
133.752853 176.0
134.023987 104.0
134.066452 196.0
134.090805 176.0
134.18071 188.0
134.229126 132.0
134.309845 196.0
134.401825 152.0
134.436752 168.0
134.57756 164.0
134.78775 204.0
134.898697 180.0
135.005051 136.0
135.046127 244.0
135.081131 1556.0
135.111221 140.0
135.275757 164.0
135.558548 168.0
135.655685 184.0
135.715454 200.0
135.74147 112.0
135.841202 192.0
135.940964 164.0
136.119705 152.0
136.211411 128.0
136.279984 60.0
136.312515 168.0
136.375259 88.0
136.410141 188.0
136.4543 188.0
136.542664 160.0
136.57756 192.0
136.626404 204.0
136.95723 72.0
137.021851 192.0
137.059036 312.0
137.076813 180.0
137.141037 144.0
137.691666 200.0
137.729034 132.0
137.754471 196.0
137.810806 40.0
137.890259 152.0
138.042221 140.0
138.089249 1644.0
138.126877 5132.0
138.229355 204.0
138.270172 64.0
138.291626 192.0
138.397903 172.0
138.498596 48.0
138.529053 136.0
138.631287 152.0
138.700745 196.0
138.805618 92.0
138.866592 176.0
138.892395 180.0
139.014389 252.0
139.05899 164.0
139.096176 232.0
139.129456 436.0
139.178711 164.0
139.244461 32.0
139.507645 96.0
139.604034 176.0
139.669891 104.0
139.782822 172.0
139.832245 236.0
139.879318 128.0
139.909927 96.0
139.95491 160.0
140.041519 208.0
140.107101 16456.0
140.14241 264.0
140.169022 148.0
140.223221 144.0
140.26178 100.0
140.283157 180.0
140.302444 124.0
140.33873 108.0
140.38353 96.0
140.4189 32.0
140.501465 52.0
140.529785 40.0
140.553375 76.0
140.576981 60.0
140.618927 160.0
140.699707 104.0
140.799088 188.0
140.82486 40.0
140.854385 64.0
140.976074 92.0
141.020981 120.0
141.070572 524.0
141.109726 2376.0
141.181747 48.0
141.316574 156.0
141.347336 232.0
141.382828 60.0
141.434906 232.0
141.56749 132.0
141.655121 88.0
141.693024 116.0
141.723831 204.0
141.870773 60.0
142.008316 220.0
142.036774 76.0
142.084396 364.0
142.117966 176.0
142.252716 116.0
142.351227 172.0
142.511581 144.0
142.549606 116.0
142.751663 164.0
142.865829 184.0
142.884872 40.0
142.90152 188.0
142.997955 148.0
143.044312 176.0
143.085449 216.0
143.18718 180.0
143.206238 60.0
143.301529 168.0
143.563736 152.0
143.599503 168.0
143.637665 36.0
143.654358 64.0
143.802307 128.0
143.850052 248.0
144.029144 132.0
144.063721 160.0
144.270493 48.0
144.339828 224.0
144.356567 88.0
144.543152 196.0
144.571869 140.0
144.710709 136.0
144.727478 216.0
144.935867 140.0
144.998169 172.0
145.026932 144.0
145.062775 744.0
145.101028 180.0
145.300308 80.0
145.456299 140.0
145.737289 208.0
145.809372 48.0
146.07431 364.0
146.398804 224.0
146.560196 124.0
146.712036 128.0
146.801254 152.0
146.871185 52.0
146.985611 140.0
147.043015 292.0
147.080246 596.0
147.115021 880.0
147.554611 180.0
147.864243 188.0
148.012863 152.0
148.050735 1256.0
148.08699 244.0
148.117584 324.0
148.162079 184.0
148.608505 156.0
148.765945 164.0
148.812073 172.0
148.829071 144.0
149.057861 512.0
149.100143 304.0
149.135162 56.0
149.200806 72.0
149.225113 172.0
149.697174 160.0
149.755615 192.0
150.014236 152.0
150.123642 104.0
150.201675 140.0
150.231918 224.0
150.487595 204.0
150.609329 136.0
150.765686 128.0
150.782791 200.0
150.89035 120.0
150.931915 136.0
150.975937 64.0
151.00528 140.0
151.051758 240.0
151.076218 152.0
151.14473 92.0
151.183884 128.0
151.399323 160.0
151.651672 152.0
151.793869 140.0
151.950851 184.0
151.970032 200.0
152.106476 732.0
152.191376 112.0
152.255234 172.0
152.287155 96.0
152.316635 140.0
152.360855 212.0
152.385422 44.0
152.429642 140.0
152.45668 84.0
152.498459 32.0
152.520584 144.0
152.677933 164.0
152.778793 104.0
152.899353 192.0
153.04213 64.0
153.10997 220.0
153.143112 140.0
153.34021 136.0
153.39444 56.0
153.549774 116.0
153.613907 184.0
153.720001 92.0
153.757019 164.0
153.905136 164.0
153.952057 168.0
153.971817 224.0
154.060745 156.0
154.147217 184.0
154.206528 172.0
154.332611 168.0
154.384537 168.0
154.456268 156.0
154.587387 36.0
154.822571 88.0
154.842392 56.0
154.874588 68.0
155.033157 116.0
155.08519 184.0
155.107498 132.0
155.199234 152.0
155.370377 140.0
155.417511 140.0
155.578842 88.0
155.638428 200.0
155.690567 32.0
155.809799 140.0
156.030991 120.0
156.074646 188.0
156.200104 132.0
156.33197 140.0
156.386719 132.0
156.488785 88.0
156.548553 172.0
156.722916 128.0
156.812637 160.0
156.987152 172.0
157.06813 132.0
157.102631 380.0
157.269073 120.0
157.343964 136.0
157.406387 136.0
157.54126 196.0
157.691193 148.0
157.758682 72.0
157.871201 112.0
158.066101 212.0
158.110428 160.0
158.148911 156.0
158.19397 160.0
158.374252 108.0
158.609787 72.0
158.712585 148.0
158.827942 204.0
158.988525 132.0
159.07901 828.0
159.219009 188.0
159.257172 152.0
159.382782 92.0
159.549271 148.0
159.603973 164.0
159.621582 60.0
159.641693 76.0
159.699539 120.0
160.009064 140.0
160.0569 160.0
160.086929 724.0
160.178802 144.0
160.265976 36.0
160.618927 124.0
160.873795 148.0
161.015198 192.0
161.058838 1808.0
161.097 388.0
161.118759 32.0
161.144028 208.0
161.207199 176.0
161.250168 176.0
161.44989 172.0
161.518188 164.0
161.538422 172.0
161.577332 32.0
161.652267 136.0
161.723022 180.0
161.732086 172.0
161.736725 272.0
161.81427 144.0
161.877579 204.0
162.061752 556.0
162.204407 132.0
162.234833 192.0
162.369217 152.0
162.541718 128.0
162.589706 220.0
162.993713 208.0
163.03923 5208.0
163.075623 864.0
163.109283 176.0
163.237747 124.0
163.265717 160.0
163.372559 116.0
163.526001 128.0
163.543045 204.0
163.749283 68.0
163.830795 52.0
164.001526 196.0
164.042068 796.0
164.080765 144.0
164.210602 136.0
164.34581 148.0
164.404495 76.0
164.488724 200.0
164.53978 164.0
164.560211 68.0
164.638519 120.0
164.7211 200.0
165.050797 84.0
165.251953 192.0
165.296356 132.0
165.43457 140.0
165.462738 268.0
165.752167 176.0
165.862366 148.0
165.911072 116.0
166.021332 168.0
166.081009 180.0
166.122665 1248.0
166.241959 188.0
166.425568 272.0
166.833481 188.0
167.030731 72.0
167.064178 180.0
167.082184 112.0
167.13031 8096.0
167.24173 76.0
167.378174 40.0
167.421951 112.0
167.600067 220.0
167.65123 168.0
167.684738 48.0
167.798157 180.0
167.841995 104.0
167.929672 152.0
167.96579 160.0
168.030289 56.0
168.134674 964.0
168.208344 252.0
168.300827 176.0
168.404587 116.0
168.425262 204.0
168.595779 56.0
168.626801 204.0
168.750381 148.0
168.797424 120.0
168.887939 136.0
168.960373 184.0
168.983658 196.0
169.177765 176.0
169.35643 184.0
169.405655 128.0
169.45488 160.0
169.758148 48.0
169.950516 252.0
170.075653 160.0
170.240829 112.0
170.303162 136.0
170.34993 180.0
170.394089 168.0
170.451248 128.0
170.472046 44.0
170.621384 216.0
170.797028 220.0
171.047241 104.0
171.11972 180.0
171.369766 88.0
171.419281 144.0
171.724304 220.0
171.844299 188.0
171.951294 116.0
171.993057 140.0
172.053192 168.0
172.162766 92.0
172.186264 152.0
172.560623 108.0
172.682846 156.0
172.722092 188.0
172.770111 36.0
172.87384 168.0
173.012268 160.0
173.319 116.0
173.494598 100.0
173.512955 224.0
173.801468 64.0
173.882172 80.0
173.943192 188.0
174.064178 332.0
174.085449 156.0
174.11911 36.0
174.161133 180.0
174.339798 140.0
174.552719 48.0
174.655289 52.0
174.728958 132.0
174.857895 164.0
174.895676 160.0
174.939331 192.0
174.96582 124.0
175.039413 1624.0
175.074921 920.0
175.11113 2284.0
175.150162 52.0
175.318787 140.0
175.42421 76.0
175.585052 172.0
175.70903 244.0
175.950348 264.0
176.046326 5504.0
176.11171 716.0
176.234451 164.0
176.369232 148.0
176.445892 60.0
176.556946 32.0
176.734512 164.0
177.053604 716.0
177.091156 260.0
177.186935 196.0
177.20813 48.0
177.396301 112.0
177.526215 40.0
177.777679 168.0
177.979996 132.0
178.059967 140.0
178.176529 200.0
178.216385 140.0
178.322693 176.0
178.365219 124.0
178.591232 48.0
178.919067 204.0
178.942505 196.0
178.979782 68.0
179.071808 136.0
179.094299 60.0
179.264801 88.0
179.398422 188.0
179.611404 152.0
179.683441 144.0
179.715454 100.0
179.763489 156.0
179.915619 128.0
179.963684 56.0
180.102554 108.0
180.353714 160.0
180.578323 72.0
180.623795 188.0
180.792343 140.0
180.851227 132.0
181.017227 164.0
181.092438 236.0
182.022812 196.0
182.081894 180.0
182.251129 148.0
182.667847 124.0
183.076965 132.0
183.106583 164.0
183.257446 84.0
183.389496 208.0
183.491928 164.0
183.535065 92.0
183.899261 156.0
183.947845 228.0
184.03154 128.0
184.094009 276.0
184.132538 2472.0
184.185486 116.0
184.209793 208.0
184.279449 200.0
184.496246 44.0
184.769394 176.0
184.866806 68.0
185.064407 120.0
185.096466 472.0
185.136108 708.0
185.400314 88.0
185.492462 100.0
185.741943 144.0
185.903412 140.0
185.93187 124.0
186.005157 152.0
186.037735 92.0
186.101715 156.0
186.136169 232.0
186.333755 116.0
186.771423 124.0
186.795914 48.0
186.91835 60.0
186.9646 148.0
187.075378 1800.0
187.113297 320.0
187.212341 204.0
187.394852 176.0
187.531113 140.0
187.593796 52.0
187.686493 160.0
187.743759 80.0
187.781952 72.0
187.811951 48.0
187.863785 184.0
187.942902 204.0
188.080872 524.0
188.218582 100.0
188.314178 196.0
188.633865 148.0
188.704956 180.0
188.773315 192.0
188.858902 176.0
189.000351 52.0
189.055573 14424.0
189.089767 460.0
189.194061 88.0
189.205139 68.0
189.235748 164.0
189.264832 32.0
189.348022 176.0
189.369934 212.0
189.394577 112.0
189.421967 160.0
189.534302 88.0
189.589111 128.0
189.739868 92.0
189.833099 60.0
189.868744 76.0
189.931824 136.0
189.962006 196.0
190.057648 1204.0
190.090714 312.0
190.129379 76.0
190.170547 176.0
190.200745 48.0
190.283096 68.0
190.346252 72.0
190.445114 64.0
190.716568 76.0
190.740677 128.0
190.864578 76.0
190.909592 68.0
190.972855 148.0
191.025711 128.0
191.060486 456.0
191.102142 200.0
191.162689 108.0
191.181946 96.0
191.323761 128.0
191.349854 100.0
191.47377 116.0
191.65834 36.0
191.939499 124.0
192.134033 152.0
192.184998 204.0
192.223618 184.0
192.345062 64.0
192.640533 212.0
192.717896 88.0
192.73999 128.0
192.85054 144.0
192.955582 108.0
193.020813 176.0
193.129807 60.0
193.384354 116.0
193.470169 140.0
193.556 64.0
193.666779 164.0
194.057526 124.0
194.118271 4472.0
194.154587 196.0
194.180588 192.0
194.296051 80.0
194.409805 56.0
194.466187 128.0
194.556915 88.0
194.609833 72.0
194.770752 84.0
194.856873 140.0
194.962463 136.0
195.08754 176.0
195.121399 676.0
195.208542 176.0
195.312775 36.0
195.666199 56.0
195.701935 144.0
195.811005 216.0
195.875061 172.0
195.897354 212.0
195.950287 68.0
196.12027 92.0
196.148148 36.0
196.220627 156.0
196.281967 48.0
196.390732 184.0
196.507904 160.0
196.625107 104.0
196.761887 112.0
196.828888 116.0
196.982498 124.0
197.116608 188.0
197.136169 64.0
197.178101 128.0
197.312271 220.0
197.428055 64.0
197.770981 168.0
197.821426 72.0
198.062256 160.0
198.093063 40.0
198.308823 220.0
198.482635 168.0
198.897858 168.0
198.945587 80.0
199.113205 196.0
199.622726 272.0
199.738037 140.0
199.785858 88.0
199.813995 152.0
200.123596 152.0
200.881714 120.0
200.909927 64.0
200.941315 160.0
201.006104 92.0
201.053833 108.0
201.084366 156.0
201.268372 164.0
201.341797 140.0
201.415237 68.0
201.728897 72.0
201.87027 164.0
201.977448 156.0
202.070526 216.0
202.272034 108.0
202.303162 112.0
202.40509 56.0
202.47023 48.0
202.53537 40.0
202.864075 216.0
202.994507 120.0
203.072922 216.0
203.10614 7116.0
203.187378 48.0
203.459839 88.0
203.542175 56.0
203.579086 52.0
203.607483 172.0
203.695541 276.0
203.723953 36.0
203.797821 172.0
203.871704 40.0
203.911484 68.0
203.943512 120.0
204.008133 68.0
204.074814 336.0
204.110474 908.0
204.21286 92.0
204.390518 360.0
204.426239 124.0
204.539246 256.0
204.572113 176.0
204.625488 208.0
204.691589 168.0
204.718246 208.0
204.737976 120.0
204.777267 40.0
204.804901 112.0
204.836227 332.0
204.861618 92.0
204.923294 136.0
204.966309 400.0
204.995026 328.0
205.015259 176.0
205.02536 216.0
205.086777 86260.0
205.16452 140.0
205.192169 116.0
205.242081 84.0
205.273376 80.0
205.298355 116.0
205.330765 136.0
205.359421 204.0
205.370605 60.0
205.391617 48.0
205.396423 212.0
205.427582 108.0
205.453293 72.0
205.48909 172.0
205.523026 348.0
205.556 528.0
205.601013 144.0
205.646042 184.0
205.676071 84.0
205.687714 60.0
205.716141 156.0
205.762772 116.0
205.777893 84.0
205.814468 152.0
205.838348 44.0
205.85965 68.0
205.888718 112.0
205.922821 72.0
205.943283 76.0
205.97113 56.0
205.993652 108.0
206.051743 164.0
206.088959 14200.0
206.167999 144.0
206.196045 168.0
206.230194 192.0
206.288666 124.0
206.314468 48.0
206.3564 80.0
206.377365 60.0
206.416321 80.0
206.437408 76.0
206.468872 68.0
206.509277 64.0
206.560394 84.0
206.628342 48.0
206.657669 80.0
206.699631 72.0
206.764252 80.0
206.858002 72.0
206.882538 84.0
206.915695 52.0
206.975388 48.0
207.00116 40.0
207.039627 52.0
207.092178 1808.0
207.147232 116.0
207.201981 72.0
207.258301 184.0
207.296219 116.0
207.342072 100.0
207.416595 104.0
207.458633 84.0
207.479004 140.0
207.517624 148.0
207.546951 144.0
207.598709 92.0
207.63588 60.0
207.65744 124.0
207.681152 120.0
207.721268 64.0
207.740631 100.0
207.852524 52.0
207.896927 112.0
207.993149 76.0
208.030472 72.0
208.097946 160.0
208.181458 124.0
208.225723 120.0
208.363602 36.0
208.455551 108.0
208.507278 60.0
208.5504 52.0
208.59639 96.0
208.651016 116.0
208.697006 36.0
208.771774 108.0
208.886826 72.0
209.099747 96.0
209.416458 136.0
209.445267 128.0
209.60083 176.0
209.62677 76.0
209.665283 188.0
209.78241 36.0
209.808365 208.0
209.863144 48.0
210.047714 32.0
210.382462 52.0
210.552826 72.0
211.000717 52.0
211.524338 216.0
211.857361 36.0
213.089111 152.0
213.142746 144.0
213.235672 160.0
213.343216 36.0
213.439163 80.0
214.475601 96.0
214.627197 120.0
214.813858 100.0
214.860535 64.0
215.077667 196.0
215.099823 200.0
215.461945 192.0
215.646042 76.0
215.827301 60.0
215.847763 156.0
215.917953 80.0
216.072983 40.0
216.21051 108.0
216.301239 196.0
216.831406 80.0
217.088303 388.0
217.203766 240.0
217.611694 144.0
217.946533 64.0
218.31105 72.0
218.914322 72.0
219.188278 188.0
219.232483 76.0
219.536133 48.0
219.603958 136.0
220.817871 80.0
222.771255 80.0
222.913879 120.0
223.648468 92.0
224.205429 56.0
224.559219 60.0
224.90036 88.0
225.031708 184.0
226.413223 124.0
227.651794 172.0
227.74791 108.0
227.810989 176.0
227.853043 80.0
229.231125 200.0
229.408951 68.0
229.903625 160.0
229.982086 164.0
230.015289 96.0
230.29007 124.0
230.326309 112.0
230.508743 252.0
230.561981 100.0
230.664749 60.0
230.737305 144.0
230.782654 212.0
230.812897 244.0
230.877975 208.0
230.912689 80.0
230.955032 180.0
230.996902 200.0
231.044693 352.0
231.056061 224.0
231.102386 39348.0
231.200104 144.0
231.229034 36.0
231.247025 144.0
231.294785 228.0
231.356125 96.0
231.376404 100.0
231.40654 144.0
231.45137 148.0
231.481644 48.0
231.520004 56.0
231.575531 44.0
231.599762 36.0
231.656845 52.0
231.736084 100.0
231.790619 52.0
231.833282 52.0
231.854263 216.0
231.914886 176.0
231.963379 56.0
231.992737 76.0
232.04007 176.0
232.104416 8120.0
232.192474 72.0
232.239319 80.0
232.38797 72.0
232.636826 56.0
232.664154 44.0
232.712326 152.0
232.743088 96.0
232.800781 44.0
232.989105 44.0
233.074188 100.0
233.108917 600.0
233.233398 72.0
233.291718 84.0
233.427353 44.0
233.485336 80.0
233.518036 72.0
233.581909 68.0
233.660995 100.0
233.730011 100.0
233.766785 152.0
233.910553 132.0
233.999588 144.0
234.108459 156.0
234.239426 112.0
234.446609 108.0
234.477081 80.0
234.51976 40.0
234.772812 28.0
234.897858 76.0
234.931412 88.0
234.964981 144.0
235.343445 36.0
235.581665 136.0
235.905594 76.0
236.324585 40.0
236.7164 84.0
237.129974 32.0
238.904816 112.0
239.696091 132.0
240.494858 140.0
241.001328 84.0
241.551636 88.0
242.11496 104.0
242.964264 184.0
243.153549 56.0
243.5634 240.0
244.138397 76.0
246.032867 36.0
246.135895 140.0
246.213974 68.0
248.11647 76.0
248.348526 36.0
249.105011 216.0
249.337524 44.0
250.145889 140.0
250.832611 192.0
251.911835 140.0
253.037689 92.0
253.376572 176.0
254.616852 64.0
254.762955 96.0
255.821945 64.0
256.446289 124.0
258.007233 128.0
258.106354 144.0
258.131927 100.0
258.944824 52.0
259.024902 204.0
259.096191 1636.0
259.540863 268.0
259.861633 208.0
260.101715 976.0
260.182556 128.0
260.947205 76.0
261.115967 304.0
261.426483 76.0
261.477997 140.0
262.044739 40.0
262.12851 136.0
262.931519 112.0
263.457825 192.0
265.55542 56.0
266.7341 124.0
268.401001 68.0
269.523865 132.0
269.831116 44.0
272.15741 124.0
274.289276 128.0
274.374969 164.0
275.629211 172.0
275.787842 232.0
275.810974 48.0
275.943207 164.0
276.025879 216.0
276.122772 10376.0
276.240845 44.0
276.279053 72.0
276.459229 56.0
276.555206 28.0
276.621399 56.0
276.667755 84.0
277.124542 1208.0
277.168549 40.0
277.356781 32.0
277.764648 72.0
278.105316 84.0
278.128937 448.0
278.464996 40.0
278.514832 104.0
278.567993 32.0
278.714172 80.0
278.966766 64.0
279.03299 160.0
282.916626 132.0
283.9487 60.0
284.032532 140.0
285.275024 64.0
286.136261 84.0
287.096588 140.0
287.268616 80.0
287.552032 76.0
288.129944 188.0
288.170013 52.0
289.121796 108.0
289.269135 48.0
289.567108 84.0
289.872009 116.0
290.126801 284.0
290.356781 92.0
291.313995 180.0
294.314514 108.0
297.47113 96.0
298.539673 168.0
299.23819 84.0
300.682556 80.0
304.386749 172.0
306.951355 108.0
307.533966 44.0
308.613434 140.0
310.550049 116.0
311.712097 28.0
317.140045 132.0
317.214508 88.0
318.459961 92.0
320.405792 120.0
324.279358 44.0
327.153015 164.0
327.268219 52.0
328.266357 228.0
328.868866 44.0
329.356323 64.0
330.332306 68.0
330.824463 212.0
331.545258 64.0
333.145386 100.0
333.341583 80.0
334.949707 144.0
335.157379 60.0
336.459442 144.0
338.078705 64.0
339.122498 140.0
340.329437 96.0
341.170593 132.0
342.182526 136.0
344.28067 136.0
346.000061 108.0
348.373535 100.0
348.644775 64.0
354.170441 164.0
355.779144 88.0
356.357544 236.0
358.717224 48.0
359.064087 100.0
362.163361 60.0
363.683838 148.0
368.850006 148.0
369.755463 52.0
369.920044 76.0
370.103821 124.0
370.201904 8412.0
370.475311 60.0
370.640076 52.0
370.686066 60.0
370.720551 72.0
370.770355 48.0
370.804871 92.0
370.862366 76.0
371.065521 100.0
371.103851 44.0
371.203735 2532.0
371.261078 148.0
371.287628 244.0
371.318604 52.0
371.42984 52.0
371.525757 52.0
371.825043 36.0
371.882599 108.0
372.159027 36.0
372.212067 180.0
373.200531 128.0
373.238739 152.0
373.434875 88.0
373.557953 128.0
373.65799 88.0
373.954285 64.0
374.200653 60.0
374.581909 40.0
375.495422 52.0
375.804016 84.0
380.289215 64.0
382.695557 72.0
386.192169 36.0
386.935699 108.0
387.166718 96.0
387.597626 104.0
389.088074 132.0
390.125214 76.0
391.88446 92.0
395.941345 88.0
409.487671 60.0
414.99704 116.0
415.601379 116.0
418.540161 76.0
423.596313 92.0
427.566803 128.0
433.223663 56.0
433.596588 104.0
442.075745 84.0
445.976166 76.0
451.634705 84.0
452.138184 112.0
452.616547 76.0
459.365723 48.0
470.433167 88.0
472.602753 88.0
483.617462 40.0
486.778412 56.0
493.701538 84.0
507.075745 56.0
511.41449 112.0
511.716095 104.0
517.169373 60.0
525.367004 112.0
533.10968 44.0
535.764587 88.0
541.321045 60.0
548.755554 40.0
555.152344 108.0
559.405151 80.0
562.388245 40.0
565.96698 72.0
587.011963 64.0
588.242249 104.0
597.268799 96.0
600.343079 76.0
607.528259 40.0
615.022705 40.0
632.705078 64.0
646.461487 40.0
655.016602 40.0
677.046448 180.0
677.419373 48.0
696.758667 36.0
711.689941 200.0
714.028137 92.0
726.988831 48.0
731.519775 84.0
745.794861 104.0
748.967041 180.0
764.070557 192.0
767.501892 168.0
773.280334 44.0
773.883728 96.0
785.052734 104.0
796.268066 248.0
797.779541 52.0
798.218079 80.0
808.315369 176.0
814.449585 116.0
836.090515 156.0
843.398071 64.0
846.111145 60.0
849.589233 108.0
849.959656 188.0
857.898621 140.0
859.368347 168.0
860.430542 52.0
871.059509 116.0
875.494263 204.0
886.879272 76.0
891.680908 168.0
897.985962 196.0
902.751709 64.0
906.726868 128.0
913.565979 172.0
919.76062 44.0
934.39563 156.0
934.693787 104.0
938.500732 160.0
939.147156 132.0
942.92041 108.0
946.958374 152.0
957.238892 180.0
959.222778 36.0
963.326416 180.0
965.619568 232.0
968.448059 76.0
970.462097 192.0
979.990417 188.0
980.121277 88.0
983.426453 176.0
987.131165 148.0
996.388916 32.0
999.306152 132.0
1000.187134 180.0
1009.904175 188.0
1011.467041 104.0
1013.290894 180.0
1015.129028 144.0
1019.070801 72.0
1029.05127 180.0
1029.440796 196.0
1029.990112 128.0
1031.415039 164.0
1037.502686 124.0
1040.813354 84.0
1041.018799 124.0
1043.87207 56.0
1048.964722 196.0
1049.222656 176.0
1049.712646 100.0
1051.712646 116.0
1055.472534 36.0
1056.565552 136.0
1058.041138 224.0
1058.143799 136.0
1059.141968 196.0
1063.077393 204.0
1063.765381 144.0
1066.058105 128.0
1075.815063 80.0
1082.431641 136.0
1087.322144 160.0
1088.109741 184.0
1093.651367 152.0
1093.74353 52.0
1096.391235 148.0
1100.514038 188.0
1105.332642 44.0
1108.146606 60.0
1108.312256 84.0
1111.415405 168.0
1111.906494 148.0
1112.317993 160.0
1114.110962 184.0
1123.337646 72.0
1126.181152 132.0
1128.827637 96.0
1132.046387 280.0
1136.24231 88.0
1137.900024 160.0
1138.759644 128.0
1140.560303 40.0
1141.965576 124.0
1142.577759 208.0
1144.064941 104.0
1145.371338 60.0
1148.856445 180.0
1156.451538 164.0
1163.358765 180.0
1167.129517 204.0
1169.6875 164.0
1170.327515 104.0
1171.505737 204.0
1173.045776 224.0
1175.719482 180.0
1177.364746 32.0
1178.703613 124.0
1186.835449 144.0
1189.655273 240.0
1190.218262 56.0
1191.090454 152.0
1191.3927 168.0
1191.839233 192.0
1193.887695 212.0
1198.644531 36.0
1199.292236 224.0
1199.836914 144.0
1200.133301 188.0
1200.533325 192.0
1202.402832 128.0
1206.118774 180.0
1206.581909 136.0
1207.024414 176.0
1208.89209 136.0
1211.308472 172.0
1212.53479 136.0
1212.902222 184.0
1216.391235 172.0
1220.18103 164.0
1220.552856 88.0
1223.175659 180.0
1223.621216 184.0
1224.958252 176.0
1226.038208 48.0
1226.170654 160.0
1227.265137 200.0
1229.978882 132.0
1230.809692 140.0
1235.527466 204.0
1236.520996 192.0
1237.620117 208.0
1238.306396 120.0
1239.207642 220.0
1239.924805 56.0
1242.049194 172.0
1246.72522 116.0
1248.827271 216.0
1257.055908 160.0
1257.359375 32.0
1257.94519 192.0
1258.990112 140.0
1260.388794 184.0
1262.064941 140.0
1262.318604 104.0
1262.389282 244.0
1263.641235 184.0
1266.083374 140.0
1266.324097 140.0
1269.796997 68.0
1271.549438 96.0
1271.932617 204.0
1274.340088 100.0
1275.285278 40.0
1275.775757 200.0
1275.996094 144.0
1279.297119 152.0
1279.354004 28.0
1281.490601 136.0
1282.502563 108.0
1285.897583 172.0
1286.08313 152.0
1286.647095 52.0
1290.791138 168.0
1291.227295 56.0
1293.695923 60.0
1294.834351 128.0
1296.02356 180.0
1296.331665 124.0
1298.353271 72.0
1300.347656 128.0
1300.921997 208.0
1305.311768 48.0
1306.815063 180.0
1307.110107 308.0
1307.844238 196.0
1308.412842 172.0
1308.528076 192.0
1309.291382 152.0
1309.925171 196.0
1310.09082 128.0
1310.530273 208.0
1311.640137 116.0
1311.726685 152.0
1311.7771 156.0
1313.327393 184.0
1315.918091 212.0
1316.408203 160.0
1317.124146 124.0
1320.427246 208.0
1320.803345 172.0
1321.533936 184.0
1324.784668 140.0
1326.944214 128.0
1328.046509 172.0
1328.111816 188.0
1328.220581 204.0
1331.581177 188.0
1334.167969 152.0
1334.40271 28.0
1335.644165 192.0
1336.946411 120.0
1337.084717 128.0
1341.578857 152.0
1343.803223 192.0
1345.386963 228.0
1345.737427 104.0
1347.592529 176.0
1348.981079 200.0
1351.979858 188.0
1352.484863 84.0
1354.666992 132.0
1356.726196 232.0
1360.783325 44.0
1361.774658 80.0
1363.177856 208.0
1363.229248 160.0
1363.670288 72.0
1363.979004 100.0
1364.662598 144.0
1364.758179 184.0
1365.022949 176.0
1365.36853 100.0
1365.743652 188.0
1366.413086 212.0
1366.758911 104.0
1369.401733 84.0
1369.556396 92.0
1369.637451 76.0
1370.528809 168.0
1371.184692 188.0
1373.411377 36.0
1374.193237 172.0
1376.193481 72.0
1377.766602 120.0
1378.786255 192.0
1379.850708 152.0
1380.782349 184.0
1380.922974 136.0
1381.714355 196.0
1382.121338 216.0
1383.882935 168.0
1384.09021 156.0
1384.93457 188.0
1386.126343 164.0
1387.090698 164.0
1387.861816 156.0
1388.017456 124.0
1391.185547 152.0
1392.700317 148.0
1394.513306 204.0
1394.974121 152.0
1395.197144 112.0
1395.7771 108.0
1399.549561 188.0
1403.356934 240.0
1403.588013 136.0
1403.714844 168.0
1407.042603 160.0
1409.723999 136.0
1411.331177 132.0
1413.148682 112.0
1414.039185 112.0
1414.832642 116.0
1415.678711 160.0
1417.266724 80.0
1417.356689 220.0
1420.407959 168.0
1422.006104 192.0
1426.5354 168.0
1426.655762 248.0
1427.339844 40.0
1428.460449 148.0
1429.514648 184.0
1430.710571 96.0
1431.1698 176.0
1432.050903 112.0
1434.545044 160.0
1434.9823 100.0
1435.766479 172.0
1437.433594 144.0
1437.939209 244.0
1439.683228 40.0
1440.408325 192.0
1442.418213 120.0
1443.038208 76.0
1445.329956 136.0
1448.062744 160.0
1448.176392 152.0
1448.343018 60.0
1448.835449 180.0
1450.237305 172.0
1451.154541 172.0
1451.412354 164.0
1452.102417 144.0
1452.792603 68.0
1453.892822 212.0
1454.871948 164.0
1455.175659 216.0
1456.914795 160.0
1458.320557 144.0
1458.761475 216.0
1459.22522 136.0
1459.620605 184.0
1461.164062 252.0
1461.491699 168.0
1462.176636 176.0
1462.38208 128.0
1462.787476 172.0
1463.150879 208.0
1463.386963 236.0
1463.539185 160.0
1464.536865 88.0
1464.620605 108.0
1465.009155 196.0
1465.710083 60.0
1466.296875 160.0
1467.081909 212.0
1467.817993 248.0
1468.607056 208.0
1468.980713 156.0
1469.133301 184.0
1470.628906 100.0
1471.880981 196.0
1474.608154 88.0
1474.868042 148.0
1475.097412 112.0
1476.251831 216.0
1476.986084 84.0
1477.139038 152.0
1479.57251 196.0
1480.192749 140.0
1480.322876 176.0
1480.659912 196.0
1481.954468 168.0
1482.322266 164.0
1482.513794 224.0
1484.974731 204.0
1485.089844 228.0
1486.117798 164.0
1487.575928 232.0
1488.911987 120.0
1489.242188 188.0
1489.365112 176.0
1489.61084 172.0
1490.863281 156.0
1492.531372 148.0
1493.000366 168.0
1493.06958 172.0
1494.06958 164.0
1494.554321 240.0
1495.546997 120.0
1495.639404 116.0
1496.909668 196.0
1497.125244 32.0
1498.473267 160.0
1498.866211 108.0
1499.421021 144.0
1500.423096 160.0
1500.692993 164.0
1500.924316 140.0
