>compound MLS002153393-01!(+/-)-PD 128,907 hydrochloride123594-64-9
>formula C14H19NO3
>ionization [M+H]+
>parentmass 250.143326
#inchi InChI=1S/C14H19NO3/c1-2-5-15-6-7-17-14-11-8-10(16)3-4-13(11)18-9-12(14)15/h3-4,8,12,14,16H,2,5-7,9H2,1H3/t12-,14-/m1/s1
#inchikey YOILXOMTHPUMRG
#origInchi InChI=1S/C14H19NO3.ClH/c1-2-5-15-6-7-17-14-11-8-10(16)3-4-13(11)18-9-12(14)15;/h3-4,8,12,14,16H,2,5-7,9H2,1H3;1H/t12-,14-;/m1./s1
#Ion_Source LC-ESI
#Instrument qTof
#Compound_Source NIH Pharmacologically Active Library
#PI Dorrestein
#Data_Collector VP/LMS
#Scan -1
#Precursor_MZ 250.147
#ExactMass 249.136
#Charge 1
#CAS_Number N/A
#Pubmed_ID N/A
#Smiles CCCN1CCO[C@H]2[C@H]1COc3ccc(O)cc23.Cl
#INCHI_AUX N/A
#Library_Class 1
#SpectrumID CCMSLIB00000085441
#IonMode Positive
#UpdateWorkflowName UPDATE-SINGLE-ANNOTATED-GOLD
#LibraryQualityString Gold
#TaskID d252d724072548979f1f6f1ced849daf
##Scan# 1144
#SpectrumFile p4-A10_GA10_01_18334.mzXML
#LibraryName Pharm_Active_Library.mgf
#MQScore -1
#Organism Pharm_Active_Library
#TIC_Query 0
#RT_Query -1
#MZErrorPPM -1
#SharedPeaks 0
#MassDiff 0
#LibMZ -1
#SpecMZ 250.147
#SpecCharge 0
#internalFilename spec-00000.mgf

>collision 10
45.172737 228.0
45.377632 276.0
45.666348 48.0
46.066681 204.0
46.228924 212.0
46.468758 220.0
46.767723 184.0
47.081299 208.0
47.761101 152.0
47.850548 176.0
47.905636 216.0
48.029697 176.0
48.21056 40.0
48.540024 84.0
48.71212 160.0
48.995911 128.0
49.420341 156.0
49.470726 44.0
49.546349 216.0
49.776371 124.0
51.514233 140.0
51.73016 128.0
52.30722 184.0
53.268837 160.0
53.398197 212.0
53.599094 152.0
54.034195 164.0
54.44315 164.0
54.779964 200.0
54.825642 228.0
55.12521 212.0
55.492294 136.0
55.643623 64.0
55.695599 204.0
55.868034 196.0
56.063084 180.0
56.989334 212.0
57.145702 136.0
57.419857 168.0
57.634216 96.0
57.98378 168.0
58.831013 180.0
58.940979 160.0
59.835171 40.0
60.029312 160.0
60.748505 180.0
61.362801 112.0
61.557003 224.0
63.021812 192.0
63.441212 96.0
63.588726 224.0
63.72847 28.0
63.780914 28.0
63.95747 148.0
64.810265 84.0
64.940109 272.0
64.965775 52.0
65.731621 212.0
65.91732 152.0
66.511688 204.0
67.116882 220.0
68.365334 144.0
68.435883 164.0
68.872894 124.0
69.048096 212.0
69.799309 176.0
69.969017 188.0
71.37278 156.0
72.578377 168.0
72.853325 156.0
72.933189 176.0
73.043716 164.0
73.110069 136.0
73.215614 200.0
73.328056 124.0
73.835114 116.0
74.01651 184.0
74.739143 112.0
74.887192 168.0
74.90097 200.0
74.914749 144.0
75.273491 156.0
76.50798 144.0
76.779793 160.0
77.232147 160.0
77.400154 160.0
77.419418 160.0
77.459702 128.0
77.589378 192.0
78.07576 124.0
78.3433 208.0
81.796349 72.0
82.012497 184.0
83.077553 144.0
84.355919 152.0
84.460915 176.0
84.70726 216.0
85.467316 160.0
85.623787 184.0
85.721428 40.0
85.920555 160.0
86.095909 60.0
86.752747 176.0
86.858444 136.0
86.947502 204.0
87.042175 132.0
87.607582 144.0
88.062714 124.0
89.059143 196.0
89.220749 176.0
89.250824 136.0
89.489784 40.0
89.804482 52.0
89.855415 164.0
90.306885 180.0
91.055687 532.0
91.071251 216.0
91.192314 128.0
91.742424 152.0
92.057236 188.0
92.120262 180.0
92.468262 220.0
92.732559 28.0
93.029869 244.0
93.055405 224.0
93.072113 456.0
93.44883 104.0
94.036568 136.0
94.909027 88.0
94.932297 216.0
97.487671 160.0
97.755112 200.0
98.063828 624.0
98.096878 216.0
98.117783 184.0
99.048286 188.0
99.161224 112.0
99.182732 220.0
99.989403 232.0
100.015274 180.0
100.035179 180.0
100.242317 128.0
100.264236 120.0
100.425728 192.0
101.024971 116.0
101.117012 176.0
101.587883 168.0
102.047783 116.0
102.094032 172.0
102.672005 156.0
102.855606 48.0
102.946465 124.0
102.996956 108.0
103.053596 532.0
103.370972 56.0
103.508621 172.0
104.108856 348.0
104.647705 148.0
104.743416 180.0
105.067673 184.0
105.316582 212.0
106.065468 208.0
106.147469 76.0
106.414207 152.0
106.8993 140.0
107.050514 588.0
107.202011 160.0
107.562935 188.0
108.054771 140.0
108.075462 192.0
108.419197 48.0
108.759338 176.0
109.493263 180.0
110.100143 196.0
110.246376 248.0
110.342529 80.0
110.432449 112.0
111.102409 200.0
111.491196 188.0
112.088829 252.0
114.018784 140.0
114.050667 128.0
114.092018 244.0
114.569878 172.0
114.874725 152.0
115.054443 304.0
115.273972 168.0
116.063438 44.0
116.106956 616.0
116.132454 40.0
116.570412 200.0
116.772491 32.0
117.069481 168.0
118.067833 360.0
118.150848 220.0
118.863678 180.0
119.050789 1376.0
119.069908 64.0
119.098137 208.0
119.951103 200.0
120.058372 180.0
120.081001 180.0
120.343788 140.0
120.553482 84.0
120.793976 224.0
120.824608 176.0
121.065468 1092.0
121.090096 628.0
121.13327 152.0
121.936325 84.0
122.071747 300.0
122.095718 228.0
123.044235 668.0
123.113922 144.0
123.364639 144.0
124.054878 184.0
124.090782 160.0
124.108521 160.0
124.124374 180.0
124.416908 152.0
124.5457 36.0
124.572357 300.0
125.054863 232.0
125.139458 128.0
125.224075 152.0
125.429062 168.0
125.75248 164.0
125.977997 144.0
125.995872 128.0
126.089417 176.0
126.427414 96.0
126.926949 236.0
127.052551 172.0
127.102417 348.0
127.440956 56.0
127.582542 200.0
127.751205 144.0
127.933487 168.0
128.060684 160.0
128.111969 308.0
128.239822 120.0
128.770035 56.0
129.03215 196.0
129.075104 168.0
129.181412 148.0
129.949402 200.0
130.067413 144.0
130.228622 164.0
130.746979 148.0
131.044876 232.0
131.07489 48.0
131.093124 112.0
132.057938 144.0
132.326569 152.0
133.068787 180.0
133.453094 220.0
133.772873 164.0
134.033401 404.0
134.060974 376.0
134.55899 224.0
134.736816 144.0
134.943741 172.0
135.045303 472.0
135.068085 304.0
135.111343 156.0
135.342789 140.0
136.049194 328.0
136.073135 128.0
136.663467 200.0
137.061523 264.0
137.08493 172.0
137.115219 160.0
137.462692 44.0
137.598068 52.0
138.062073 188.0
138.292343 144.0
138.749115 192.0
139.091614 132.0
139.401627 48.0
140.303085 92.0
140.38797 228.0
141.683228 84.0
142.117096 104.0
142.181168 196.0
143.149445 64.0
144.035904 148.0
144.055023 160.0
144.083679 188.0
144.49968 160.0
144.964188 168.0
145.050873 188.0
145.067245 380.0
145.287872 160.0
145.35025 92.0
145.657547 104.0
146.030106 164.0
146.063904 304.0
146.109482 148.0
146.297195 92.0
146.918945 136.0
147.044968 16264.0
147.090271 236.0
147.139175 108.0
147.211731 52.0
147.247223 72.0
147.29921 68.0
147.48999 92.0
147.578278 32.0
147.612122 172.0
147.642075 124.0
147.774185 64.0
148.049561 1912.0
148.078064 216.0
148.765381 76.0
148.935364 92.0
148.969376 96.0
149.058502 1548.0
149.69902 184.0
150.03038 56.0
150.065948 368.0
150.12059 128.0
150.418243 60.0
150.826172 96.0
151.035187 136.0
151.075592 188.0
151.266464 112.0
152.106339 140.0
152.411774 116.0
155.900955 72.0
159.069183 168.0
159.547745 128.0
159.577927 68.0
160.049103 164.0
160.07962 524.0
160.106339 152.0
160.156708 156.0
160.751694 176.0
161.061295 292.0
161.082001 384.0
161.757584 36.0
162.057129 2132.0
162.090057 364.0
163.063965 2376.0
163.659103 96.0
164.036148 160.0
164.069351 508.0
165.05481 156.0
165.075272 204.0
166.166412 228.0
167.189072 116.0
169.031586 116.0
169.089127 188.0
170.553925 120.0
170.910202 120.0
171.055939 160.0
171.098465 192.0
172.101364 144.0
172.224106 140.0
172.809662 212.0
173.058319 88.0
173.081879 148.0
173.952286 180.0
174.059921 108.0
174.086304 256.0
175.061325 288.0
175.095291 184.0
175.180328 120.0
175.926605 184.0
176.068726 1784.0
176.140503 152.0
176.158997 112.0
177.075378 436.0
177.429245 184.0
178.079163 160.0
178.116547 100.0
179.090271 196.0
179.99678 36.0
180.103302 140.0
180.109497 176.0
180.948639 100.0
184.064896 124.0
184.224243 92.0
186.092911 168.0
186.796783 184.0
187.093399 176.0
188.070801 284.0
188.110214 116.0
189.077911 172.0
189.119156 208.0
189.861298 36.0
190.087051 1016.0
190.112793 136.0
190.358002 64.0
191.097473 256.0
192.067093 188.0
192.094666 116.0
192.113983 132.0
193.072418 32.0
193.390579 188.0
193.504074 56.0
194.901962 200.0
196.363449 192.0
198.10202 128.0
198.918045 52.0
200.095932 172.0
200.115646 184.0
201.107925 152.0
201.27449 140.0
202.106949 316.0
202.127075 632.0
203.130493 164.0
203.704453 132.0
204.102921 876.0
204.364014 160.0
204.395309 100.0
204.751144 132.0
205.108429 872.0
205.184265 80.0
205.232727 64.0
205.37532 52.0
205.469452 136.0
205.557907 88.0
205.871918 72.0
206.0811 960.0
206.114517 592.0
206.291916 52.0
206.411987 44.0
206.526382 72.0
206.600754 40.0
206.864029 40.0
206.909836 72.0
206.929871 100.0
207.089203 1404.0
207.342361 52.0
207.861404 84.0
208.095505 812.0
208.171432 60.0
209.093185 164.0
209.154678 36.0
209.245514 36.0
209.848938 140.0
210.983551 160.0
217.552963 168.0
218.114807 312.0
218.525742 216.0
219.126358 112.0
219.478531 148.0
220.098557 224.0
220.421646 116.0
221.092911 124.0
222.148788 440.0
223.145554 28.0
224.151581 156.0
225.028503 232.0
232.134338 172.0
233.140045 328.0
234.144501 140.0
234.9431 116.0
235.712494 164.0
248.124954 160.0
249.135483 252.0
250.088257 108.0
250.143326 3564.0
250.532242 48.0
251.150146 880.0
252.008728 36.0
252.162445 224.0
252.353241 108.0
253.071457 176.0
275.102325 48.0
299.769623 68.0
302.075928 136.0
361.000854 128.0
389.220215 116.0
393.018555 32.0
393.737 76.0
395.195648 76.0
416.565582 108.0
461.215729 76.0
465.869324 132.0
469.118317 56.0
495.871216 84.0
506.95932 64.0
646.246155 72.0
658.921265 104.0
669.292053 124.0
848.752319 160.0
896.547607 156.0
922.38031 116.0
927.834595 116.0
932.00415 124.0
947.611633 180.0
949.640686 56.0
953.404114 140.0
954.203186 128.0
967.721069 84.0
979.24646 148.0
983.735901 176.0
988.37323 240.0
989.537415 260.0
1000.624939 136.0
1006.255005 128.0
1019.239258 172.0
1040.296387 176.0
1042.396606 224.0
1066.190918 196.0
1069.878906 112.0
1090.18811 196.0
1097.778198 140.0
1104.303101 168.0
1107.837769 112.0
1122.039551 180.0
1143.999878 120.0
1148.609009 140.0
1150.154297 220.0
1150.484985 224.0
1167.539551 152.0
1169.914185 148.0
1180.653931 160.0
1185.212891 104.0
1205.726562 144.0
1213.895386 140.0
1215.934937 152.0
1221.305542 152.0
1233.410156 192.0
1240.445068 84.0
1241.987671 212.0
1251.150879 176.0
1251.446655 140.0
1252.615723 128.0
1256.394165 168.0
1258.977539 168.0
1259.93811 156.0
1260.517456 164.0
1260.637573 28.0
1261.040405 140.0
1265.065186 160.0
1274.895752 192.0
1285.984497 132.0
1301.217529 188.0
1311.360229 108.0
1311.612549 116.0
1312.1604 128.0
1320.218628 84.0
1321.365479 292.0
1328.72229 180.0
1332.700928 176.0
1335.172485 128.0
1346.782715 176.0
1349.618164 236.0
1350.459106 116.0
1357.570435 120.0
1368.342285 212.0
1369.328979 140.0
1369.616211 120.0
1377.080566 64.0
1377.257812 104.0
1381.116089 84.0
1382.107422 152.0
1382.840088 144.0
1383.891235 184.0
1386.780273 176.0
1389.85791 180.0
1399.083862 196.0
1404.088501 144.0
1409.149414 104.0
1411.182373 268.0
1414.324341 192.0
1414.758545 148.0
1416.8479 200.0
1419.441162 212.0
1419.666138 96.0
1420.183594 152.0
1428.995361 208.0
1429.09314 212.0
1429.7854 164.0
1433.309692 208.0
1433.935181 144.0
1439.736694 176.0
1444.127686 112.0
1444.581543 236.0
1444.748047 140.0
1446.829102 180.0
1452.679443 180.0
1454.295776 52.0
1459.50708 172.0
1464.366455 216.0
1471.835693 128.0
1472.438965 184.0
1478.325562 44.0
1480.384766 192.0
1488.78186 116.0
1490.356567 184.0
1493.331665 180.0
1495.093384 228.0
1495.493652 60.0
1496.140259 152.0
1496.217163 196.0
1504.296265 156.0
