>compound MLS001142736-01!tert-butyl N-[(2S)-1-[4-[[(2S)-1-[(4-methoxyphenyl)methylamino]-1-oxopropan-2-yl]carbamoyl]piperidin-1-yl]-4-methylsulfanyl-1-oxobutan-2-yl]carbamate
>formula C27H42N4O6S
>ionization [M+H]+
>parentmass 551.29
#inchi InChI=1S/C27H42N4O6S/c1-18(23(32)28-17-19-7-9-21(36-5)10-8-19)29-24(33)20-11-14-31(15-12-20)25(34)22(13-16-38-6)30-26(35)37-27(2,3)4/h7-10,18,20,22H,11-17H2,1-6H3,(H,28,32)(H,29,33)(H,30,35)/t18-,22-/m0/s1
#inchikey MUTTWFCTUGTBAO
#Ion_Source LC-ESI
#Instrument qTof
#Compound_Source NIH Natural Product Library
#PI Dorrestein
#Data_Collector VVP/LMS
#Scan -1
#Precursor_MZ 551.29
#ExactMass 550.283
#Charge 1
#CAS_Number N/A
#Pubmed_ID N/A
#Smiles COc1ccc(CNC(=O)[C@H](C)NC(=O)C2CCN(CC2)C(=O)[C@H](CCSC)NC(=O)OC(C)(C)C)cc1
#INCHI_AUX N/A
#Library_Class 1
#SpectrumID CCMSLIB00000080560
#IonMode Positive
#UpdateWorkflowName UPDATE-SINGLE-ANNOTATED-GOLD
#LibraryQualityString Gold
#TaskID b1d8e8f6646f4e71acdff9ca3d919d08
##Scan# 2004
#SpectrumFile p2-F10_GF10_01_18046.mzXML
#LibraryName NIH_Natural_Products_Library.mgf
#MQScore -1
#Organism NIH_Natural_Products_Library
#TIC_Query 0
#RT_Query -1
#MZErrorPPM -1
#SharedPeaks 0
#MassDiff 0
#LibMZ -1
#SpecMZ 551.29
#SpecCharge 0
#internalFilename spec-00000.mgf

>collision 10
94.969551 220.0
95.049095 184.0
95.190796 156.0
95.480362 188.0
95.501755 244.0
96.154465 152.0
96.324333 192.0
96.562798 32.0
96.913208 184.0
97.073944 124.0
97.309341 216.0
97.533363 140.0
97.739868 124.0
97.857964 116.0
98.181137 172.0
99.025055 196.0
99.510895 216.0
99.556572 228.0
99.866615 188.0
100.013855 100.0
100.659813 208.0
100.787651 48.0
101.070717 232.0
101.250412 188.0
101.522316 156.0
102.058472 180.0
102.350235 136.0
102.513397 128.0
102.694847 152.0
102.807831 176.0
103.070351 96.0
103.104706 144.0
103.44046 148.0
103.470833 212.0
103.955276 220.0
104.051888 1976.0
104.19487 196.0
104.446945 244.0
104.742104 136.0
104.915321 84.0
105.054199 160.0
105.219299 204.0
105.847015 132.0
105.994499 128.0
106.203613 120.0
106.273361 176.0
106.456055 116.0
106.710854 144.0
106.930962 80.0
107.048309 168.0
107.6959 96.0
107.731018 116.0
107.923225 272.0
107.998001 204.0
108.428337 152.0
108.471863 132.0
108.608719 160.0
108.695854 128.0
108.926308 240.0
109.179886 60.0
109.731697 144.0
109.982033 164.0
110.05719 188.0
110.726372 196.0
110.768265 280.0
111.114174 120.0
111.414391 140.0
111.460617 136.0
111.529968 156.0
111.723434 152.0
111.790764 128.0
111.910751 168.0
111.973923 108.0
112.015114 216.0
112.032364 264.0
112.07621 11952.0
112.150909 144.0
112.186745 40.0
112.220482 104.0
112.294289 252.0
112.34491 52.0
112.420868 124.0
112.515854 220.0
112.735527 48.0
112.911003 248.0
113.027351 76.0
113.07946 1056.0
113.444595 116.0
113.529404 56.0
113.868973 136.0
113.909332 168.0
113.947571 116.0
114.070831 216.0
114.086838 176.0
114.164383 32.0
114.392044 76.0
114.462128 240.0
114.656166 196.0
114.794922 184.0
115.019478 204.0
115.172501 56.0
115.22377 136.0
115.529488 104.0
115.612938 152.0
115.887032 252.0
116.170029 84.0
116.638161 128.0
116.898399 136.0
116.954353 168.0
117.700294 60.0
118.065498 100.0
118.152023 48.0
119.166687 140.0
119.197113 140.0
119.434082 100.0
119.871696 108.0
120.266029 212.0
120.524139 92.0
120.771179 32.0
120.900269 184.0
120.929138 168.0
120.985634 68.0
121.02066 160.0
121.065277 30680.0
121.106071 96.0
121.126648 152.0
121.143127 48.0
121.198082 108.0
121.22438 100.0
121.261635 68.0
121.276978 52.0
121.31205 40.0
121.39537 108.0
121.424393 36.0
121.448006 48.0
121.505043 92.0
121.66964 160.0
121.702576 48.0
121.957413 80.0
121.982742 84.0
122.06768 3752.0
122.177315 68.0
122.245522 100.0
122.314766 104.0
122.589058 40.0
122.776443 48.0
122.829384 84.0
122.844826 68.0
122.860268 112.0
122.882538 84.0
122.949608 180.0
123.003708 52.0
123.072144 100.0
123.111893 84.0
123.129562 164.0
123.164902 72.0
123.211288 104.0
123.456642 72.0
123.968025 60.0
124.073196 168.0
124.396095 48.0
125.156456 152.0
127.031593 196.0
128.094879 108.0
129.61087 48.0
129.963882 140.0
130.065918 148.0
130.083405 104.0
130.57341 80.0
131.356949 68.0
131.820435 164.0
132.083145 216.0
132.165726 48.0
133.041245 168.0
133.2939 56.0
135.082016 196.0
135.261215 92.0
135.998322 148.0
136.078827 256.0
136.816574 228.0
138.626785 192.0
139.080795 156.0
140.095291 180.0
145.534805 164.0
148.607468 140.0
149.78656 156.0
151.038788 84.0
151.112183 180.0
151.168457 164.0
152.053162 176.0
152.529663 188.0
153.103073 156.0
154.200836 204.0
154.745056 184.0
155.069336 172.0
155.11882 2720.0
155.575592 200.0
155.615326 184.0
155.96312 156.0
156.065048 176.0
156.087418 164.0
156.122574 148.0
156.67482 64.0
157.126068 128.0
157.605453 128.0
158.593979 180.0
159.663544 92.0
159.726425 104.0
159.776749 148.0
161.985687 152.0
164.350113 236.0
164.904266 80.0
166.09082 248.0
166.518417 172.0
166.544098 56.0
166.721375 112.0
166.965607 184.0
167.080658 276.0
167.114243 456.0
168.365021 48.0
169.094101 160.0
169.980408 212.0
170.481598 60.0
175.528809 148.0
177.103439 204.0
178.087997 136.0
180.283356 160.0
180.992233 188.0
181.090363 212.0
182.127014 144.0
182.965668 160.0
183.041061 216.0
183.111481 3936.0
183.243073 44.0
183.407455 36.0
183.731064 56.0
183.941559 40.0
184.025238 184.0
184.071152 80.0
184.114807 576.0
184.227798 64.0
185.077042 72.0
186.411636 208.0
187.69104 212.0
190.298645 76.0
190.885147 292.0
190.97467 112.0
194.653152 68.0
195.112228 268.0
197.115646 184.0
197.901657 120.0
198.125351 512.0
200.143784 200.0
200.632568 136.0
206.101959 292.0
206.319168 216.0
208.118454 144.0
209.129181 1248.0
210.124847 428.0
211.113831 172.0
211.856323 84.0
212.139359 408.0
213.100952 168.0
213.153259 28.0
214.089966 80.0
215.125046 144.0
220.098679 140.0
220.154785 120.0
223.540237 88.0
225.144089 176.0
226.090576 208.0
226.113754 188.0
227.119461 88.0
229.525421 204.0
230.449051 156.0
231.992554 120.0
232.133484 160.0
233.073044 152.0
233.933762 204.0
237.088974 144.0
237.128265 176.0
238.095245 160.0
238.119812 216.0
238.154282 1932.0
239.128281 220.0
239.161514 252.0
239.220612 92.0
239.380722 156.0
240.157364 148.0
241.126846 84.0
242.128494 180.0
243.118225 160.0
244.622589 148.0
245.251801 116.0
247.075485 220.0
248.275177 96.0
250.182434 152.0
250.528854 68.0
253.137772 184.0
259.014008 36.0
260.910583 188.0
261.119598 184.0
262.533417 128.0
264.086884 68.0
264.180695 112.0
266.155182 352.0
266.918091 192.0
267.054688 152.0
267.152283 144.0
267.552551 172.0
268.751953 84.0
269.13385 128.0
269.163147 128.0
270.163391 140.0
271.119476 120.0
271.880341 164.0
272.379395 148.0
272.862488 144.0
273.158447 144.0
273.609314 160.0
277.809723 48.0
282.1492 128.0
282.550476 108.0
283.175262 380.0
284.141846 148.0
285.441711 136.0
286.156433 284.0
287.167389 224.0
288.084137 32.0
288.114532 156.0
288.158478 128.0
292.655945 148.0
295.047638 180.0
295.163879 104.0
295.574371 148.0
296.447571 84.0
297.119629 124.0
298.132568 128.0
302.8974 112.0
305.250519 88.0
306.521088 52.0
308.874237 40.0
314.154816 452.0
314.256348 32.0
315.154266 440.0
315.425323 136.0
316.13623 152.0
316.16098 88.0
316.493744 76.0
317.411499 112.0
318.557861 116.0
319.51062 76.0
320.026703 72.0
320.196686 6572.0
320.582367 44.0
320.625153 56.0
320.707123 44.0
320.749908 84.0
320.892487 64.0
320.941772 88.0
321.200928 2508.0
321.264465 108.0
321.431091 76.0
322.197998 332.0
322.863586 184.0
323.350159 136.0
323.471863 108.0
324.22403 136.0
324.639893 56.0
325.853119 44.0
329.040527 20.0
330.96402 160.0
332.218048 52.0
338.238098 80.0
341.066193 144.0
341.202209 128.0
342.151398 188.0
345.972443 64.0
354.861969 148.0
358.214264 48.0
372.514374 164.0
377.192474 208.0
380.155396 128.0
386.216187 160.0
391.122467 124.0
398.891449 44.0
402.604858 148.0
403.233643 1832.0
403.64386 96.0
404.239838 412.0
404.504059 84.0
404.668182 64.0
405.132751 52.0
405.228912 200.0
406.235199 140.0
406.897369 112.0
410.788971 36.0
414.318176 188.0
417.439453 52.0
424.172028 116.0
434.207916 316.0
435.212311 144.0
436.19278 204.0
438.973938 120.0
440.113129 48.0
451.237915 1604.0
451.302643 132.0
452.240387 456.0
453.240204 264.0
453.826172 140.0
463.754913 152.0
473.20639 100.0
474.012054 132.0
479.104279 112.0
495.150726 144.0
499.113617 180.0
516.945129 92.0
517.289062 156.0
531.288818 160.0
551.773621 164.0
554.929199 124.0
566.996887 100.0
621.195129 96.0
635.940247 56.0
711.431641 64.0
713.748108 56.0
727.055054 112.0
747.188721 92.0
748.69104 52.0
756.975342 84.0
762.378784 52.0
790.803284 36.0
802.307495 60.0
808.798096 44.0
830.519165 100.0
850.23407 116.0
875.743225 216.0
892.948853 64.0
964.879028 200.0
975.461182 112.0
1023.887573 76.0
1026.959595 252.0
1031.403564 200.0
1041.623901 156.0
1051.797852 52.0
1052.830811 52.0
1057.492188 84.0
1058.087769 76.0
1064.370483 192.0
1065.650024 176.0
1066.689819 68.0
1082.91748 176.0
1085.512695 156.0
1089.844971 212.0
1094.001465 184.0
1101.01709 120.0
1106.67749 208.0
1114.477539 176.0
1114.922852 236.0
1142.491333 128.0
1145.830566 192.0
1147.063843 248.0
1147.859375 56.0
1151.192871 140.0
1152.61145 92.0
1153.098022 124.0
1154.436646 128.0
1156.912964 136.0
1159.717285 180.0
1167.218994 148.0
1175.884399 176.0
1179.880371 148.0
1183.328491 72.0
1194.941162 224.0
1201.141235 60.0
1205.995361 84.0
1214.865601 176.0
1227.705322 140.0
1237.102905 144.0
1237.459961 108.0
1238.48938 148.0
1238.650513 164.0
1239.021729 152.0
1244.787231 200.0
1246.121826 140.0
1252.192505 228.0
1253.700073 212.0
1254.024292 176.0
1255.342651 180.0
1256.062012 208.0
1262.538696 132.0
1263.253052 168.0
1266.445435 136.0
1272.721558 176.0
1275.207886 172.0
1280.280518 232.0
1288.026123 208.0
1289.433716 240.0
1289.69812 184.0
1290.284302 132.0
1292.408447 56.0
1298.913574 236.0
1302.114746 140.0
1308.312866 164.0
1308.874512 144.0
1311.547241 192.0
1317.601685 276.0
1318.793945 188.0
1320.05188 220.0
1322.48999 152.0
1325.125854 200.0
1329.643433 224.0
1334.743042 168.0
1335.128418 292.0
1336.685181 100.0
1337.376587 48.0
1338.752563 232.0
1339.400757 156.0
1339.81604 100.0
1340.967285 68.0
1342.330566 92.0
1345.329224 60.0
1346.607056 76.0
1353.949951 240.0
1354.367432 100.0
1361.885498 176.0
1362.326294 152.0
1363.523926 160.0
1364.303101 148.0
1368.728516 20.0
1371.487549 200.0
1375.957886 200.0
1380.790405 192.0
1382.558594 248.0
1386.446533 180.0
1388.856812 240.0
1389.123169 52.0
1391.869141 204.0
1393.62207 180.0
1396.77417 200.0
1406.042969 164.0
1411.137329 36.0
1412.603149 112.0
1412.737793 80.0
1414.661011 80.0
1415.619385 164.0
1420.716064 112.0
1426.039917 136.0
1426.979492 240.0
1429.740112 172.0
1431.516724 220.0
1434.59082 188.0
1437.539795 160.0
1439.192871 196.0
1444.891602 192.0
1445.44397 220.0
1446.435425 164.0
1451.898071 136.0
1455.388794 168.0
1455.768433 168.0
1456.550659 184.0
1458.199463 152.0
1459.545044 212.0
1459.643921 156.0
1459.970825 136.0
1460.784668 192.0
1464.179321 168.0
1465.725708 188.0
1466.061035 168.0
1470.934692 180.0
1471.583618 180.0
1472.408325 188.0
1474.06604 176.0
1474.157715 188.0
1476.275269 232.0
1478.279419 76.0
1479.151978 208.0
1480.53772 212.0
1481.594727 72.0
1484.254272 160.0
1485.213013 140.0
1489.165771 116.0
1491.090698 188.0
1491.847412 144.0
1493.916138 116.0
1494.654663 32.0
1495.562744 128.0
1496.702148 156.0
1497.341309 96.0
1500.870728 156.0
1502.05835 108.0
