>compound MLS000737410-01!4-methylquinazoline-2-carboxamide
>formula C10H9N3O
>ionization [M+H]+
>parentmass 188.082
#inchi InChI=1S/C10H9N3O/c1-6-7-4-2-3-5-8(7)13-10(12-6)9(11)14/h2-5H,1H3,(H2,11,14)
#inchikey RNRDSFASSMRPKU
#Ion_Source LC-ESI
#Instrument qTof
#Compound_Source NIH Natural Product Library
#PI Dorrestein
#Data_Collector VVP/LMS
#Scan -1
#Precursor_MZ 188.082
#ExactMass 187.075
#Charge 1
#CAS_Number N/A
#Pubmed_ID N/A
#Smiles Cc1nc(nc2ccccc12)C(=O)N
#INCHI_AUX N/A
#Library_Class 1
#SpectrumID CCMSLIB00000079618
#IonMode Positive
#UpdateWorkflowName UPDATE-SINGLE-ANNOTATED-GOLD
#LibraryQualityString Gold
#TaskID b1d8e8f6646f4e71acdff9ca3d919d08
##Scan# 1368
#SpectrumFile p1-H08_GH8_01_17964.mzXML
#LibraryName NIH_Natural_Products_Library.mgf
#MQScore -1
#Organism NIH_Natural_Products_Library
#TIC_Query 0
#RT_Query -1
#MZErrorPPM -1
#SharedPeaks 0
#MassDiff 0
#LibMZ -1
#SpecMZ 188.082
#SpecCharge 0
#internalFilename spec-00000.mgf

>collision 10
95.017876 116.0
95.250832 124.0
95.274139 56.0
95.507408 232.0
95.521027 128.0
95.540482 168.0
95.727333 68.0
95.881233 160.0
96.015755 132.0
96.070374 164.0
96.138664 204.0
96.328056 92.0
97.126701 152.0
97.165939 164.0
97.313141 152.0
97.710152 176.0
97.786896 212.0
97.989723 224.0
98.476967 160.0
98.844681 56.0
99.655663 156.0
100.12114 188.0
100.370239 160.0
100.513855 88.0
100.919334 192.0
101.345665 216.0
101.401779 148.0
101.574219 168.0
101.77491 196.0
101.955696 100.0
101.985847 204.0
102.032471 1900.0
102.055016 168.0
102.213104 144.0
102.239952 140.0
102.261208 184.0
102.291595 168.0
103.040382 252.0
103.124649 132.0
103.279495 184.0
103.322823 104.0
103.610306 96.0
103.786636 84.0
103.863701 252.0
104.725525 220.0
105.11084 160.0
105.255768 84.0
105.840576 180.0
106.02552 340.0
106.143845 52.0
106.160248 184.0
106.517372 164.0
106.973885 200.0
107.336494 68.0
107.350929 140.0
107.491203 140.0
107.561371 148.0
107.865387 184.0
108.432159 160.0
108.608398 108.0
109.007011 108.0
109.137962 188.0
109.352234 172.0
109.522972 208.0
110.205147 124.0
110.600403 136.0
110.684143 200.0
110.906212 160.0
111.754639 184.0
111.944084 116.0
112.118935 168.0
112.152657 164.0
112.359314 100.0
112.532379 144.0
112.87468 212.0
112.925438 172.0
113.141273 128.0
113.465416 128.0
113.575684 132.0
113.823997 136.0
113.984207 256.0
114.036743 168.0
114.21228 196.0
114.244827 392.0
114.355476 112.0
114.498123 108.0
114.892456 88.0
115.014091 140.0
115.396492 184.0
115.531227 80.0
115.73027 160.0
115.79023 164.0
115.882339 140.0
115.897339 124.0
115.944481 176.0
116.000206 168.0
116.049049 9192.0
116.06955 168.0
116.118942 128.0
116.192291 84.0
116.276901 96.0
116.296219 80.0
116.368683 212.0
116.437927 136.0
116.463699 164.0
116.489479 164.0
116.551781 68.0
116.644196 84.0
116.669991 60.0
116.777504 172.0
116.887222 252.0
117.029289 168.0
117.051277 832.0
117.635101 140.0
117.676117 100.0
117.775459 56.0
117.915901 172.0
117.939674 108.0
118.019661 64.0
118.05426 112.0
118.287933 168.0
118.604187 176.0
118.827553 92.0
118.9394 96.0
118.966446 144.0
119.146698 88.0
119.335785 72.0
119.583778 200.0
119.653435 64.0
120.040367 508.0
120.076172 168.0
120.189606 96.0
120.733543 132.0
120.779472 180.0
121.044289 160.0
121.134087 128.0
121.366402 112.0
121.728455 140.0
122.053673 152.0
122.315475 124.0
122.767143 52.0
123.113617 92.0
123.317223 180.0
123.478271 128.0
123.582245 40.0
124.455544 200.0
124.697685 152.0
125.187126 164.0
125.372032 156.0
125.559296 116.0
125.731087 88.0
127.419449 124.0
127.81292 176.0
128.037613 724.0
128.285889 156.0
128.540756 120.0
128.940475 196.0
129.037277 180.0
129.241241 144.0
129.322708 120.0
129.338547 116.0
129.420044 100.0
129.521957 148.0
129.676041 120.0
129.88237 76.0
129.943619 72.0
129.975388 76.0
130.007156 192.0
130.039093 1344.0
130.170593 164.0
130.618332 48.0
130.720718 192.0
130.836792 216.0
131.153442 116.0
131.922714 176.0
132.05304 160.0
132.071335 100.0
132.199463 200.0
132.82724 168.0
133.316284 152.0
133.619797 176.0
133.652008 84.0
133.773987 80.0
134.018112 36.0
134.05899 544.0
134.380112 156.0
135.480591 184.0
135.758728 212.0
135.993057 152.0
136.11145 48.0
136.480911 192.0
137.351913 212.0
137.931015 152.0
137.949997 164.0
137.989456 164.0
138.459793 168.0
138.581604 104.0
138.619095 172.0
138.698792 136.0
138.794907 244.0
139.558014 56.0
139.948608 152.0
140.08284 232.0
140.913269 152.0
141.04425 992.0
141.632431 124.0
142.052414 396.0
142.379547 152.0
142.569092 224.0
142.667053 144.0
142.764542 204.0
142.85968 176.0
142.89061 176.0
142.909637 176.0
142.96524 120.0
142.988174 520.0
143.022293 204.0
143.060059 42560.0
143.114563 296.0
143.164764 48.0
143.202087 104.0
143.254852 48.0
143.285477 212.0
143.316986 52.0
143.345398 40.0
143.371613 32.0
143.448273 28.0
143.486023 64.0
143.538483 48.0
143.571869 48.0
143.650574 60.0
143.788971 48.0
144.015778 136.0
144.062027 4520.0
144.123291 48.0
144.156738 128.0
144.238007 96.0
144.25473 40.0
144.412552 88.0
144.575241 48.0
144.680557 52.0
144.748688 72.0
144.76915 296.0
144.824234 60.0
144.946411 68.0
144.991943 128.0
145.030304 76.0
145.068604 428.0
145.104614 128.0
145.123795 72.0
145.181305 140.0
145.210129 144.0
145.366058 156.0
145.916107 120.0
146.057999 136.0
146.214386 88.0
146.231232 52.0
146.252899 84.0
146.525009 212.0
146.556335 56.0
146.590073 68.0
148.015274 156.0
150.287994 148.0
150.766617 72.0
151.755554 184.0
152.12355 76.0
152.221771 160.0
152.703445 188.0
153.614822 212.0
153.869003 96.0
156.469757 132.0
156.507111 232.0
157.042908 56.0
157.252487 84.0
157.647079 112.0
158.708435 96.0
159.055099 112.0
159.604843 144.0
159.665192 144.0
160.604645 148.0
160.917572 116.0
161.021103 168.0
161.071259 11300.0
161.215637 96.0
161.240906 72.0
161.27124 64.0
161.296509 64.0
161.344543 68.0
161.574677 92.0
161.691086 52.0
162.072235 932.0
162.139359 72.0
162.16217 96.0
162.278778 96.0
162.720245 32.0
162.778641 136.0
163.141373 120.0
163.230957 80.0
164.259903 96.0
164.744919 72.0
166.224808 44.0
167.337784 136.0
169.214798 116.0
170.065079 116.0
171.05191 148.0
171.811157 104.0
173.899323 112.0
174.895493 84.0
182.469528 64.0
183.94313 80.0
188.084549 344.0
188.145523 168.0
189.066681 112.0
189.987335 20.0
246.086182 96.0
249.73703 52.0
305.22403 68.0
336.108734 60.0
339.661163 84.0
360.305511 44.0
454.086182 100.0
565.729065 72.0
575.141174 28.0
611.936646 84.0
641.63147 80.0
722.181885 148.0
761.447449 64.0
797.10968 212.0
804.629089 184.0
828.670593 200.0
844.449463 20.0
845.820801 116.0
851.038391 156.0
857.22168 212.0
857.379028 96.0
858.038574 132.0
858.970764 208.0
868.933533 180.0
874.251282 116.0
875.522888 136.0
882.273132 40.0
889.660645 44.0
891.347412 156.0
892.030884 172.0
901.860291 112.0
903.032166 184.0
905.833435 176.0
910.451843 240.0
920.073975 160.0
920.152466 140.0
929.467529 168.0
934.760193 148.0
937.707764 72.0
939.707886 216.0
941.307129 108.0
943.89801 196.0
945.011292 120.0
946.541504 204.0
946.61499 172.0
961.251526 176.0
967.203186 200.0
982.521423 128.0
985.09967 244.0
988.213074 148.0
992.478516 152.0
993.720398 208.0
996.627502 204.0
1005.999023 168.0
1014.913391 112.0
1018.740417 68.0
1036.112183 184.0
1040.460327 156.0
1040.646484 112.0
1041.886108 160.0
1045.815063 200.0
1048.90686 160.0
1055.123657 184.0
1057.782471 108.0
1059.654053 160.0
1061.883911 88.0
1064.479858 164.0
1076.605469 256.0
1079.618164 116.0
1082.87085 184.0
1088.129883 104.0
1090.113647 76.0
1090.304199 128.0
1095.585693 208.0
1111.037842 204.0
1111.197144 128.0
1115.593628 200.0
1116.039062 176.0
1119.825562 212.0
1119.905518 224.0
1124.29248 172.0
1134.419067 156.0
1135.156616 172.0
1140.144531 172.0
1140.359497 200.0
1147.764771 192.0
1148.87085 120.0
1150.166504 156.0
1156.060059 68.0
1158.734741 152.0
1166.23999 184.0
1167.185059 212.0
1168.32666 124.0
1171.098145 168.0
1179.272095 108.0
1180.516357 200.0
1184.623047 172.0
1187.008179 148.0
1188.544678 132.0
1188.901489 184.0
1191.620728 120.0
1195.498901 172.0
1197.046997 200.0
1197.447144 192.0
1198.204956 144.0
1198.335815 152.0
1199.838257 164.0
1211.164429 132.0
1217.385742 148.0
1218.295532 132.0
1218.455322 64.0
1219.087646 152.0
1219.136353 128.0
1224.207764 104.0
1230.24585 240.0
1230.37146 40.0
1230.867188 164.0
1232.292114 124.0
1239.884521 188.0
1243.433228 176.0
1247.535278 160.0
1248.829224 128.0
1251.418823 152.0
1251.510376 132.0
1254.17334 176.0
1257.474243 128.0
1258.222534 208.0
1261.613525 184.0
1261.712524 140.0
1262.596436 216.0
1264.924194 236.0
1265.986206 188.0
1267.558838 164.0
1270.026001 152.0
1272.04834 204.0
1272.985596 144.0
1276.844482 112.0
1278.680054 180.0
1280.125244 220.0
1281.115234 228.0
1282.248169 136.0
1282.305176 176.0
1284.629761 204.0
1289.914062 152.0
1290.593262 68.0
1290.854004 188.0
1298.075928 216.0
1304.638428 200.0
1304.811035 216.0
1307.623535 216.0
1307.789185 168.0
1310.21582 68.0
1311.311157 204.0
1312.608765 176.0
1312.68811 180.0
1316.069458 200.0
1322.506348 120.0
1324.048462 36.0
1328.295898 224.0
1329.514771 220.0
1333.872681 256.0
1333.930908 192.0
1334.468872 144.0
1336.185303 164.0
1341.020508 200.0
1348.509033 248.0
1350.578125 152.0
1353.483643 152.0
1361.491333 176.0
1362.5271 140.0
1364.143799 132.0
1366.872437 284.0
1368.727417 132.0
1370.22998 172.0
1371.549072 184.0
1373.200684 168.0
1378.494019 208.0
1379.499146 120.0
1379.68396 196.0
1380.719238 136.0
1382.339355 120.0
1382.790771 216.0
1384.819458 96.0
1387.798462 248.0
1391.1073 168.0
1391.322632 40.0
1392.057739 164.0
1399.530762 200.0
1399.910522 88.0
1403.196533 184.0
1406.008667 168.0
1406.620728 132.0
1408.435303 152.0
1411.207764 124.0
1412.097656 212.0
1413.062622 172.0
1413.908203 108.0
1414.409668 68.0
1414.986084 240.0
1416.184326 164.0
1419.331787 252.0
1420.134277 64.0
1421.094482 96.0
1422.873291 40.0
1423.774292 80.0
1424.893555 136.0
1428.532227 72.0
1429.593018 140.0
1430.338135 188.0
1431.798828 120.0
1435.137085 184.0
1436.38147 120.0
1443.450562 88.0
1445.175171 164.0
1445.848755 132.0
1447.037109 152.0
1451.264893 184.0
1451.719849 148.0
1454.565063 172.0
1455.309082 52.0
1456.2052 196.0
1462.051636 148.0
1462.34082 172.0
1464.592407 196.0
1468.443726 60.0
1469.343872 112.0
1470.66394 200.0
1471.259399 96.0
1472.137451 92.0
1473.558228 144.0
1475.254883 144.0
1477.698608 216.0
1478.926514 204.0
1484.841431 156.0
1485.516479 188.0
1487.457886 132.0
1487.749512 128.0
1490.36853 196.0
1491.0448 160.0
1491.167725 220.0
1492.020996 160.0
1492.328491 176.0
1492.759155 164.0
1495.097778 140.0
1496.059937 244.0
1498.570679 176.0
1501.160522 196.0
1503.953369 192.0
