>compound MLS002153316-01!Metolazone17560-51-9
>formula C16H16ClN3O3S
>ionization [M+H]+
>parentmass 366.068451
#inchi InChI=1S/C16H16ClN3O3S/c1-9-5-3-4-6-14(9)20-10(2)19-13-8-12(17)15(24(18,22)23)7-11(13)16(20)21/h3-8,10,19H,1-2H3,(H2,18,22,23)
#inchikey AQCHWTWZEMGIFD
#Ion_Source LC-ESI
#Instrument qTof
#Compound_Source NIH Pharmacologically Active Library
#PI Dorrestein
#Data_Collector VP/LMS
#Scan -1
#Precursor_MZ 366.071
#ExactMass 365.06
#Charge 1
#CAS_Number N/A
#Pubmed_ID N/A
#Smiles CC1Nc2cc(Cl)c(cc2C(=O)N1c3ccccc3C)S(=O)(=O)N
#INCHI_AUX N/A
#Library_Class 1
#SpectrumID CCMSLIB00000085830
#IonMode Positive
#UpdateWorkflowName UPDATE-SINGLE-ANNOTATED-GOLD
#LibraryQualityString Gold
#TaskID d252d724072548979f1f6f1ced849daf
##Scan# 1729
#SpectrumFile p4-F11_GF11_01_18395.mzXML
#LibraryName Pharm_Active_Library.mgf
#MQScore -1
#Organism Pharm_Active_Library
#TIC_Query 0
#RT_Query -1
#MZErrorPPM -1
#SharedPeaks 0
#MassDiff 0
#LibMZ -1
#SpecMZ 366.071
#SpecCharge 0
#internalFilename spec-00000.mgf

>collision 10
45.086235 212.0
45.143723 152.0
45.165215 176.0
45.185188 160.0
45.445122 112.0
45.522346 212.0
45.674858 192.0
45.735409 124.0
45.75695 136.0
45.797348 152.0
45.869404 152.0
45.899242 172.0
45.936192 140.0
45.959129 160.0
46.0793 136.0
46.217216 124.0
46.27948 52.0
46.295731 200.0
46.353985 268.0
46.516743 128.0
46.586002 176.0
46.751888 176.0
46.773666 188.0
46.803619 184.0
46.890808 140.0
47.146027 148.0
47.203442 192.0
47.239006 144.0
47.502029 88.0
47.530842 148.0
47.615955 88.0
47.829079 164.0
47.87727 72.0
47.977859 172.0
48.01923 96.0
48.04406 192.0
48.090977 72.0
48.349438 216.0
48.384045 136.0
48.453293 144.0
48.578068 120.0
48.614143 168.0
48.741901 136.0
48.755798 148.0
48.786381 168.0
48.812798 156.0
48.846176 188.0
49.105263 184.0
49.145718 204.0
49.33427 232.0
49.380417 196.0
49.447456 188.0
49.467831 264.0
49.496574 212.0
49.556805 160.0
49.566616 132.0
49.597446 196.0
49.682991 188.0
49.706844 96.0
49.758778 188.0
49.864136 152.0
49.889439 188.0
49.933029 152.0
50.025902 132.0
50.110405 120.0
50.216133 144.0
50.250481 172.0
50.32056 140.0
50.457611 164.0
50.528328 152.0
51.045967 120.0
51.192638 148.0
51.223972 148.0
51.239643 196.0
51.328018 196.0
51.402195 80.0
51.543568 128.0
51.779617 184.0
51.838356 152.0
51.872757 148.0
51.885658 76.0
51.994678 68.0
52.017643 180.0
52.088009 156.0
52.133987 152.0
52.168484 156.0
52.224567 136.0
52.247585 140.0
52.429016 212.0
52.529949 140.0
52.658421 36.0
52.775475 164.0
52.849209 152.0
52.965065 96.0
53.024471 192.0
53.069412 184.0
53.144836 144.0
53.181835 164.0
53.326416 124.0
53.377285 180.0
53.445621 188.0
53.51112 264.0
53.827538 116.0
53.922497 200.0
53.940041 116.0
54.014618 112.0
54.149281 156.0
54.225471 196.0
54.340866 116.0
54.410305 100.0
54.499901 132.0
54.530762 68.0
54.558689 108.0
54.573395 156.0
54.589569 140.0
54.611629 164.0
54.789753 196.0
54.953411 124.0
55.095146 56.0
55.112877 232.0
55.469563 52.0
55.60751 180.0
55.769409 128.0
55.851192 160.0
55.8988 168.0
55.989613 180.0
56.067085 148.0
56.208759 144.0
56.220699 36.0
56.311771 160.0
56.543518 144.0
56.568966 116.0
56.625866 160.0
56.733757 96.0
56.757748 168.0
56.925816 44.0
57.012951 128.0
57.235596 160.0
57.262703 80.0
57.383259 120.0
57.408894 112.0
57.763844 36.0
57.954605 192.0
58.09409 164.0
58.25349 248.0
58.268684 140.0
58.442017 136.0
58.493763 196.0
58.528782 136.0
58.583614 128.0
58.600372 148.0
58.676579 228.0
58.907028 180.0
58.942169 136.0
59.035419 164.0
59.140987 176.0
59.329411 80.0
59.385666 152.0
59.541168 108.0
59.634892 152.0
59.784077 140.0
60.112328 228.0
60.332073 180.0
60.384235 164.0
60.539005 184.0
60.675362 140.0
60.690868 116.0
60.704636 164.0
60.732742 140.0
60.7467 308.0
60.971851 168.0
60.998276 176.0
61.139816 164.0
61.153824 52.0
61.190617 208.0
61.346985 88.0
61.362576 168.0
61.485809 52.0
61.618248 256.0
61.687305 236.0
61.824333 128.0
61.86565 116.0
61.906361 140.0
61.994091 120.0
62.077175 60.0
62.152473 148.0
62.176014 196.0
62.227058 184.0
62.284351 176.0
62.307919 84.0
62.406937 148.0
62.498169 68.0
62.583168 148.0
62.603638 212.0
62.672951 96.0
62.7155 128.0
62.786453 124.0
62.93795 172.0
62.969612 160.0
63.051693 160.0
63.189266 128.0
63.217236 108.0
63.265236 160.0
63.455032 176.0
63.534657 208.0
63.658463 96.0
63.715649 168.0
63.845993 156.0
63.943043 116.0
63.962143 160.0
64.010323 184.0
64.191574 120.0
64.279312 176.0
64.303596 204.0
64.546082 136.0
64.578072 120.0
64.704491 164.0
64.863091 128.0
64.939896 116.0
64.989792 156.0
65.050392 132.0
65.082886 112.0
65.131073 100.0
65.145531 164.0
65.241951 152.0
65.256424 84.0
65.323975 212.0
65.338448 124.0
65.576782 192.0
65.718697 160.0
65.87207 32.0
65.901154 132.0
65.983582 244.0
66.32679 152.0
66.370567 188.0
66.46302 72.0
66.557175 188.0
66.732658 112.0
66.752174 176.0
66.828621 156.0
66.866051 160.0
66.958855 156.0
67.177277 120.0
67.430374 148.0
67.593918 148.0
67.629883 156.0
67.685593 120.0
67.721619 36.0
67.778961 228.0
67.811737 148.0
67.855995 116.0
67.974098 116.0
68.064384 84.0
68.079163 52.0
68.171158 184.0
68.21225 148.0
68.294472 236.0
68.706306 132.0
69.092903 144.0
69.195518 100.0
69.218704 152.0
69.289925 176.0
69.415901 112.0
69.475609 176.0
69.541992 96.0
69.557137 160.0
69.581833 112.0
69.623344 180.0
69.68148 76.0
69.733002 164.0
69.822784 156.0
70.007515 120.0
70.032494 216.0
70.205833 156.0
70.234184 128.0
70.257545 148.0
70.406105 92.0
70.579903 52.0
70.606659 268.0
70.666878 136.0
70.683609 268.0
70.703697 116.0
70.986816 164.0
71.035461 60.0
71.128548 296.0
71.148216 148.0
71.297401 184.0
71.542984 128.0
71.571602 128.0
71.649086 328.0
71.674355 184.0
71.741776 44.0
71.753578 180.0
71.907089 124.0
71.950974 132.0
71.971237 140.0
72.013458 160.0
72.106384 128.0
72.30088 140.0
72.385529 208.0
72.478699 184.0
72.505814 160.0
72.576752 184.0
72.581009 156.0
72.586082 240.0
72.639946 148.0
72.724609 160.0
72.853668 136.0
72.993042 220.0
73.098511 200.0
73.152977 64.0
73.187027 192.0
73.224495 152.0
73.267082 240.0
73.302864 128.0
73.345467 128.0
73.521149 176.0
73.546753 132.0
73.683372 72.0
73.777367 132.0
73.821411 188.0
73.833794 44.0
73.879272 184.0
74.141968 228.0
74.327179 120.0
74.425018 136.0
74.449059 188.0
74.608864 120.0
74.632935 172.0
74.665611 120.0
74.725815 132.0
75.111458 156.0
75.149574 140.0
75.155792 132.0
75.162407 212.0
75.194542 156.0
75.229065 160.0
75.458801 148.0
75.579926 164.0
75.664734 116.0
75.886513 152.0
76.039169 196.0
76.089508 148.0
76.280609 100.0
76.320602 132.0
76.384949 92.0
76.471954 140.0
76.511993 148.0
76.616486 100.0
76.703621 168.0
76.736748 128.0
76.785576 116.0
76.964394 120.0
77.094597 224.0
77.119064 144.0
77.222221 152.0
77.285202 160.0
77.365715 100.0
77.416451 160.0
77.442764 140.0
77.467285 56.0
77.540886 156.0
77.912895 104.0
77.945595 176.0
78.039444 184.0
78.118584 148.0
78.19249 128.0
78.204811 132.0
78.412651 164.0
78.493744 88.0
78.523727 156.0
78.553711 68.0
78.585472 180.0
78.681061 228.0
78.717163 152.0
78.777908 132.0
79.000664 152.0
79.165276 208.0
79.271568 128.0
79.399208 176.0
79.528732 144.0
79.64077 164.0
79.732986 208.0
79.816544 168.0
79.938332 152.0
79.976662 132.0
80.131599 144.0
80.311653 168.0
80.368736 168.0
80.465126 164.0
80.650917 188.0
80.674156 164.0
81.005226 184.0
81.121048 196.0
81.145012 128.0
81.443939 148.0
81.459084 172.0
81.563309 156.0
81.739563 160.0
81.75396 128.0
81.773331 252.0
81.847572 128.0
81.914207 152.0
81.973671 128.0
82.233376 52.0
82.316422 184.0
82.388672 156.0
82.45372 36.0
82.732285 252.0
83.009514 212.0
83.042152 212.0
83.105652 120.0
83.214554 196.0
83.256317 136.0
83.281746 200.0
83.394402 180.0
83.490768 168.0
83.518051 48.0
83.593712 216.0
83.618118 152.0
83.814804 156.0
83.833031 212.0
83.845787 192.0
84.042732 180.0
84.437325 188.0
84.561745 200.0
84.587372 64.0
84.607506 164.0
85.019936 180.0
85.060318 140.0
85.093361 192.0
85.212746 104.0
85.427124 304.0
85.464653 176.0
85.608238 80.0
85.635864 188.0
85.689285 124.0
85.798027 184.0
85.869942 132.0
85.989868 180.0
86.026787 136.0
86.071098 56.0
86.163452 120.0
86.189323 192.0
86.389 104.0
86.418602 76.0
86.431557 148.0
86.474121 128.0
86.49633 212.0
86.675987 152.0
87.009857 160.0
87.050705 224.0
87.067421 140.0
87.294151 228.0
87.504417 80.0
87.552834 168.0
87.720528 160.0
87.906937 140.0
88.076942 144.0
88.293404 228.0
88.585762 216.0
88.63073 72.0
88.687828 128.0
89.041573 280.0
89.146782 380.0
89.364906 48.0
89.570465 216.0
89.607796 72.0
89.722763 168.0
89.764244 144.0
89.981239 104.0
90.036003 304.0
90.119118 140.0
90.681175 212.0
90.86322 132.0
91.016968 168.0
91.042427 228.0
91.058746 180.0
91.094833 116.0
91.290611 192.0
91.317238 120.0
91.425682 180.0
91.520866 192.0
91.558952 144.0
91.852486 204.0
92.047234 200.0
92.240128 176.0
92.316612 124.0
92.442871 204.0
92.529007 60.0
92.548157 52.0
92.597946 96.0
92.661163 104.0
92.818336 132.0
92.837509 144.0
92.869034 212.0
93.031311 140.0
93.056267 152.0
93.135002 152.0
93.175346 168.0
93.340652 88.0
93.588875 172.0
93.635094 100.0
93.729492 80.0
93.994072 136.0
94.224167 160.0
94.441895 188.0
94.600571 148.0
94.668343 168.0
94.709015 56.0
94.749695 188.0
94.793129 48.0
94.912506 108.0
95.011124 180.0
95.102074 180.0
95.178345 212.0
95.228844 100.0
95.273521 200.0
95.555435 208.0
95.634232 212.0
95.810478 236.0
95.929359 192.0
96.079529 176.0
96.19857 132.0
96.39389 148.0
96.526817 144.0
96.579628 204.0
96.810577 144.0
96.910484 144.0
96.982994 52.0
97.002594 204.0
97.061966 156.0
97.124176 236.0
97.159485 160.0
97.236015 204.0
97.271347 164.0
97.304718 208.0
97.347916 160.0
97.412735 56.0
97.450066 128.0
97.709595 144.0
97.743042 188.0
97.983261 48.0
98.004936 140.0
98.052231 28.0
98.24942 136.0
98.468536 96.0
98.757103 144.0
98.820412 144.0
98.897591 160.0
99.000557 440.0
99.044121 156.0
99.196709 204.0
99.315681 76.0
99.377182 120.0
99.391075 168.0
99.516121 84.0
99.613441 192.0
99.6492 164.0
99.726166 148.0
99.756523 120.0
99.853958 200.0
99.986824 148.0
100.005173 128.0
100.023087 208.0
100.168449 96.0
100.240181 208.0
100.258118 164.0
100.485443 104.0
100.549301 224.0
100.687057 152.0
100.806923 156.0
100.996002 168.0
101.124878 196.0
101.269081 140.0
101.297127 148.0
101.475494 100.0
101.67482 220.0
101.892967 116.0
101.971336 164.0
102.033653 140.0
102.089958 180.0
102.110069 176.0
102.168404 160.0
102.653831 172.0
102.74662 164.0
102.867706 136.0
102.918182 188.0
103.023209 132.0
103.091904 192.0
103.133102 156.0
103.560524 148.0
103.579521 164.0
103.603828 112.0
103.755829 120.0
103.778137 112.0
104.048119 1572.0
104.179993 192.0
104.281593 168.0
104.307076 180.0
104.342583 184.0
104.476814 156.0
104.531754 184.0
104.77813 164.0
104.859642 156.0
104.918167 180.0
105.05323 732.0
105.173752 128.0
105.295837 136.0
105.62944 204.0
105.909874 200.0
105.948799 128.0
105.971336 164.0
106.007439 208.0
106.027756 200.0
106.112762 124.0
106.233765 152.0
106.410263 212.0
106.564308 128.0
106.75753 88.0
106.771927 136.0
106.909775 132.0
107.010635 172.0
107.06163 136.0
107.248878 180.0
107.505363 172.0
107.670525 128.0
107.684982 208.0
107.738686 108.0
107.80481 232.0
108.044662 152.0
108.064445 172.0
108.081123 376.0
108.164696 160.0
108.201958 176.0
108.332436 144.0
108.351082 36.0
108.539696 116.0
108.583244 204.0
108.726662 140.0
108.769989 208.0
108.788673 180.0
108.861351 144.0
108.911194 176.0
108.984047 444.0
109.015076 184.0
109.05249 172.0
109.068115 108.0
109.162674 132.0
109.179314 188.0
109.204269 56.0
109.275002 148.0
109.379059 164.0
109.399879 236.0
109.466507 152.0
109.720711 124.0
109.745255 108.0
109.820808 140.0
109.931389 148.0
109.990173 168.0
110.014877 136.0
110.079605 120.0
110.455818 120.0
110.738396 128.0
110.847336 116.0
110.862007 232.0
110.908119 144.0
110.981384 340.0
111.103142 212.0
111.189178 52.0
111.32354 96.0
111.397057 168.0
111.447479 148.0
111.502113 212.0
111.602249 152.0
111.621948 176.0
111.662575 176.0
111.731216 156.0
111.918648 172.0
111.955185 228.0
111.982567 148.0
112.148285 172.0
112.281113 172.0
112.302208 92.0
112.354942 200.0
112.397141 224.0
112.502678 204.0
112.627266 156.0
112.802658 132.0
112.848442 232.0
112.957825 140.0
112.977097 148.0
113.06282 156.0
113.12632 64.0
113.15596 136.0
113.257614 176.0
113.310577 196.0
113.34024 160.0
113.357193 168.0
113.446213 200.0
113.473778 68.0
113.65831 176.0
113.751694 280.0
113.984673 156.0
114.009979 140.0
114.03199 332.0
114.236214 128.0
114.395821 140.0
114.519325 160.0
114.568321 132.0
114.677002 104.0
115.003571 112.0
115.04306 584.0
115.163483 172.0
115.180573 184.0
115.291679 156.0
115.345116 184.0
115.368629 120.0
115.496941 160.0
115.558975 80.0
115.603912 92.0
115.760193 180.0
115.82444 96.0
115.845863 180.0
115.948715 112.0
115.965866 140.0
116.049309 1280.0
116.090218 168.0
116.231796 212.0
116.633415 144.0
116.730698 212.0
116.749519 144.0
116.794685 120.0
116.826958 156.0
116.996971 116.0
117.05619 1332.0
117.182198 180.0
117.274864 164.0
117.343849 48.0
117.361099 144.0
117.49482 148.0
117.54229 36.0
117.591927 188.0
117.84243 80.0
117.868362 208.0
117.894295 84.0
118.002373 160.0
118.025795 328.0
118.05555 156.0
118.197044 144.0
118.246819 164.0
118.307434 228.0
118.415703 152.0
118.431458 176.0
118.625893 56.0
118.682259 212.0
118.710449 104.0
118.831924 172.0
118.868813 92.0
118.897026 44.0
118.968651 116.0
119.034241 376.0
119.105461 176.0
119.142395 184.0
119.227142 152.0
119.242355 28.0
119.407593 136.0
119.446747 200.0
119.588181 112.0
119.612129 152.0
119.633896 232.0
119.673088 112.0
119.877342 172.0
120.006454 120.0
120.042374 672.0
120.151558 220.0
120.183136 168.0
120.381783 112.0
120.448387 188.0
120.490997 140.0
120.584961 156.0
120.731445 136.0
120.882393 356.0
120.915222 164.0
121.035629 380.0
121.07943 200.0
121.353348 108.0
121.438873 116.0
121.539795 248.0
121.620995 100.0
121.649529 168.0
121.776894 156.0
121.849388 140.0
121.97245 60.0
122.055145 340.0
122.216576 224.0
122.267189 124.0
122.386063 268.0
122.469749 76.0
122.535843 68.0
122.67469 164.0
122.813614 96.0
122.84449 204.0
122.886414 140.0
122.966904 236.0
122.99971 1272.0
123.029945 1184.0
123.149117 188.0
123.182251 92.0
123.210968 76.0
123.24411 44.0
123.936699 160.0
124.004639 184.0
124.038818 228.0
124.082985 220.0
124.220482 152.0
124.500153 108.0
124.597893 116.0
124.617889 220.0
124.895782 124.0
124.960297 160.0
124.994858 708.0
125.044861 168.0
125.087151 96.0
125.483711 124.0
125.530533 152.0
125.617523 184.0
125.769264 132.0
126.009781 704.0
126.113289 240.0
126.153488 40.0
126.218323 152.0
126.303314 156.0
126.421898 84.0
126.444275 168.0
126.66819 140.0
126.862129 184.0
126.914719 180.0
127.012375 316.0
127.091919 200.0
127.13456 200.0
127.298439 160.0
127.347847 160.0
127.518616 64.0
127.800949 168.0
128.003265 312.0
128.037308 160.0
128.128448 108.0
128.241119 176.0
128.256897 80.0
128.378647 72.0
128.484665 220.0
128.615555 236.0
128.705856 92.0
128.791809 144.0
128.818787 176.0
128.859451 136.0
128.98996 160.0
129.080963 208.0
129.103577 176.0
129.230255 96.0
129.292725 224.0
129.309464 132.0
129.352478 120.0
129.379639 84.0
129.508713 136.0
129.63559 68.0
129.742126 232.0
130.057449 208.0
130.109665 32.0
130.19368 52.0
130.282272 76.0
130.298172 156.0
130.443619 168.0
130.475449 164.0
130.582321 136.0
130.880447 104.0
131.038177 196.0
131.059875 456.0
131.105972 244.0
131.144012 116.0
131.260986 56.0
131.450333 136.0
131.497177 136.0
131.651215 160.0
131.692337 140.0
131.715179 136.0
131.767715 80.0
131.902557 76.0
131.920837 76.0
132.04454 1212.0
132.0681 900.0
132.263977 160.0
132.302887 144.0
132.344101 200.0
132.438004 76.0
132.465485 104.0
132.593811 164.0
132.713791 164.0
132.731354 208.0
132.897995 124.0
132.997498 124.0
133.015762 108.0
133.02124 104.0
133.051468 3248.0
133.17659 196.0
133.215637 160.0
133.307831 64.0
133.383392 68.0
133.562759 168.0
133.599564 52.0
133.760651 184.0
133.924149 136.0
134.025513 168.0
134.05484 472.0
134.097656 924.0
134.138443 64.0
134.249115 220.0
134.405975 84.0
134.553711 220.0
134.740784 140.0
134.874817 136.0
134.946487 52.0
135.025116 88.0
135.049637 264.0
135.100479 144.0
135.117645 172.0
135.300308 56.0
135.41394 176.0
135.569168 152.0
135.636383 164.0
135.696655 164.0
135.729126 172.0
135.912369 84.0
135.965744 200.0
135.99321 168.0
136.016815 200.0
136.059616 156.0
136.142197 168.0
136.332687 140.0
136.444275 136.0
136.467514 32.0
136.56752 164.0
136.630325 148.0
136.835144 100.0
136.980835 384.0
137.042435 120.0
137.147308 148.0
137.270874 148.0
137.490173 40.0
137.620895 192.0
137.728317 144.0
137.812424 180.0
137.984436 532.0
138.008118 512.0
138.233337 112.0
138.254395 172.0
138.275452 80.0
138.334534 68.0
138.465103 76.0
138.542404 220.0
138.706451 104.0
138.804916 124.0
138.97493 300.0
138.991867 136.0
139.025436 208.0
139.276657 112.0
139.46463 224.0
139.520004 108.0
139.55162 168.0
139.836273 116.0
139.855103 160.0
139.930435 152.0
139.958694 52.0
139.979385 320.0
139.996368 164.0
140.023483 624.0
140.342773 172.0
140.371063 164.0
140.411148 76.0
140.512589 112.0
140.543259 196.0
140.638885 200.0
140.921051 188.0
140.944687 96.0
140.973038 176.0
140.989578 188.0
141.021286 136.0
141.299347 164.0
141.375076 52.0
141.481598 144.0
141.571564 148.0
141.793106 144.0
141.884354 76.0
141.977524 184.0
142.004425 636.0
142.027496 380.0
142.064545 188.0
142.482437 208.0
142.577484 116.0
142.677322 52.0
142.872589 224.0
142.936569 176.0
142.981796 220.0
143.028168 120.0
143.06987 140.0
143.155579 112.0
143.317719 192.0
143.381912 68.0
143.462952 100.0
143.534485 128.0
143.606873 236.0
143.756332 116.0
143.795578 136.0
143.827942 132.0
143.999924 156.0
144.044098 6328.0
144.119308 44.0
144.160492 152.0
144.265091 172.0
144.28064 120.0
144.468369 88.0
144.688553 184.0
144.815475 156.0
144.837036 68.0
145.009552 136.0
145.048401 1460.0
145.119827 168.0
145.338104 68.0
145.436493 48.0
145.521408 156.0
145.679031 120.0
145.758316 180.0
145.969864 144.0
146.024384 160.0
146.044418 180.0
146.068207 148.0
146.10936 88.0
146.21524 180.0
146.248596 224.0
146.439163 44.0
146.537338 148.0
146.631638 144.0
146.684937 260.0
146.778809 60.0
146.787369 116.0
147.055984 436.0
147.107101 200.0
147.169876 156.0
147.198853 56.0
147.222992 124.0
147.250107 164.0
147.300293 172.0
147.324448 124.0
147.484787 136.0
147.572021 168.0
147.609192 124.0
147.725754 200.0
147.885468 132.0
147.929031 180.0
147.958084 84.0
148.03862 2176.0
148.076736 104.0
148.149414 120.0
148.537277 64.0
148.602783 124.0
148.624619 252.0
148.750061 140.0
148.787247 164.0
148.81395 60.0
148.930527 184.0
149.040848 480.0
149.066574 204.0
149.110321 144.0
149.436188 188.0
149.516495 168.0
149.612198 264.0
149.654984 188.0
149.672287 140.0
150.008347 4356.0
150.052399 160.0
150.086533 168.0
150.140182 28.0
150.29274 112.0
150.349991 168.0
150.379288 156.0
150.55751 60.0
150.589264 192.0
150.616135 100.0
150.640564 204.0
150.664993 212.0
150.746674 176.0
150.770065 52.0
150.877625 140.0
150.90451 104.0
150.972137 212.0
150.989197 140.0
151.017258 20436.0
151.062363 124.0
151.182404 160.0
151.207855 44.0
151.278839 48.0
151.303558 80.0
151.433105 84.0
151.510269 128.0
151.58255 104.0
151.852722 284.0
151.908646 68.0
151.942993 144.0
151.962616 124.0
152.018097 736.0
152.068146 184.0
152.098785 124.0
152.178619 40.0
152.210541 104.0
152.278641 120.0
152.284988 88.0
152.292572 148.0
152.33197 172.0
152.378601 152.0
152.505356 52.0
152.574188 172.0
152.716812 164.0
152.812759 192.0
152.943192 164.0
153.013779 4708.0
153.071213 48.0
153.13031 148.0
153.209137 140.0
153.263565 136.0
153.361923 120.0
153.385544 96.0
153.514786 100.0
153.65538 148.0
153.825668 140.0
153.867645 196.0
154.003799 1792.0
154.251999 188.0
154.307419 104.0
154.344513 108.0
154.386414 212.0
154.61911 108.0
154.651291 64.0
154.698318 140.0
154.777557 124.0
154.936066 108.0
154.984406 180.0
155.011185 412.0
155.072357 148.0
155.19136 196.0
155.221115 168.0
155.573441 192.0
155.605713 164.0
155.747269 80.0
155.93663 212.0
155.996902 340.0
156.028076 368.0
156.084778 160.0
156.184753 116.0
156.261871 40.0
156.350449 216.0
156.570541 44.0
156.829666 108.0
156.963455 384.0
157.01004 200.0
157.05658 164.0
157.358536 148.0
157.508392 104.0
157.70079 76.0
157.795776 116.0
157.853287 64.0
158.045914 296.0
158.266174 152.0
158.489105 92.0
158.732269 192.0
158.892792 56.0
158.960541 128.0
158.985641 192.0
159.054169 2316.0
159.274384 64.0
159.508072 176.0
159.603607 124.0
159.638824 56.0
159.741943 44.0
160.060913 4684.0
160.11412 204.0
160.190033 152.0
160.32756 104.0
160.614441 232.0
160.792679 40.0
160.822968 132.0
160.840637 92.0
161.007278 172.0
161.043961 2080.0
161.064392 1132.0
161.226364 128.0
161.277634 156.0
161.449554 112.0
161.474854 172.0
161.625839 232.0
161.819 188.0
162.013199 232.0
162.045547 168.0
162.166061 96.0
162.233063 168.0
162.546478 120.0
162.762253 116.0
162.848602 148.0
162.960373 64.0
163.049026 600.0
163.144211 144.0
163.171341 104.0
163.356995 116.0
163.566422 188.0
163.715881 52.0
163.849869 160.0
163.934967 156.0
164.006409 144.0
164.035065 164.0
164.237518 48.0
164.432297 160.0
164.830688 176.0
164.991669 128.0
165.00473 260.0
165.061859 184.0
165.160492 152.0
165.209106 176.0
165.262833 148.0
165.383118 224.0
165.426636 208.0
165.482956 84.0
165.672485 116.0
165.736526 136.0
165.972351 188.0
166.004364 336.0
166.072372 168.0
166.195511 156.0
166.298172 64.0
166.331543 236.0
166.55751 208.0
166.719376 180.0
166.745087 100.0
166.809341 188.0
166.851074 224.0
167.013718 1084.0
167.05365 136.0
167.20546 160.0
167.349625 112.0
167.424301 196.0
167.568558 76.0
167.594925 204.0
167.666473 232.0
167.870132 172.0
167.968155 180.0
168.014923 836.0
168.347565 104.0
168.368225 208.0
168.468964 144.0
168.5103 156.0
168.585236 152.0
168.672546 128.0
168.843765 112.0
168.864456 140.0
168.947235 104.0
169.008774 700.0
169.322571 72.0
169.379547 84.0
169.732025 116.0
169.832932 176.0
169.890244 148.0
170.014328 132.0
170.035553 184.0
170.121216 112.0
170.163986 192.0
170.217697 148.0
170.305588 188.0
170.659027 104.0
170.833282 140.0
171.585938 140.0
171.838928 140.0
172.246201 168.0
172.512741 136.0
172.942734 664.0
173.012436 164.0
173.208832 272.0
173.643951 140.0
173.714767 92.0
173.788239 156.0
173.882706 160.0
173.953583 148.0
174.041077 244.0
174.164825 124.0
174.210938 156.0
174.676239 92.0
174.805161 192.0
174.945908 228.0
174.981522 128.0
175.047531 1040.0
175.186951 68.0
175.215927 76.0
175.455765 164.0
175.516403 52.0
175.953308 184.0
176.007217 232.0
176.026367 204.0
176.049393 320.0
176.09964 92.0
176.255524 148.0
176.728836 60.0
176.878891 80.0
177.009033 172.0
177.061859 180.0
177.208084 260.0
177.292877 196.0
177.327332 88.0
177.481094 208.0
177.557999 92.0
177.656143 148.0
177.722473 196.0
177.802094 116.0
177.871094 140.0
177.921539 60.0
177.96933 148.0
178.004425 16424.0
178.083527 64.0
178.102753 84.0
178.12442 132.0
178.163223 176.0
178.222107 48.0
178.281128 160.0
178.351898 100.0
178.399734 88.0
178.455582 184.0
178.53801 96.0
178.58316 200.0
178.612488 176.0
178.647064 156.0
178.775345 172.0
178.798737 60.0
178.835999 72.0
178.870605 76.0
178.893921 168.0
178.915283 168.0
178.945267 216.0
178.971771 120.0
179.011353 23508.0
179.100754 64.0
179.144775 88.0
179.183258 80.0
179.238144 108.0
179.256805 120.0
179.323425 152.0
179.547379 208.0
179.67543 68.0
179.89502 212.0
179.961014 216.0
180.016769 7320.0
180.075974 148.0
180.150024 52.0
180.174683 64.0
180.204071 164.0
180.249496 136.0
180.278885 136.0
180.305618 76.0
180.33493 124.0
180.39035 132.0
180.421555 108.0
180.564957 160.0
180.586349 184.0
180.666611 52.0
180.73082 72.0
180.754898 96.0
180.784332 172.0
180.819122 76.0
180.851242 168.0
181.008911 6500.0
181.097809 48.0
181.16188 76.0
181.204742 44.0
181.228851 132.0
181.258179 68.0
181.303894 128.0
181.336044 124.0
181.510315 56.0
181.690018 136.0
181.767838 144.0
181.880814 160.0
181.93425 68.0
182.015701 3152.0
182.072128 160.0
182.122223 96.0
182.184631 68.0
182.221619 104.0
182.261917 72.0
182.320984 104.0
182.393616 36.0
182.778214 144.0
183.003113 596.0
183.039322 252.0
183.128189 252.0
183.413818 60.0
183.451553 184.0
183.578278 60.0
184.000519 204.0
184.135483 208.0
184.436859 144.0
184.726212 180.0
184.945389 68.0
184.972458 112.0
185.010361 144.0
185.451904 52.0
185.476303 48.0
185.527817 40.0
186.010803 216.0
186.276825 44.0
186.412674 116.0
186.502365 88.0
186.660049 112.0
187.103561 184.0
187.561234 152.0
187.651199 248.0
187.738449 212.0
188.011276 148.0
188.136841 52.0
188.595764 168.0
188.735199 76.0
188.943069 92.0
188.971069 168.0
189.025146 96.0
189.550919 220.0
189.844254 164.0
189.885391 212.0
189.971741 120.0
189.989624 176.0
190.033524 172.0
190.291534 72.0
191.201431 160.0
191.388626 100.0
191.782578 108.0
191.815659 140.0
192.058319 200.0
192.080383 156.0
192.303894 168.0
192.386017 208.0
192.414307 192.0
193.390152 124.0
193.484268 152.0
193.628265 92.0
193.764008 68.0
193.847122 172.0
193.999939 2204.0
194.068893 168.0
194.202011 92.0
194.282455 52.0
194.32962 60.0
194.779373 112.0
194.798813 64.0
194.83493 64.0
194.85437 136.0
195.005066 1156.0
195.024963 848.0
195.446625 40.0
196.013412 3936.0
196.078857 148.0
196.142883 64.0
196.181915 160.0
196.619843 68.0
196.75383 268.0
196.823639 156.0
196.915802 92.0
197.003113 832.0
197.021927 936.0
197.07782 140.0
197.239914 100.0
197.555923 164.0
197.60907 76.0
197.681824 56.0
197.729401 72.0
198.012543 1248.0
198.148178 132.0
198.194275 208.0
198.317596 84.0
198.373657 112.0
198.401688 84.0
198.544693 120.0
198.659698 188.0
198.729843 160.0
199.014389 224.0
199.114426 176.0
199.316696 160.0
199.476898 64.0
199.648422 172.0
199.727173 76.0
199.969147 148.0
200.132431 128.0
200.267609 112.0
200.323944 56.0
200.394379 180.0
200.504288 108.0
200.839813 156.0
200.93454 160.0
200.980865 56.0
201.034485 116.0
201.36763 80.0
201.415649 124.0
201.941406 136.0
202.080017 108.0
202.116806 44.0
202.150757 260.0
202.170563 136.0
202.314926 36.0
202.518814 180.0
202.564133 196.0
202.918396 164.0
202.960922 48.0
203.077194 152.0
203.911957 216.0
203.971649 184.0
204.142242 184.0
204.221878 176.0
204.583267 248.0
204.773666 144.0
204.950684 112.0
205.113129 140.0
205.28421 204.0
205.846603 160.0
206.297836 164.0
206.47226 116.0
206.520874 72.0
206.772659 204.0
207.004562 120.0
207.064697 116.0
207.162094 168.0
207.546143 144.0
207.620712 192.0
207.979355 132.0
208.157364 112.0
208.749344 76.0
208.875885 148.0
208.924805 152.0
208.999603 152.0
209.025497 56.0
209.126236 96.0
209.169403 184.0
209.296082 92.0
209.494812 144.0
209.690765 200.0
209.762833 132.0
210.117554 112.0
210.300552 172.0
210.351303 136.0
210.391724 52.0
210.628525 92.0
210.744095 32.0
210.764313 124.0
210.956177 212.0
211.001968 26644.0
211.055939 144.0
211.077957 88.0
211.152786 64.0
211.20665 68.0
211.232681 64.0
211.261612 68.0
211.287659 76.0
211.33049 84.0
211.386032 76.0
211.425797 92.0
211.47789 108.0
211.533646 152.0
211.629181 176.0
211.745026 56.0
212.004822 2412.0
212.109528 60.0
212.281174 152.0
212.379791 56.0
212.559662 72.0
212.614807 104.0
212.713486 44.0
212.890594 44.0
212.997986 6528.0
213.039062 140.0
213.091034 48.0
213.143341 64.0
213.192734 116.0
213.306091 104.0
213.329346 60.0
213.375137 112.0
213.402039 180.0
213.448563 88.0
213.496307 128.0
213.532898 128.0
213.561981 96.0
213.596893 40.0
213.643433 100.0
213.706192 140.0
213.886322 120.0
213.97522 204.0
214.003601 528.0
214.097519 60.0
214.210312 188.0
214.281036 176.0
214.374283 100.0
214.420914 144.0
214.482117 76.0
214.674545 44.0
214.712463 100.0
214.761078 132.0
214.887482 76.0
215.002701 316.0
215.228989 132.0
215.281555 156.0
215.339966 144.0
215.728607 152.0
215.798767 72.0
216.029816 64.0
216.208313 168.0
216.378098 228.0
216.568436 136.0
216.980194 452.0
217.010956 156.0
217.134125 68.0
217.309402 96.0
217.515564 172.0
217.963379 424.0
218.091095 168.0
218.52655 132.0
218.962234 116.0
218.982849 140.0
219.047653 116.0
219.083008 72.0
219.250961 120.0
219.513336 76.0
219.638687 152.0
219.964752 148.0
220.38414 84.0
220.470886 56.0
220.942947 188.0
221.104813 148.0
221.416565 92.0
221.671341 48.0
222.107178 164.0
222.202103 76.0
222.501877 128.0
222.644409 144.0
222.899887 132.0
222.950409 128.0
223.01619 1408.0
223.43808 48.0
223.747604 160.0
224.02565 296.0
224.394135 28.0
224.450775 124.0
224.576035 168.0
225.014526 152.0
225.226746 160.0
225.299057 116.0
225.456818 160.0
225.827545 164.0
226.407288 132.0
226.917603 124.0
227.48764 128.0
227.652771 48.0
227.899094 36.0
228.037338 148.0
228.347031 188.0
229.018234 176.0
229.063416 136.0
229.48233 156.0
230.040482 136.0
230.100861 148.0
230.209564 152.0
230.417984 136.0
230.611389 196.0
230.635574 220.0
230.705093 124.0
230.88652 28.0
230.9077 28.0
230.971207 132.0
231.001465 148.0
231.040787 100.0
231.092224 148.0
231.649292 116.0
232.084656 204.0
232.095291 132.0
232.105164 224.0
232.783661 192.0
232.979401 852.0
233.038818 36.0
233.101776 596.0
233.157333 176.0
233.242447 92.0
233.397491 124.0
233.440063 128.0
233.979919 156.0
234.021271 140.0
234.112625 280.0
234.146118 156.0
234.82579 192.0
234.973328 320.0
235.082062 196.0
235.223434 104.0
235.448425 132.0
235.588928 192.0
236.145264 80.0
236.166687 140.0
236.748199 120.0
236.873779 132.0
237.118912 168.0
237.167953 132.0
238.014709 112.0
238.921432 176.0
239.010147 192.0
239.401611 168.0
239.968597 204.0
240.97789 140.0
241.921188 76.0
241.969421 152.0
241.980896 56.0
241.991364 168.0
242.057419 208.0
242.144135 160.0
243.002823 188.0
244.32016 100.0
244.622025 140.0
246.009293 124.0
246.031143 60.0
246.240356 148.0
246.630936 56.0
247.325348 184.0
247.58522 232.0
248.101166 220.0
248.400162 100.0
248.742218 184.0
248.933731 100.0
249.131622 84.0
249.389297 48.0
249.669113 60.0
250.17572 64.0
250.518982 224.0
250.699631 208.0
251.057983 160.0
251.139984 36.0
251.742798 120.0
252.039749 144.0
252.087143 156.0
253.053772 168.0
253.134247 180.0
254.028061 184.0
254.091507 144.0
254.12323 104.0
255.061508 136.0
255.070251 168.0
255.187271 88.0
255.327194 152.0
255.747177 152.0
255.952332 256.0
256.027374 128.0
256.057892 220.0
256.314056 104.0
256.549927 64.0
256.856079 128.0
256.92627 48.0
257.05069 228.0
257.408234 200.0
257.817139 120.0
257.970551 164.0
258.08078 212.0
258.105957 148.0
258.134247 104.0
258.181244 204.0
258.210388 112.0
258.242371 124.0
258.277557 84.0
258.443909 276.0
258.475922 164.0
258.763977 60.0
258.786407 148.0
258.831604 176.0
258.869659 204.0
258.90094 208.0
258.943207 348.0
258.992981 70480.0
259.07843 204.0
259.101562 364.0
259.151886 36.0
259.19516 112.0
259.242981 52.0
259.277496 144.0
259.308746 72.0
259.348419 56.0
259.383118 84.0
259.431763 140.0
259.482483 64.0
259.505219 140.0
259.568237 104.0
259.593597 128.0
259.653839 52.0
259.725403 204.0
259.793274 52.0
259.827698 164.0
259.860138 36.0
259.889038 60.0
259.994995 7916.0
260.055725 156.0
260.147278 64.0
260.174469 64.0
260.235687 56.0
260.264954 172.0
260.293488 76.0
260.332001 36.0
260.366821 76.0
260.436859 64.0
260.492249 80.0
260.552399 92.0
260.558472 56.0
260.57193 64.0
260.608276 40.0
260.664795 104.0
260.704681 100.0
260.752869 84.0
260.795624 40.0
260.862183 44.0
260.887543 84.0
260.917603 164.0
260.947052 108.0
260.98999 19408.0
261.072784 64.0
261.12088 52.0
261.153107 52.0
261.186951 100.0
261.219116 48.0
261.254974 28.0
261.282166 128.0
261.310272 72.0
261.360687 52.0
261.395752 60.0
261.460449 100.0
261.48941 72.0
261.511932 64.0
261.540924 92.0
261.589203 104.0
261.61496 124.0
261.686859 64.0
261.714752 100.0
261.740509 108.0
261.782776 32.0
261.847992 272.0
261.942749 76.0
261.98996 1512.0
262.056183 140.0
262.088409 52.0
262.246338 80.0
262.359161 64.0
262.42041 40.0
262.47522 40.0
262.504242 68.0
262.55127 96.0
262.718597 92.0
262.754578 76.0
262.776154 96.0
262.799408 56.0
262.983154 384.0
263.062439 48.0
263.091492 60.0
263.159302 92.0
263.40979 64.0
263.530731 72.0
263.575989 144.0
263.73111 36.0
263.785126 96.0
263.808685 144.0
263.831329 68.0
263.921844 92.0
263.947723 80.0
264.107971 160.0
264.13208 208.0
264.345612 80.0
264.636932 84.0
264.74704 100.0
264.970551 84.0
265.207123 32.0
265.271942 100.0
265.356232 104.0
265.703278 92.0
265.842804 140.0
266.050537 84.0
266.450012 76.0
267.063141 268.0
267.578583 128.0
268.031342 140.0
268.073273 344.0
268.833557 60.0
269.050964 184.0
269.086151 156.0
269.378815 48.0
269.61734 144.0
270.075317 304.0
270.389191 64.0
271.992004 100.0
272.179138 120.0
272.520752 76.0
273.711487 36.0
274.400146 92.0
275.492554 100.0
275.918884 124.0
276.342255 40.0
277.002594 164.0
278.277924 40.0
278.397461 48.0
278.490448 52.0
278.566864 80.0
278.998871 132.0
279.095306 176.0
279.804016 72.0
279.947205 104.0
283.062927 164.0
283.146637 108.0
284.031525 176.0
284.071777 184.0
284.303284 152.0
285.082642 124.0
286.205994 68.0
286.441742 76.0
287.0802 160.0
287.51059 40.0
287.537598 100.0
288.071106 68.0
289.491699 68.0
289.820282 88.0
293.583435 48.0
295.062439 124.0
297.099762 120.0
297.240417 124.0
298.143616 68.0
300.062347 1168.0
300.278198 68.0
300.595612 68.0
301.068542 276.0
302.053802 148.0
303.040314 168.0
303.584534 112.0
305.748932 108.0
307.020569 144.0
307.907043 64.0
309.743378 120.0
314.977722 72.0
317.65744 80.0
317.916473 180.0
322.007233 120.0
324.214691 64.0
325.042084 84.0
329.728424 64.0
332.012939 116.0
333.098206 228.0
335.740723 84.0
336.211365 136.0
340.043304 68.0
343.302979 128.0
343.893311 84.0
344.772339 88.0
347.290009 112.0
347.917145 140.0
348.055084 640.0
348.392517 48.0
349.067047 144.0
349.206604 76.0
349.738678 88.0
350.055145 292.0
350.595337 96.0
351.065063 172.0
351.587372 88.0
352.498596 68.0
352.577057 76.0
353.085541 120.0
356.632477 72.0
357.267975 136.0
366.068451 136.0
366.228424 100.0
367.051636 192.0
368.964569 164.0
375.6315 68.0
378.789764 56.0
383.939911 80.0
385.911957 28.0
389.321198 188.0
389.772949 80.0
390.213196 88.0
402.317139 164.0
403.743652 112.0
406.006439 112.0
410.051056 160.0
410.490509 104.0
413.326263 76.0
415.396637 120.0
418.208588 76.0
420.703339 104.0
423.926483 148.0
425.247101 124.0
425.920502 92.0
428.368103 56.0
439.166595 48.0
441.815063 120.0
445.495941 76.0
449.989746 68.0
457.779327 40.0
459.18573 76.0
460.487518 96.0
464.987427 72.0
466.250122 36.0
486.870544 68.0
494.573242 124.0
503.362976 92.0
505.289459 84.0
508.318481 72.0
514.801025 84.0
514.841675 140.0
518.642273 48.0
522.111145 148.0
522.174805 92.0
527.770386 128.0
532.141663 100.0
533.216553 96.0
535.434204 60.0
538.589111 20.0
546.62384 60.0
551.161133 28.0
554.516602 76.0
557.44043 48.0
577.763672 68.0
586.884644 80.0
599.780762 112.0
600.824402 228.0
609.083069 116.0
613.916382 52.0
614.932678 72.0
616.542786 48.0
622.135132 72.0
626.327271 72.0
635.711975 128.0
639.894104 108.0
647.5802 76.0
651.719849 44.0
659.834229 84.0
723.951538 48.0
734.809875 40.0
737.666809 88.0
750.141846 124.0
768.653137 76.0
776.093079 40.0
780.212891 104.0
785.481079 84.0
797.717041 84.0
812.808716 96.0
815.801941 48.0
835.786194 48.0
843.953979 136.0
852.975098 212.0
864.330688 60.0
873.801025 116.0
874.630798 68.0
874.713257 168.0
893.396179 140.0
903.670044 216.0
903.861511 172.0
907.75531 64.0
908.745056 216.0
918.153381 152.0
942.802795 108.0
943.49353 268.0
954.056885 156.0
959.789124 228.0
966.856384 160.0
970.195068 148.0
970.920593 52.0
974.645325 136.0
975.844971 100.0
979.734863 140.0
986.093567 164.0
986.468628 208.0
990.35199 48.0
991.902344 160.0
995.403259 156.0
999.382263 252.0
1006.113647 140.0
1020.089111 128.0
1031.026978 132.0
1033.668213 200.0
1042.177368 148.0
1044.65271 220.0
1050.631226 164.0
1052.173706 144.0
1055.262085 108.0
1055.391357 160.0
1058.69165 248.0
1060.330811 156.0
1061.582031 156.0
1063.606323 156.0
1068.499878 128.0
1069.671265 236.0
1077.849976 160.0
1078.202881 140.0
1079.974854 200.0
1082.370117 108.0
1087.582275 212.0
1099.416382 144.0
1103.670532 44.0
1105.297852 160.0
1114.601318 108.0
1114.674438 36.0
1116.595703 196.0
1118.265747 200.0
1118.438843 152.0
1123.59021 200.0
1127.730469 232.0
1131.911865 228.0
1133.874756 164.0
1135.369873 116.0
1137.738525 188.0
1147.224487 240.0
1148.020142 132.0
1148.229248 108.0
1151.739014 164.0
1153.718994 152.0
1154.070679 36.0
1155.754883 60.0
1159.682861 148.0
1163.325562 180.0
1164.425537 192.0
1165.410645 220.0
1168.041626 88.0
1172.910522 268.0
1175.474976 40.0
1177.728027 120.0
1178.745972 76.0
1180.502808 144.0
1183.815063 104.0
1188.771484 224.0
1190.934204 208.0
1200.218262 96.0
1201.542603 116.0
1204.207153 96.0
1207.946777 208.0
1209.392944 204.0
1210.327637 156.0
1212.281128 108.0
1217.144043 144.0
1218.192749 164.0
1225.156616 184.0
1226.208862 216.0
1232.049438 160.0
1238.982666 108.0
1239.550293 164.0
1244.614868 120.0
1247.333862 184.0
1249.338135 196.0
1250.703247 116.0
1256.319702 196.0
1256.637207 32.0
1257.378174 212.0
1260.393677 52.0
1265.44397 176.0
1269.319946 140.0
1269.731323 264.0
1284.469238 120.0
1284.540649 92.0
1286.967163 168.0
1288.224243 188.0
1290.496948 212.0
1291.047607 112.0
1291.655518 160.0
1294.174805 140.0
1295.893799 152.0
1298.022705 112.0
1298.08728 192.0
1301.122437 84.0
1301.208618 144.0
1302.853271 156.0
1304.556519 176.0
1304.614014 152.0
1306.829224 208.0
1310.436523 168.0
1313.738647 168.0
1314.207642 164.0
1315.679932 140.0
1321.078491 140.0
1322.562012 156.0
1323.213501 76.0
1323.358398 92.0
1324.915527 64.0
1327.743652 240.0
1329.171753 188.0
1333.165771 140.0
1335.405029 152.0
1339.175415 128.0
1339.634277 64.0
1341.470825 156.0
1345.877563 232.0
1351.491333 176.0
1358.114136 92.0
1359.244019 172.0
1360.682617 96.0
1362.540771 56.0
1364.172363 216.0
1364.26062 148.0
1365.267944 80.0
1368.365845 192.0
1370.899902 184.0
1372.573242 188.0
1373.385864 152.0
1373.56897 144.0
1374.638794 168.0
1375.790161 48.0
1380.289917 236.0
1381.480713 52.0
1382.679443 140.0
1383.486328 160.0
1384.03418 164.0
1387.012573 224.0
1388.265503 164.0
1390.060791 252.0
1392.265747 188.0
1393.424561 156.0
1397.320435 164.0
1397.402344 112.0
1399.94812 168.0
1400.610962 124.0
1402.108643 192.0
1407.554565 164.0
1407.883179 128.0
1408.032471 60.0
1408.107178 164.0
1411.485107 264.0
1412.016113 144.0
1415.885498 124.0
1418.418091 160.0
1420.502808 112.0
1420.852051 140.0
1421.125488 232.0
1421.72583 152.0
1422.499023 148.0
1426.194824 188.0
1427.99939 184.0
1429.338501 72.0
1433.46521 192.0
1433.570679 140.0
1435.289429 104.0
1436.579102 200.0
1437.695923 72.0
1439.001831 104.0
1439.492676 200.0
1440.22522 128.0
1441.109131 168.0
1444.25415 92.0
1445.222534 140.0
1450.652832 164.0
1451.054688 140.0
1451.80542 144.0
1453.459106 208.0
1454.605225 204.0
1456.480835 64.0
1458.866943 56.0
1460.159668 160.0
1460.654053 176.0
1460.99646 40.0
1462.990356 140.0
1463.127441 152.0
1463.904053 116.0
1464.978027 140.0
1466.624023 136.0
1466.852661 188.0
1467.134766 188.0
1468.415894 144.0
1473.369995 100.0
1475.0896 172.0
1475.96875 32.0
1476.978394 204.0
1477.36084 28.0
1477.858154 136.0
1478.279053 172.0
1479.006104 76.0
1479.67981 188.0
1479.786987 108.0
1480.330688 112.0
1480.81311 220.0
1483.487427 192.0
1483.771118 104.0
1484.077759 52.0
1484.17749 132.0
1484.890747 280.0
1486.371338 144.0
1486.778076 56.0
1488.850952 104.0
1489.434692 120.0
1489.580688 96.0
1493.20874 256.0
1493.647217 156.0
1493.739502 196.0
1493.947144 184.0
1495.393799 88.0
1495.478516 184.0
1496.440796 136.0
1497.264771 152.0
1497.619019 164.0
1497.726929 140.0
1499.822876 220.0
1500.37793 132.0
1504.327881 132.0
1504.760254 104.0
