>compound MLS002153417-01!I-OMe-Tyrphostin AG 538
>formula C17H12INO5
>ionization [M+H]+
>parentmass 437.981354
#inchi InChI=1S/C17H12INO5/c1-24-15-6-9(5-12(18)17(15)23)4-11(8-19)16(22)10-2-3-13(20)14(21)7-10/h2-7,20-21,23H,1H3/b11-4+
#inchikey HSRMHXWCTRFVHK
#Ion_Source LC-ESI
#Instrument qTof
#Compound_Source NIH Pharmacologically Active Library
#PI Dorrestein
#Data_Collector VP/LMS
#Scan -1
#Precursor_MZ 437.989
#ExactMass 436.976
#Charge 1
#CAS_Number N/A
#Pubmed_ID N/A
#Smiles COc1cc(/C=C(\C#N)/C(=O)c2ccc(O)c(O)c2)cc(I)c1O
#INCHI_AUX N/A
#Library_Class 1
#SpectrumID CCMSLIB00000085683
#IonMode Positive
#UpdateWorkflowName UPDATE-SINGLE-ANNOTATED-GOLD
#LibraryQualityString Gold
#TaskID d252d724072548979f1f6f1ced849daf
##Scan# 1955
#SpectrumFile p4-E03_GE3_01_18375.mzXML
#LibraryName Pharm_Active_Library.mgf
#MQScore -1
#Organism Pharm_Active_Library
#TIC_Query 0
#RT_Query -1
#MZErrorPPM -1
#SharedPeaks 0
#MassDiff 0
#LibMZ -1
#SpecMZ 437.989
#SpecCharge 0
#internalFilename spec-00000.mgf

>collision 10
45.219276 132.0
45.494068 44.0
45.982693 176.0
46.097485 192.0
46.171841 148.0
46.193481 184.0
46.301765 96.0
46.358665 172.0
46.431873 156.0
46.545868 180.0
46.804226 152.0
47.037361 192.0
47.364178 228.0
47.387466 156.0
47.597328 136.0
47.736115 156.0
47.78426 96.0
47.921944 124.0
48.152317 176.0
48.498222 200.0
48.586971 156.0
49.062607 52.0
49.249596 88.0
49.372593 192.0
49.435547 72.0
49.52515 188.0
49.66111 176.0
49.837994 112.0
49.911087 164.0
49.947655 152.0
50.072922 208.0
50.149006 224.0
50.254772 36.0
50.287231 216.0
50.487854 152.0
50.63929 176.0
50.666203 128.0
50.764008 76.0
50.809395 84.0
50.904495 196.0
50.988312 144.0
51.049442 252.0
51.275806 136.0
51.95359 52.0
52.184818 108.0
52.322941 180.0
52.402153 52.0
52.643044 220.0
52.767479 212.0
52.875801 152.0
53.393745 132.0
53.842632 84.0
53.903988 148.0
53.955147 168.0
54.164413 168.0
54.181992 136.0
54.278728 172.0
54.290459 228.0
54.429871 64.0
54.468056 192.0
54.937649 76.0
55.389999 132.0
55.585705 156.0
55.634686 92.0
55.772835 204.0
56.113743 156.0
56.198761 272.0
56.611328 140.0
56.675743 136.0
56.714706 192.0
56.774677 76.0
56.911232 144.0
56.967823 204.0
56.996853 152.0
57.508892 88.0
57.638771 64.0
57.911087 164.0
58.050514 172.0
58.143059 160.0
58.26757 248.0
58.481991 164.0
58.533752 212.0
58.552025 140.0
58.626678 184.0
58.664783 132.0
59.049576 68.0
59.067932 176.0
59.404942 252.0
59.486275 176.0
59.550766 140.0
59.638348 188.0
59.856808 164.0
59.997021 72.0
60.040192 136.0
60.098812 128.0
60.112701 176.0
60.225403 232.0
60.379963 136.0
60.497562 232.0
60.528526 172.0
60.882095 176.0
61.118382 132.0
61.314598 164.0
61.339535 136.0
61.38475 180.0
61.470547 204.0
61.543911 164.0
61.554844 188.0
61.686085 180.0
61.74081 144.0
62.002258 112.0
62.061829 84.0
62.184193 204.0
62.396255 256.0
62.485905 180.0
62.968269 148.0
62.995121 100.0
63.047264 212.0
63.094685 124.0
63.153194 60.0
63.319382 160.0
63.384335 92.0
63.817665 196.0
63.948433 120.0
64.36261 208.0
64.567154 160.0
64.637543 56.0
64.778435 232.0
64.807274 52.0
65.036606 200.0
65.280815 168.0
65.393433 216.0
65.556091 184.0
65.6754 172.0
65.706047 88.0
65.723793 168.0
65.752846 232.0
65.830154 156.0
65.924034 104.0
66.000008 132.0
66.097061 184.0
66.200661 148.0
66.218475 72.0
66.231438 128.0
66.690628 192.0
66.828857 100.0
66.853271 164.0
66.934662 156.0
66.97049 196.0
67.024254 244.0
67.489449 164.0
67.531975 32.0
67.639969 52.0
68.030113 92.0
68.153297 204.0
68.401634 116.0
68.657021 136.0
68.777458 208.0
69.129494 148.0
69.326561 236.0
69.382919 144.0
69.472473 128.0
69.500679 120.0
69.694954 148.0
69.95607 148.0
70.107635 208.0
70.157646 28.0
70.291 172.0
70.456375 196.0
70.578384 228.0
70.807648 204.0
71.164833 136.0
71.347969 224.0
71.366135 184.0
71.453918 212.0
72.015274 224.0
72.086227 196.0
72.125099 208.0
72.152153 224.0
72.306084 132.0
72.489403 96.0
72.572037 136.0
73.084999 96.0
73.267181 188.0
73.398415 168.0
73.454697 192.0
73.592934 156.0
73.661247 100.0
73.849274 96.0
73.934822 240.0
74.042679 248.0
74.181465 200.0
74.462875 208.0
74.596901 168.0
74.627846 148.0
74.830872 108.0
74.851532 96.0
74.942825 176.0
75.006592 136.0
75.105766 156.0
75.2015 60.0
75.481377 168.0
75.689026 188.0
75.935104 76.0
75.995827 160.0
76.23719 144.0
76.38324 140.0
76.498093 148.0
77.007256 220.0
77.236229 192.0
77.902351 100.0
78.305779 136.0
78.518417 200.0
78.643684 108.0
78.668396 172.0
78.792023 168.0
78.933418 188.0
78.961716 148.0
79.234322 56.0
79.292793 196.0
79.516266 184.0
79.796936 160.0
79.980171 104.0
80.013992 56.0
80.03714 80.0
80.70269 196.0
80.720573 156.0
80.962158 72.0
81.105499 168.0
81.232811 192.0
81.306374 40.0
81.579399 172.0
81.851074 136.0
82.632629 116.0
82.645302 156.0
82.692352 152.0
83.112785 140.0
83.474266 184.0
83.929497 272.0
84.442657 140.0
84.482903 132.0
84.676933 68.0
84.858345 192.0
85.001419 136.0
85.038124 212.0
85.175835 168.0
85.346748 144.0
85.571228 224.0
85.720421 132.0
85.751755 220.0
85.86422 168.0
85.899261 128.0
85.991524 108.0
86.045059 208.0
86.229179 216.0
87.182388 108.0
87.254875 164.0
87.429726 212.0
87.797791 184.0
87.901207 188.0
88.125275 76.0
88.246765 100.0
88.329056 212.0
88.441322 48.0
88.583633 200.0
88.677322 100.0
88.842339 188.0
88.960564 204.0
89.422974 192.0
89.897903 208.0
90.02816 152.0
90.050819 56.0
90.099937 176.0
90.184975 156.0
90.304092 104.0
90.338142 136.0
90.421974 128.0
90.533096 164.0
90.705513 188.0
91.381592 96.0
91.40062 168.0
91.701515 148.0
91.922745 132.0
92.258904 168.0
92.344948 92.0
92.402336 132.0
92.503769 316.0
92.580353 40.0
92.59951 188.0
92.641647 88.0
92.873596 176.0
93.736824 212.0
93.921906 152.0
94.252037 252.0
95.011017 208.0
95.315849 104.0
95.45192 268.0
95.494705 200.0
95.576408 76.0
95.632851 204.0
95.805214 108.0
95.930878 48.0
96.350464 180.0
96.43644 140.0
96.475533 172.0
96.551796 188.0
96.628082 172.0
96.769005 104.0
97.002136 108.0
97.068794 148.0
97.127632 172.0
97.278732 132.0
97.321922 160.0
97.384766 212.0
97.45549 48.0
97.557686 176.0
97.640266 152.0
97.66584 228.0
97.911865 164.0
98.018242 140.0
98.034012 136.0
98.122711 80.0
98.564835 124.0
99.099083 184.0
99.61689 216.0
99.845467 120.0
99.956871 124.0
100.028519 216.0
100.108162 160.0
100.415077 76.0
100.452972 208.0
100.688499 204.0
100.71846 132.0
100.852341 88.0
100.887787 180.0
100.944305 64.0
101.288544 172.0
101.350655 164.0
101.419792 164.0
101.496979 144.0
101.74778 128.0
101.818474 184.0
101.984818 48.0
102.047424 172.0
102.119537 232.0
102.33889 176.0
102.447639 228.0
102.548393 196.0
102.820671 192.0
102.947861 160.0
103.091293 164.0
103.356194 40.0
103.712631 84.0
103.767365 160.0
103.864708 116.0
104.048233 420.0
104.075775 184.0
104.142792 36.0
104.327705 112.0
104.559593 64.0
104.641014 340.0
104.759132 176.0
104.903824 152.0
104.92421 152.0
105.030891 228.0
105.185333 240.0
105.38343 112.0
105.442688 108.0
105.616486 156.0
105.70446 100.0
105.960403 240.0
106.118217 200.0
106.183838 128.0
106.670471 108.0
106.773277 200.0
107.013412 264.0
107.156158 176.0
107.191185 124.0
107.234459 196.0
107.587196 168.0
107.711098 248.0
108.023239 148.0
108.04599 148.0
108.074959 176.0
108.599083 184.0
109.02771 1644.0
109.043716 188.0
109.066269 120.0
109.257721 124.0
109.651138 156.0
109.769966 60.0
109.811676 116.0
109.968163 188.0
110.028206 232.0
110.183243 168.0
110.26683 204.0
110.400635 208.0
110.425728 132.0
110.454391 176.0
110.534515 164.0
110.792046 164.0
110.936646 212.0
111.18206 128.0
111.482368 128.0
111.537018 92.0
111.844124 124.0
112.010468 132.0
112.187485 200.0
112.643303 248.0
112.924431 132.0
113.146622 192.0
113.487732 140.0
113.5047 132.0
113.850594 92.0
114.035561 932.0
114.133224 128.0
114.592979 136.0
114.931992 172.0
115.04084 160.0
115.198868 124.0
115.496002 140.0
115.525948 152.0
115.585854 240.0
115.684303 164.0
115.712135 160.0
115.885628 164.0
116.022789 152.0
116.050659 156.0
116.082825 132.0
116.101868 164.0
116.82383 200.0
116.922813 152.0
116.998146 136.0
117.055832 452.0
117.545616 140.0
117.672966 180.0
117.921387 192.0
118.034058 212.0
118.161415 124.0
118.260963 132.0
118.577179 136.0
118.668228 212.0
118.724609 348.0
118.932892 100.0
119.039276 136.0
119.065842 172.0
119.176125 148.0
119.264793 204.0
119.756966 52.0
119.870255 156.0
120.72818 208.0
120.865997 240.0
121.231689 140.0
121.81752 144.0
122.204453 176.0
122.387146 56.0
122.651512 168.0
123.050804 196.0
123.165642 200.0
123.375572 196.0
123.667564 152.0
123.733978 152.0
123.970985 124.0
124.049995 860.0
124.186035 64.0
124.594482 176.0
124.625587 192.0
124.65892 144.0
124.870125 140.0
124.965775 136.0
125.023842 152.0
125.054794 224.0
125.304199 228.0
125.382195 68.0
125.42231 80.0
125.718948 68.0
125.915405 200.0
126.243927 180.0
126.328926 168.0
126.416183 100.0
126.570641 28.0
126.666946 108.0
126.991959 120.0
127.040855 4464.0
127.227577 172.0
127.498962 44.0
127.53083 228.0
128.042694 392.0
128.142929 200.0
128.269135 192.0
128.408936 176.0
128.469833 124.0
128.545074 184.0
128.634567 204.0
128.745209 88.0
128.896561 176.0
129.032181 140.0
129.090973 192.0
129.115845 160.0
129.570831 44.0
129.693192 192.0
129.731735 124.0
129.895004 176.0
130.030365 1384.0
130.294556 212.0
130.394531 128.0
130.517303 116.0
130.681061 116.0
131.042557 360.0
131.131958 36.0
131.930893 28.0
132.042084 644.0
132.198502 184.0
132.324387 48.0
132.342712 44.0
132.498459 84.0
132.55574 180.0
132.690964 192.0
132.727661 88.0
132.890503 172.0
132.966232 172.0
133.02951 824.0
133.062653 148.0
133.338303 40.0
133.50383 124.0
133.593536 48.0
133.777634 172.0
133.798355 76.0
133.874344 100.0
134.035583 144.0
134.059311 176.0
134.372223 120.0
134.639984 216.0
134.810944 128.0
134.836365 128.0
134.882599 168.0
135.01207 164.0
135.09024 192.0
135.14856 128.0
135.370773 232.0
135.41246 152.0
135.49353 116.0
135.818085 56.0
135.86911 168.0
135.899277 152.0
136.038528 5304.0
136.0896 40.0
136.218994 208.0
136.261475 144.0
136.310272 136.0
136.349777 92.0
136.368378 72.0
136.447403 128.0
136.654404 280.0
136.735855 180.0
136.754471 156.0
136.82431 48.0
136.877853 176.0
137.022903 11412.0
137.178406 84.0
137.253021 96.0
137.348633 52.0
137.390625 128.0
137.451294 216.0
137.467621 88.0
137.486298 72.0
137.70575 60.0
137.893707 116.0
138.02597 576.0
138.060989 60.0
138.173279 48.0
138.218384 188.0
138.414352 48.0
138.89949 228.0
139.054352 120.0
139.164688 152.0
139.268021 92.0
139.317352 48.0
139.444229 132.0
139.71701 228.0
139.85585 180.0
139.947662 132.0
140.647827 136.0
140.96431 36.0
141.021835 164.0
141.056564 112.0
141.082489 164.0
141.88031 232.0
142.029099 1008.0
142.062912 76.0
142.61145 48.0
142.865875 180.0
142.908707 136.0
142.96106 144.0
142.99675 116.0
143.034973 564.0
143.184845 212.0
143.256302 96.0
143.582855 220.0
143.938431 148.0
144.01712 156.0
144.044067 384.0
144.098465 108.0
144.225113 160.0
144.299225 96.0
144.414017 56.0
144.631744 148.0
144.995804 200.0
145.020645 176.0
145.054932 304.0
145.470734 96.0
145.713287 156.0
145.84787 196.0
145.980103 60.0
145.996933 124.0
146.034134 1004.0
146.078705 192.0
146.223083 212.0
147.042526 100.0
147.060333 280.0
147.40477 152.0
147.462769 184.0
147.849747 112.0
148.009506 148.0
148.050674 220.0
148.751389 208.0
149.059845 112.0
149.215408 208.0
149.504868 168.0
149.894501 56.0
149.996857 204.0
150.060242 140.0
150.465256 196.0
151.060043 156.0
151.157883 176.0
152.049011 200.0
152.277328 48.0
152.933823 168.0
152.953506 124.0
153.116013 112.0
153.207153 108.0
153.537445 172.0
153.641052 148.0
154.029236 316.0
154.085434 184.0
154.664108 140.0
154.95137 212.0
154.983582 156.0
155.036118 10024.0
155.276108 80.0
155.293457 132.0
155.429901 32.0
155.482025 52.0
155.6409 212.0
155.683105 180.0
155.715393 60.0
155.784012 148.0
156.039261 1040.0
156.095627 244.0
156.177704 64.0
156.304581 68.0
156.646271 116.0
156.747818 180.0
156.902359 72.0
157.02565 224.0
157.049484 80.0
157.154266 72.0
157.201675 44.0
157.304001 144.0
157.621185 44.0
157.819778 180.0
158.022827 2552.0
158.379242 184.0
158.945831 160.0
159.024841 520.0
159.08136 44.0
159.124039 168.0
159.390289 108.0
159.508408 136.0
159.613998 40.0
159.654236 136.0
159.780014 160.0
160.037674 1076.0
160.137466 48.0
160.223114 92.0
160.346588 52.0
161.022507 3664.0
161.05304 140.0
161.141464 120.0
161.181885 80.0
161.336075 80.0
161.465027 80.0
161.837021 112.0
161.983902 100.0
162.026657 212.0
162.052307 288.0
162.120728 108.0
162.364914 164.0
162.404678 76.0
162.460495 132.0
162.569595 164.0
162.638123 88.0
162.69397 144.0
162.902206 148.0
162.945389 144.0
162.983505 44.0
163.047043 116.0
163.166504 64.0
163.26059 68.0
163.34198 52.0
163.700851 32.0
163.889343 140.0
164.317688 84.0
164.562714 136.0
164.723602 156.0
165.424271 64.0
165.511322 216.0
165.726486 208.0
165.76236 156.0
166.065231 172.0
167.056396 160.0
168.006165 152.0
168.053268 180.0
168.075958 148.0
168.179886 108.0
168.409683 144.0
169.014191 748.0
169.056702 216.0
169.522171 128.0
169.986359 104.0
170.023621 212.0
170.064529 168.0
170.217392 140.0
170.368027 88.0
171.03418 404.0
171.063477 160.0
171.189957 156.0
171.520844 132.0
171.912064 248.0
172.037003 1416.0
172.355988 192.0
173.048508 536.0
174.053116 384.0
174.247726 220.0
174.274002 88.0
174.31604 152.0
174.8078 216.0
175.062424 188.0
175.115814 172.0
175.14743 160.0
175.176407 52.0
175.474197 236.0
176.045853 3572.0
176.318909 60.0
176.45636 72.0
176.734085 52.0
177.032471 116.0
177.05484 356.0
177.185471 172.0
177.245117 164.0
178.017059 136.0
178.065842 172.0
178.516647 116.0
178.676239 204.0
178.918427 180.0
179.0569 136.0
179.091522 80.0
179.579285 112.0
179.859451 88.0
180.185242 256.0
182.076385 184.0
182.621994 200.0
182.73497 144.0
182.77533 136.0
182.804932 108.0
182.928741 168.0
182.952972 216.0
183.029388 4184.0
183.076019 168.0
183.18457 72.0
183.219589 72.0
183.238449 80.0
183.284256 64.0
183.308502 36.0
183.362411 148.0
183.658997 84.0
183.753403 60.0
184.032639 500.0
184.077347 344.0
184.304214 36.0
184.48259 76.0
184.547485 160.0
185.043808 172.0
185.06427 116.0
185.340393 140.0
185.573654 60.0
185.614334 108.0
185.758438 128.0
185.823181 192.0
185.894531 348.0
185.940887 128.0
186.017395 19084.0
186.102737 48.0
186.127182 92.0
186.146194 28.0
186.189636 104.0
186.214081 72.0
186.233093 88.0
186.266907 72.0
186.320023 92.0
186.355347 36.0
186.381668 64.0
186.425995 52.0
186.485779 204.0
186.563675 92.0
186.629868 120.0
186.920914 200.0
186.939972 40.0
187.021652 2888.0
187.460098 76.0
187.637268 112.0
187.754517 224.0
187.903137 112.0
187.924911 112.0
188.033371 5348.0
188.084808 144.0
188.147903 48.0
188.24704 76.0
188.275787 40.0
188.311295 88.0
188.376846 100.0
188.398697 64.0
188.436951 44.0
188.524384 88.0
188.573578 60.0
188.674728 164.0
188.986511 68.0
189.03389 1016.0
189.134293 116.0
189.561539 132.0
190.051224 208.0
190.101776 108.0
190.200577 68.0
190.326859 144.0
190.942429 104.0
191.033203 72.0
191.072159 172.0
191.121246 200.0
191.195541 220.0
192.057922 172.0
192.179306 148.0
193.057724 140.0
193.082611 80.0
193.572449 112.0
194.029633 88.0
194.057541 276.0
194.096176 136.0
194.751129 176.0
195.039551 180.0
195.067902 280.0
195.262527 80.0
195.343201 100.0
196.510513 148.0
197.061813 176.0
197.298111 136.0
198.953812 72.0
199.032425 168.0
199.060501 140.0
199.394806 172.0
199.757538 96.0
200.031403 176.0
200.067093 228.0
200.433228 252.0
200.47551 192.0
200.565689 124.0
200.631302 188.0
200.943588 104.0
200.97847 164.0
201.005661 160.0
201.041779 25680.0
201.085693 176.0
201.15242 124.0
201.183472 56.0
201.2117 68.0
201.314972 84.0
201.448929 60.0
201.714554 68.0
201.793716 68.0
202.044159 3112.0
202.105713 204.0
202.147095 60.0
202.178421 80.0
202.260498 48.0
202.296143 92.0
202.345428 156.0
202.464355 80.0
202.639984 36.0
202.750961 48.0
202.869537 32.0
202.957428 76.0
203.002258 208.0
203.04422 412.0
203.209869 172.0
203.24588 208.0
203.306351 64.0
203.477997 144.0
203.524673 132.0
203.55603 84.0
203.740784 48.0
204.03418 168.0
204.175674 124.0
204.235413 56.0
204.437408 220.0
204.511414 148.0
205.047989 292.0
205.397568 48.0
205.517395 88.0
206.062607 176.0
206.185608 96.0
207.072525 116.0
207.124084 196.0
207.227219 140.0
207.467972 56.0
207.582657 80.0
208.064697 124.0
208.291565 48.0
210.060074 272.0
210.084976 172.0
211.037018 164.0
211.061478 180.0
211.08432 128.0
211.252075 60.0
211.749939 224.0
212.036774 300.0
212.069595 296.0
212.390503 48.0
213.055267 152.0
213.075592 156.0
213.645416 112.0
214.067841 184.0
214.111145 176.0
214.930756 180.0
215.044113 144.0
216.049316 144.0
216.464951 96.0
216.860443 192.0
217.312057 100.0
218.696198 104.0
219.073105 148.0
219.462143 100.0
221.048355 140.0
221.098663 128.0
222.05928 620.0
223.064148 796.0
223.398239 160.0
224.069656 220.0
225.046494 172.0
226.039566 144.0
226.085403 324.0
226.442886 56.0
226.89537 140.0
227.08728 156.0
227.297287 84.0
227.453354 68.0
227.537399 136.0
228.036057 156.0
228.072128 244.0
228.818176 156.0
229.044037 48.0
229.1073 60.0
230.051224 188.0
230.093491 104.0
230.268631 76.0
231.054565 156.0
231.925446 124.0
231.947922 112.0
232.912857 196.0
233.007034 184.0
233.040955 320.0
233.426483 132.0
234.041153 304.0
234.431061 116.0
235.930237 244.0
236.073685 100.0
237.045944 152.0
237.07756 168.0
237.77066 104.0
238.064835 136.0
238.1483 64.0
238.175949 172.0
238.332626 48.0
239.058456 232.0
239.344604 136.0
239.928162 1696.0
240.031769 112.0
240.064743 340.0
240.17363 68.0
240.266174 96.0
240.546997 44.0
240.937073 180.0
241.056931 388.0
241.242065 96.0
241.826691 176.0
241.930954 164.0
241.948792 164.0
242.86467 156.0
242.929291 72.0
243.070908 144.0
244.178482 64.0
247.060699 188.0
247.085739 152.0
247.84343 64.0
248.065948 44.0
248.160004 168.0
248.922485 124.0
249.937805 120.0
250.047653 560.0
250.952042 80.0
250.996185 144.0
251.049591 384.0
251.210663 192.0
251.437836 88.0
251.557785 120.0
252.068878 384.0
252.423477 64.0
252.673355 40.0
253.044876 448.0
254.051483 96.0
254.076035 108.0
254.537079 128.0
255.344284 160.0
256.064575 252.0
256.930084 124.0
257.313599 140.0
258.195526 196.0
258.947235 372.0
259.066162 232.0
259.598206 156.0
259.928833 116.0
260.021698 196.0
260.921112 356.0
261.037201 200.0
261.101196 44.0
261.178375 144.0
261.950928 112.0
262.041595 272.0
262.102356 172.0
262.556885 128.0
262.946716 312.0
264.06839 112.0
264.226898 228.0
264.323944 64.0
264.935883 112.0
265.067719 452.0
265.574493 92.0
266.054596 164.0
266.080414 204.0
266.814972 64.0
267.051666 380.0
267.925507 1436.0
267.996429 144.0
268.056763 836.0
268.452789 84.0
268.929077 244.0
269.053436 336.0
269.896118 212.0
269.932068 144.0
270.051575 268.0
270.507904 56.0
270.586487 44.0
270.793518 140.0
270.92923 296.0
271.051575 136.0
272.373749 92.0
272.817383 76.0
274.951813 92.0
275.955872 168.0
276.065887 212.0
276.930878 172.0
277.966187 156.0
278.050293 376.0
278.169067 176.0
278.212219 100.0
278.255402 80.0
278.361633 68.0
278.966339 96.0
279.051941 448.0
279.894592 120.0
280.062866 640.0
280.137726 32.0
280.32431 116.0
281.063049 156.0
281.852631 56.0
281.946198 148.0
282.07251 404.0
282.84256 72.0
282.892761 60.0
282.926239 120.0
283.081482 272.0
283.12381 108.0
284.062897 1332.0
284.122681 184.0
284.337433 116.0
284.923798 256.0
285.069855 100.0
285.923767 76.0
286.196442 52.0
286.942444 1092.0
287.925873 492.0
288.041199 180.0
288.068237 192.0
288.608612 72.0
289.116394 104.0
292.060059 164.0
292.616089 72.0
293.065491 300.0
293.099731 92.0
293.525818 152.0
294.034149 112.0
294.070312 652.0
294.211639 100.0
294.782043 144.0
295.046143 460.0
295.073456 408.0
295.098267 172.0
295.472717 52.0
295.719116 172.0
295.916809 1364.0
296.055023 984.0
296.916718 480.0
296.976562 224.0
297.055573 348.0
298.060516 228.0
298.236694 192.0
298.384491 84.0
299.440918 104.0
299.954712 148.0
300.288788 92.0
300.568207 120.0
300.930634 140.0
301.966461 1812.0
302.102234 52.0
302.562531 72.0
302.881134 160.0
302.953522 1564.0
303.335052 184.0
303.95105 280.0
305.362854 96.0
305.752502 56.0
308.029358 232.0
308.060791 52.0
308.221497 92.0
309.421204 120.0
310.071564 948.0
311.071564 324.0
311.609741 88.0
311.634308 84.0
312.084229 80.0
312.291718 88.0
312.770233 56.0
312.914581 68.0
316.636475 116.0
319.735901 72.0
322.064117 92.0
322.249878 148.0
324.189301 52.0
324.827515 152.0
325.954865 112.0
326.972565 160.0
327.942413 1132.0
328.94989 224.0
329.684631 104.0
329.955719 148.0
331.954437 204.0
334.588715 100.0
334.989319 192.0
337.942841 100.0
337.9758 132.0
338.975433 120.0
339.954559 116.0
340.710938 144.0
340.846893 112.0
348.53656 108.0
349.976166 120.0
350.791962 120.0
351.962677 292.0
352.972473 132.0
353.619568 60.0
353.995422 160.0
354.023895 96.0
354.271088 228.0
354.784515 96.0
354.960754 128.0
355.001984 180.0
358.9505 168.0
359.218292 176.0
359.949707 176.0
362.754028 36.0
365.953522 104.0
366.971008 344.0
367.958405 184.0
368.978485 196.0
370.97168 280.0
371.559814 88.0
374.454346 52.0
374.851166 252.0
375.336853 92.0
377.971344 156.0
378.954193 168.0
379.924011 120.0
379.953552 260.0
381.986816 128.0
382.640594 76.0
386.845215 68.0
388.954163 116.0
391.293243 100.0
392.952515 116.0
393.96283 320.0
394.968628 892.0
395.964111 304.0
396.99115 160.0
401.078308 44.0
403.049835 148.0
403.137756 48.0
403.965393 100.0
404.93808 136.0
405.953766 168.0
406.722321 40.0
408.985321 96.0
409.81897 80.0
409.985229 964.0
410.500183 100.0
410.988281 256.0
411.994629 156.0
413.574707 140.0
416.766357 92.0
420.802734 188.0
420.949738 68.0
421.509369 60.0
421.936096 268.0
421.96521 244.0
423.284698 92.0
423.870453 92.0
423.97702 108.0
424.030304 132.0
430.126007 112.0
430.745422 72.0
434.379913 44.0
435.949341 44.0
436.256927 128.0
437.2677 200.0
437.981354 348.0
438.254639 124.0
438.992462 136.0
446.013702 28.0
450.569153 152.0
465.87674 136.0
466.981445 48.0
513.053467 104.0
543.74115 92.0
558.487183 56.0
560.2948 80.0
582.320129 120.0
584.00238 76.0
585.711121 40.0
591.805847 48.0
597.387146 96.0
597.849365 68.0
633.301819 92.0
652.254517 104.0
677.601929 92.0
689.952209 172.0
707.508362 104.0
708.43512 88.0
735.829102 48.0
763.379761 96.0
824.074463 148.0
839.677246 52.0
849.35968 196.0
887.256714 144.0
895.147339 188.0
899.583252 64.0
902.271606 128.0
927.901733 164.0
935.392334 168.0
946.644836 144.0
946.853088 224.0
958.895081 176.0
974.284424 164.0
1005.033142 180.0
1026.824219 128.0
1039.998291 188.0
1052.229492 188.0
1066.617676 80.0
1067.957153 220.0
1072.469482 164.0
1072.880127 104.0
1076.20105 164.0
1090.613647 216.0
1101.413452 196.0
1112.545166 168.0
1113.54126 188.0
1126.189575 260.0
1140.071655 180.0
1154.390381 244.0
1163.564941 108.0
1169.220459 156.0
1172.29187 112.0
1182.584106 208.0
1183.583618 100.0
1184.494507 136.0
1213.078857 156.0
1214.202148 164.0
1218.457275 76.0
1229.270752 180.0
1231.071777 52.0
1237.182983 92.0
1238.303345 140.0
1241.884888 136.0
1243.68811 172.0
1244.116333 184.0
1248.184448 132.0
1255.035767 88.0
1255.458862 156.0
1255.980835 172.0
1259.397095 148.0
1262.683716 144.0
1263.652832 72.0
1267.235474 176.0
1270.049927 156.0
1282.892334 108.0
1283.655273 124.0
1283.819336 148.0
1286.409302 120.0
1287.0448 84.0
1287.644653 120.0
1288.387451 164.0
1302.744141 164.0
1304.957764 164.0
1305.353149 192.0
1311.523193 160.0
1312.748901 84.0
1315.288452 128.0
1316.682007 160.0
1319.391724 188.0
1321.337158 160.0
1324.015503 144.0
1326.768921 184.0
1335.133911 172.0
1335.206543 212.0
1339.03479 72.0
1343.546875 52.0
1347.072998 228.0
1347.496704 180.0
1349.638306 208.0
1366.317017 52.0
1367.192627 164.0
1368.642822 200.0
1369.828491 108.0
1371.781372 228.0
1374.687378 40.0
1375.373779 148.0
1375.61731 188.0
1378.29834 116.0
1384.112427 120.0
1385.69751 148.0
1393.911377 104.0
1402.045288 164.0
1409.14917 148.0
1411.384033 220.0
1412.90979 160.0
1413.725464 144.0
1414.930542 220.0
1417.30481 104.0
1417.55957 148.0
1418.923828 136.0
1419.298706 148.0
1419.411133 196.0
1421.271484 124.0
1423.320679 128.0
1423.681152 124.0
1424.905518 172.0
1424.980591 132.0
1426.0177 192.0
1427.859619 180.0
1432.32312 180.0
1434.033447 64.0
1437.253662 156.0
1438.536743 128.0
1439.608887 84.0
1447.117554 180.0
1449.465698 52.0
1452.081055 60.0
1456.012451 144.0
1456.369507 132.0
1459.097534 160.0
1463.792236 120.0
1464.881348 184.0
1465.810913 132.0
1469.340454 176.0
1473.219482 200.0
1474.892944 340.0
1476.750977 116.0
1476.850464 68.0
1481.887695 128.0
1482.178833 244.0
1482.439331 72.0
1482.79187 180.0
1486.82605 184.0
1486.887451 204.0
1487.808594 156.0
1489.912842 124.0
1492.149292 128.0
1494.064331 136.0
1494.241333 196.0
1496.473267 100.0
1501.451294 120.0
1501.651855 104.0
1503.356812 164.0
1504.375732 112.0
1504.44519 164.0
1505.263672 228.0
