>compound MLS001075556-01!
>formula C24H29N3O5
>ionization [M+H]+
>parentmass 440.217285
#inchi InChI=1S/C24H29N3O5/c1-31-20-7-6-16(11-21(20)32-2)12-25-22(28)8-9-23(29)26-13-17-10-18(15-26)19-4-3-5-24(30)27(19)14-17/h3-7,11,17-18H,8-10,12-15H2,1-2H3,(H,25,28)/t17-,18-/m1/s1
#inchikey CANIEVJJEIJTGQ
#Ion_Source LC-ESI
#Instrument qTof
#Compound_Source NIH Natural Product Library
#PI Dorrestein
#Data_Collector VVP/LMS
#Scan -1
#Precursor_MZ 440.219
#ExactMass 439.211
#Charge 1
#CAS_Number N/A
#Pubmed_ID N/A
#Smiles COc1ccc(CNC(=O)CCC(=O)N2C[C@H]3C[C@H](C2)c4cccc(=O)n4C3)cc1OC
#INCHI_AUX N/A
#Library_Class 1
#SpectrumID CCMSLIB00000079700
#IonMode Positive
#UpdateWorkflowName UPDATE-SINGLE-ANNOTATED-GOLD
#LibraryQualityString Gold
#TaskID b1d8e8f6646f4e71acdff9ca3d919d08
##Scan# 1566
#SpectrumFile p1-A10_GA10_01_17882.mzXML
#LibraryName NIH_Natural_Products_Library.mgf
#MQScore -1
#Organism NIH_Natural_Products_Library
#TIC_Query 0
#RT_Query -1
#MZErrorPPM -1
#SharedPeaks 0
#MassDiff 0
#LibMZ -1
#SpecMZ 440.219
#SpecCharge 0
#internalFilename spec-00000.mgf

>collision 10
95.075768 96.0
95.130112 208.0
95.167 152.0
95.474014 136.0
95.717255 168.0
95.740623 112.0
95.828278 144.0
95.992004 180.0
96.038811 176.0
96.212479 120.0
96.226143 228.0
96.343315 184.0
96.532364 204.0
96.562241 208.0
96.765739 236.0
96.883247 152.0
96.924393 168.0
97.048439 148.0
97.232262 160.0
97.332375 144.0
97.357903 164.0
97.395218 140.0
97.648758 184.0
97.731384 60.0
97.867188 112.0
97.942024 224.0
98.058266 192.0
98.190361 80.0
98.24559 180.0
98.415314 192.0
98.431114 64.0
98.523941 112.0
98.539742 140.0
98.583214 164.0
98.624718 156.0
98.796745 76.0
98.8106 176.0
98.984772 184.0
99.038239 128.0
99.073898 172.0
99.093712 200.0
99.111542 168.0
99.383179 164.0
99.480423 168.0
99.549911 160.0
99.706848 208.0
99.728714 116.0
99.836067 148.0
99.933533 156.0
100.001198 140.0
100.136581 216.0
100.808876 64.0
100.825394 124.0
100.852844 180.0
100.884827 176.0
101.21244 156.0
101.431305 204.0
101.562202 184.0
101.593727 144.0
101.774353 220.0
101.836609 244.0
101.85067 64.0
101.947105 140.0
101.973228 180.0
102.122009 124.0
102.260834 156.0
102.293037 160.0
102.323235 72.0
102.446075 116.0
102.821106 72.0
103.134155 56.0
103.269623 188.0
103.352562 184.0
103.374825 164.0
103.887421 144.0
104.049767 180.0
104.733147 188.0
104.904182 188.0
105.034561 304.0
105.208138 88.0
105.226509 172.0
105.326569 144.0
105.667961 140.0
105.794838 144.0
105.835785 120.0
105.923851 148.0
105.958672 56.0
106.043373 168.0
106.184151 216.0
106.276459 120.0
106.555679 172.0
106.609108 100.0
106.697487 172.0
106.977264 144.0
107.048828 4776.0
107.072464 220.0
107.123466 200.0
107.158493 176.0
107.288322 192.0
107.620483 36.0
107.684502 64.0
107.70929 152.0
107.746468 48.0
107.85186 228.0
108.055847 928.0
108.147629 132.0
108.184891 152.0
108.211594 200.0
108.45417 132.0
108.597229 60.0
108.613823 168.0
108.790199 72.0
108.817192 44.0
108.885712 128.0
108.98127 208.0
109.064644 200.0
109.101807 184.0
109.195381 168.0
109.272339 168.0
109.520058 92.0
109.655487 172.0
109.726357 128.0
109.907814 132.0
110.052803 200.0
110.301208 172.0
110.327606 156.0
110.400787 164.0
110.419609 100.0
110.622559 128.0
110.733536 168.0
111.083565 156.0
111.295532 100.0
111.335426 112.0
111.390038 68.0
111.492989 152.0
111.522408 228.0
111.90316 188.0
112.050583 176.0
112.122231 224.0
112.158058 172.0
112.193222 240.0
112.453339 136.0
112.535667 104.0
112.689842 120.0
112.850471 168.0
113.01545 124.0
113.123383 136.0
113.261017 216.0
113.5429 216.0
113.566231 168.0
113.653206 128.0
113.670181 160.0
113.729599 200.0
113.774178 96.0
113.806023 180.0
114.065201 200.0
114.128983 200.0
114.182144 164.0
114.256592 176.0
114.671814 64.0
114.816597 140.0
115.023743 212.0
115.045082 192.0
115.207382 176.0
115.466011 36.0
115.543015 164.0
115.583664 172.0
115.622185 128.0
115.804161 152.0
116.095627 244.0
116.149246 152.0
116.168549 92.0
116.398193 160.0
116.432549 128.0
116.469063 60.0
116.554993 148.0
116.705452 112.0
116.767815 164.0
116.785019 88.0
116.810112 120.0
116.980827 156.0
117.060486 180.0
117.097092 240.0
117.142326 120.0
117.29747 112.0
117.370773 164.0
117.68795 212.0
117.806732 144.0
117.828331 204.0
118.043518 292.0
118.087723 56.0
118.198051 136.0
118.258644 204.0
118.388542 160.0
118.683235 136.0
118.769981 168.0
118.887138 144.0
118.969612 148.0
119.051003 124.0
119.071663 176.0
119.291115 100.0
119.336769 180.0
119.434631 216.0
119.630463 172.0
119.92234 196.0
120.092407 140.0
120.716995 148.0
121.067581 212.0
121.227043 224.0
121.393639 128.0
121.861168 152.0
121.955658 132.0
121.98423 148.0
122.01545 100.0
122.063377 132.0
122.14035 244.0
122.43087 92.0
122.77906 80.0
122.966583 200.0
123.070229 168.0
123.618515 116.0
123.899704 32.0
124.052612 148.0
124.153854 248.0
124.627411 116.0
125.096664 204.0
125.170135 184.0
125.283722 156.0
125.448624 184.0
125.743042 144.0
125.827866 172.0
126.140617 216.0
126.469421 68.0
126.646301 84.0
126.74263 152.0
126.856926 112.0
126.948853 196.0
127.307899 140.0
127.411583 196.0
127.512337 172.0
127.537056 100.0
127.57077 164.0
127.737175 184.0
127.833916 280.0
127.977974 180.0
128.072083 540.0
128.207504 192.0
128.322693 208.0
128.582092 56.0
128.602402 116.0
128.737869 144.0
128.755936 156.0
129.011246 188.0
129.070038 144.0
129.101685 64.0
129.699387 156.0
129.717529 144.0
129.735657 188.0
129.851303 96.0
130.062622 168.0
130.364365 128.0
130.427994 52.0
130.466644 136.0
130.675873 188.0
130.99913 204.0
131.015076 92.0
131.065201 108.0
131.087997 200.0
131.131287 204.0
131.455124 248.0
131.473373 168.0
131.600052 284.0
131.665146 156.0
131.692551 32.0
132.0811 180.0
132.355728 220.0
132.38092 52.0
132.429016 180.0
132.784256 92.0
132.866821 132.0
133.053131 204.0
133.087158 164.0
133.218063 128.0
133.239182 84.0
133.31456 152.0
133.342133 176.0
133.360519 116.0
133.615768 172.0
133.664078 180.0
133.786072 172.0
133.963379 140.0
133.98642 188.0
134.062454 152.0
134.138504 172.0
134.159256 148.0
134.28183 128.0
134.482193 108.0
134.556061 152.0
134.590683 164.0
134.787018 168.0
134.953445 136.0
135.018188 76.0
135.043671 3468.0
135.217148 72.0
135.235657 144.0
135.74765 172.0
135.974991 204.0
136.002838 116.0
136.051193 2268.0
136.135178 32.0
136.223434 200.0
136.288483 100.0
136.402359 116.0
136.544174 100.0
136.60466 100.0
136.637222 48.0
136.681427 140.0
136.935165 112.0
137.05397 112.0
137.170502 232.0
137.396698 64.0
137.431702 148.0
137.487701 252.0
138.064728 204.0
138.436798 144.0
138.511749 52.0
138.964188 104.0
138.980621 260.0
139.229431 180.0
139.633652 140.0
140.561813 164.0
140.646774 108.0
140.701065 128.0
140.776627 108.0
140.982147 144.0
141.232742 112.0
141.358139 200.0
141.500153 204.0
141.772537 144.0
142.066116 156.0
142.246628 148.0
142.479614 160.0
143.581665 176.0
143.770126 128.0
143.889481 144.0
144.080536 200.0
144.317139 180.0
144.415176 120.0
144.757401 136.0
144.965805 136.0
145.373459 212.0
145.452667 144.0
145.536682 188.0
145.606323 148.0
145.635147 160.0
145.704803 128.0
145.745651 156.0
146.060471 768.0
146.104507 168.0
146.337326 148.0
146.60228 128.0
146.804779 196.0
147.062042 340.0
147.106369 148.0
147.186035 132.0
147.338196 140.0
147.558121 232.0
147.93309 132.0
148.052536 156.0
148.076141 1912.0
148.119537 64.0
148.209183 72.0
148.410355 60.0
148.507355 140.0
148.587402 116.0
148.671539 160.0
148.95639 44.0
148.97583 228.0
149.090073 192.0
149.201828 172.0
149.364746 56.0
149.44017 48.0
149.661652 56.0
149.732269 136.0
149.763931 184.0
149.854065 164.0
149.893051 244.0
149.963715 184.0
150.173401 216.0
150.294922 152.0
150.414001 164.0
150.524811 124.0
150.546799 276.0
150.571213 100.0
150.606842 188.0
150.68602 96.0
150.708008 164.0
150.769089 124.0
150.838562 152.0
150.879089 76.0
150.896194 264.0
150.912354 248.0
150.93103 180.0
150.963135 212.0
150.980774 136.0
150.99472 164.0
151.014587 96.0
151.041565 372.0
151.075912 91180.0
151.147049 76.0
151.209152 196.0
151.239807 112.0
151.258057 84.0
151.307205 156.0
151.3255 68.0
151.350281 136.0
151.37384 76.0
151.412216 104.0
151.456589 48.0
151.477005 228.0
151.49823 40.0
151.515381 88.0
151.546799 136.0
151.574173 44.0
151.628098 96.0
151.717178 76.0
151.803665 104.0
151.842789 208.0
151.874405 124.0
151.912506 68.0
151.932129 156.0
151.96759 124.0
151.982101 88.0
152.047455 44.0
152.078583 10124.0
152.140732 64.0
152.186844 92.0
152.256516 52.0
152.379562 208.0
152.434006 88.0
152.45166 88.0
152.494446 60.0
152.523941 48.0
152.605057 72.0
152.673904 68.0
152.732941 120.0
152.79689 104.0
152.826416 64.0
152.8461 136.0
152.883011 88.0
152.912537 96.0
152.937149 108.0
152.960236 180.0
152.996231 112.0
153.030289 48.0
153.083801 408.0
153.1203 72.0
153.15506 152.0
153.174896 184.0
153.222015 152.0
153.262756 92.0
153.270523 108.0
153.318893 108.0
153.377792 156.0
153.548172 100.0
153.614761 48.0
153.745529 112.0
153.839325 92.0
153.888702 76.0
153.943024 96.0
153.978622 96.0
154.026993 164.0
154.167816 36.0
154.29248 220.0
154.447189 68.0
154.521393 216.0
154.664917 104.0
154.724335 64.0
154.880341 44.0
155.19754 48.0
155.400925 116.0
155.867706 204.0
156.452179 176.0
156.509445 68.0
156.970413 84.0
157.261749 72.0
157.432053 44.0
157.477005 88.0
157.56694 68.0
157.654388 128.0
157.899384 40.0
158.069489 192.0
158.718246 144.0
159.071976 204.0
159.169891 80.0
159.303009 44.0
159.569382 80.0
159.773102 92.0
160.07608 2176.0
160.117935 100.0
160.150681 128.0
160.218689 240.0
160.27916 76.0
160.448013 144.0
161.028381 124.0
161.082169 188.0
161.11174 188.0
161.174896 84.0
161.318954 100.0
161.351807 68.0
161.379623 104.0
161.452957 184.0
161.518707 84.0
161.590851 108.0
161.622437 136.0
161.83252 40.0
161.921143 224.0
161.999664 120.0
162.092209 332.0
162.189697 72.0
162.240402 156.0
162.557434 132.0
162.798019 160.0
163.090759 124.0
163.156845 32.0
163.319595 88.0
163.540955 40.0
163.996857 128.0
164.063141 84.0
164.864578 180.0
165.289062 52.0
165.557556 160.0
165.780716 216.0
166.126846 112.0
166.201248 120.0
166.242294 92.0
166.273087 64.0
166.316727 104.0
166.470764 204.0
166.902451 144.0
166.943588 140.0
167.566483 172.0
168.198288 124.0
169.237518 88.0
169.356644 184.0
169.501724 108.0
169.519852 152.0
169.566498 144.0
170.004776 224.0
170.664551 60.0
171.039169 140.0
171.28653 48.0
172.032303 124.0
172.075623 148.0
172.429321 124.0
172.607086 124.0
172.936188 80.0
173.085922 160.0
173.109497 128.0
173.416 164.0
173.911713 80.0
173.930084 148.0
174.089554 880.0
174.250458 144.0
175.007919 96.0
175.098816 176.0
175.289749 168.0
175.701065 48.0
175.97818 204.0
176.789658 216.0
176.890228 212.0
177.319305 92.0
178.186996 140.0
178.378342 140.0
178.692139 64.0
179.23262 176.0
179.54451 168.0
179.70723 136.0
180.059586 100.0
181.574341 144.0
181.6548 144.0
183.410675 228.0
184.552597 120.0
184.728378 208.0
185.066666 168.0
186.010086 128.0
186.091537 196.0
186.789948 128.0
187.879578 144.0
188.28627 76.0
188.52121 108.0
188.920395 136.0
188.969635 96.0
189.10228 1016.0
189.350128 132.0
190.107727 372.0
190.5186 128.0
190.587051 244.0
190.809906 48.0
191.117798 8520.0
191.214249 52.0
191.262573 216.0
191.294083 76.0
191.329865 32.0
191.481308 116.0
191.50058 56.0
191.530884 52.0
191.555679 56.0
191.784378 128.0
191.803665 44.0
192.120285 1008.0
192.178711 40.0
192.25322 176.0
192.333252 32.0
192.468521 232.0
192.543091 64.0
192.609375 84.0
192.802765 136.0
192.975067 228.0
193.076462 140.0
193.127625 312.0
193.1539 120.0
194.165573 164.0
194.986588 100.0
195.3703 68.0
195.723755 80.0
196.030167 172.0
196.069183 136.0
196.540436 124.0
197.02623 156.0
197.761642 196.0
198.330231 92.0
198.431137 184.0
198.529282 184.0
198.588181 136.0
198.981018 136.0
199.933899 116.0
200.060562 80.0
201.560974 148.0
202.083557 376.0
202.36142 136.0
202.454865 96.0
203.112396 164.0
203.143585 184.0
203.64032 40.0
204.043808 112.0
204.931778 124.0
205.04007 156.0
205.159775 48.0
206.201614 100.0
206.361694 152.0
206.859467 192.0
207.567108 212.0
208.112274 148.0
209.13855 208.0
209.498093 148.0
210.155792 228.0
210.380905 124.0
211.056946 172.0
211.077194 128.0
211.626938 144.0
211.803589 112.0
211.968735 64.0
212.383301 124.0
212.510941 124.0
212.664734 28.0
213.056732 164.0
213.984467 144.0
214.852936 92.0
215.112656 284.0
215.168121 188.0
215.331635 224.0
215.579956 136.0
215.61795 76.0
215.781631 164.0
215.892746 224.0
217.627426 180.0
217.838882 100.0
218.103333 164.0
218.335602 84.0
218.765167 48.0
219.640335 44.0
219.817352 60.0
221.076706 180.0
221.475861 164.0
221.579544 48.0
222.116104 152.0
222.647369 200.0
222.680038 80.0
222.81073 140.0
223.589767 136.0
223.952988 108.0
224.373154 156.0
224.578903 72.0
225.28334 164.0
225.480545 156.0
226.422928 192.0
226.740494 180.0
227.121231 324.0
227.56839 44.0
228.124359 148.0
228.175278 84.0
228.319611 60.0
228.470001 208.0
228.494064 88.0
229.147369 44.0
229.702057 120.0
229.955505 200.0
230.067184 68.0
230.134598 172.0
230.562546 164.0
231.942673 148.0
232.400589 224.0
233.001724 180.0
233.086792 160.0
233.351227 124.0
233.46373 60.0
233.987076 40.0
235.011124 72.0
235.594238 144.0
235.716446 164.0
236.300446 84.0
236.407532 148.0
237.283539 144.0
238.087463 68.0
238.449982 188.0
238.858612 208.0
241.981918 140.0
242.0784 200.0
242.115067 32.0
242.232758 144.0
242.830963 104.0
243.333649 52.0
243.50444 156.0
244.116653 176.0
244.385162 148.0
244.477493 128.0
244.600143 128.0
244.738968 72.0
244.865997 136.0
244.963196 64.0
245.039627 172.0
245.082565 512.0
245.128601 20832.0
245.221649 76.0
245.264832 40.0
245.277924 56.0
245.322174 60.0
245.355179 56.0
245.364349 44.0
245.433273 116.0
245.525177 104.0
245.586594 44.0
245.624634 104.0
245.736328 88.0
245.761292 40.0
245.811218 120.0
245.836182 36.0
245.882996 92.0
246.062622 80.0
246.131683 4536.0
246.345093 52.0
246.401321 72.0
246.449753 80.0
246.698212 124.0
246.729477 40.0
246.888931 80.0
246.948349 60.0
247.073471 124.0
247.13327 848.0
247.339462 48.0
247.383286 104.0
247.539825 72.0
247.623642 84.0
247.721481 132.0
247.81546 120.0
247.897812 100.0
247.956467 64.0
247.98468 96.0
248.00975 80.0
248.401703 88.0
248.593079 228.0
248.721756 88.0
248.903839 40.0
249.246216 64.0
250.070129 116.0
251.179214 120.0
251.390594 284.0
251.425308 136.0
251.579971 212.0
252.297073 104.0
252.967712 128.0
253.518814 140.0
253.607544 172.0
255.112793 928.0
256.01889 40.0
256.334259 120.0
257.12793 132.0
257.313446 120.0
258.44165 112.0
260.262207 124.0
261.10733 200.0
261.425812 120.0
263.017914 144.0
263.053436 168.0
263.169647 40.0
266.951019 128.0
268.383728 112.0
269.95108 204.0
270.317444 84.0
270.45163 104.0
271.109924 120.0
271.17218 44.0
271.752594 128.0
271.867432 96.0
271.913391 104.0
272.113617 140.0
272.156281 112.0
272.198975 136.0
272.241669 180.0
272.330353 204.0
272.376312 156.0
272.428894 116.0
272.59317 172.0
272.701599 116.0
272.833099 44.0
272.861237 148.0
272.901215 204.0
272.993134 184.0
273.036102 140.0
273.123047 27544.0
273.182983 68.0
273.227966 56.0
273.329712 88.0
273.365479 60.0
273.451477 140.0
273.569153 168.0
273.612762 100.0
273.71814 36.0
273.970184 60.0
274.02774 196.0
274.081635 308.0
274.125946 5412.0
274.184479 68.0
274.219849 168.0
274.311157 96.0
274.433136 36.0
274.5914 132.0
274.934509 40.0
275.053314 60.0
275.124268 600.0
275.211792 84.0
275.41983 48.0
275.532135 76.0
275.708984 176.0
275.958466 36.0
275.984924 112.0
276.031219 112.0
276.097351 100.0
276.130432 140.0
276.196594 116.0
276.471191 108.0
276.577087 88.0
276.908173 60.0
277.459137 72.0
277.783447 56.0
279.008575 108.0
281.106903 44.0
282.252625 108.0
285.12265 292.0
285.686981 120.0
286.131195 144.0
287.135315 140.0
288.489288 84.0
289.192841 76.0
289.965057 172.0
290.400421 48.0
292.246979 136.0
293.592468 72.0
302.093414 144.0
302.155701 144.0
302.768341 112.0
302.847992 132.0
314.597351 80.0
318.801514 60.0
320.381287 108.0
324.383606 116.0
342.49884 128.0
342.999939 36.0
350.0354 132.0
352.654266 84.0
354.326904 52.0
356.623413 52.0
359.036682 60.0
359.161133 80.0
362.469849 100.0
362.844299 76.0
362.878418 52.0
368.045288 208.0
368.201843 88.0
369.532074 76.0
380.201965 112.0
383.398651 64.0
392.76123 52.0
395.198669 132.0
395.562744 68.0
396.188416 36.0
396.434082 116.0
403.071472 60.0
403.427155 64.0
404.839539 28.0
407.217682 192.0
408.705078 92.0
415.659027 112.0
417.718811 40.0
423.190063 676.0
423.494446 48.0
424.092651 128.0
424.191376 136.0
426.7034 132.0
426.950104 124.0
434.152283 36.0
437.197327 68.0
440.217285 164.0
441.561096 112.0
454.17984 36.0
462.462799 56.0
474.229797 100.0
482.79776 68.0
544.099243 36.0
549.810486 68.0
550.225891 60.0
550.781555 76.0
568.645447 76.0
592.904175 132.0
605.752502 48.0
606.021973 168.0
670.136719 80.0
717.697632 120.0
726.253967 60.0
745.506409 168.0
750.432434 96.0
812.488708 104.0
812.562439 268.0
812.675903 60.0
848.407532 64.0
863.45929 104.0
870.514954 204.0
872.289246 164.0
872.4245 204.0
901.072998 184.0
924.590088 76.0
950.519714 156.0
963.65918 144.0
966.484741 80.0
989.4823 172.0
995.960022 136.0
999.367249 108.0
1002.528198 236.0
1013.288696 196.0
1014.004761 68.0
1017.220459 176.0
1021.560608 120.0
1022.139526 220.0
1026.713257 140.0
1029.770264 224.0
1035.46228 168.0
1037.05127 60.0
1043.470337 64.0
1051.212524 120.0
1053.071777 176.0
1053.691895 216.0
1056.103027 200.0
1064.28125 40.0
1066.665405 124.0
1068.154541 112.0
1073.553711 160.0
1078.286743 240.0
1099.565552 124.0
1100.106812 108.0
1101.830322 52.0
1102.960327 156.0
1103.56189 232.0
1108.155151 216.0
1113.129761 52.0
1115.415161 60.0
1122.292114 144.0
1124.927368 132.0
1128.735474 200.0
1129.631592 124.0
1132.221924 136.0
1135.203979 184.0
1137.391113 120.0
1137.498413 220.0
1142.693115 120.0
1143.507324 88.0
1146.382935 124.0
1147.528809 96.0
1152.834229 152.0
1154.260498 188.0
1155.315552 124.0
1157.704834 156.0
1160.096436 224.0
1163.447632 172.0
1175.665161 164.0
1176.484253 128.0
1183.272705 112.0
1186.677734 100.0
1187.603516 236.0
1192.533203 188.0
1195.979126 168.0
1196.03418 188.0
1208.151245 164.0
1216.265625 228.0
1226.943481 168.0
1229.112549 148.0
1229.342773 228.0
1230.466553 112.0
1233.078979 200.0
1234.896729 148.0
1238.137085 172.0
1238.928589 144.0
1240.295044 148.0
1241.837524 184.0
1248.178833 92.0
1249.852905 196.0
1251.72522 160.0
1254.895874 124.0
1257.858887 140.0
1258.233032 108.0
1260.728394 160.0
1263.229126 100.0
1269.787964 212.0
1271.313232 152.0
1274.743042 88.0
1276.825928 156.0
1289.044556 152.0
1289.216064 180.0
1289.5448 160.0
1291.625488 144.0
1294.667114 136.0
1296.895264 152.0
1297.361206 64.0
1300.718262 104.0
1303.612671 128.0
1304.345703 136.0
1306.495728 112.0
1306.869873 244.0
1310.830078 132.0
1311.493164 104.0
1311.788696 120.0
1312.084229 48.0
1314.565308 148.0
1316.312256 140.0
1318.999756 136.0
1319.513062 144.0
1324.223633 196.0
1326.382812 172.0
1330.365234 176.0
1330.583008 204.0
1332.725464 172.0
1333.43042 132.0
1336.666504 124.0
1336.950195 148.0
1344.047729 152.0
1347.07019 120.0
1348.962769 80.0
1350.227661 36.0
1350.571411 104.0
1350.893188 176.0
1351.16394 156.0
1351.939453 136.0
1352.085815 148.0
1354.01123 216.0
1354.20166 132.0
1355.828125 80.0
1355.894043 144.0
1356.876221 136.0
1357.17688 152.0
1358.177368 212.0
1360.280151 48.0
1366.857788 40.0
1367.630493 96.0
1372.964478 160.0
1374.565186 132.0
1375.281128 164.0
1375.576294 108.0
1378.050293 256.0
1380.437744 140.0
1381.014526 200.0
1382.397949 216.0
1382.723633 212.0
1383.478638 64.0
1388.887939 116.0
1390.950684 52.0
1391.440674 124.0
1394.055176 100.0
1394.144287 68.0
1401.347046 232.0
1401.488647 172.0
1402.874756 196.0
1403.240112 124.0
1403.620361 160.0
1404.157227 132.0
1404.806152 96.0
1405.380615 248.0
1406.470215 180.0
1407.73938 84.0
1410.062622 128.0
1413.921631 208.0
1416.751953 132.0
1423.539673 96.0
1425.860962 144.0
1427.747925 96.0
1427.950928 184.0
1433.875977 172.0
1435.307617 200.0
1435.594849 140.0
1436.100098 164.0
1438.786377 236.0
1439.133667 180.0
1439.59436 184.0
1444.015259 144.0
1444.264893 64.0
1446.452026 212.0
1446.799805 148.0
1448.238525 196.0
1448.314209 208.0
1450.648071 160.0
1451.792969 104.0
1452.824463 180.0
1454.349609 188.0
1455.814941 192.0
1457.539185 112.0
1460.861572 216.0
1465.72644 104.0
1467.609131 160.0
1467.97522 232.0
1468.890381 176.0
1473.592896 148.0
1474.700928 156.0
1475.365967 200.0
1476.474609 96.0
1476.864624 160.0
1478.922852 164.0
1481.802124 40.0
1483.603027 176.0
1484.530762 100.0
1485.136597 156.0
1485.397461 148.0
1486.763184 140.0
1493.87793 224.0
1494.339478 204.0
1494.778076 172.0
1495.278198 124.0
1495.60144 216.0
1496.302002 204.0
1496.717773 200.0
1498.294189 76.0
1500.192383 112.0
1501.117554 156.0
1501.273193 216.0
1501.827026 156.0
1504.211304 160.0
