>compound MLS000877016-01!5,7-dihydroxy-2-phenyl-2,3-dihydrochromen-4-one
>formula C15H12O4
>ionization [M+H]+
>parentmass 257.081
#inchi InChI=1S/C15H12O4/c16-10-6-11(17)15-12(18)8-13(19-14(15)7-10)9-4-2-1-3-5-9/h1-7,13,16-17H,8H2
#inchikey URFCJEUYXNAHFI
#Ion_Source LC-ESI
#Instrument qTof
#Compound_Source NIH Natural Product Library
#PI Dorrestein
#Data_Collector VVP/LMS
#Scan -1
#Precursor_MZ 257.081
#ExactMass 256.074
#Charge 1
#CAS_Number N/A
#Pubmed_ID N/A
#Smiles Oc1cc(O)c2C(=O)CC(Oc2c1)c3ccccc3
#INCHI_AUX N/A
#Library_Class 1
#SpectrumID CCMSLIB00000080587
#IonMode Positive
#UpdateWorkflowName UPDATE-SINGLE-ANNOTATED-GOLD
#LibraryQualityString Gold
#TaskID b1d8e8f6646f4e71acdff9ca3d919d08
##Scan# 2180
#SpectrumFile p2-A11_GA11_01_17987.mzXML
#LibraryName NIH_Natural_Products_Library.mgf
#MQScore -1
#Organism NIH_Natural_Products_Library
#TIC_Query 0
#RT_Query -1
#MZErrorPPM -1
#SharedPeaks 0
#MassDiff 0
#LibMZ -1
#SpecMZ 257.081
#SpecCharge 0
#internalFilename spec-00000.mgf

>collision 10
95.049644 132.0
95.094276 140.0
95.305954 84.0
95.515923 100.0
95.712486 84.0
95.726112 28.0
95.757278 124.0
95.846886 40.0
95.918999 152.0
96.336601 124.0
96.412804 204.0
96.471443 124.0
96.806023 148.0
96.956863 132.0
96.972542 224.0
97.028732 528.0
97.050957 148.0
97.23732 80.0
97.472984 188.0
97.647949 128.0
98.467842 160.0
99.128601 108.0
99.451874 96.0
99.467751 144.0
99.799835 184.0
100.13385 196.0
100.365013 144.0
100.392929 52.0
100.616409 152.0
100.746223 136.0
101.046104 144.0
101.094131 40.0
101.797768 220.0
101.831909 180.0
102.04557 612.0
102.065025 108.0
102.33062 92.0
102.782112 148.0
102.828529 132.0
102.864861 152.0
102.895142 120.0
103.00621 96.0
103.028435 104.0
103.054665 10840.0
103.087265 184.0
103.709259 180.0
103.980133 128.0
103.996376 76.0
104.056458 1124.0
104.168968 108.0
104.626534 92.0
104.738533 176.0
104.769096 388.0
104.783356 180.0
104.84417 104.0
105.415894 96.0
105.730827 156.0
106.150787 188.0
107.009682 140.0
107.049026 364.0
107.135315 76.0
107.467247 140.0
107.996101 128.0
108.366653 116.0
108.406029 148.0
108.420532 160.0
109.026077 184.0
109.325996 164.0
109.557114 116.0
110.032616 212.0
110.114052 160.0
110.800163 244.0
110.936386 136.0
111.006767 492.0
111.261559 124.0
111.568283 44.0
111.888062 132.0
112.014412 148.0
112.077621 208.0
112.831116 136.0
112.985504 140.0
113.383583 196.0
113.604103 56.0
114.390373 108.0
114.471283 204.0
114.522392 196.0
114.601219 140.0
114.618263 112.0
114.874107 212.0
115.053368 120.0
115.128098 188.0
115.24131 236.0
115.559891 160.0
115.669037 56.0
116.050728 168.0
116.067528 80.0
116.161896 256.0
117.254181 68.0
117.778481 180.0
118.221703 176.0
118.637573 176.0
119.258392 144.0
120.295242 64.0
120.692879 252.0
121.167831 200.0
121.308083 172.0
121.371666 136.0
122.408836 176.0
122.457283 200.0
123.044762 1092.0
123.762428 180.0
124.048225 160.0
124.116951 128.0
124.480865 188.0
125.025879 596.0
125.152405 164.0
125.401909 136.0
125.580276 176.0
125.886024 152.0
126.451645 116.0
127.040955 152.0
127.056595 144.0
127.256409 168.0
128.057816 320.0
128.832932 172.0
129.074768 116.0
129.423233 220.0
129.810715 44.0
130.548752 232.0
130.585144 188.0
130.655655 140.0
130.685242 184.0
131.049484 6892.0
131.111069 124.0
131.127014 56.0
131.165771 144.0
131.213181 156.0
131.309418 192.0
131.407501 36.0
131.42804 52.0
131.523895 180.0
131.816223 64.0
131.857361 212.0
131.898499 156.0
132.026535 160.0
132.053238 620.0
132.075897 168.0
132.722687 204.0
132.754593 248.0
132.853409 116.0
133.0504 96.0
133.092102 120.0
133.445953 76.0
133.629944 104.0
133.715088 64.0
134.235733 132.0
134.443359 124.0
134.558777 132.0
134.852142 136.0
135.005981 216.0
135.090317 152.0
135.824631 252.0
135.877991 196.0
136.014908 156.0
136.900726 164.0
137.023468 192.0
137.233948 184.0
137.280579 136.0
137.446198 52.0
138.102676 236.0
138.198593 52.0
138.634125 232.0
139.387405 180.0
139.787155 204.0
140.053192 156.0
140.16864 48.0
141.070953 744.0
141.375351 88.0
141.498428 92.0
141.755997 92.0
142.081451 212.0
143.089142 200.0
143.272522 108.0
143.40596 132.0
144.016785 224.0
144.478134 144.0
144.626495 40.0
145.064758 224.0
145.499069 116.0
146.405579 76.0
146.911743 80.0
147.083084 132.0
147.138596 192.0
147.18689 184.0
147.25209 220.0
147.573257 208.0
147.658127 172.0
147.822632 184.0
147.900085 240.0
148.503403 232.0
149.022903 348.0
150.042679 184.0
150.259735 68.0
150.880081 168.0
151.039917 684.0
151.51149 156.0
151.75412 148.0
152.065338 156.0
152.269455 112.0
152.37999 140.0
152.500397 236.0
152.829941 152.0
152.88974 240.0
152.918533 144.0
152.940674 216.0
152.972717 208.0
152.992264 168.0
153.018951 40196.0
153.069992 160.0
153.09491 56.0
153.115494 80.0
153.14505 28.0
153.174606 120.0
153.194305 80.0
153.22023 100.0
153.27562 84.0
153.305191 48.0
153.339233 64.0
153.366806 80.0
153.391632 64.0
153.417221 64.0
153.445694 68.0
153.475281 32.0
153.529526 84.0
153.596741 112.0
153.61467 176.0
153.660263 64.0
153.763901 92.0
154.022797 3388.0
154.094788 72.0
154.21489 100.0
154.257904 56.0
154.502731 52.0
154.531769 92.0
154.700699 32.0
154.841843 64.0
154.88147 64.0
154.999039 148.0
155.022842 660.0
155.053528 224.0
155.091309 192.0
155.117813 84.0
155.141663 112.0
155.184418 148.0
155.239319 156.0
155.441772 52.0
156.44342 64.0
156.650101 56.0
156.89183 64.0
157.046448 108.0
157.221085 84.0
158.048218 136.0
158.133301 80.0
159.043152 188.0
159.254059 148.0
159.555603 136.0
161.019638 140.0
161.350662 164.0
161.575745 80.0
165.069687 332.0
165.116623 56.0
165.134521 76.0
165.54657 60.0
166.029724 172.0
166.07196 160.0
166.829468 92.0
167.027466 168.0
168.052811 136.0
168.876892 120.0
169.067596 356.0
169.420486 64.0
170.07431 144.0
171.029144 328.0
171.048706 172.0
173.060944 732.0
174.067017 152.0
176.966309 140.0
177.6315 84.0
179.036362 268.0
179.098801 52.0
180.037155 212.0
181.345886 92.0
182.072968 116.0
182.4142 68.0
182.855331 100.0
183.084167 168.0
186.069397 268.0
187.078003 72.0
191.073654 228.0
192.037796 180.0
196.297668 200.0
197.061234 348.0
200.040863 68.0
200.080276 148.0
200.108429 128.0
211.074661 144.0
213.051346 120.0
214.057709 116.0
215.067139 684.0
216.080475 152.0
217.43132 124.0
218.25679 136.0
218.37149 112.0
219.50531 248.0
227.098145 148.0
229.09108 156.0
230.669327 36.0
239.073059 256.0
242.054489 168.0
251.449081 88.0
254.180145 128.0
256.266022 116.0
257.083923 1168.0
258.081635 284.0
259.087616 156.0
260.488983 140.0
271.115509 172.0
277.073029 148.0
279.140869 128.0
284.161194 104.0
288.299561 116.0
295.029663 100.0
326.459412 48.0
344.129944 40.0
374.875122 92.0
382.119843 204.0
416.51889 76.0
430.440002 48.0
450.873322 20.0
453.666901 48.0
482.317719 52.0
487.137848 72.0
520.223511 44.0
523.688416 48.0
546.546448 32.0
555.375977 116.0
661.289246 148.0
700.759338 224.0
760.182068 148.0
774.328247 60.0
810.167969 168.0
813.888489 196.0
819.078003 20.0
829.239868 228.0
841.75824 152.0
851.376892 216.0
853.230469 140.0
854.213257 160.0
892.775269 152.0
905.385193 160.0
915.865662 168.0
941.576233 248.0
946.076538 156.0
955.749146 272.0
961.115906 116.0
963.740051 160.0
971.125366 104.0
984.112732 164.0
997.61377 132.0
999.185974 128.0
1005.392517 180.0
1007.48877 208.0
1008.702087 140.0
1011.352356 164.0
1012.340027 20.0
1022.172913 168.0
1031.0625 268.0
1040.516968 140.0
1053.861938 164.0
1058.985352 80.0
1065.510986 176.0
1074.730225 148.0
1081.474365 180.0
1087.983521 188.0
1090.394165 224.0
1097.167358 216.0
1098.248901 224.0
1100.089844 144.0
1105.91333 180.0
1115.802979 164.0
1128.551514 192.0
1134.61731 228.0
1145.658936 160.0
1145.968872 172.0
1146.588745 252.0
1147.215576 176.0
1147.565552 208.0
1149.67749 148.0
1152.317627 176.0
1156.61853 176.0
1159.246338 148.0
1160.907104 148.0
1161.612549 92.0
1168.848022 168.0
1169.623901 192.0
1177.293945 252.0
1186.106201 148.0
1188.595703 220.0
1191.115234 104.0
1193.190552 100.0
1198.579712 140.0
1200.799561 156.0
1211.64502 120.0
1215.160034 92.0
1224.871704 136.0
1226.355835 68.0
1227.791992 180.0
1236.937866 152.0
1242.684448 120.0
1244.32666 100.0
1244.55835 204.0
1251.885498 152.0
1256.156494 160.0
1260.300659 80.0
1262.258545 160.0
1262.371704 116.0
1270.219116 188.0
1281.878906 244.0
1287.443115 140.0
1287.635864 220.0
1291.409546 120.0
1292.081909 148.0
1297.137695 136.0
1299.827148 132.0
1305.264771 204.0
1310.418335 128.0
1315.733643 116.0
1316.26062 224.0
1316.426758 152.0
1317.004517 120.0
1320.719727 144.0
1323.462402 60.0
1326.128296 156.0
1326.497925 72.0
1328.049683 160.0
1328.985474 148.0
1329.594971 136.0
1332.121704 140.0
1333.516846 232.0
1335.967285 168.0
1338.740356 28.0
1342.755859 176.0
1345.616211 140.0
1354.918945 144.0
1355.790894 92.0
1356.663086 64.0
1358.555176 156.0
1364.224365 248.0
1366.040649 116.0
1368.086426 128.0
1370.067383 152.0
1370.531616 172.0
1371.585449 176.0
1373.318115 176.0
1377.266968 180.0
1385.374146 56.0
1385.82605 176.0
1387.997803 232.0
1388.057129 172.0
1388.746826 184.0
1389.080566 196.0
1389.28833 144.0
1389.763184 200.0
1391.643066 244.0
1391.789429 176.0
1392.777222 128.0
1396.032349 164.0
1399.045776 168.0
1408.717773 176.0
1411.32605 48.0
1417.501343 176.0
1418.130859 160.0
1419.817749 208.0
1421.768311 248.0
1422.526367 196.0
1423.502319 112.0
1439.692871 168.0
1441.377441 180.0
1441.793091 40.0
1442.828613 60.0
1445.248779 124.0
1446.134155 184.0
1448.246582 148.0
1450.830566 20.0
1455.413086 208.0
1456.666138 216.0
1458.641846 88.0
1465.151855 232.0
1466.969482 204.0
1468.21228 256.0
1468.418213 216.0
1471.439941 128.0
1476.29187 180.0
1477.010864 64.0
1479.245117 156.0
1480.447266 124.0
1482.209106 176.0
1489.581787 164.0
1494.078857 176.0
1494.494385 192.0
1499.245361 152.0
1500.656006 156.0
1500.810181 184.0
1502.939087 176.0
