>compound MLS000859933-01!Meloxicam sodium salt hydrate
>formula C14H13N3O4S2
>ionization [M+H]+
>parentmass 352.040161
#inchi InChI=1S/C14H13N3O4S2/c1-8-7-15-14(22-8)16-13(19)11-12(18)9-5-3-4-6-10(9)23(20,21)17(11)2/h3-7,18H,1-2H3,(H,15,16,19)/p-1
#inchikey ZRVUJXDFFKFLMG
#origInchi InChI=1S/C14H13N3O4S2.Na.H2O/c1-8-7-15-14(22-8)16-13(19)11-12(18)9-5-3-4-6-10(9)23(20,21)17(11)2;;/h3-7,18H,1-2H3,(H,15,16,19);;1H2/q;+1;/p-1
#Ion_Source LC-ESI
#Instrument qTof
#Compound_Source NIH Pharmacologically Active Library
#PI Dorrestein
#Data_Collector VP/LMS
#Scan -1
#Precursor_MZ 352.042
#ExactMass 351.034
#Charge 1
#CAS_Number N/A
#Pubmed_ID N/A
#Smiles CN1C(=C([O-])c2ccccc2S1(=O)=O)C(=O)Nc3ncc(C)s3.O.[Na+]
#INCHI_AUX N/A
#Library_Class 1
#SpectrumID CCMSLIB00000085125
#IonMode Positive
#UpdateWorkflowName UPDATE-SINGLE-ANNOTATED-GOLD
#LibraryQualityString Gold
#TaskID d252d724072548979f1f6f1ced849daf
##Scan# 2081
#SpectrumFile p3-F03_GF3_01_18284.mzXML
#LibraryName Pharm_Active_Library.mgf
#MQScore -1
#Organism Pharm_Active_Library
#TIC_Query 0
#RT_Query -1
#MZErrorPPM -1
#SharedPeaks 0
#MassDiff 0
#LibMZ -1
#SpecMZ 352.042
#SpecCharge 0
#internalFilename spec-00000.mgf

>collision 10
44.911922 156.0
44.922596 216.0
44.982647 168.0
45.062782 60.0
45.164391 296.0
45.21925 188.0
45.264771 104.0
45.290218 140.0
45.307632 136.0
45.364174 172.0
45.486004 128.0
45.511513 148.0
45.5424 164.0
45.576061 152.0
45.605656 220.0
45.635136 172.0
45.653961 204.0
45.731998 128.0
45.746807 128.0
45.779125 132.0
45.792591 120.0
45.835705 56.0
45.895016 128.0
45.913898 124.0
45.938179 228.0
45.994858 120.0
46.02618 160.0
46.039413 116.0
46.115078 200.0
46.15699 108.0
46.250805 236.0
46.270653 164.0
46.281487 260.0
46.298584 204.0
46.326183 180.0
46.343796 96.0
46.360058 176.0
46.385811 184.0
46.517403 136.0
46.540482 120.0
46.601608 172.0
46.655975 120.0
46.706329 148.0
46.722618 156.0
46.830166 164.0
46.926926 180.0
46.944653 124.0
47.007408 200.0
47.019691 224.0
47.060646 152.0
47.083862 212.0
47.148945 164.0
47.160378 204.0
47.169949 168.0
47.275269 224.0
47.346462 168.0
47.413597 136.0
47.480865 232.0
47.575462 168.0
47.594685 184.0
47.629021 208.0
47.712852 196.0
47.813274 120.0
47.840805 164.0
47.917931 92.0
47.976826 236.0
48.157978 168.0
48.186989 48.0
48.216011 100.0
48.388931 160.0
48.502533 124.0
48.590832 168.0
48.609333 160.0
48.684299 232.0
48.878929 224.0
49.014767 132.0
49.05164 192.0
49.25119 180.0
49.313705 184.0
49.346226 176.0
49.451149 196.0
49.488945 196.0
49.508553 180.0
49.557583 168.0
49.664505 212.0
49.804424 208.0
49.822769 136.0
49.877575 200.0
50.091476 120.0
50.105564 128.0
50.148739 220.0
50.166168 208.0
50.198601 156.0
50.312893 164.0
50.335487 132.0
50.355259 160.0
50.418839 184.0
50.488117 128.0
50.522068 172.0
50.574795 184.0
50.67498 72.0
50.718914 188.0
50.877804 80.0
50.978657 148.0
51.12941 116.0
51.155033 76.0
51.2355 128.0
51.250458 152.0
51.29892 232.0
51.361668 244.0
51.401615 164.0
51.418743 184.0
51.522987 148.0
51.667389 216.0
51.760429 212.0
51.823456 136.0
51.853554 232.0
51.866451 116.0
51.995548 136.0
52.086266 200.0
52.183739 144.0
52.19524 144.0
52.219688 156.0
52.254215 140.0
52.372269 96.0
52.49081 128.0
52.506317 236.0
52.580917 176.0
52.628983 132.0
52.716785 184.0
52.743118 228.0
52.75613 160.0
52.798317 228.0
52.863167 200.0
52.934105 200.0
52.976109 188.0
53.122532 172.0
53.189289 160.0
53.202354 164.0
53.286594 232.0
53.308392 136.0
53.354904 112.0
53.367992 224.0
53.408714 152.0
53.447998 140.0
53.512043 188.0
53.599442 208.0
53.614014 172.0
53.638794 248.0
53.659206 92.0
53.692745 200.0
53.756939 92.0
53.806568 188.0
53.831394 72.0
54.056526 160.0
54.191246 172.0
54.287998 176.0
54.3144 160.0
54.336407 208.0
54.377495 132.0
54.428879 160.0
54.447971 224.0
54.481758 140.0
54.49498 236.0
54.527309 136.0
54.578766 160.0
54.60965 136.0
54.795143 176.0
54.82019 76.0
54.8423 172.0
54.941105 136.0
54.961018 200.0
55.0784 160.0
55.103516 88.0
55.232136 204.0
55.254326 132.0
55.298721 212.0
55.420162 120.0
55.476482 196.0
55.653046 156.0
55.757034 140.0
55.792713 168.0
55.810555 172.0
55.902786 228.0
55.953396 196.0
55.963818 168.0
55.983177 104.0
55.999561 184.0
56.087479 124.0
56.247093 216.0
56.275543 212.0
56.368073 132.0
56.408428 168.0
56.504147 136.0
56.622406 120.0
56.652367 176.0
56.790279 196.0
56.920853 192.0
56.98695 136.0
57.056087 116.0
57.129784 120.0
57.184689 160.0
57.225632 216.0
57.249023 92.0
57.272797 144.0
57.304432 140.0
57.336079 252.0
57.358688 212.0
57.417496 84.0
57.492931 132.0
57.508415 124.0
57.545769 132.0
57.617466 196.0
57.76189 152.0
57.891136 184.0
58.040573 208.0
58.060287 204.0
58.117935 200.0
58.13311 148.0
58.155876 216.0
58.207497 116.0
58.239391 120.0
58.283451 136.0
58.294086 108.0
58.455288 132.0
58.561199 248.0
58.630428 168.0
58.84552 112.0
59.031948 160.0
59.042652 168.0
59.070187 192.0
59.158947 128.0
59.174255 136.0
59.226326 92.0
59.289146 184.0
59.321339 372.0
59.36887 176.0
59.417957 164.0
59.46553 124.0
59.508514 172.0
59.534622 204.0
59.591694 184.0
59.634491 232.0
59.668312 216.0
59.711369 188.0
59.859116 204.0
59.929974 124.0
59.968502 236.0
60.026859 268.0
60.096504 216.0
60.128914 204.0
60.190666 44.0
60.251259 140.0
60.36993 120.0
60.382305 148.0
60.439243 184.0
60.561852 184.0
60.702892 140.0
60.746323 144.0
60.777355 200.0
60.789768 156.0
60.886024 152.0
60.955936 44.0
61.061653 160.0
61.08305 136.0
61.101414 236.0
61.12233 208.0
61.212616 212.0
61.290504 84.0
61.315441 44.0
61.477642 192.0
61.524471 168.0
61.557262 232.0
61.715092 192.0
61.766701 164.0
62.051735 140.0
62.127018 148.0
62.177231 200.0
62.337425 144.0
62.455345 224.0
62.472649 40.0
62.511986 80.0
62.524578 76.0
62.712009 72.0
62.767189 212.0
62.797157 160.0
62.809776 116.0
62.931122 216.0
62.983418 104.0
63.204762 116.0
63.241161 196.0
63.272823 244.0
63.298157 136.0
63.353596 140.0
63.409058 216.0
63.436005 120.0
63.616859 204.0
63.813869 156.0
63.83786 132.0
64.063751 128.0
64.197639 156.0
64.210403 156.0
64.248688 136.0
64.330566 244.0
64.354027 224.0
64.529793 108.0
64.558571 204.0
64.585762 76.0
64.699387 148.0
64.752228 228.0
64.822723 196.0
64.99675 196.0
65.02179 164.0
65.056908 164.0
65.161301 188.0
65.187012 164.0
65.227196 236.0
65.299553 192.0
65.489487 140.0
65.549095 160.0
65.594231 52.0
65.621635 40.0
65.649048 152.0
65.773285 148.0
65.850792 172.0
65.952591 160.0
65.988159 136.0
66.303825 176.0
66.333008 152.0
66.430145 180.0
66.449776 156.0
66.509819 108.0
66.556908 184.0
66.569901 220.0
66.716141 200.0
66.796341 364.0
66.816971 168.0
66.9244 212.0
66.955338 216.0
67.023766 236.0
67.146034 116.0
67.165604 156.0
67.209656 112.0
67.276581 156.0
67.323929 108.0
67.382736 164.0
67.420326 128.0
67.431763 176.0
67.577309 208.0
67.595306 152.0
67.855759 84.0
67.878716 136.0
67.89183 108.0
67.932838 148.0
67.95417 48.0
67.977142 188.0
68.026382 172.0
68.03952 68.0
68.080566 200.0
68.148293 140.0
68.16465 92.0
68.185715 160.0
68.225166 160.0
68.25148 164.0
68.262985 76.0
68.323853 128.0
68.338654 124.0
68.357559 152.0
68.414368 128.0
68.541191 112.0
68.570862 152.0
68.584923 120.0
68.596687 192.0
68.608772 52.0
68.675087 224.0
68.726982 144.0
68.940559 116.0
69.021561 148.0
69.082764 176.0
69.135712 136.0
69.190338 176.0
69.23008 52.0
69.264862 160.0
69.392471 136.0
69.483696 164.0
69.501945 88.0
69.52684 232.0
69.548416 216.0
69.583282 164.0
69.596565 72.0
69.61483 172.0
69.722816 32.0
69.737778 116.0
69.852516 112.0
69.976524 312.0
70.052284 144.0
70.100609 148.0
70.128937 64.0
70.150612 184.0
70.249001 192.0
70.359154 140.0
70.385864 216.0
70.462708 184.0
70.766884 200.0
70.802284 168.0
71.070511 144.0
71.280411 160.0
71.348755 140.0
71.446877 152.0
71.465836 220.0
71.571091 140.0
71.697617 168.0
71.782074 172.0
71.84111 124.0
71.886665 140.0
71.942368 88.0
72.14679 156.0
72.173843 184.0
72.309189 172.0
72.419243 140.0
72.444656 180.0
72.487099 156.0
72.522606 92.0
72.53447 176.0
72.602295 132.0
72.668449 188.0
72.794067 192.0
72.959808 140.0
72.985771 128.0
73.013298 176.0
73.05072 104.0
73.108574 172.0
73.122192 188.0
73.164749 120.0
73.295898 108.0
73.53125 164.0
73.594414 108.0
73.628571 96.0
73.724243 192.0
73.809723 140.0
73.854187 68.0
73.907227 148.0
74.184692 48.0
74.198402 180.0
74.390556 220.0
74.483292 268.0
74.533112 140.0
74.593269 96.0
74.650009 156.0
74.678444 128.0
74.74118 112.0
74.844467 136.0
75.080559 44.0
75.220322 140.0
75.380951 208.0
75.418976 136.0
75.469872 216.0
75.51062 220.0
75.538254 152.0
75.555595 184.0
75.640396 116.0
75.683678 152.0
75.78241 188.0
75.813606 156.0
75.879478 136.0
76.054695 172.0
76.087677 192.0
76.202309 120.0
76.219688 144.0
76.361687 236.0
76.379639 208.0
76.496231 160.0
76.614662 52.0
76.656479 180.0
76.734917 28.0
76.773285 208.0
76.966988 132.0
77.012398 84.0
77.068306 124.0
77.320129 136.0
77.351639 184.0
77.376144 108.0
77.446198 36.0
77.556587 148.0
77.572365 168.0
77.795166 176.0
77.816658 180.0
77.935677 132.0
77.956757 88.0
78.037621 140.0
78.088623 108.0
78.220596 44.0
78.398491 204.0
78.495453 108.0
78.516617 232.0
78.55542 212.0
78.680725 132.0
78.721336 140.0
78.799065 176.0
78.813194 140.0
78.929863 208.0
78.970543 204.0
78.989998 176.0
79.00946 112.0
79.094406 180.0
79.175858 176.0
79.218369 176.0
79.267975 212.0
79.361931 172.0
79.489647 132.0
79.542892 176.0
79.638786 144.0
79.724068 196.0
79.780945 56.0
79.889435 196.0
79.914345 212.0
80.008675 152.0
80.147606 196.0
80.197502 92.0
80.24369 132.0
80.287476 148.0
80.347305 188.0
80.443672 112.0
80.590126 180.0
80.633018 144.0
80.650894 160.0
80.836899 152.0
81.028496 152.0
81.055374 160.0
81.166519 180.0
81.179024 156.0
81.188087 156.0
81.342346 192.0
81.430534 212.0
81.489616 152.0
81.514771 156.0
81.547127 120.0
81.597458 260.0
81.633423 152.0
81.802559 172.0
81.841042 128.0
81.865578 188.0
81.885391 120.0
81.932228 172.0
81.986282 196.0
82.110687 164.0
82.408554 116.0
82.42662 144.0
82.43927 160.0
82.489883 60.0
82.547737 76.0
82.618286 140.0
82.647232 212.0
82.772133 200.0
82.844582 52.0
82.922501 128.0
82.968216 92.0
83.004089 172.0
83.053055 208.0
83.073013 268.0
83.209129 104.0
83.22184 144.0
83.239998 188.0
83.287216 168.0
83.34491 180.0
83.385391 136.0
83.441689 160.0
83.499557 200.0
83.532623 160.0
83.550819 184.0
83.582886 160.0
83.67276 132.0
83.902321 48.0
83.927849 176.0
84.01722 220.0
84.124901 124.0
84.212547 80.0
84.236298 72.0
84.271011 240.0
84.322182 232.0
84.349594 184.0
84.387993 120.0
84.409935 132.0
84.512375 164.0
84.528839 152.0
84.67347 112.0
84.737587 168.0
84.755913 104.0
84.858559 68.0
84.985115 148.0
85.082397 40.0
85.161362 204.0
85.379753 112.0
85.490471 160.0
85.578827 180.0
85.646973 140.0
85.69487 216.0
86.001007 136.0
86.126572 200.0
86.189384 212.0
86.209717 216.0
86.274406 144.0
86.420525 104.0
86.433479 100.0
86.511215 144.0
86.52417 144.0
86.630089 212.0
86.697342 132.0
86.761322 144.0
86.986824 204.0
87.006218 160.0
87.193962 176.0
87.20871 236.0
87.270058 60.0
87.390961 148.0
87.523117 124.0
87.573547 160.0
87.63488 440.0
87.726204 136.0
87.777908 176.0
87.80825 68.0
87.86422 192.0
87.944458 220.0
87.976196 184.0
88.018776 624.0
88.069565 156.0
88.114403 196.0
88.162987 152.0
88.194763 128.0
88.230278 184.0
88.286377 220.0
88.318176 152.0
88.37056 212.0
88.458519 156.0
88.529671 128.0
88.597107 156.0
88.619591 196.0
88.657066 184.0
88.762741 228.0
88.88961 76.0
88.915886 180.0
88.970322 156.0
89.049194 180.0
89.161926 116.0
89.203278 192.0
89.366905 204.0
89.400772 200.0
89.442184 48.0
89.462891 168.0
89.50808 172.0
89.604187 180.0
89.626755 88.0
89.711571 156.0
89.847359 72.0
89.954933 200.0
89.979477 172.0
90.089012 204.0
90.117355 224.0
90.289383 92.0
90.342346 112.0
90.387802 164.0
90.408569 184.0
90.486183 132.0
90.522163 48.0
90.542992 180.0
90.624451 188.0
90.747658 204.0
90.891815 176.0
90.92598 164.0
90.979126 132.0
91.026596 120.0
91.056496 156.0
91.214699 112.0
91.233704 228.0
91.269829 128.0
91.532433 156.0
91.675034 116.0
91.753464 48.0
91.789688 120.0
91.967125 96.0
92.030121 172.0
92.114159 192.0
92.223076 156.0
92.24984 124.0
92.312943 152.0
92.404755 208.0
92.435371 92.0
92.458336 96.0
92.607681 140.0
92.729691 176.0
92.787819 168.0
92.814659 168.0
92.925911 136.0
92.954697 176.0
93.042992 128.0
93.248047 204.0
93.323517 204.0
93.377357 188.0
93.576958 156.0
93.661331 188.0
93.685661 148.0
93.70269 252.0
93.743156 112.0
93.772064 164.0
93.972626 160.0
94.109673 160.0
94.150223 140.0
94.300926 176.0
94.411133 200.0
94.428535 128.0
94.484634 168.0
94.544624 212.0
94.643356 160.0
94.66272 204.0
94.685959 152.0
94.699516 92.0
94.713074 140.0
94.765381 148.0
94.825462 172.0
95.223213 140.0
95.238754 168.0
95.287315 212.0
95.450592 96.0
95.598274 188.0
95.6763 112.0
95.724983 100.0
95.740562 176.0
96.042671 220.0
96.068031 184.0
96.18512 128.0
96.532898 140.0
96.650276 164.0
96.710945 192.0
96.730515 160.0
96.88131 216.0
96.991051 252.0
97.008827 700.0
97.06752 36.0
97.09301 44.0
97.122437 148.0
97.228386 204.0
97.248016 100.0
97.293167 128.0
97.330467 60.0
97.389389 120.0
97.550522 176.0
97.617378 180.0
97.644913 120.0
97.914551 140.0
97.985466 140.0
98.04261 144.0
98.063499 268.0
98.235847 136.0
98.381889 132.0
98.4589 144.0
98.494453 148.0
98.834511 220.0
98.909714 160.0
98.971092 128.0
99.202904 72.0
99.218765 188.0
99.259819 164.0
99.31395 112.0
99.333786 136.0
99.383392 156.0
99.445442 224.0
99.530281 168.0
99.613693 108.0
99.721001 132.0
99.746841 140.0
99.870125 184.0
99.893997 136.0
99.913895 204.0
99.987518 136.0
100.063446 200.0
100.120911 116.0
100.164734 228.0
100.252403 68.0
100.419876 44.0
100.46376 228.0
100.51564 112.0
100.555557 100.0
100.613441 172.0
100.633408 132.0
100.679337 176.0
100.699654 188.0
100.741257 164.0
100.75724 196.0
100.868805 160.0
100.891151 156.0
100.909142 136.0
101.014946 124.0
101.091171 188.0
101.115189 212.0
101.181252 144.0
101.303413 192.0
101.427658 124.0
101.466049 136.0
101.497833 164.0
101.558296 136.0
101.580063 152.0
101.624199 80.0
101.672363 132.0
101.698456 136.0
101.802856 28.0
101.869141 116.0
101.89727 196.0
101.937462 176.0
102.007629 184.0
102.03595 200.0
102.147568 96.0
102.180763 80.0
102.2117 160.0
102.237106 72.0
102.299507 160.0
102.367966 188.0
102.396164 144.0
102.454575 184.0
102.561386 124.0
102.700516 172.0
102.732796 232.0
102.837723 176.0
102.989166 108.0
103.003304 136.0
103.051796 176.0
103.192841 92.0
103.215523 228.0
103.272148 180.0
103.300468 144.0
103.320702 204.0
103.369263 196.0
103.452248 48.0
103.473167 144.0
103.650742 144.0
103.677086 120.0
103.764252 200.0
103.780472 160.0
103.857536 164.0
103.942749 116.0
104.003639 148.0
104.021904 528.0
104.046333 132.0
104.121407 124.0
104.157967 192.0
104.306305 156.0
104.342903 208.0
104.357132 232.0
104.430992 200.0
104.587021 240.0
104.678642 172.0
104.788635 100.0
104.951698 176.0
105.03154 320.0
105.063881 240.0
105.121017 128.0
105.180206 120.0
105.218994 132.0
105.259827 140.0
105.302719 188.0
105.324791 144.0
105.329903 116.0
105.441788 188.0
105.517288 204.0
105.562271 188.0
105.66864 116.0
105.793907 176.0
105.978271 200.0
106.004456 168.0
106.133606 108.0
106.188972 144.0
106.484535 180.0
106.731148 268.0
106.792847 164.0
106.887482 232.0
106.940994 152.0
107.083069 60.0
107.104752 136.0
107.112617 208.0
107.241951 176.0
107.282951 44.0
107.315933 144.0
107.402557 204.0
107.608932 136.0
107.623383 228.0
107.658493 152.0
107.681206 144.0
107.933334 108.0
108.006386 332.0
108.049171 132.0
108.102966 96.0
108.227173 216.0
108.336945 168.0
108.399109 176.0
108.500671 184.0
108.567024 180.0
108.616806 160.0
108.706024 228.0
108.768288 120.0
108.847183 104.0
108.969742 112.0
109.008652 1652.0
109.029999 152.0
109.118835 244.0
109.192169 308.0
109.210892 124.0
109.237839 176.0
109.256485 148.0
109.308678 216.0
109.387764 136.0
109.554367 164.0
109.685654 124.0
109.748039 192.0
109.766968 132.0
109.881691 80.0
110.004829 168.0
110.149612 204.0
110.303558 284.0
110.627808 40.0
110.663406 188.0
110.724136 144.0
110.772308 180.0
110.793259 160.0
110.849831 168.0
110.969315 116.0
111.002113 244.0
111.200073 124.0
111.279846 136.0
111.363853 44.0
111.410065 172.0
111.481506 168.0
111.632874 88.0
111.78434 152.0
111.818008 156.0
111.876953 132.0
112.030685 216.0
112.098114 136.0
112.11618 168.0
112.173988 164.0
112.39756 252.0
112.435547 176.0
112.545113 164.0
112.650925 164.0
112.735695 188.0
112.811539 136.0
112.860161 120.0
112.965912 124.0
112.980721 68.0
113.014793 1788.0
113.082298 180.0
113.16909 280.0
113.388451 228.0
113.416969 236.0
113.463608 156.0
113.578125 196.0
113.599335 152.0
113.665108 184.0
113.724533 196.0
113.777603 156.0
113.87104 176.0
113.999039 972.0
114.018921 360.0
114.053772 152.0
114.181351 228.0
114.240913 168.0
114.255806 128.0
114.409035 216.0
114.432457 232.0
114.468048 200.0
114.536812 168.0
114.587944 212.0
114.641212 264.0
114.669945 116.0
114.726715 140.0
114.756325 304.0
114.771248 40.0
114.79213 96.0
114.82798 120.0
114.889038 160.0
114.928307 140.0
114.950439 188.0
114.966599 264.0
114.987373 164.0
115.032234 113640.0
115.088013 316.0
115.112144 64.0
115.13781 52.0
115.163345 136.0
115.197807 168.0
115.221642 328.0
115.251488 148.0
115.287857 64.0
115.318466 100.0
115.333961 56.0
115.361435 80.0
115.382759 1444.0
115.424141 112.0
115.461029 116.0
115.49572 164.0
115.518089 120.0
115.569237 148.0
115.628746 100.0
115.642891 108.0
115.664299 48.0
115.679283 124.0
115.720627 152.0
115.757935 60.0
115.777779 60.0
115.808426 168.0
115.865608 120.0
115.897743 160.0
115.938461 208.0
115.958824 136.0
115.977921 68.0
115.998253 136.0
116.034126 7032.0
116.091515 112.0
116.122849 48.0
116.174332 36.0
116.236549 52.0
116.309525 76.0
116.392471 212.0
116.449097 64.0
116.485611 32.0
116.561188 184.0
116.582298 100.0
116.639465 112.0
116.657532 196.0
116.67688 112.0
116.708504 164.0
116.732407 68.0
116.765045 344.0
116.788986 308.0
116.825272 124.0
116.85878 120.0
116.88031 176.0
116.900108 72.0
116.942963 104.0
116.955849 112.0
116.988831 76.0
117.005226 92.0
117.026703 7528.0
117.055214 368.0
117.090042 124.0
117.109421 80.0
117.133316 84.0
117.158348 160.0
117.191376 192.0
117.238625 124.0
117.305519 80.0
117.519035 160.0
117.596725 184.0
117.698189 60.0
117.73922 56.0
117.796654 68.0
117.873161 32.0
117.88829 220.0
117.907745 156.0
117.948814 168.0
117.985565 88.0
118.030594 540.0
118.061081 292.0
118.17157 172.0
118.379372 52.0
118.466011 64.0
118.663239 180.0
118.765167 232.0
118.782516 180.0
118.832413 132.0
118.984344 64.0
119.008232 128.0
119.032112 156.0
119.471176 164.0
119.738922 52.0
119.950279 168.0
120.022591 196.0
120.242569 172.0
120.342987 128.0
120.367928 228.0
120.60952 212.0
120.67292 116.0
120.810707 176.0
120.885101 64.0
121.026939 312.0
121.121559 120.0
121.428429 88.0
121.520569 176.0
121.571037 144.0
121.799385 108.0
121.889465 172.0
121.999359 52.0
122.133507 180.0
122.164299 140.0
122.278725 236.0
122.653175 108.0
122.723724 148.0
122.741371 64.0
122.895775 212.0
122.917839 36.0
122.986557 168.0
123.027176 180.0
123.512169 100.0
123.613945 64.0
123.733467 40.0
123.864136 176.0
123.986 364.0
124.083534 164.0
124.1922 108.0
124.267624 160.0
124.43409 220.0
124.496269 32.0
124.534027 140.0
124.669556 84.0
124.980881 44.0
125.006454 724.0
125.089943 156.0
125.312653 120.0
125.475357 164.0
125.61586 212.0
126.011154 200.0
126.093704 148.0
126.196541 132.0
126.53894 132.0
126.682205 44.0
126.778557 308.0
126.868217 60.0
126.980339 136.0
127.002831 144.0
127.031242 756.0
127.114624 84.0
127.222687 60.0
127.423286 264.0
127.627113 196.0
127.699074 96.0
127.766563 152.0
127.892586 124.0
127.926346 100.0
128.027039 156.0
128.050354 176.0
128.070465 132.0
128.088486 76.0
128.395035 240.0
128.417587 48.0
128.43338 212.0
128.460953 144.0
128.534378 204.0
128.70195 168.0
128.952713 84.0
129.018265 220.0
129.043701 136.0
129.289703 112.0
129.75975 208.0
129.781281 232.0
129.96048 196.0
130.026291 172.0
130.055801 196.0
130.23291 68.0
130.385132 172.0
130.432877 168.0
130.523575 188.0
130.990387 184.0
131.067856 160.0
131.334595 212.0
131.567368 172.0
132.109009 128.0
132.424896 156.0
132.59903 200.0
132.791626 96.0
132.917816 180.0
132.94075 220.0
133.05127 388.0
133.066116 144.0
133.140488 140.0
133.179535 160.0
133.344971 156.0
133.432327 168.0
133.512802 168.0
133.832672 132.0
134.005432 184.0
134.134491 156.0
134.203659 172.0
134.406525 232.0
134.616714 216.0
134.674454 100.0
134.81308 120.0
134.884735 220.0
135.009583 104.0
135.046585 76.0
135.463257 84.0
135.630112 72.0
135.808655 168.0
135.857361 140.0
135.964111 208.0
135.997498 176.0
136.245316 192.0
136.610077 196.0
136.740387 144.0
136.765991 76.0
136.83815 164.0
136.909454 272.0
137.003769 1340.0
137.068756 52.0
137.147995 76.0
137.201614 172.0
137.278564 224.0
137.320541 252.0
137.537537 128.0
137.69165 128.0
137.878555 264.0
137.908936 172.0
137.990768 56.0
138.00856 172.0
138.098328 60.0
138.374481 100.0
138.430679 72.0
138.667297 240.0
138.873642 148.0
138.983902 120.0
139.003677 232.0
139.023193 148.0
139.051956 144.0
139.075424 168.0
139.103592 68.0
139.155243 52.0
139.305557 196.0
139.407867 228.0
139.674622 44.0
139.72403 192.0
139.846405 212.0
139.888779 68.0
140.0065 156.0
140.096008 176.0
140.147842 156.0
140.289261 124.0
140.352921 128.0
140.423676 156.0
140.546341 136.0
140.565216 56.0
140.605347 56.0
140.638382 156.0
140.690323 284.0
140.744629 168.0
140.768234 192.0
140.784775 156.0
140.81311 140.0
140.846176 116.0
140.879974 144.0
140.901367 192.0
140.962387 132.0
141.01091 90956.0
141.081314 48.0
141.107224 148.0
141.129929 68.0
141.159775 100.0
141.181808 44.0
141.207611 132.0
141.227249 56.0
141.254837 164.0
141.283798 100.0
141.308319 56.0
141.367096 164.0
141.398621 220.0
141.432602 104.0
141.458649 64.0
141.489426 44.0
141.555725 36.0
141.613602 104.0
141.63797 96.0
141.676529 84.0
141.712067 52.0
141.73233 72.0
141.75946 64.0
141.809219 96.0
141.852142 116.0
141.906418 44.0
141.941986 68.0
141.975189 136.0
142.012985 6508.0
142.08194 48.0
142.098541 72.0
142.13414 152.0
142.161118 76.0
142.252808 40.0
142.27417 60.0
142.345398 260.0
142.400024 160.0
142.573471 92.0
142.644775 68.0
142.6866 64.0
142.710922 68.0
142.840225 168.0
142.909821 144.0
143.005829 3008.0
143.045181 100.0
143.06604 100.0
143.071701 88.0
143.080933 132.0
143.109497 124.0
143.13446 284.0
143.187286 60.0
143.210052 252.0
143.242081 204.0
143.311172 44.0
143.401733 52.0
143.439865 76.0
143.470856 60.0
143.747543 68.0
143.862122 68.0
144.004013 624.0
144.020493 224.0
144.158295 100.0
144.209579 252.0
144.256287 124.0
144.289764 108.0
144.351929 56.0
145.065445 172.0
145.557312 328.0
146.058716 868.0
146.70018 64.0
146.743576 48.0
147.060226 156.0
148.014572 172.0
148.078812 208.0
148.188965 56.0
148.312561 124.0
148.596313 64.0
148.751633 176.0
148.892456 196.0
149.0065 208.0
149.028503 80.0
149.184052 32.0
149.218094 64.0
149.342117 136.0
149.461319 76.0
149.580582 76.0
149.658112 76.0
150.103836 100.0
150.380096 48.0
150.531464 164.0
150.590088 108.0
150.658478 136.0
151.014023 172.0
151.164627 104.0
151.992004 768.0
152.277679 60.0
152.398056 120.0
152.434906 104.0
152.597137 112.0
152.764389 124.0
152.998932 8100.0
153.106522 52.0
153.170563 92.0
153.192734 72.0
153.254333 96.0
153.296219 56.0
153.370163 60.0
153.425049 248.0
153.624161 100.0
153.999527 360.0
154.021606 160.0
154.127838 104.0
154.172318 112.0
154.231644 76.0
154.36763 132.0
154.409668 56.0
154.992706 944.0
155.026459 356.0
155.246765 160.0
155.470047 56.0
155.966797 76.0
155.992767 180.0
156.057388 496.0
156.287628 76.0
156.895355 128.0
157.012558 128.0
157.054962 116.0
157.651688 112.0
158.076813 84.0
158.199463 36.0
158.760742 132.0
159.700073 148.0
160.022202 136.0
162.001144 248.0
162.996872 88.0
163.846725 192.0
163.961395 128.0
164.014328 1836.0
164.063354 80.0
164.31839 104.0
164.491943 52.0
165.015701 308.0
165.314957 72.0
165.906647 136.0
165.998947 172.0
166.034058 168.0
166.756317 132.0
166.812866 28.0
167.018585 132.0
167.04689 140.0
167.250183 152.0
167.350586 96.0
167.621048 148.0
168.020706 100.0
168.993546 3428.0
169.219971 132.0
169.339096 108.0
169.639679 220.0
169.998611 516.0
170.69902 100.0
170.930542 40.0
170.986542 332.0
172.166229 116.0
173.047714 180.0
173.112946 60.0
174.046494 180.0
174.093765 244.0
176.013443 348.0
176.997833 468.0
179.983444 176.0
180.985718 116.0
181.144196 64.0
181.428268 92.0
182.027405 372.0
183.032333 100.0
184.053894 884.0
184.254196 116.0
184.437958 180.0
185.049362 188.0
185.154984 84.0
185.312103 60.0
186.038956 420.0
186.993073 192.0
187.791397 112.0
188.039459 232.0
188.157074 116.0
189.083755 136.0
189.812485 148.0
192.034653 104.0
194.026154 980.0
194.150482 44.0
194.247559 120.0
194.369644 208.0
194.663895 104.0
195.075104 172.0
196.025696 156.0
196.481506 28.0
198.119827 132.0
199.295425 60.0
200.047867 360.0
201.03006 208.0
202.099945 132.0
202.129349 180.0
204.570282 100.0
206.496399 164.0
207.320953 72.0
207.449936 88.0
208.0811 128.0
208.595352 52.0
208.684479 108.0
208.865662 204.0
209.378006 64.0
209.634399 128.0
210.020233 2048.0
210.110184 116.0
210.159225 72.0
210.31218 60.0
210.525833 64.0
211.026154 216.0
212.025543 160.0
212.331772 76.0
213.019699 112.0
214.049316 152.0
215.569168 68.0
216.030197 224.0
216.203781 152.0
217.042892 192.0
218.004471 172.0
218.042679 188.0
218.410217 80.0
226.080261 164.0
226.283813 108.0
227.047943 80.0
227.191925 44.0
228.029724 80.0
228.146957 112.0
229.043732 144.0
229.260681 40.0
232.068954 72.0
233.022018 104.0
233.110138 112.0
234.00444 176.0
235.007233 84.0
235.239182 104.0
235.654541 120.0
237.016174 80.0
237.807419 48.0
238.017853 312.0
239.113678 128.0
240.08725 128.0
242.235458 48.0
242.57634 176.0
246.010803 204.0
247.026459 168.0
249.013153 892.0
250.007278 144.0
251.012222 132.0
256.063965 120.0
257.065033 56.0
260.028595 60.0
260.346466 60.0
261.016846 108.0
261.075989 48.0
261.153168 156.0
262.025726 92.0
263.264221 100.0
263.470947 52.0
264.949493 132.0
265.010223 640.0
266.015869 132.0
266.120331 40.0
276.522644 108.0
278.040588 152.0
279.050446 184.0
279.103638 120.0
281.349335 76.0
285.346344 168.0
285.982147 108.0
288.022186 176.0
289.009369 172.0
292.120544 40.0
299.931763 248.0
307.032867 140.0
307.52829 120.0
307.619049 92.0
310.057068 136.0
314.157074 76.0
316.018982 52.0
323.972961 64.0
330.109985 72.0
337.016724 228.0
341.974976 64.0
343.190674 104.0
345.676697 76.0
347.711304 52.0
352.040161 352.0
355.18512 148.0
360.237 132.0
360.905975 124.0
386.877899 148.0
389.954865 72.0
392.120697 48.0
398.333038 104.0
413.595703 88.0
423.609253 100.0
432.342621 100.0
447.698273 144.0
452.842468 48.0
459.418579 104.0
484.434357 52.0
497.435059 36.0
502.151733 84.0
504.965607 48.0
512.976379 72.0
521.759216 64.0
532.029663 92.0
555.138306 60.0
584.503235 88.0
613.627502 92.0
617.837097 168.0
656.702026 44.0
661.812561 72.0
668.038147 76.0
700.577759 120.0
713.906006 280.0
716.429016 84.0
729.922607 228.0
742.250916 164.0
783.149353 96.0
787.527954 100.0
790.619812 180.0
800.399048 84.0
800.939758 120.0
801.463684 52.0
802.653076 140.0
803.296021 208.0
824.475708 228.0
825.419006 92.0
825.836487 208.0
836.342712 124.0
838.456543 216.0
843.987 136.0
846.845886 116.0
850.876221 88.0
853.607178 52.0
854.776428 140.0
861.697815 40.0
869.509583 152.0
869.838318 80.0
874.758667 172.0
877.97583 140.0
879.344604 124.0
890.850037 164.0
904.811584 272.0
906.015381 160.0
910.075928 100.0
912.599548 164.0
917.398071 84.0
917.572876 140.0
938.796326 144.0
944.207397 40.0
952.359314 128.0
954.934692 164.0
955.168457 144.0
956.13446 164.0
965.15979 112.0
967.170471 220.0
970.317566 148.0
972.600525 176.0
972.954346 152.0
976.272522 128.0
980.624451 204.0
991.23645 48.0
992.026184 100.0
993.205139 136.0
993.606628 196.0
995.037598 140.0
995.345276 112.0
995.69696 84.0
996.463379 168.0
998.047302 132.0
998.437195 48.0
999.972351 160.0
1003.550598 196.0
1003.935242 180.0
1006.667847 160.0
1010.302307 196.0
1010.776855 212.0
1013.886292 192.0
1015.122498 136.0
1016.010559 84.0
1017.29248 156.0
1020.659912 132.0
1023.014038 184.0
1023.688965 56.0
1024.395996 64.0
1026.129517 140.0
1026.990356 140.0
1028.221802 180.0
1028.732422 256.0
1028.981445 180.0
1029.070801 116.0
1029.747803 172.0
1030.341919 248.0
1031.619995 128.0
1033.026978 124.0
1034.441284 60.0
1036.548462 180.0
1038.208862 112.0
1038.625732 64.0
1043.185059 28.0
1044.947266 248.0
1046.916992 116.0
1048.224731 200.0
1048.907959 104.0
1049.610718 156.0
1050.307251 116.0
1051.346069 160.0
1052.127075 180.0
1054.969727 56.0
1056.580078 188.0
1057.880859 176.0
1058.146362 140.0
1059.655518 128.0
1060.186768 100.0
1062.7677 216.0
1063.643921 172.0
1068.41394 84.0
1071.174194 172.0
1071.265381 200.0
1071.337036 200.0
1071.591187 160.0
1073.605469 224.0
1074.192505 136.0
1076.235229 144.0
1077.999023 84.0
1078.221191 172.0
1079.469849 276.0
1081.098877 176.0
1083.089233 168.0
1084.183472 172.0
1085.311035 84.0
1086.321045 172.0
1086.819702 196.0
1087.134644 20.0
1090.194946 64.0
1090.267334 204.0
1093.720337 112.0
1097.864746 212.0
1098.009766 172.0
1098.082397 132.0
1099.547119 136.0
1100.048706 180.0
1102.770264 156.0
1103.100708 148.0
1103.596558 60.0
1103.669312 128.0
1103.728882 188.0
1103.821411 180.0
1104.105835 172.0
1104.297607 108.0
1104.681274 228.0
1104.767212 196.0
1105.259766 220.0
1106.792603 176.0
1107.580688 120.0
1108.223389 248.0
1108.369141 108.0
1108.746826 152.0
1109.781006 140.0
1110.298218 164.0
1112.90625 136.0
1113.045654 120.0
1113.404297 68.0
1113.762939 136.0
1114.221313 244.0
1114.398926 156.0
1115.89624 116.0
1117.459351 128.0
1119.036743 136.0
1120.508667 248.0
1123.342163 172.0
1124.276245 144.0
1125.310913 152.0
1126.352783 152.0
1128.210571 156.0
1128.859131 144.0
1129.78894 164.0
1131.736572 152.0
1133.860229 84.0
1133.920532 204.0
1134.262329 172.0
1134.570801 148.0
1134.885864 136.0
1137.970947 168.0
1138.415527 164.0
1138.630493 160.0
1138.98645 120.0
1140.498413 220.0
1140.552124 84.0
1140.639526 132.0
1141.439575 140.0
1142.01123 136.0
1142.885864 96.0
1144.11084 148.0
1144.427246 208.0
1147.493042 176.0
1148.349487 84.0
1151.690674 144.0
1151.803589 188.0
1152.839233 220.0
1153.014893 56.0
1153.06897 152.0
1154.123657 108.0
1154.60376 156.0
1155.212524 52.0
1156.00415 140.0
1159.021362 180.0
1160.264771 104.0
1160.596924 180.0
1161.187012 192.0
1164.118896 216.0
1164.628296 232.0
1165.423096 136.0
1165.518188 156.0
1170.756348 140.0
1170.981079 176.0
1172.078003 180.0
1172.822266 192.0
1172.943481 144.0
1173.072998 152.0
1173.741211 180.0
1173.966309 244.0
1174.607422 68.0
1174.702881 204.0
1175.180542 180.0
1175.514893 172.0
1176.880127 116.0
1176.968872 192.0
1177.54248 244.0
1177.713257 224.0
1178.300781 92.0
1178.539917 156.0
1178.813232 180.0
1178.929443 140.0
1179.359985 192.0
1179.647095 192.0
1180.80957 128.0
1180.925781 176.0
1181.527832 156.0
1185.42395 168.0
1185.574707 148.0
1185.944824 200.0
1186.54126 204.0
1186.808594 152.0
1188.400024 140.0
1188.715576 220.0
1188.969482 156.0
1189.772705 136.0
1189.820679 152.0
1190.459351 228.0
1191.510254 160.0
1191.585815 56.0
1192.499878 196.0
1193.771729 164.0
1194.63147 156.0
1194.837891 136.0
1195.590576 212.0
1197.29541 44.0
1198.342407 176.0
1198.804077 148.0
1199.293457 32.0
1201.046631 176.0
1202.535278 220.0
1203.018555 172.0
1203.191162 172.0
1204.786499 148.0
1205.138794 128.0
1205.71936 116.0
1205.89209 168.0
1206.839233 180.0
1207.676025 100.0
1209.668945 200.0
1210.361328 148.0
1211.760498 100.0
1212.079224 208.0
1213.368408 60.0
1214.422485 156.0
1214.769409 180.0
1214.838745 148.0
1215.074585 124.0
1215.511719 136.0
1217.66394 180.0
1218.643433 144.0
1219.470459 156.0
1220.221191 212.0
1221.257324 172.0
1221.792969 160.0
1223.317139 108.0
1223.560791 116.0
1223.700073 128.0
1223.797485 184.0
1224.326782 172.0
1224.821289 156.0
1224.877075 132.0
1225.789795 36.0
1226.354248 192.0
1226.779541 216.0
1226.911987 180.0
1227.21875 132.0
1228.767212 112.0
1229.046265 172.0
1230.05127 128.0
1230.30957 148.0
1230.658691 160.0
1231.252197 204.0
1232.293091 156.0
1232.642456 200.0
1232.866089 152.0
1233.460205 148.0
1234.397095 148.0
1236.383911 168.0
1237.819092 160.0
1237.903931 204.0
1238.260254 148.0
1239.023804 92.0
1240.383423 168.0
1240.923218 224.0
1241.084473 172.0
1241.196655 176.0
1242.259888 128.0
1242.494263 196.0
1242.690796 172.0
1242.845093 144.0
1243.553955 188.0
1243.722412 164.0
1244.143555 164.0
1244.72644 164.0
1245.000244 72.0
1245.239014 144.0
1245.961182 120.0
1246.5177 172.0
1247.0448 188.0
1247.157227 108.0
1249.259888 176.0
1249.477905 160.0
1249.85083 200.0
1250.336426 152.0
1250.39978 132.0
1250.506348 148.0
1251.160034 88.0
1253.040527 160.0
1253.237793 160.0
1253.85791 148.0
1254.49939 176.0
1254.739136 56.0
1255.90979 80.0
1256.572876 108.0
1258.365601 220.0
1258.669312 124.0
1259.128296 132.0
1260.421143 140.0
1260.619019 200.0
1260.887573 124.0
1261.354004 204.0
1261.820679 244.0
1262.075195 172.0
1262.145874 200.0
1262.350952 212.0
1263.022827 200.0
1263.362427 196.0
1264.848511 152.0
1264.970337 180.0
1265.457397 156.0
1265.818481 76.0
1266.271729 128.0
1266.378052 236.0
1267.348633 168.0
1269.099365 48.0
1269.432617 132.0
1269.9646 192.0
1270.574707 172.0
1271.106812 204.0
1271.376465 148.0
1271.582275 244.0
1271.795288 120.0
1271.887573 104.0
1272.469727 188.0
1272.817627 164.0
1273.975342 164.0
1274.323486 80.0
1274.394531 168.0
1274.877686 208.0
1275.240234 180.0
1276.185669 208.0
1276.875488 224.0
1278.234375 164.0
1280.645874 172.0
1280.797485 160.0
1281.602539 204.0
1281.723633 112.0
1282.778442 64.0
1283.484375 164.0
1283.928467 72.0
1284.019165 136.0
1284.482788 104.0
1284.796753 216.0
1284.860962 180.0
1285.050903 188.0
1285.27478 160.0
1286.538086 136.0
1286.902222 152.0
1288.03064 136.0
1288.134277 140.0
1288.39502 180.0
1289.123779 168.0
1290.231689 184.0
1290.63208 112.0
1291.13269 152.0
1291.812256 200.0
1292.062622 156.0
1292.284424 220.0
1292.377441 204.0
1292.448975 40.0
1292.878418 168.0
1293.25061 52.0
1293.322144 52.0
1293.587036 180.0
1293.966431 124.0
1294.709839 224.0
1295.183838 336.0
1296.18689 140.0
1296.659912 164.0
1298.251587 128.0
1298.516846 156.0
1298.846802 112.0
1298.96167 68.0
1299.227051 152.0
1299.370605 120.0
1299.442261 128.0
1300.368042 152.0
1300.676636 120.0
1302.213257 116.0
1302.996338 68.0
1303.700562 204.0
1303.750854 188.0
1304.476807 116.0
1304.970581 212.0
1305.461792 216.0
1306.073242 68.0
1307.713745 208.0
1309.607422 192.0
1309.89563 136.0
1310.075684 184.0
1310.162109 144.0
1310.212524 116.0
1311.401611 160.0
1312.144165 204.0
1312.281128 148.0
1313.341187 136.0
1313.41333 228.0
1314.084351 156.0
1314.473999 164.0
1314.81311 212.0
1316.033081 164.0
1316.26416 168.0
1316.3479 244.0
1316.568726 184.0
1316.639771 220.0
1317.455933 172.0
1317.759399 104.0
1317.860596 224.0
1318.055664 56.0
1318.980835 148.0
1319.913452 140.0
1322.00415 136.0
1322.16333 184.0
1322.464722 112.0
1322.887207 136.0
1323.133301 296.0
1323.719849 160.0
1324.060181 196.0
1324.335449 140.0
1324.400635 156.0
1324.784546 160.0
1324.987427 160.0
1325.052612 236.0
1325.37146 68.0
1328.198975 60.0
1328.648682 104.0
1329.105835 144.0
1329.396118 100.0
1329.969482 60.0
1332.097168 180.0
1332.409546 176.0
1333.063477 192.0
1333.11438 80.0
1333.288818 176.0
1334.106079 224.0
1334.539185 232.0
1334.844482 220.0
1335.171753 148.0
1335.390015 152.0
1335.440918 136.0
1335.644531 132.0
1336.430298 152.0
1336.544922 188.0
1336.757812 124.0
1336.84082 220.0
1337.594727 240.0
1338.016968 208.0
1338.169922 96.0
1338.220825 176.0
1338.351929 124.0
1339.262329 184.0
1339.553711 84.0
1340.056396 116.0
1340.925537 200.0
1341.251587 144.0
1341.623413 128.0
1341.754639 192.0
1342.228638 208.0
1342.337891 176.0
1342.658813 168.0
1343.18396 104.0
1343.373657 168.0
1344.044922 172.0
1344.329468 116.0
1345.022827 136.0
1345.909912 208.0
1346.979858 216.0
1347.849365 136.0
1348.039307 120.0
1348.116455 188.0
1348.222046 192.0
1348.302368 192.0
1348.50708 176.0
1348.777466 124.0
1348.828735 200.0
1348.916382 148.0
1349.281982 92.0
1349.442749 180.0
1350.144775 152.0
1351.307983 124.0
1351.417725 152.0
1351.520142 164.0
1351.878662 72.0
1353.350098 144.0
1353.416016 160.0
1353.525757 164.0
1354.250854 132.0
1354.902832 216.0
1355.532959 144.0
1356.046021 216.0
1356.111938 180.0
1357.042969 160.0
1357.138306 96.0
1358.121704 168.0
1358.493896 240.0
1358.779297 148.0
1359.904053 156.0
1360.0802 160.0
1360.501587 144.0
1361.064087 164.0
1362.033447 172.0
1362.121582 144.0
1363.003296 216.0
1363.172363 100.0
1363.32666 104.0
1363.635376 72.0
1364.010254 196.0
1364.186646 128.0
1365.466064 160.0
1365.723511 112.0
1365.922119 88.0
1366.319458 116.0
1367.180298 256.0
1367.677612 176.0
1367.894287 44.0
1368.012085 120.0
1368.527466 132.0
1368.89563 148.0
1369.006104 196.0
1370.317261 152.0
1370.405762 84.0
1370.8479 164.0
1371.061523 112.0
1371.12793 176.0
1371.783936 200.0
1371.842896 168.0
1372.757202 92.0
1373.273438 160.0
1373.524292 156.0
1373.944702 228.0
1375.959595 172.0
1376.018677 168.0
1376.070435 196.0
1376.74231 168.0
1377.146484 156.0
1377.325806 128.0
1377.562256 132.0
1377.865112 136.0
1378.109009 124.0
1378.197632 104.0
1379.069702 164.0
1379.365356 284.0
1379.749756 96.0
1379.949463 124.0
1380.161499 148.0
1380.459595 140.0
1381.480347 168.0
1381.909546 144.0
1382.649536 108.0
1383.107666 188.0
1383.937622 116.0
1385.433716 176.0
1385.500366 132.0
1385.804199 44.0
1386.319458 172.0
1386.426636 132.0
1386.730469 180.0
1386.960327 172.0
1387.723877 228.0
1388.153931 156.0
1388.621216 200.0
1388.702759 148.0
1388.776978 196.0
1389.207275 172.0
1389.377808 160.0
1389.578125 176.0
1389.644897 92.0
1390.008545 148.0
1390.691284 44.0
1390.943726 92.0
1391.329712 120.0
1392.205933 236.0
1392.918945 216.0
1393.074951 172.0
1393.884888 248.0
1393.973999 168.0
1395.423584 236.0
1395.602051 172.0
1395.854858 232.0
1396.762207 148.0
1396.93335 140.0
1397.000244 200.0
1398.443848 68.0
1398.866821 176.0
1398.994751 60.0
1399.83606 136.0
1400.305298 216.0
1400.729858 156.0
1401.5271 208.0
1401.877319 152.0
1401.93689 220.0
1402.130737 144.0
1402.518311 180.0
1402.60022 200.0
1403.156982 184.0
1403.301025 52.0
1403.62915 120.0
1404.13623 204.0
1404.3302 212.0
1404.71814 124.0
1405.785034 180.0
1405.844727 192.0
1406.053711 156.0
1406.173096 160.0
1407.009277 216.0
1407.419922 64.0
1407.599121 168.0
1407.770874 168.0
1408.764282 196.0
1410.520386 136.0
1410.961548 44.0
1411.096069 224.0
1411.178345 124.0
1411.440063 68.0
1411.514771 272.0
1411.879395 132.0
1411.94104 160.0
1412.075684 240.0
1412.255249 200.0
1413.280151 92.0
1413.751587 180.0
1414.223145 224.0
1414.559937 236.0
1414.934326 148.0
1415.114014 180.0
1415.361084 136.0
1415.651245 204.0
1416.093506 160.0
1416.4021 252.0
1416.746704 168.0
1416.896606 60.0
1417.39856 216.0
1417.690918 124.0
1417.743286 200.0
1418.372925 96.0
1418.470337 180.0
1418.710327 152.0
1419.242554 136.0
1419.47522 184.0
1419.587524 108.0
1420.157593 168.0
1420.23938 180.0
1420.922729 80.0
1421.598022 136.0
1422.040894 204.0
1422.41626 176.0
1422.919189 204.0
1423.812744 220.0
1424.008057 176.0
1424.413696 200.0
1424.526367 180.0
1425.309814 164.0
1425.36792 152.0
1425.465576 192.0
1425.563232 52.0
1425.976685 184.0
1426.203735 112.0
1427.276733 128.0
1427.690796 152.0
1428.164673 184.0
1429.127686 100.0
1429.448975 264.0
1429.503906 128.0
1429.707031 220.0
1429.842529 156.0
1430.507202 148.0
1431.1073 180.0
1431.822632 224.0
1431.890503 132.0
1431.943115 180.0
1432.26709 148.0
1433.299194 200.0
1433.657471 196.0
1433.738281 152.0
1434.196045 192.0
1434.384521 148.0
1434.474976 184.0
1434.583862 188.0
1434.655884 92.0
1435.387329 48.0
1435.636108 160.0
1435.922729 184.0
1436.737427 88.0
1437.137329 132.0
1437.333496 220.0
1437.476929 140.0
1437.657959 204.0
1437.974976 168.0
1438.49585 168.0
1439.06958 72.0
1439.160278 228.0
1439.74646 160.0
1440.225098 148.0
1441.010742 176.0
1441.214844 136.0
1441.47168 172.0
1441.577515 124.0
1441.978027 44.0
1442.371094 92.0
1442.560059 120.0
1442.696167 184.0
1443.966553 148.0
1444.019531 208.0
1444.080078 128.0
1444.276733 188.0
1444.603882 216.0
1444.753296 204.0
1444.881836 176.0
1445.18457 196.0
1445.252686 76.0
1445.449341 160.0
1445.888306 172.0
1446.501465 216.0
1447.069214 132.0
1447.993896 196.0
1448.4552 124.0
1448.523315 160.0
1449.394653 152.0
1450.385376 208.0
1451.221436 220.0
1452.321045 140.0
1452.472778 252.0
1453.261841 160.0
1453.519775 164.0
1453.944824 160.0
1454.324219 156.0
1454.843262 204.0
1454.939209 172.0
1455.447876 144.0
1456.100952 152.0
1456.244995 184.0
1456.412354 168.0
1456.875854 156.0
1457.15686 172.0
1457.529175 180.0
1457.711548 52.0
1458.046021 204.0
1458.949463 184.0
1459.178589 140.0
1459.680542 100.0
1459.832642 148.0
1459.99231 160.0
1460.197632 200.0
1460.406738 172.0
1461.620239 164.0
1461.825684 84.0
1462.290039 188.0
1462.602051 236.0
1462.929443 164.0
1463.332886 152.0
1463.6604 172.0
1464.041138 140.0
1464.239136 104.0
1464.779907 232.0
1465.305664 88.0
1465.602783 160.0
1466.646851 164.0
1466.807007 208.0
1466.921265 232.0
1467.005127 216.0
1467.53125 72.0
1467.64563 236.0
1468.362427 132.0
1468.560791 60.0
1468.705688 196.0
1468.896362 48.0
1469.476196 208.0
1470.193481 188.0
1471.369019 244.0
1471.453003 212.0
1473.156128 176.0
1473.859009 228.0
1474.500977 140.0
1474.577393 148.0
1474.707397 72.0
1475.199585 172.0
1477.746826 188.0
1478.01123 164.0
1478.179565 184.0
1478.317261 52.0
1478.592773 148.0
1479.266479 156.0
1479.52124 156.0
1479.840576 180.0
1480.23877 88.0
1480.453247 136.0
1481.234497 76.0
1481.834595 192.0
1482.03125 56.0
1482.084961 188.0
1482.912598 124.0
1483.027588 160.0
1483.318848 68.0
1484.392212 144.0
1484.698975 156.0
1485.289673 180.0
1485.619507 88.0
1485.783203 220.0
1486.325317 144.0
1486.555542 180.0
1486.696289 188.0
1487.461304 168.0
1488.213623 164.0
1489.373291 148.0
1490.003296 184.0
1490.940796 144.0
1491.348145 208.0
1491.832397 160.0
1492.409058 200.0
1492.509033 152.0
1492.562866 124.0
1492.639771 228.0
1493.554932 184.0
1494.424316 140.0
1494.555054 132.0
1494.801392 204.0
1495.678711 200.0
1495.942993 112.0
1496.533325 124.0
1496.918335 204.0
1497.411255 168.0
1497.973511 48.0
1498.212402 184.0
1498.343384 140.0
1498.474365 160.0
1498.728638 164.0
1499.083008 56.0
1499.776733 176.0
1500.809814 204.0
1501.372681 148.0
1502.336914 200.0
1503.486694 116.0
1505.331787 168.0
