>compound Lapatinib
>formula C29H26ClFN4O4S
>ionization [M+H]+
>parentmass 581.142517
#inchi InChI=1S/C29H26ClFN4O4S/c1-40(36,37)12-11-32-16-23-7-10-27(39-23)20-5-8-26-24(14-20)29(34-18-33-26)35-22-6-9-28(25(30)15-22)38-17-19-3-2-4-21(31)13-19/h2-10,13-15,18,32H,11-12,16-17H2,1H3,(H,33,34,35)
#inchikey BCFGMOOMADDAQU
#Ion_Source LC-ESI
#Instrument qTof
#Compound_Source Commercial
#PI Dorrestein
#Data_Collector Garg_Neha
#Scan -1
#Precursor_MZ 581.142
#ExactMass 580.135
#Charge 1
#CAS_Number 231277-92-2, 1187538-35-7 (4-methylbenzenesulfonate)
#Pubmed_ID N/A
#Smiles C1=C(C=C2C(=C1)N=CN=C2NC3=CC=C(C(=C3)Cl)OCC4=CC=CC(=C4)F)C5OC(=CC=5)CNCCS(=O)(C)=O
#INCHI_AUX N/A
#Library_Class 1
#SpectrumID CCMSLIB00000078440
#IonMode Positive
#UpdateWorkflowName UPDATE-SINGLE-ANNOTATED-GOLD
#LibraryQualityString Gold
#TaskID 77f51c88eb8b467eb4a01dd2d0cb90d2
##Scan# 1108
#SpectrumFile Plate7_1_20_GD2_01_15767.mzXML
#LibraryName FDALibrary_2_04302014.mgf
#MQScore -1
#Organism FDALibrary_2_04302014
#TIC_Query 0
#RT_Query -1
#MZErrorPPM -1
#SharedPeaks 0
#MassDiff 0
#LibMZ -1
#SpecMZ 581.142
#SpecCharge 0
#internalFilename spec-00000.mgf

>collision 10
45.191998 172.0
59.263485 156.0
72.067337 232.0
82.339561 252.0
93.157539 192.0
94.487785 148.0
113.216492 176.0
121.196693 176.0
125.56633 128.0
126.552826 168.0
130.858719 148.0
139.936081 140.0
144.91217 148.0
144.996048 176.0
145.355759 160.0
146.105423 176.0
163.897354 172.0
173.982925 264.0
174.045929 176.0
184.045425 196.0
187.482437 176.0
191.909576 192.0
197.066742 160.0
200.081787 192.0
207.058884 148.0
208.056763 152.0
212.054871 140.0
215.515015 288.0
217.947037 140.0
224.082993 188.0
225.20842 144.0
228.791916 204.0
230.792267 152.0
231.088684 152.0
239.083847 172.0
244.027039 180.0
246.827087 160.0
249.215591 188.0
250.628372 196.0
256.507477 156.0
258.098999 228.0
260.05484 200.0
271.048828 172.0
274.910065 144.0
282.020905 176.0
285.084198 156.0
286.091919 204.0
295.85733 148.0
296.046814 224.0
298.034973 104.0
299.073822 192.0
303.043884 168.0
303.069519 152.0
305.757355 200.0
307.015015 204.0
307.070831 144.0
307.894501 160.0
309.590668 140.0
311.08136 128.0
312.046936 140.0
313.127258 164.0
313.454895 188.0
314.080566 144.0
315.095612 140.0
315.130951 140.0
321.062347 196.0
322.069611 360.0
323.060547 140.0
323.180969 168.0
324.008026 152.0
324.062195 100.0
325.068115 148.0
326.060547 148.0
329.08783 152.0
330.105499 176.0
332.045868 136.0
332.347717 172.0
334.079834 272.0
335.077057 264.0
336.076416 124.0
337.053528 156.0
338.082489 176.0
339.062775 152.0
340.268158 140.0
340.830109 148.0
348.074951 168.0
348.400726 156.0
349.060028 2960.0
350.068024 9460.0
351.072479 2856.0
351.173096 176.0
351.838165 144.0
352.067047 3236.0
352.988983 164.0
353.068726 1420.0
353.114502 152.0
353.407928 172.0
353.546387 148.0
354.075623 336.0
359.076233 160.0
362.067322 132.0
363.065033 284.0
363.981232 144.0
364.081116 792.0
364.626373 180.0
364.894928 120.0
364.966949 232.0
365.011017 160.0
365.08017 30052.0
365.161987 252.0
365.359924 144.0
365.412872 104.0
365.657745 176.0
365.796783 136.0
366.082672 6952.0
366.497467 172.0
366.87146 124.0
367.077271 10540.0
368.07959 1564.0
368.28183 172.0
368.466949 156.0
369.08847 316.0
369.292786 148.0
369.592224 192.0
370.087402 120.0
370.319611 148.0
370.494781 144.0
376.113068 132.0
377.083313 148.0
377.740936 228.0
378.083832 124.0
378.274963 140.0
378.480164 204.0
378.631195 168.0
379.09436 10852.0
379.156403 256.0
379.770691 144.0
380.096558 2584.0
380.445862 204.0
381.092133 4048.0
382.004211 160.0
382.092896 408.0
383.110016 144.0
385.087036 136.0
389.117035 160.0
392.684082 120.0
393.110046 1564.0
394.107269 948.0
395.106354 584.0
395.163055 144.0
396.115082 140.0
399.352203 144.0
413.083099 156.0
419.114777 108.0
420.12204 120.0
421.123383 144.0
422.12973 688.0
423.130005 248.0
430.097809 100.0
431.111237 112.0
432.102692 116.0
434.108368 184.0
437.129883 148.0
441.063507 140.0
444.130096 152.0
444.554382 152.0
446.117126 124.0
447.475739 152.0
450.943298 232.0
458.107788 2148.0
459.110077 1068.0
460.099609 368.0
461.111084 480.0
471.090424 512.0
472.100403 408.0
473.111237 548.0
474.120575 336.0
475.128204 300.0
476.133148 144.0
478.138977 112.0
479.801849 144.0
480.11145 144.0
487.129059 204.0
488.136963 108.0
489.119171 116.0
501.158569 240.0
502.093292 152.0
502.134338 156.0
503.142914 196.0
504.137634 144.0
507.997559 144.0
509.496979 156.0
526.789551 160.0
533.829712 140.0
538.22583 188.0
545.936829 168.0
546.820801 164.0
548.269226 160.0
551.765442 140.0
578.946838 176.0
579.764404 140.0
579.967163 104.0
580.120605 184.0
580.441956 200.0
580.514709 164.0
580.928223 196.0
581.046326 152.0
581.142517 41828.0
581.486694 96.0
581.556335 144.0
581.651917 316.0
581.734619 112.0
582.145081 14592.0
582.405579 216.0
582.486267 112.0
582.82312 152.0
583.139648 15420.0
583.350525 132.0
583.762817 132.0
584.144043 3832.0
585.067993 128.0
585.140442 1092.0
585.281128 260.0
585.456543 104.0
585.569702 108.0
585.644348 136.0
586.123718 156.0
586.694519 132.0
587.565369 144.0
601.224915 140.0
722.638062 160.0
737.880676 156.0
