>compound Griseofulvin
>formula C17H17ClO6 
>ionization [M+H]+
>parentmass 353.078918
#inchi InChI=1S/C17H17ClO6/c1-8-5-9(19)6-12(23-4)17(8)16(20)13-10(21-2)7-11(22-3)14(18)15(13)24-17/h6-8H,5H2,1-4H3/t8-,17+/m1/s1
#inchikey DDUHZTYCFQRHIY
#Ion_Source LC-ESI
#Instrument qTof
#Compound_Source Commercial
#PI Dorrestein
#Data_Collector Garg_Neha
#Scan -1
#Precursor_MZ 353.081
#ExactMass 352.071
#Charge 1
#CAS_Number N/A
#Pubmed_ID N/A
#Smiles N/A
#INCHI_AUX N/A
#Library_Class 1
#SpectrumID CCMSLIB00000077081
#IonMode Positive
#UpdateWorkflowName UPDATE-SINGLE-ANNOTATED-GOLD
#LibraryQualityString Gold
#TaskID 48f7f52fc6d249b5abbcc6e7b3df5969
##Scan# 1388
#SpectrumFile NCP003106_A2_B11_BB2_01_15705.mzXML
#LibraryName NIH_Clinical_Collection_2.mgf
#MQScore -1
#Organism NIHcollection2_04212014_2_mgf
#TIC_Query 0
#RT_Query -1
#MZErrorPPM -1
#SharedPeaks 0
#MassDiff 0
#LibMZ -1
#SpecMZ 353.081
#SpecCharge 0
#internalFilename spec-00000.mgf

>collision 10
46.929787 208.0
47.560455 140.0
48.006382 172.0
53.999165 164.0
57.552792 180.0
58.369518 208.0
59.63076 180.0
69.543816 372.0
70.732277 164.0
71.534668 140.0
75.578163 152.0
78.183563 152.0
83.272354 228.0
87.981216 240.0
88.727676 152.0
89.56768 188.0
91.560066 232.0
92.53791 168.0
96.653137 232.0
99.043198 148.0
102.02858 152.0
104.695488 212.0
104.791222 212.0
105.248108 204.0
107.051064 188.0
109.06295 164.0
113.13327 220.0
116.883362 148.0
117.102951 188.0
118.128235 140.0
119.049385 140.0
119.436249 208.0
122.034027 616.0
123.038948 156.0
126.26989 144.0
127.116707 176.0
127.386124 200.0
128.63591 252.0
129.010986 216.0
129.99617 152.0
131.00795 152.0
133.02858 244.0
135.044434 168.0
136.058365 204.0
137.058472 480.0
141.992966 148.0
142.998917 156.0
148.052109 164.0
150.031647 656.0
150.066238 232.0
151.031921 160.0
154.101334 260.0
155.024277 192.0
156.310593 156.0
156.96756 272.0
156.984604 188.0
159.127563 160.0
159.637634 164.0
159.881653 184.0
160.010025 204.0
161.150024 156.0
161.369919 140.0
163.070862 152.0
163.808762 228.0
164.911072 152.0
165.010696 164.0
165.055313 19756.0
166.059235 1528.0
167.055328 188.0
167.224548 168.0
167.422073 104.0
168.044006 160.0
169.033264 252.0
169.87825 196.0
170.975571 136.0
171.026779 252.0
171.993347 700.0
173.989807 256.0
174.025299 180.0
175.011276 316.0
181.025848 164.0
182.009964 148.0
183.065002 276.0
184.994873 132.0
185.016205 156.0
186.301651 248.0
187.008636 184.0
187.984299 184.0
189.219772 224.0
189.60051 144.0
190.060944 216.0
190.80278 204.0
192.961502 148.0
193.207642 180.0
194.901672 164.0
197.036057 272.0
197.547485 172.0
198.040131 156.0
199.044403 196.0
199.988327 1296.0
200.987213 460.0
201.988403 592.0
202.09993 136.0
202.989029 140.0
208.068588 164.0
210.014664 136.0
212.016739 168.0
212.799942 164.0
213.054214 108.0
214.00589 260.0
214.079346 176.0
215.010681 16884.0
215.102707 184.0
216.013641 1312.0
216.075851 168.0
216.854767 156.0
217.007782 4012.0
217.240891 112.0
217.338638 140.0
218.009613 560.0
218.060181 452.0
219.995468 344.0
221.079742 220.0
222.088135 152.0
223.011353 184.0
223.09201 188.0
224.024124 324.0
225.004608 176.0
225.032944 156.0
226.022141 328.0
227.012863 272.0
227.993988 160.0
228.038055 212.0
228.267548 180.0
229.001862 148.0
229.028961 172.0
232.032745 144.0
235.013702 148.0
238.000732 260.0
240.022324 184.0
241.021774 276.0
241.084213 172.0
242.033875 148.0
243.064926 216.0
247.59877 144.0
250.039841 284.0
251.032013 240.0
251.93634 172.0
252.015411 144.0
253.026123 408.0
254.016953 172.0
255.005112 436.0
256.023682 156.0
256.697296 144.0
257.008514 192.0
257.055725 456.0
259.056335 140.0
262.027679 156.0
262.101776 164.0
263.014526 152.0
263.744446 144.0
264.01474 356.0
265.065796 276.0
267.718872 196.0
268.0047 144.0
269.015594 120.0
270.027893 1508.0
270.069183 140.0
271.027405 136.0
272.02298 332.0
273.833374 180.0
276.019501 288.0
276.077545 148.0
277.028503 184.0
278.031494 544.0
278.091858 148.0
279.035828 564.0
280.031921 160.0
281.037445 368.0
282.968811 152.0
283.007477 140.0
283.039734 452.0
284.041199 148.0
285.052551 6784.0
285.142487 160.0
286.053375 1560.0
286.100647 136.0
286.710205 180.0
287.049835 2036.0
288.050018 496.0
288.219208 156.0
291.00116 208.0
291.042877 132.0
293.05661 560.0
294.026154 140.0
294.056854 152.0
295.056274 228.0
296.001953 132.0
296.049591 140.0
297.102264 168.0
304.050903 236.0
306.02713 416.0
306.973877 164.0
308.018982 152.0
310.023407 164.0
311.028534 396.0
311.065735 836.0
312.033905 180.0
312.070221 144.0
313.022491 144.0
313.064331 344.0
314.061859 176.0
314.301727 152.0
316.001251 172.0
321.051208 1556.0
322.052277 456.0
323.049438 432.0
324.050781 172.0
331.872742 180.0
335.069824 260.0
335.537628 216.0
340.073608 172.0
349.75412 232.0
351.248322 160.0
351.696075 140.0
352.013397 164.0
352.977478 140.0
353.078918 34872.0
353.312622 120.0
353.521942 96.0
353.893372 176.0
353.95932 104.0
354.080536 7088.0
354.920868 156.0
355.014435 204.0
355.076782 6244.0
355.238892 140.0
355.308228 192.0
355.378448 144.0
355.692047 108.0
356.077576 996.0
357.072418 144.0
357.874176 144.0
537.330261 140.0
1474.500366 148.0
1626.405884 140.0
1657.317505 144.0
1687.023804 140.0
1756.29126 156.0
1803.987671 140.0
1863.724731 196.0
1908.898682 144.0
1937.264648 164.0
1948.950928 156.0
2001.36792 188.0
