>compound Azithromycin
>formula C38H72N2O12 
>ionization [M+H]+
>parentmass 749.515808
#inchi InChI=1S/C38H72N2O12/c1-15-27-38(10,46)31(42)24(6)40(13)19-20(2)17-36(8,45)33(52-35-29(41)26(39(11)12)16-21(3)48-35)22(4)30(23(5)34(44)50-27)51-28-18-37(9,47-14)32(43)25(7)49-28/h20-33,35,41-43,45-46H,15-19H2,1-14H3/t20-,21-,22+,23-,24-,25+,26+,27-,28+,29-,30+,31-,32+,33-,35+,36-,37-,38-/m1/s1
#inchikey MQTOSJVFKKJCRP
#Ion_Source LC-ESI
#Instrument qTof
#Compound_Source Commercial
#PI Dorrestein
#Data_Collector Garg_Neha
#Scan -1
#Precursor_MZ 749.519
#ExactMass 748.509
#Charge 1
#CAS_Number N/A
#Pubmed_ID N/A
#Smiles N/A
#INCHI_AUX N/A
#Library_Class 1
#SpectrumID CCMSLIB00000077129
#IonMode Positive
#UpdateWorkflowName UPDATE-SINGLE-ANNOTATED-GOLD
#LibraryQualityString Gold
#TaskID 48f7f52fc6d249b5abbcc6e7b3df5969
##Scan# 1056
#SpectrumFile NCP003195_A2A7B2B6C2C6D2D6_BB6_01_15710.mzXML
#LibraryName NIH_Clinical_Collection_2.mgf
#MQScore -1
#Organism NIHcollection2_04212014_2_mgf
#TIC_Query 0
#RT_Query -1
#MZErrorPPM -1
#SharedPeaks 0
#MassDiff 0
#LibMZ -1
#SpecMZ 749.519
#SpecCharge 0
#internalFilename spec-00000.mgf

>collision 10
46.904762 152.0
47.222904 260.0
49.25486 176.0
51.113102 232.0
53.418076 164.0
56.272938 140.0
56.855228 224.0
64.885185 140.0
67.043129 216.0
71.389236 140.0
74.718155 152.0
76.966194 140.0
79.407082 192.0
81.227989 152.0
98.097427 916.0
98.352097 204.0
105.332794 164.0
109.060402 180.0
110.097954 184.0
112.96492 156.0
113.054947 360.0
115.075493 1024.0
115.746651 176.0
116.070381 972.0
116.106888 3408.0
117.084503 144.0
117.109314 428.0
121.43573 240.0
127.077248 544.0
129.206314 212.0
130.958755 196.0
139.64151 140.0
140.106964 184.0
140.416367 160.0
142.948868 144.0
143.109329 208.0
144.095764 144.0
150.138351 164.0
156.136673 332.0
158.118088 17924.0
159.121002 1184.0
160.122955 440.0
174.149551 200.0
176.12764 172.0
177.124847 308.0
182.150711 160.0
186.149384 1176.0
187.14917 180.0
189.176743 224.0
195.117416 136.0
195.138107 212.0
219.017975 204.0
225.151581 140.0
227.754272 140.0
240.143188 176.0
242.173248 172.0
256.189728 244.0
257.990906 176.0
274.194 280.0
279.957397 188.0
285.216827 148.0
293.473907 212.0
300.209076 100.0
324.442261 168.0
340.256195 160.0
348.255798 160.0
358.2659 160.0
359.259491 120.0
359.287537 160.0
380.276581 244.0
380.328491 172.0
381.283936 172.0
391.136444 224.0
392.720398 152.0
398.289337 2436.0
399.29483 620.0
400.293976 308.0
413.295654 152.0
414.27713 196.0
416.30249 508.0
417.304047 300.0
418.312927 140.0
432.298523 164.0
434.311249 1596.0
434.40451 144.0
435.317444 1140.0
441.978729 140.0
444.290955 276.0
445.30304 140.0
457.323456 652.0
458.337341 336.0
462.310577 120.0
475.33725 176.0
476.332825 204.0
477.327637 224.0
515.342529 144.0
515.372681 256.0
537.384705 160.0
542.31427 224.0
546.842712 140.0
556.38562 188.0
571.385376 168.0
571.421875 176.0
573.410645 6624.0
573.543701 128.0
574.082397 108.0
574.414612 2020.0
575.412842 768.0
576.421021 240.0
589.402039 100.0
590.395142 160.0
590.611023 148.0
590.644897 192.0
591.422363 9844.0
592.346191 148.0
592.421997 4848.0
592.492859 184.0
592.810425 112.0
593.421204 1156.0
594.422241 352.0
595.407715 112.0
611.371338 164.0
614.603882 148.0
643.878418 144.0
647.3526 188.0
649.242859 188.0
654.028809 168.0
673.462036 164.0
680.598206 144.0
700.856628 148.0
706.251953 156.0
711.200745 160.0
717.115234 148.0
719.136658 208.0
731.503357 104.0
732.531067 232.0
735.005676 204.0
741.844666 108.0
743.398499 180.0
744.234009 152.0
745.61908 120.0
746.385315 136.0
747.00238 112.0
747.095703 180.0
747.488892 240.0
747.662659 108.0
748.065369 164.0
748.112427 268.0
748.268677 168.0
748.365112 304.0
748.512329 128.0
748.730103 124.0
749.015259 132.0
749.077881 132.0
749.159607 100.0
749.263794 100.0
749.279968 164.0
749.302734 176.0
749.321228 228.0
749.380737 200.0
749.422058 172.0
749.515808 44308.0
749.730408 404.0
749.774963 360.0
749.855042 276.0
749.980713 236.0
750.06488 188.0
750.272705 184.0
750.407166 232.0
750.520081 19352.0
750.764404 140.0
750.842102 144.0
751.126587 128.0
751.286987 124.0
751.519714 5412.0
751.678284 176.0
751.839172 112.0
751.977478 96.0
752.174805 208.0
752.387756 140.0
752.525452 1248.0
752.639099 204.0
752.766968 144.0
753.455627 96.0
753.536987 144.0
753.753052 124.0
753.889954 156.0
754.124146 160.0
754.215881 96.0
754.48175 100.0
754.602905 148.0
755.231567 112.0
755.434143 184.0
845.795837 184.0
983.003967 148.0
989.473083 168.0
1059.402344 148.0
1066.423218 156.0
1081.974365 168.0
1191.942627 160.0
1350.852661 180.0
1358.661865 168.0
1385.489502 172.0
1402.014526 144.0
1474.729614 152.0
1638.290039 232.0
1665.599609 168.0
1682.390747 184.0
1695.371338 216.0
1696.313843 156.0
1795.85437 192.0
1844.405884 220.0
1845.354858 204.0
1849.007446 172.0
1869.552734 184.0
1895.848877 140.0
1939.654419 248.0
1971.029541 216.0
