>compound 1H-Imidazole-5-carboxylic acid, 1-(1-phenylethyl)-, ethyl ester, (R)- [CAS]
>formula C14H16N2O2
>ionization [M+H]+
>parentmass 245.128342
#inchi InChI=1S/C14H16N2O2/c1-3-18-14(17)13-9-15-10-16(13)11(2)12-7-5-4-6-8-12/h4-11H,3H2,1-2H3/t11-/m1/s1
#inchikey NPUKDXXFDDZOKR
#Ion_Source LC-ESI
#Instrument qTof
#Compound_Source Commercial
#PI Dorrestein
#Data_Collector Garg_Neha
#Scan -1
#Precursor_MZ 245.128
#ExactMass 244.121
#Charge 1
#CAS_Number N/A
#Pubmed_ID N/A
#Smiles CCOC(=O)c1cncn1[C@H](C)c2ccccc2
#INCHI_AUX N/A
#Library_Class 1
#SpectrumID CCMSLIB00000079142
#IonMode Positive
#UpdateWorkflowName UPDATE-SINGLE-ANNOTATED-GOLD
#LibraryQualityString Gold
#TaskID 278b19f5865741e282cec7349aa7e7a1
##Scan# 1181
#SpectrumFile NCP003512_G2_H11_BD7_01_15731.mzXML
#LibraryName NIHcollectionI_05062014.mgf
#MQScore -1
#Organism NIHcollectionI_05062014
#TIC_Query 0
#RT_Query -1
#MZErrorPPM -1
#SharedPeaks 0
#MassDiff 0
#LibMZ -1
#SpecMZ 245.128
#SpecCharge 0
#internalFilename spec-00000.mgf

>collision 10
45.108723 380.0
45.167561 176.0
45.321518 176.0
45.708229 208.0
45.736492 192.0
45.824024 208.0
45.980446 140.0
46.068214 212.0
46.13443 212.0
46.235874 172.0
46.612873 152.0
46.694439 172.0
46.752941 176.0
46.901394 168.0
47.095146 148.0
47.145699 216.0
47.24688 216.0
47.575691 116.0
47.633461 192.0
47.684299 140.0
47.843494 180.0
47.918232 180.0
48.116833 184.0
48.164558 148.0
48.271584 192.0
48.315845 296.0
48.358742 164.0
48.488934 168.0
48.804047 156.0
49.069981 180.0
49.699379 220.0
49.933975 160.0
50.016991 204.0
50.259388 164.0
50.404827 180.0
50.454296 248.0
50.687832 140.0
50.74453 144.0
50.825375 192.0
51.617359 192.0
51.8507 156.0
51.992683 204.0
52.065899 192.0
52.390972 160.0
52.473118 216.0
52.78355 180.0
52.860218 164.0
52.875301 212.0
53.199932 248.0
53.371922 172.0
53.694279 212.0
53.818123 176.0
53.834145 144.0
53.876545 212.0
54.207211 192.0
54.778667 160.0
55.094429 252.0
55.22599 140.0
55.449558 260.0
55.837051 204.0
55.85936 156.0
55.877213 160.0
56.043968 152.0
56.307495 152.0
56.508312 164.0
56.529259 224.0
56.559193 144.0
56.750946 152.0
56.923504 160.0
57.033176 168.0
57.141449 172.0
57.164021 164.0
57.444256 176.0
57.456326 196.0
57.543858 148.0
57.583122 152.0
57.681332 156.0
57.828049 152.0
57.993141 180.0
58.088669 140.0
58.383324 156.0
58.431999 156.0
58.450256 224.0
58.724472 248.0
58.787022 168.0
59.196705 228.0
59.28709 168.0
59.326942 188.0
59.672367 204.0
59.721577 220.0
60.021885 140.0
60.339947 176.0
60.888485 156.0
61.121666 172.0
61.317883 152.0
61.659672 140.0
61.762863 164.0
61.787434 204.0
61.844227 232.0
62.808987 224.0
62.86105 156.0
63.003151 140.0
63.19445 156.0
63.354355 140.0
64.053955 128.0
64.072426 140.0
64.2127 140.0
64.297256 196.0
64.656845 200.0
64.88269 204.0
64.950043 160.0
65.072006 176.0
65.152306 204.0
65.295364 168.0
65.725479 168.0
65.740875 252.0
65.954803 212.0
66.027557 216.0
66.265511 208.0
66.344925 148.0
66.560715 168.0
66.721565 168.0
66.867958 144.0
67.058517 176.0
67.308113 140.0
68.209724 272.0
68.395058 160.0
68.431274 152.0
68.563049 156.0
68.756004 156.0
68.789017 140.0
68.980637 212.0
69.356384 324.0
69.482414 168.0
70.01265 164.0
70.242172 192.0
70.538216 184.0
70.687065 180.0
70.805923 204.0
71.048973 212.0
71.35463 160.0
71.477409 184.0
71.662628 180.0
71.691269 144.0
71.976357 200.0
72.241699 176.0
72.294151 188.0
72.307686 156.0
72.402496 196.0
72.599075 200.0
72.653358 200.0
72.712746 160.0
73.038696 152.0
73.890205 156.0
74.2705 208.0
74.55722 184.0
74.739502 140.0
75.284752 180.0
75.948631 160.0
76.011261 180.0
76.205734 148.0
76.238747 200.0
76.263077 164.0
76.544907 152.0
76.572777 140.0
76.623291 140.0
76.654648 216.0
77.159073 152.0
77.512634 172.0
78.044479 184.0
78.191498 188.0
78.421204 180.0
78.532288 160.0
78.821808 172.0
79.049919 184.0
79.276581 148.0
79.599434 148.0
79.946075 140.0
80.06237 160.0
80.802551 140.0
80.861603 172.0
81.047836 220.0
81.401207 172.0
81.580872 144.0
81.922791 200.0
82.077789 148.0
82.312363 276.0
82.356773 168.0
82.411705 188.0
83.081581 188.0
83.284882 144.0
83.312134 144.0
83.432076 180.0
83.657654 160.0
84.211975 180.0
84.370949 204.0
84.387398 276.0
84.422142 200.0
84.515434 188.0
84.617928 192.0
85.206642 140.0
85.578163 152.0
85.638931 288.0
85.725517 168.0
86.002159 224.0
86.218246 176.0
86.375397 204.0
86.399452 256.0
86.676216 196.0
87.46833 200.0
87.535355 196.0
87.898849 156.0
88.160278 160.0
88.380928 168.0
88.644951 176.0
88.886848 140.0
88.923965 216.0
89.149384 208.0
89.236 184.0
89.467613 184.0
89.516563 224.0
89.561768 172.0
89.637123 148.0
90.012497 168.0
90.125832 140.0
90.27327 220.0
90.424614 204.0
90.581772 148.0
90.695457 204.0
90.769394 140.0
91.067345 144.0
91.586594 168.0
91.61898 144.0
91.632317 196.0
92.019478 164.0
92.101456 168.0
92.235352 176.0
92.254463 168.0
92.302261 140.0
92.384499 172.0
92.53186 172.0
92.644852 152.0
92.840355 180.0
93.176262 172.0
93.345398 192.0
93.397324 156.0
93.462738 188.0
93.626358 180.0
93.888451 184.0
94.121948 148.0
94.392853 188.0
94.431145 176.0
94.496918 148.0
94.651756 152.0
94.709862 152.0
94.779892 212.0
94.888077 172.0
94.940437 140.0
94.944832 136.0
94.981224 148.0
94.998421 280.0
95.024712 73664.0
95.102013 224.0
95.1287 180.0
95.164467 104.0
95.201843 140.0
95.35984 188.0
96.027023 5036.0
96.129089 168.0
96.603867 168.0
96.752594 144.0
96.89164 148.0
97.028633 212.0
97.18573 212.0
97.26619 140.0
97.472404 160.0
97.765404 160.0
97.786308 180.0
98.755798 160.0
99.056091 152.0
99.213211 196.0
99.292526 180.0
99.623077 208.0
99.846619 172.0
100.019714 196.0
100.54789 140.0
100.645706 172.0
101.476044 200.0
101.54422 176.0
101.845284 188.0
102.044617 144.0
102.088463 148.0
102.145477 264.0
102.189034 144.0
102.289658 140.0
102.430611 100.0
102.620049 144.0
102.666428 140.0
102.686592 176.0
102.944908 192.0
103.054619 4876.0
103.30265 184.0
103.320854 176.0
103.74337 112.0
104.058853 556.0
104.550468 180.0
104.714638 144.0
104.945648 208.0
105.008553 160.0
105.031044 220.0
105.046951 160.0
105.070404 54488.0
105.126106 124.0
105.148277 108.0
105.249664 220.0
105.526543 156.0
105.590202 124.0
105.721863 160.0
106.020851 156.0
106.073929 3040.0
106.18486 216.0
106.528496 144.0
106.766426 112.0
106.892044 132.0
107.075272 420.0
107.187126 132.0
107.223091 168.0
107.258133 144.0
107.297302 152.0
107.423096 144.0
107.529472 224.0
107.592316 228.0
107.722412 144.0
108.451477 188.0
108.805489 152.0
109.006958 224.0
110.267761 148.0
110.845352 200.0
111.670387 148.0
111.760841 164.0
111.842918 148.0
112.163078 176.0
112.665306 184.0
112.838608 156.0
113.034775 6492.0
113.06282 156.0
113.828094 188.0
113.847206 200.0
114.041229 280.0
114.489441 144.0
115.0383 464.0
115.695824 176.0
115.715096 160.0
116.145828 200.0
118.289856 204.0
118.33532 192.0
118.42627 156.0
118.486923 172.0
118.878189 132.0
118.981384 180.0
119.38118 160.0
120.014832 220.0
120.3181 168.0
121.05275 144.0
121.300323 144.0
122.654968 204.0
123.091194 180.0
123.150818 140.0
124.908531 220.0
125.425125 148.0
125.670433 176.0
126.009796 152.0
126.208717 148.0
126.376472 180.0
126.64286 184.0
127.439232 168.0
127.526871 148.0
128.033081 144.0
128.242599 144.0
128.666687 152.0
129.053024 140.0
129.17514 184.0
129.32222 176.0
129.763947 160.0
129.870529 176.0
130.070206 164.0
130.285934 172.0
131.20079 168.0
131.531555 188.0
132.384338 184.0
132.45076 224.0
132.466797 160.0
134.047485 180.0
134.245728 164.0
134.631104 180.0
135.084122 180.0
135.528625 164.0
136.159592 176.0
136.331497 208.0
137.124741 216.0
137.514587 160.0
137.986435 152.0
138.409927 176.0
138.911469 168.0
139.019394 140.0
139.108582 172.0
139.164932 148.0
139.846649 196.0
140.026794 148.0
140.046783 212.0
140.143372 180.0
140.377747 176.0
140.423889 200.0
140.466339 180.0
140.619705 148.0
140.659836 184.0
140.701355 164.0
140.767288 172.0
140.818497 264.0
140.841644 160.0
140.875778 340.0
140.91539 224.0
141.011368 212.0
141.039383 140.0
141.067429 190316.0
141.166794 144.0
141.199249 204.0
141.235016 120.0
141.277725 272.0
141.293976 336.0
141.328857 272.0
141.349991 184.0
141.454758 2728.0
141.525513 112.0
141.580231 184.0
141.610504 232.0
141.878296 104.0
141.935562 272.0
141.962997 204.0
142.069244 12428.0
142.748154 100.0
142.801804 228.0
142.83403 188.0
142.902161 148.0
142.969879 148.0
142.986679 128.0
143.029022 108.0
143.070526 836.0
143.131989 380.0
143.170609 224.0
143.195175 112.0
143.226501 120.0
143.325974 112.0
144.071625 128.0
144.190201 220.0
144.224091 160.0
150.940674 132.0
153.224258 140.0
158.16362 140.0
159.074875 176.0
160.93399 160.0
167.086731 152.0
172.431076 164.0
181.490417 152.0
203.938034 160.0
209.93602 156.0
221.549454 188.0
222.017776 148.0
245.128342 1284.0
246.125443 160.0
246.232391 148.0
247.135803 152.0
247.163956 160.0
1029.358032 152.0
1059.348999 300.0
1075.807983 196.0
1082.123291 216.0
1115.890991 264.0
1162.501831 168.0
1197.22998 148.0
1197.291992 216.0
1215.028564 184.0
1215.27832 168.0
1226.899902 224.0
1228.810791 272.0
1244.425293 212.0
1255.190552 176.0
1264.423584 176.0
1265.881836 216.0
1271.638428 164.0
1276.106567 288.0
1277.585815 200.0
1280.254883 200.0
1282.442139 160.0
1287.736084 184.0
1289.994019 176.0
1294.107544 140.0
1296.743774 236.0
1296.822632 208.0
1298.184692 164.0
1299.834595 160.0
1302.46936 176.0
1309.892578 160.0
1311.283203 160.0
1313.669922 160.0
1316.860229 176.0
1317.784912 144.0
1321.754395 152.0
1325.13562 140.0
1339.162842 184.0
1341.166504 160.0
1346.572998 188.0
1352.341553 148.0
1353.571411 152.0
1356.025635 160.0
1356.831909 200.0
1357.865845 164.0
1363.261719 188.0
1364.349487 152.0
1369.713989 212.0
1370.295898 156.0
1386.300415 224.0
1389.103027 156.0
1391.440674 204.0
1392.792114 164.0
1397.527588 140.0
1399.060791 212.0
1401.853882 176.0
1407.567749 228.0
1410.451538 140.0
1411.715088 160.0
1413.674927 180.0
1415.029785 144.0
1422.413818 208.0
1425.079834 212.0
1427.755859 148.0
1427.883667 144.0
1428.523071 192.0
1430.389282 176.0
1432.068359 148.0
1433.522339 248.0
1433.951904 236.0
1434.155396 168.0
1437.798218 180.0
1438.115112 152.0
1438.696411 140.0
1440.546509 172.0
1441.521118 168.0
1441.628906 256.0
1452.499023 192.0
1452.582397 176.0
1455.884033 172.0
1460.192993 180.0
1460.337524 148.0
1461.69165 188.0
1464.417114 140.0
1465.30835 188.0
1466.474243 204.0
1466.901001 144.0
1470.562256 244.0
1472.073853 144.0
1472.723022 160.0
1473.265381 176.0
1474.365601 144.0
1475.772095 172.0
1478.954468 152.0
1480.34021 196.0
1481.826172 180.0
1486.109619 176.0
1487.577881 148.0
1489.8125 156.0
1492.610107 200.0
1494.22522 140.0
1495.833618 240.0
1500.787231 200.0
1501.697266 180.0
1505.262573 172.0
1506.876953 148.0
1508.213745 200.0
1512.452515 184.0
1516.930664 148.0
1519.131958 272.0
1519.387939 192.0
1522.135498 280.0
1522.275269 156.0
1522.422852 140.0
1522.539307 204.0
1524.419312 160.0
1524.678345 192.0
1525.165405 152.0
1528.299316 140.0
1529.015259 160.0
1529.225464 200.0
1529.754639 236.0
1530.89917 140.0
1533.750732 168.0
1534.226196 156.0
1535.793579 208.0
1537.595825 176.0
1537.775269 156.0
1539.766235 200.0
1542.633789 140.0
1544.760742 160.0
1546.670044 148.0
1547.194458 160.0
1547.523315 228.0
1548.799805 228.0
1550.398071 176.0
1553.401001 156.0
1555.048706 156.0
1555.543213 156.0
1555.989502 196.0
1560.288086 160.0
1561.530396 204.0
1564.032471 168.0
1564.788208 176.0
1564.961426 160.0
1565.252686 208.0
1567.355835 192.0
1569.160767 200.0
1575.08728 140.0
1578.999634 180.0
1582.204346 144.0
1583.194092 196.0
1583.780151 172.0
1586.973755 140.0
1590.567505 180.0
1593.54541 152.0
1594.300293 172.0
1595.428955 180.0
1596.001465 160.0
1600.130737 140.0
1600.600464 184.0
1602.010132 172.0
1602.336792 140.0
1602.55188 156.0
1603.085815 140.0
1604.41687 148.0
1606.051514 144.0
1606.474365 188.0
1607.104614 212.0
1609.459229 148.0
1610.050049 180.0
1610.529297 192.0
1612.494751 140.0
1614.357422 200.0
1614.557373 144.0
1615.013306 156.0
1615.877197 184.0
1617.501709 188.0
1618.286255 184.0
1619.407349 148.0
1619.519531 148.0
1620.777222 176.0
1622.388184 184.0
1623.37439 144.0
1624.970581 144.0
1625.877319 144.0
1626.206299 172.0
1629.338013 192.0
1631.009521 204.0
1632.231445 180.0
1632.890869 168.0
1632.995483 180.0
1639.685791 140.0
1641.580322 148.0
1644.661133 124.0
1645.041504 152.0
1647.415649 168.0
1650.511108 204.0
1650.939697 192.0
1651.554321 164.0
1653.382812 156.0
1654.507935 184.0
1654.831787 184.0
1655.33374 200.0
1656.022095 248.0
1656.952271 188.0
1658.477173 152.0
1659.717407 156.0
1660.877197 208.0
1661.753296 160.0
1662.272583 152.0
1663.124756 172.0
1663.790283 172.0
1671.106323 124.0
1671.202393 236.0
1671.300049 176.0
1672.309204 200.0
1672.414917 192.0
1672.585938 140.0
1673.8396 144.0
1674.067627 144.0
1675.427856 288.0
1676.935303 188.0
1679.234497 156.0
1680.213379 192.0
1680.792603 160.0
1683.573486 220.0
1684.180542 144.0
1690.287476 144.0
1692.653076 148.0
1693.848877 140.0
1696.348145 156.0
1696.585815 264.0
1698.717896 192.0
1699.144531 180.0
1703.216187 212.0
1704.670288 140.0
1705.730591 160.0
1707.161133 176.0
1707.547485 152.0
1711.530518 184.0
1713.136597 156.0
1713.367188 212.0
1713.474365 240.0
1714.660889 244.0
1715.539429 204.0
1718.668579 160.0
1719.625854 208.0
1719.708374 172.0
1720.071533 252.0
1721.970581 148.0
1722.267944 196.0
1726.459595 200.0
1728.551025 140.0
1729.560669 160.0
1730.711426 176.0
1732.185547 156.0
1732.608032 156.0
1732.723999 168.0
1733.20459 156.0
1733.983521 172.0
1736.246826 152.0
1738.802002 188.0
1740.16333 144.0
1741.840942 184.0
1742.954102 172.0
1743.585693 208.0
1744.682861 184.0
1744.799194 140.0
1746.587158 240.0
1749.424683 224.0
1750.64856 196.0
1753.539429 176.0
1756.56604 204.0
1757.125 140.0
1758.101318 152.0
1758.985962 148.0
1759.386719 144.0
1760.152344 148.0
1763.320923 176.0
1763.529785 172.0
1764.947388 224.0
1766.263916 172.0
1770.842285 164.0
1770.993042 184.0
1773.230103 212.0
1777.196533 236.0
1781.88147 192.0
1781.973877 168.0
1783.696655 172.0
1787.96936 144.0
1788.087158 248.0
1788.373291 284.0
1790.452881 196.0
1792.946533 172.0
1793.578613 180.0
1798.225952 268.0
1798.935059 164.0
1801.282471 176.0
1802.296265 180.0
1802.609009 196.0
1803.006104 176.0
1803.470947 144.0
1805.280151 148.0
1807.437256 172.0
1808.452759 224.0
1810.17981 168.0
1811.20459 152.0
1819.591309 216.0
1820.746094 216.0
1823.226807 148.0
1823.932251 156.0
1824.637817 164.0
1825.352051 192.0
1825.666626 220.0
1829.733887 180.0
1830.500122 176.0
1834.495972 148.0
1835.067139 184.0
1837.378418 140.0
1838.19751 208.0
1840.244385 168.0
1841.415894 140.0
1842.227417 164.0
1842.412842 152.0
1844.731201 140.0
1845.474976 164.0
1847.168335 164.0
1848.691162 156.0
1849.307373 160.0
1850.428833 144.0
1851.208008 200.0
1852.072998 216.0
1852.672607 196.0
1853.366577 160.0
1854.297485 208.0
1854.386353 168.0
1856.915527 144.0
1857.241455 140.0
1860.081543 160.0
1861.541138 144.0
1863.439331 160.0
1864.341553 148.0
1865.574341 200.0
1869.182983 152.0
1870.637451 168.0
1870.861328 156.0
1872.023682 208.0
1873.418945 160.0
1873.513672 212.0
1875.978271 420.0
1876.314575 144.0
1877.064697 200.0
1877.564819 244.0
1878.151245 192.0
1879.790527 184.0
1884.61731 160.0
1885.230835 208.0
1890.571655 192.0
1892.245728 148.0
1892.323608 196.0
1893.700439 180.0
1894.991211 168.0
1895.10376 156.0
1895.675659 216.0
1896.239014 184.0
1896.837036 244.0
1897.61731 216.0
1897.781982 152.0
1899.290894 224.0
1900.713745 200.0
1901.243042 224.0
1902.058838 176.0
1906.557861 172.0
1907.357422 224.0
1907.99231 148.0
1908.731079 228.0
1910.061646 148.0
1911.11438 176.0
1912.924561 172.0
1913.029053 160.0
1913.272705 196.0
1916.329712 204.0
1917.784912 236.0
1919.355957 192.0
1919.981934 156.0
1920.234863 148.0
1921.002441 140.0
1922.276245 148.0
1923.629028 180.0
1928.034424 188.0
1929.552002 156.0
1932.035767 216.0
1932.372681 116.0
1932.777954 120.0
1935.78186 216.0
1936.464844 172.0
1938.471069 172.0
1939.917236 172.0
1943.100586 156.0
1944.7854 156.0
1946.05835 168.0
1947.12085 140.0
1947.261353 164.0
1948.974365 264.0
1949.94104 200.0
1951.426514 160.0
1951.505737 196.0
1951.769531 156.0
1952.90918 252.0
1953.669189 148.0
1954.416992 208.0
1954.505005 208.0
1956.626099 160.0
1957.612305 188.0
1957.67395 200.0
1958.008545 204.0
1958.211182 196.0
1958.748413 160.0
1959.400269 160.0
1960.299072 176.0
1960.854248 252.0
1963.781982 160.0
1966.092773 148.0
1966.807739 148.0
1970.074951 232.0
1970.481323 164.0
1971.320679 144.0
1972.284058 176.0
1973.512817 156.0
1976.710449 188.0
1977.236938 152.0
1977.467041 140.0
1977.962646 160.0
1978.06897 144.0
1980.069946 152.0
1980.397583 140.0
1980.654541 148.0
1981.336548 156.0
1981.425171 176.0
1983.977539 164.0
1984.580444 160.0
1984.793213 212.0
1985.087524 188.0
1986.371826 184.0
1987.436401 152.0
1989.59314 160.0
1989.974854 160.0
1990.187866 156.0
1990.454346 160.0
1991.582153 152.0
1992.461548 172.0
1993.670044 140.0
1994.798828 140.0
1995.225464 164.0
1996.267334 188.0
1996.897217 156.0
1997.03064 208.0
1998.427246 164.0
1998.685303 148.0
2000.207031 208.0
