>compound NCGC00160261-01!10b-Methyl-3,4,5,6,10b,11-hexahydro-2H-4b-aza-chrysene-1,12-dione
>formula C18H19NO2
>ionization [M+Na]+
>parentmass 304.129395
#inchi InChI=1S/C18H19NO2/c1-18-11-16(21)17-14(7-4-8-15(17)20)19(18)10-9-12-5-2-3-6-13(12)18/h2-3,5-6H,4,7-11H2,1H3/t18-/m0/s1
#inchikey RXSOQKYJSMUOPR
#Ion_Source LC-ESI
#Instrument qTOF
#Compound_Source Prestwick Phytochem Lib
#PI Dorrestein
#Data_Collector VVP/LMS
#Scan -1
#Precursor_MZ 304.131
#ExactMass 281.142
#Charge 1
#CAS_Number N/A
#Pubmed_ID N/A
#Smiles C[C@@]12CC(=O)C3=C(CCCC3=O)N1CCC4=CC=CC=C24
#INCHI_AUX N/A
#Library_Class 1
#SpectrumID CCMSLIB00000078682
#IonMode Positive
#UpdateWorkflowName UPDATE-SINGLE-ANNOTATED-GOLD
#LibraryQualityString Gold
#TaskID 67c915c6594c435cadc1fe2b5358144d
##Scan# 1660
#SpectrumFile p1-A02_GA2_01_17875.mzXML
#LibraryName phytochem_lib.mgf
#MQScore -1
#Organism phytochem_lib
#TIC_Query 0
#RT_Query -1
#MZErrorPPM -1
#SharedPeaks 0
#MassDiff 0
#LibMZ -1
#SpecMZ 304.131
#SpecCharge 0
#internalFilename spec-00000.mgf

>collision 10
97.468887 268.0
99.278961 40.0
102.819855 124.0
103.126823 128.0
103.644859 156.0
109.133492 72.0
109.77478 140.0
117.953781 180.0
128.302032 144.0
128.579453 112.0
130.998642 164.0
131.511658 168.0
133.398987 144.0
134.941193 156.0
140.530197 160.0
148.729218 96.0
151.153992 152.0
151.594727 140.0
152.989746 200.0
157.532654 148.0
158.937103 104.0
160.000183 260.0
166.065613 124.0
167.448257 240.0
167.687851 124.0
173.198547 72.0
176.980072 180.0
177.441055 128.0
181.466705 20.0
182.02478 176.0
185.274658 92.0
185.971512 184.0
194.32196 176.0
199.687897 192.0
203.695694 176.0
207.662979 132.0
209.957901 148.0
212.314728 176.0
216.130569 108.0
219.381577 232.0
220.982162 196.0
222.879654 104.0
227.553757 140.0
235.371307 136.0
242.071426 172.0
245.891891 172.0
248.689774 184.0
249.119934 124.0
254.272736 160.0
254.856995 108.0
257.095428 160.0
263.892059 184.0
265.141479 184.0
266.147034 112.0
269.553986 200.0
274.078247 128.0
274.906281 32.0
277.095062 80.0
280.074646 152.0
282.902802 152.0
285.089539 104.0
285.46936 184.0
286.088409 192.0
286.175934 120.0
287.105896 104.0
287.956329 148.0
288.098206 3108.0
288.182648 52.0
288.429321 196.0
288.638916 228.0
289.10083 572.0
289.183533 80.0
289.427277 72.0
289.976013 52.0
290.103271 148.0
290.403198 112.0
290.728882 36.0
291.105652 164.0
291.771576 108.0
292.203461 120.0
293.596527 104.0
294.606781 164.0
296.087738 196.0
296.286407 52.0
299.484283 120.0
302.616241 220.0
304.129395 5500.0
304.440033 48.0
304.658844 76.0
305.075836 52.0
305.131775 1028.0
305.312256 104.0
305.343536 48.0
305.461792 44.0
305.719238 100.0
306.13678 152.0
306.220551 52.0
306.711792 104.0
307.070892 80.0
307.098785 84.0
307.259247 120.0
307.475555 112.0
307.67453 128.0
308.163422 60.0
308.194885 64.0
308.3591 88.0
309.944275 48.0
320.099365 116.0
323.143829 120.0
330.675049 64.0
423.894379 44.0
484.198029 20.0
496.701721 120.0
557.768982 68.0
