>compound MLS001140347-01!1-[2-(6,7-dimethoxy-3,4-dihydro-1H-isoquinolin-2-yl)-2-oxoethyl]pyridin-2-one
>formula C18H20N2O4
>ionization [M+H]+
>parentmass 329.15
#inchi InChI=1S/C18H20N2O4/c1-23-15-9-13-6-8-20(11-14(13)10-16(15)24-2)18(22)12-19-7-4-3-5-17(19)21/h3-5,7,9-10H,6,8,11-12H2,1-2H3
#inchikey NOFPMGWDFVQQRC
#Ion_Source LC-ESI
#Instrument qTof
#Compound_Source NIH Natural Product Library
#PI Dorrestein
#Data_Collector VVP/LMS
#Scan -1
#Precursor_MZ 329.15
#ExactMass 328.142
#Charge 1
#CAS_Number N/A
#Pubmed_ID N/A
#Smiles COc1cc2CCN(Cc2cc1OC)C(=O)Cn3ccccc3=O
#INCHI_AUX N/A
#Library_Class 1
#SpectrumID CCMSLIB00000080267
#IonMode Positive
#UpdateWorkflowName UPDATE-SINGLE-ANNOTATED-GOLD
#LibraryQualityString Gold
#TaskID b1d8e8f6646f4e71acdff9ca3d919d08
##Scan# 1551
#SpectrumFile p2-D06_GD6_01_18018.mzXML
#LibraryName NIH_Natural_Products_Library.mgf
#MQScore -1
#Organism NIH_Natural_Products_Library
#TIC_Query 0
#RT_Query -1
#MZErrorPPM -1
#SharedPeaks 0
#MassDiff 0
#LibMZ -1
#SpecMZ 329.15
#SpecCharge 0
#internalFilename spec-00000.mgf

>collision 10
95.194603 248.0
95.53862 132.0
95.552238 188.0
95.805328 164.0
96.406281 140.0
96.552895 64.0
96.670273 164.0
97.003227 172.0
97.415314 264.0
98.328918 160.0
98.480949 156.0
98.587631 152.0
98.779411 236.0
98.817001 196.0
98.905907 268.0
99.042679 52.0
99.224983 148.0
99.465019 80.0
99.484871 148.0
99.631828 132.0
99.715279 128.0
100.311768 188.0
100.589676 156.0
101.279526 228.0
101.433815 148.0
102.678391 144.0
102.868057 164.0
103.873756 144.0
104.137627 140.0
104.159966 192.0
105.073448 192.0
105.08828 260.0
106.418648 144.0
106.511063 264.0
107.04789 184.0
107.540565 160.0
107.559143 188.0
107.575653 88.0
107.596298 148.0
107.685089 88.0
107.819382 160.0
107.873116 180.0
107.948006 216.0
107.970299 124.0
107.994797 52.0
108.045334 14864.0
108.074844 348.0
108.125458 168.0
108.146156 72.0
108.17099 52.0
108.21447 68.0
108.231033 144.0
108.280731 92.0
108.307655 60.0
108.34494 56.0
108.400887 132.0
108.434044 116.0
108.523178 156.0
108.552208 268.0
108.585388 196.0
108.63102 92.0
108.805336 140.0
108.830254 36.0
108.919556 96.0
108.948631 68.0
109.010963 160.0
109.047577 500.0
109.587334 48.0
109.806213 100.0
109.843063 156.0
109.877136 48.0
109.912605 48.0
109.962692 64.0
110.050362 112.0
110.06707 204.0
110.324051 52.0
110.403503 152.0
110.547844 68.0
111.525154 64.0
111.806976 64.0
113.011879 168.0
113.189674 40.0
113.426956 188.0
113.957497 212.0
114.208344 204.0
114.344513 104.0
115.01162 132.0
115.287132 156.0
116.113487 168.0
116.270096 68.0
116.499847 204.0
117.559158 124.0
118.040878 104.0
118.489426 236.0
119.052864 56.0
120.095345 208.0
120.359406 136.0
120.479523 96.0
120.540703 140.0
120.984695 228.0
121.061325 156.0
121.675262 180.0
122.006996 152.0
122.053169 200.0
123.575066 164.0
123.986931 216.0
124.31514 192.0
124.399475 256.0
124.60157 160.0
125.197678 200.0
126.049469 200.0
126.210762 184.0
126.512794 188.0
127.212212 140.0
127.400841 156.0
128.030624 92.0
128.844894 100.0
129.279022 196.0
130.022339 72.0
130.067734 160.0
130.558487 64.0
131.074173 160.0
131.166382 116.0
131.182343 80.0
131.325989 140.0
131.458313 108.0
131.515366 140.0
132.041779 220.0
132.078796 156.0
132.480331 80.0
132.546768 276.0
133.065628 204.0
133.681137 228.0
134.074051 384.0
134.102585 176.0
134.167114 48.0
134.36084 244.0
134.70018 148.0
134.79953 56.0
135.039963 64.0
135.08223 144.0
135.401001 68.0
135.479752 36.0
135.537674 20.0
135.672104 144.0
135.797318 236.0
135.828201 216.0
135.906342 104.0
136.040131 20792.0
136.077591 168.0
136.105438 84.0
136.153473 112.0
136.185394 96.0
136.263901 88.0
136.331284 68.0
136.427048 176.0
136.454468 140.0
136.48703 180.0
136.521896 32.0
136.566086 84.0
136.610291 52.0
136.684738 40.0
136.701019 56.0
136.829041 176.0
136.860382 112.0
137.043655 2156.0
137.095123 220.0
137.36969 72.0
137.444351 88.0
137.584381 100.0
137.80159 204.0
137.92778 64.0
138.048447 352.0
138.075073 36.0
138.112488 44.0
139.335495 156.0
140.187912 44.0
140.954819 96.0
143.19426 72.0
144.72258 232.0
144.780045 124.0
144.957306 116.0
145.069962 320.0
145.74675 88.0
145.814041 92.0
145.958267 144.0
146.077301 212.0
146.86377 124.0
146.955444 180.0
147.044724 144.0
147.070236 1080.0
147.121964 184.0
147.146103 68.0
147.211304 76.0
147.286163 100.0
147.341736 76.0
148.077316 204.0
148.101288 228.0
148.671036 180.0
149.064438 148.0
149.091156 124.0
150.068863 728.0
150.220901 40.0
151.075317 504.0
151.232498 40.0
151.521454 40.0
152.081833 336.0
153.090988 164.0
153.650497 72.0
153.936813 116.0
156.657623 20.0
159.922836 112.0
160.081451 236.0
160.610703 244.0
161.214096 224.0
161.874329 164.0
162.091599 1968.0
162.965027 120.0
163.071747 160.0
163.097092 692.0
163.158173 72.0
163.280228 44.0
164.075882 200.0
164.171555 56.0
164.929825 56.0
165.060211 228.0
165.091843 3816.0
165.167618 44.0
165.45166 80.0
165.50798 76.0
165.965729 192.0
166.095596 972.0
166.1436 40.0
167.099014 144.0
167.451187 136.0
167.797241 108.0
167.879761 108.0
172.294891 184.0
174.173111 120.0
175.043625 168.0
175.346573 56.0
175.536392 60.0
176.077362 212.0
177.093323 1488.0
177.246613 60.0
177.490479 64.0
178.087296 192.0
178.106171 184.0
179.09314 704.0
179.239487 104.0
179.410065 68.0
180.04776 132.0
180.0905 120.0
185.11702 100.0
186.182755 156.0
187.01741 40.0
190.11116 216.0
191.571121 128.0
192.105911 176.0
193.446152 200.0
193.828354 60.0
193.930878 172.0
194.03067 100.0
194.055634 196.0
194.11763 4848.0
194.202606 68.0
194.230331 52.0
194.308014 60.0
194.380157 180.0
194.943848 44.0
194.999435 48.0
195.120453 196.0
195.163437 32.0
195.912094 76.0
196.118301 160.0
196.140594 76.0
196.235382 40.0
196.444534 84.0
198.681808 60.0
214.957016 160.0
225.082336 124.0
235.251358 32.0
236.52298 68.0
269.973267 184.0
289.083954 168.0
299.052948 52.0
312.123566 148.0
320.469849 40.0
325.301422 104.0
331.211487 144.0
331.381744 96.0
342.938019 64.0
348.324219 48.0
392.828033 88.0
402.891418 68.0
403.610809 60.0
496.414001 76.0
499.678619 84.0
515.637756 76.0
653.201355 120.0
749.576111 204.0
758.297913 180.0
866.870972 196.0
889.352539 172.0
902.75708 128.0
926.495728 116.0
932.884216 152.0
969.424072 168.0
974.61145 212.0
982.724182 144.0
994.381958 84.0
995.242004 84.0
1024.110596 120.0
1037.523071 224.0
1053.372681 160.0
1058.546509 120.0
1063.356689 180.0
1073.883423 152.0
1075.220825 148.0
1077.251465 120.0
1082.352661 144.0
1092.43335 188.0
1093.959961 208.0
1094.361572 184.0
1095.105713 148.0
1095.244019 196.0
1096.627563 68.0
1109.470825 204.0
1110.863403 264.0
1114.202515 80.0
1122.31543 220.0
1134.034058 144.0
1141.344482 200.0
1149.575684 180.0
1150.65564 288.0
1151.945435 128.0
1154.723389 172.0
1156.001953 172.0
1157.836548 136.0
1158.974487 140.0
1161.543823 196.0
1163.966675 192.0
1168.479614 148.0
1176.070679 124.0
1176.302856 156.0
1177.641113 148.0
1179.984863 188.0
1183.542603 176.0
1186.056763 192.0
1190.70166 224.0
1191.539673 164.0
1198.798584 188.0
1202.039429 48.0
1215.837891 244.0
1216.053101 48.0
1221.277832 108.0
1224.353882 184.0
1226.945923 244.0
1229.526611 56.0
1237.593262 200.0
1246.536377 188.0
1250.791138 248.0
1251.473999 240.0
1252.100708 140.0
1257.119995 148.0
1257.800659 184.0
1260.184326 128.0
1262.467407 124.0
1266.111938 120.0
1266.458984 192.0
1267.564087 208.0
1276.081299 136.0
1276.813721 204.0
1277.162231 44.0
1279.389404 104.0
1280.92041 80.0
1285.775757 136.0
1288.710571 196.0
1304.095825 52.0
1306.634155 140.0
1307.986938 148.0
1312.071411 32.0
1317.686035 52.0
1318.459229 44.0
1321.43103 140.0
1345.829834 152.0
1346.304443 184.0
1354.005005 224.0
1362.535645 188.0
1369.23645 248.0
1373.179321 184.0
1373.282471 184.0
1373.607056 188.0
1375.488647 208.0
1379.965332 200.0
1380.19458 156.0
1383.975464 92.0
1386.167847 220.0
1386.405029 264.0
1387.850464 116.0
1390.261108 72.0
1395.572144 180.0
1398.398804 116.0
1399.329346 32.0
1401.265625 228.0
1402.092773 188.0
1404.821655 68.0
1410.541504 188.0
1417.486572 140.0
1422.158569 160.0
1422.413818 176.0
1422.481323 80.0
1424.411133 148.0
1427.906128 224.0
1429.80188 112.0
1430.25354 104.0
1430.644897 156.0
1434.057007 120.0
1435.225464 176.0
1437.577393 80.0
1437.729858 60.0
1438.628052 60.0
1440.968262 192.0
1443.765747 176.0
1445.369385 140.0
1446.973877 168.0
1447.057251 156.0
1450.367554 156.0
1450.54187 156.0
1452.847168 176.0
1456.619873 52.0
1459.074341 192.0
1463.555542 200.0
1465.848145 172.0
1468.150269 220.0
1475.205078 208.0
1475.380859 156.0
1476.504761 96.0
1479.588379 212.0
1481.119873 192.0
1483.617554 204.0
1485.995239 152.0
1489.457397 168.0
1489.733887 156.0
1490.171875 148.0
1493.831055 144.0
1496.178223 72.0
1497.695068 64.0
1498.550171 176.0
1498.835205 180.0
1499.089478 240.0
1501.031982 184.0
1501.918945 196.0
1501.9729 184.0
