>compound MLS001401361-01!Flurbiprofen5104-49-4
>formula C15H13FO2
>ionization [M+H]+
>parentmass 245.099
#inchi InChI=1S/C15H13FO2/c1-10(15(17)18)12-7-8-13(14(16)9-12)11-5-3-2-4-6-11/h2-10H,1H3,(H,17,18)
#inchikey SYTBZMRGLBWNTM
#Ion_Source LC-ESI
#Instrument qTof
#Compound_Source NIH Pharmacologically Active Library
#PI Dorrestein
#Data_Collector VP/LMS
#Scan -1
#Precursor_MZ 245.099
#ExactMass 244.09
#Charge 1
#CAS_Number N/A
#Pubmed_ID N/A
#Smiles CC(C(=O)O)c1ccc(c(F)c1)c2ccccc2
#INCHI_AUX N/A
#Library_Class 1
#SpectrumID CCMSLIB00000085682
#IonMode Positive
#UpdateWorkflowName UPDATE-SINGLE-ANNOTATED-GOLD
#LibraryQualityString Gold
#TaskID d252d724072548979f1f6f1ced849daf
##Scan# 2199
#SpectrumFile p4-E03_GE3_01_18375.mzXML
#LibraryName Pharm_Active_Library.mgf
#MQScore -1
#Organism Pharm_Active_Library
#TIC_Query 0
#RT_Query -1
#MZErrorPPM -1
#SharedPeaks 0
#MassDiff 0
#LibMZ -1
#SpecMZ 245.099
#SpecCharge 0
#internalFilename spec-00000.mgf

>collision 10
45.275574 120.0
45.410938 104.0
45.522331 180.0
45.561283 176.0
45.872154 160.0
45.927441 108.0
46.02866 192.0
46.159737 160.0
46.612495 144.0
47.044254 132.0
47.283463 136.0
47.312206 48.0
48.048855 160.0
48.18692 184.0
49.171478 52.0
49.181248 44.0
49.624752 176.0
50.322594 168.0
50.894627 164.0
51.777355 152.0
51.860455 88.0
52.2453 120.0
53.175892 184.0
53.226704 176.0
53.807663 124.0
53.855854 108.0
54.070782 168.0
54.221634 148.0
54.478416 132.0
55.777374 212.0
55.8666 180.0
56.00206 60.0
56.08699 68.0
56.130226 172.0
56.170494 168.0
56.433342 228.0
56.529076 152.0
57.874825 160.0
58.440983 108.0
58.918201 176.0
59.296158 196.0
59.345215 152.0
60.024857 232.0
60.202324 176.0
60.624657 172.0
60.699066 192.0
60.865101 124.0
60.987835 96.0
61.008041 96.0
61.392635 108.0
61.579918 228.0
61.875469 128.0
62.011753 148.0
62.497009 188.0
62.890995 124.0
63.376503 164.0
63.555676 192.0
63.714451 136.0
63.750996 156.0
63.965714 160.0
63.983227 188.0
64.03418 132.0
64.276505 172.0
64.432976 72.0
64.471329 156.0
64.754501 192.0
64.849037 152.0
64.876282 244.0
64.898735 124.0
65.100922 96.0
65.964531 188.0
66.353073 176.0
66.476341 120.0
66.866386 184.0
67.465027 112.0
67.535339 204.0
67.748146 156.0
68.39679 244.0
68.451126 180.0
68.950989 172.0
68.984047 68.0
69.089882 164.0
69.635246 100.0
69.999458 160.0
70.576813 148.0
71.480949 84.0
71.674591 128.0
71.878632 212.0
71.893814 80.0
72.709549 180.0
73.102119 212.0
73.575966 120.0
74.475006 232.0
75.389862 56.0
75.56797 236.0
76.042786 168.0
76.063614 84.0
76.193863 188.0
76.834549 156.0
77.122681 120.0
77.877869 116.0
77.990326 180.0
78.153877 252.0
78.319359 132.0
78.462105 152.0
78.737373 128.0
78.749741 244.0
79.062675 108.0
79.896645 192.0
80.742149 204.0
81.387276 140.0
82.330879 208.0
82.797478 48.0
82.976868 48.0
83.134682 84.0
83.334419 160.0
83.794739 192.0
84.525101 144.0
84.552551 148.0
84.823639 124.0
85.293556 184.0
85.785057 36.0
85.845901 92.0
85.947357 172.0
86.052567 112.0
86.709259 120.0
86.798241 152.0
88.812454 140.0
89.024536 168.0
89.920677 216.0
90.188881 80.0
90.785271 112.0
91.134552 164.0
91.153549 168.0
91.667343 120.0
92.716507 160.0
93.336571 208.0
93.559753 180.0
93.638702 152.0
94.0243 120.0
94.699059 144.0
94.807556 184.0
94.951019 204.0
95.597954 116.0
97.090508 56.0
97.375084 140.0
97.420265 48.0
97.791908 112.0
98.118904 180.0
98.448425 168.0
99.595177 208.0
100.902458 148.0
101.036453 132.0
101.17054 192.0
102.041252 152.0
102.135773 104.0
102.379311 208.0
103.055191 340.0
103.572968 188.0
103.610748 172.0
104.191689 172.0
105.635048 160.0
106.627457 196.0
106.685013 120.0
106.826912 160.0
106.861885 132.0
107.411942 132.0
107.492401 132.0
108.36499 140.0
109.049797 108.0
109.108002 124.0
110.070618 228.0
110.104027 128.0
111.511955 84.0
112.107552 268.0
112.212944 188.0
113.621513 64.0
113.990967 136.0
114.669853 120.0
114.797768 200.0
115.39138 120.0
115.526115 144.0
116.123741 76.0
116.248177 168.0
117.015541 156.0
117.422813 180.0
118.263298 132.0
119.011215 136.0
119.142464 132.0
119.206711 148.0
120.055725 144.0
120.258621 204.0
120.313194 188.0
120.855225 128.0
121.043358 156.0
121.069756 132.0
121.231865 152.0
122.046265 144.0
122.47541 112.0
122.697983 156.0
122.900894 140.0
125.171005 200.0
125.839661 144.0
126.873299 132.0
127.052711 128.0
128.686676 160.0
128.842514 156.0
129.067322 184.0
129.290237 48.0
130.158463 120.0
130.958984 108.0
131.066055 56.0
131.755096 104.0
132.200974 264.0
132.239883 188.0
132.94577 104.0
133.043442 300.0
133.547714 92.0
134.047302 128.0
135.315399 120.0
135.48909 56.0
136.036407 164.0
136.298843 168.0
136.496429 192.0
138.054184 160.0
138.257706 132.0
138.810577 56.0
139.0616 216.0
139.348083 160.0
139.40918 188.0
140.27533 140.0
140.919617 144.0
141.200928 52.0
141.241135 56.0
141.359421 200.0
141.503815 268.0
142.970779 132.0
143.37326 152.0
143.704712 252.0
143.826431 40.0
144.113007 96.0
144.167969 68.0
145.157043 168.0
145.305344 128.0
145.358139 108.0
145.754349 156.0
148.589005 228.0
148.817154 152.0
148.950729 72.0
149.704712 176.0
149.765594 180.0
150.044983 328.0
150.236069 196.0
150.763474 100.0
151.055038 668.0
151.211029 144.0
151.585724 120.0
152.063553 796.0
152.186691 64.0
152.606842 64.0
152.66095 84.0
153.067871 952.0
153.318253 148.0
153.389725 204.0
154.068359 196.0
155.048233 88.0
155.097809 168.0
155.412766 160.0
155.782684 176.0
156.160507 164.0
156.202805 152.0
157.18692 220.0
158.903412 224.0
159.059875 336.0
159.51619 176.0
160.056091 160.0
160.109985 196.0
160.737701 176.0
161.384338 160.0
162.11554 204.0
162.767838 108.0
163.051956 184.0
163.670532 124.0
163.785126 172.0
163.948196 152.0
164.103683 68.0
164.414886 212.0
165.075058 212.0
165.906128 176.0
166.075348 336.0
166.691528 152.0
166.961456 188.0
167.077209 156.0
168.05368 160.0
169.064102 196.0
169.895782 204.0
170.055908 248.0
170.160507 112.0
170.334351 200.0
171.063293 308.0
171.304794 80.0
171.541931 272.0
172.061081 172.0
172.102859 176.0
172.526123 232.0
172.921097 176.0
173.071838 168.0
173.117447 144.0
173.408264 120.0
174.311035 56.0
174.573914 68.0
174.755417 192.0
175.846405 180.0
176.058243 1496.0
176.105148 228.0
177.069199 1860.0
177.218887 60.0
177.468033 200.0
177.499847 168.0
177.582062 124.0
177.643066 144.0
177.781036 116.0
177.855362 184.0
177.927032 228.0
177.977478 28.0
178.022614 172.0
178.077515 15636.0
178.155426 336.0
178.174026 48.0
178.213882 200.0
178.235138 76.0
178.340271 64.0
178.456375 136.0
178.546158 140.0
178.564774 48.0
178.652557 52.0
178.934662 84.0
178.979919 52.0
179.083481 6624.0
179.139725 64.0
179.173981 112.0
179.259613 68.0
179.28894 56.0
179.358231 52.0
179.435547 168.0
180.005432 96.0
180.086853 872.0
180.126724 152.0
180.153442 44.0
180.196198 96.0
180.380585 36.0
180.401978 80.0
180.792496 76.0
181.041458 72.0
181.065506 180.0
181.199493 148.0
181.220932 156.0
181.287918 224.0
181.411209 84.0
181.521149 96.0
181.676712 156.0
181.869919 40.0
182.571152 144.0
182.84288 52.0
183.058975 5828.0
183.109421 72.0
183.129333 92.0
183.163284 52.0
183.18483 64.0
183.246796 56.0
183.47049 52.0
183.5298 112.0
183.602615 36.0
183.996582 188.0
184.067276 5532.0
184.112686 84.0
184.147797 88.0
184.377441 48.0
184.434204 48.0
184.718124 68.0
184.902115 36.0
184.975204 48.0
185.069809 576.0
185.256836 120.0
185.31102 84.0
185.560364 184.0
185.579346 100.0
185.649841 116.0
185.899429 136.0
185.927399 92.0
186.051422 124.0
186.072052 248.0
186.676361 184.0
186.774277 80.0
187.253311 224.0
188.560181 44.0
189.750946 60.0
190.557861 76.0
190.959213 60.0
193.478577 180.0
195.057053 108.0
195.610626 112.0
195.64682 112.0
195.836166 128.0
196.065536 536.0
196.831787 176.0
197.075699 1712.0
197.541687 56.0
197.815933 56.0
198.045547 184.0
198.083679 292.0
198.300507 60.0
199.015869 156.0
199.035522 96.0
199.089813 4236.0
199.128113 184.0
199.591888 124.0
200.09523 1200.0
201.003128 72.0
201.086517 152.0
205.069962 152.0
207.08429 188.0
212.071854 152.0
215.053177 188.0
215.12616 156.0
216.049637 120.0
216.122772 220.0
226.122849 164.0
227.111603 36.0
232.099838 132.0
235.346512 104.0
237.703491 96.0
242.607635 80.0
244.057556 52.0
245.056686 160.0
249.818619 112.0
250.769562 116.0
259.447876 60.0
281.959961 140.0
284.106323 272.0
315.154724 40.0
340.483704 60.0
364.261078 92.0
497.104401 96.0
555.003296 160.0
808.907898 44.0
896.751221 176.0
978.994446 104.0
999.388916 108.0
1065.241577 152.0
1078.828979 152.0
1139.44165 176.0
1148.779297 104.0
1204.444702 148.0
1216.701904 204.0
1220.134033 200.0
1224.587524 92.0
1232.505615 208.0
1237.674805 148.0
1250.831665 116.0
1260.889771 168.0
1275.789429 100.0
1292.865479 128.0
1307.534912 164.0
1311.936035 136.0
1335.557617 64.0
1335.979492 128.0
1344.183594 164.0
1351.7323 164.0
1369.337036 164.0
1370.758789 184.0
1370.83252 148.0
1372.380493 148.0
1395.786621 220.0
1399.276245 180.0
1410.279663 208.0
1418.715942 136.0
1420.065674 108.0
1437.384033 196.0
1445.424072 152.0
1456.189331 152.0
1456.44751 228.0
1456.64502 232.0
1471.106201 176.0
1475.80481 128.0
1483.644897 192.0
1485.209229 200.0
1485.554443 136.0
1494.028076 148.0
1498.424072 132.0
