>compound MLS001401381-01!Benzeneacetic acid, Alpha-(hydroxymethyl)-, 9-methyl-3-oxa-9-azatricyclo[3.3.1.02,4]non-7-yl ester, [7(S)-(1Alpha,2 ,4 ,5Alpha,7 )]- [CAS]
>formula C17H21NO4
>ionization [M+H]+
>parentmass 304.154419
#inchi InChI=1S/C17H21NO4/c1-18-13-7-11(8-14(18)16-15(13)22-16)21-17(20)12(9-19)10-5-3-2-4-6-10/h2-6,11-16,19H,7-9H2,1H3/t11?,12-,13-,14+,15-,16+/m1/s1
#inchikey STECJAGHUSJQJN
#origInchi InChI=1S/C17H21NO4.BrH.H2O/c1-18-13-7-11(8-14(18)16-15(13)22-16)21-17(20)12(9-19)10-5-3-2-4-6-10;;/h2-6,11-16,19H,7-9H2,1H3;1H;1H2/t11?,12-,13-,14+,15-,16+;;/m1../s1
#Ion_Source LC-ESI
#Instrument qTof
#Compound_Source NIH Pharmacologically Active Library
#PI Dorrestein
#Data_Collector VP/LMS
#Scan -1
#Precursor_MZ 304.159
#ExactMass 303.147
#Charge 1
#CAS_Number N/A
#Pubmed_ID N/A
#Smiles CN1[C@H]2CC(C[C@@H]1[C@H]3O[C@H]32)OC(=O)[C@H](CO)c4ccccc4.O.Br
#INCHI_AUX N/A
#Library_Class 1
#SpectrumID CCMSLIB00000085465
#IonMode Positive
#UpdateWorkflowName UPDATE-SINGLE-ANNOTATED-GOLD
#LibraryQualityString Gold
#TaskID d252d724072548979f1f6f1ced849daf
##Scan# 1168
#SpectrumFile p4-B04_GB4_01_18340.mzXML
#LibraryName Pharm_Active_Library.mgf
#MQScore -1
#Organism Pharm_Active_Library
#TIC_Query 0
#RT_Query -1
#MZErrorPPM -1
#SharedPeaks 0
#MassDiff 0
#LibMZ -1
#SpecMZ 304.159
#SpecCharge 0
#internalFilename spec-00000.mgf

>collision 10
44.932888 136.0
45.01965 84.0
45.063728 88.0
45.10783 76.0
45.35144 92.0
45.364845 152.0
45.427872 44.0
45.507053 140.0
45.603771 88.0
45.751736 128.0
46.033531 104.0
46.059757 220.0
46.317543 216.0
46.354122 180.0
46.416477 144.0
46.505192 284.0
46.587486 164.0
46.722073 200.0
46.820072 248.0
47.15979 208.0
47.341747 144.0
47.36092 184.0
47.414352 148.0
47.622894 192.0
47.69434 156.0
47.703964 160.0
48.006863 152.0
48.019238 148.0
48.057899 188.0
48.135197 44.0
48.230522 192.0
48.247112 196.0
48.303806 92.0
48.683563 164.0
48.787773 176.0
48.903225 184.0
48.98259 212.0
49.027176 48.0
49.089905 152.0
49.195942 172.0
49.37479 260.0
49.481136 144.0
49.558167 84.0
49.655212 208.0
49.685749 212.0
49.711006 172.0
50.000496 184.0
50.089199 160.0
50.249908 140.0
50.35154 128.0
50.436314 184.0
50.467415 92.0
50.485798 176.0
50.502769 152.0
50.886795 148.0
51.026028 168.0
51.055889 168.0
51.080067 188.0
51.202473 188.0
51.396339 164.0
51.424881 200.0
51.44772 176.0
51.471992 192.0
51.487701 32.0
51.772289 152.0
51.863983 180.0
52.182228 196.0
52.283241 200.0
52.44178 212.0
52.753563 188.0
52.877953 116.0
52.906902 176.0
53.003941 32.0
53.02713 204.0
53.125729 248.0
53.193932 152.0
53.430801 148.0
53.808266 56.0
53.913017 160.0
53.923664 108.0
54.116756 92.0
54.156296 152.0
54.298462 68.0
54.373283 244.0
54.393829 152.0
54.451092 176.0
54.496628 132.0
54.586292 208.0
54.726074 156.0
54.746689 140.0
54.815926 68.0
55.06601 176.0
55.195282 216.0
55.282558 96.0
55.347687 204.0
55.3699 100.0
55.429157 152.0
55.478065 156.0
55.53886 192.0
55.556187 136.0
55.593754 216.0
55.807098 248.0
55.848656 168.0
56.041328 160.0
56.074112 156.0
56.253098 224.0
56.329254 172.0
56.387527 140.0
56.550549 48.0
56.955376 76.0
56.965889 180.0
57.230579 156.0
57.450619 152.0
57.497395 216.0
57.754238 168.0
57.832916 68.0
58.217999 156.0
58.398853 184.0
58.660748 124.0
58.723263 136.0
58.740044 184.0
58.778183 156.0
58.798023 136.0
58.935455 196.0
59.296597 156.0
59.430008 164.0
59.700352 156.0
59.900436 164.0
59.942032 164.0
60.041462 172.0
60.111652 204.0
60.266064 172.0
60.423763 224.0
60.583218 64.0
60.690155 204.0
60.718067 184.0
60.815811 164.0
60.894993 228.0
60.985107 180.0
61.474125 40.0
61.591217 204.0
61.628708 180.0
62.11245 172.0
62.128136 152.0
62.351101 100.0
62.363674 208.0
62.517799 124.0
62.853439 220.0
62.918152 168.0
62.946571 152.0
63.016068 88.0
63.090347 112.0
63.110901 152.0
63.126713 188.0
63.349873 192.0
63.541698 160.0
63.584541 168.0
63.980328 264.0
64.102966 232.0
64.410881 160.0
64.484383 144.0
65.09153 184.0
65.252205 160.0
65.263458 128.0
65.368011 160.0
65.569313 204.0
65.667656 252.0
65.769302 160.0
66.12326 228.0
66.204964 128.0
66.211098 172.0
66.586937 180.0
66.629173 176.0
66.890984 160.0
67.130486 140.0
67.15332 192.0
68.096039 148.0
68.128891 208.0
68.224205 88.0
68.26696 128.0
68.334396 168.0
68.484192 128.0
68.617668 176.0
68.677032 260.0
68.724876 148.0
68.815651 220.0
69.146255 240.0
69.306885 164.0
69.535728 176.0
69.575562 184.0
69.638664 132.0
69.700127 152.0
69.836449 228.0
69.902992 152.0
69.924629 160.0
69.989548 212.0
70.036179 180.0
70.304596 144.0
70.373039 156.0
70.501656 144.0
70.521713 212.0
70.648788 176.0
71.183449 176.0
71.666191 220.0
71.684731 208.0
71.876961 184.0
72.209755 180.0
72.263885 116.0
72.356964 196.0
72.558571 172.0
72.687477 168.0
72.706139 144.0
72.76046 80.0
72.977928 172.0
73.136131 204.0
73.1838 184.0
73.275772 148.0
73.560562 72.0
73.739906 176.0
73.753578 196.0
73.770676 148.0
74.102676 268.0
74.176369 136.0
74.308418 172.0
74.322144 188.0
74.353027 172.0
74.365044 192.0
74.540207 144.0
74.625259 156.0
74.672585 152.0
74.779251 200.0
74.843094 232.0
75.213593 180.0
75.37989 180.0
75.564392 164.0
75.727112 132.0
76.291046 144.0
76.48587 200.0
76.534615 172.0
76.762878 100.0
76.775085 108.0
76.829155 156.0
76.851837 48.0
77.145241 208.0
77.241409 260.0
77.316643 64.0
77.337646 184.0
77.390167 188.0
77.563599 140.0
77.598663 160.0
77.628471 176.0
77.823235 280.0
78.062202 188.0
78.09034 200.0
78.248711 196.0
78.271599 156.0
78.39138 160.0
78.479515 156.0
78.604752 52.0
78.968666 152.0
79.189903 176.0
79.27317 148.0
79.377754 144.0
79.627975 216.0
79.766563 140.0
79.958656 192.0
80.118904 224.0
80.16523 264.0
80.429184 64.0
80.538101 204.0
81.151909 152.0
81.227226 216.0
81.272079 160.0
81.363609 60.0
81.392174 180.0
81.437233 108.0
81.577385 148.0
81.712265 192.0
82.137398 44.0
82.610672 156.0
82.79348 120.0
83.050835 224.0
83.156067 204.0
83.170586 112.0
83.41217 184.0
83.468529 336.0
83.763359 112.0
83.799789 136.0
84.02404 44.0
84.038635 252.0
84.104332 172.0
84.117111 168.0
84.144493 220.0
84.239456 216.0
84.319847 100.0
84.374687 180.0
84.55394 176.0
84.625328 80.0
84.639977 132.0
84.682098 144.0
84.695831 224.0
85.118553 212.0
85.197533 152.0
85.41996 168.0
85.618736 108.0
86.120392 192.0
86.406334 232.0
86.503143 168.0
86.516098 64.0
86.640175 116.0
86.690201 168.0
86.868187 92.0
86.916428 108.0
87.252594 268.0
87.487 148.0
87.686302 80.0
87.72731 140.0
87.826141 216.0
88.119217 176.0
88.420273 84.0
88.753708 220.0
89.016403 88.0
89.239716 184.0
89.343445 168.0
89.639038 148.0
89.795509 116.0
90.035187 152.0
90.150421 160.0
90.254387 204.0
90.687904 196.0
90.943954 128.0
91.05471 660.0
91.183258 68.0
91.20797 120.0
91.36705 152.0
91.407654 132.0
91.508537 84.0
91.611374 192.0
91.780998 148.0
91.998489 164.0
92.05835 296.0
92.332863 192.0
92.568245 200.0
92.777084 220.0
92.876801 128.0
93.022629 124.0
93.073952 268.0
93.256966 196.0
93.310791 200.0
93.368477 188.0
93.528168 176.0
93.562813 172.0
93.896164 132.0
93.934738 208.0
94.067337 1416.0
94.102631 156.0
94.147041 148.0
94.220444 32.0
94.305466 284.0
94.338326 112.0
94.35379 144.0
94.400192 88.0
94.779587 136.0
94.882309 204.0
94.990906 148.0
95.075638 484.0
95.216049 84.0
95.291809 124.0
95.350105 164.0
95.363708 64.0
95.423965 88.0
95.505646 164.0
95.550385 128.0
95.567894 160.0
95.78788 164.0
95.82489 124.0
95.959373 204.0
95.977837 212.0
96.044037 1080.0
96.064682 84.0
96.080383 832.0
96.15834 176.0
96.244232 192.0
96.279381 192.0
96.377701 192.0
96.502136 60.0
96.646873 144.0
96.789757 164.0
96.83284 160.0
97.005264 108.0
97.052582 3400.0
97.13076 28.0
97.189613 52.0
97.366287 76.0
97.436996 176.0
97.466469 168.0
97.531319 172.0
97.944527 132.0
98.061188 4720.0
98.234283 48.0
98.267822 160.0
98.327019 56.0
98.498795 124.0
98.741905 64.0
98.809158 156.0
98.908096 148.0
98.98333 224.0
99.032837 52.0
99.068497 140.0
99.258759 172.0
99.486923 132.0
99.586205 84.0
99.633873 72.0
99.659706 132.0
99.717331 200.0
99.755096 200.0
99.872414 168.0
99.91021 208.0
99.932091 188.0
100.063446 140.0
100.077385 172.0
100.113228 200.0
100.200867 204.0
100.55381 48.0
100.591736 196.0
100.685577 148.0
100.801437 212.0
101.023361 160.0
101.271568 200.0
101.43988 200.0
101.666519 180.0
102.028061 136.0
102.047333 976.0
102.12458 76.0
102.214645 156.0
102.249321 204.0
102.456718 180.0
102.503059 76.0
102.615929 132.0
102.678436 168.0
102.694572 256.0
102.720795 220.0
102.789391 168.0
102.807549 64.0
102.981171 148.0
103.011475 164.0
103.034317 332.0
103.055115 31724.0
103.095299 244.0
103.132706 56.0
103.167831 100.0
103.189308 48.0
103.203461 88.0
103.222534 120.0
103.254013 64.0
103.286377 72.0
103.355156 100.0
103.389557 28.0
103.405746 76.0
103.446228 68.0
103.506172 112.0
103.549492 88.0
103.711014 172.0
103.76226 64.0
103.810921 88.0
103.871765 116.0
103.965096 160.0
104.006721 172.0
104.058159 3596.0
104.145561 72.0
104.222984 44.0
104.336792 120.0
104.454742 164.0
104.481186 132.0
104.666397 92.0
104.68676 52.0
104.725456 108.0
104.76619 68.0
104.794716 64.0
104.962952 104.0
104.992439 136.0
105.127075 48.0
105.167892 120.0
105.777008 184.0
105.834328 76.0
106.041229 244.0
106.069923 180.0
106.180641 204.0
106.494652 60.0
106.661079 164.0
106.994331 68.0
107.048065 588.0
107.068604 168.0
107.264191 80.0
107.332222 124.0
107.359032 116.0
107.511688 196.0
107.658257 100.0
107.683037 116.0
107.709892 176.0
107.751205 76.0
107.889671 148.0
108.053047 116.0
108.079277 1372.0
108.12133 108.0
108.533554 108.0
108.591911 196.0
108.950714 140.0
109.047562 224.0
109.088081 300.0
109.148163 36.0
109.173119 180.0
109.345787 40.0
109.360359 80.0
109.572754 188.0
109.806213 276.0
109.860443 80.0
109.912605 224.0
109.954338 36.0
110.061378 1540.0
110.097687 4412.0
110.131271 192.0
110.159798 120.0
110.177757 40.0
110.236259 32.0
110.489258 64.0
110.505989 104.0
110.58342 132.0
110.753014 68.0
110.773956 132.0
110.801193 160.0
111.056931 88.0
111.10331 472.0
111.136642 104.0
111.189804 204.0
111.277267 140.0
111.558777 240.0
111.605026 120.0
111.990135 104.0
112.019623 72.0
112.0765 156.0
112.099907 152.0
112.54686 60.0
112.711617 180.0
113.240479 52.0
113.338905 112.0
113.429054 68.0
113.753601 184.0
113.925606 172.0
113.989342 144.0
114.053276 188.0
114.09063 144.0
114.123253 148.0
114.148766 160.0
114.491234 176.0
114.510544 136.0
114.561661 168.0
114.696098 224.0
115.061897 180.0
115.169594 108.0
115.794113 64.0
115.817673 80.0
115.922653 40.0
116.229286 192.0
117.046082 212.0
117.190392 236.0
117.895988 128.0
118.043282 412.0
118.404381 200.0
118.545189 128.0
119.703003 208.0
119.766159 264.0
119.894699 80.0
119.957909 176.0
120.063728 180.0
120.081726 1480.0
120.263283 188.0
120.304756 164.0
120.344048 36.0
120.431664 164.0
120.68708 240.0
120.899261 200.0
120.929901 228.0
121.03936 104.0
121.065926 11324.0
121.140106 52.0
121.16201 44.0
121.199257 44.0
121.256233 52.0
121.291298 44.0
121.552277 84.0
121.611534 56.0
121.668602 44.0
121.782784 148.0
121.81134 184.0
122.015717 144.0
122.067581 1244.0
122.090767 360.0
122.453598 224.0
122.473419 200.0
122.576965 204.0
122.594597 168.0
123.069237 784.0
123.088715 96.0
123.148338 84.0
123.168221 84.0
123.309624 116.0
123.818466 148.0
124.281761 148.0
124.335014 48.0
124.673744 228.0
125.061775 160.0
125.155273 148.0
125.304497 148.0
126.848701 352.0
127.935944 208.0
128.059784 160.0
128.327942 76.0
129.145416 124.0
129.595901 224.0
129.852051 84.0
130.6698 120.0
130.8405 128.0
131.186768 80.0
131.29393 52.0
131.309891 76.0
131.567734 112.0
131.638504 40.0
132.702484 124.0
133.198166 84.0
133.467056 96.0
133.657959 208.0
133.706284 56.0
133.791458 96.0
134.18541 108.0
134.388367 180.0
134.582245 56.0
134.8479 228.0
134.92186 220.0
134.972733 184.0
135.275803 172.0
135.790192 128.0
136.076492 356.0
137.003525 32.0
137.157318 52.0
137.556198 196.0
137.612228 152.0
137.686951 232.0
137.738327 236.0
137.808411 156.0
137.894867 204.0
137.922913 80.0
137.962662 112.0
137.992676 200.0
138.001343 168.0
138.006439 292.0
138.030457 164.0
138.051987 208.0
138.092407 38028.0
138.173126 148.0
138.229279 40.0
138.273743 36.0
138.304871 40.0
138.33226 120.0
138.372925 76.0
138.45401 76.0
138.476334 36.0
138.528961 52.0
138.562546 72.0
138.620193 128.0
138.648453 60.0
138.711746 248.0
138.833664 128.0
138.859451 40.0
138.997864 72.0
139.096283 3252.0
139.138687 80.0
139.371201 76.0
139.446396 36.0
139.470505 172.0
139.674469 40.0
139.752106 56.0
139.820343 60.0
139.89801 124.0
140.020447 36.0
140.069214 204.0
140.098251 220.0
140.142944 56.0
140.206573 100.0
140.836502 52.0
140.900284 144.0
141.198105 80.0
141.314087 120.0
141.612274 92.0
141.707031 28.0
141.946426 44.0
143.241684 56.0
143.258362 164.0
143.482376 132.0
143.747116 60.0
146.651352 52.0
146.894897 144.0
147.372894 112.0
147.486481 176.0
148.777588 208.0
149.163818 216.0
149.45079 144.0
154.087479 200.0
154.173676 64.0
154.831726 36.0
154.891174 40.0
154.975403 60.0
155.28775 108.0
155.832993 196.0
155.948166 40.0
156.017776 292.0
156.042633 104.0
156.102325 12044.0
156.192154 64.0
156.239105 48.0
156.288864 40.0
156.368484 60.0
156.390884 72.0
156.460999 48.0
156.756973 48.0
157.106827 596.0
157.318146 76.0
158.087952 124.0
158.105469 168.0
158.148026 28.0
158.248154 44.0
158.563782 40.0
159.113098 156.0
159.253723 132.0
164.553955 96.0
168.315475 140.0
175.915878 116.0
176.103363 84.0
178.334229 156.0
179.959198 64.0
181.610306 44.0
196.750961 96.0
198.614624 80.0
198.937332 120.0
199.102982 176.0
200.075851 196.0
201.11319 44.0
203.787003 100.0
218.104675 144.0
218.884277 156.0
218.922562 120.0
219.491287 28.0
222.844788 84.0
228.107544 80.0
231.871353 216.0
237.870941 128.0
240.234238 80.0
243.785538 144.0
251.187073 64.0
274.140625 324.0
275.798218 48.0
276.0065 152.0
276.744324 200.0
282.374786 60.0
286.355225 52.0
289.990601 96.0
294.044647 108.0
296.709259 56.0
300.999725 104.0
301.338226 104.0
303.761505 132.0
304.154419 3432.0
304.497345 48.0
304.823883 60.0
305.157837 764.0
305.456635 48.0
306.083069 60.0
306.15625 128.0
307.034393 88.0
307.152985 128.0
307.236725 68.0
307.327423 136.0
307.847504 56.0
311.331909 116.0
327.890045 92.0
339.377319 104.0
365.269409 68.0
382.092804 124.0
463.459381 60.0
471.869415 124.0
580.087341 120.0
628.244812 72.0
637.467346 88.0
654.41748 60.0
662.338135 92.0
673.096985 100.0
683.640686 208.0
695.483459 152.0
713.986023 180.0
730.325256 232.0
750.732422 160.0
756.753906 92.0
789.300903 212.0
799.684814 136.0
816.260498 192.0
821.523071 236.0
825.452454 40.0
833.850891 248.0
843.193115 196.0
847.649048 64.0
863.857849 212.0
867.902832 204.0
868.995605 44.0
869.159912 188.0
869.429871 44.0
870.909363 68.0
872.71936 108.0
879.58844 84.0
885.820923 100.0
892.711548 140.0
892.913757 116.0
895.341858 160.0
897.069763 100.0
899.109619 116.0
899.425903 176.0
904.859863 148.0
915.054138 160.0
921.042297 220.0
937.831421 244.0
937.977661 68.0
940.783691 104.0
944.450012 344.0
945.031189 156.0
949.085876 132.0
950.410767 216.0
952.393616 124.0
954.144958 212.0
958.471741 152.0
961.758728 180.0
964.427002 116.0
965.224487 172.0
965.589355 224.0
971.039429 200.0
976.990051 88.0
977.935852 40.0
978.751343 188.0
979.916077 140.0
983.551697 216.0
990.67395 144.0
993.940369 156.0
995.666687 180.0
997.683655 156.0
1000.369751 180.0
1004.181824 216.0
1004.58551 200.0
1004.667542 172.0
1005.279541 164.0
1006.529358 140.0
1008.076965 188.0
1008.576233 140.0
1013.746887 104.0
1013.911682 208.0
1015.16687 148.0
1016.867065 196.0
1017.082825 124.0
1019.801331 240.0
1020.35437 200.0
1024.93689 52.0
1025.535522 184.0
1026.192505 144.0
1026.715454 112.0
1027.219238 40.0
1031.114014 200.0
1032.55896 160.0
1033.128174 132.0
1036.700928 160.0
1038.419067 148.0
1038.880859 108.0
1040.222046 128.0
1042.521362 200.0
1045.260742 164.0
1046.026611 208.0
1046.760498 216.0
1048.809204 156.0
1051.027588 188.0
1054.06897 156.0
1056.085938 232.0
1056.690918 232.0
1056.901001 232.0
1060.009155 164.0
1060.501587 124.0
1062.615601 248.0
1062.687012 140.0
1063.258057 316.0
1064.521973 132.0
1064.660278 136.0
1064.920044 44.0
1067.449341 204.0
1070.780029 108.0
1071.906982 188.0
1074.032227 192.0
1077.818726 208.0
1082.449829 168.0
1085.037842 212.0
1090.808228 260.0
1091.879883 200.0
1092.656128 168.0
1092.846924 176.0
1094.656982 168.0
1096.633423 96.0
1098.631348 132.0
1099.68042 192.0
1100.14917 132.0
1101.714233 192.0
1102.242798 184.0
1105.615234 156.0
1106.422852 112.0
1108.290527 172.0
1111.240967 196.0
1113.218994 228.0
1113.272095 180.0
1114.294922 160.0
1115.424683 172.0
1115.803589 180.0
1117.862915 140.0
1119.010376 188.0
1120.14917 72.0
1124.229492 236.0
1130.0896 192.0
1131.963745 208.0
1132.754028 168.0
1135.36792 168.0
1138.045288 164.0
1138.609375 156.0
1139.086304 88.0
1139.207153 96.0
1140.161255 140.0
1142.487671 172.0
1144.419312 152.0
1145.611328 60.0
1146.298584 216.0
1149.541992 236.0
1155.440552 48.0
1155.521729 48.0
1158.927368 192.0
1159.239014 132.0
1160.004883 144.0
1160.262451 164.0
1161.232178 144.0
1162.439697 116.0
1164.455933 60.0
1165.604004 188.0
1167.310181 104.0
1168.514038 140.0
1171.073608 152.0
1174.119995 80.0
1179.534302 248.0
1179.698364 48.0
1180.313721 168.0
1180.607666 176.0
1181.503784 156.0
1182.776489 152.0
1185.399536 164.0
1186.557861 132.0
1186.749878 44.0
1186.811646 204.0
1187.7854 164.0
1187.888306 160.0
1189.775513 124.0
1191.244995 120.0
1191.767212 200.0
1192.268799 208.0
1193.506104 148.0
1194.578979 200.0
1194.998657 180.0
1195.762451 264.0
1196.258057 116.0
1198.875244 204.0
1200.971191 152.0
1203.14563 172.0
1203.434692 156.0
1206.944702 272.0
1208.072021 52.0
1208.286499 120.0
1208.507935 56.0
1208.729248 208.0
1209.144531 204.0
1210.88916 104.0
1211.374023 184.0
1212.86377 216.0
1214.71521 168.0
1216.963745 132.0
1217.394165 232.0
1218.665283 136.0
1219.200439 152.0
1219.422729 228.0
1219.638184 176.0
1220.194336 188.0
1222.594116 152.0
1222.75415 164.0
1224.275757 160.0
1225.024048 136.0
1225.637085 100.0
1225.769531 104.0
1226.891602 172.0
1227.812012 156.0
1230.023804 216.0
1230.404419 244.0
1230.840576 60.0
1231.476074 136.0
1232.300293 168.0
1233.355591 124.0
1233.565308 76.0
1234.78186 112.0
1235.159546 160.0
1236.271973 136.0
1237.664917 132.0
1238.3302 140.0
1239.324951 152.0
1240.060791 188.0
1241.673218 184.0
1241.974854 212.0
1245.737183 184.0
1245.912842 84.0
1245.997192 144.0
1246.77002 216.0
1249.540527 296.0
1249.793823 176.0
1249.885254 204.0
1250.800171 136.0
1251.194336 132.0
1251.74353 120.0
1253.645508 192.0
1258.025391 144.0
1259.642578 180.0
1261.769653 244.0
1265.730957 164.0
1266.114136 144.0
1266.30542 168.0
1266.496582 36.0
1268.466431 140.0
1268.948486 156.0
1270.040527 156.0
1270.600952 168.0
1271.047974 152.0
1271.544678 148.0
1272.119629 108.0
1272.83667 124.0
1273.447388 184.0
1275.109985 220.0
1277.350464 148.0
1277.420776 224.0
1278.480835 196.0
1278.601807 180.0
1278.765503 204.0
1280.239258 160.0
1280.403076 160.0
1281.984497 124.0
1283.930664 204.0
1284.55835 156.0
1285.650024 156.0
1288.091797 140.0
1288.856201 240.0
1289.535034 176.0
1289.785278 164.0
1290.25708 228.0
1290.571655 72.0
1291.558472 84.0
1293.325806 96.0
1295.130127 160.0
1297.193848 168.0
1297.52356 144.0
1297.932251 156.0
1298.649414 180.0
1298.907593 196.0
1301.591675 140.0
1302.446289 148.0
1302.848511 108.0
1303.610107 160.0
1303.710815 156.0
1305.486328 192.0
1305.802856 212.0
1306.752319 60.0
1308.220459 224.0
1309.45166 208.0
1311.483521 120.0
1314.66394 40.0
1317.732788 220.0
1318.903442 204.0
1319.893799 156.0
1320.776123 148.0
1321.41272 216.0
1322.03125 84.0
1322.440308 144.0
1322.838379 72.0
1323.345215 136.0
1324.569092 152.0
1324.822632 156.0
1326.743042 176.0
1327.540527 160.0
1329.208984 228.0
1329.992798 268.0
1331.524658 104.0
1332.679688 188.0
1332.868652 208.0
1333.144775 136.0
1334.918457 188.0
1335.660278 212.0
1336.009399 160.0
1336.613281 160.0
1336.766968 196.0
1337.763184 200.0
1339.93335 152.0
1339.999023 176.0
1340.734863 100.0
1342.229248 108.0
1342.74707 144.0
1343.702637 184.0
1343.928833 220.0
1344.972412 172.0
1346.206177 132.0
1346.713013 240.0
1346.805054 208.0
1346.980347 156.0
1347.499023 128.0
1348.017822 140.0
1348.229736 156.0
1349.560059 212.0
1351.213013 204.0
1351.732544 116.0
1352.720581 104.0
1352.793701 160.0
1353.064575 56.0
1353.196411 168.0
1353.628418 212.0
1354.250854 208.0
1354.353394 200.0
1354.411987 148.0
1355.305786 164.0
1355.437622 168.0
1356.536987 148.0
1356.727539 76.0
1357.702759 236.0
1358.578613 236.0
1358.766357 156.0
1358.905762 184.0
1359.67627 156.0
1360.791748 152.0
1361.034302 204.0
1361.100342 236.0
1361.577637 80.0
1362.069702 152.0
1362.469116 200.0
1363.098267 52.0
1365.487549 184.0
1365.774292 24.0
1365.980347 108.0
1366.480591 168.0
1368.541382 232.0
1369.358765 172.0
1369.889038 132.0
1370.574219 216.0
1371.672363 180.0
1372.114624 192.0
1372.719238 164.0
1373.936157 156.0
1373.995239 180.0
1378.166626 236.0
1379.083008 184.0
1379.15686 56.0
1383.869141 212.0
1384.320801 156.0
1385.883789 224.0
1386.320679 204.0
1387.492065 212.0
1387.840454 96.0
1388.812012 120.0
1390.080566 144.0
1390.177002 156.0
1390.27356 124.0
1391.453735 132.0
1391.594727 192.0
1392.01062 60.0
1393.169189 152.0
1394.51416 120.0
1396.848877 140.0
1397.139038 180.0
1397.540771 212.0
1397.674683 184.0
1398.470947 168.0
1398.64209 52.0
1399.572754 136.0
1400.838745 188.0
1401.79248 204.0
1403.357666 176.0
1404.00647 156.0
1404.356934 168.0
1406.378906 256.0
1407.610718 184.0
1408.970093 172.0
1409.993774 164.0
1411.354248 140.0
1411.900146 168.0
1412.109619 40.0
1412.296509 156.0
1412.857544 76.0
1413.05957 248.0
1417.671997 196.0
1418.406494 132.0
1418.608887 168.0
1419.366089 124.0
1420.183472 164.0
1420.333496 164.0
1420.851074 196.0
1421.023682 180.0
1423.643311 64.0
1426.054932 116.0
1426.513428 240.0
1428.42334 176.0
1428.483521 164.0
1429.785278 124.0
1430.199219 200.0
1432.385498 176.0
1434.191162 184.0
1434.281616 168.0
1435.970459 152.0
1436.528687 228.0
1436.69458 128.0
1438.294434 180.0
1438.431519 172.0
1441.453369 184.0
1442.275024 84.0
1442.486572 128.0
1446.571411 196.0
1446.813721 192.0
1447.275513 124.0
1447.366333 132.0
1447.692017 40.0
1448.000488 232.0
1448.691772 160.0
1448.911377 156.0
1450.768066 164.0
1450.987915 164.0
1451.078979 256.0
1451.655151 160.0
1452.785278 88.0
1453.771606 160.0
1454.58374 180.0
1456.801025 164.0
1457.408813 220.0
1457.62915 136.0
1458.047119 192.0
1458.46521 128.0
1458.959229 192.0
1459.407837 168.0
1460.19873 192.0
1460.723511 160.0
1461.119019 168.0
1461.324463 232.0
1462.618164 184.0
1463.014038 164.0
1463.859131 68.0
1464.59021 60.0
1464.704468 276.0
1465.26062 192.0
1465.36731 220.0
1466.014893 108.0
1466.548462 224.0
1467.935913 144.0
1468.111328 188.0
1468.324829 60.0
1470.812134 168.0
1472.140625 188.0
1472.713379 64.0
1473.37793 124.0
1473.706421 64.0
1475.250244 164.0
1475.487183 176.0
1475.892456 120.0
1476.26709 164.0
1477.69751 124.0
1477.750977 144.0
1477.850464 244.0
1479.105591 180.0
1480.001221 200.0
1480.69812 152.0
1481.073364 168.0
1481.51001 168.0
1482.521362 164.0
1482.827881 200.0
1484.077393 140.0
1484.637207 148.0
1485.79541 192.0
1487.314819 160.0
1487.376221 180.0
1487.79834 160.0
1489.157471 220.0
1490.040894 160.0
1490.102295 156.0
1490.455811 132.0
1490.563354 232.0
1491.547119 284.0
1491.808472 52.0
1493.592407 132.0
1493.923218 208.0
1494.023193 192.0
1494.230835 172.0
1495.169678 136.0
1496.547485 196.0
1497.294434 224.0
1497.386841 124.0
1497.463867 156.0
1498.634766 136.0
1499.058594 148.0
1499.513306 188.0
1501.51001 168.0
1501.69519 116.0
1502.011353 208.0
1502.435669 188.0
1502.528198 168.0
1504.71228 184.0
