>compound Sertraline
>formula C17H17Cl2N 
>ionization [M+H]+
>parentmass 306.080322
#inchi InChI=1S/C17H17Cl2N/c1-20-17-9-7-12(13-4-2-3-5-14(13)17)11-6-8-15(18)16(19)10-11/h2-6,8,10,12,17,20H,7,9H2,1H3/t12-,17-/m0/s1
#inchikey VGKDLMBJGBXTGI
#Ion_Source LC-ESI
#Instrument qTof
#Compound_Source Commercial
#PI Dorrestein
#Data_Collector Garg_Neha
#Scan -1
#Precursor_MZ 306.083
#ExactMass 305.074
#Charge 1
#CAS_Number N/A
#Pubmed_ID N/A
#Smiles N/A
#INCHI_AUX N/A
#Library_Class 1
#SpectrumID CCMSLIB00000077153
#IonMode Positive
#UpdateWorkflowName UPDATE-SINGLE-ANNOTATED-GOLD
#LibraryQualityString Gold
#TaskID 48f7f52fc6d249b5abbcc6e7b3df5969
##Scan# 1267
#SpectrumFile NCP003195_E2E6F2F6G2G6H2H6_BB7_01_15711.mzXML
#LibraryName NIH_Clinical_Collection_2.mgf
#MQScore -1
#Organism NIHcollection2_04212014_2_mgf
#TIC_Query 0
#RT_Query -1
#MZErrorPPM -1
#SharedPeaks 0
#MassDiff 0
#LibMZ -1
#SpecMZ 306.083
#SpecCharge 0
#internalFilename spec-00000.mgf

>collision 10
45.550133 152.0
46.344761 156.0
46.620224 148.0
47.092979 156.0
49.141697 192.0
49.559757 180.0
49.785603 160.0
51.076023 184.0
51.100208 224.0
51.649441 176.0
52.149853 144.0
53.62912 180.0
53.852356 228.0
54.473419 164.0
55.420582 164.0
56.813118 196.0
57.343918 196.0
57.559647 152.0
57.859016 176.0
60.302021 208.0
60.822449 200.0
61.074169 176.0
62.694641 180.0
63.405815 252.0
63.705704 176.0
63.724766 172.0
63.858299 164.0
64.825768 156.0
65.187027 160.0
65.777908 148.0
65.886108 168.0
65.932968 192.0
67.122894 184.0
67.570198 140.0
67.703598 224.0
69.002953 164.0
69.120384 160.0
69.53302 144.0
70.010155 140.0
70.218475 160.0
71.135406 140.0
71.426285 236.0
71.845566 164.0
71.929939 192.0
72.207039 228.0
73.237282 144.0
73.899643 184.0
74.461906 236.0
74.792023 180.0
75.048714 156.0
75.198792 140.0
75.316521 152.0
76.582397 144.0
77.475014 180.0
77.776627 148.0
78.182625 160.0
78.360466 152.0
79.891441 164.0
80.240929 164.0
80.667603 160.0
80.748062 152.0
83.975708 172.0
86.263634 140.0
87.313087 164.0
87.418068 148.0
87.592278 148.0
88.32399 156.0
88.675995 180.0
88.841003 144.0
89.222237 140.0
89.404686 188.0
89.43103 140.0
89.790894 208.0
90.204391 152.0
90.609375 188.0
91.054207 464.0
92.349258 164.0
92.460228 184.0
92.68428 192.0
93.236938 144.0
93.38533 124.0
93.840485 180.0
94.221573 192.0
95.145363 168.0
98.014694 160.0
98.452782 220.0
98.486191 180.0
98.994469 140.0
99.311562 164.0
99.831902 156.0
99.989067 144.0
100.616959 156.0
100.930641 164.0
101.306908 204.0
101.840469 164.0
103.053978 296.0
103.125946 168.0
103.24321 188.0
104.464226 168.0
104.546677 176.0
105.555382 184.0
105.929916 164.0
106.919571 168.0
107.597733 188.0
107.663803 196.0
108.369171 196.0
108.773575 184.0
108.966705 168.0
109.024887 192.0
110.168785 164.0
110.325516 184.0
110.672821 212.0
111.463593 168.0
111.842148 212.0
112.499825 168.0
112.554718 144.0
113.000694 140.0
113.574776 156.0
115.054291 384.0
115.216026 156.0
115.947815 252.0
116.235176 172.0
116.727081 140.0
116.878403 164.0
117.981918 148.0
118.911179 156.0
119.082695 164.0
119.215218 192.0
119.378258 160.0
119.706848 208.0
120.051155 152.0
121.014778 160.0
121.558372 160.0
122.393669 184.0
123.000999 652.0
124.00531 340.0
124.356758 232.0
124.994682 160.0
125.012169 316.0
126.54808 216.0
127.013725 312.0
127.055603 720.0
128.062927 3204.0
128.086792 184.0
128.214844 156.0
128.406464 156.0
128.830826 156.0
128.848892 144.0
129.011612 192.0
129.031952 272.0
129.07074 15916.0
130.073318 1548.0
130.287491 172.0
130.567078 144.0
130.764999 168.0
131.075134 172.0
131.113449 152.0
131.177521 112.0
131.626724 140.0
132.392792 224.0
132.422562 156.0
132.964523 156.0
133.037079 172.0
134.960434 424.0
135.187531 156.0
136.291306 208.0
136.460968 212.0
136.996246 208.0
137.042831 184.0
137.967041 152.0
138.233688 160.0
138.376465 172.0
139.966034 176.0
141.630981 224.0
141.891663 228.0
142.12883 156.0
142.865356 148.0
143.200058 208.0
143.971603 136.0
144.1194 188.0
144.148071 208.0
145.065018 176.0
145.417343 184.0
145.443741 232.0
145.981903 188.0
146.369324 148.0
146.672882 248.0
146.889893 148.0
148.285034 144.0
151.033066 184.0
151.793137 164.0
152.387131 144.0
152.623077 164.0
153.66246 152.0
153.889526 144.0
155.05925 384.0
155.132095 172.0
155.654968 200.0
155.928223 172.0
156.000305 144.0
156.060257 140.0
156.699631 200.0
157.308121 172.0
157.338089 160.0
157.457932 176.0
157.697784 204.0
158.511124 180.0
158.626419 200.0
158.878098 132.0
158.898483 204.0
158.928497 256.0
158.976913 102064.0
159.059235 144.0
159.076492 276.0
159.141312 100.0
159.389954 188.0
159.65625 144.0
159.980469 5760.0
160.334717 156.0
160.677551 96.0
160.736511 164.0
160.938675 184.0
160.974243 50072.0
161.086746 228.0
161.122025 232.0
161.159805 120.0
161.184174 188.0
161.247833 100.0
161.278229 104.0
161.318268 164.0
161.395355 188.0
161.950516 156.0
161.976868 2668.0
162.024338 780.0
162.115707 104.0
162.970154 380.0
163.21315 128.0
164.02095 276.0
170.000748 176.0
173.008591 160.0
173.134277 208.0
173.933945 172.0
176.93158 176.0
177.548599 168.0
180.034225 176.0
181.679962 144.0
182.975693 144.0
184.235123 224.0
188.096664 188.0
193.991776 180.0
196.068054 164.0
196.991776 1248.0
197.086594 148.0
197.994141 148.0
198.69368 180.0
198.989624 544.0
199.820282 196.0
199.991837 232.0
202.077362 152.0
202.312256 144.0
203.087708 164.0
204.095413 500.0
204.623184 164.0
205.101913 1828.0
205.37265 168.0
206.104019 204.0
206.226349 204.0
212.038193 516.0
212.777039 180.0
212.959991 148.0
214.577927 204.0
215.038818 144.0
225.04541 584.0
225.411087 144.0
226.047562 292.0
226.365326 160.0
227.048416 148.0
227.979218 140.0
230.628387 152.0
232.679184 144.0
235.443985 200.0
236.159149 140.0
238.046997 176.0
238.670761 140.0
239.062042 464.0
240.070938 1796.0
241.074722 456.0
242.070068 424.0
243.070877 300.0
245.999939 152.0
246.837387 196.0
247.004227 220.0
247.999512 492.0
249.005356 96.0
249.808594 156.0
252.597137 184.0
258.729462 148.0
260.015656 344.0
262.891876 212.0
265.976227 180.0
272.527405 200.0
273.19809 144.0
274.419922 164.0
274.501129 148.0
274.818207 236.0
274.96875 224.0
275.04007 99676.0
275.116028 192.0
275.157959 120.0
275.39325 96.0
275.486694 148.0
275.556488 140.0
275.581238 460.0
275.628876 124.0
275.70517 128.0
275.743622 276.0
275.952545 128.0
275.988586 116.0
276.042542 11532.0
276.110504 204.0
276.331543 100.0
276.37735 156.0
276.423798 136.0
276.862122 96.0
276.913513 160.0
277.036621 48236.0
277.148102 96.0
277.218567 112.0
277.386261 256.0
277.54776 148.0
277.607452 220.0
277.755646 172.0
277.820587 108.0
277.933289 268.0
277.963745 128.0
278.039246 4028.0
278.077606 180.0
278.763641 144.0
279.042053 328.0
279.936493 120.0
280.040161 140.0
280.156769 144.0
281.016663 108.0
297.627228 212.0
306.080322 1492.0
307.082855 380.0
307.224792 172.0
308.07782 924.0
309.07428 160.0
390.030487 148.0
421.079712 140.0
663.067932 156.0
757.523987 140.0
979.031311 156.0
1074.900635 184.0
1181.57373 140.0
1238.360352 180.0
1258.204224 176.0
1282.892212 176.0
1353.843994 172.0
1355.067139 140.0
1361.345947 144.0
1398.21521 132.0
1410.169434 172.0
1411.215942 216.0
1429.706299 192.0
1452.986694 148.0
1455.95459 184.0
1468.085083 224.0
1476.738037 164.0
1483.997559 260.0
1519.553467 176.0
1519.770752 184.0
1575.635376 148.0
1578.868286 160.0
1620.636353 156.0
1626.073242 148.0
1633.602173 208.0
1652.666138 204.0
1655.385864 212.0
1666.977905 140.0
1677.688965 224.0
1680.233398 200.0
1685.45874 144.0
1701.224731 156.0
1707.732544 176.0
1728.538574 144.0
1733.22522 144.0
1740.109497 148.0
1741.172363 216.0
1763.032715 164.0
1764.963745 148.0
1768.142456 172.0
1774.625122 176.0
1776.169189 184.0
1800.771973 164.0
1801.287109 212.0
1812.36145 188.0
1819.884766 144.0
1830.206909 168.0
1835.643311 252.0
1839.021729 224.0
1839.815552 184.0
1842.275024 156.0
1848.542114 144.0
1858.644897 264.0
1865.103027 196.0
1868.15564 168.0
1877.388916 156.0
1880.218506 240.0
1882.368042 184.0
1887.258667 228.0
1901.022827 148.0
1904.27832 184.0
1905.338135 140.0
1918.897461 144.0
1930.099731 172.0
1934.246582 168.0
1934.495972 176.0
1941.290649 152.0
1949.700684 176.0
1954.405151 156.0
1957.186646 156.0
1957.723755 152.0
1962.102905 140.0
1963.857666 140.0
1966.751709 156.0
1973.598267 152.0
1973.845825 196.0
1975.119385 148.0
