>compound NCGC00160319-01!(2-Oxo-2H-chromen-7-yloxy)-phenyl-acetic acid
>formula C17H12O5
>ionization [M+H]+
>parentmass 297.076
#inchi InChI=1S/C17H12O5/c18-15-9-7-11-6-8-13(10-14(11)22-15)21-16(17(19)20)12-4-2-1-3-5-12/h1-10,16H,(H,19,20)
#inchikey RSJIHDBGVSYSFI
#Ion_Source LC-ESI
#Instrument qTOF
#Compound_Source Prestwick Phytochem Lib
#PI Dorrestein
#Data_Collector VVP/LMS
#Scan -1
#Precursor_MZ 297.076
#ExactMass 296.068
#Charge 1
#CAS_Number N/A
#Pubmed_ID N/A
#Smiles OC(=O)C(OC1=CC=C2C=CC(=O)OC2=C1)C3=CC=CC=C3
#INCHI_AUX N/A
#Library_Class 1
#SpectrumID CCMSLIB00000078719
#IonMode Positive
#UpdateWorkflowName UPDATE-SINGLE-ANNOTATED-GOLD
#LibraryQualityString Gold
#TaskID 67c915c6594c435cadc1fe2b5358144d
##Scan# 1930
#SpectrumFile p1-G02_GG2_01_17946.mzXML
#LibraryName phytochem_lib.mgf
#MQScore -1
#Organism phytochem_lib
#TIC_Query 0
#RT_Query -1
#MZErrorPPM -1
#SharedPeaks 0
#MassDiff 0
#LibMZ -1
#SpecMZ 297.076
#SpecCharge 0
#internalFilename spec-00000.mgf

>collision 10
95.408188 180.0
96.629059 148.0
97.197266 188.0
98.009354 160.0
98.03891 156.0
98.423569 192.0
99.963776 188.0
100.170837 132.0
100.453903 92.0
101.199348 56.0
101.32753 176.0
102.192863 168.0
103.282234 184.0
103.502831 124.0
103.930511 104.0
104.74575 208.0
104.829285 216.0
105.033165 136.0
105.296455 120.0
105.576447 144.0
105.910049 84.0
106.00634 100.0
106.038116 156.0
106.895119 192.0
107.004593 224.0
107.048813 5932.0
107.07666 60.0
107.0952 112.0
107.128159 60.0
107.336319 40.0
108.052696 900.0
108.525253 156.0
108.566727 40.0
108.788734 96.0
109.626945 212.0
109.693634 160.0
111.002441 192.0
111.075844 172.0
111.166061 176.0
111.231125 124.0
111.699715 100.0
111.895424 136.0
115.071472 148.0
117.153915 176.0
118.0345 160.0
118.662415 192.0
119.000877 164.0
119.022591 116.0
119.048225 2236.0
119.159424 40.0
119.439857 188.0
119.714081 40.0
119.938492 124.0
120.05352 384.0
120.206741 88.0
120.855713 112.0
122.143501 292.0
123.208244 108.0
123.685898 144.0
124.075775 156.0
124.470711 124.0
126.213211 164.0
126.624969 184.0
126.660805 124.0
129.42868 176.0
129.90007 220.0
130.245102 96.0
130.715714 68.0
133.389343 160.0
134.033752 164.0
134.458069 136.0
135.043793 1236.0
135.112 148.0
135.132812 72.0
136.047028 348.0
136.685089 56.0
138.208786 148.0
138.461594 128.0
140.320297 144.0
141.350128 192.0
142.224625 164.0
143.382919 116.0
146.456924 140.0
147.828232 188.0
147.891144 216.0
149.653595 164.0
150.145828 120.0
150.612 128.0
150.63887 176.0
150.985947 148.0
152.059021 136.0
152.076202 224.0
152.42247 180.0
152.542908 156.0
153.10881 172.0
153.12851 108.0
154.476212 48.0
154.533112 192.0
155.20433 100.0
156.202713 156.0
159.325043 84.0
159.991486 212.0
160.01918 180.0
160.921783 200.0
161.116257 148.0
162.465607 72.0
162.556946 116.0
162.65593 48.0
162.747314 156.0
162.815872 168.0
162.922562 132.0
162.996567 92.0
163.038071 14536.0
163.100433 32.0
163.120224 56.0
163.175507 92.0
163.212296 76.0
163.237732 72.0
163.249451 72.0
163.339462 96.0
163.386948 96.0
163.499756 48.0
163.548111 28.0
163.626801 108.0
163.797653 48.0
163.931091 64.0
163.996399 40.0
164.042709 1756.0
164.090714 68.0
164.13916 100.0
164.361069 68.0
164.570374 48.0
164.920349 68.0
165.009827 96.0
165.039352 176.0
165.066086 224.0
165.094208 84.0
165.173492 108.0
165.293747 64.0
165.371902 132.0
165.45755 92.0
165.531799 72.0
166.783783 40.0
167.080383 340.0
167.272507 132.0
175.82486 104.0
177.083328 180.0
181.055237 224.0
181.646667 52.0
183.08461 160.0
184.814926 108.0
185.121078 200.0
189.002533 160.0
195.078094 80.0
203.805466 128.0
204.217682 116.0
207.109055 132.0
211.06041 140.0
218.883682 168.0
223.075302 184.0
230.926361 132.0
233.057495 108.0
244.908508 184.0
251.063843 364.0
252.067902 184.0
295.839935 136.0
301.07663 124.0
346.622101 104.0
398.423431 76.0
587.9151 96.0
655.444946 84.0
798.416931 20.0
889.778625 192.0
954.449585 164.0
964.776733 88.0
973.624878 156.0
973.823608 28.0
1022.235168 20.0
1028.155396 116.0
1032.154297 148.0
1043.966187 184.0
1065.496948 112.0
1083.175781 136.0
1084.165161 128.0
1091.951416 36.0
1103.696167 116.0
1118.703613 144.0
1130.805176 216.0
1137.474365 36.0
1146.648804 188.0
1173.315674 176.0
1177.778564 188.0
1196.671631 152.0
1198.654785 244.0
1217.11731 228.0
1222.608887 84.0
1226.592896 108.0
1229.738525 236.0
1263.440063 108.0
1269.070557 148.0
1270.198242 40.0
1275.395874 172.0
1282.135986 136.0
1285.737427 100.0
1295.318359 208.0
1299.626953 164.0
1302.929565 116.0
1310.390259 168.0
1317.315918 48.0
1328.014282 116.0
1330.808228 84.0
1331.534424 232.0
1333.219849 132.0
1335.655518 160.0
1343.27478 152.0
1344.464111 204.0
1345.763428 112.0
1347.479736 124.0
1354.678467 140.0
1368.102539 116.0
1369.722656 152.0
1369.83313 160.0
1370.776123 192.0
1388.644653 192.0
1389.749878 136.0
1391.197144 128.0
1394.272217 140.0
1396.867065 188.0
1410.206543 60.0
1410.505615 180.0
1414.979126 188.0
1416.274658 116.0
1435.800903 120.0
1444.320557 176.0
1451.318115 112.0
1453.540527 164.0
1456.083618 176.0
1459.465332 100.0
1461.496094 212.0
1469.656494 160.0
1481.414917 164.0
1485.424072 32.0
1492.059082 164.0
1497.330078 116.0
1497.638062 204.0
1501.568848 148.0
