>compound MLS000069797-01!1,10-PHENANTHROLINE66-71-7
>formula C12H8N2
>ionization [M+H]+
>parentmass 181.075378
#inchi InChI=1S/C12H8N2/c1-3-9-5-6-10-4-2-8-14-12(10)11(9)13-7-1/h1-8H
#inchikey DGEZNRSVGBDHLK
#Ion_Source LC-ESI
#Instrument qTof
#Compound_Source NIH Pharmacologically Active Library
#PI Dorrestein
#Data_Collector VP/LMS
#Scan -1
#Precursor_MZ 181.078
#ExactMass 180.069
#Charge 1
#CAS_Number N/A
#Pubmed_ID N/A
#Smiles c1cnc2c(c1)ccc3cccnc32
#INCHI_AUX N/A
#Library_Class 1
#SpectrumID CCMSLIB00000085792
#IonMode Positive
#UpdateWorkflowName UPDATE-SINGLE-ANNOTATED-GOLD
#LibraryQualityString Gold
#TaskID d252d724072548979f1f6f1ced849daf
##Scan# 1151
#SpectrumFile p4-F07_GF7_01_18391.mzXML
#LibraryName Pharm_Active_Library.mgf
#MQScore -1
#Organism Pharm_Active_Library
#TIC_Query 0
#RT_Query -1
#MZErrorPPM -1
#SharedPeaks 0
#MassDiff 0
#LibMZ -1
#SpecMZ 181.078
#SpecCharge 0
#internalFilename spec-00000.mgf

>collision 10
44.96558 128.0
45.028332 204.0
45.10656 236.0
45.183777 224.0
45.199451 152.0
45.293171 148.0
45.346767 144.0
45.382465 108.0
45.51849 188.0
45.806316 176.0
45.897964 200.0
45.989704 228.0
46.070728 176.0
46.092697 184.0
46.130505 172.0
46.166698 140.0
46.188339 220.0
46.22081 164.0
46.246521 132.0
46.34132 132.0
46.364357 148.0
46.403667 140.0
46.425365 152.0
46.6562 108.0
46.724201 156.0
46.74189 172.0
46.957142 128.0
47.043106 188.0
47.074512 236.0
47.114124 148.0
47.196129 140.0
47.23716 136.0
47.256203 264.0
47.482346 68.0
47.556435 112.0
47.796944 188.0
47.807953 168.0
47.888992 204.0
48.054611 232.0
48.169201 232.0
48.279778 164.0
48.380787 148.0
48.47636 152.0
48.506851 136.0
48.559544 252.0
48.688622 204.0
48.717789 136.0
48.873508 136.0
48.967007 164.0
48.987679 168.0
49.043415 156.0
49.058369 176.0
49.097179 164.0
49.256912 164.0
49.315601 48.0
49.365932 148.0
49.461075 156.0
49.545097 116.0
49.560509 204.0
49.588539 220.0
49.648827 208.0
49.690907 156.0
49.808834 148.0
49.834122 48.0
49.86504 176.0
49.880501 148.0
49.911846 176.0
49.931118 172.0
49.959251 124.0
50.049332 208.0
50.062004 120.0
50.126808 124.0
50.136673 44.0
50.218445 192.0
50.242428 144.0
50.253716 220.0
50.331348 164.0
50.393497 180.0
50.421761 124.0
50.438721 168.0
50.560364 188.0
50.626904 188.0
50.641068 164.0
50.684982 116.0
50.781387 196.0
50.815434 116.0
50.863686 104.0
50.879303 200.0
50.931847 164.0
51.048389 44.0
51.330353 200.0
51.453064 184.0
51.594501 172.0
51.76907 156.0
51.78196 164.0
52.05014 196.0
52.101849 116.0
52.146397 156.0
52.278713 192.0
52.326214 180.0
52.522209 164.0
52.624672 148.0
52.674126 216.0
52.728683 156.0
52.762352 156.0
52.77718 212.0
52.800251 240.0
52.873314 124.0
52.893578 184.0
53.006546 156.0
53.029736 176.0
53.067184 168.0
53.118187 124.0
53.15591 200.0
53.213974 64.0
53.331646 100.0
53.471275 88.0
53.577576 144.0
53.648949 156.0
53.717632 172.0
53.749783 188.0
53.831375 156.0
53.860584 128.0
53.923416 176.0
53.992134 76.0
54.012611 208.0
54.058315 168.0
54.154594 176.0
54.223457 144.0
54.483189 80.0
54.516983 188.0
54.527271 192.0
54.658157 232.0
54.668457 132.0
54.774467 128.0
54.812775 92.0
54.834881 112.0
54.874683 176.0
55.01189 144.0
55.138924 188.0
55.156658 168.0
55.218761 180.0
55.232075 156.0
55.295696 144.0
55.311981 128.0
55.338627 204.0
55.351955 172.0
55.423058 140.0
55.451214 268.0
55.495686 164.0
55.598045 152.0
55.639606 128.0
55.679699 140.0
55.693066 72.0
55.765873 228.0
55.780739 216.0
55.962246 28.0
56.076954 120.0
56.132114 144.0
56.157467 128.0
56.181335 192.0
56.31419 140.0
56.357029 160.0
56.39637 156.0
56.5205 148.0
56.551929 124.0
56.598339 100.0
56.65226 208.0
56.728687 192.0
56.79995 200.0
56.868191 168.0
56.941765 168.0
57.016884 112.0
57.042439 144.0
57.26062 136.0
57.36459 188.0
57.424904 120.0
57.482235 208.0
57.515755 196.0
57.534599 156.0
57.581875 64.0
57.60302 240.0
57.796543 172.0
58.12191 176.0
58.161793 176.0
58.175453 140.0
58.187599 152.0
58.257462 236.0
58.268097 52.0
58.312164 188.0
58.439907 128.0
58.511444 148.0
58.630257 236.0
58.683609 172.0
58.70496 188.0
58.860615 168.0
58.880466 212.0
58.941574 40.0
58.963879 168.0
58.979782 84.0
59.120495 40.0
59.249119 112.0
59.29509 204.0
59.311951 104.0
59.531353 124.0
59.569824 168.0
59.606625 96.0
59.681946 40.0
59.717319 128.0
59.749096 152.0
59.789631 184.0
59.857368 180.0
59.88047 240.0
59.906654 100.0
59.939121 168.0
60.056179 64.0
60.158028 156.0
60.182728 188.0
60.195084 144.0
60.21207 248.0
60.257431 176.0
60.320232 132.0
60.380367 148.0
60.409924 124.0
60.42849 156.0
60.499683 76.0
60.518261 92.0
60.546654 156.0
60.667 144.0
60.898212 108.0
60.924618 160.0
60.997658 160.0
61.069519 400.0
61.11586 84.0
61.156322 212.0
61.167217 64.0
61.22327 104.0
61.380665 68.0
61.425896 160.0
61.452419 144.0
61.505478 204.0
61.517967 216.0
61.591362 168.0
61.633545 192.0
61.674179 188.0
61.764362 160.0
61.809238 56.0
61.847805 120.0
61.902603 224.0
62.001301 144.0
62.016972 196.0
62.070278 120.0
62.137726 204.0
62.178524 128.0
62.268017 136.0
62.483376 200.0
62.506977 140.0
62.535305 132.0
62.642384 156.0
62.667591 152.0
62.740089 164.0
62.837875 192.0
62.984695 220.0
63.033672 148.0
63.049477 124.0
63.096897 152.0
63.192287 192.0
63.207619 360.0
63.269348 128.0
63.313683 28.0
63.365959 136.0
63.394482 184.0
63.483257 36.0
63.497532 128.0
63.583637 160.0
63.645119 124.0
63.656235 128.0
63.756317 116.0
63.804005 148.0
63.96946 128.0
63.990154 168.0
64.095284 136.0
64.125565 56.0
64.287178 228.0
64.388817 132.0
64.50386 148.0
64.547035 220.0
64.593414 160.0
64.671822 164.0
64.716644 108.0
64.785515 200.0
64.803139 100.0
64.894501 236.0
64.916405 188.0
64.934593 136.0
65.054939 160.0
65.087051 140.0
65.217186 156.0
65.247726 160.0
65.363533 184.0
65.392502 40.0
65.455292 252.0
65.505219 220.0
65.558388 180.0
65.656731 48.0
65.795105 80.0
65.874641 148.0
65.978065 132.0
66.077805 180.0
66.130127 176.0
66.413681 236.0
66.51429 180.0
66.52565 184.0
66.601974 136.0
66.619843 176.0
66.647461 128.0
66.668587 156.0
66.681587 172.0
66.735237 244.0
66.74987 164.0
66.762878 204.0
66.779015 196.0
66.814934 144.0
66.855614 176.0
66.909332 168.0
66.940269 176.0
67.101578 164.0
67.168442 136.0
67.189651 152.0
67.202431 144.0
67.250031 132.0
67.277786 64.0
67.29248 132.0
67.36924 132.0
67.395378 124.0
67.441139 88.0
67.530304 156.0
67.545792 144.0
67.66526 184.0
67.783195 200.0
67.834969 136.0
67.866791 148.0
67.89959 212.0
67.934036 204.0
67.95536 72.0
68.134323 184.0
68.168831 60.0
68.249374 188.0
68.404594 188.0
68.42543 236.0
68.590172 164.0
68.618202 148.0
68.748512 200.0
68.774986 200.0
68.834358 184.0
68.855721 288.0
68.872345 108.0
68.959915 168.0
68.991325 224.0
69.023361 192.0
69.058998 156.0
69.130264 160.0
69.171646 64.0
69.234566 116.0
69.430122 92.0
69.523033 136.0
69.54129 120.0
69.655861 92.0
69.886955 196.0
69.951569 160.0
70.006805 140.0
70.068443 216.0
70.151772 164.0
70.223473 112.0
70.266846 64.0
70.382011 148.0
70.445564 160.0
70.470543 128.0
70.519005 180.0
70.556702 284.0
70.624344 116.0
70.676208 168.0
70.694611 132.0
70.806786 156.0
70.964302 180.0
71.006226 156.0
71.034744 52.0
71.105217 164.0
71.132072 176.0
71.160614 140.0
71.247948 156.0
71.270432 252.0
71.510277 184.0
71.554047 156.0
71.701614 212.0
71.830429 156.0
71.916489 124.0
71.940125 40.0
71.98909 224.0
72.031311 216.0
72.125938 224.0
72.144539 180.0
72.252777 96.0
72.344162 104.0
72.420364 172.0
72.467796 132.0
72.62207 192.0
72.669571 212.0
72.748466 152.0
72.803673 212.0
72.825752 44.0
72.863129 160.0
72.875015 144.0
73.080757 136.0
73.230301 152.0
73.390762 176.0
73.581856 184.0
73.604057 200.0
73.638214 164.0
73.663834 200.0
73.675797 160.0
73.711678 164.0
73.787476 208.0
73.870682 160.0
74.015564 172.0
74.088097 264.0
74.10009 72.0
74.117226 84.0
74.340157 176.0
74.360748 152.0
74.436287 168.0
74.474075 72.0
74.487816 160.0
74.510849 184.0
74.527328 136.0
74.547722 152.0
74.566856 72.0
74.596077 52.0
74.621864 104.0
74.640778 240.0
74.692375 128.0
74.749153 92.0
74.830055 164.0
74.860519 104.0
74.919609 36.0
74.979919 60.0
75.106689 140.0
75.164444 168.0
75.266289 192.0
75.302559 168.0
75.363022 324.0
75.545593 160.0
75.570511 160.0
75.624161 108.0
75.750565 128.0
75.96032 192.0
75.974197 136.0
75.995018 156.0
76.069649 72.0
76.158707 152.0
76.187737 104.0
76.229439 44.0
76.293747 112.0
76.365044 80.0
76.455521 216.0
76.500778 148.0
76.553009 92.0
76.631393 156.0
76.70459 164.0
76.917442 232.0
77.044891 236.0
77.069351 84.0
77.08683 148.0
77.134018 160.0
77.191711 216.0
77.214447 100.0
77.297112 192.0
77.492714 200.0
77.529587 132.0
77.568146 80.0
77.590935 164.0
77.647049 160.0
77.764603 116.0
77.896408 200.0
78.052727 116.0
78.161781 108.0
78.174103 204.0
78.230431 200.0
78.242752 168.0
78.356812 168.0
78.374626 156.0
78.405769 212.0
78.455925 280.0
78.471794 160.0
78.526459 156.0
78.540573 140.0
78.597031 168.0
78.662109 160.0
78.694107 176.0
78.775352 76.0
78.876076 188.0
78.957413 188.0
79.015785 188.0
79.18573 172.0
79.226471 72.0
79.311531 112.0
79.350533 160.0
79.373581 152.0
79.440979 68.0
79.533257 148.0
79.567764 228.0
79.608971 124.0
79.655487 120.0
79.705528 232.0
79.851303 192.0
79.965172 168.0
80.051193 152.0
80.166428 164.0
80.204811 156.0
80.241287 176.0
80.277573 172.0
80.343475 176.0
80.367928 180.0
80.521454 88.0
80.637589 156.0
80.653679 80.0
80.684067 164.0
80.735924 160.0
80.748444 224.0
80.816422 164.0
80.943512 160.0
81.006195 64.0
81.033073 180.0
81.084793 176.0
81.131645 184.0
81.154953 204.0
81.375648 132.0
81.44928 96.0
81.691963 144.0
81.749535 84.0
81.771645 196.0
81.927795 144.0
81.992668 72.0
82.266838 236.0
82.407715 84.0
82.461929 152.0
82.480003 216.0
82.581261 160.0
82.601158 212.0
82.7043 144.0
82.753181 176.0
82.793015 152.0
82.811127 164.0
82.890846 168.0
82.977852 112.0
83.005043 244.0
83.073967 104.0
83.204636 132.0
83.452011 160.0
83.468102 228.0
83.523132 200.0
83.575424 64.0
83.602715 172.0
83.801201 196.0
83.888687 100.0
83.950676 176.0
84.003571 116.0
84.056488 152.0
84.105759 156.0
84.166908 120.0
84.588348 128.0
84.679901 220.0
84.711037 212.0
84.777 188.0
84.86132 196.0
84.932846 84.0
85.154945 144.0
85.208168 228.0
85.394852 160.0
85.430672 132.0
85.493233 172.0
85.642365 128.0
85.669998 248.0
85.763977 80.0
85.817436 204.0
86.037773 144.0
86.094238 220.0
86.149651 156.0
86.162582 120.0
86.1866 144.0
86.325241 120.0
86.434387 124.0
86.454742 224.0
86.543594 164.0
86.594353 128.0
86.616631 184.0
86.708473 216.0
86.74369 136.0
86.75666 124.0
86.860512 188.0
86.955193 172.0
86.975563 216.0
87.159424 136.0
87.183586 116.0
87.207748 116.0
87.292336 148.0
87.363861 168.0
87.397438 176.0
87.571793 104.0
87.600372 180.0
87.63018 72.0
87.706589 224.0
87.816605 44.0
87.83712 96.0
88.171349 184.0
88.277374 224.0
88.532425 128.0
88.573631 76.0
88.725426 216.0
88.933655 144.0
89.066971 92.0
89.123329 148.0
89.31321 108.0
89.380333 148.0
89.405403 208.0
89.44088 104.0
89.537193 56.0
89.640327 220.0
89.725632 220.0
89.810493 136.0
89.872261 172.0
89.980331 180.0
90.070984 148.0
90.116325 148.0
90.180901 164.0
90.350769 160.0
90.485146 96.0
90.504074 128.0
90.601997 252.0
90.742706 212.0
90.873688 180.0
90.966682 156.0
91.021744 168.0
91.07872 128.0
91.150917 156.0
91.173721 216.0
91.213638 164.0
91.23645 48.0
91.278282 128.0
91.327728 128.0
91.382896 148.0
91.424759 140.0
91.464348 200.0
91.506615 140.0
91.569458 72.0
91.59993 216.0
91.678047 108.0
91.792435 184.0
91.805779 84.0
91.851692 164.0
91.958412 68.0
92.059601 180.0
92.116898 176.0
92.176125 124.0
92.239044 152.0
92.29464 64.0
92.432365 116.0
92.482132 64.0
92.721542 336.0
92.739204 168.0
92.836578 216.0
92.888359 128.0
92.960541 220.0
93.012627 180.0
93.057251 108.0
93.082207 120.0
93.170151 184.0
93.180733 204.0
93.339706 120.0
93.374321 36.0
93.405098 152.0
93.457047 184.0
93.572533 56.0
93.715057 236.0
93.731682 180.0
93.76516 216.0
93.824921 132.0
93.903984 164.0
93.943901 224.0
93.992722 180.0
94.152054 188.0
94.334587 84.0
94.379051 148.0
94.431267 180.0
94.469406 140.0
94.587997 192.0
94.611923 180.0
94.70031 144.0
94.795242 160.0
94.847572 196.0
94.905731 196.0
94.932884 176.0
95.167679 128.0
95.200691 144.0
95.247307 180.0
95.268677 156.0
95.317245 152.0
95.763374 216.0
95.904999 148.0
95.996635 96.0
96.117584 180.0
96.238602 224.0
96.317329 176.0
96.35775 68.0
96.377289 192.0
96.519981 124.0
96.891869 44.0
96.905586 208.0
97.011421 252.0
97.044746 116.0
97.091812 120.0
97.168312 188.0
97.187935 172.0
97.201668 196.0
97.21933 164.0
97.268402 144.0
97.396034 140.0
97.478554 84.0
97.531624 228.0
97.548332 216.0
97.629929 48.0
97.683037 156.0
97.708611 40.0
97.736153 116.0
97.897575 164.0
97.92955 188.0
98.015572 340.0
98.175446 256.0
98.234619 220.0
98.335258 32.0
98.364861 204.0
98.449768 276.0
98.633514 128.0
98.712601 128.0
98.740288 196.0
98.765999 220.0
98.817436 192.0
98.843163 204.0
99.021385 160.0
99.035713 184.0
99.051048 148.0
99.106522 180.0
99.12323 176.0
99.401978 192.0
99.423805 72.0
99.481369 176.0
99.58065 72.0
99.598534 200.0
99.697876 76.0
99.841721 124.0
99.926552 184.0
99.976295 212.0
100.028801 220.0
100.193344 72.0
100.269066 120.0
100.304939 48.0
100.496399 180.0
100.542297 32.0
100.562256 104.0
100.576225 132.0
100.596191 112.0
100.75396 124.0
100.819901 148.0
100.991844 136.0
101.038116 1200.0
101.067863 164.0
101.099884 160.0
101.149925 168.0
101.215988 116.0
101.270065 132.0
101.310127 176.0
101.334167 196.0
101.566719 44.0
101.598816 112.0
101.843727 104.0
101.930115 164.0
102.042053 340.0
102.199562 156.0
102.294159 188.0
102.412964 56.0
102.503624 176.0
102.535866 132.0
102.57618 48.0
102.596344 180.0
102.777863 44.0
102.880798 148.0
103.020149 304.0
103.053574 2760.0
103.090866 60.0
103.111076 188.0
103.212158 164.0
103.230354 60.0
103.295074 176.0
103.546066 172.0
103.604813 244.0
103.791283 124.0
103.829811 76.0
103.951538 180.0
104.056206 588.0
104.14238 248.0
104.29274 132.0
104.309006 104.0
104.34153 124.0
104.433037 160.0
104.549011 148.0
104.689484 108.0
104.76281 188.0
105.021294 184.0
105.058418 316.0
105.268646 48.0
105.287025 160.0
105.55851 180.0
105.792084 164.0
105.806412 156.0
105.833031 160.0
105.863747 180.0
105.910858 64.0
105.980507 108.0
106.06044 120.0
106.21833 124.0
106.251152 208.0
106.366074 168.0
106.380447 172.0
106.461212 144.0
106.66188 168.0
106.78936 212.0
106.849022 156.0
106.871651 120.0
106.94368 152.0
107.00338 120.0
107.095764 172.0
107.182579 128.0
107.405243 156.0
107.419678 172.0
107.500145 92.0
107.619873 136.0
107.642586 212.0
107.721069 48.0
107.743797 204.0
107.774788 84.0
107.832657 112.0
107.940155 116.0
108.046082 228.0
108.364487 172.0
108.48262 108.0
108.619492 116.0
108.746063 108.0
108.862328 84.0
108.922562 228.0
108.945457 164.0
109.065933 224.0
109.161575 200.0
109.176132 132.0
109.285049 144.0
109.338409 60.0
109.365463 116.0
109.536217 124.0
109.625809 44.0
109.671661 152.0
109.798843 176.0
109.892715 164.0
109.924019 184.0
110.03479 116.0
110.103554 144.0
110.208008 132.0
110.425415 44.0
110.466034 208.0
110.653519 236.0
110.825264 80.0
111.212738 232.0
111.305618 124.0
111.368622 164.0
111.408531 52.0
111.423241 192.0
111.471565 172.0
111.599792 136.0
111.698639 100.0
111.740715 200.0
111.784904 172.0
112.037575 184.0
112.088142 132.0
112.119591 156.0
112.125549 144.0
112.235695 184.0
112.271545 136.0
112.341148 120.0
112.480431 160.0
112.51815 180.0
112.57122 248.0
112.659653 184.0
112.71698 176.0
112.784607 120.0
113.124947 144.0
113.199287 176.0
113.273415 204.0
113.307312 248.0
113.341217 140.0
113.421753 176.0
113.555336 252.0
113.786636 76.0
113.937431 176.0
113.992676 188.0
114.031967 192.0
114.307404 144.0
114.384026 196.0
114.400757 172.0
114.543732 156.0
114.609779 268.0
114.66732 160.0
114.727005 188.0
114.786705 112.0
114.801636 152.0
114.985107 196.0
115.044334 568.0
115.113205 124.0
115.326851 44.0
115.348228 108.0
115.371742 196.0
115.39312 96.0
115.463692 52.0
115.589905 76.0
115.612938 236.0
115.675522 168.0
115.821136 48.0
115.848984 152.0
115.895111 128.0
116.04187 340.0
116.056877 180.0
116.075317 180.0
116.161964 112.0
116.367996 192.0
116.400208 132.0
116.477524 160.0
116.676826 200.0
116.696732 176.0
116.756943 228.0
116.862312 196.0
116.871262 172.0
116.877884 220.0
116.924759 164.0
116.993637 132.0
117.063278 216.0
117.118538 172.0
117.170242 128.0
117.226265 184.0
117.357758 52.0
117.375008 176.0
117.410782 136.0
117.57563 136.0
117.603691 188.0
117.66198 260.0
117.700844 164.0
117.901749 200.0
118.054001 168.0
118.154747 184.0
118.215332 240.0
118.241302 80.0
118.503326 164.0
118.548828 156.0
118.600845 88.0
118.63987 204.0
118.717316 156.0
118.806862 116.0
118.824219 184.0
118.900162 92.0
119.044617 268.0
119.089058 156.0
119.121643 168.0
119.139023 184.0
119.195511 212.0
119.217247 156.0
119.321579 124.0
119.388992 76.0
119.443367 168.0
119.508629 200.0
119.523865 136.0
119.547798 268.0
119.638466 208.0
119.658813 132.0
119.737206 200.0
119.763344 184.0
119.828697 148.0
119.935486 156.0
120.051041 288.0
120.118652 212.0
120.183945 164.0
120.288864 196.0
120.46138 180.0
120.752098 128.0
120.802406 168.0
120.843979 64.0
120.927132 208.0
120.988426 152.0
121.069443 64.0
121.11544 196.0
121.3302 236.0
121.371857 60.0
121.448616 188.0
121.49688 132.0
121.527596 192.0
121.56929 212.0
121.654892 84.0
121.8965 152.0
121.938255 136.0
122.011772 228.0
122.045975 144.0
122.167198 172.0
122.378227 188.0
122.40905 140.0
122.646996 168.0
122.671242 96.0
122.827812 100.0
122.975647 92.0
123.006554 56.0
123.088242 212.0
123.147873 180.0
123.217484 196.0
123.289276 184.0
123.342323 172.0
123.651985 124.0
123.705109 100.0
123.740532 140.0
123.803078 196.0
123.829109 172.0
123.87648 160.0
123.893349 128.0
123.977547 156.0
124.021805 188.0
124.044044 244.0
124.066216 104.0
124.081734 72.0
124.166222 196.0
124.234756 156.0
124.29023 44.0
124.33239 56.0
124.49057 240.0
124.516663 184.0
124.54332 136.0
124.592194 176.0
124.656631 164.0
124.801994 212.0
124.920486 244.0
125.001312 128.0
125.036224 1108.0
125.125961 144.0
125.148224 132.0
125.220093 140.0
125.299683 180.0
125.454185 172.0
125.489136 44.0
125.542015 212.0
125.561584 184.0
125.641365 156.0
125.696579 212.0
125.855064 152.0
125.874443 192.0
125.919823 192.0
125.980247 176.0
126.018112 176.0
126.044907 5840.0
126.139595 168.0
126.1726 236.0
126.260338 124.0
126.29879 124.0
126.324249 168.0
126.373817 236.0
126.400482 108.0
126.484833 180.0
126.608673 152.0
126.650299 260.0
126.772217 168.0
126.792381 216.0
126.855148 136.0
126.909538 200.0
126.993439 368.0
127.053658 16532.0
127.169189 72.0
127.206345 180.0
127.254494 180.0
127.294807 84.0
127.357796 64.0
127.382507 172.0
127.472374 80.0
127.535309 140.0
127.56678 132.0
127.679207 100.0
127.702454 380.0
127.735435 76.0
127.782677 48.0
127.830292 100.0
127.860031 128.0
127.901955 184.0
127.954857 108.0
128.049469 9484.0
128.09787 180.0
128.141098 64.0
128.181229 72.0
128.236404 52.0
128.270386 180.0
128.325485 168.0
128.384125 196.0
128.433731 68.0
128.456299 88.0
128.496109 68.0
128.517212 136.0
128.559402 212.0
128.593933 48.0
128.650375 180.0
128.681976 164.0
128.711731 224.0
128.763275 192.0
128.824265 180.0
128.842331 112.0
128.873962 140.0
128.927734 156.0
129.011841 188.0
129.050797 1268.0
129.09256 200.0
129.198715 196.0
129.244385 196.0
129.262894 36.0
129.360229 40.0
129.376068 128.0
129.423615 144.0
129.453049 76.0
129.475708 80.0
129.498352 60.0
129.550446 164.0
129.604828 168.0
129.70311 132.0
129.743088 120.0
129.772552 48.0
129.788437 44.0
129.833786 160.0
129.922256 152.0
129.938126 168.0
129.963089 184.0
129.978973 80.0
130.013016 56.0
130.064346 172.0
130.194641 152.0
130.233246 136.0
130.292313 112.0
130.631042 172.0
130.710678 176.0
130.785782 116.0
130.823181 216.0
130.98616 116.0
131.049744 840.0
131.210968 156.0
131.271072 148.0
131.307556 120.0
131.624771 164.0
131.813644 164.0
131.91037 96.0
131.975052 96.0
132.045227 196.0
132.081268 212.0
132.233551 208.0
132.303848 132.0
132.400024 148.0
132.513336 248.0
132.581009 60.0
132.608124 164.0
132.626846 160.0
132.774643 156.0
132.846985 124.0
133.012222 96.0
133.143097 180.0
133.315399 180.0
133.372849 72.0
133.464813 188.0
133.526901 132.0
133.543015 404.0
133.572952 208.0
133.62352 84.0
133.869827 172.0
133.920044 224.0
133.968857 128.0
134.193298 124.0
134.400009 176.0
134.432312 144.0
134.538498 168.0
134.591599 92.0
134.630035 180.0
134.658569 104.0
134.732483 196.0
134.792572 136.0
134.978195 200.0
135.035309 100.0
135.09082 132.0
135.15329 232.0
135.282898 204.0
135.523773 128.0
135.565491 148.0
135.588654 148.0
135.690659 196.0
135.911011 92.0
135.969025 152.0
136.117599 152.0
136.308075 152.0
136.403366 132.0
136.621964 140.0
136.640579 152.0
136.735992 128.0
136.808151 112.0
136.994461 176.0
137.017746 84.0
137.050369 168.0
137.211197 144.0
137.234512 236.0
137.290482 84.0
137.386108 140.0
137.48349 196.0
137.509094 108.0
137.561142 144.0
137.72226 120.0
137.897507 168.0
137.920883 184.0
138.037781 180.0
138.07753 92.0
138.15239 204.0
138.185272 68.0
138.316193 128.0
138.341949 204.0
138.451996 100.0
138.54335 148.0
138.623016 68.0
138.643311 108.0
138.709732 144.0
138.826965 68.0
138.890289 160.0
138.970062 176.0
139.016983 176.0
139.072495 52.0
139.103836 144.0
139.124954 132.0
139.223587 188.0
139.24472 184.0
139.268204 148.0
139.359833 160.0
139.442078 124.0
139.597244 188.0
139.712494 172.0
139.872513 68.0
140.049667 488.0
140.155136 204.0
140.190491 184.0
140.310699 212.0
140.487579 160.0
140.560715 68.0
140.640961 148.0
140.692902 200.0
140.792068 84.0
140.820419 160.0
140.85112 204.0
140.940903 96.0
141.02626 368.0
141.055145 1128.0
141.094528 120.0
141.366547 92.0
141.406784 208.0
141.447021 144.0
141.463593 144.0
141.617508 168.0
141.640564 180.0
141.71701 200.0
141.859207 220.0
141.917465 204.0
141.939819 180.0
142.054977 736.0
142.396545 164.0
142.576035 76.0
142.611694 164.0
142.778122 36.0
142.839966 176.0
142.968445 132.0
143.054291 332.0
143.339951 68.0
143.752502 204.0
143.81456 168.0
143.859909 184.0
143.90033 180.0
143.974518 144.0
144.022293 124.0
144.270813 108.0
144.349716 244.0
144.392761 116.0
144.421463 68.0
144.471695 132.0
144.509979 124.0
144.641602 200.0
144.706741 196.0
144.727676 160.0
144.926605 140.0
144.94577 152.0
145.063568 3140.0
145.300644 232.0
145.342102 144.0
145.37262 184.0
145.559875 148.0
145.605499 228.0
145.790497 172.0
145.828949 56.0
145.901062 180.0
145.978012 120.0
146.056641 452.0
146.365433 28.0
146.432861 180.0
146.560547 264.0
146.656937 240.0
146.673813 140.0
146.85466 216.0
147.069412 220.0
147.098373 180.0
147.12735 36.0
147.175629 120.0
147.236008 124.0
147.368866 152.0
147.393036 160.0
147.41478 56.0
147.434113 196.0
147.557388 144.0
147.642029 136.0
147.765396 344.0
147.922699 192.0
148.055878 96.0
148.113998 276.0
148.193954 184.0
148.273926 200.0
148.317551 196.0
148.402405 212.0
148.557617 36.0
148.841583 196.0
148.924164 28.0
149.00676 172.0
149.317917 116.0
149.407913 140.0
149.427383 184.0
149.501495 224.0
149.558792 68.0
149.600174 180.0
149.719482 136.0
149.865646 124.0
149.933884 132.0
149.968002 176.0
150.038696 164.0
150.363129 168.0
150.421707 172.0
150.536453 168.0
150.776917 208.0
150.851654 144.0
150.971451 80.0
151.038895 484.0
151.098648 184.0
151.196533 160.0
151.300034 132.0
151.338516 152.0
151.370346 116.0
151.536911 76.0
151.664352 120.0
151.72319 120.0
151.766235 244.0
151.858047 220.0
151.919373 96.0
151.995438 48.0
152.047943 3272.0
152.118164 52.0
152.147232 52.0
152.19426 212.0
152.263031 112.0
152.383392 172.0
152.416214 212.0
152.501358 132.0
152.639023 332.0
152.762009 140.0
152.825241 176.0
152.924408 188.0
152.953018 276.0
152.98349 100.0
153.055466 6764.0
153.209381 144.0
153.271652 40.0
153.328339 80.0
153.43486 56.0
153.466385 164.0
153.488571 192.0
153.560104 172.0
153.614944 188.0
153.641495 168.0
153.66864 88.0
153.696838 376.0
153.711288 224.0
153.73526 172.0
153.757477 96.0
153.791382 184.0
153.843872 40.0
153.890778 152.0
153.908066 52.0
153.927826 192.0
153.971848 276.0
153.992523 172.0
154.012848 328.0
154.06459 54936.0
154.126419 80.0
154.144913 56.0
154.162857 92.0
154.24733 100.0
154.276199 56.0
154.297852 164.0
154.302383 108.0
154.31189 184.0
154.35202 128.0
154.38623 88.0
154.414413 76.0
154.449402 152.0
154.470276 244.0
154.550735 36.0
154.596771 60.0
154.617554 132.0
154.65715 272.0
154.678894 188.0
154.706665 88.0
154.737411 124.0
154.772766 160.0
154.803223 96.0
154.821838 132.0
154.847305 136.0
154.861206 68.0
154.919647 136.0
154.94194 124.0
155.0298 256.0
155.062256 13284.0
155.101196 472.0
155.216324 80.0
155.288986 100.0
155.476746 188.0
155.540558 152.0
155.619049 208.0
155.638809 108.0
155.705963 156.0
155.788849 152.0
155.810287 84.0
155.835129 84.0
155.932053 32.0
155.961868 92.0
155.98793 64.0
156.016571 36.0
156.063553 1296.0
156.108566 60.0
156.143387 108.0
156.193649 132.0
156.216202 136.0
156.245468 100.0
156.268509 120.0
156.298386 204.0
156.334274 148.0
156.369797 88.0
156.459412 88.0
156.476837 56.0
156.499237 100.0
156.748337 164.0
156.768265 168.0
156.790695 136.0
156.994461 224.0
157.017578 128.0
157.049088 244.0
157.059906 176.0
157.065475 156.0
157.144806 120.0
157.174744 152.0
157.376923 148.0
157.481812 100.0
157.551758 76.0
157.649216 64.0
157.92923 84.0
157.949249 92.0
157.981766 48.0
158.01178 72.0
158.029297 128.0
158.096863 108.0
158.357239 92.0
158.574738 224.0
158.655441 148.0
158.723145 132.0
158.740692 160.0
158.89296 176.0
159.292862 52.0
159.466248 168.0
159.57518 156.0
159.651367 140.0
159.835098 180.0
159.9366 32.0
160.037308 124.0
160.316925 96.0
160.382446 88.0
160.437912 160.0
160.485809 248.0
160.528687 216.0
160.951782 120.0
161.038803 196.0
161.212814 184.0
161.301285 156.0
161.384705 156.0
161.478271 248.0
161.627533 56.0
161.726242 44.0
162.032654 120.0
162.0504 36.0
162.070663 72.0
162.281036 172.0
162.303864 140.0
162.709244 208.0
162.841873 144.0
163.103592 96.0
163.190353 156.0
163.286667 164.0
163.548737 140.0
163.57164 184.0
163.704041 244.0
164.190811 56.0
164.287735 52.0
164.336212 100.0
164.502106 108.0
164.71048 100.0
164.990051 232.0
165.18869 228.0
165.273956 100.0
165.491531 84.0
165.891205 140.0
165.91153 176.0
165.968124 116.0
166.052948 520.0
166.163055 152.0
166.478836 176.0
166.631195 252.0
166.684296 200.0
166.761383 116.0
166.843643 72.0
166.961929 156.0
167.056793 192.0
167.154877 124.0
167.175461 176.0
167.373672 148.0
167.662201 188.0
167.690552 104.0
167.721481 124.0
167.819458 236.0
168.209015 76.0
168.808441 140.0
168.930008 96.0
168.94812 100.0
169.051315 380.0
169.072952 212.0
169.111145 56.0
169.212097 164.0
169.313095 48.0
169.429657 132.0
169.64476 168.0
169.678467 132.0
170.058228 1132.0
170.09613 60.0
170.197388 148.0
170.32724 192.0
170.402588 172.0
170.527328 136.0
170.60791 164.0
170.735321 284.0
170.753525 132.0
170.909607 196.0
170.927826 116.0
171.057983 444.0
171.093781 328.0
171.426407 96.0
171.485153 128.0
171.706772 68.0
172.021255 144.0
172.072098 112.0
172.382935 188.0
172.409073 180.0
172.754211 100.0
172.814392 36.0
173.720886 104.0
173.75499 204.0
173.838959 176.0
174.159271 40.0
174.191971 168.0
174.238083 192.0
174.318634 152.0
174.50354 276.0
174.548233 196.0
174.80867 176.0
174.850769 256.0
175.614853 196.0
175.860229 112.0
175.952637 252.0
175.976395 124.0
176.002792 108.0
176.116364 176.0
176.187683 140.0
176.290741 40.0
176.399109 172.0
176.417603 204.0
176.45726 124.0
176.547165 188.0
176.678055 124.0
176.752274 188.0
176.893784 204.0
177.042877 280.0
177.15596 124.0
177.216888 120.0
177.322891 64.0
177.378555 120.0
177.40242 136.0
177.468704 156.0
177.594223 72.0
177.702103 104.0
177.935669 184.0
178.016754 240.0
178.054413 224.0
178.065796 160.0
178.374023 152.0
178.403259 176.0
178.585388 136.0
178.791611 144.0
178.890091 172.0
178.935349 152.0
179.01976 176.0
179.05925 14100.0
179.101334 172.0
179.155548 200.0
179.171936 140.0
179.216751 120.0
179.26149 180.0
179.382919 40.0
179.430908 216.0
179.508072 188.0
179.662933 104.0
179.745651 104.0
179.817703 48.0
179.879105 92.0
179.921814 168.0
179.967209 116.0
180.026566 176.0
180.065125 3484.0
180.15416 36.0
180.199585 176.0
180.226303 28.0
180.291794 212.0
180.353729 136.0
180.375961 192.0
180.439102 84.0
180.536942 156.0
180.558029 176.0
180.61264 144.0
180.631973 148.0
180.66478 188.0
180.688858 144.0
180.710373 188.0
180.7332 196.0
180.77832 148.0
180.815735 136.0
180.82518 136.0
180.833893 288.0
180.869125 200.0
180.894928 104.0
180.91835 128.0
180.996918 536.0
181.043976 876.0
181.075378 139248.0
181.141861 96.0
181.163879 288.0
181.18399 64.0
181.210953 124.0
181.233841 140.0
181.270294 184.0
181.298813 76.0
181.310043 156.0
181.340393 420.0
181.369797 108.0
181.404175 156.0
181.454712 92.0
181.481659 56.0
181.516098 664.0
181.544708 100.0
181.567474 60.0
181.602051 72.0
181.634766 68.0
181.659515 96.0
181.681274 160.0
181.731537 100.0
181.753479 56.0
181.78064 60.0
181.814957 100.0
181.854858 72.0
181.909546 108.0
181.958466 136.0
181.98584 136.0
182.011719 148.0
182.077042 19996.0
182.130768 284.0
182.191376 84.0
182.246643 52.0
182.265945 144.0
182.324295 140.0
182.341599 96.0
182.363998 80.0
182.418655 144.0
182.448227 60.0
182.499313 116.0
182.538055 108.0
182.588058 168.0
182.617645 172.0
182.647232 76.0
182.690262 56.0
182.714478 44.0
182.738693 76.0
182.795197 76.0
182.839035 152.0
182.867874 48.0
182.946609 92.0
182.980927 84.0
183.008865 32.0
183.042862 48.0
183.081818 1220.0
183.139923 232.0
183.179825 140.0
183.212708 140.0
183.267136 108.0
183.290176 84.0
183.311264 44.0
183.335434 92.0
183.365646 176.0
183.386536 92.0
183.424789 164.0
183.462982 328.0
183.513458 204.0
183.546768 96.0
183.572205 160.0
183.619766 116.0
183.651947 136.0
183.735565 92.0
183.794083 88.0
183.911911 104.0
184.013565 68.0
184.087784 172.0
184.125198 92.0
184.162094 48.0
184.249756 80.0
184.278107 76.0
184.307983 40.0
184.32959 104.0
184.367676 88.0
184.50528 76.0
184.537735 92.0
184.648605 124.0
184.754105 148.0
184.962479 48.0
185.046036 1248.0
185.122223 48.0
185.477142 56.0
185.58017 48.0
185.618134 56.0
185.697327 136.0
186.032288 124.0
186.052261 156.0
186.103836 132.0
186.182587 48.0
186.563004 40.0
186.864883 92.0
187.240555 68.0
187.971176 180.0
188.848145 76.0
189.672348 104.0
189.787491 124.0
189.806686 44.0
190.358261 116.0
191.05365 36.0
191.16922 56.0
191.430756 44.0
191.932281 52.0
191.998459 92.0
192.067413 44.0
192.183289 100.0
192.301956 56.0
192.464828 52.0
192.702377 92.0
192.793564 124.0
192.904129 64.0
192.948364 40.0
193.291336 88.0
193.695557 88.0
193.97821 40.0
194.0392 72.0
194.191727 88.0
194.541351 52.0
194.760727 76.0
195.216537 60.0
195.711868 40.0
196.749054 84.0
197.064758 484.0
198.021393 148.0
198.041 96.0
198.0634 28.0
199.029572 152.0
201.04657 172.0
202.471451 108.0
202.63858 84.0
206.007111 52.0
212.055405 776.0
212.081879 204.0
212.14856 164.0
212.827469 36.0
213.061417 264.0
213.187683 148.0
220.086533 132.0
223.090836 72.0
227.914825 68.0
231.919678 120.0
234.988159 44.0
235.953293 56.0
247.228958 40.0
253.106369 56.0
258.998352 52.0
260.329376 88.0
260.46106 120.0
262.024536 64.0
269.804199 72.0
271.736572 100.0
274.192993 112.0
277.46225 132.0
277.495392 56.0
281.458313 88.0
283.110291 56.0
283.629608 60.0
283.807312 52.0
286.887054 76.0
290.916229 136.0
294.751373 124.0
296.304779 60.0
303.016449 112.0
310.535919 56.0
313.478577 64.0
313.954498 28.0
319.021454 80.0
323.273132 40.0
328.627319 100.0
331.61441 52.0
341.929016 84.0
344.307037 36.0
346.122803 108.0
348.06958 60.0
349.578827 44.0
358.522034 56.0
358.827362 64.0
359.068695 64.0
370.315491 80.0
371.13559 136.0
376.839966 28.0
378.325134 128.0
384.10376 88.0
385.872894 84.0
388.567505 56.0
389.00708 48.0
395.614288 36.0
398.843353 72.0
400.088501 56.0
400.88913 72.0
407.346954 92.0
407.483551 68.0
414.565308 104.0
417.594025 80.0
421.050262 36.0
422.521851 92.0
434.303894 80.0
436.983429 96.0
441.810608 92.0
458.04303 64.0
485.163116 132.0
487.014954 44.0
495.861603 120.0
496.100952 44.0
499.983154 76.0
519.176575 60.0
523.689758 40.0
548.607178 56.0
552.834351 88.0
572.059631 100.0
589.669006 40.0
591.666809 40.0
594.580078 100.0
604.404663 64.0
604.776611 92.0
607.211731 124.0
625.031494 88.0
645.084045 176.0
657.564575 212.0
664.575562 92.0
665.006653 116.0
672.908691 64.0
716.599365 100.0
719.479431 52.0
720.953735 112.0
734.440979 96.0
736.767639 48.0
737.708557 84.0
744.106323 204.0
753.239258 136.0
758.684387 40.0
763.071106 76.0
763.23053 176.0
769.74939 200.0
771.053162 68.0
775.381226 92.0
812.522461 76.0
821.842285 244.0
822.664124 152.0
831.12915 92.0
832.08197 244.0
841.074158 132.0
848.548584 144.0
849.145874 48.0
851.229309 140.0
857.763184 100.0
868.950928 68.0
869.297119 52.0
874.127625 232.0
889.809326 144.0
894.607117 236.0
899.226807 88.0
901.41864 212.0
901.980408 140.0
911.690247 160.0
912.706238 136.0
932.171143 148.0
935.090332 192.0
935.218201 200.0
936.545593 120.0
941.919556 220.0
949.975647 168.0
955.560242 32.0
955.978638 56.0
957.493164 188.0
958.386414 164.0
966.927063 156.0
968.295349 132.0
979.824646 184.0
979.874512 56.0
980.522583 124.0
984.078369 248.0
987.490417 140.0
988.860657 136.0
989.950012 124.0
991.484924 152.0
993.729858 188.0
996.84436 180.0
1001.752075 192.0
1004.443787 80.0
1014.16272 136.0
1014.783997 84.0
1015.386414 264.0
1017.264648 140.0
1018.382202 172.0
1026.439331 48.0
1027.466309 124.0
1028.621338 180.0
1031.106079 128.0
1032.378296 48.0
1032.806885 36.0
1042.886719 220.0
1043.555298 172.0
1046.849854 184.0
1049.324219 128.0
1053.751831 188.0
1054.236572 140.0
1054.915161 36.0
1063.309937 164.0
1065.758301 204.0
1066.593262 112.0
1070.376709 172.0
1073.387207 52.0
1078.015625 224.0
1079.846191 196.0
1080.003174 56.0
1082.89624 164.0
1083.616821 192.0
1088.352539 208.0
1088.73999 112.0
1089.048706 212.0
1089.646484 168.0
1090.237915 188.0
1091.098999 104.0
1094.171387 88.0
1095.791626 192.0
1096.219971 200.0
1096.859253 100.0
1097.439453 160.0
1098.217651 88.0
1099.359009 40.0
1100.917114 112.0
1103.970215 92.0
1104.181885 180.0
1112.219116 68.0
1114.364136 92.0
1118.480713 180.0
1120.152222 60.0
1121.464844 156.0
1128.481201 152.0
1129.430786 160.0
1129.865723 180.0
1130.856079 120.0
1135.358398 28.0
1135.901733 100.0
1139.258301 152.0
1139.406128 116.0
1140.898071 144.0
1141.913452 144.0
1144.874756 176.0
1145.609009 156.0
1146.801758 112.0
1147.624146 176.0
1149.850342 256.0
1151.15332 164.0
1155.32373 164.0
1155.560547 156.0
1156.907349 144.0
1158.62085 96.0
1163.286621 144.0
1164.413818 148.0
1165.242554 236.0
1167.43811 104.0
1168.213623 112.0
1168.77832 192.0
1168.996094 56.0
1169.690308 176.0
1170.943115 96.0
1172.65332 200.0
1174.303345 116.0
1176.828247 136.0
1179.656738 176.0
1180.593506 180.0
1180.696167 96.0
1181.161255 168.0
1184.186646 184.0
1185.974976 52.0
1187.29834 132.0
1189.109619 152.0
1189.651855 236.0
1192.076416 200.0
1194.606689 132.0
1195.33606 44.0
1196.581909 140.0
1198.510498 124.0
1203.242065 136.0
1203.946411 196.0
1209.754639 168.0
1210.772461 228.0
1212.688477 176.0
1217.353882 140.0
1217.641479 236.0
1218.604248 184.0
1218.715454 116.0
1220.168091 128.0
1221.69812 240.0
1222.164307 124.0
1222.240845 208.0
1222.785767 224.0
1224.34314 188.0
1226.809814 132.0
1228.399902 228.0
1228.95105 60.0
1233.155151 252.0
1233.25293 68.0
1234.707275 120.0
1236.568359 56.0
1237.345337 148.0
1237.527344 204.0
1238.332764 200.0
1240.007324 172.0
1242.959717 136.0
1245.543457 148.0
1247.194702 132.0
1247.813354 188.0
1248.685303 236.0
1249.550659 200.0
1250.95813 88.0
1253.056885 152.0
1254.184448 188.0
1254.452271 196.0
1256.050659 140.0
1257.908936 236.0
1258.565552 176.0
1261.108887 200.0
1261.688477 52.0
1262.897705 60.0
1264.971069 212.0
1266.359009 356.0
1267.138184 176.0
1268.350098 128.0
1270.335571 100.0
1271.456665 152.0
1274.574219 132.0
1274.85144 212.0
1277.432495 228.0
1278.962402 128.0
1279.019287 136.0
1279.154541 32.0
1280.842285 176.0
1283.750244 120.0
1283.928467 108.0
1285.469482 172.0
1287.239868 232.0
1287.546875 96.0
1288.454102 232.0
1290.476807 124.0
1291.478027 148.0
1297.04895 144.0
1298.360352 184.0
1299.114136 176.0
1300.822144 152.0
1303.249634 84.0
1303.314331 180.0
1303.853271 180.0
1304.356445 136.0
1305.204834 144.0
1305.772949 136.0
1307.340088 240.0
1311.489868 244.0
1313.501709 180.0
1313.667603 132.0
1315.897705 192.0
1316.042114 188.0
1317.869629 92.0
1318.44043 164.0
1318.650024 136.0
1318.729492 168.0
1320.341919 128.0
1322.505249 48.0
1323.236328 164.0
1323.373901 140.0
1323.859131 116.0
1326.054321 164.0
1326.656006 140.0
1327.15625 128.0
1329.36145 160.0
1329.738892 160.0
1330.043701 220.0
1330.109009 196.0
1333.41394 140.0
1334.598877 200.0
1335.406128 216.0
1338.841431 164.0
1339.751953 48.0
1339.839355 128.0
1340.006958 168.0
1342.448853 140.0
1344.367554 180.0
1345.250732 168.0
1345.338257 140.0
1345.433228 180.0
1347.492798 140.0
1347.57312 148.0
1347.785034 228.0
1349.173828 148.0
1349.30542 120.0
1349.941528 176.0
1350.497437 140.0
1350.833862 156.0
1350.936279 92.0
1352.692627 76.0
1353.029419 168.0
1354.779785 184.0
1355.607666 156.0
1355.930176 192.0
1357.411011 92.0
1357.667725 272.0
1358.063843 96.0
1358.181152 116.0
1360.492676 232.0
1361.028687 176.0
1363.092896 196.0
1363.158936 148.0
1363.776367 220.0
1363.842529 152.0
1364.371826 200.0
1365.68811 48.0
1366.48999 168.0
1366.740112 88.0
1366.960938 124.0
1367.951294 156.0
1368.057617 184.0
1370.10498 148.0
1370.731323 128.0
1371.129272 160.0
1371.645142 152.0
1371.822144 52.0
1372.25708 180.0
1372.726685 200.0
1372.876465 156.0
1373.311646 156.0
1373.901733 152.0
1373.96814 248.0
1374.167358 120.0
1374.344482 172.0
1375.444092 140.0
1376.440796 192.0
1378.065918 228.0
1380.475708 204.0
1380.808472 44.0
1382.043945 172.0
1382.354736 188.0
1382.932007 48.0
1383.087402 176.0
1383.610229 260.0
1384.180664 204.0
1384.457153 80.0
1384.960815 172.0
1386.716919 136.0
1388.029053 100.0
1388.978394 224.0
1389.660889 136.0
1389.787109 136.0
1390.633057 144.0
1391.768921 116.0
1392.266479 192.0
1392.54126 212.0
1393.090942 52.0
1393.700195 72.0
1393.952881 180.0
1394.138672 136.0
1394.562256 168.0
1395.112427 92.0
1395.818726 72.0
1395.900513 212.0
1396.398804 184.0
1398.779907 176.0
1399.53186 136.0
1402.18396 212.0
1402.53418 248.0
1402.884644 192.0
1404.152222 148.0
1405.05481 140.0
1406.233887 164.0
1407.943604 84.0
1408.234863 164.0
1408.324585 172.0
1409.669312 132.0
1409.773926 256.0
1410.199951 136.0
1410.558838 160.0
1410.708252 196.0
1411.171875 192.0
1412.271118 108.0
1412.749878 196.0
1412.944458 140.0
1413.797485 176.0
1414.343872 152.0
1414.725586 172.0
1415.182373 188.0
1415.803833 176.0
1416.118408 156.0
1418.456299 120.0
1418.602295 200.0
1419.273438 208.0
1419.363525 164.0
1419.820923 108.0
1421.23877 176.0
1421.576416 220.0
1421.824097 168.0
1422.154297 176.0
1422.447144 72.0
1423.280518 212.0
1424.053955 100.0
1424.309326 232.0
1424.760132 120.0
1427.120117 144.0
1427.360718 180.0
1427.533691 40.0
1427.759277 140.0
1428.165527 360.0
1429.068237 112.0
1429.519775 168.0
1431.0177 196.0
1431.664551 132.0
1431.928833 208.0
1434.174194 140.0
1435.229736 148.0
1435.961182 128.0
1436.210083 96.0
1436.300659 120.0
1436.819946 232.0
1436.987183 156.0
1437.168213 160.0
1438.783447 116.0
1439.259155 144.0
1439.3573 44.0
1439.614014 176.0
1440.014282 168.0
1440.943481 156.0
1442.454956 152.0
1442.738159 156.0
1442.885864 160.0
1442.938843 176.0
1443.208374 204.0
1443.430298 164.0
1444.496704 88.0
1444.837158 188.0
1445.086792 132.0
1445.215454 164.0
1445.344116 144.0
1447.020752 160.0
1447.630249 112.0
1447.880127 228.0
1449.831787 152.0
1449.993896 108.0
1450.046997 184.0
1451.869385 196.0
1451.924683 216.0
1452.670654 132.0
1453.952881 128.0
1454.347656 204.0
1454.810669 196.0
1456.435791 52.0
1456.640869 120.0
1457.203003 156.0
1459.004272 192.0
1460.175293 156.0
1460.662109 112.0
1461.643677 172.0
1462.869019 200.0
1462.960327 208.0
1464.696655 164.0
1467.409668 32.0
1469.491943 128.0
1470.010742 36.0
1470.644287 168.0
1470.698486 180.0
1471.109863 64.0
1472.568359 72.0
1473.26355 72.0
1473.317017 208.0
1473.970093 160.0
1474.348511 168.0
1474.677246 192.0
1474.843872 140.0
1475.357544 136.0
1475.609863 136.0
1475.770386 144.0
1476.435669 188.0
1476.626831 184.0
1477.25415 192.0
1477.759033 192.0
1478.394165 220.0
1478.853394 212.0
1478.960571 84.0
1479.01416 204.0
1479.289673 156.0
1481.47229 224.0
1481.702148 256.0
1482.529663 180.0
1482.652344 228.0
1482.744263 52.0
1483.035522 180.0
1484.239136 224.0
1485.358887 232.0
1485.619751 224.0
1485.942017 56.0
1486.17981 204.0
1486.805786 156.0
1486.901245 236.0
1487.062378 132.0
1488.334351 192.0
1488.766846 256.0
1489.99585 224.0
1491.171509 64.0
1492.58606 180.0
1493.385986 208.0
1494.663086 80.0
1495.348022 100.0
1495.571167 172.0
1496.472656 156.0
1496.818359 212.0
1497.457642 132.0
1498.312622 176.0
1500.008179 148.0
1500.233032 164.0
1501.126099 144.0
1501.808594 180.0
1504.220093 148.0
1504.521118 204.0
1504.999756 136.0
