>compound MLS001159065-01!(2S)-3-(1H-indol-3-yl)-2-[[2-(4-methyl-6-oxobenzo[c]chromen-3-yl)oxyacetyl]amino]propanoic acid
>formula C27H22N2O6
>ionization [M+H]+
>parentmass 471.156
#inchi InChI=1S/C27H22N2O6/c1-15-23(11-10-19-18-7-2-3-8-20(18)27(33)35-25(15)19)34-14-24(30)29-22(26(31)32)12-16-13-28-21-9-5-4-6-17(16)21/h2-11,13,22,28H,12,14H2,1H3,(H,29,30)(H,31,32)/t22-/m0/s1
#inchikey KPSVCBXPHRRKCB
#Ion_Source LC-ESI
#Instrument qTof
#Compound_Source NIH Natural Product Library
#PI Dorrestein
#Data_Collector VVP/LMS
#Scan -1
#Precursor_MZ 471.156
#ExactMass 470.148
#Charge 1
#CAS_Number N/A
#Pubmed_ID N/A
#Smiles Cc1c(OCC(=O)N[C@@H](Cc2c[nH]c3ccccc23)C(=O)O)ccc4c5ccccc5c(=O)oc14
#INCHI_AUX N/A
#Library_Class 1
#SpectrumID CCMSLIB00000080030
#IonMode Positive
#UpdateWorkflowName UPDATE-SINGLE-ANNOTATED-GOLD
#LibraryQualityString Gold
#TaskID b1d8e8f6646f4e71acdff9ca3d919d08
##Scan# 2213
#SpectrumFile p2-B03_GB3_01_17991.mzXML
#LibraryName NIH_Natural_Products_Library.mgf
#MQScore -1
#Organism NIH_Natural_Products_Library
#TIC_Query 0
#RT_Query -1
#MZErrorPPM -1
#SharedPeaks 0
#MassDiff 0
#LibMZ -1
#SpecMZ 471.156
#SpecCharge 0
#internalFilename spec-00000.mgf

>collision 10
95.033096 168.0
95.085495 56.0
95.271896 172.0
95.442932 240.0
95.546013 52.0
95.600494 180.0
95.816628 120.0
95.849754 196.0
95.863396 204.0
95.916016 32.0
96.072021 120.0
96.257439 212.0
96.362915 196.0
96.39418 176.0
96.410164 220.0
96.57795 228.0
96.626854 48.0
96.789314 124.0
97.093056 144.0
97.179367 212.0
97.279457 124.0
97.314796 212.0
97.348175 196.0
97.39138 152.0
97.727547 136.0
97.837425 116.0
98.034729 168.0
98.178642 148.0
98.788971 204.0
99.102905 176.0
99.290092 176.0
99.603699 304.0
99.744774 168.0
99.84021 140.0
99.939674 196.0
99.987434 76.0
100.208466 184.0
100.264259 112.0
100.525505 168.0
100.847046 188.0
100.929008 136.0
101.021011 164.0
101.139069 124.0
101.187119 184.0
101.513718 184.0
101.527756 64.0
101.585922 188.0
101.644112 180.0
101.782616 140.0
101.804703 188.0
101.860939 160.0
102.061913 200.0
102.26107 152.0
102.379852 56.0
102.692245 148.0
102.718361 152.0
103.011162 120.0
103.055099 596.0
103.096024 228.0
103.330582 168.0
103.350815 192.0
103.543129 124.0
103.585663 200.0
103.638336 136.0
103.910027 84.0
104.057396 228.0
104.167847 84.0
104.818901 140.0
104.86985 140.0
104.942093 164.0
105.07785 116.0
105.104378 244.0
105.261551 168.0
105.590569 128.0
105.850471 104.0
106.20092 140.0
106.282974 216.0
106.461571 176.0
106.541672 164.0
106.627975 180.0
106.712257 84.0
106.810966 196.0
106.839767 124.0
107.371201 184.0
107.414513 68.0
107.447517 160.0
107.664253 156.0
107.722092 180.0
107.833664 132.0
108.092171 220.0
108.112869 148.0
108.431801 148.0
108.525085 136.0
108.666122 164.0
108.747055 176.0
108.861237 160.0
108.877853 176.0
108.944321 116.0
109.058609 160.0
109.183357 184.0
109.566353 104.0
109.618446 192.0
109.835266 184.0
109.93959 128.0
110.106606 156.0
110.248665 64.0
110.315552 164.0
110.336456 48.0
110.361542 208.0
110.395004 64.0
110.480522 180.0
110.589569 172.0
110.614685 180.0
110.734039 268.0
110.943581 152.0
111.025352 164.0
111.081375 220.0
111.199486 128.0
111.244659 176.0
111.409462 164.0
111.459892 108.0
111.504021 152.0
111.689049 164.0
111.747948 128.0
112.154388 120.0
112.202873 172.0
112.352608 84.0
112.388474 72.0
112.553116 116.0
112.739006 60.0
112.948318 104.0
113.54985 168.0
113.823608 96.0
114.0233 192.0
114.046677 148.0
114.199768 184.0
114.278481 160.0
114.309883 132.0
114.47644 60.0
114.501991 160.0
114.727859 216.0
114.819542 136.0
115.008148 152.0
115.054764 2980.0
115.178116 120.0
115.38327 168.0
115.488052 92.0
115.665649 52.0
115.830528 244.0
115.888374 156.0
116.054794 304.0
116.074852 120.0
116.10273 180.0
116.434738 264.0
116.45256 168.0
116.628746 260.0
116.680344 44.0
116.790016 184.0
117.029228 204.0
117.058411 876.0
117.166725 72.0
117.227058 148.0
117.304649 128.0
117.405991 144.0
117.509529 64.0
117.662758 184.0
117.723221 176.0
117.930626 176.0
117.958725 188.0
118.012772 132.0
118.064697 4448.0
118.205284 140.0
118.920448 52.0
118.955185 140.0
119.068291 260.0
119.126732 168.0
119.207123 172.0
119.332344 408.0
119.694389 60.0
119.74012 152.0
119.818535 124.0
119.86647 120.0
119.984169 116.0
120.016876 188.0
120.226288 120.0
120.254662 144.0
120.446808 80.0
120.593712 132.0
120.633583 168.0
120.910332 188.0
120.986938 164.0
121.122711 196.0
121.157761 156.0
121.190628 160.0
121.287048 132.0
121.464661 236.0
121.646797 164.0
121.697289 152.0
121.763168 116.0
121.91256 316.0
121.93454 200.0
122.108223 136.0
122.139015 160.0
122.376694 148.0
122.398712 156.0
122.914513 184.0
123.287712 196.0
123.526497 184.0
123.588448 208.0
123.637131 32.0
123.778809 92.0
123.91835 48.0
124.086792 176.0
124.404037 92.0
124.721695 204.0
124.879555 144.0
125.033073 148.0
125.146599 180.0
125.306961 168.0
125.364899 164.0
125.39164 100.0
125.483032 116.0
125.607918 176.0
125.656998 112.0
125.755188 168.0
125.808762 140.0
125.962845 188.0
126.333923 152.0
126.380905 212.0
126.512955 156.0
126.622673 224.0
126.783981 208.0
126.987999 180.0
127.057693 116.0
127.123817 188.0
127.652756 72.0
127.80571 120.0
127.832718 236.0
128.04895 580.0
128.082626 200.0
128.373367 160.0
128.677979 180.0
128.994247 156.0
129.022949 208.0
129.069992 988.0
129.456192 140.0
129.627975 32.0
129.850143 164.0
129.931808 156.0
129.972641 144.0
129.990799 108.0
130.008957 180.0
130.024841 104.0
130.066147 25088.0
130.192841 68.0
130.232849 52.0
130.267792 132.0
130.301865 92.0
130.342499 84.0
130.406403 40.0
130.443176 200.0
130.461929 84.0
130.513245 84.0
130.547348 36.0
130.599884 84.0
130.633774 184.0
130.742996 112.0
130.954727 68.0
130.972946 200.0
131.013962 80.0
131.070175 2176.0
131.149826 212.0
131.205383 40.0
131.310287 40.0
131.337646 72.0
131.428909 68.0
131.451721 100.0
131.49855 176.0
131.572693 136.0
131.632065 100.0
131.680023 64.0
131.719437 168.0
131.733856 56.0
131.766327 296.0
131.934753 160.0
131.954224 124.0
131.983658 124.0
132.050278 204.0
132.080246 1404.0
132.109741 92.0
132.157791 112.0
132.249329 80.0
132.356918 48.0
132.41188 84.0
132.764816 164.0
132.81987 116.0
132.870331 180.0
133.001144 204.0
133.085449 176.0
133.338776 108.0
133.398529 144.0
133.541092 160.0
133.803421 76.0
134.328857 68.0
134.531921 212.0
134.54808 184.0
134.88768 60.0
135.12587 92.0
135.48703 180.0
135.700256 180.0
136.239456 216.0
136.3479 196.0
136.53389 196.0
136.550171 92.0
136.603668 172.0
137.356064 120.0
137.419052 128.0
137.491394 148.0
137.640793 132.0
137.769257 112.0
137.794952 64.0
137.974915 204.0
138.019333 104.0
138.33049 280.0
138.356247 156.0
139.078247 116.0
139.228516 160.0
139.275482 124.0
139.324814 76.0
139.428207 176.0
139.562195 136.0
139.969269 68.0
140.051697 204.0
140.360413 152.0
140.785172 164.0
140.863129 192.0
141.060013 632.0
141.085251 188.0
141.132538 252.0
141.168015 96.0
141.28627 200.0
141.499573 192.0
141.570312 140.0
141.636627 144.0
141.994522 152.0
142.020615 244.0
142.065598 3156.0
142.155853 76.0
142.766373 132.0
142.978104 152.0
143.044739 160.0
143.074234 4724.0
143.220947 120.0
143.275742 84.0
143.317841 72.0
143.449707 168.0
143.516464 136.0
143.538818 180.0
143.585617 92.0
143.656601 100.0
143.840912 256.0
143.967453 180.0
144.056885 404.0
144.081268 10024.0
144.115555 36.0
144.297211 88.0
144.419159 60.0
144.472275 20.0
144.494232 116.0
144.636902 88.0
145.034042 196.0
145.052597 224.0
145.084869 1268.0
145.192764 120.0
145.247925 152.0
145.819382 60.0
145.956406 104.0
145.990082 128.0
146.060654 6500.0
146.087341 308.0
146.158463 56.0
146.201782 88.0
146.317322 144.0
146.463455 180.0
146.612564 112.0
146.748581 180.0
146.936707 52.0
146.965652 100.0
147.016327 204.0
147.063431 512.0
147.110458 192.0
147.163574 48.0
147.472321 184.0
147.489716 164.0
148.034073 52.0
148.160019 188.0
148.264206 96.0
148.720169 252.0
149.186569 200.0
149.254639 148.0
150.058136 48.0
150.599884 108.0
150.626755 128.0
151.010498 184.0
151.052444 164.0
151.426575 240.0
151.490265 124.0
151.946243 36.0
152.062393 1512.0
152.3759 204.0
152.694397 204.0
152.818451 108.0
153.010422 96.0
153.070084 596.0
153.328186 120.0
153.557465 164.0
153.651199 156.0
153.685745 132.0
153.759781 32.0
153.935059 124.0
154.011612 80.0
154.06781 2896.0
154.154907 196.0
154.451584 108.0
154.476318 112.0
154.570343 264.0
154.674286 224.0
154.926865 68.0
155.071121 1232.0
155.13504 156.0
155.174698 76.0
155.197021 60.0
155.236694 116.0
155.549301 152.0
155.576614 52.0
155.725601 56.0
155.770309 152.0
155.889572 180.0
156.0811 2972.0
156.165527 96.0
156.218536 64.0
156.506454 48.0
156.571213 80.0
156.633469 76.0
156.680801 164.0
157.004837 52.0
157.080566 2248.0
157.1595 116.0
157.46405 56.0
157.489029 52.0
157.671417 104.0
157.797089 176.0
157.858917 152.0
157.906433 144.0
158.008987 180.0
158.026077 140.0
158.084457 13944.0
158.149124 44.0
158.179169 104.0
158.296448 52.0
158.326263 60.0
158.464661 152.0
158.482193 40.0
158.564896 168.0
158.597473 60.0
158.980042 104.0
159.026382 244.0
159.090546 3928.0
159.127289 100.0
159.248825 80.0
159.365387 160.0
159.38298 112.0
159.475021 160.0
159.817978 56.0
160.006744 212.0
160.076935 872.0
160.140198 96.0
160.160355 76.0
160.214432 124.0
160.341766 72.0
160.545975 220.0
160.679657 84.0
160.714981 44.0
160.992645 68.0
161.080688 368.0
161.245285 140.0
161.326172 136.0
161.652435 116.0
161.842285 112.0
161.943588 56.0
162.937973 228.0
162.95575 192.0
163.894623 64.0
165.064301 284.0
165.096939 188.0
165.613937 156.0
165.965027 360.0
166.059906 60.0
166.080429 156.0
166.288254 68.0
167.057526 116.0
167.083893 356.0
167.33963 160.0
168.050995 136.0
168.07164 372.0
169.05307 144.0
169.078812 376.0
169.483429 112.0
169.66745 136.0
169.737457 132.0
169.820435 144.0
169.93718 164.0
169.994263 196.0
170.025055 176.0
170.060883 9900.0
170.115173 116.0
170.201263 164.0
170.222702 84.0
170.282425 84.0
170.321396 168.0
170.469482 68.0
170.648315 80.0
170.88031 88.0
170.919983 96.0
170.960968 144.0
171.064072 2156.0
171.092697 6316.0
171.235794 164.0
171.316071 84.0
171.388031 48.0
171.47142 156.0
171.575684 48.0
171.846924 56.0
171.998291 72.0
172.097397 1212.0
172.14711 124.0
172.321182 112.0
172.366531 64.0
172.43187 84.0
172.50766 64.0
172.830078 100.0
172.999466 56.0
173.08371 156.0
173.103806 280.0
173.326859 92.0
173.457901 96.0
173.667664 36.0
174.119095 148.0
174.14798 180.0
174.216278 132.0
174.458511 68.0
175.063217 148.0
175.101456 208.0
175.228836 148.0
175.803986 88.0
175.851486 112.0
176.207977 52.0
177.634903 172.0
177.841858 140.0
178.080154 188.0
179.067566 236.0
179.086212 200.0
179.266907 112.0
179.334 68.0
179.46196 148.0
179.710007 104.0
180.089081 160.0
180.195938 88.0
180.661118 176.0
180.802933 64.0
180.88591 120.0
180.934097 244.0
181.025131 448.0
181.066132 9176.0
181.14415 64.0
181.210236 76.0
181.235413 40.0
181.260681 288.0
181.311783 68.0
181.400223 52.0
181.418991 128.0
181.491379 72.0
181.550369 164.0
181.732788 112.0
181.851822 144.0
181.997986 164.0
182.07518 764.0
182.12204 132.0
182.425674 76.0
182.482132 172.0
182.509018 112.0
182.58432 216.0
182.753784 176.0
183.07164 2620.0
183.092407 2632.0
183.189926 68.0
183.249207 52.0
183.310379 152.0
183.402802 64.0
183.529846 132.0
183.58075 204.0
183.820831 208.0
184.07489 1496.0
184.0952 1292.0
184.1772 52.0
184.463638 60.0
184.596115 116.0
184.823334 152.0
184.945114 80.0
185.072281 2568.0
185.102051 128.0
185.305283 140.0
185.419098 108.0
185.55191 128.0
185.608856 48.0
185.676651 84.0
185.969666 28.0
186.075806 612.0
186.42865 140.0
187.063675 344.0
187.119553 104.0
187.394623 84.0
187.549957 44.0
187.596298 84.0
187.986328 60.0
188.071274 6800.0
188.229279 144.0
188.669159 36.0
188.732056 280.0
188.841431 60.0
189.025711 268.0
189.074478 1528.0
189.306686 56.0
189.514862 84.0
190.082458 112.0
190.181259 92.0
190.222427 68.0
190.807571 184.0
191.200928 180.0
191.950241 100.0
192.067017 136.0
192.330963 28.0
193.494766 160.0
194.07106 140.0
195.064133 176.0
195.081223 412.0
195.273499 124.0
195.418152 164.0
195.93042 96.0
196.315079 212.0
196.86203 84.0
197.069778 388.0
197.468475 188.0
198.080765 144.0
198.625275 136.0
199.026596 152.0
199.051865 124.0
199.086578 2272.0
199.147354 60.0
199.62793 164.0
200.094437 2340.0
200.376648 160.0
200.432999 80.0
200.88974 44.0
201.09903 896.0
201.265106 44.0
201.93486 92.0
202.529236 48.0
202.665222 52.0
202.843765 172.0
203.144348 72.0
204.847122 148.0
207.083679 148.0
207.235504 168.0
207.461914 144.0
208.098816 88.0
208.670563 180.0
208.985657 212.0
209.059708 1452.0
209.113571 68.0
210.060669 268.0
211.076172 1168.0
211.662689 200.0
212.084854 236.0
212.497452 76.0
213.142029 164.0
214.60321 68.0
217.097565 352.0
221.057602 164.0
221.112961 152.0
221.24913 128.0
221.589706 60.0
221.886093 176.0
222.089447 180.0
223.077454 476.0
223.805435 56.0
224.031784 120.0
224.052643 140.0
224.088394 160.0
224.422211 92.0
224.639923 76.0
224.902512 108.0
225.05455 192.0
225.077011 132.0
226.064346 628.0
226.104004 108.0
226.271637 152.0
226.295578 68.0
226.403381 72.0
226.589096 132.0
227.071045 1228.0
227.182693 32.0
227.269699 52.0
228.074814 304.0
228.670074 40.0
229.076553 144.0
232.080658 140.0
233.091431 132.0
233.717819 128.0
233.824326 44.0
235.078384 160.0
235.385178 32.0
236.081909 120.0
236.265427 72.0
237.066437 328.0
237.303665 72.0
237.926468 188.0
238.080246 144.0
238.897583 96.0
239.011414 152.0
239.071732 5520.0
239.137589 64.0
239.365402 44.0
239.593323 48.0
239.630295 44.0
239.821365 120.0
239.846024 60.0
239.990906 72.0
240.074173 1216.0
240.11734 72.0
240.249985 40.0
240.274658 40.0
240.441284 36.0
240.929153 184.0
241.074326 152.0
241.581451 44.0
241.643326 80.0
241.807327 144.0
242.054977 172.0
242.330658 60.0
242.938309 56.0
244.239853 148.0
245.675903 28.0
247.103638 148.0
249.069199 160.0
250.050186 176.0
250.821869 56.0
250.998413 168.0
251.072601 356.0
253.080688 140.0
254.072708 176.0
254.771133 96.0
257.232758 48.0
257.520111 44.0
260.088013 208.0
262.800934 56.0
263.076477 296.0
264.075256 276.0
265.044891 120.0
265.080536 116.0
265.936737 112.0
266.083221 576.0
267.081238 316.0
268.066681 148.0
268.174469 148.0
271.453522 52.0
273.029816 52.0
273.684662 76.0
274.083221 32.0
275.06604 120.0
276.071503 292.0
278.074768 160.0
278.107971 136.0
280.113007 220.0
280.476227 108.0
281.079865 196.0
281.11322 152.0
284.089569 276.0
285.098328 168.0
287.404968 80.0
290.083527 116.0
291.062622 128.0
292.151642 156.0
294.07666 132.0
294.390961 52.0
295.081177 124.0
295.382111 36.0
296.094055 228.0
296.128296 204.0
298.857422 80.0
300.663086 128.0
302.024384 76.0
306.137115 212.0
306.635284 108.0
306.69455 60.0
309.920135 40.0
310.070831 88.0
310.112885 160.0
317.119812 108.0
319.111298 132.0
327.769806 44.0
332.089905 100.0
334.306061 112.0
335.092468 172.0
336.091583 124.0
336.843658 144.0
338.08313 184.0
340.13559 128.0
345.971069 140.0
346.119171 172.0
347.416382 92.0
348.095581 188.0
350.114868 168.0
351.128571 128.0
351.468018 132.0
352.091431 164.0
352.137939 156.0
352.838745 144.0
354.103516 296.0
356.948151 96.0
363.331299 64.0
363.61969 48.0
365.096649 168.0
365.196442 40.0
366.117645 100.0
366.559357 52.0
366.68512 56.0
367.11441 216.0
368.133209 332.0
368.375427 64.0
369.13736 252.0
370.150055 116.0
370.789795 92.0
372.927582 192.0
375.08551 176.0
375.09671 112.0
377.782288 92.0
378.60672 88.0
379.633698 56.0
384.317078 56.0
390.113403 152.0
391.120575 104.0
394.133453 128.0
401.860168 136.0
405.8479 48.0
407.136597 272.0
408.118164 264.0
408.138977 140.0
409.126312 124.0
413.5383 120.0
419.114044 204.0
420.112915 144.0
420.700562 60.0
421.762634 96.0
424.054718 176.0
424.788666 56.0
424.903534 44.0
425.151276 1316.0
425.285156 176.0
425.983215 92.0
426.151794 748.0
426.389984 92.0
426.624268 72.0
426.813385 32.0
427.125946 84.0
427.16333 224.0
428.154907 100.0
428.381439 132.0
429.469666 168.0
435.14212 148.0
439.008667 44.0
443.582703 80.0
471.170349 120.0
473.302643 92.0
474.338074 152.0
490.908936 80.0
496.565247 20.0
514.911194 100.0
596.055786 68.0
615.324951 128.0
638.405945 40.0
730.894897 132.0
731.260803 180.0
735.173401 140.0
748.007812 136.0
754.209778 80.0
771.890503 20.0
790.374695 36.0
793.118835 48.0
799.904236 28.0
817.005676 56.0
830.022095 160.0
849.052185 132.0
857.744446 208.0
865.432556 172.0
872.225952 156.0
896.253845 80.0
911.440063 96.0
913.375916 216.0
913.971497 232.0
915.735352 220.0
925.857361 152.0
958.904053 168.0
972.827454 68.0
977.121704 180.0
980.932922 108.0
983.203247 80.0
991.050964 160.0
996.40271 144.0
1002.32959 92.0
1012.911804 108.0
1016.474792 180.0
1021.118652 208.0
1021.182251 144.0
1031.939941 68.0
1032.221313 168.0
1036.21521 132.0
1042.998291 148.0
1064.609741 144.0
1065.642456 168.0
1073.877197 140.0
1074.503418 188.0
1085.891724 196.0
1095.363159 184.0
1101.140991 156.0
1102.812622 200.0
1106.186035 176.0
1111.726807 32.0
1112.569824 208.0
1117.301514 120.0
1117.481079 160.0
1117.787231 200.0
1121.829956 48.0
1126.982056 48.0
1131.744263 204.0
1133.325073 236.0
1135.208618 72.0
1138.322144 72.0
1143.335693 160.0
1147.452637 128.0
1148.255127 164.0
1148.956665 128.0
1149.300659 116.0
1151.562134 192.0
1152.453857 208.0
1156.375977 140.0
1161.40332 132.0
1162.794189 208.0
1167.95105 220.0
1174.237549 120.0
1175.110718 188.0
1176.898926 52.0
1186.134521 156.0
1191.816895 104.0
1193.095215 112.0
1194.628784 176.0
1195.007202 144.0
1195.330566 124.0
1201.959351 72.0
1205.142334 136.0
1208.108276 128.0
1210.198364 112.0
1210.246826 192.0
1210.752319 204.0
1212.408081 208.0
1224.273438 128.0
1224.691284 140.0
1233.504028 152.0
1237.113525 140.0
1238.85022 128.0
1242.327271 92.0
1247.643311 216.0
1253.506226 140.0
1255.085083 156.0
1255.748047 200.0
1258.27417 160.0
1260.089233 164.0
1262.379395 204.0
1262.506714 104.0
1263.086548 216.0
1263.942627 128.0
1267.497192 80.0
1269.191284 160.0
1271.390259 252.0
1275.090332 168.0
1277.699829 180.0
1278.304688 200.0
1278.503906 108.0
1279.009155 168.0
1279.742432 172.0
1279.884888 184.0
1281.18103 148.0
1283.240723 120.0
1283.946655 108.0
1288.00769 128.0
1289.022217 128.0
1290.623291 256.0
1290.966553 228.0
1292.175415 188.0
1295.189087 104.0
1295.518677 112.0
1296.077393 148.0
1296.127563 176.0
1296.442871 112.0
1304.416748 196.0
1305.214722 192.0
1306.279175 132.0
1308.877319 168.0
1311.340942 212.0
1314.564575 180.0
1319.114746 212.0
1319.772583 224.0
1324.998047 240.0
1326.389404 112.0
1328.89856 172.0
1329.290405 116.0
1329.660522 172.0
1332.177734 192.0
1333.268433 176.0
1333.916748 180.0
1338.704102 192.0
1339.148315 152.0
1341.348755 176.0
1343.5 156.0
1343.726074 232.0
1344.338989 212.0
1345.806152 120.0
1348.026733 124.0
1348.757568 176.0
1350.175903 144.0
1351.785278 136.0
1351.938965 148.0
1352.487915 148.0
1358.76062 52.0
1360.573242 84.0
1362.585571 176.0
1367.747803 188.0
1370.085693 124.0
1370.435791 172.0
1372.020386 232.0
1372.831421 76.0
1373.812378 32.0
1374.299316 52.0
1377.407227 148.0
1380.015991 204.0
1381.384033 156.0
1384.129883 124.0
1385.092529 168.0
1385.94458 152.0
1387.463867 164.0
1387.59729 212.0
1388.450073 180.0
1393.891357 172.0
1395.846313 136.0
1396.649536 76.0
1399.373169 76.0
1399.477417 208.0
1400.088013 116.0
1401.242554 216.0
1401.503296 156.0
1404.888062 148.0
1406.611816 132.0
1406.813354 156.0
1407.0448 180.0
1412.103516 176.0
1413.195679 128.0
1414.101196 212.0
1414.991943 144.0
1417.141357 192.0
1417.980713 220.0
1422.045654 116.0
1422.173218 136.0
1424.057739 128.0
1424.388306 196.0
1424.748901 124.0
1425.229736 176.0
1430.125244 128.0
1433.069702 76.0
1434.546875 188.0
1438.091919 260.0
1438.499512 108.0
1440.144409 208.0
1443.047363 108.0
1443.160767 156.0
1446.648438 132.0
1447.450928 256.0
1448.072021 212.0
1452.005371 160.0
1452.460449 180.0
1453.029419 164.0
1453.666748 132.0
1454.380127 188.0
1454.501587 156.0
1455.647949 140.0
1456.635254 196.0
1457.934448 124.0
1458.838989 112.0
1460.374878 168.0
1462.25415 36.0
1462.345459 208.0
1462.573853 148.0
1462.984863 120.0
1464.652466 152.0
1464.987671 64.0
1465.28479 124.0
1465.993408 204.0
1469.165161 124.0
1472.264038 172.0
1473.982788 100.0
1475.373779 196.0
1475.80957 112.0
1476.175659 164.0
1478.318481 172.0
1479.275146 164.0
1480.002441 176.0
1480.706909 208.0
1481.61084 168.0
1486.778687 160.0
1486.993652 52.0
1487.799561 128.0
1489.980591 164.0
1490.871948 180.0
1491.010254 136.0
1495.047729 240.0
1495.717285 148.0
1498.019653 208.0
1498.45874 188.0
1500.662964 168.0
1503.895142 144.0
