>compound MLS001049043-01!(2-methyl-4-oxo-3-phenylchromen-7-yl) acetate
>formula C18H14O4
>ionization [M+H]+
>parentmass 295.097
#inchi InChI=1S/C18H14O4/c1-11-17(13-6-4-3-5-7-13)18(20)15-9-8-14(22-12(2)19)10-16(15)21-11/h3-10H,1-2H3
#inchikey DPIAJERHFDBLPT
#Ion_Source LC-ESI
#Instrument qTof
#Compound_Source NIH Natural Product Library
#PI Dorrestein
#Data_Collector VVP/LMS
#Scan -1
#Precursor_MZ 295.097
#ExactMass 294.089
#Charge 1
#CAS_Number N/A
#Pubmed_ID N/A
#Smiles CC(=O)Oc1ccc2c(=O)c(c(C)oc2c1)c3ccccc3
#INCHI_AUX N/A
#Library_Class 1
#SpectrumID CCMSLIB00000080447
#IonMode Positive
#UpdateWorkflowName UPDATE-SINGLE-ANNOTATED-GOLD
#LibraryQualityString Gold
#TaskID b1d8e8f6646f4e71acdff9ca3d919d08
##Scan# 2180
#SpectrumFile p2-A09_GA9_01_17985.mzXML
#LibraryName NIH_Natural_Products_Library.mgf
#MQScore -1
#Organism NIH_Natural_Products_Library
#TIC_Query 0
#RT_Query -1
#MZErrorPPM -1
#SharedPeaks 0
#MassDiff 0
#LibMZ -1
#SpecMZ 295.097
#SpecCharge 0
#internalFilename spec-00000.mgf

>collision 10
94.970764 168.0
95.021713 180.0
95.048363 240.0
95.261932 176.0
95.491295 228.0
95.563271 160.0
95.596474 64.0
95.639168 136.0
95.81443 64.0
95.88588 108.0
95.917717 152.0
96.022469 116.0
96.122498 164.0
96.196663 152.0
96.283546 316.0
96.32164 180.0
96.375771 176.0
96.460381 164.0
96.583572 160.0
96.601181 168.0
96.836067 164.0
96.959496 104.0
96.99086 136.0
97.143814 148.0
97.200706 136.0
97.265472 124.0
97.436325 128.0
97.485451 180.0
97.638794 164.0
97.689934 80.0
97.713539 60.0
97.746986 164.0
97.825714 140.0
98.027077 188.0
98.064056 144.0
98.103485 120.0
98.140945 140.0
98.227722 200.0
98.468529 228.0
98.502106 184.0
98.549522 176.0
98.620659 68.0
98.759071 128.0
98.822372 180.0
98.917366 64.0
99.030235 128.0
99.190735 192.0
99.230385 184.0
99.258141 216.0
99.317642 128.0
99.332932 136.0
99.653137 228.0
99.676979 148.0
99.734619 128.0
99.843971 272.0
99.981247 160.0
100.001144 212.0
100.247643 192.0
100.291946 196.0
100.331818 112.0
100.420074 168.0
100.5672 68.0
100.6231 108.0
100.653046 180.0
100.681007 92.0
100.798866 160.0
100.938797 112.0
101.07682 160.0
101.118065 144.0
101.170891 180.0
101.252991 192.0
101.379204 216.0
101.445343 128.0
101.611801 124.0
101.69809 208.0
101.839645 120.0
101.884842 124.0
102.005417 144.0
102.0215 196.0
102.043221 172.0
102.073776 152.0
102.124054 152.0
102.13813 120.0
102.347435 136.0
102.407852 168.0
102.534782 152.0
102.615417 236.0
102.651711 148.0
102.687828 132.0
102.899895 100.0
102.924652 192.0
102.982689 172.0
103.00087 76.0
103.015007 172.0
103.031967 216.0
103.054466 4516.0
103.144341 196.0
103.198921 52.0
103.306114 88.0
103.346573 176.0
103.407051 140.0
103.463966 48.0
103.500404 60.0
103.516609 48.0
103.597626 128.0
103.727318 216.0
103.780029 172.0
103.826668 144.0
103.962593 108.0
104.027542 124.0
104.058434 984.0
104.342438 176.0
104.389198 84.0
104.409538 148.0
104.469299 200.0
104.501076 196.0
104.589455 160.0
104.634811 124.0
104.757599 64.0
104.824837 148.0
104.900246 132.0
104.98996 148.0
105.033508 516.0
105.136848 136.0
105.218498 228.0
105.296089 528.0
105.48407 148.0
105.508606 160.0
105.571991 84.0
105.592438 156.0
105.741798 176.0
105.809349 168.0
105.829819 188.0
105.852348 212.0
105.873047 184.0
106.03347 136.0
106.137177 240.0
106.256134 172.0
106.317696 180.0
106.383377 112.0
106.50042 144.0
106.673027 196.0
106.707977 148.0
107.048752 712.0
107.214355 68.0
107.279671 128.0
107.313301 64.0
107.408165 104.0
107.49688 200.0
107.525772 116.0
107.591827 184.0
107.669487 176.0
107.752922 140.0
107.79631 168.0
107.856247 148.0
107.885185 160.0
107.952682 144.0
108.000984 200.0
108.050636 164.0
108.141685 148.0
108.158249 128.0
108.176826 180.0
108.288689 228.0
108.34462 192.0
108.458595 120.0
108.566406 104.0
108.597519 220.0
108.682953 216.0
108.805031 144.0
108.944168 140.0
108.98365 92.0
109.028954 328.0
109.133301 152.0
109.181129 112.0
109.201927 188.0
109.347565 96.0
109.422508 92.0
109.570381 200.0
109.632889 268.0
109.673462 180.0
109.700737 160.0
109.785072 120.0
109.865982 96.0
110.00415 140.0
110.022636 136.0
110.093933 160.0
110.148239 144.0
110.22554 48.0
110.281967 204.0
110.378136 120.0
110.396957 92.0
110.512009 248.0
110.585625 112.0
110.620834 140.0
110.809975 140.0
110.84494 184.0
110.861702 176.0
110.897331 84.0
110.918289 108.0
111.00425 240.0
111.075562 192.0
111.276405 176.0
111.337921 136.0
111.39991 192.0
111.434547 116.0
111.537521 164.0
111.577469 52.0
111.623726 240.0
111.67128 196.0
111.70575 188.0
111.73941 200.0
111.756241 168.0
111.882523 160.0
111.956215 168.0
112.091339 196.0
112.160591 184.0
112.333504 64.0
112.375694 120.0
112.453773 60.0
112.542442 216.0
112.580452 188.0
112.637474 148.0
112.652267 60.0
112.69767 228.0
112.789619 204.0
112.880531 152.0
112.948204 208.0
113.096321 192.0
113.254738 216.0
113.327156 160.0
113.34301 180.0
113.475525 180.0
113.496727 132.0
113.878723 176.0
113.908455 124.0
113.925453 180.0
114.01841 80.0
114.212425 148.0
114.44014 56.0
114.506149 124.0
114.567924 108.0
114.599884 172.0
114.712837 140.0
114.817314 116.0
114.867256 212.0
114.913116 136.0
114.920395 124.0
114.928871 176.0
114.970917 96.0
115.002937 176.0
115.054329 8100.0
115.167343 52.0
115.297676 212.0
115.362373 152.0
115.385315 88.0
115.445183 52.0
115.485817 44.0
115.686966 80.0
115.719078 88.0
115.751198 140.0
115.819725 172.0
115.884048 160.0
115.937569 72.0
115.999725 72.0
116.060196 1480.0
116.197899 152.0
116.250671 52.0
116.272125 136.0
116.327934 204.0
116.385902 216.0
116.536255 32.0
116.568489 84.0
116.658562 192.0
116.712509 208.0
116.729713 52.0
116.749069 52.0
116.770576 100.0
116.875984 144.0
116.91687 52.0
116.931938 124.0
116.974983 84.0
117.070297 3912.0
117.123566 164.0
117.182175 116.0
117.198967 224.0
117.252838 156.0
117.305122 188.0
117.360626 204.0
117.537498 224.0
117.554764 80.0
117.608719 132.0
117.656212 128.0
117.729622 48.0
118.047295 80.0
118.075325 872.0
118.148956 180.0
118.181412 128.0
118.216362 184.0
118.278793 192.0
118.4347 184.0
118.448677 144.0
118.644897 228.0
118.692596 148.0
118.722954 228.0
118.772842 160.0
118.829247 152.0
118.84877 152.0
118.909538 112.0
118.972488 180.0
119.022423 200.0
119.048889 4752.0
119.08757 272.0
119.126671 48.0
119.185272 112.0
119.415382 204.0
119.465797 144.0
119.533249 132.0
119.644257 56.0
119.676018 88.0
119.781448 100.0
119.80925 168.0
119.903465 80.0
119.977577 144.0
120.026268 252.0
120.050491 572.0
120.184776 132.0
120.202232 168.0
120.409874 172.0
120.466415 56.0
120.55381 128.0
120.610634 144.0
120.859955 80.0
120.884026 96.0
121.028549 512.0
121.06134 144.0
121.162102 128.0
121.194962 176.0
121.225639 176.0
121.379089 104.0
121.414177 148.0
121.502251 156.0
121.541412 168.0
121.576523 176.0
121.694839 160.0
121.890549 136.0
122.007034 84.0
122.090591 120.0
122.188522 100.0
122.344048 128.0
122.372253 148.0
122.584709 140.0
122.614563 180.0
122.967445 84.0
123.046509 632.0
123.128616 104.0
123.157333 120.0
123.216972 192.0
123.303154 176.0
123.329674 80.0
123.398209 144.0
123.528687 128.0
123.665878 160.0
123.727859 48.0
123.745575 116.0
123.800133 156.0
123.918327 132.0
124.040955 312.0
124.15551 44.0
124.173256 180.0
124.312256 116.0
124.790596 172.0
124.872871 128.0
124.91291 324.0
124.93293 132.0
124.957405 196.0
125.046417 132.0
125.084251 180.0
125.187752 188.0
125.396088 184.0
125.507553 220.0
125.55024 140.0
125.576683 168.0
125.857872 208.0
125.884666 176.0
125.920403 148.0
125.94944 232.0
125.994118 188.0
126.038803 176.0
126.06115 152.0
126.398811 200.0
126.41671 144.0
126.586845 76.0
126.613716 180.0
126.857948 236.0
126.992493 168.0
127.055298 172.0
127.178719 92.0
127.371826 184.0
127.419006 144.0
127.55159 124.0
127.699997 204.0
127.77198 68.0
127.836243 164.0
127.906998 144.0
127.931763 148.0
127.956528 152.0
128.062225 384.0
128.120941 152.0
128.17276 148.0
128.314758 172.0
128.353088 80.0
128.619308 88.0
128.653168 208.0
128.671219 140.0
128.691544 176.0
128.70961 100.0
128.748001 60.0
128.770584 100.0
128.803085 148.0
128.82254 168.0
128.908447 112.0
128.97168 128.0
129.038391 172.0
129.069901 944.0
129.166138 184.0
129.29425 224.0
129.340378 72.0
129.439987 148.0
129.904617 120.0
130.077835 192.0
130.117935 208.0
130.14064 128.0
130.299637 120.0
130.315536 224.0
130.375305 172.0
130.474625 148.0
130.561035 188.0
130.63382 128.0
130.945663 68.0
130.963882 128.0
131.016281 108.0
131.050079 816.0
131.089188 148.0
131.191757 184.0
131.2556 124.0
131.378754 164.0
131.458618 148.0
131.49057 192.0
131.554474 108.0
131.75087 272.0
131.800217 228.0
131.826279 144.0
131.874268 104.0
131.937424 176.0
131.961136 196.0
132.056961 472.0
132.228775 56.0
132.315765 116.0
132.379883 172.0
132.400497 100.0
132.43335 184.0
132.453171 148.0
132.592941 176.0
132.627319 164.0
132.668579 148.0
132.725891 140.0
132.799286 96.0
132.816589 272.0
132.847458 204.0
132.946121 188.0
132.99202 148.0
133.017273 156.0
133.063065 304.0
133.102219 40.0
133.302063 92.0
133.421585 132.0
133.439972 148.0
133.709106 228.0
133.805374 156.0
133.863358 172.0
133.957794 152.0
134.001556 136.0
134.066086 184.0
134.292023 120.0
134.476608 96.0
134.51123 148.0
134.52739 72.0
134.589722 140.0
134.622055 144.0
134.642838 100.0
134.677475 132.0
134.742157 168.0
134.769882 136.0
134.931671 268.0
134.95018 164.0
135.068115 168.0
135.084305 100.0
135.119019 72.0
135.322678 136.0
135.385208 144.0
135.433838 72.0
135.663254 40.0
135.723526 120.0
135.746719 180.0
135.773193 112.0
135.817307 204.0
135.934616 148.0
135.960144 168.0
135.978714 204.0
136.02742 208.0
136.085495 176.0
136.108719 184.0
136.159805 76.0
136.250397 44.0
136.440964 164.0
136.457245 188.0
136.476974 164.0
136.502121 92.0
136.526733 176.0
136.628616 156.0
136.685181 132.0
136.731735 128.0
136.780609 188.0
136.796906 72.0
136.929626 48.0
136.982803 188.0
137.023972 31076.0
137.116013 224.0
137.137146 80.0
137.185944 52.0
137.20993 116.0
137.283875 136.0
137.300186 32.0
137.346832 56.0
137.429977 168.0
137.447159 160.0
137.493835 56.0
137.535843 128.0
137.563858 176.0
137.620438 204.0
137.682938 92.0
137.825958 216.0
137.852463 196.0
137.913589 244.0
137.965668 60.0
138.027298 2068.0
138.075562 136.0
138.105972 52.0
138.169128 508.0
138.187851 108.0
138.211243 80.0
138.28006 216.0
138.361038 236.0
138.496857 56.0
138.541367 172.0
138.60228 204.0
138.714783 188.0
138.74057 132.0
138.799179 108.0
138.8367 136.0
138.863815 164.0
138.928177 148.0
138.946945 116.0
138.963379 108.0
139.027115 372.0
139.084167 176.0
139.108887 140.0
139.132355 72.0
139.188705 128.0
139.212189 132.0
139.271851 180.0
139.470627 124.0
139.549072 208.0
139.616394 36.0
139.792831 176.0
139.908173 132.0
140.051819 72.0
140.091858 76.0
140.163422 100.0
140.247391 92.0
140.582291 140.0
140.622406 96.0
140.686142 64.0
140.794754 188.0
140.830185 208.0
140.867981 120.0
141.069092 1312.0
141.24147 164.0
141.298248 140.0
141.435501 124.0
141.463898 76.0
141.534927 188.0
141.579926 204.0
141.624924 160.0
141.861877 164.0
142.037369 144.0
142.077026 236.0
142.108536 168.0
142.443283 160.0
142.521683 204.0
142.650009 200.0
142.671417 156.0
142.737991 60.0
142.819199 192.0
142.897354 40.0
143.04335 216.0
143.06395 284.0
143.109177 108.0
143.297333 144.0
143.314026 172.0
143.411728 96.0
143.452255 64.0
143.476089 64.0
143.53093 168.0
143.547501 156.0
143.614395 156.0
143.693436 180.0
143.741425 180.0
143.805283 204.0
143.950912 128.0
143.986725 140.0
144.056 344.0
144.175461 80.0
144.196976 172.0
144.275848 156.0
144.407379 108.0
144.751999 236.0
145.05867 136.0
145.125793 240.0
145.147385 128.0
145.346466 164.0
145.440063 156.0
145.584122 48.0
145.665787 96.0
145.745071 132.0
145.780762 108.0
146.009491 132.0
146.040771 104.0
146.08165 132.0
146.124954 136.0
146.250092 112.0
146.519806 212.0
146.604141 184.0
146.770462 116.0
146.801819 172.0
146.850052 336.0
146.895874 132.0
146.983429 112.0
147.011688 124.0
147.044449 4492.0
147.120316 40.0
147.137207 212.0
147.178253 56.0
147.19516 128.0
147.286926 104.0
147.366653 236.0
147.40773 72.0
147.48024 104.0
147.50441 160.0
147.596283 172.0
147.671249 120.0
147.80188 184.0
147.838181 116.0
147.889008 156.0
147.92868 196.0
147.96405 80.0
147.990677 60.0
148.047897 676.0
148.075439 148.0
148.120071 112.0
148.186874 140.0
148.303192 148.0
148.506866 64.0
148.742233 192.0
148.822342 160.0
148.904907 180.0
148.994781 144.0
149.026367 152.0
149.118713 148.0
149.240265 108.0
149.322937 184.0
149.371582 168.0
149.410858 124.0
149.434845 164.0
149.49765 176.0
149.537048 124.0
149.600342 88.0
149.641724 196.0
149.753738 128.0
149.870682 264.0
149.921219 156.0
149.970596 184.0
149.990097 144.0
150.107117 144.0
150.133942 96.0
150.348633 120.0
150.395004 188.0
150.473114 124.0
150.541489 28.0
150.631851 168.0
150.661179 184.0
150.766235 136.0
150.84201 164.0
150.915359 192.0
151.02002 168.0
151.039841 208.0
151.089005 144.0
151.353333 32.0
151.424362 144.0
151.448853 136.0
151.684082 168.0
151.74292 120.0
151.794418 100.0
151.897415 136.0
151.96611 172.0
152.000458 160.0
152.061737 712.0
152.184555 208.0
152.218063 204.0
152.286896 160.0
152.346603 208.0
152.45723 164.0
152.676025 132.0
152.769989 196.0
152.794098 164.0
152.862991 56.0
152.91713 236.0
153.069214 1520.0
153.128876 164.0
153.158432 108.0
153.187988 76.0
153.318573 160.0
153.419632 136.0
153.449219 72.0
153.481277 164.0
153.572525 156.0
153.695862 144.0
154.017548 176.0
154.077438 1484.0
154.140335 48.0
154.177414 116.0
154.407333 184.0
154.437012 172.0
154.476593 156.0
154.639893 140.0
154.669601 160.0
154.989075 132.0
155.023773 32.0
155.05809 212.0
155.085739 1336.0
155.127869 228.0
155.272095 48.0
155.306412 132.0
155.370895 144.0
155.40564 128.0
155.428467 100.0
155.584335 244.0
155.691101 132.0
155.76561 180.0
155.869965 108.0
155.909729 184.0
155.954468 152.0
156.011642 252.0
156.091141 172.0
156.15834 252.0
156.337479 128.0
156.566513 116.0
156.840576 296.0
156.88295 120.0
156.990173 108.0
157.071121 128.0
157.111206 144.0
157.142334 188.0
157.203064 200.0
157.327011 176.0
157.386932 176.0
157.469345 52.0
157.51181 160.0
157.539276 132.0
157.721695 124.0
157.756699 100.0
158.322174 172.0
158.432388 204.0
158.495026 180.0
158.637878 212.0
158.728149 204.0
158.760742 180.0
158.961426 244.0
159.184845 204.0
159.3461 140.0
159.439575 212.0
159.559235 128.0
159.594437 168.0
159.742813 156.0
159.868622 152.0
159.949158 96.0
159.981888 160.0
160.055725 328.0
160.095184 172.0
160.148071 152.0
160.218613 160.0
160.415176 144.0
160.6828 172.0
160.836441 172.0
160.922272 116.0
160.947525 116.0
161.06369 116.0
161.088959 120.0
161.149582 144.0
161.199066 144.0
161.245605 48.0
161.422577 152.0
161.559158 128.0
161.607224 156.0
161.673019 60.0
161.746414 188.0
161.799576 128.0
161.928726 128.0
161.976852 124.0
162.012314 68.0
162.164352 124.0
162.46611 212.0
162.50441 200.0
162.592972 168.0
162.709747 64.0
162.8367 116.0
162.9561 108.0
163.09079 152.0
163.168533 176.0
163.289108 48.0
163.642822 136.0
163.683563 172.0
163.721756 32.0
163.874008 192.0
163.999466 124.0
164.027512 260.0
164.06575 168.0
164.11673 104.0
164.145569 156.0
164.21489 180.0
164.244247 72.0
164.366714 192.0
164.494324 120.0
164.5224 124.0
164.606659 112.0
164.732239 176.0
164.788544 136.0
164.836563 168.0
165.07103 1172.0
165.161255 420.0
165.591248 164.0
165.642487 104.0
165.660416 108.0
165.729584 128.0
165.88768 152.0
166.074188 276.0
166.106461 100.0
166.401581 180.0
166.476044 144.0
166.586487 272.0
166.648361 232.0
166.786301 264.0
166.911789 232.0
167.055344 252.0
167.085968 736.0
167.193298 92.0
167.252502 188.0
167.283386 172.0
167.401825 96.0
167.484238 196.0
167.520706 176.0
167.599121 148.0
167.646561 128.0
167.667175 176.0
167.695526 60.0
167.801208 160.0
167.836166 196.0
167.92865 124.0
167.968842 56.0
168.054657 396.0
168.090103 196.0
168.133972 132.0
168.177841 80.0
168.232056 220.0
168.26561 104.0
168.294022 64.0
168.33017 140.0
168.379227 60.0
168.681549 188.0
168.849609 176.0
168.978943 104.0
169.028107 60.0
169.065552 604.0
169.10144 792.0
169.198776 124.0
169.299927 160.0
169.318054 172.0
169.486435 128.0
169.709351 172.0
169.78714 80.0
169.834503 136.0
169.865097 144.0
169.92337 200.0
170.06868 124.0
170.106277 148.0
170.150421 96.0
170.329605 76.0
170.360779 164.0
170.433517 208.0
170.672653 168.0
170.690857 192.0
170.865128 176.0
170.935379 76.0
171.045212 352.0
171.088943 128.0
171.151428 188.0
171.229553 108.0
171.30249 216.0
171.669983 232.0
171.714325 124.0
171.836929 128.0
171.946518 144.0
172.003952 68.0
172.022217 156.0
172.11882 184.0
172.591766 188.0
172.84288 188.0
172.88736 100.0
172.942322 96.0
173.28157 280.0
173.291519 152.0
173.296265 180.0
173.426895 144.0
173.594681 196.0
173.618286 180.0
173.759933 56.0
173.788651 148.0
173.849152 176.0
173.988266 116.0
174.011887 176.0
174.064407 68.0
174.1642 116.0
174.24826 96.0
174.311981 176.0
174.474289 168.0
174.526871 196.0
174.611023 172.0
174.830643 180.0
174.855042 256.0
174.897812 184.0
175.040634 808.0
175.190109 84.0
175.248383 168.0
175.316574 192.0
175.348206 204.0
175.656708 128.0
175.688354 104.0
175.780411 180.0
176.059738 356.0
176.184677 140.0
176.335297 240.0
176.483337 116.0
176.507126 52.0
176.591766 200.0
176.654739 212.0
176.69426 144.0
176.742554 228.0
176.82724 52.0
176.872238 152.0
176.959946 152.0
177.068878 796.0
177.11319 64.0
177.166168 120.0
177.195312 104.0
177.261551 160.0
177.32251 72.0
177.346359 160.0
177.458282 116.0
177.566422 132.0
177.651306 40.0
177.749023 164.0
177.763657 208.0
177.869659 140.0
177.977554 104.0
177.984192 180.0
178.011108 220.0
178.078354 6968.0
178.113205 144.0
178.182266 148.0
178.369949 160.0
178.464005 200.0
178.581009 92.0
178.60495 180.0
178.756592 156.0
178.791199 44.0
178.825684 212.0
178.875626 200.0
179.017471 228.0
179.043915 140.0
179.085068 5780.0
179.230576 64.0
179.29187 136.0
179.318527 132.0
179.398483 92.0
179.441147 168.0
179.462479 80.0
179.49231 64.0
179.582031 96.0
179.591324 188.0
179.662506 128.0
179.727509 220.0
179.74617 56.0
179.902695 136.0
179.956085 72.0
180.025513 172.0
180.092117 624.0
180.159058 48.0
180.247223 264.0
180.303345 128.0
180.412933 124.0
180.683044 132.0
180.717834 180.0
180.754288 32.0
180.765656 96.0
180.942657 264.0
181.006912 228.0
181.065628 2224.0
181.130112 136.0
181.164932 108.0
181.186371 184.0
181.277542 160.0
181.328918 184.0
181.462418 84.0
181.497284 160.0
181.58577 212.0
181.813812 200.0
181.837967 80.0
181.897018 156.0
182.00441 144.0
182.042374 148.0
182.072769 3092.0
182.189743 48.0
182.267654 112.0
182.294525 160.0
182.418167 168.0
182.748962 200.0
182.954514 160.0
183.036972 148.0
183.078964 1276.0
183.111298 140.0
183.193176 224.0
183.222809 200.0
183.535461 152.0
183.567825 264.0
183.588776 192.0
183.64064 120.0
184.060669 224.0
184.110245 120.0
184.153458 188.0
184.318253 108.0
184.337173 52.0
184.372299 208.0
184.402023 220.0
184.439865 92.0
184.461487 60.0
184.491226 164.0
184.642654 76.0
184.928284 172.0
184.978165 68.0
185.005234 208.0
185.062088 172.0
185.096725 232.0
185.175827 152.0
185.360107 192.0
185.412827 144.0
185.473434 172.0
185.541641 236.0
185.567947 308.0
185.607315 156.0
185.777588 144.0
185.810135 164.0
185.850845 88.0
186.001404 184.0
186.076111 48.0
186.139877 116.0
186.25264 208.0
186.372162 52.0
186.486313 148.0
186.633102 156.0
186.774521 80.0
186.896957 136.0
186.958267 224.0
187.049362 208.0
187.101074 28.0
187.174591 156.0
187.338013 120.0
187.438812 232.0
187.493317 128.0
187.547836 160.0
187.572357 88.0
187.621429 164.0
187.652588 168.0
187.678696 180.0
187.842331 160.0
187.946136 160.0
187.976013 144.0
188.683441 168.0
188.738129 188.0
188.806488 52.0
189.070923 396.0
189.123871 92.0
189.304565 116.0
189.403152 56.0
189.781357 128.0
190.079041 488.0
190.299927 60.0
190.319153 120.0
190.437225 200.0
190.46196 48.0
190.505905 56.0
190.582825 192.0
190.604813 148.0
190.788971 156.0
190.882446 244.0
190.915451 132.0
191.08049 184.0
191.278625 128.0
191.308914 220.0
191.454849 176.0
191.644913 76.0
191.705536 184.0
191.975693 148.0
192.061188 156.0
192.091537 52.0
192.119125 216.0
192.185333 168.0
192.218445 180.0
192.38681 172.0
192.516586 164.0
192.646408 216.0
192.687836 96.0
192.732056 172.0
192.767136 212.0
192.925812 192.0
192.950394 200.0
193.062225 152.0
193.08313 164.0
193.163345 76.0
193.204834 140.0
193.321045 236.0
193.431763 144.0
193.611725 100.0
193.667114 228.0
193.872147 232.0
193.922028 172.0
193.966385 168.0
194.072678 724.0
194.210388 100.0
194.271408 176.0
194.418472 120.0
194.496185 148.0
194.62944 156.0
194.721085 156.0
194.748856 104.0
194.862762 160.0
194.912766 136.0
194.948898 204.0
195.080215 408.0
195.199081 244.0
195.295242 188.0
195.352051 128.0
195.513428 112.0
195.549622 88.0
195.605286 204.0
196.042114 148.0
196.052902 124.0
196.088593 300.0
196.120605 200.0
196.399429 164.0
196.466385 128.0
196.536133 48.0
196.857147 156.0
197.059662 364.0
197.09697 7132.0
197.156052 32.0
197.256683 220.0
197.301407 60.0
197.320984 100.0
197.3741 56.0
197.430023 116.0
197.536316 116.0
197.561493 100.0
197.662216 204.0
197.75737 144.0
197.830139 176.0
197.911331 80.0
198.042953 136.0
198.065369 228.0
198.100952 988.0
198.163422 132.0
198.197037 152.0
198.28392 116.0
198.309143 104.0
198.440887 132.0
198.460526 236.0
198.53624 252.0
198.597931 52.0
198.822388 180.0
198.878525 108.0
199.06662 328.0
199.104721 276.0
199.170547 196.0
199.361588 84.0
199.431854 100.0
199.592102 104.0
199.822739 180.0
199.887451 116.0
200.036621 316.0
200.10701 100.0
200.166138 68.0
200.684601 124.0
200.746628 52.0
200.808685 132.0
201.060272 184.0
201.23761 48.0
201.483322 232.0
201.633087 180.0
201.652878 148.0
201.71788 156.0
201.828674 108.0
201.898834 120.0
202.340256 124.0
202.377075 144.0
202.510162 92.0
202.532822 116.0
202.582062 188.0
202.63765 176.0
202.657471 180.0
202.691483 64.0
202.994797 48.0
203.082703 164.0
203.164978 64.0
203.286972 224.0
203.377792 148.0
203.593567 132.0
203.644699 120.0
203.886185 100.0
203.994202 120.0
204.068115 192.0
204.207458 128.0
204.463516 128.0
204.520447 116.0
204.61438 108.0
204.927673 144.0
205.071228 252.0
205.15567 124.0
205.207001 124.0
205.675705 252.0
205.846146 80.0
206.07074 348.0
206.183243 260.0
206.214691 152.0
206.279541 180.0
206.457703 120.0
206.617874 44.0
206.660797 32.0
206.718033 168.0
206.775269 132.0
206.889755 284.0
206.935562 144.0
206.971451 188.0
207.004288 76.0
207.024338 96.0
207.08075 2240.0
207.230576 140.0
207.287888 144.0
207.482788 164.0
207.640503 120.0
207.660568 148.0
207.709335 128.0
207.864258 112.0
207.921661 140.0
207.941742 128.0
208.087372 736.0
208.145569 156.0
208.280563 188.0
208.363861 88.0
208.42421 168.0
208.55928 152.0
208.636887 96.0
208.843933 120.0
209.064362 808.0
209.085297 144.0
209.106339 180.0
209.140305 92.0
209.338959 208.0
209.431793 168.0
209.543457 124.0
209.598343 132.0
209.658859 164.0
209.698669 144.0
209.823029 176.0
209.936996 220.0
210.068146 9640.0
210.114319 128.0
210.156128 128.0
210.342285 88.0
210.38559 48.0
210.555954 52.0
210.792847 128.0
210.911331 140.0
211.029861 236.0
211.073517 2180.0
211.553513 184.0
211.579575 160.0
211.730148 140.0
212.045944 456.0
212.072662 328.0
212.098114 152.0
212.158981 44.0
212.411285 96.0
212.451889 140.0
212.48671 92.0
212.509918 128.0
212.573761 144.0
212.623093 64.0
212.66478 132.0
212.771133 52.0
212.973938 100.0
213.023788 124.0
213.060013 288.0
213.093506 144.0
213.151627 188.0
213.189392 180.0
213.291824 200.0
213.375427 192.0
213.395782 148.0
213.439392 184.0
213.523727 192.0
213.66626 184.0
213.741913 88.0
213.922363 132.0
214.062866 124.0
214.17569 68.0
214.222305 172.0
214.612839 136.0
214.665329 52.0
214.731583 72.0
214.752823 108.0
214.781982 112.0
215.550949 196.0
215.89476 164.0
215.918167 156.0
216.108307 76.0
216.19902 200.0
216.231216 168.0
216.406845 44.0
216.887299 116.0
217.068253 172.0
217.110123 64.0
217.364838 164.0
217.749924 124.0
217.79985 148.0
217.870346 72.0
218.017258 140.0
218.074921 308.0
218.143646 60.0
218.258316 96.0
218.293594 248.0
218.358292 80.0
218.469406 164.0
218.528915 232.0
218.793793 156.0
218.90274 244.0
218.970474 108.0
219.085358 144.0
219.223831 160.0
219.922821 124.0
220.052704 196.0
220.120621 48.0
220.194443 48.0
220.247604 176.0
220.297821 176.0
220.359863 104.0
220.611084 112.0
220.788483 172.0
220.99852 180.0
221.064636 104.0
221.173111 180.0
221.210114 204.0
221.282654 180.0
221.335953 208.0
221.362595 136.0
221.460327 60.0
221.484024 80.0
221.658829 188.0
221.786255 140.0
221.910767 140.0
222.079803 120.0
222.165833 112.0
222.317154 180.0
222.45665 76.0
222.691223 252.0
222.759552 220.0
222.955658 196.0
223.075806 296.0
223.163727 192.0
223.657562 140.0
223.708176 212.0
223.815353 84.0
223.907669 204.0
223.958298 124.0
224.082993 288.0
224.235397 180.0
224.51564 180.0
224.557404 168.0
224.706543 172.0
224.805023 176.0
224.975143 156.0
225.053101 464.0
225.09227 2652.0
225.330536 40.0
225.375366 116.0
225.432129 88.0
225.512833 52.0
225.548691 148.0
225.781906 180.0
225.853683 144.0
225.877625 64.0
225.988312 56.0
226.054337 244.0
226.092728 796.0
226.146912 40.0
226.17984 96.0
226.225525 148.0
226.274994 244.0
226.349594 120.0
226.512222 136.0
226.563141 228.0
226.590118 92.0
226.838669 196.0
227.067017 172.0
227.105606 412.0
227.357742 240.0
227.513824 136.0
227.54985 176.0
227.568985 136.0
227.847183 200.0
227.91629 200.0
228.015457 184.0
228.090515 160.0
228.665085 124.0
228.743347 36.0
228.848724 120.0
228.999283 160.0
229.026398 116.0
229.493515 152.0
229.589996 128.0
229.632233 152.0
229.764954 160.0
229.85849 56.0
229.887604 228.0
229.991272 184.0
230.290878 144.0
230.429153 200.0
230.459366 140.0
230.509567 288.0
230.740463 104.0
230.855362 244.0
231.112473 192.0
231.381851 48.0
231.466629 132.0
232.281906 164.0
232.346298 176.0
232.391113 172.0
232.46698 148.0
232.661224 156.0
232.828232 96.0
232.882904 132.0
233.201935 164.0
233.411697 132.0
233.78891 108.0
234.07254 668.0
234.440613 172.0
234.550339 132.0
234.687531 172.0
234.812561 168.0
234.853424 240.0
235.073044 740.0
235.129852 168.0
235.239731 116.0
235.337433 168.0
235.447357 68.0
235.532883 120.0
235.728409 60.0
235.752869 144.0
235.792587 120.0
235.826218 196.0
235.988235 80.0
236.075256 428.0
236.107498 132.0
236.162552 64.0
236.358337 68.0
236.401184 164.0
236.581772 232.0
236.627686 136.0
236.701172 120.0
236.72261 140.0
236.989105 200.0
237.055756 692.0
237.142334 164.0
237.320129 240.0
237.556274 172.0
237.823242 172.0
237.98288 180.0
238.065994 716.0
238.097107 200.0
238.256226 124.0
238.45903 140.0
238.575836 256.0
238.834137 156.0
238.898743 180.0
239.065948 468.0
239.135681 152.0
239.212631 132.0
239.260376 360.0
239.295746 224.0
239.407425 164.0
239.63324 168.0
239.887253 60.0
240.044495 168.0
240.133942 132.0
240.20488 88.0
240.427032 176.0
240.596802 40.0
240.707947 72.0
240.772797 112.0
240.856201 164.0
241.11882 112.0
241.173706 132.0
241.270279 180.0
241.367767 136.0
241.71257 112.0
241.907562 92.0
242.027298 184.0
242.056183 96.0
242.341141 180.0
242.468201 212.0
242.489716 136.0
242.542587 148.0
242.657288 132.0
242.713089 64.0
242.775116 152.0
242.855759 80.0
242.923996 176.0
243.131882 96.0
243.193954 188.0
243.231201 172.0
243.256042 216.0
243.2995 104.0
243.355377 164.0
243.433014 140.0
243.75296 84.0
243.849304 72.0
243.874176 52.0
243.954987 188.0
243.979858 36.0
244.259735 168.0
244.403046 128.0
244.443298 188.0
244.732788 56.0
244.969482 136.0
245.533646 100.0
245.583557 132.0
245.792572 196.0
245.87059 56.0
245.901794 184.0
246.139694 176.0
246.263977 168.0
246.357681 188.0
246.521194 144.0
246.585785 228.0
246.857773 92.0
246.926575 204.0
246.954727 124.0
247.117401 104.0
247.245697 132.0
247.314545 176.0
247.342728 184.0
247.430374 108.0
247.458557 112.0
247.978561 116.0
248.138428 104.0
248.160385 136.0
248.373627 120.0
248.467743 88.0
248.659149 120.0
248.731354 176.0
248.759598 116.0
248.904022 168.0
249.023361 176.0
249.30925 156.0
249.460129 144.0
249.6362 68.0
249.900421 64.0
249.975571 104.0
250.023148 112.0
250.10498 140.0
250.161636 40.0
250.415588 172.0
250.476532 188.0
250.526932 244.0
250.675018 96.0
250.747131 132.0
250.797943 88.0
250.898804 112.0
250.984909 208.0
251.06987 1408.0
251.125854 184.0
251.173157 108.0
251.231613 176.0
251.287689 92.0
251.356415 248.0
251.419266 88.0
251.463455 40.0
251.488693 120.0
251.514496 140.0
251.579239 88.0
251.681274 76.0
251.734955 80.0
251.788635 144.0
251.810745 172.0
251.85553 112.0
251.899185 392.0
251.945038 140.0
252.025558 100.0
252.057892 544.0
252.071457 328.0
252.077026 388.0
252.136261 148.0
252.18161 168.0
252.218338 88.0
252.273315 92.0
252.349457 232.0
252.397446 104.0
252.452057 308.0
252.499741 160.0
252.529266 144.0
252.59259 124.0
252.626266 96.0
252.659241 180.0
252.685669 204.0
252.732529 244.0
252.764282 180.0
252.798431 48.0
252.820816 316.0
252.84967 132.0
252.885147 188.0
252.919769 196.0
252.947647 236.0
253.01329 488.0
253.088089 287936.0
253.175735 488.0
253.201248 200.0
253.264389 168.0
253.300201 80.0
253.332397 184.0
253.369919 232.0
253.381271 132.0
253.410156 440.0
253.463211 108.0
253.512939 96.0
253.559372 348.0
253.608902 1720.0
253.658722 268.0
253.681732 164.0
253.737289 116.0
253.782242 280.0
253.828583 220.0
253.867203 152.0
253.881607 272.0
253.887665 252.0
253.902344 64.0
253.964325 92.0
253.992447 204.0
254.03244 248.0
254.052261 348.0
254.0905 39604.0
254.164749 356.0
254.198273 432.0
254.224716 288.0
254.273407 120.0
254.306107 236.0
254.348083 140.0
254.372681 144.0
254.411484 120.0
254.461441 184.0
254.508255 72.0
254.542343 76.0
254.57579 252.0
254.609833 112.0
254.657944 96.0
254.679474 88.0
254.702011 120.0
254.738754 112.0
254.770355 24.0
254.815216 44.0
254.860046 160.0
254.918869 84.0
254.969467 60.0
255.011398 84.0
255.092758 4152.0
255.15065 152.0
255.181961 52.0
255.242706 84.0
255.266388 100.0
255.31897 60.0
255.347855 140.0
255.377701 100.0
255.435272 124.0
255.475662 132.0
255.507034 216.0
255.578171 212.0
255.618484 236.0
255.639465 136.0
255.681717 88.0
255.702805 172.0
255.738724 148.0
255.773102 168.0
255.785492 136.0
255.80632 292.0
255.83902 128.0
255.863297 112.0
255.874222 168.0
255.903717 140.0
255.966782 128.0
255.996689 148.0
256.007446 196.0
256.014557 152.0
256.088074 524.0
256.196228 140.0
256.234589 132.0
256.309204 76.0
256.366119 108.0
256.414368 40.0
256.446259 100.0
256.500153 92.0
256.555603 116.0
256.586517 60.0
256.664154 68.0
256.763947 68.0
256.774628 64.0
256.811066 160.0
256.823975 68.0
256.830292 124.0
256.860748 88.0
256.895844 72.0
256.943695 64.0
257.079651 204.0
257.144348 68.0
257.167084 116.0
257.230927 48.0
257.345856 60.0
257.423462 80.0
257.467194 60.0
257.700592 64.0
257.762329 72.0
257.799438 76.0
257.834595 60.0
257.876129 36.0
257.917694 120.0
257.977295 52.0
258.029572 44.0
258.05835 28.0
258.240631 48.0
258.305664 80.0
258.368591 88.0
258.413361 48.0
258.647003 60.0
258.694885 128.0
258.759033 36.0
258.800659 96.0
258.919128 96.0
258.960785 64.0
259.024841 72.0
259.136078 72.0
259.178619 40.0
259.460663 72.0
260.083008 60.0
260.179291 44.0
260.253143 52.0
260.442627 132.0
260.526154 36.0
260.664307 20.0
261.329895 44.0
261.793427 84.0
261.942505 132.0
262.231567 100.0
262.626495 100.0
262.682983 48.0
262.963715 48.0
263.096069 80.0
263.496521 108.0
263.532074 76.0
263.648712 40.0
263.877899 48.0
263.900543 60.0
263.955505 88.0
264.049286 40.0
264.0784 52.0
264.476379 116.0
264.962494 104.0
265.308899 68.0
265.646149 48.0
265.834351 120.0
265.934937 44.0
266.180664 64.0
266.431763 112.0
266.535339 100.0
266.724243 44.0
267.029877 36.0
267.228302 56.0
267.338959 140.0
267.501678 108.0
267.524475 48.0
268.074921 92.0
268.104248 120.0
268.273743 92.0
268.29657 80.0
268.426971 96.0
268.684662 32.0
269.024048 52.0
269.608734 144.0
270.220184 56.0
270.85202 84.0
271.028931 128.0
271.097748 72.0
271.615753 48.0
271.773254 124.0
271.858551 84.0
272.091614 44.0
272.219666 76.0
272.439728 80.0
273.036163 96.0
274.279236 104.0
274.816772 44.0
275.652191 48.0
275.698456 116.0
275.919922 92.0
276.151398 52.0
277.84079 56.0
278.268921 56.0
278.49472 144.0
278.836945 72.0
279.013123 64.0
281.22168 112.0
283.110626 108.0
283.34845 92.0
284.690155 92.0
287.997498 160.0
290.68222 76.0
292.823975 40.0
293.19873 36.0
295.110352 132.0
296.113007 128.0
296.942413 88.0
302.552246 104.0
303.199982 68.0
304.070496 72.0
307.48822 128.0
308.127258 112.0
309.235748 92.0
312.668213 76.0
313.221008 72.0
314.483337 112.0
315.988708 60.0
324.024445 112.0
328.529144 44.0
329.825531 32.0
332.912384 92.0
334.104584 152.0
336.079315 76.0
336.893463 64.0
339.077942 88.0
344.43515 32.0
344.468414 52.0
345.929077 72.0
356.180237 80.0
356.792786 108.0
358.837128 88.0
358.867279 68.0
359.674591 52.0
360.68692 76.0
361.583344 144.0
362.208069 88.0
367.477173 28.0
368.286469 20.0
372.972626 64.0
375.236206 44.0
376.362854 72.0
376.895874 112.0
377.286255 44.0
377.997925 48.0
381.255371 60.0
382.394897 140.0
389.055695 96.0
391.808624 64.0
391.978058 88.0
392.443176 64.0
395.587952 120.0
397.803925 68.0
397.970673 76.0
401.919159 72.0
402.146637 32.0
403.956726 48.0
404.120758 88.0
405.542389 72.0
408.900085 112.0
410.914917 120.0
411.516296 60.0
419.07666 104.0
421.050995 68.0
426.685272 92.0
428.953583 104.0
429.753662 76.0
430.806458 56.0
434.768951 100.0
435.391693 52.0
435.906799 76.0
441.179321 88.0
445.936951 124.0
447.232422 60.0
450.238525 84.0
452.992035 76.0
460.315979 116.0
460.619202 104.0
463.12149 84.0
463.772766 108.0
465.875397 92.0
468.542694 108.0
468.620239 48.0
468.706421 88.0
473.10318 52.0
476.638 120.0
485.420746 44.0
485.67514 92.0
489.762909 96.0
495.971039 72.0
498.327484 56.0
501.10379 68.0
506.392853 60.0
512.849426 40.0
518.721069 104.0
519.097412 68.0
523.805969 136.0
524.863281 84.0
531.55542 56.0
533.374146 72.0
536.301575 144.0
542.606995 56.0
547.290344 88.0
550.096924 108.0
551.638489 56.0
552.615906 108.0
554.409363 28.0
557.140198 80.0
569.383667 92.0
570.462219 84.0
576.481995 80.0
578.787659 76.0
583.052246 52.0
583.138794 60.0
585.284302 104.0
586.922607 84.0
591.371887 56.0
592.228882 48.0
597.816956 108.0
598.040833 96.0
619.663452 48.0
622.654602 100.0
635.393433 104.0
638.507751 156.0
642.098633 56.0
652.606262 88.0
654.213989 56.0
656.369141 128.0
657.516907 88.0
659.130615 96.0
667.038635 80.0
667.681335 32.0
671.043884 72.0
674.166748 116.0
678.607971 44.0
678.773926 76.0
688.364258 88.0
688.818665 60.0
692.359558 148.0
693.491211 92.0
695.410889 92.0
711.861572 60.0
737.584473 80.0
737.892639 96.0
750.570801 68.0
752.480469 92.0
757.878845 72.0
769.588989 124.0
780.993958 68.0
783.783081 100.0
808.18634 88.0
812.878113 236.0
813.161865 76.0
819.320068 164.0
821.509216 44.0
829.715698 112.0
838.395142 60.0
846.66217 40.0
857.899536 124.0
866.595825 104.0
871.60083 168.0
872.682312 28.0
879.94104 172.0
883.067017 40.0
887.632935 236.0
888.148865 60.0
898.541382 132.0
903.882935 228.0
905.229797 204.0
913.843262 64.0
919.622375 148.0
920.558105 132.0
920.806396 176.0
921.131897 64.0
921.240601 88.0
923.767456 220.0
939.428162 212.0
941.216431 208.0
942.664124 140.0
945.122253 80.0
949.091309 64.0
952.939697 52.0
955.688049 180.0
956.543518 52.0
957.71344 100.0
962.752258 152.0
977.935547 116.0
979.081116 160.0
992.403564 32.0
993.187439 76.0
996.58374 60.0
1000.357178 108.0
1006.497864 52.0
1009.025146 164.0
1013.242188 176.0
1025.24939 120.0
1033.73645 188.0
1033.953979 60.0
1041.776489 136.0
1049.712402 204.0
1050.260498 132.0
1061.306152 232.0
1067.533325 52.0
1079.519165 228.0
1083.053345 156.0
1087.111572 32.0
1087.420044 188.0
1093.74292 64.0
1095.487915 88.0
1096.094116 184.0
1104.491699 192.0
1106.424072 176.0
1108.722534 80.0
1109.060547 68.0
1109.358765 96.0
1112.151367 224.0
1114.196655 84.0
1117.574097 160.0
1121.75647 196.0
1124.351074 196.0
1131.94519 160.0
1132.387207 172.0
1134.913574 156.0
1136.067017 156.0
1140.459229 128.0
1141.386353 204.0
1142.973755 172.0
1146.684326 76.0
1146.771973 148.0
1148.450806 176.0
1148.498047 200.0
1149.078125 44.0
1150.103882 112.0
1150.886963 224.0
1151.737915 176.0
1152.02832 176.0
1153.846313 164.0
1154.197876 236.0
1154.495361 180.0
1155.476196 164.0
1156.741699 112.0
1157.770752 180.0
1158.881714 192.0
1159.403442 84.0
1163.622559 124.0
1164.960449 188.0
1168.808594 108.0
1169.230469 92.0
1171.756714 152.0
1173.221924 148.0
1173.426514 184.0
1175.356689 168.0
1176.646729 172.0
1179.625244 160.0
1180.555054 156.0
1183.990479 48.0
1185.6073 144.0
1185.977295 200.0
1186.517212 236.0
1188.727417 160.0
1190.217041 192.0
1190.29248 184.0
1190.477905 100.0
1193.178223 168.0
1195.916016 60.0
1197.038208 184.0
1198.264282 184.0
1202.505127 172.0
1204.334717 192.0
1206.172729 140.0
1208.392578 180.0
1208.897705 160.0
1209.181396 156.0
1209.229858 232.0
1210.219849 212.0
1212.131592 88.0
1214.939575 184.0
1218.876221 164.0
1219.147217 68.0
1220.704346 124.0
1222.171997 112.0
1223.390015 204.0
1224.155884 152.0
1224.218506 160.0
1224.501465 52.0
1224.873291 36.0
1225.618652 204.0
1226.921997 44.0
1228.086548 92.0
1229.164307 20.0
1231.206177 216.0
1234.588623 172.0
1235.588867 220.0
1241.128906 240.0
1241.541138 144.0
1242.398315 168.0
1243.724609 112.0
1246.013916 172.0
1247.834106 140.0
1250.408691 164.0
1252.929565 204.0
1256.913086 156.0
1257.103638 228.0
1259.779541 60.0
1260.373047 156.0
1261.892578 172.0
1263.476807 72.0
1264.70105 188.0
1269.532837 200.0
1270.681885 108.0
1273.82959 156.0
1274.707764 160.0
1276.520508 148.0
1276.925781 268.0
1277.196045 220.0
1280.142456 60.0
1280.797729 128.0
1284.440063 212.0
1285.039307 212.0
1288.616333 96.0
1289.516113 144.0
1289.802612 64.0
1290.002686 240.0
1290.796387 132.0
1291.676025 200.0
1294.889771 172.0
1295.74939 172.0
1296.100464 124.0
1297.110962 116.0
1300.841064 160.0
1301.221436 144.0
1301.853394 44.0
1303.110352 168.0
1303.4552 64.0
1307.475098 228.0
1312.387817 128.0
1312.950317 192.0
1317.541016 200.0
1318.54541 176.0
1321.553589 144.0
1323.153076 208.0
1323.891602 180.0
1327.232178 136.0
1328.660889 116.0
1335.510986 196.0
1336.820557 172.0
1336.900513 132.0
1337.766724 164.0
1338.290894 128.0
1339.492554 188.0
1340.089844 72.0
1342.88916 76.0
1349.081177 56.0
1350.558228 228.0
1351.004395 192.0
1352.936401 212.0
1355.954224 224.0
1356.005493 140.0
1362.117432 260.0
1362.565552 164.0
1364.27063 184.0
1368.824829 112.0
1369.325562 188.0
1370.239014 144.0
1370.659058 180.0
1370.791626 148.0
1372.110962 192.0
1373.460449 156.0
1374.043213 128.0
1375.009888 120.0
1378.214722 56.0
1379.493286 124.0
1380.188232 224.0
1380.772461 200.0
1380.92041 200.0
1382.155762 176.0
1382.658936 192.0
1383.562012 172.0
1383.850708 184.0
1384.576416 152.0
1384.954224 176.0
1386.191406 192.0
1386.324829 132.0
1386.487793 248.0
1387.755371 184.0
1388.266968 148.0
1388.875122 136.0
1389.008667 64.0
1389.194092 60.0
1390.611328 236.0
1391.093872 148.0
1392.875977 112.0
1392.957642 76.0
1394.012695 172.0
1394.882202 92.0
1398.318604 160.0
1399.397949 184.0
1400.425537 180.0
1401.78894 148.0
1402.3479 136.0
1403.622681 196.0
1412.973877 184.0
1413.564941 156.0
1414.635132 260.0
1415.316528 188.0
1416.0354 48.0
1416.349976 204.0
1416.574707 252.0
1416.754517 184.0
1417.683594 144.0
1419.842651 104.0
1420.847656 176.0
1421.335449 244.0
1422.333496 64.0
1422.911621 84.0
1425.593018 200.0
1425.66626 188.0
1425.871094 148.0
1426.69043 168.0
1428.299683 52.0
1428.984253 120.0
1429.623779 248.0
1433.569824 140.0
1434.030273 200.0
1434.41394 140.0
1434.58728 192.0
1434.707886 204.0
1435.492065 200.0
1435.559937 164.0
1437.566528 236.0
1438.064575 136.0
1439.057861 176.0
1439.295166 200.0
1441.508301 112.0
1443.004883 116.0
1445.198242 48.0
1447.461426 132.0
1448.400635 124.0
1448.733887 204.0
1448.862671 196.0
1450.021973 156.0
1450.325195 176.0
1452.903442 188.0
1453.457275 152.0
1453.722778 196.0
1454.603271 124.0
1455.256104 148.0
1455.521851 164.0
1457.481567 180.0
1457.66394 172.0
1457.876709 160.0
1457.952637 144.0
1459.2677 168.0
1460.14978 164.0
1461.009277 124.0
1462.226807 108.0
1462.356201 128.0
1468.72583 180.0
1469.519287 164.0
1470.038086 180.0
1470.221191 88.0
1470.358643 168.0
1470.66394 108.0
1471.610474 176.0
1472.022827 180.0
1474.03186 148.0
1475.315796 60.0
1475.514648 148.0
1475.820435 172.0
1476.15686 148.0
1476.70752 136.0
1476.898682 136.0
1477.487671 152.0
1478.252808 104.0
1478.436523 176.0
1482.778809 144.0
1483.154297 156.0
1484.28125 116.0
1484.649414 180.0
1485.017456 188.0
1486.175903 160.0
1487.02002 248.0
1487.756836 168.0
1488.939331 108.0
1489.407837 64.0
1491.159668 192.0
1491.305664 132.0
1491.382568 128.0
1491.45166 172.0
1493.889282 156.0
1494.458618 72.0
1494.697144 132.0
1496.965332 132.0
1498.215576 100.0
1499.078613 176.0
1500.041992 216.0
1500.149902 216.0
1500.37085 176.0
1502.131714 204.0
1503.304443 160.0
