>compound MLS000069554-01!ISOXICAM
>formula C14H13N3O5S
>ionization [M+H]+
>parentmass 336.06486796809054
#inchi InChI=1S/C14H13N3O5S/c1-8-7-11(16-22-8)15-14(19)12-13(18)9-5-3-4-6-10(9)23(20,21)17(12)2/h3-7,18H,1-2H3,(H,15,16,19)
#inchikey YYUAYBYLJSNDCX
#Ion_Source LC-ESI
#Instrument qTof
#Compound_Source NIH Pharmacologically Active Library
#PI Dorrestein
#Data_Collector VP/LMS
#Scan -1
#Precursor_MZ 336.059
#ExactMass 335.058
#Charge 1
#CAS_Number N/A
#Pubmed_ID N/A
#Smiles CN1C(=C(O)c2ccccc2S1(=O)=O)C(=O)Nc3cc(C)on3
#INCHI_AUX N/A
#Library_Class 1
#SpectrumID CCMSLIB00000085349
#IonMode Positive
#UpdateWorkflowName UPDATE-SINGLE-ANNOTATED-GOLD
#LibraryQualityString Gold
#TaskID d252d724072548979f1f6f1ced849daf
##Scan# 2125
#SpectrumFile p3-H08_GH8_01_18313.mzXML
#LibraryName Pharm_Active_Library.mgf
#MQScore -1
#Organism Pharm_Active_Library
#TIC_Query 0
#RT_Query -1
#MZErrorPPM -1
#SharedPeaks 0
#MassDiff 0
#LibMZ -1
#SpecMZ 336.059
#SpecCharge 0
#internalFilename spec-00000.mgf

>collision 10
45.607395 136.0
45.949463 164.0
45.998051 132.0
46.152073 160.0
46.188591 172.0
46.832016 188.0
47.130798 144.0
47.28397 180.0
47.849548 212.0
48.222023 204.0
48.246906 212.0
48.291157 104.0
48.723675 132.0
48.762585 120.0
49.146961 196.0
50.090542 236.0
50.323254 144.0
50.859818 192.0
51.008976 212.0
52.937462 180.0
52.996857 144.0
53.607185 140.0
53.977985 180.0
54.313385 136.0
54.682201 72.0
54.729313 164.0
54.73962 40.0
55.800594 52.0
56.624348 172.0
57.310898 176.0
57.602085 100.0
58.864273 96.0
59.908829 124.0
60.371899 92.0
60.491043 92.0
60.886444 160.0
62.229446 176.0
62.499229 248.0
62.575359 184.0
63.495079 144.0
63.596626 212.0
63.760223 32.0
63.799961 220.0
64.009995 56.0
64.177307 180.0
64.269829 208.0
64.284187 216.0
64.613358 100.0
65.332115 156.0
66.004715 56.0
66.077507 144.0
66.177856 144.0
66.29287 212.0
66.352844 104.0
66.66613 180.0
67.728302 148.0
67.752876 176.0
67.836456 168.0
68.036606 184.0
68.67511 156.0
68.821983 104.0
68.841805 128.0
69.089745 196.0
69.660042 264.0
70.162643 260.0
70.407936 236.0
70.503166 172.0
70.723946 176.0
70.955132 164.0
72.292603 212.0
72.365395 220.0
72.468719 152.0
72.624687 120.0
73.326912 204.0
74.176453 160.0
74.248466 116.0
74.279343 168.0
74.299927 92.0
74.463005 216.0
74.511108 144.0
74.550629 180.0
75.179222 172.0
75.436584 64.0
75.533432 64.0
75.774071 192.0
76.416489 72.0
76.759644 192.0
77.122795 32.0
77.306435 152.0
77.397469 128.0
77.776161 160.0
78.268433 72.0
78.287804 160.0
78.62101 48.0
79.309036 148.0
79.649734 168.0
80.547539 120.0
81.055656 216.0
81.612122 144.0
82.000977 116.0
82.488342 172.0
82.841232 176.0
82.988037 44.0
83.031555 160.0
83.416504 176.0
84.373619 128.0
85.095497 204.0
85.71907 148.0
86.282043 216.0
86.533669 120.0
86.704094 72.0
87.080505 164.0
87.448883 204.0
87.629524 204.0
88.398849 172.0
88.754768 164.0
88.818535 180.0
89.258018 176.0
89.675972 160.0
89.996681 136.0
90.285805 116.0
90.403107 144.0
90.42392 236.0
90.706154 252.0
91.051491 160.0
91.064781 132.0
91.211098 80.0
91.361328 56.0
91.47361 436.0
91.713623 56.0
91.730782 68.0
91.829941 252.0
91.913879 72.0
92.885811 196.0
92.908836 156.0
93.248726 132.0
94.399704 100.0
96.000153 168.0
96.302437 128.0
96.844246 44.0
97.009285 1128.0
97.373825 156.0
97.576233 172.0
97.593925 156.0
97.93045 124.0
98.013428 172.0
98.145264 208.0
98.342552 52.0
98.567696 232.0
99.055344 9356.0
99.099548 72.0
99.115829 148.0
99.130692 112.0
99.238724 160.0
99.314087 92.0
99.961777 56.0
100.054726 224.0
100.095695 168.0
100.475853 124.0
100.587616 96.0
100.715408 180.0
102.535286 164.0
102.634064 176.0
102.937805 208.0
102.954933 204.0
103.055191 276.0
104.025322 352.0
104.041649 212.0
104.414162 176.0
105.000732 200.0
105.034531 872.0
105.125175 68.0
105.34774 60.0
105.402901 68.0
105.656441 152.0
105.900047 120.0
107.015175 116.0
107.474823 176.0
107.970619 116.0
107.999573 124.0
108.865921 188.0
109.011299 1220.0
109.038361 168.0
109.204697 220.0
109.469009 72.0
110.01516 180.0
110.038269 212.0
110.077942 208.0
110.232529 44.0
110.585976 196.0
110.967247 204.0
110.999763 160.0
111.029808 120.0
111.05378 180.0
111.258881 256.0
112.186661 176.0
112.549561 156.0
113.005524 232.0
113.158516 136.0
113.219925 140.0
114.01339 204.0
114.929092 140.0
114.997383 136.0
115.202377 236.0
115.253654 236.0
116.371765 160.0
116.631714 152.0
116.965126 216.0
117.057808 972.0
117.521156 188.0
118.064621 604.0
118.797661 204.0
118.969101 228.0
119.042397 148.0
119.067978 188.0
119.251495 144.0
119.423271 180.0
119.634346 160.0
120.017021 312.0
120.390968 184.0
120.458679 40.0
120.749397 144.0
121.025383 432.0
121.163116 112.0
121.494171 60.0
121.612671 112.0
121.766365 180.0
122.01207 152.0
122.030067 160.0
122.618446 72.0
122.750107 80.0
122.990593 272.0
123.456779 52.0
123.580658 160.0
124.271965 164.0
124.818398 104.0
124.980782 172.0
125.007072 884.0
125.034203 5980.0
125.950722 68.0
126.008614 172.0
126.036865 752.0
126.05838 244.0
126.09359 40.0
126.45816 80.0
126.617126 128.0
126.890518 136.0
126.993668 148.0
127.038536 204.0
127.998268 192.0
128.048431 976.0
128.153687 52.0
128.42421 200.0
129.052032 156.0
129.876389 136.0
130.038437 164.0
130.323624 116.0
130.384979 136.0
131.035797 144.0
132.330826 128.0
133.05069 148.0
133.220703 152.0
133.549423 108.0
133.939575 20.0
134.00293 200.0
134.131989 92.0
134.986252 220.0
135.002945 92.0
135.081085 144.0
135.349564 96.0
135.9198 192.0
135.999374 720.0
136.02533 280.0
136.979996 136.0
137.005814 1256.0
137.546646 124.0
138.006104 452.0
138.032623 180.0
138.165939 60.0
138.60379 208.0
138.997192 280.0
139.216049 72.0
140.411621 164.0
140.999207 592.0
141.065689 172.0
142.041336 124.0
142.157593 116.0
142.316635 176.0
142.349869 136.0
142.894211 112.0
144.887802 180.0
145.045959 148.0
145.357758 156.0
146.058304 2588.0
146.42276 144.0
147.042389 180.0
147.062546 388.0
147.556915 124.0
148.101425 104.0
148.748856 148.0
149.003922 172.0
149.215302 96.0
150.001328 188.0
150.018723 236.0
150.038223 144.0
150.067474 172.0
150.631241 168.0
150.865845 208.0
150.985413 192.0
151.013229 164.0
151.394363 184.0
151.494797 48.0
151.810989 184.0
151.83551 104.0
151.877213 168.0
151.991837 1116.0
152.052734 144.0
152.247818 140.0
152.292038 156.0
152.319046 148.0
152.670532 100.0
152.914093 176.0
152.951019 132.0
153.000641 6232.0
153.246552 48.0
153.387024 92.0
153.456055 60.0
153.549759 44.0
153.648438 44.0
153.742203 104.0
153.855743 40.0
153.923691 100.0
154.00528 508.0
154.031082 100.0
154.882019 76.0
154.994522 372.0
155.01828 204.0
155.221558 56.0
155.348053 104.0
155.464676 76.0
156.115555 132.0
157.279099 164.0
157.641251 100.0
158.692581 156.0
160.929428 212.0
161.043076 196.0
161.078445 252.0
161.956192 204.0
161.996002 308.0
162.049927 180.0
162.343979 64.0
163.0345 124.0
164.017059 2380.0
164.047546 152.0
164.422516 68.0
164.647186 88.0
165.024292 292.0
166.008591 120.0
166.024414 148.0
166.065109 196.0
167.061783 140.0
168.083344 152.0
168.133698 60.0
168.156921 156.0
168.694214 148.0
168.926956 124.0
168.99527 6304.0
169.224579 40.0
169.36702 80.0
169.641693 96.0
169.753189 88.0
169.78949 232.0
169.89325 108.0
169.942551 164.0
169.998184 596.0
170.134613 40.0
170.706238 84.0
170.997009 504.0
171.078323 44.0
171.239761 48.0
171.362198 156.0
171.990707 152.0
172.092514 40.0
172.578522 80.0
173.018066 128.0
174.064255 184.0
174.647705 176.0
175.030533 148.0
176.021103 148.0
176.044586 156.0
176.525543 152.0
178.453308 144.0
179.966736 188.0
180.023178 148.0
181.583099 100.0
182.026154 628.0
182.977768 88.0
183.018143 156.0
183.362976 84.0
184.021225 148.0
184.986359 136.0
185.072998 96.0
187.00351 140.0
188.049835 200.0
188.932465 104.0
189.045105 148.0
189.61705 76.0
189.663635 64.0
190.033951 144.0
191.09169 180.0
192.014526 232.0
194.018814 180.0
194.449265 176.0
195.015884 132.0
197.069763 148.0
199.086655 44.0
201.012207 200.0
202.035049 200.0
202.108612 184.0
202.930023 152.0
203.026443 172.0
206.020889 164.0
207.009445 144.0
207.208191 184.0
208.10881 180.0
208.965332 120.0
209.454742 232.0
209.631592 172.0
209.9505 192.0
210.021988 7104.0
210.065872 56.0
210.189941 120.0
210.236115 36.0
210.311157 48.0
210.403534 76.0
210.516144 60.0
211.024445 1484.0
211.073868 48.0
211.511642 192.0
211.910385 104.0
212.020706 476.0
212.269821 160.0
212.975067 76.0
213.027115 140.0
213.065125 48.0
213.158096 52.0
213.812439 60.0
214.056976 172.0
214.08902 168.0
216.059296 164.0
216.155853 160.0
218.815201 180.0
223.994965 192.0
224.042618 212.0
226.504196 48.0
227.073715 156.0
227.139694 120.0
228.076569 124.0
230.049683 116.0
231.037903 136.0
231.710022 88.0
233.051453 176.0
234.896072 128.0
238.017563 388.0
239.013824 104.0
240.73085 132.0
247.381729 72.0
248.889801 32.0
249.034271 120.0
251.152618 116.0
254.043915 144.0
256.020966 164.0
261.135437 152.0
267.988892 116.0
268.882385 96.0
276.037109 176.0
283.75296 28.0
287.142609 180.0
292.016479 160.0
300.041626 180.0
308.493652 96.0
311.293182 204.0
312.699463 44.0
318.054413 52.0
325.096375 164.0
328.21524 136.0
332.661835 196.0
334.257416 160.0
336.061096 104.0
337.222412 52.0
340.02063 200.0
342.340454 168.0
374.45874 132.0
486.069489 128.0
486.45575 132.0
685.594482 108.0
706.673218 84.0
716.255859 72.0
795.543213 60.0
805.533447 144.0
842.104614 160.0
857.276184 108.0
866.268433 156.0
964.158875 204.0
982.377075 52.0
994.931152 132.0
997.833801 184.0
999.167114 152.0
1003.43103 204.0
1007.470215 132.0
1022.670349 100.0
1044.766968 212.0
1047.902344 40.0
1062.715454 168.0
1083.350708 184.0
1085.435059 156.0
1086.80603 120.0
1090.582153 128.0
1095.846924 176.0
1099.421021 116.0
1100.041382 160.0
1111.617676 204.0
1111.823364 132.0
1125.830811 68.0
1126.037842 76.0
1135.763428 184.0
1138.374146 196.0
1139.126465 160.0
1140.698975 196.0
1141.196411 168.0
1141.44519 200.0
1143.75293 208.0
1149.029663 224.0
1150.075684 36.0
1157.519287 184.0
1160.053345 176.0
1172.935303 148.0
1178.456421 108.0
1182.032715 108.0
1184.613892 80.0
1193.309448 108.0
1194.788086 80.0
1207.501343 164.0
1228.793091 196.0
1228.967529 120.0
1235.353271 116.0
1250.038696 208.0
1271.423828 140.0
1281.949219 112.0
1291.409058 184.0
1292.11731 160.0
1292.653931 164.0
1294.113281 168.0
1296.363403 172.0
1303.194824 136.0
1305.2146 148.0
1307.811768 144.0
1308.085327 136.0
1309.057251 56.0
1310.951904 92.0
1312.682129 112.0
1322.674316 168.0
1325.12207 160.0
1332.900635 140.0
1334.4198 256.0
1338.494507 140.0
1342.451416 224.0
1342.808838 160.0
1344.880981 52.0
1348.036133 228.0
1349.914917 176.0
1353.075928 180.0
1353.522583 52.0
1354.027832 136.0
1357.20105 140.0
1357.318359 236.0
1359.467773 152.0
1360.774292 152.0
1362.977905 68.0
1364.521484 168.0
1366.507324 108.0
1370.019165 40.0
1378.016846 56.0
1385.88208 108.0
1386.808472 60.0
1387.720337 84.0
1387.942749 228.0
1388.091064 40.0
1390.101318 56.0
1390.279541 164.0
1394.475708 208.0
1396.312256 136.0
1396.446045 152.0
1404.460693 164.0
1404.699341 208.0
1406.908325 180.0
1416.84021 152.0
1417.469604 128.0
1419.283691 184.0
1420.176147 132.0
1428.589355 136.0
1435.02124 188.0
1438.03125 160.0
1439.397705 244.0
1443.432983 156.0
1446.156494 168.0
1449.951172 104.0
1450.072388 196.0
1454.312378 80.0
1457.722412 136.0
1459.113403 40.0
1460.771362 120.0
1468.914795 176.0
1472.01355 108.0
1474.848022 164.0
1474.924438 168.0
1494.004028 184.0
1496.72876 228.0
1497.144531 156.0
1499.9646 156.0
1500.257568 136.0
1502.046631 120.0
1504.006592 108.0
1504.716919 48.0
1504.786377 184.0
