>compound MLS001076118-01!TIAPRIDE HYDROCHLORIDE
>formula C15H24N2O4S
>ionization [M+H]+
>parentmass 329.152649
#inchi InChI=1S/C15H24N2O4S/c1-5-17(6-2)10-9-16-15(18)13-11-12(22(4,19)20)7-8-14(13)21-3/h7-8,11H,5-6,9-10H2,1-4H3,(H,16,18)
#inchikey JTVPZMFULRWINT
#origInchi InChI=1S/C15H24N2O4S.ClH/c1-5-17(6-2)10-9-16-15(18)13-11-12(22(4,19)20)7-8-14(13)21-3;/h7-8,11H,5-6,9-10H2,1-4H3,(H,16,18);1H
#Ion_Source LC-ESI
#Instrument qTof
#Compound_Source NIH Pharmacologically Active Library
#PI Dorrestein
#Data_Collector VP/LMS
#Scan -1
#Precursor_MZ 329.157
#ExactMass 328.146
#Charge 1
#CAS_Number N/A
#Pubmed_ID N/A
#Smiles CCN(CC)CCNC(=O)c1cc(ccc1OC)S(=O)(=O)C.Cl
#INCHI_AUX N/A
#Library_Class 1
#SpectrumID CCMSLIB00000084885
#IonMode Positive
#UpdateWorkflowName UPDATE-SINGLE-ANNOTATED-GOLD
#LibraryQualityString Gold
#TaskID d252d724072548979f1f6f1ced849daf
##Scan# 1201
#SpectrumFile p3-C02_GC2_01_18247.mzXML
#LibraryName Pharm_Active_Library.mgf
#MQScore -1
#Organism Pharm_Active_Library
#TIC_Query 0
#RT_Query -1
#MZErrorPPM -1
#SharedPeaks 0
#MassDiff 0
#LibMZ -1
#SpecMZ 329.157
#SpecCharge 0
#internalFilename spec-00000.mgf

>collision 10
44.99044 112.0
45.235085 140.0
45.267216 176.0
45.320797 180.0
45.355644 84.0
45.403912 184.0
45.481731 316.0
45.512611 132.0
45.560963 120.0
45.628162 188.0
45.819275 160.0
45.858353 148.0
46.182407 128.0
46.23653 176.0
46.25032 168.0
46.309643 108.0
46.508961 148.0
46.548332 128.0
46.740002 136.0
46.846199 148.0
46.865273 156.0
47.320107 156.0
47.422852 116.0
47.540798 168.0
47.675385 152.0
48.018196 164.0
48.341476 196.0
48.564537 188.0
48.728344 156.0
48.764477 60.0
48.807571 180.0
48.95647 112.0
49.041458 84.0
49.072128 84.0
49.146053 180.0
49.464703 196.0
49.548725 156.0
49.739449 152.0
50.078323 228.0
50.093819 176.0
50.140316 144.0
50.589497 128.0
50.704231 152.0
50.858829 140.0
50.877285 104.0
51.190094 160.0
51.389656 192.0
51.40678 160.0
51.451027 192.0
51.581028 172.0
51.663967 108.0
51.729946 196.0
51.868752 188.0
52.24931 156.0
52.341427 148.0
52.50526 140.0
52.838058 208.0
52.856758 188.0
52.885704 112.0
53.12915 140.0
53.146561 68.0
53.240917 172.0
53.501194 164.0
53.584209 240.0
53.760647 128.0
53.817577 184.0
53.893532 124.0
54.120251 136.0
54.15979 108.0
54.170044 72.0
54.186161 128.0
54.313702 188.0
54.444328 260.0
54.454609 128.0
54.513374 152.0
54.578053 124.0
54.614819 92.0
54.627239 176.0
54.6516 208.0
54.921196 108.0
55.068798 168.0
55.083569 160.0
55.798988 188.0
56.038994 92.0
56.056873 152.0
56.123955 124.0
56.597622 112.0
56.712978 152.0
56.724972 136.0
56.891487 212.0
56.957561 128.0
57.151501 148.0
57.267418 252.0
57.351795 200.0
57.616524 188.0
57.661209 160.0
57.756466 192.0
57.7934 164.0
57.915401 132.0
58.053318 156.0
58.15345 172.0
58.314449 212.0
58.53352 132.0
58.68132 212.0
59.014172 156.0
59.36483 88.0
59.424652 184.0
59.779606 60.0
59.939758 108.0
60.019913 200.0
60.202003 224.0
60.234436 104.0
60.251431 200.0
60.276154 100.0
60.44006 68.0
60.554699 156.0
60.788715 44.0
60.883415 148.0
60.945549 152.0
60.956429 156.0
61.013939 156.0
61.104141 160.0
61.163277 132.0
61.225555 180.0
61.24892 124.0
61.269527 176.0
61.368919 156.0
61.499962 104.0
61.514011 160.0
61.545235 204.0
61.612396 220.0
61.690536 168.0
61.915852 64.0
62.399158 124.0
62.518707 200.0
62.543888 124.0
62.707699 168.0
63.222565 164.0
63.429771 160.0
63.482372 112.0
63.568035 232.0
63.811058 156.0
63.912643 180.0
63.982887 172.0
64.108719 192.0
64.252228 160.0
64.626091 100.0
64.784592 160.0
65.065247 176.0
65.243576 152.0
65.295029 100.0
65.691269 76.0
65.837288 180.0
65.999748 160.0
66.041794 188.0
66.317055 56.0
66.336502 188.0
66.362541 160.0
66.529549 176.0
66.656235 56.0
66.815582 248.0
67.033768 108.0
67.255569 156.0
67.710106 152.0
67.734673 252.0
67.751053 92.0
67.882179 144.0
68.143166 176.0
68.25 176.0
68.798645 132.0
68.962181 148.0
69.135841 188.0
69.306404 256.0
69.376007 112.0
69.442337 152.0
69.613274 120.0
69.8106 172.0
70.04071 208.0
70.170822 156.0
70.437714 52.0
70.526276 60.0
70.541321 120.0
70.70356 124.0
70.877724 152.0
70.993385 44.0
71.164543 108.0
71.406532 176.0
71.527672 168.0
71.557976 220.0
71.905228 108.0
72.004845 216.0
72.161995 168.0
72.314247 176.0
72.358253 252.0
72.410751 100.0
72.454796 84.0
72.549698 180.0
72.659935 168.0
72.714233 188.0
73.486809 220.0
73.754921 172.0
74.35096 168.0
74.488319 112.0
74.565643 108.0
74.7118 160.0
74.756538 124.0
74.802391 164.0
74.902878 200.0
74.930443 40.0
74.942505 192.0
74.985588 236.0
75.612526 180.0
75.647141 168.0
75.7164 148.0
76.289001 152.0
76.313347 208.0
76.377686 68.0
76.699821 184.0
76.984207 68.0
77.340874 148.0
77.395142 132.0
77.43367 120.0
77.835266 192.0
77.868629 188.0
77.989861 144.0
78.03511 160.0
78.362938 96.0
78.553337 148.0
78.664513 168.0
78.779297 184.0
78.814629 148.0
78.895935 72.0
78.941902 252.0
79.276482 168.0
79.36689 148.0
79.462669 136.0
79.485733 116.0
79.544655 196.0
79.60289 84.0
80.024307 180.0
80.191757 176.0
80.255936 248.0
80.33976 164.0
80.530762 164.0
80.898148 140.0
81.178619 188.0
81.354454 100.0
81.374207 112.0
81.397545 132.0
81.775078 124.0
81.865097 160.0
82.285225 132.0
82.473099 72.0
82.485748 132.0
82.534569 232.0
82.585205 180.0
82.599159 196.0
82.971878 172.0
83.239449 180.0
83.710426 152.0
83.779633 140.0
83.816078 200.0
84.515411 196.0
84.697701 176.0
85.01384 172.0
85.039536 212.0
85.087257 200.0
85.153366 28.0
85.790031 196.0
85.804779 140.0
86.098167 376.0
86.175751 88.0
86.355064 148.0
86.569748 108.0
86.614197 176.0
86.651245 172.0
86.712395 76.0
86.903397 140.0
86.927521 164.0
86.949791 220.0
86.994972 148.0
87.176361 40.0
87.241409 180.0
87.349266 176.0
87.486977 172.0
87.527939 116.0
87.621063 176.0
87.710518 56.0
87.813065 180.0
87.89888 124.0
87.949272 112.0
88.106133 164.0
88.248169 152.0
88.342529 120.0
88.407166 160.0
88.446472 140.0
88.485786 124.0
88.51387 108.0
88.881264 148.0
88.946953 128.0
89.228745 156.0
89.35099 168.0
89.494026 236.0
89.833267 240.0
89.965363 124.0
90.632996 136.0
91.014252 208.0
91.478149 200.0
91.609543 116.0
91.676231 136.0
91.752472 196.0
91.842102 156.0
91.943222 188.0
92.023392 148.0
92.415215 192.0
92.440086 96.0
93.065063 184.0
93.126427 152.0
93.187904 212.0
93.234016 100.0
93.505188 124.0
93.561012 196.0
93.599518 148.0
93.62648 132.0
93.821091 180.0
93.844223 64.0
93.936798 148.0
94.025551 164.0
94.044952 152.0
94.249557 120.0
94.485443 180.0
94.504791 112.0
94.659637 148.0
94.677071 168.0
94.752609 172.0
94.79718 164.0
95.016281 164.0
95.266716 144.0
95.534988 252.0
95.620605 72.0
95.784157 76.0
95.904968 264.0
96.055107 260.0
96.338165 132.0
96.420227 292.0
96.633369 112.0
97.02507 100.0
97.105469 56.0
97.250664 176.0
97.988091 208.0
98.21479 72.0
98.352966 140.0
98.380547 36.0
98.771812 52.0
99.013115 236.0
99.018166 216.0
99.090538 120.0
99.243149 164.0
99.259018 196.0
99.441528 248.0
99.763313 144.0
99.817001 176.0
99.966194 192.0
100.073677 168.0
100.11013 548.0
100.506203 204.0
100.63195 68.0
100.841698 152.0
100.859444 164.0
100.939659 112.0
101.116707 196.0
101.458229 148.0
101.562508 148.0
101.634727 176.0
101.656799 76.0
101.769203 180.0
101.783264 232.0
101.897751 184.0
101.919853 148.0
102.6082 160.0
103.143158 180.0
103.193703 96.0
103.355515 240.0
103.460754 64.0
103.5215 216.0
103.638985 132.0
103.736267 112.0
103.805199 156.0
103.878212 224.0
104.020264 136.0
104.050713 340.0
104.109596 88.0
104.288383 92.0
104.457153 196.0
104.699364 152.0
105.0326 312.0
105.05632 728.0
105.094818 136.0
105.274452 148.0
105.34185 276.0
105.4011 248.0
105.464455 120.0
105.711922 248.0
105.801979 120.0
105.859306 148.0
105.935089 136.0
106.040741 564.0
106.063904 172.0
106.092888 148.0
106.156448 148.0
106.427307 208.0
106.591629 160.0
106.698509 196.0
107.013382 184.0
107.05114 436.0
107.122444 204.0
107.149231 132.0
107.17395 152.0
107.27494 36.0
107.452293 172.0
107.629799 124.0
107.768188 112.0
108.018341 356.0
108.585869 156.0
108.625275 172.0
109.011894 304.0
109.038605 144.0
109.248482 44.0
109.38166 104.0
109.49826 184.0
109.548248 92.0
109.58992 128.0
109.731644 84.0
110.020134 544.0
110.20961 120.0
110.272301 184.0
110.984055 168.0
111.311394 200.0
111.328194 172.0
111.605568 168.0
111.799095 172.0
111.902237 168.0
112.015961 168.0
112.10778 220.0
112.141518 136.0
112.327934 88.0
112.858665 172.0
112.872826 204.0
112.896088 176.0
113.016663 192.0
113.126717 152.0
113.18811 188.0
113.61837 152.0
113.648071 200.0
113.696877 132.0
113.724472 152.0
113.887962 208.0
114.038818 200.0
114.102585 128.0
114.20253 56.0
114.22168 112.0
114.479202 200.0
114.49411 196.0
114.683731 100.0
114.786064 96.0
114.877769 144.0
114.899109 316.0
114.982323 120.0
115.035683 192.0
115.914719 176.0
116.049759 144.0
116.105507 152.0
116.225639 76.0
116.270706 160.0
116.588547 100.0
116.605743 148.0
116.95417 144.0
116.980003 156.0
117.518791 228.0
117.998512 176.0
118.02739 240.0
118.052322 232.0
118.11937 136.0
118.134514 144.0
118.253525 188.0
118.309799 140.0
118.385582 64.0
118.444061 96.0
118.717148 184.0
118.862488 148.0
119.014427 204.0
119.075233 132.0
119.390358 148.0
119.762527 108.0
119.886711 236.0
119.904144 252.0
119.989159 224.0
120.052391 120.0
120.460533 164.0
120.51078 200.0
120.670334 124.0
121.064201 200.0
121.156189 48.0
121.191246 188.0
121.489418 100.0
121.939552 160.0
122.035385 380.0
122.199036 40.0
122.469803 140.0
122.760719 200.0
122.804825 140.0
123.008003 640.0
123.042358 168.0
123.069641 152.0
123.226456 196.0
123.405479 164.0
123.478455 176.0
124.012032 132.0
124.036415 300.0
124.096275 184.0
124.184975 196.0
124.520111 148.0
124.593414 196.0
124.635628 192.0
125.127174 152.0
125.198425 172.0
125.349907 204.0
125.807137 48.0
126.242828 32.0
126.5158 100.0
126.8451 120.0
126.865273 72.0
127.006546 196.0
127.02449 148.0
127.040192 236.0
127.096283 188.0
127.345467 164.0
127.691582 192.0
127.869324 184.0
128.040421 60.0
128.065201 176.0
128.219406 136.0
128.348328 164.0
128.665024 236.0
128.789948 164.0
129.155396 124.0
129.438293 148.0
129.497162 152.0
129.653488 116.0
129.737015 268.0
129.775894 176.0
129.832596 144.0
130.30928 64.0
130.41835 148.0
130.607071 120.0
130.695801 116.0
131.589264 56.0
131.618942 168.0
131.950241 92.0
131.966248 88.0
132.044296 128.0
132.066864 136.0
132.190414 120.0
132.213287 156.0
132.481186 168.0
132.51326 172.0
132.662216 104.0
132.682861 184.0
132.847977 200.0
132.935165 148.0
133.025238 164.0
133.052216 6992.0
133.109619 28.0
133.281891 184.0
133.412903 200.0
133.484177 76.0
133.504868 124.0
133.73494 172.0
133.762558 176.0
133.935257 176.0
134.036346 4812.0
134.058594 1628.0
134.119598 132.0
134.174911 100.0
134.280991 144.0
134.384796 52.0
134.86232 164.0
135.00946 160.0
135.0392 456.0
135.061142 140.0
135.207428 68.0
135.24678 100.0
135.318542 84.0
135.374115 128.0
135.543213 192.0
135.68924 124.0
135.798828 244.0
135.819092 188.0
135.87709 164.0
135.895645 84.0
136.018646 164.0
136.041016 144.0
136.080002 188.0
136.492584 160.0
136.967361 232.0
137.0186 428.0
137.037247 200.0
137.09317 168.0
137.179413 156.0
137.372955 144.0
137.765137 132.0
137.940399 28.0
138.012589 184.0
138.02774 124.0
138.036865 168.0
138.073669 40.0
138.099411 184.0
138.232758 148.0
138.298279 240.0
138.499649 172.0
138.945038 92.0
139.045944 184.0
139.09993 112.0
139.320663 68.0
139.623886 160.0
139.925079 128.0
140.038101 180.0
140.141754 172.0
140.287872 156.0
140.335022 148.0
140.375107 172.0
140.443512 132.0
140.73378 132.0
140.823517 144.0
141.102356 112.0
141.246597 192.0
141.447739 76.0
141.478516 92.0
141.55191 180.0
142.168243 128.0
142.258438 52.0
142.341537 128.0
142.405655 212.0
142.669418 116.0
142.697952 184.0
142.75502 136.0
142.802582 184.0
142.847778 156.0
143.004807 180.0
143.18576 68.0
143.474075 92.0
143.700653 228.0
144.206894 84.0
144.813187 268.0
144.922409 200.0
145.618088 120.0
145.642105 176.0
145.690155 204.0
146.021866 112.0
146.19989 116.0
146.662308 212.0
146.729797 132.0
146.826263 96.0
146.872086 224.0
147.364548 96.0
147.38147 132.0
147.664307 204.0
148.040619 184.0
148.07457 544.0
148.211395 156.0
148.322876 92.0
148.448959 104.0
148.774078 80.0
149.043533 188.0
149.281891 168.0
149.313507 40.0
149.43512 124.0
149.508133 156.0
149.656616 124.0
149.778381 84.0
150.035355 272.0
150.178116 180.0
150.700531 148.0
151.040344 128.0
151.14064 192.0
151.561798 208.0
151.743164 168.0
151.993347 136.0
152.101334 92.0
152.14061 144.0
152.220901 148.0
152.373917 224.0
152.579651 208.0
152.703308 128.0
152.828766 200.0
153.237488 52.0
153.757782 168.0
154.007782 280.0
154.311096 236.0
154.647522 224.0
154.731689 52.0
154.870361 212.0
154.907516 88.0
154.978241 336.0
155.128067 208.0
155.356216 196.0
155.515015 120.0
155.822937 160.0
155.852753 148.0
156.741058 144.0
156.841171 140.0
157.077621 200.0
157.60939 200.0
157.644379 176.0
157.971909 144.0
158.813553 172.0
158.92894 92.0
158.966583 176.0
159.690109 184.0
159.838547 84.0
159.957947 172.0
160.25148 180.0
160.349747 168.0
161.228012 36.0
161.276031 180.0
161.764496 184.0
161.809799 84.0
161.875626 148.0
161.903488 132.0
162.055222 2144.0
162.151764 92.0
162.23288 80.0
162.331757 224.0
162.425598 84.0
162.445892 72.0
162.590515 224.0
162.928223 120.0
162.989197 140.0
163.060669 508.0
163.155579 208.0
163.340042 172.0
163.426544 140.0
163.48761 172.0
163.543594 188.0
163.935806 232.0
163.953644 60.0
163.988144 196.0
164.116791 100.0
164.542862 208.0
165.042526 1068.0
165.296875 148.0
165.419724 180.0
165.529816 164.0
165.791382 152.0
165.852615 136.0
165.883377 92.0
165.911575 108.0
165.978241 144.0
166.024948 2328.0
166.096207 52.0
166.553101 132.0
166.658432 40.0
166.918045 196.0
167.028519 332.0
167.134109 64.0
167.953354 76.0
168.035904 188.0
168.053955 88.0
168.242355 156.0
168.441208 60.0
168.849579 92.0
168.956818 148.0
168.981506 284.0
169.411255 208.0
169.688553 164.0
169.750793 108.0
170.001907 340.0
170.532211 68.0
170.706406 176.0
171.002975 144.0
171.078461 148.0
171.15657 104.0
171.28418 76.0
171.445709 180.0
171.50827 80.0
171.599503 120.0
172.267593 192.0
172.583832 204.0
172.691055 68.0
172.931763 204.0
172.997192 76.0
173.027084 444.0
173.086212 212.0
173.468719 248.0
173.576218 168.0
173.95401 200.0
174.022278 164.0
174.045898 40.0
174.098419 160.0
174.568817 80.0
174.82399 176.0
174.96875 120.0
175.105682 212.0
175.132019 120.0
175.198792 160.0
175.337524 56.0
176.069534 184.0
176.221512 72.0
176.284927 128.0
176.332489 188.0
176.377426 196.0
176.432938 216.0
176.499039 100.0
176.903824 136.0
177.038864 168.0
177.078232 5876.0
177.145798 64.0
177.476089 104.0
177.521164 112.0
177.542374 204.0
177.643173 164.0
177.722763 84.0
177.913849 56.0
177.971146 220.0
178.049438 1728.0
178.081711 748.0
178.477097 204.0
178.570175 68.0
178.647308 116.0
179.051865 336.0
179.083847 128.0
179.111404 128.0
179.627609 76.0
179.771683 176.0
179.891785 32.0
179.979889 104.0
180.00769 272.0
180.065781 724.0
180.164169 48.0
180.399338 216.0
180.506287 64.0
180.848724 184.0
180.972916 152.0
181.022995 168.0
181.07811 196.0
181.26918 156.0
181.336182 160.0
181.526291 188.0
181.550659 100.0
181.869934 36.0
181.896774 160.0
181.931671 168.0
181.988998 180.0
182.525436 100.0
182.552322 184.0
182.581909 152.0
182.702942 140.0
182.972076 92.0
183.021545 1024.0
183.052841 164.0
183.095932 48.0
183.17598 152.0
183.807602 120.0
183.920959 160.0
184.028946 124.0
184.209885 112.0
184.601776 128.0
184.737015 316.0
184.896652 148.0
184.975143 164.0
185.025635 1928.0
185.30806 172.0
185.386826 132.0
185.544037 56.0
185.907501 192.0
186.029861 364.0
186.271317 40.0
186.312057 104.0
186.439774 136.0
186.497711 124.0
186.717072 32.0
186.836746 84.0
186.891159 172.0
187.028564 192.0
187.070786 132.0
187.147018 124.0
187.204193 244.0
187.299515 96.0
187.460266 100.0
187.47934 112.0
187.667419 80.0
187.923798 36.0
188.073898 64.0
188.352402 56.0
188.836197 168.0
189.142639 160.0
189.254883 108.0
189.396759 376.0
189.833054 216.0
189.89064 180.0
190.458801 168.0
191.454407 144.0
191.797195 168.0
191.947678 164.0
192.063324 172.0
192.192719 144.0
192.538223 120.0
192.847672 152.0
192.89505 140.0
192.919525 92.0
193.072754 188.0
193.22731 208.0
193.398071 140.0
193.550339 204.0
193.702652 76.0
193.746979 244.0
193.863358 112.0
193.913239 188.0
194.043335 176.0
194.079559 136.0
194.137802 48.0
194.381912 136.0
194.622406 212.0
194.856705 188.0
195.318176 140.0
195.674377 104.0
196.108932 216.0
196.369766 144.0
196.72818 140.0
197.010178 432.0
197.605713 132.0
197.963989 148.0
197.995468 140.0
198.028412 212.0
198.235718 64.0
198.39267 224.0
198.485199 168.0
198.743256 180.0
198.872345 116.0
199.007095 184.0
199.034653 108.0
199.223343 96.0
199.265488 148.0
199.34697 224.0
199.386307 144.0
199.625259 124.0
199.990997 176.0
200.067001 180.0
200.114868 196.0
200.410599 44.0
200.582504 64.0
200.624786 144.0
200.72348 148.0
200.771408 100.0
200.988617 124.0
201.124084 80.0
201.479889 164.0
201.508133 152.0
201.666382 132.0
202.144333 180.0
202.21225 116.0
202.498199 220.0
203.065048 116.0
203.286331 104.0
203.328903 132.0
203.402695 220.0
204.081665 104.0
204.149918 132.0
204.260834 128.0
204.334793 212.0
204.738998 116.0
204.758926 140.0
205.356094 160.0
205.488663 112.0
205.541321 76.0
205.742661 216.0
206.199692 64.0
206.236847 156.0
206.508469 112.0
206.671524 44.0
206.811752 156.0
207.01503 116.0
207.30722 204.0
207.67131 224.0
208.230988 136.0
208.305664 140.0
208.682144 148.0
208.746704 144.0
208.814423 120.0
208.940979 84.0
209.067322 9196.0
209.1595 60.0
209.283478 108.0
209.415939 48.0
209.43898 56.0
209.522522 124.0
209.548447 180.0
209.585907 128.0
209.63121 172.0
209.98085 156.0
210.07135 1832.0
210.393463 160.0
210.458786 164.0
210.569611 88.0
210.633148 116.0
210.719818 68.0
210.99437 148.0
211.017502 140.0
211.073898 176.0
211.124496 184.0
211.150513 116.0
211.202576 36.0
211.355911 80.0
211.40799 140.0
211.436813 184.0
211.523331 136.0
211.544022 172.0
211.59613 92.0
211.654037 204.0
211.69458 160.0
211.798553 196.0
211.853882 256.0
211.940613 120.0
211.963913 164.0
211.971436 160.0
211.984146 96.0
211.99408 156.0
212.037125 20248.0
212.088593 92.0
212.173218 84.0
212.219055 68.0
212.239349 40.0
212.337631 76.0
212.354721 156.0
212.383316 124.0
212.442368 140.0
212.497482 52.0
212.517792 60.0
212.552612 156.0
212.584534 68.0
212.617905 112.0
212.675125 188.0
212.749969 40.0
212.773193 164.0
212.834167 108.0
212.857407 36.0
212.901871 140.0
212.963531 220.0
213.02182 43468.0
213.087097 64.0
213.134796 124.0
213.176315 56.0
213.216217 108.0
213.295029 256.0
213.328064 52.0
213.36586 84.0
213.433182 204.0
213.516464 96.0
213.551239 68.0
213.588211 116.0
213.627411 72.0
213.681076 136.0
213.726517 64.0
213.782501 132.0
213.831268 40.0
213.868454 88.0
213.974945 272.0
214.025116 4624.0
214.087463 120.0
214.110764 60.0
214.157364 80.0
214.187943 80.0
214.215622 48.0
214.238922 64.0
214.292664 144.0
214.320496 80.0
214.347076 168.0
214.382614 164.0
214.4254 92.0
214.458664 80.0
214.482773 76.0
214.506485 112.0
214.592422 68.0
214.6353 92.0
214.655701 68.0
214.686447 148.0
214.698578 80.0
214.704056 76.0
214.772369 88.0
214.807373 84.0
214.897812 132.0
214.976593 52.0
215.018295 2292.0
215.11467 64.0
215.164673 64.0
215.228897 164.0
215.33226 120.0
215.421585 116.0
215.461273 44.0
215.487579 100.0
215.61322 36.0
215.879257 96.0
216.014496 320.0
216.113266 68.0
216.175354 164.0
216.309341 36.0
216.921555 128.0
217.015366 124.0
217.3116 168.0
217.572815 168.0
217.640335 76.0
217.728424 44.0
218.172119 156.0
218.37207 76.0
218.648621 44.0
218.784012 64.0
218.990143 196.0
219.553055 56.0
219.859863 40.0
220.672913 128.0
220.710617 76.0
220.910278 88.0
220.982727 272.0
221.041901 56.0
221.651886 68.0
221.782288 108.0
223.085403 152.0
223.115128 240.0
223.513672 104.0
223.635696 100.0
223.692245 148.0
223.984055 96.0
224.314819 84.0
224.401276 216.0
224.574234 92.0
224.887512 172.0
225.039764 60.0
225.129333 124.0
225.425079 192.0
225.780823 40.0
225.909439 108.0
226.017914 2020.0
226.81076 192.0
226.951233 84.0
227.022339 148.0
228.024994 116.0
228.036301 168.0
228.657928 96.0
229.017609 152.0
229.248199 144.0
229.377792 84.0
229.905609 200.0
230.046295 1128.0
230.470276 60.0
230.57605 84.0
231.052887 92.0
231.43515 76.0
231.526611 136.0
232.034088 176.0
232.468796 196.0
232.562866 148.0
233.322296 160.0
234.360138 84.0
234.817398 76.0
236.054214 112.0
236.142899 68.0
236.646805 60.0
237.36174 164.0
237.508942 112.0
237.956985 148.0
238.171951 168.0
238.423889 156.0
239.371368 164.0
239.87973 216.0
240.243607 136.0
240.419479 140.0
240.941299 184.0
241.039719 2704.0
241.139069 160.0
241.191605 36.0
241.305984 108.0
241.856628 48.0
242.045334 176.0
242.522568 152.0
243.03772 136.0
243.409836 176.0
243.922455 80.0
244.035995 108.0
244.513412 132.0
244.949326 168.0
245.706848 180.0
245.763 120.0
246.378052 92.0
246.621796 136.0
248.187073 204.0
248.2686 104.0
248.572876 108.0
248.704697 172.0
249.006104 100.0
249.034378 96.0
249.182007 216.0
250.084518 228.0
250.481247 156.0
250.767975 168.0
250.94136 152.0
251.651245 88.0
252.014465 184.0
252.605515 168.0
252.972733 124.0
253.238708 256.0
253.454132 120.0
253.916962 72.0
254.592926 100.0
254.691391 236.0
254.745392 148.0
254.783508 124.0
254.824814 280.0
254.869293 144.0
254.897888 136.0
254.983688 48.0
255.190308 84.0
255.53804 176.0
255.579636 272.0
255.63562 168.0
255.697098 88.0
255.734955 200.0
255.758057 68.0
255.770782 128.0
255.801132 104.0
255.857834 216.0
255.906189 88.0
255.928467 120.0
255.969986 264.0
256.064453 60172.0
256.1633 92.0
256.210815 104.0
256.216797 68.0
256.240204 100.0
256.283386 116.0
256.355194 88.0
256.419037 88.0
256.460236 216.0
256.526825 128.0
256.588867 184.0
256.638367 144.0
256.700989 64.0
256.741028 68.0
256.768677 60.0
256.798126 80.0
256.81897 92.0
256.837616 156.0
256.904083 84.0
256.956146 184.0
257.066193 5472.0
257.106384 144.0
257.20047 92.0
257.244415 52.0
257.315582 68.0
257.379242 56.0
257.471863 72.0
257.504669 44.0
257.564056 68.0
257.636902 96.0
257.806915 68.0
257.883911 100.0
257.986298 44.0
258.062958 2580.0
258.155731 64.0
258.470917 76.0
258.507629 116.0
258.53421 124.0
258.59137 48.0
258.623718 136.0
258.766907 108.0
258.79892 124.0
258.82132 68.0
258.847382 104.0
258.901367 96.0
258.939819 64.0
258.979523 232.0
259.011932 144.0
259.068512 300.0
259.308258 76.0
259.369141 64.0
259.519836 76.0
259.622437 92.0
259.7341 104.0
259.760345 88.0
259.819977 96.0
259.863007 60.0
259.964417 92.0
260.19812 68.0
260.27063 84.0
260.334869 40.0
260.723572 76.0
260.916443 124.0
261.485779 84.0
261.511536 96.0
262.394165 104.0
262.868286 84.0
263.898682 44.0
264.26416 60.0
265.245422 108.0
265.281067 80.0
267.141815 96.0
267.376068 92.0
268.774048 104.0
269.744019 80.0
270.087372 112.0
271.758087 104.0
271.882782 84.0
275.881439 96.0
276.569489 64.0
279.88266 100.0
285.151489 56.0
286.167389 92.0
288.0289 92.0
289.225891 96.0
293.284882 100.0
294.530304 104.0
294.974518 100.0
296.487335 84.0
300.448425 160.0
300.534668 72.0
302.016693 108.0
302.521912 144.0
304.953461 128.0
305.311127 68.0
308.722168 96.0
316.761078 124.0
318.591522 104.0
329.152649 592.0
330.158539 160.0
330.37558 72.0
331.158478 180.0
332.219482 156.0
336.930298 72.0
349.253967 76.0
349.439972 40.0
350.881287 36.0
367.156555 56.0
368.519287 40.0
373.776123 76.0
375.525116 116.0
376.057556 76.0
382.647522 80.0
389.754303 88.0
398.251953 52.0
406.73291 64.0
406.909515 68.0
410.663971 56.0
413.961731 100.0
414.196625 128.0
422.29245 88.0
429.917603 96.0
430.078552 88.0
435.785095 80.0
452.414642 36.0
464.924835 116.0
467.972504 68.0
473.278931 44.0
479.591156 52.0
481.043671 132.0
483.670776 104.0
487.336975 120.0
487.91272 52.0
513.406128 40.0
517.776245 144.0
517.866821 44.0
541.797852 40.0
553.596069 48.0
555.484863 108.0
563.067505 64.0
595.178894 116.0
607.16394 40.0
669.952209 60.0
674.219299 56.0
679.599487 60.0
690.460571 100.0
695.133484 40.0
707.705017 72.0
723.929993 48.0
731.564941 236.0
742.078186 64.0
747.357544 60.0
751.067444 52.0
756.21991 64.0
788.096436 68.0
809.154297 160.0
819.137878 116.0
832.395203 76.0
846.945923 28.0
849.937317 188.0
854.940613 88.0
856.774719 36.0
870.396545 68.0
870.819397 148.0
880.897583 32.0
918.252563 100.0
918.385254 200.0
932.407471 56.0
947.319885 184.0
947.460754 116.0
948.533203 180.0
955.41095 172.0
975.938354 188.0
984.562622 68.0
999.469482 36.0
1001.962708 96.0
1011.992188 80.0
1012.37207 180.0
1016.34021 84.0
1020.773926 184.0
1025.529541 64.0
1032.654907 40.0
1035.848877 188.0
1039.740845 196.0
1044.707642 228.0
1064.81665 168.0
1071.060669 160.0
1084.474854 176.0
1101.953003 152.0
1106.86084 148.0
1116.303467 156.0
1129.281494 184.0
1134.048584 248.0
1140.04187 72.0
1142.866089 184.0
1147.729126 140.0
1148.491211 204.0
1155.219116 72.0
1161.925903 152.0
1169.591187 108.0
1169.822632 132.0
1170.435425 104.0
1181.252686 108.0
1181.334839 76.0
1181.492188 164.0
1181.560547 136.0
1182.039551 160.0
1183.963135 200.0
1198.140381 240.0
1198.788086 172.0
1207.064697 92.0
1207.161499 88.0
1207.770142 92.0
1207.963867 184.0
1212.076294 208.0
1216.973267 136.0
1219.911987 196.0
1224.706299 120.0
1225.41687 56.0
1231.457886 212.0
1231.793213 240.0
1238.094971 188.0
1239.94458 192.0
1242.854736 136.0
1270.994629 224.0
1273.635498 216.0
1276.713013 120.0
1276.869507 192.0
1285.189819 196.0
1286.231689 64.0
1289.095703 180.0
1291.040161 132.0
1297.427002 40.0
1303.858398 44.0
1317.42627 112.0
1317.838013 140.0
1325.464355 232.0
1326.624023 132.0
1328.487671 64.0
1329.510742 212.0
1332.066528 60.0
1332.531494 88.0
1334.101196 200.0
1335.308228 76.0
1345.210449 120.0
1352.58606 140.0
1353.515869 156.0
1361.163818 144.0
1361.266724 160.0
1362.023193 164.0
1362.816528 212.0
1366.588379 96.0
1371.736206 112.0
1378.814575 184.0
1384.888794 156.0
1386.044556 220.0
1392.892212 216.0
1394.170166 120.0
1395.694092 168.0
1397.962769 112.0
1398.952759 160.0
1400.181274 208.0
1408.056885 104.0
1413.342041 204.0
1413.90332 188.0
1418.554565 116.0
1424.009644 124.0
1425.384399 120.0
1427.203369 144.0
1429.354614 164.0
1433.978516 192.0
1435.689941 76.0
1443.921753 132.0
1444.292358 148.0
1446.176392 184.0
1447.963257 204.0
1448.652466 176.0
1449.258545 144.0
1452.192261 228.0
1453.770386 140.0
1455.174561 20.0
1455.637695 140.0
1456.146606 176.0
1463.941772 140.0
1465.46521 184.0
1465.990967 216.0
1467.355347 192.0
1469.475586 80.0
1471.307251 164.0
1473.43042 188.0
1475.37915 120.0
1479.709351 208.0
1479.946655 100.0
1480.383179 232.0
1481.669922 68.0
1485.173218 84.0
1490.201416 96.0
1492.061401 180.0
1495.130493 80.0
1502.720459 180.0
1502.982788 208.0
1503.685059 160.0
1504.673096 136.0
