>compound MLS000701318-01!1-phenyl-1H-1,2,3-benzotriazole
>formula C12H9N3
>ionization [M+H]+
>parentmass 196.085876
#inchi InChI=1S/C12H9N3/c1-2-6-10(7-3-1)15-12-9-5-4-8-11(12)13-14-15/h1-9H
#inchikey ZBJLUVHQIPUCPM
#Ion_Source LC-ESI
#Instrument qTof
#Compound_Source NIH Pharmacologically Active Library
#PI Dorrestein
#Data_Collector VP/LMS
#Scan -1
#Precursor_MZ 196.088
#ExactMass 195.08
#Charge 1
#CAS_Number N/A
#Pubmed_ID N/A
#Smiles c1ccc(cc1)n2nnc3ccccc23
#INCHI_AUX N/A
#Library_Class 1
#SpectrumID CCMSLIB00000085754
#IonMode Positive
#UpdateWorkflowName UPDATE-SINGLE-ANNOTATED-GOLD
#LibraryQualityString Gold
#TaskID d252d724072548979f1f6f1ced849daf
##Scan# 2047
#SpectrumFile p4-F02_GF2_01_18386.mzXML
#LibraryName Pharm_Active_Library.mgf
#MQScore -1
#Organism Pharm_Active_Library
#TIC_Query 0
#RT_Query -1
#MZErrorPPM -1
#SharedPeaks 0
#MassDiff 0
#LibMZ -1
#SpecMZ 196.088
#SpecCharge 0
#internalFilename spec-00000.mgf

>collision 10
44.919899 180.0
45.114876 156.0
45.142952 288.0
45.154991 56.0
45.200478 120.0
45.272396 160.0
45.307167 180.0
45.321651 168.0
45.332657 164.0
45.366558 292.0
45.516834 176.0
45.579967 96.0
45.602814 128.0
45.690224 164.0
45.764248 212.0
45.843723 188.0
46.066357 232.0
46.225903 132.0
46.330162 188.0
46.567551 176.0
46.902275 208.0
46.941814 176.0
47.162991 188.0
47.309818 64.0
47.347702 172.0
47.708584 156.0
47.741585 80.0
47.778725 44.0
47.797989 128.0
47.814503 276.0
47.862686 168.0
47.927425 224.0
47.945339 140.0
47.971531 256.0
48.120529 184.0
48.251785 128.0
48.834217 200.0
49.068745 200.0
49.082111 144.0
49.122559 140.0
49.14209 204.0
49.197918 136.0
49.294704 216.0
49.353004 220.0
49.614826 204.0
49.665314 112.0
49.760742 216.0
49.882965 48.0
49.943432 128.0
50.063065 184.0
50.095463 164.0
50.209637 96.0
50.240669 192.0
50.253365 52.0
50.403442 196.0
50.445442 192.0
50.752674 80.0
50.959904 188.0
50.969852 140.0
51.025284 96.0
51.100334 188.0
51.105885 144.0
51.702858 116.0
51.725758 64.0
51.737213 160.0
51.96653 232.0
51.999535 136.0
52.058399 156.0
52.091434 112.0
52.276913 196.0
52.286011 176.0
52.308575 168.0
52.34169 184.0
52.366173 192.0
52.413715 120.0
52.674854 48.0
52.829536 172.0
52.852688 144.0
52.975754 120.0
53.123623 208.0
53.159897 144.0
53.283318 124.0
53.384998 244.0
53.68507 140.0
53.822243 148.0
53.835384 144.0
53.971287 188.0
54.000534 140.0
54.287159 232.0
54.360939 188.0
54.450493 184.0
54.706348 132.0
54.809448 164.0
54.92297 108.0
55.069099 172.0
55.108986 148.0
55.162189 60.0
55.240566 144.0
55.296795 152.0
55.425636 176.0
55.781837 124.0
56.079929 168.0
56.106377 240.0
56.128742 192.0
56.227871 164.0
56.395981 160.0
56.406445 104.0
56.470741 208.0
56.545799 240.0
56.636887 196.0
56.698318 220.0
56.833282 128.0
56.876431 168.0
56.920345 188.0
56.96991 164.0
57.196983 144.0
57.276791 104.0
57.318977 136.0
57.3657 144.0
57.412441 92.0
57.424507 196.0
57.478817 116.0
57.493908 180.0
57.528625 136.0
57.706902 156.0
58.135586 180.0
58.150764 144.0
58.237312 152.0
58.432785 236.0
58.457764 120.0
58.491245 88.0
58.606995 88.0
58.684731 144.0
58.747261 172.0
58.968674 240.0
59.058887 100.0
59.136921 140.0
59.179787 128.0
59.520191 148.0
59.636951 204.0
59.744595 128.0
59.758621 172.0
59.935513 148.0
60.091248 144.0
60.168415 116.0
60.179226 152.0
60.228645 180.0
60.261086 108.0
60.34919 40.0
60.369289 120.0
60.401772 160.0
60.423428 164.0
60.61853 160.0
60.697586 68.0
60.820152 152.0
60.865177 64.0
61.042324 180.0
61.140335 100.0
61.15123 204.0
61.299179 232.0
61.475399 192.0
61.505054 180.0
61.56126 116.0
61.583126 32.0
61.629993 160.0
61.680004 188.0
61.764446 152.0
61.836422 168.0
61.911572 120.0
62.008705 208.0
62.171818 192.0
62.368145 228.0
62.396442 192.0
62.457771 36.0
62.470356 124.0
62.498676 164.0
62.534363 136.0
62.572655 172.0
62.583675 236.0
62.613598 212.0
62.734928 104.0
62.758575 140.0
63.007954 188.0
63.19294 140.0
63.447933 188.0
63.666908 164.0
63.690735 40.0
63.870354 164.0
64.020607 252.0
64.177727 180.0
64.212807 180.0
64.278221 148.0
64.450676 196.0
64.596169 140.0
64.610565 208.0
64.672974 204.0
64.696983 76.0
64.711395 172.0
64.842751 116.0
64.870003 160.0
65.075363 160.0
65.097839 276.0
65.147629 180.0
65.356323 40.0
65.506378 156.0
65.669182 116.0
65.727257 128.0
65.88549 144.0
65.914574 168.0
65.971146 164.0
65.98246 100.0
66.186333 116.0
66.431068 124.0
66.526817 196.0
66.606384 176.0
66.673004 168.0
66.720139 164.0
66.88282 172.0
66.959343 260.0
67.019623 192.0
67.107635 52.0
67.283844 120.0
67.329262 156.0
67.407982 140.0
67.543686 168.0
67.781082 52.0
67.871239 180.0
67.905678 128.0
67.990997 204.0
68.025467 136.0
68.160141 164.0
68.268478 208.0
68.313049 108.0
68.342659 264.0
68.525429 172.0
68.923904 160.0
69.05368 92.0
69.124825 148.0
69.164543 48.0
69.300346 224.0
69.366638 184.0
69.40416 232.0
69.461159 148.0
69.492683 184.0
69.519226 48.0
69.650398 192.0
69.818268 100.0
70.094612 120.0
70.131279 148.0
70.157951 196.0
70.263023 88.0
70.299728 116.0
70.575356 260.0
70.66568 160.0
70.73764 144.0
70.771126 144.0
70.859894 184.0
71.015221 152.0
71.062775 84.0
71.225616 100.0
71.269295 144.0
71.355019 144.0
71.516518 180.0
71.531662 92.0
71.555237 156.0
71.573753 164.0
71.619225 152.0
71.666397 216.0
71.723701 124.0
71.892365 168.0
71.957382 100.0
72.071358 156.0
72.098396 216.0
72.133896 148.0
72.182922 60.0
72.313194 144.0
72.360596 180.0
72.448662 192.0
72.546951 196.0
72.645317 160.0
72.813362 152.0
73.269241 160.0
73.284576 184.0
73.38002 144.0
73.492592 216.0
73.595009 156.0
74.001541 168.0
74.210991 116.0
74.281303 112.0
74.463249 148.0
75.22261 68.0
75.372871 168.0
75.473122 136.0
75.873085 156.0
75.891647 164.0
75.909492 148.0
75.936798 160.0
75.987549 116.0
76.06218 140.0
76.096901 136.0
76.19416 188.0
76.324516 96.0
76.394089 112.0
76.616928 152.0
76.723236 168.0
76.960526 124.0
76.977982 188.0
77.184181 212.0
77.345146 104.0
77.390663 160.0
77.721947 96.0
77.764069 100.0
78.015259 72.0
78.101425 156.0
78.127815 232.0
78.207001 128.0
78.31617 240.0
78.547081 52.0
78.561195 160.0
78.624718 180.0
78.794235 256.0
78.91291 140.0
78.965706 128.0
79.376579 132.0
79.429787 180.0
79.888107 144.0
79.927246 208.0
79.941483 160.0
80.067886 156.0
80.469109 212.0
80.528038 60.0
80.959068 148.0
81.045052 128.0
81.09523 84.0
81.168739 136.0
81.27816 228.0
81.502609 112.0
81.619453 200.0
81.64283 128.0
81.786766 132.0
81.934433 140.0
82.037163 204.0
82.227882 224.0
82.244606 264.0
82.309601 120.0
82.322243 160.0
82.376427 132.0
82.410271 164.0
82.47039 192.0
82.957329 184.0
83.037117 108.0
83.209511 128.0
83.411163 200.0
83.538452 32.0
83.554832 196.0
83.602142 168.0
84.028534 180.0
84.059555 144.0
84.413948 128.0
84.432236 184.0
84.485275 40.0
84.503578 212.0
84.825905 160.0
84.875404 88.0
85.287766 204.0
85.426399 188.0
85.779976 216.0
85.831596 200.0
85.864792 140.0
86.053017 164.0
86.136124 156.0
86.219269 244.0
86.37458 140.0
86.471397 92.0
86.650421 120.0
86.728256 168.0
86.782021 144.0
86.90258 164.0
86.919281 180.0
86.986099 196.0
87.114235 88.0
87.160683 120.0
87.5532 52.0
87.633301 136.0
87.70475 212.0
87.758186 280.0
88.034355 152.0
88.05677 168.0
89.130226 208.0
89.396423 252.0
89.544106 212.0
89.564827 180.0
89.685417 172.0
89.934402 136.0
90.03447 200.0
90.217758 128.0
90.335007 232.0
90.486412 164.0
90.567841 160.0
90.611412 188.0
90.715645 176.0
90.818047 168.0
91.038208 132.0
91.16169 152.0
91.1959 124.0
91.414612 216.0
91.664078 168.0
91.763191 120.0
91.94632 156.0
92.051842 228.0
92.056068 164.0
92.063675 308.0
92.078056 168.0
92.165932 116.0
92.246208 152.0
92.440018 192.0
93.093086 144.0
93.112289 208.0
93.143028 216.0
93.162231 224.0
93.221802 144.0
93.442932 144.0
93.464096 96.0
93.641205 184.0
93.783791 160.0
93.963135 144.0
94.042252 164.0
94.082787 184.0
94.217979 96.0
94.347466 132.0
94.544762 192.0
94.647362 52.0
94.908951 208.0
94.949677 164.0
95.374893 192.0
95.559639 160.0
95.682259 72.0
95.705627 136.0
95.822487 220.0
95.906288 188.0
95.931625 152.0
95.970619 196.0
96.099358 152.0
96.191078 144.0
96.208649 140.0
96.572113 72.0
96.83831 56.0
96.91687 192.0
97.282326 356.0
97.493599 144.0
97.574196 340.0
97.792549 184.0
97.82798 160.0
97.979622 160.0
98.013123 220.0
98.171921 216.0
98.22802 136.0
98.243805 180.0
98.275375 128.0
98.648262 144.0
98.759384 60.0
98.963219 128.0
99.008102 240.0
99.056305 200.0
99.199028 180.0
99.389381 156.0
99.444946 200.0
99.556129 164.0
99.643532 40.0
99.766754 216.0
99.810493 176.0
99.860214 168.0
100.161438 216.0
100.204597 192.0
100.302254 192.0
100.358078 40.0
100.663376 156.0
100.869171 192.0
100.959145 140.0
101.03833 524.0
101.291397 252.0
101.339478 184.0
101.818916 88.0
101.96357 132.0
102.021866 64.0
102.035942 132.0
102.120399 152.0
102.166664 44.0
102.188797 156.0
102.446495 176.0
102.490707 136.0
102.495544 128.0
102.503494 180.0
102.589584 104.0
102.611755 120.0
102.801369 140.0
102.968933 48.0
103.051758 148.0
103.088127 244.0
103.123718 204.0
103.205376 160.0
103.397552 148.0
103.500801 116.0
103.577759 176.0
103.600044 280.0
103.636513 152.0
103.717575 160.0
103.894005 144.0
104.009674 176.0
104.047585 136.0
104.054863 184.0
104.220886 208.0
104.259499 152.0
104.466896 164.0
104.542328 164.0
104.670433 232.0
104.71727 176.0
105.257706 164.0
105.509026 132.0
105.533562 40.0
105.629684 140.0
105.930603 80.0
105.971581 152.0
106.041252 128.0
106.219643 160.0
106.396133 192.0
106.515244 88.0
106.632362 188.0
106.726929 200.0
107.253967 184.0
107.295197 104.0
107.559258 196.0
107.573708 156.0
107.652168 152.0
107.790573 228.0
107.898056 56.0
108.07386 148.0
108.326447 216.0
108.421761 140.0
108.502602 164.0
108.535774 248.0
108.695503 188.0
108.865723 228.0
108.948807 188.0
109.106758 160.0
109.174667 188.0
109.248177 156.0
109.277306 228.0
109.339729 104.0
109.375114 168.0
109.589622 160.0
109.650055 152.0
109.896126 232.0
110.010918 208.0
110.035973 100.0
110.054764 184.0
110.092346 40.0
110.152924 108.0
110.301285 168.0
110.437202 156.0
110.571106 180.0
110.59623 208.0
110.612968 88.0
110.929291 72.0
111.011063 100.0
111.309044 184.0
111.342644 136.0
111.729424 152.0
111.754669 156.0
111.891624 172.0
112.133728 164.0
112.154808 160.0
112.348808 196.0
112.384682 64.0
112.412109 204.0
112.49865 160.0
112.566216 116.0
112.580994 160.0
112.671822 164.0
112.785942 152.0
112.984726 116.0
113.036041 300.0
113.122284 176.0
113.223915 148.0
113.272636 64.0
113.666985 160.0
113.724289 160.0
113.879288 176.0
114.028015 208.0
114.045021 164.0
114.159828 80.0
114.17897 244.0
114.225761 200.0
114.585548 156.0
114.651604 140.0
114.745399 88.0
114.984314 188.0
115.053391 4080.0
115.123085 52.0
115.319641 88.0
115.446663 136.0
115.492836 160.0
115.595528 168.0
115.621208 428.0
115.732521 116.0
115.765282 248.0
115.852463 132.0
115.966034 144.0
116.053459 304.0
116.113976 160.0
116.156311 184.0
116.648628 36.0
116.807762 108.0
116.833572 184.0
116.857239 96.0
116.911034 136.0
116.93148 144.0
117.058548 136.0
117.270714 124.0
117.339691 96.0
117.712982 196.0
117.864197 140.0
117.950645 72.0
118.028473 176.0
118.067398 88.0
118.130127 132.0
118.147438 172.0
118.290268 120.0
118.706261 160.0
119.280869 196.0
119.309883 208.0
119.385986 128.0
119.546974 160.0
119.577446 152.0
119.692825 160.0
120.054108 768.0
120.070808 152.0
120.106918 120.0
120.126549 52.0
120.421227 192.0
120.826797 204.0
120.950371 248.0
121.05246 172.0
121.067192 240.0
121.346901 180.0
121.371017 40.0
121.399529 212.0
121.579422 216.0
121.651855 196.0
121.891258 196.0
122.258507 156.0
122.359764 176.0
122.650558 112.0
122.793877 192.0
122.926247 172.0
122.99025 176.0
123.0896 164.0
123.151436 148.0
123.268532 156.0
123.529427 144.0
123.850403 148.0
123.888847 56.0
123.974472 144.0
124.080872 188.0
124.118568 140.0
124.262741 132.0
124.367043 152.0
124.453621 156.0
124.634651 192.0
124.666878 216.0
125.004898 200.0
125.048187 176.0
125.17408 168.0
125.383492 212.0
125.4459 96.0
125.465965 160.0
125.657776 156.0
125.758194 144.0
126.047234 292.0
126.576447 192.0
126.787025 132.0
126.987282 212.0
127.047844 320.0
127.175041 52.0
127.451271 168.0
127.480484 140.0
127.518692 168.0
127.586128 88.0
127.75705 244.0
127.885315 120.0
127.919075 144.0
128.000137 120.0
128.049393 1424.0
128.078339 264.0
128.412552 104.0
128.735275 124.0
128.897934 44.0
128.970245 172.0
129.053833 136.0
129.256149 288.0
129.572205 148.0
129.721344 144.0
129.934967 112.0
130.052963 172.0
130.220993 204.0
130.582367 112.0
130.598297 128.0
130.93515 124.0
131.012604 148.0
131.096909 160.0
131.204041 200.0
131.235947 132.0
131.687805 196.0
131.875168 188.0
132.058075 132.0
132.193069 176.0
132.811661 56.0
132.990631 200.0
133.112457 132.0
133.342056 40.0
133.385727 132.0
133.762985 160.0
133.834351 212.0
133.882706 216.0
133.901138 160.0
133.972549 40.0
134.104462 128.0
134.636856 124.0
134.761597 164.0
134.928009 148.0
135.015869 116.0
135.138474 180.0
135.601624 140.0
135.889175 128.0
136.040039 120.0
136.135239 172.0
136.151489 156.0
136.249054 192.0
136.369888 64.0
136.688492 176.0
136.735046 128.0
136.85144 152.0
137.0867 148.0
137.38826 172.0
137.483154 140.0
137.591782 180.0
137.747009 316.0
137.93161 60.0
138.046173 196.0
138.331619 144.0
138.404205 96.0
138.422928 164.0
138.49086 116.0
138.563477 184.0
138.706436 124.0
138.886978 168.0
138.959717 128.0
139.053116 9904.0
139.187393 80.0
139.274292 60.0
139.582169 180.0
139.728775 72.0
139.822128 176.0
139.92569 148.0
140.015182 368.0
140.054001 2892.0
140.308151 120.0
140.356888 88.0
140.380463 280.0
140.399338 164.0
140.507843 48.0
140.566833 96.0
140.597504 56.0
140.656509 140.0
140.765121 144.0
140.815613 84.0
140.871399 140.0
140.91629 44.0
140.961182 60.0
141.06871 4372.0
141.104767 164.0
141.131378 136.0
141.213333 144.0
141.233078 60.0
141.273285 52.0
141.332443 104.0
141.398697 52.0
141.59758 148.0
141.642578 192.0
141.66864 48.0
141.768158 104.0
141.896164 128.0
141.94519 188.0
141.99649 192.0
142.072281 588.0
142.097763 116.0
142.280502 160.0
142.677261 164.0
142.743835 220.0
142.865143 80.0
143.072189 112.0
143.100769 76.0
143.134094 184.0
143.153152 180.0
143.206833 124.0
143.226974 160.0
143.385788 252.0
143.410461 380.0
143.470047 220.0
143.51535 168.0
143.577347 120.0
143.665604 60.0
143.72049 152.0
143.808777 148.0
143.954422 116.0
144.076233 176.0
144.724396 168.0
144.749985 44.0
145.426819 188.0
146.008255 88.0
146.059296 164.0
146.239227 124.0
146.306641 52.0
146.359604 132.0
146.557114 72.0
146.76442 144.0
146.935669 72.0
147.06839 252.0
147.256714 120.0
147.338852 236.0
147.493515 212.0
147.616821 108.0
147.682114 148.0
148.016098 100.0
148.178391 176.0
148.224426 228.0
148.508072 192.0
148.634232 116.0
148.668198 136.0
148.791992 96.0
148.886703 136.0
149.17099 184.0
149.455536 148.0
149.4823 152.0
149.750107 140.0
150.045288 336.0
150.16658 212.0
150.357208 224.0
150.452393 140.0
150.540298 180.0
150.691742 176.0
150.738174 196.0
150.801712 156.0
150.857941 72.0
151.039597 152.0
151.055786 456.0
151.188141 256.0
151.27626 100.0
151.423172 168.0
151.44278 156.0
151.462372 84.0
151.702515 152.0
152.009109 136.0
152.054352 148.0
152.080276 144.0
152.276703 88.0
153.056641 532.0
153.110474 72.0
153.221313 136.0
153.238571 164.0
153.317413 172.0
153.453125 80.0
153.694717 136.0
153.739136 140.0
153.778625 200.0
154.059875 152.0
154.140808 92.0
154.195114 204.0
154.349045 152.0
154.468018 72.0
154.566986 132.0
154.594208 104.0
155.049545 164.0
155.168884 116.0
155.281555 220.0
155.486404 148.0
155.888718 120.0
156.020462 56.0
156.311462 164.0
156.455826 148.0
156.508118 140.0
156.630157 132.0
156.702393 216.0
156.757217 40.0
156.966614 120.0
157.033951 224.0
157.753098 128.0
157.97258 212.0
158.118286 136.0
158.218414 204.0
158.258484 64.0
158.408752 192.0
158.54155 148.0
158.6577 176.0
159.232513 232.0
159.329453 136.0
160.414108 212.0
160.850525 164.0
161.252136 176.0
161.401291 152.0
161.740311 56.0
161.806122 156.0
162.741714 116.0
162.957611 184.0
163.102463 152.0
163.224503 152.0
163.48143 172.0
163.886307 168.0
164.046204 180.0
164.202423 212.0
164.255981 152.0
164.50351 188.0
164.531601 184.0
164.658066 152.0
164.832993 144.0
164.92244 128.0
164.973572 160.0
164.99147 136.0
165.055328 812.0
165.190933 112.0
165.370056 160.0
165.482697 132.0
165.551834 184.0
165.644257 144.0
165.928513 180.0
165.951584 180.0
165.984924 92.0
166.064316 21704.0
166.103729 428.0
166.149078 88.0
166.167038 76.0
166.190125 96.0
166.213211 44.0
166.24144 48.0
166.263428 104.0
166.310745 260.0
166.349243 108.0
166.372559 336.0
166.423706 52.0
166.45195 168.0
166.488876 284.0
166.521927 224.0
166.587173 172.0
166.626602 84.0
166.646896 76.0
166.67337 160.0
166.70369 176.0
166.734528 108.0
166.779846 172.0
166.829636 80.0
166.862488 216.0
166.889343 128.0
166.911911 420.0
166.92804 132.0
166.967941 244.0
167.005188 312.0
167.072327 97688.0
167.134415 88.0
167.161072 180.0
167.18718 268.0
167.205185 48.0
167.244827 120.0
167.284042 212.0
167.319733 92.0
167.34613 48.0
167.350342 124.0
167.375092 100.0
167.399551 112.0
167.449783 56.0
167.495346 108.0
167.519806 108.0
167.590256 128.0
167.612473 136.0
167.653305 92.0
167.69133 64.0
167.751572 132.0
167.792511 60.0
167.813126 64.0
167.882751 284.0
167.915863 196.0
167.959106 192.0
168.027206 136.0
168.075653 14356.0
168.157516 40.0
168.183594 80.0
168.220184 160.0
168.264648 40.0
168.324036 140.0
168.352249 52.0
168.378265 80.0
168.40358 144.0
168.43251 44.0
168.481995 76.0
168.522934 64.0
168.626297 96.0
168.724533 88.0
168.776245 48.0
168.83313 72.0
168.90831 120.0
168.954712 68.0
168.991821 128.0
169.011627 168.0
169.045273 188.0
169.080566 1304.0
169.153976 124.0
169.209946 84.0
169.246353 100.0
169.291199 112.0
169.311325 176.0
169.317169 136.0
169.327744 132.0
169.358536 100.0
169.400177 108.0
169.448914 60.0
169.485947 136.0
169.529541 140.0
170.059586 152.0
170.087173 112.0
170.165054 44.0
170.198807 132.0
170.303513 152.0
170.33905 60.0
170.46312 48.0
170.682129 80.0
170.799484 96.0
170.856384 52.0
171.416199 84.0
171.695145 80.0
172.050568 192.0
172.232819 128.0
172.933578 80.0
174.066147 108.0
174.176453 160.0
174.575958 36.0
174.839035 188.0
174.96817 208.0
175.278824 88.0
175.421143 72.0
175.552979 212.0
176.049118 60.0
176.384659 76.0
176.657043 60.0
177.059372 64.0
177.950363 144.0
178.130966 108.0
178.848923 136.0
179.055847 220.0
180.072784 260.0
180.63678 36.0
181.065048 140.0
181.440186 76.0
181.517944 96.0
182.014374 92.0
182.339447 72.0
182.549133 76.0
182.87468 64.0
182.998505 132.0
183.067383 76.0
183.075867 44.0
183.117004 48.0
183.259781 60.0
184.07193 164.0
184.155411 56.0
185.416229 160.0
186.607925 68.0
192.620926 240.0
194.054489 168.0
194.079453 208.0
195.482254 116.0
195.727219 104.0
195.968506 96.0
195.989059 180.0
196.085876 18272.0
196.139542 240.0
196.239914 184.0
196.269104 68.0
196.301254 56.0
196.385788 116.0
196.454666 32.0
196.493576 80.0
196.563995 108.0
196.602539 68.0
196.649994 60.0
196.905869 112.0
197.040939 236.0
197.087921 2252.0
197.233765 64.0
197.63089 96.0
197.720444 64.0
197.975204 56.0
198.097198 116.0
198.14888 36.0
198.227341 116.0
198.594604 136.0
198.692795 56.0
198.97345 132.0
200.216324 92.0
200.45578 76.0
203.456833 56.0
208.251465 84.0
210.105316 36.0
211.402695 80.0
212.17897 32.0
217.139236 60.0
231.039886 40.0
234.547379 108.0
237.482803 100.0
249.815857 160.0
249.891357 76.0
266.227844 56.0
284.264893 28.0
290.934601 80.0
291.083984 88.0
292.583466 116.0
295.922577 68.0
297.791534 44.0
304.895142 100.0
310.821442 56.0
315.247955 72.0
327.15097 120.0
329.180908 68.0
331.945648 84.0
333.248779 128.0
338.702881 76.0
350.745911 76.0
355.664825 84.0
364.050507 144.0
377.28183 108.0
377.653046 140.0
418.838135 56.0
428.134277 88.0
430.365204 100.0
440.244263 72.0
471.240875 72.0
481.357513 68.0
486.611969 72.0
490.853699 60.0
515.560242 124.0
517.931091 112.0
528.18219 84.0
528.758728 88.0
550.376343 40.0
551.572327 88.0
562.753723 80.0
587.332764 96.0
589.017456 120.0
598.732788 40.0
607.796204 52.0
612.447021 32.0
625.420349 96.0
656.294922 56.0
697.536499 104.0
704.402832 80.0
722.734802 112.0
730.987793 84.0
733.740234 88.0
772.435669 228.0
840.791321 268.0
844.413818 136.0
846.584106 52.0
853.797913 88.0
860.925415 56.0
867.332153 164.0
882.746033 160.0
905.857849 92.0
910.002014 156.0
917.408203 200.0
918.783203 124.0
920.437012 184.0
923.265198 132.0
926.41272 140.0
931.715088 168.0
937.708923 220.0
938.178345 140.0
940.221741 172.0
950.846497 100.0
954.120605 224.0
959.199463 128.0
960.716492 128.0
972.659973 172.0
973.541626 152.0
973.684448 192.0
977.227783 152.0
989.173035 164.0
995.373779 140.0
999.780579 192.0
1004.001648 148.0
1010.659851 108.0
1011.761169 140.0
1014.035278 156.0
1019.518799 152.0
1024.660278 116.0
1027.452759 212.0
1028.824951 180.0
1029.19519 212.0
1032.230469 232.0
1036.801392 208.0
1037.320557 76.0
1038.025879 172.0
1044.577026 204.0
1045.085327 44.0
1052.420532 144.0
1062.141235 188.0
1064.86084 176.0
1072.604004 56.0
1077.171753 180.0
1078.64209 124.0
1080.191895 156.0
1080.532104 160.0
1081.153687 200.0
1082.299316 160.0
1083.825562 128.0
1084.644775 168.0
1086.133301 184.0
1090.710083 220.0
1094.743286 112.0
1100.665039 80.0
1101.417969 232.0
1101.754883 104.0
1102.085205 148.0
1103.764282 220.0
1107.291504 216.0
1109.279419 140.0
1111.81311 172.0
1113.64563 204.0
1114.582397 96.0
1116.543457 76.0
1120.94397 64.0
1122.557129 204.0
1124.46521 140.0
1128.092285 224.0
1130.854858 196.0
1132.743164 152.0
1134.438599 60.0
1135.417603 172.0
1136.967407 176.0
1140.722168 208.0
1141.078491 212.0
1156.134521 188.0
1162.959595 220.0
1164.779297 180.0
1165.404419 176.0
1169.682129 124.0
1171.439087 164.0
1171.72522 92.0
1172.883789 152.0
1174.765869 108.0
1179.669067 144.0
1182.959595 164.0
1184.233276 48.0
1185.966797 176.0
1186.30957 120.0
1187.290039 180.0
1188.984619 188.0
1191.065063 216.0
1192.185059 160.0
1193.188599 180.0
1193.298584 160.0
1194.770386 128.0
1200.115112 156.0
1200.377197 184.0
1201.598022 148.0
1204.041626 168.0
1204.428467 156.0
1209.863892 124.0
1212.184326 148.0
1213.022949 188.0
1214.576172 36.0
1216.116577 204.0
1219.158691 208.0
1220.472534 112.0
1221.056641 152.0
1224.926758 160.0
1227.106689 96.0
1227.80542 144.0
1232.55249 84.0
1233.939453 224.0
1235.859985 188.0
1235.950928 108.0
1236.90979 188.0
1239.774414 160.0
1240.755737 140.0
1241.576172 220.0
1250.759399 144.0
1251.34375 208.0
1252.843872 176.0
1253.886719 184.0
1258.083862 140.0
1260.08252 160.0
1262.881958 160.0
1265.592407 48.0
1266.109375 212.0
1266.456421 196.0
1268.561035 136.0
1272.207397 152.0
1276.24292 140.0
1277.238647 88.0
1278.932129 84.0
1280.021484 180.0
1280.356201 188.0
1282.372437 132.0
1283.071045 160.0
1286.224243 160.0
1287.866577 100.0
1289.28833 60.0
1290.589355 160.0
1291.640747 164.0
1292.502441 160.0
1302.155884 168.0
1306.015625 60.0
1308.512817 180.0
1311.387085 88.0
1313.283447 184.0
1313.964233 228.0
1315.491577 136.0
1316.812988 136.0
1317.007935 160.0
1317.867676 164.0
1323.610962 156.0
1325.436401 280.0
1325.798706 144.0
1326.001709 196.0
1326.878784 156.0
1327.197876 92.0
1329.279663 168.0
1329.686157 168.0
1331.326904 176.0
1332.554565 128.0
1332.619873 144.0
1332.692505 60.0
1333.092285 284.0
1333.208496 124.0
1333.332031 204.0
1334.378784 208.0
1337.099487 228.0
1337.601685 128.0
1341.025146 132.0
1341.929199 144.0
1342.476074 124.0
1342.534424 140.0
1343.584717 244.0
1343.832764 36.0
1344.139282 128.0
1345.307129 144.0
1347.037842 144.0
1347.31543 132.0
1352.631958 188.0
1353.832764 92.0
1356.771118 48.0
1361.481934 136.0
1362.304565 192.0
1362.422119 164.0
1364.288818 128.0
1365.053467 64.0
1365.112305 236.0
1365.752197 76.0
1367.518066 180.0
1368.062866 148.0
1370.898682 108.0
1371.797852 164.0
1373.198853 168.0
1374.084106 272.0
1374.822021 116.0
1377.228882 216.0
1378.277954 116.0
1381.005981 188.0
1382.285889 160.0
1383.888794 260.0
1385.084595 212.0
1385.454956 176.0
1387.27063 144.0
1388.590454 208.0
1388.983643 128.0
1389.391602 156.0
1389.873901 72.0
1390.215332 232.0
1391.826172 184.0
1391.982056 192.0
1392.568848 188.0
1392.932739 92.0
1393.319092 68.0
1393.653442 148.0
1393.980347 152.0
1394.099243 84.0
1394.998657 204.0
1396.686646 196.0
1396.984253 144.0
1399.65625 64.0
1401.011719 196.0
1404.485596 56.0
1404.813843 144.0
1405.045044 128.0
1406.485352 180.0
1407.388672 124.0
1408.411865 104.0
1408.867554 120.0
1413.488281 52.0
1415.112671 136.0
1415.277344 136.0
1415.524414 224.0
1416.880249 152.0
1417.764404 160.0
1419.901123 168.0
1421.92688 176.0
1422.279663 64.0
1423.646118 176.0
1424.212158 164.0
1425.712036 140.0
1425.779663 196.0
1429.849365 180.0
1431.105225 192.0
1431.836182 116.0
1436.599976 164.0
1437.467651 188.0
1439.520996 196.0
1440.261108 68.0
1443.45813 160.0
1445.757812 140.0
1446.249878 156.0
1447.771606 136.0
1448.67041 224.0
1449.339722 180.0
1449.999023 232.0
1453.275024 140.0
1454.193359 132.0
1454.876465 132.0
1455.704102 200.0
1457.717285 52.0
1458.842163 128.0
1460.477051 244.0
1460.575928 208.0
1461.915039 92.0
1462.287964 208.0
1462.463989 168.0
1463.985718 132.0
1467.048828 132.0
1468.322266 32.0
1470.321167 208.0
1470.893555 40.0
1473.253296 124.0
1473.74231 232.0
1477.113892 184.0
1477.534546 184.0
1478.804932 148.0
1479.945557 228.0
1480.665405 112.0
1482.013672 156.0
1485.340942 168.0
1491.384155 124.0
1492.322021 132.0
1492.698853 252.0
1495.368408 136.0
1496.007324 172.0
1496.253662 224.0
1497.062134 112.0
1497.162231 212.0
1497.408691 168.0
1497.62439 112.0
1497.73999 192.0
1497.963379 152.0
1498.610474 92.0
1499.442749 240.0
1500.529663 76.0
1500.699341 168.0
1502.974731 124.0
1503.283447 180.0
1503.680786 176.0
1504.171021 60.0
1504.410278 144.0
1504.973999 284.0
1505.221069 192.0
