>compound MLS001074120-01!
>formula C14H12FNO3
>ionization [M+H]+
>parentmass 262.087799
#inchi InChI=1S/C14H12FNO3/c1-7-2-3-8-4-9(15)5-10-12(8)16(7)6-11(13(10)17)14(18)19/h4-7H,2-3H2,1H3,(H,18,19)
#inchikey DPSPPJIUMHPXMA
#Ion_Source LC-ESI
#Instrument qTof
#Compound_Source NIH Pharmacologically Active Library
#PI Dorrestein
#Data_Collector VP/LMS
#Scan -1
#Precursor_MZ 262.09
#ExactMass 261.08
#Charge 1
#CAS_Number N/A
#Pubmed_ID N/A
#Smiles CC1CCc2cc(F)cc3c(=O)c(cn1c23)C(=O)O
#INCHI_AUX N/A
#Library_Class 1
#SpectrumID CCMSLIB00000084815
#IonMode Positive
#UpdateWorkflowName UPDATE-SINGLE-ANNOTATED-GOLD
#LibraryQualityString Gold
#TaskID d252d724072548979f1f6f1ced849daf
##Scan# 1837
#SpectrumFile p3-B02_GB2_01_18235.mzXML
#LibraryName Pharm_Active_Library.mgf
#MQScore -1
#Organism Pharm_Active_Library
#TIC_Query 0
#RT_Query -1
#MZErrorPPM -1
#SharedPeaks 0
#MassDiff 0
#LibMZ -1
#SpecMZ 262.09
#SpecCharge 0
#internalFilename spec-00000.mgf

>collision 10
45.038532 184.0
45.109352 232.0
45.177555 152.0
45.327511 196.0
45.441483 236.0
45.593224 148.0
45.916336 204.0
45.931171 176.0
46.256832 96.0
46.5429 144.0
46.665184 120.0
46.833931 132.0
47.123142 172.0
47.194214 68.0
47.374874 164.0
47.459846 168.0
47.949238 128.0
48.114765 144.0
48.129951 148.0
48.1852 176.0
48.205925 184.0
48.406509 156.0
48.617222 148.0
48.706081 100.0
48.886826 56.0
49.087425 152.0
49.411476 100.0
49.433861 40.0
49.477253 156.0
49.628567 164.0
49.677654 220.0
50.722591 192.0
50.969536 180.0
50.982327 164.0
51.096081 152.0
51.971924 212.0
52.122692 100.0
52.337017 76.0
52.522926 56.0
52.680271 48.0
53.585556 172.0
54.492085 248.0
54.732426 192.0
54.750099 156.0
55.394077 184.0
55.59869 208.0
55.855732 176.0
56.141697 124.0
56.392517 152.0
56.603455 180.0
56.823788 232.0
57.232613 208.0
57.389313 176.0
57.561329 176.0
57.624767 252.0
57.910675 168.0
58.188889 224.0
58.283871 92.0
58.318825 128.0
59.379963 208.0
59.637905 148.0
60.204876 172.0
60.432102 108.0
61.328152 132.0
61.710617 128.0
62.8904 216.0
62.961445 104.0
63.926899 180.0
64.043121 172.0
64.151474 164.0
64.333336 148.0
64.346107 148.0
64.416374 112.0
64.645004 124.0
65.244881 144.0
66.388069 152.0
66.532478 212.0
66.581184 184.0
66.61042 36.0
67.077553 232.0
67.216064 148.0
67.523186 160.0
67.539543 144.0
67.968773 204.0
68.114891 148.0
68.190468 108.0
68.241432 124.0
68.37632 160.0
68.428993 184.0
69.155334 136.0
69.339172 220.0
69.908798 168.0
69.968719 268.0
70.327805 204.0
72.581482 104.0
72.651024 56.0
74.065887 212.0
74.0933 48.0
74.151558 176.0
74.845581 168.0
75.995003 204.0
76.31459 288.0
76.596519 176.0
76.610451 144.0
76.640068 112.0
77.555801 180.0
78.226807 120.0
78.404701 124.0
78.431137 104.0
78.492844 228.0
78.750496 136.0
78.837067 100.0
79.371658 172.0
79.442604 140.0
79.620094 128.0
80.066483 132.0
81.350281 228.0
81.592804 160.0
82.050087 140.0
82.300873 196.0
82.874237 136.0
83.128098 124.0
83.553261 200.0
84.050667 180.0
84.469032 104.0
84.567841 180.0
84.637405 196.0
85.662209 200.0
85.793053 132.0
86.815529 124.0
87.040062 124.0
87.419273 140.0
87.978432 220.0
88.31665 40.0
88.631157 136.0
88.764244 144.0
88.824257 172.0
89.006302 252.0
89.026962 180.0
89.329559 136.0
89.758972 152.0
90.842682 68.0
91.852768 148.0
91.978706 196.0
92.12001 124.0
92.887619 180.0
93.117943 152.0
93.302406 224.0
93.564049 184.0
93.908974 164.0
94.069122 176.0
94.587173 160.0
94.893257 48.0
95.13382 200.0
95.296959 64.0
95.565346 204.0
96.032791 204.0
97.035957 160.0
97.061447 200.0
97.377396 140.0
97.658455 148.0
97.865082 108.0
97.906433 204.0
98.350037 180.0
99.021759 372.0
99.410835 148.0
99.589516 140.0
99.917503 124.0
99.94735 184.0
99.963264 220.0
100.020981 500.0
101.411163 40.0
101.663857 200.0
101.873932 236.0
101.928925 232.0
102.034698 160.0
102.336632 132.0
102.437935 36.0
102.534645 68.0
102.764526 120.0
102.855339 168.0
102.88562 164.0
103.047188 60.0
103.72715 212.0
104.019249 140.0
104.106552 112.0
104.218269 196.0
104.27314 80.0
104.330055 160.0
104.411385 160.0
104.610786 184.0
104.832787 32.0
104.89801 160.0
105.012192 212.0
105.293839 168.0
105.557457 216.0
105.57177 152.0
105.608582 204.0
105.64949 60.0
105.710876 132.0
107.104897 164.0
107.341896 168.0
107.618393 76.0
107.998634 172.0
108.066895 56.0
108.313248 136.0
109.530464 204.0
110.005898 164.0
110.135353 192.0
111.831604 144.0
112.128563 60.0
112.212883 136.0
112.379501 132.0
112.466019 144.0
112.721558 220.0
113.229271 92.0
113.861267 168.0
113.905869 56.0
113.939857 248.0
113.969604 184.0
114.154533 124.0
114.522713 56.0
114.657715 120.0
114.68251 124.0
114.951218 172.0
115.023781 172.0
115.079285 116.0
117.65995 140.0
117.815445 168.0
117.971031 148.0
118.079147 108.0
118.189468 200.0
118.265984 180.0
118.639954 184.0
118.854668 204.0
118.898071 104.0
118.97187 224.0
119.028099 160.0
119.358597 148.0
119.473869 212.0
119.706757 136.0
120.037918 156.0
120.393677 212.0
121.382782 132.0
121.437607 140.0
121.512184 84.0
122.043655 232.0
122.31649 144.0
122.514679 216.0
123.048637 120.0
123.328918 156.0
123.536774 228.0
124.088211 108.0
124.25898 160.0
124.432091 164.0
125.691864 216.0
126.034492 820.0
126.198883 80.0
126.507622 92.0
128.201141 112.0
128.516815 196.0
128.986557 164.0
129.015945 164.0
129.538681 220.0
129.674637 196.0
130.031479 152.0
130.089722 152.0
130.152588 168.0
130.98793 188.0
131.006149 140.0
131.304749 280.0
131.765839 136.0
132.312424 168.0
132.580414 176.0
132.715652 176.0
133.102402 152.0
133.830017 172.0
133.954376 144.0
134.048843 180.0
134.067276 128.0
134.129501 196.0
134.341644 48.0
134.454712 148.0
134.625534 36.0
135.011459 116.0
135.041534 156.0
135.205139 156.0
135.502182 188.0
135.789612 180.0
136.058777 184.0
136.128433 208.0
136.256836 168.0
136.805008 184.0
136.928421 216.0
137.035568 176.0
137.613983 208.0
137.966751 108.0
138.102386 172.0
138.743988 116.0
139.170975 136.0
139.295456 152.0
139.401169 136.0
139.876251 148.0
140.262558 104.0
140.453552 184.0
140.698959 148.0
141.121857 188.0
141.417557 212.0
141.628281 196.0
141.734894 208.0
142.0336 140.0
142.054947 192.0
142.394363 92.0
142.75322 144.0
142.974457 176.0
143.255402 140.0
144.033035 136.0
144.16922 80.0
144.463303 116.0
145.036026 244.0
145.39296 128.0
145.724319 96.0
145.849289 172.0
145.914185 104.0
146.041901 2304.0
146.072906 68.0
146.101776 312.0
146.800262 60.0
146.918442 44.0
147.044876 664.0
147.133224 144.0
147.304688 52.0
147.406158 192.0
147.618866 40.0
147.64064 132.0
148.055786 500.0
148.27977 120.0
148.551331 104.0
148.621689 96.0
148.643524 116.0
148.903275 192.0
149.080612 240.0
149.438049 160.0
149.479416 140.0
150.034729 164.0
150.17128 224.0
150.583755 136.0
151.545105 40.0
151.679901 204.0
152.02124 112.0
152.094437 252.0
152.750488 124.0
152.797241 228.0
152.834137 132.0
153.031036 176.0
153.235458 64.0
153.400574 64.0
154.040192 1116.0
154.07428 48.0
154.464859 68.0
154.650421 144.0
155.044968 224.0
155.302063 68.0
155.392746 228.0
156.078949 292.0
156.499847 192.0
156.611908 176.0
156.890991 164.0
157.073029 196.0
157.492371 224.0
157.979797 184.0
158.042343 272.0
158.603302 252.0
159.046661 384.0
160.054657 160.0
160.602234 72.0
161.064804 152.0
161.339569 156.0
161.607651 164.0
161.886093 188.0
162.03273 180.0
162.35997 76.0
162.811691 144.0
162.84726 128.0
163.075912 164.0
163.409042 76.0
163.987076 256.0
164.053345 188.0
164.515076 172.0
164.785782 64.0
165.049042 152.0
165.955444 192.0
166.448074 156.0
166.656128 164.0
167.246246 220.0
167.306808 152.0
167.389191 168.0
168.010345 132.0
168.16774 180.0
168.26326 176.0
168.692093 112.0
168.821365 180.0
169.046417 148.0
170.205109 156.0
171.318237 152.0
172.056534 136.0
172.738312 188.0
172.845581 52.0
173.068054 224.0
173.230438 164.0
173.306412 116.0
173.413849 88.0
173.513458 148.0
173.801956 80.0
173.889221 224.0
173.969925 112.0
174.035675 8336.0
174.148483 32.0
174.172119 124.0
174.237793 168.0
174.337631 168.0
174.453278 116.0
174.766251 60.0
174.866241 40.0
174.974167 92.0
175.040207 1076.0
175.080856 300.0
175.161133 180.0
175.219086 60.0
175.277054 212.0
175.416733 140.0
175.472092 192.0
175.680435 68.0
175.857224 84.0
176.042023 240.0
176.090485 604.0
176.160873 56.0
176.454224 116.0
177.06546 32.0
177.086655 292.0
177.114426 168.0
177.174057 120.0
177.2509 136.0
177.526581 40.0
177.582275 156.0
177.738785 112.0
178.036423 220.0
178.091858 172.0
178.676666 96.0
178.873596 148.0
179.003082 196.0
179.153198 280.0
179.77977 128.0
179.830475 152.0
179.905212 188.0
180.268448 100.0
180.495667 140.0
181.872665 104.0
182.082077 88.0
182.251312 52.0
182.364182 144.0
182.522781 164.0
183.30069 220.0
183.537903 144.0
183.643066 156.0
183.947968 52.0
184.444977 244.0
184.496338 108.0
184.618011 224.0
184.907486 116.0
184.991394 148.0
185.432892 144.0
185.75827 132.0
186.075775 160.0
186.225128 176.0
186.263153 220.0
187.046265 140.0
187.133377 136.0
187.206894 212.0
187.318558 148.0
187.552887 208.0
187.626495 208.0
187.989258 92.0
188.053253 216.0
188.210358 168.0
188.352356 160.0
190.027725 224.0
190.7005 192.0
193.489304 136.0
193.818893 76.0
194.060028 208.0
195.838516 120.0
196.16452 200.0
196.71405 152.0
196.9095 76.0
197.963806 192.0
198.877747 164.0
199.352371 76.0
199.971069 196.0
200.051147 152.0
200.087448 364.0
200.190659 148.0
200.886826 104.0
201.053452 396.0
201.101257 96.0
201.137955 60.0
201.259354 76.0
201.293228 212.0
201.431625 140.0
201.516525 140.0
201.560257 120.0
201.674622 128.0
201.745285 152.0
201.801834 172.0
201.893433 172.0
201.934174 40.0
201.9729 140.0
202.031097 26284.0
202.127594 160.0
202.167801 136.0
202.209167 96.0
202.255447 196.0
202.297684 276.0
202.347198 68.0
202.356583 52.0
202.393173 68.0
202.495117 28.0
202.597977 76.0
202.652618 100.0
202.697357 80.0
202.812439 64.0
203.034607 3236.0
203.217957 48.0
203.252014 44.0
203.274704 72.0
203.328629 64.0
203.385193 60.0
203.406204 84.0
203.578445 56.0
203.754547 128.0
203.780121 72.0
203.848312 60.0
204.037094 512.0
204.086258 84.0
204.112656 104.0
204.141098 60.0
204.225632 72.0
204.286148 116.0
204.334518 92.0
204.391418 108.0
204.421005 128.0
204.476791 104.0
204.502396 100.0
204.824142 40.0
205.04068 156.0
205.459824 168.0
205.553986 84.0
205.690979 68.0
205.902252 52.0
206.356598 128.0
207.871796 84.0
208.926239 96.0
209.758453 220.0
211.268723 196.0
211.691284 40.0
211.80423 132.0
211.850586 108.0
213.478836 64.0
213.964737 128.0
214.026535 460.0
214.538635 148.0
214.629013 68.0
214.684418 188.0
215.031036 184.0
216.040451 348.0
216.076874 416.0
216.844864 132.0
217.053009 172.0
219.36972 160.0
219.452271 172.0
219.490601 220.0
219.584976 60.0
220.040588 7228.0
220.154541 40.0
220.266769 56.0
220.565216 76.0
220.798782 128.0
221.047424 1288.0
221.512085 68.0
222.047089 160.0
222.29776 40.0
222.529282 152.0
222.653992 144.0
223.233475 56.0
224.2397 56.0
224.338074 204.0
224.857056 140.0
225.027206 216.0
225.690491 136.0
226.384705 144.0
226.840103 84.0
227.85141 152.0
228.07077 136.0
229.11795 160.0
230.143387 48.0
230.596497 88.0
230.799042 120.0
231.545227 184.0
232.044815 136.0
232.107086 148.0
232.192001 196.0
232.586426 228.0
233.048019 128.0
234.557465 120.0
234.950836 136.0
237.735168 92.0
238.05072 1016.0
239.058258 316.0
239.096558 72.0
240.613083 60.0
241.459717 116.0
241.725769 44.0
242.063171 84.0
242.156067 164.0
243.002319 112.0
243.033356 200.0
243.086105 136.0
243.210236 128.0
243.306473 164.0
243.58905 164.0
243.840042 164.0
243.890457 128.0
243.957993 88.0
244.077499 16544.0
244.173386 44.0
244.204483 28.0
244.244919 92.0
244.302414 108.0
244.332016 52.0
244.406693 64.0
244.428467 88.0
244.450256 84.0
244.508759 40.0
244.602753 36.0
244.627655 140.0
244.733505 52.0
244.755295 60.0
244.873627 56.0
244.904785 32.0
245.044952 176.0
245.079315 1724.0
245.134003 132.0
245.256866 88.0
245.341019 92.0
245.462616 88.0
245.500046 44.0
245.755814 60.0
245.840073 108.0
245.889999 156.0
246.085541 552.0
246.267776 64.0
246.427094 164.0
246.595825 120.0
246.686478 96.0
246.754959 44.0
246.808395 124.0
246.996033 112.0
247.067993 76.0
247.615753 84.0
247.894562 96.0
248.123367 144.0
248.167267 60.0
248.970551 68.0
256.880249 212.0
257.068481 152.0
258.589661 220.0
258.829773 56.0
259.220551 40.0
259.505829 28.0
260.080048 52.0
261.735657 60.0
261.845154 108.0
262.087799 5740.0
262.129395 240.0
262.38324 60.0
262.454193 68.0
262.602509 100.0
262.776703 36.0
263.002594 188.0
263.089172 476.0
263.147858 100.0
264.082733 40.0
264.233795 48.0
264.741974 64.0
264.842346 68.0
265.150146 100.0
266.269409 132.0
268.876312 80.0
272.557861 48.0
274.424072 100.0
280.674133 52.0
286.721527 104.0
292.072205 168.0
294.009583 100.0
312.255157 96.0
317.510284 76.0
340.344818 72.0
348.188232 52.0
351.449097 48.0
362.557312 68.0
374.461975 80.0
380.560181 56.0
382.620758 100.0
386.484619 52.0
391.213776 64.0
420.368195 72.0
422.922455 40.0
440.939392 132.0
444.796906 40.0
444.906036 64.0
445.086578 108.0
457.38913 112.0
464.84259 84.0
508.011841 124.0
549.830688 36.0
562.257935 52.0
590.383667 108.0
636.259216 80.0
661.66449 84.0
698.065247 56.0
755.907715 112.0
905.430664 100.0
928.531189 200.0
955.179993 68.0
988.340637 108.0
999.270325 72.0
1019.733276 128.0
1059.23999 128.0
1065.85083 176.0
1066.955688 128.0
1077.61145 164.0
1077.996948 48.0
1107.762329 196.0
1124.264648 180.0
1129.081299 52.0
1136.953003 264.0
1151.515015 152.0
1167.114746 152.0
1182.538696 188.0
1187.204224 116.0
1190.003784 172.0
1196.073975 92.0
1198.022705 140.0
1203.491699 144.0
1209.284668 160.0
1249.077881 176.0
1275.232422 136.0
1275.566528 148.0
1279.32959 72.0
1292.390015 172.0
1317.748901 152.0
1332.129272 164.0
1333.945923 248.0
1340.102661 88.0
1343.281128 172.0
1346.34668 192.0
1348.355713 144.0
1356.978516 84.0
1360.74231 216.0
1373.768188 120.0
1378.656006 152.0
1390.03772 196.0
1393.200684 120.0
1394.248291 132.0
1402.166748 136.0
1409.703979 180.0
1411.580322 168.0
1413.839478 180.0
1434.155151 140.0
1437.556519 144.0
1447.534668 164.0
1466.412964 144.0
1467.419189 92.0
1479.237427 116.0
1482.201294 180.0
1489.405029 140.0
1491.202881 160.0
1491.671753 224.0
1499.029541 168.0
1499.407104 240.0
1500.439941 160.0
