>compound MLS000069631-01!CURCUMIN458-37-7
>formula C21H20O6
>ionization [M+H]+
>parentmass 369.132
#inchi InChI=1S/C21H20O6/c1-26-20-11-14(5-9-18(20)24)3-7-16(22)13-17(23)8-4-15-6-10-19(25)21(12-15)27-2/h3-12,24-25H,13H2,1-2H3/b7-3+,8-4+
#inchikey VFLDPWHFBUODDF
#Ion_Source LC-ESI
#Instrument qTof
#Compound_Source NIH Pharmacologically Active Library
#PI Dorrestein
#Data_Collector VP/LMS
#Scan -1
#Precursor_MZ 369.132
#ExactMass 368.126
#Charge 1
#CAS_Number N/A
#Pubmed_ID N/A
#Smiles COc1cc(/C=C/C(=O)CC(=O)\C=C\c2ccc(O)c(OC)c2)ccc1O
#INCHI_AUX N/A
#Library_Class 1
#SpectrumID CCMSLIB00000085216
#IonMode Positive
#UpdateWorkflowName UPDATE-SINGLE-ANNOTATED-GOLD
#LibraryQualityString Gold
#TaskID d252d724072548979f1f6f1ced849daf
##Scan# 2246
#SpectrumFile p3-G03_GG3_01_18296.mzXML
#LibraryName Pharm_Active_Library.mgf
#MQScore -1
#Organism Pharm_Active_Library
#TIC_Query 0
#RT_Query -1
#MZErrorPPM -1
#SharedPeaks 0
#MassDiff 0
#LibMZ -1
#SpecMZ 369.132
#SpecCharge 0
#internalFilename spec-00000.mgf

>collision 10
44.912868 212.0
45.03434 200.0
45.07843 156.0
45.390354 120.0
45.411812 188.0
45.460114 172.0
45.546047 200.0
45.570229 164.0
45.599796 152.0
45.633404 140.0
45.652233 208.0
45.728924 120.0
45.838017 76.0
46.256733 172.0
46.700474 204.0
46.711357 248.0
46.734489 112.0
46.896557 168.0
46.948368 160.0
47.098511 212.0
47.253002 180.0
47.532539 132.0
47.671246 152.0
47.759239 36.0
47.782627 180.0
47.936855 104.0
48.34565 128.0
48.407951 228.0
48.534058 192.0
48.701992 104.0
48.810402 136.0
48.886917 164.0
49.241051 168.0
49.288555 188.0
49.337475 184.0
49.485786 120.0
49.49559 164.0
49.55022 196.0
49.572639 176.0
49.624508 180.0
49.634323 184.0
50.009449 104.0
50.177094 184.0
50.261726 184.0
50.374683 196.0
50.388809 144.0
50.446758 228.0
50.544353 200.0
50.561985 120.0
50.729904 192.0
50.901592 216.0
51.191708 136.0
51.407806 188.0
51.431244 152.0
51.569801 212.0
51.638435 148.0
51.662754 208.0
51.955025 168.0
52.030979 148.0
52.181961 184.0
52.350323 160.0
52.767361 172.0
52.784714 84.0
53.000408 164.0
53.113499 236.0
53.367661 144.0
53.385113 196.0
53.414204 64.0
53.469498 176.0
53.609314 180.0
53.983055 180.0
54.026936 148.0
54.048885 144.0
54.094059 236.0
54.111828 220.0
54.182133 120.0
54.361027 140.0
54.387447 168.0
54.469681 220.0
54.621098 92.0
54.698444 112.0
54.828716 144.0
54.844929 176.0
55.427254 148.0
55.462826 208.0
55.701744 136.0
55.728489 196.0
55.82214 144.0
55.86974 56.0
55.900986 280.0
55.929264 168.0
55.972443 132.0
56.032024 156.0
56.18261 84.0
56.370754 184.0
56.562206 108.0
56.590652 172.0
56.667042 96.0
56.716499 28.0
56.761478 196.0
56.857494 188.0
57.010689 116.0
57.215267 132.0
57.233337 68.0
57.263042 204.0
57.313171 120.0
57.666328 128.0
57.708656 220.0
57.890888 180.0
57.926601 116.0
58.024117 164.0
58.144955 176.0
58.233021 124.0
58.398701 116.0
58.465649 176.0
58.503704 132.0
58.639282 44.0
58.823856 192.0
58.86203 116.0
59.076019 72.0
59.203068 184.0
59.40847 132.0
59.520519 192.0
59.718777 252.0
60.142529 184.0
60.242905 152.0
60.296989 168.0
60.392857 124.0
60.454746 184.0
60.471771 216.0
60.52441 160.0
60.581718 124.0
60.764668 168.0
60.927692 148.0
61.190548 220.0
61.293354 176.0
61.433685 192.0
61.610104 112.0
61.646042 208.0
61.700752 224.0
61.863464 116.0
61.948032 200.0
62.156807 236.0
62.191097 216.0
62.516449 216.0
62.617214 136.0
62.63139 188.0
62.85054 64.0
62.889996 160.0
63.255157 136.0
63.302658 156.0
63.410393 140.0
63.426243 80.0
63.480152 232.0
63.532497 200.0
63.730968 184.0
63.813625 196.0
63.958401 196.0
64.168694 36.0
64.312279 168.0
64.402046 220.0
64.420868 216.0
64.432053 164.0
64.456017 44.0
64.542343 152.0
64.941132 72.0
65.013329 180.0
65.141785 152.0
65.169098 124.0
65.352409 128.0
65.457039 104.0
65.505363 104.0
65.532753 112.0
65.555313 184.0
65.623016 100.0
65.764656 236.0
65.821495 172.0
65.837646 160.0
65.887718 76.0
65.903877 164.0
66.083359 132.0
66.123817 176.0
66.219353 204.0
66.287201 168.0
66.444687 220.0
66.598907 96.0
66.620026 168.0
66.733803 300.0
67.061844 120.0
67.299217 196.0
67.351479 136.0
67.40213 92.0
67.529655 96.0
67.614738 60.0
67.752289 188.0
68.178932 144.0
68.486618 164.0
68.532753 212.0
68.707527 108.0
69.011436 172.0
69.387299 192.0
69.479301 196.0
69.524986 96.0
69.564819 64.0
69.782471 156.0
69.941605 160.0
70.240471 160.0
70.355621 40.0
70.380669 212.0
70.404053 216.0
70.454163 208.0
70.532707 44.0
70.574509 192.0
70.733452 192.0
70.760239 120.0
70.790375 196.0
70.897598 112.0
70.91436 188.0
71.456795 204.0
71.490448 156.0
71.867928 104.0
71.942192 160.0
71.95401 68.0
71.97934 172.0
72.346252 96.0
72.424156 144.0
72.539391 152.0
72.720894 208.0
72.895828 200.0
72.968925 120.0
73.048859 244.0
73.060768 168.0
73.173096 40.0
73.27018 88.0
73.44236 136.0
73.512314 252.0
73.618164 164.0
73.744186 200.0
73.804436 132.0
74.093704 188.0
74.131401 176.0
74.182823 148.0
74.228767 196.0
74.715225 192.0
74.858093 164.0
75.033859 212.0
75.313431 232.0
75.481079 148.0
75.534698 176.0
75.629868 152.0
75.702591 72.0
75.900146 132.0
76.007698 152.0
76.064972 168.0
76.104904 148.0
76.137901 160.0
76.386467 208.0
76.483917 180.0
76.951149 180.0
77.066429 144.0
77.083908 124.0
77.124107 176.0
77.152077 196.0
77.304253 120.0
77.369019 112.0
77.395287 232.0
77.551208 96.0
77.665375 184.0
77.737122 152.0
78.50592 132.0
78.758316 140.0
78.79895 156.0
79.106689 188.0
79.461151 164.0
79.516167 148.0
79.628029 92.0
80.006798 80.0
80.110092 212.0
80.188499 268.0
80.220581 160.0
80.238411 64.0
80.275856 152.0
80.675827 132.0
81.085754 216.0
81.189743 36.0
81.28685 128.0
81.525475 44.0
81.739479 164.0
81.766479 172.0
81.894318 204.0
82.034874 248.0
82.150291 160.0
82.18277 68.0
82.551285 200.0
82.614594 144.0
82.686974 176.0
83.250832 184.0
83.410721 192.0
83.488907 196.0
83.616264 196.0
83.712761 156.0
84.177795 116.0
84.241722 100.0
84.347717 176.0
84.413536 308.0
84.750366 172.0
84.776016 216.0
84.823677 124.0
84.94471 204.0
85.157959 188.0
85.573265 164.0
85.62114 148.0
85.681931 132.0
85.969597 176.0
86.24295 108.0
86.400139 208.0
86.902252 140.0
86.969063 136.0
87.297112 164.0
87.619957 100.0
87.642319 120.0
87.880989 172.0
87.920181 116.0
88.174187 180.0
88.267662 192.0
88.305069 144.0
88.527786 148.0
88.724541 160.0
88.785301 248.0
88.837067 140.0
88.904617 224.0
88.964684 164.0
89.005997 176.0
89.037598 608.0
89.150642 176.0
89.220192 128.0
89.415833 68.0
89.511848 64.0
89.629822 224.0
89.920959 208.0
90.038017 208.0
90.070129 116.0
90.24968 212.0
90.755257 256.0
90.874756 180.0
91.05381 188.0
91.069626 184.0
91.083595 336.0
91.126427 212.0
91.180496 212.0
91.237526 144.0
91.473434 172.0
91.694389 208.0
91.713455 136.0
91.904396 168.0
91.984329 260.0
91.997696 56.0
92.278549 152.0
92.419037 212.0
92.556007 176.0
92.667099 72.0
92.841545 256.0
93.057022 160.0
93.139053 60.0
93.17865 236.0
93.308174 192.0
93.362015 112.0
93.400482 192.0
93.691177 128.0
93.837654 92.0
94.035889 180.0
94.140617 212.0
94.173454 116.0
94.198563 92.0
94.370575 188.0
94.552422 128.0
94.662773 152.0
94.730568 228.0
94.881737 212.0
94.936028 64.0
95.108711 72.0
95.538185 200.0
95.569321 76.0
95.627701 192.0
95.787376 176.0
95.867264 156.0
96.001778 68.0
96.15786 116.0
96.17543 108.0
96.374634 220.0
96.593613 188.0
96.644478 200.0
96.765839 140.0
96.806961 88.0
97.191185 128.0
97.389473 184.0
97.660736 148.0
97.968407 164.0
98.133385 92.0
98.237915 224.0
98.366188 164.0
98.486649 180.0
98.500473 196.0
98.536034 156.0
98.583466 120.0
98.636826 188.0
98.662529 344.0
98.700096 164.0
98.814819 228.0
99.518471 192.0
99.800629 132.0
100.049339 200.0
100.11306 108.0
100.21067 180.0
100.398056 160.0
100.455902 116.0
100.631531 192.0
100.669472 184.0
100.851288 200.0
100.951263 224.0
101.187386 128.0
101.419769 108.0
101.570168 248.0
101.837135 156.0
101.861244 164.0
101.949654 216.0
102.047508 224.0
102.412415 144.0
102.495018 308.0
103.051971 1052.0
103.496948 132.0
103.8293 216.0
103.987556 232.0
104.058609 120.0
104.210945 108.0
104.264023 172.0
104.318665 204.0
104.377632 72.0
104.393898 144.0
104.790642 184.0
105.035378 216.0
105.069099 216.0
105.313103 156.0
105.380524 156.0
105.497017 200.0
105.515419 144.0
105.548134 96.0
105.81414 196.0
105.959564 160.0
106.004639 164.0
106.0401 1148.0
106.07843 92.0
106.166595 120.0
106.258911 72.0
106.943245 80.0
107.027657 160.0
107.049324 328.0
107.101799 212.0
107.681412 144.0
107.737183 88.0
107.852913 168.0
107.873962 196.0
107.923203 28.0
108.06179 108.0
108.237732 160.0
108.283295 108.0
108.478081 140.0
108.747742 184.0
108.864014 180.0
108.955406 168.0
109.223587 176.0
109.344276 232.0
109.402557 32.0
109.848541 196.0
109.998474 212.0
110.035248 164.0
110.216003 256.0
110.481544 180.0
110.613388 248.0
110.669922 48.0
110.7118 60.0
110.757881 184.0
110.969551 140.0
111.034561 152.0
111.168831 72.0
111.57634 72.0
111.60788 176.0
111.700424 108.0
111.719353 164.0
111.778275 140.0
111.799316 120.0
111.961426 132.0
112.02462 168.0
112.260696 168.0
112.826591 164.0
113.035995 180.0
113.135483 152.0
113.18206 28.0
113.345177 220.0
113.423592 168.0
113.444794 180.0
113.839455 168.0
113.860695 148.0
114.039169 60.0
114.258209 180.0
114.307144 216.0
114.356094 348.0
114.554131 120.0
114.609528 168.0
114.978462 152.0
115.052803 404.0
115.234726 136.0
115.300972 152.0
115.917328 220.0
115.938759 252.0
115.986382 200.0
116.063095 196.0
116.339882 132.0
116.36779 152.0
116.384972 172.0
116.408592 176.0
116.563263 204.0
116.668587 152.0
116.687935 148.0
116.832718 176.0
116.89444 196.0
116.939629 136.0
116.999207 172.0
117.032867 19676.0
117.070541 356.0
117.100258 180.0
117.12912 36.0
117.147972 64.0
117.187294 84.0
117.207878 72.0
117.28212 148.0
117.346794 168.0
117.474037 72.0
117.497772 44.0
117.525818 120.0
117.64669 204.0
117.851875 116.0
117.944809 224.0
118.036682 1116.0
118.091843 52.0
118.119965 196.0
118.205475 92.0
118.309372 100.0
118.407852 88.0
118.521828 164.0
118.579018 168.0
118.741631 160.0
118.782845 168.0
118.884827 120.0
118.943817 136.0
118.982506 168.0
119.045586 460.0
119.141441 212.0
119.191025 36.0
119.612968 68.0
119.889595 52.0
120.005127 96.0
120.05732 184.0
120.103271 176.0
120.127266 64.0
120.18399 180.0
120.271286 180.0
120.780434 212.0
120.797935 192.0
120.826378 188.0
120.893021 192.0
120.970818 144.0
121.063881 524.0
121.17012 156.0
121.249008 64.0
121.32354 120.0
121.338882 180.0
121.39151 144.0
121.920151 156.0
122.004501 164.0
122.031837 796.0
122.153671 256.0
122.243881 64.0
122.699852 232.0
122.909393 200.0
122.927048 172.0
123.015335 68.0
123.04438 156.0
123.066116 92.0
123.220734 188.0
123.390923 116.0
123.44178 164.0
123.747147 204.0
124.041809 188.0
124.188156 124.0
124.312401 180.0
124.390091 236.0
124.410072 112.0
124.716629 44.0
124.765541 220.0
125.056953 156.0
125.404434 156.0
125.471313 176.0
125.884117 132.0
125.937721 184.0
126.058365 168.0
126.407227 192.0
126.897789 160.0
127.009926 176.0
127.052551 144.0
127.281494 180.0
127.378075 88.0
127.485924 184.0
127.974068 92.0
128.054092 216.0
128.41127 124.0
128.542114 172.0
128.790482 184.0
128.828873 132.0
128.849213 140.0
129.034546 156.0
129.067093 152.0
129.138565 64.0
129.285629 164.0
129.362595 92.0
129.394287 160.0
129.609467 132.0
129.643463 124.0
129.979095 116.0
130.035828 136.0
130.067291 196.0
130.233383 112.0
130.599335 52.0
131.048431 496.0
131.28035 176.0
131.332809 208.0
131.805405 136.0
132.007706 220.0
132.056885 176.0
132.375015 188.0
132.553696 180.0
132.62262 268.0
132.647675 84.0
132.849472 168.0
132.959625 156.0
133.028336 196.0
133.065506 284.0
133.216797 160.0
133.674362 176.0
134.014587 208.0
134.0345 3384.0
134.055573 216.0
134.105042 56.0
134.243378 208.0
134.268753 76.0
134.384094 68.0
134.430237 172.0
134.487946 176.0
134.628784 180.0
134.698074 116.0
134.797424 176.0
134.894501 212.0
134.956406 264.0
135.042496 248.0
135.077194 184.0
135.116516 192.0
135.461472 68.0
135.588913 96.0
135.670044 260.0
135.792953 188.0
136.049698 4164.0
136.161987 116.0
136.21077 196.0
136.313004 52.0
136.366455 88.0
136.48735 180.0
136.538513 176.0
136.72464 64.0
136.943497 232.0
137.057846 1312.0
137.272125 60.0
137.426071 116.0
137.743591 184.0
137.806671 64.0
138.060547 260.0
138.138672 112.0
138.339935 128.0
138.403152 192.0
138.461685 244.0
138.972748 132.0
139.014984 88.0
139.045883 244.0
139.548218 120.0
139.863464 140.0
139.969421 172.0
140.063629 188.0
140.096603 264.0
140.584702 228.0
140.686203 132.0
141.034073 200.0
141.059952 172.0
141.10202 56.0
141.135117 140.0
141.423752 216.0
141.92601 112.0
142.004272 212.0
142.146622 220.0
142.215439 252.0
142.369766 176.0
143.046982 188.0
143.347549 140.0
143.497726 108.0
143.51918 140.0
143.550186 136.0
143.693298 144.0
143.915283 184.0
143.979752 56.0
144.063477 160.0
144.068756 172.0
144.101593 176.0
144.177277 148.0
144.376495 132.0
144.472168 92.0
144.491318 148.0
144.531998 180.0
144.559448 164.0
144.699966 164.0
144.761795 48.0
144.800125 116.0
144.883957 168.0
144.905533 212.0
144.924698 184.0
144.986511 232.0
145.00174 188.0
145.027405 45368.0
145.060532 672.0
145.094009 144.0
145.169891 140.0
145.188385 108.0
145.211823 172.0
145.245361 80.0
145.263077 180.0
145.291534 104.0
145.361115 72.0
145.396088 84.0
145.422363 100.0
145.483536 144.0
145.512344 128.0
145.540146 180.0
145.601196 52.0
145.646027 184.0
145.730194 112.0
145.783783 132.0
145.831848 68.0
145.944855 232.0
145.961685 124.0
146.032166 5728.0
146.066971 232.0
146.093964 64.0
146.151001 68.0
146.187805 156.0
146.209473 80.0
146.238358 48.0
146.257614 84.0
146.351501 72.0
146.5177 92.0
146.553833 36.0
146.643005 48.0
146.759171 44.0
146.79451 100.0
146.835892 52.0
146.954102 140.0
146.975815 264.0
147.039917 1312.0
147.078568 156.0
147.112625 136.0
147.148438 248.0
147.178589 120.0
147.217224 76.0
147.565201 156.0
147.676437 72.0
148.04808 340.0
148.121826 172.0
148.141205 56.0
148.373871 184.0
148.868881 208.0
148.898026 172.0
149.004913 156.0
149.058838 8664.0
149.086517 188.0
149.128555 164.0
149.15802 72.0
149.46933 56.0
149.493668 48.0
149.583725 48.0
149.605637 32.0
149.785843 148.0
150.059082 1336.0
150.100266 184.0
150.195374 244.0
150.312485 96.0
150.397903 160.0
150.451614 92.0
150.598145 40.0
150.720291 200.0
150.921677 104.0
150.976974 84.0
151.038116 872.0
151.073181 1272.0
151.226547 44.0
151.243683 104.0
151.390579 84.0
151.40773 48.0
151.429764 88.0
151.525314 80.0
151.618423 196.0
151.738541 156.0
151.915131 184.0
151.983826 120.0
152.018173 104.0
152.058136 156.0
152.082825 312.0
152.131088 48.0
152.263687 128.0
152.288254 100.0
152.455322 68.0
152.681503 180.0
152.924805 176.0
153.070328 292.0
153.341354 144.0
153.41037 48.0
153.575592 100.0
153.891479 200.0
153.983261 196.0
154.077454 428.0
154.116257 144.0
154.680145 116.0
154.982315 100.0
155.059296 128.0
155.078964 140.0
155.150848 180.0
156.916107 60.0
157.030823 120.0
157.066589 200.0
157.382706 96.0
157.732483 36.0
157.877502 96.0
158.066742 192.0
158.292938 156.0
158.393112 232.0
158.538437 200.0
158.711411 132.0
158.786652 156.0
159.0457 348.0
159.170624 48.0
160.049622 728.0
160.476593 228.0
160.897949 152.0
161.058258 5652.0
161.147995 60.0
161.765106 40.0
161.881577 128.0
161.987946 116.0
162.029938 548.0
162.063568 948.0
162.228699 60.0
162.360565 216.0
162.406219 60.0
162.456955 116.0
162.525452 188.0
162.654892 60.0
163.033447 568.0
163.218918 176.0
163.684601 180.0
163.939362 220.0
164.038757 152.0
164.296341 104.0
164.352478 100.0
164.725235 192.0
164.80188 88.0
164.850433 140.0
165.067032 1788.0
165.264694 36.0
165.410583 200.0
165.974243 48.0
166.033218 140.0
166.071075 492.0
166.82666 172.0
167.047836 340.0
167.526672 88.0
168.054367 304.0
169.06044 160.0
169.972641 128.0
170.640213 208.0
171.041916 292.0
171.080276 168.0
172.051392 196.0
172.611511 32.0
172.954254 216.0
172.990906 224.0
173.051941 192.0
173.950378 72.0
174.042267 180.0
174.102676 100.0
174.512619 212.0
174.570465 168.0
174.636215 204.0
174.888824 204.0
175.041534 92.0
175.073471 960.0
175.128433 164.0
175.23909 228.0
175.587067 64.0
175.898422 168.0
175.98291 128.0
176.047302 460.0
176.079254 288.0
176.149292 180.0
176.210052 60.0
176.455856 124.0
176.484955 164.0
176.551926 172.0
176.596024 76.0
176.725647 188.0
176.76799 148.0
176.847397 64.0
176.918869 132.0
176.947983 152.0
177.011932 188.0
177.053452 30344.0
177.129791 224.0
177.200348 72.0
177.247299 56.0
177.292358 128.0
177.332001 132.0
177.415787 92.0
177.5177 124.0
177.65593 104.0
177.727264 40.0
177.927658 72.0
177.990051 48.0
178.05751 2724.0
178.136139 108.0
178.340744 64.0
178.37265 216.0
178.420502 96.0
178.444427 40.0
178.473679 156.0
178.540161 44.0
178.776947 56.0
178.992569 152.0
179.064713 664.0
179.136398 80.0
179.261627 80.0
179.341583 120.0
179.434296 72.0
179.449509 108.0
179.589569 64.0
179.642914 76.0
180.094055 32.0
180.553772 76.0
180.853455 52.0
181.038193 40.0
181.066208 112.0
181.177475 52.0
181.330215 120.0
181.558121 88.0
181.863983 60.0
181.952576 216.0
182.071152 920.0
182.562546 44.0
182.804672 72.0
182.882721 80.0
183.083221 208.0
183.343292 80.0
183.480774 104.0
184.049438 148.0
184.182434 96.0
184.365616 172.0
184.387787 144.0
184.436432 48.0
184.996414 228.0
185.057007 156.0
185.08847 72.0
185.858307 40.0
185.937012 140.0
186.02742 124.0
186.061874 240.0
186.697723 100.0
187.03511 108.0
187.073227 384.0
187.495438 108.0
188.040924 108.0
189.046677 160.0
189.079529 168.0
189.948135 128.0
190.038666 144.0
190.066101 120.0
190.088058 156.0
190.513657 244.0
191.01123 144.0
191.072464 148.0
192.033173 160.0
192.054199 116.0
192.471985 80.0
192.527222 80.0
192.980408 156.0
193.065323 1688.0
194.069489 276.0
194.848541 124.0
195.040298 136.0
195.070084 184.0
195.294876 72.0
196.050644 192.0
196.072937 156.0
196.792664 96.0
197.044052 36.0
197.0867 120.0
197.147446 40.0
197.415817 148.0
198.062378 68.0
198.847488 68.0
198.928879 156.0
199.018723 48.0
199.069275 108.0
199.094543 196.0
199.378311 40.0
200.297852 84.0
200.39418 148.0
201.051086 316.0
202.061951 112.0
202.066345 148.0
202.108139 164.0
203.07428 252.0
203.10257 140.0
203.729935 196.0
204.043686 276.0
205.041748 172.0
205.07309 112.0
206.077637 192.0
206.84697 236.0
206.992996 152.0
207.07605 148.0
207.110428 160.0
207.216415 100.0
207.560379 160.0
209.054504 284.0
209.509155 100.0
209.939819 176.0
210.066223 1928.0
210.238678 144.0
211.072998 280.0
211.12851 136.0
212.045059 296.0
212.079041 148.0
212.350754 68.0
212.667023 152.0
213.051193 176.0
213.09668 156.0
213.367126 132.0
213.408295 104.0
213.585236 116.0
214.059647 396.0
214.10199 200.0
217.07843 128.0
217.327774 140.0
217.997299 144.0
218.458359 164.0
219.062973 608.0
219.180298 164.0
220.071213 372.0
220.387177 84.0
220.925278 48.0
221.057785 2328.0
221.280441 44.0
221.896713 48.0
222.061478 364.0
222.374329 100.0
223.185379 28.0
223.911514 236.0
224.083847 160.0
224.952164 112.0
225.055893 284.0
225.089401 3348.0
225.131317 236.0
225.191055 80.0
225.349396 56.0
225.737137 84.0
225.824722 124.0
226.059418 188.0
226.093735 596.0
226.231689 52.0
226.456284 124.0
226.651016 96.0
226.863815 68.0
227.07077 848.0
227.358749 48.0
227.397766 68.0
227.679993 72.0
227.854218 52.0
228.067581 176.0
228.931091 116.0
229.057602 228.0
229.220291 88.0
231.080276 584.0
231.625305 64.0
232.090363 208.0
232.170883 64.0
233.048203 148.0
233.081619 140.0
233.148483 228.0
235.106766 192.0
237.047897 316.0
237.078003 168.0
238.059402 860.0
238.408264 176.0
239.062286 532.0
240.87323 128.0
241.085312 284.0
241.980408 160.0
242.089386 164.0
242.200287 100.0
243.098511 328.0
243.149078 192.0
243.198746 72.0
244.077972 40.0
244.974365 172.0
245.081848 120.0
245.825577 64.0
246.09404 124.0
247.071548 244.0
247.949112 124.0
248.049423 136.0
248.082367 220.0
248.808624 96.0
249.08812 108.0
251.964447 76.0
252.075043 176.0
252.394318 48.0
252.748596 132.0
252.951157 176.0
253.042969 220.0
253.084564 3552.0
253.141129 168.0
253.267822 48.0
253.51178 52.0
253.638565 52.0
253.660751 32.0
253.746353 72.0
254.022263 28.0
254.089539 1708.0
254.184082 68.0
254.25708 84.0
254.402328 84.0
254.44754 68.0
254.657135 56.0
255.062698 340.0
255.09201 176.0
255.420013 92.0
255.56636 88.0
255.591812 56.0
255.967438 52.0
256.07254 140.0
256.098022 172.0
257.076813 212.0
257.108734 164.0
257.210876 96.0
258.646149 224.0
259.09375 588.0
259.126556 76.0
260.085449 116.0
260.763184 32.0
263.06958 80.0
263.098633 144.0
263.231842 80.0
264.06485 176.0
265.084656 152.0
265.635864 64.0
265.996063 40.0
266.09021 132.0
266.658722 56.0
268.108276 224.0
268.201569 116.0
268.258453 92.0
269.080597 332.0
270.087952 612.0
270.275452 80.0
270.439087 56.0
270.537292 196.0
270.799255 60.0
271.087585 108.0
273.094147 124.0
274.124115 160.0
275.149963 104.0
276.075043 208.0
276.412628 56.0
276.508606 68.0
277.079315 184.0
278.0896 152.0
278.11615 176.0
279.062988 152.0
279.099548 128.0
279.878204 72.0
281.091583 80.0
282.404572 136.0
283.093201 212.0
283.868164 100.0
284.087769 116.0
285.06662 208.0
285.111847 2292.0
285.772797 72.0
285.88385 40.0
286.072327 132.0
286.110413 480.0
287.079803 192.0
287.531891 128.0
288.126221 124.0
288.372894 60.0
289.706146 68.0
290.089111 140.0
291.106659 156.0
291.898834 48.0
292.087311 172.0
293.073212 196.0
294.072449 68.0
294.109985 36.0
295.090485 120.0
295.49408 140.0
297.893982 128.0
297.921448 108.0
298.131042 136.0
299.039032 88.0
300.003571 144.0
301.100861 96.0
303.058899 144.0
304.080597 200.0
307.143951 156.0
308.460449 152.0
311.077301 184.0
318.081238 128.0
319.111511 192.0
321.066528 144.0
323.127686 80.0
328.6539 108.0
335.085968 200.0
337.104828 188.0
343.131531 124.0
345.354706 68.0
351.119263 80.0
352.138184 72.0
356.213654 144.0
359.466766 128.0
368.362976 156.0
370.329163 104.0
399.593781 76.0
399.916107 68.0
409.908844 76.0
428.408325 48.0
440.839966 120.0
477.190857 92.0
486.914154 48.0
515.347595 112.0
536.508118 84.0
574.501404 72.0
594.232849 104.0
594.548218 172.0
604.353149 84.0
627.52478 52.0
657.700684 60.0
700.692627 220.0
722.546509 140.0
729.878784 160.0
798.755554 112.0
805.011902 196.0
821.46106 52.0
845.086426 124.0
870.173645 200.0
896.59906 152.0
896.795715 32.0
897.218994 164.0
911.302368 200.0
919.100159 152.0
924.393738 136.0
926.567566 144.0
927.658447 72.0
943.175598 224.0
955.360779 136.0
971.950684 184.0
978.738708 112.0
981.000427 188.0
983.133667 104.0
983.782837 168.0
988.645874 168.0
989.00885 176.0
1001.321899 140.0
1003.527588 152.0
1020.204529 188.0
1026.64209 144.0
1028.460449 128.0
1032.632935 160.0
1046.533325 180.0
1048.260376 196.0
1048.420776 112.0
1049.516724 32.0
1051.026123 132.0
1052.149292 100.0
1058.783813 152.0
1060.455444 140.0
1062.251587 148.0
1068.748657 104.0
1069.477661 196.0
1073.549805 232.0
1074.378174 124.0
1080.041992 200.0
1083.131714 100.0
1090.960693 160.0
1096.55603 152.0
1099.029053 108.0
1107.835938 188.0
1122.511963 188.0
1124.573608 148.0
1129.34436 144.0
1131.412231 140.0
1139.238892 180.0
1139.608398 200.0
1140.25354 248.0
1142.526367 176.0
1145.333618 160.0
1149.277588 124.0
1155.439819 56.0
1159.475708 148.0
1160.058594 64.0
1162.378296 72.0
1174.07959 192.0
1176.222168 188.0
1180.765991 192.0
1183.907471 168.0
1185.119995 156.0
1189.996826 136.0
1191.981934 136.0
1192.518066 160.0
1195.688843 88.0
1204.369751 136.0
1209.202881 196.0
1215.363892 120.0
1218.634277 176.0
1218.884521 116.0
1221.749146 148.0
1222.827759 200.0
1225.404419 152.0
1227.279419 160.0
1228.057373 232.0
1230.558838 192.0
1232.151367 204.0
1232.89209 228.0
1234.199341 140.0
1237.551025 108.0
1238.860718 148.0
1239.056885 164.0
1239.932861 164.0
1240.052002 200.0
1242.22583 112.0
1244.682373 124.0
1250.461304 124.0
1253.849121 84.0
1253.968872 224.0
1261.479614 164.0
1262.002808 196.0
1264.832642 216.0
1265.816895 56.0
1266.879272 200.0
1267.637451 196.0
1268.991333 72.0
1273.398315 148.0
1273.575928 204.0
1274.108765 164.0
1282.677124 212.0
1286.358154 124.0
1288.079224 196.0
1288.279175 148.0
1288.915039 132.0
1291.102661 160.0
1292.397461 188.0
1293.306396 144.0
1294.716919 168.0
1295.411743 156.0
1295.884521 180.0
1301.759521 132.0
1302.226318 200.0
1305.244873 196.0
1306.143799 172.0
1306.654663 56.0
1307.194336 136.0
1309.642212 148.0
1309.901489 84.0
1311.398438 148.0
1312.315918 216.0
1314.905762 156.0
1314.977905 184.0
1317.173096 184.0
1317.649902 80.0
1318.025635 164.0
1318.618164 112.0
1320.230469 184.0
1320.505371 136.0
1320.98999 132.0
1325.276123 196.0
1326.595215 140.0
1328.234131 152.0
1328.727417 108.0
1335.963623 192.0
1338.037842 128.0
1338.190796 204.0
1338.758789 176.0
1346.906006 44.0
1349.85144 132.0
1350.999756 228.0
1354.030273 140.0
1356.638916 212.0
1356.873535 152.0
1357.174194 120.0
1357.694824 84.0
1357.87085 160.0
1360.571289 216.0
1362.921753 184.0
1366.15686 236.0
1367.275391 156.0
1367.547729 196.0
1368.615112 160.0
1369.189575 80.0
1369.74939 276.0
1370.65564 180.0
1371.827515 220.0
1371.908691 120.0
1371.982422 164.0
1372.852417 132.0
1376.946655 212.0
1377.591187 224.0
1381.960815 64.0
1382.286377 112.0
1382.700806 192.0
1383.574341 144.0
1390.490479 152.0
1391.195679 204.0
1393.304932 148.0
1394.025635 116.0
1395.876709 196.0
1399.58252 172.0
1399.977295 48.0
1401.944092 144.0
1402.562744 196.0
1403.278442 140.0
1403.673584 76.0
1405.128174 128.0
1408.599731 20.0
1409.840088 128.0
1411.25293 172.0
1411.350098 136.0
1416.754028 204.0
1417.098755 140.0
1417.998047 144.0
1418.657715 212.0
1420.112427 164.0
1420.825073 120.0
1422.468628 44.0
1423.084351 228.0
1424.210815 144.0
1424.646484 116.0
1424.736694 200.0
1425.503052 144.0
1427.059082 180.0
1430.723267 116.0
1431.031982 52.0
1434.339355 96.0
1434.633301 172.0
1438.941406 204.0
1439.031982 60.0
1439.560547 220.0
1441.184692 204.0
1443.77002 116.0
1445.184692 124.0
1445.51001 128.0
1446.213989 172.0
1447.092163 128.0
1447.372314 136.0
1447.849365 136.0
1449.743408 116.0
1454.10437 204.0
1454.385254 160.0
1454.559814 196.0
1454.817993 36.0
1457.240723 168.0
1458.198242 116.0
1458.449097 72.0
1464.612671 32.0
1464.940308 192.0
1467.737549 180.0
1472.980835 244.0
1476.259888 196.0
1478.853516 116.0
1483.120117 128.0
1483.679688 228.0
1484.185791 164.0
1485.382202 88.0
1485.527954 224.0
1485.81189 152.0
1487.139526 104.0
1488.268066 96.0
1491.87915 148.0
1492.417358 84.0
1492.686523 196.0
1493.447876 184.0
1493.532593 176.0
1494.663452 104.0
1495.148315 200.0
1497.273315 212.0
1497.997314 160.0
1498.297852 136.0
1498.382568 220.0
1498.883423 248.0
1499.214844 224.0
1500.694824 40.0
1501.311768 144.0
1502.746582 160.0
1505.039062 104.0
1505.355713 48.0
