>compound MLS002153524-01!Capsazepine138977-28-3
>formula C19H21ClN2O2S
>ionization [M+H]+
>parentmass 377.107
#inchi InChI=1S/C19H21ClN2O2S/c20-16-5-3-13(4-6-16)7-8-21-19(25)22-9-1-2-14-10-17(23)18(24)11-15(14)12-22/h3-6,10-11,23-24H,1-2,7-9,12H2,(H,21,25)
#inchikey DRCMAZOSEIMCHM
#Ion_Source LC-ESI
#Instrument qTof
#Compound_Source NIH Pharmacologically Active Library
#PI Dorrestein
#Data_Collector VP/LMS
#Scan -1
#Precursor_MZ 377.107
#ExactMass 376.101
#Charge 1
#CAS_Number N/A
#Pubmed_ID N/A
#Smiles Oc1cc2CCCN(Cc2cc1O)C(=S)NCCc3ccc(Cl)cc3
#INCHI_AUX N/A
#Library_Class 1
#SpectrumID CCMSLIB00000085034
#IonMode Positive
#UpdateWorkflowName UPDATE-SINGLE-ANNOTATED-GOLD
#LibraryQualityString Gold
#TaskID d252d724072548979f1f6f1ced849daf
##Scan# 2158
#SpectrumFile p3-D11_GD11_01_18268.mzXML
#LibraryName Pharm_Active_Library.mgf
#MQScore -1
#Organism Pharm_Active_Library
#TIC_Query 0
#RT_Query -1
#MZErrorPPM -1
#SharedPeaks 0
#MassDiff 0
#LibMZ -1
#SpecMZ 377.107
#SpecCharge 0
#internalFilename spec-00000.mgf

>collision 10
44.95826 192.0
44.971607 116.0
45.418533 168.0
45.844753 200.0
46.139023 152.0
46.179588 152.0
46.419312 144.0
46.58083 80.0
46.768486 124.0
46.908794 180.0
47.217392 152.0
47.457043 140.0
47.727551 156.0
47.78257 156.0
47.869289 140.0
48.165829 80.0
48.255661 204.0
48.509018 148.0
49.187889 152.0
49.655243 144.0
50.04874 180.0
50.134674 192.0
50.330761 188.0
50.477726 188.0
50.598 140.0
51.059536 164.0
51.124634 212.0
51.830097 120.0
52.028034 136.0
52.081169 180.0
52.13493 192.0
52.466843 132.0
52.589458 80.0
52.608925 120.0
52.798962 256.0
53.421246 148.0
53.930168 172.0
54.29768 144.0
54.363701 164.0
54.378376 116.0
54.586922 156.0
55.02906 116.0
55.088139 168.0
55.735611 200.0
56.198704 112.0
56.394341 168.0
56.478077 136.0
56.588821 168.0
57.440968 152.0
57.590408 128.0
57.712822 136.0
57.900475 176.0
58.1385 164.0
58.200741 152.0
58.215927 172.0
58.285809 148.0
58.867729 208.0
58.879948 208.0
59.205711 144.0
59.956989 192.0
60.189938 220.0
60.810753 168.0
60.824722 108.0
60.902363 108.0
61.275726 188.0
61.294426 188.0
61.506535 44.0
61.731525 116.0
61.944389 184.0
62.151344 224.0
62.207848 184.0
62.883141 196.0
62.932079 160.0
63.096401 56.0
63.173893 184.0
63.473248 128.0
63.784435 140.0
63.972149 52.0
64.046989 216.0
64.243073 108.0
64.37236 192.0
64.624924 208.0
65.25367 196.0
66.006683 124.0
66.047119 188.0
66.289978 156.0
66.775406 196.0
66.892563 120.0
67.488068 184.0
67.65332 84.0
67.741753 220.0
67.764687 64.0
68.229172 84.0
68.364052 212.0
68.408493 160.0
68.627617 188.0
69.587296 164.0
70.411598 100.0
70.615509 116.0
71.339912 176.0
71.481194 164.0
71.652946 188.0
71.686646 188.0
72.120399 200.0
72.281067 116.0
72.380943 156.0
72.703041 140.0
74.391182 200.0
74.714272 232.0
74.845085 200.0
75.089798 176.0
75.447243 124.0
75.493935 228.0
75.788216 52.0
76.168159 96.0
76.29155 168.0
76.39241 160.0
76.486382 124.0
77.424004 204.0
77.646584 144.0
78.099747 152.0
78.14724 172.0
78.303917 184.0
78.453697 156.0
78.66893 164.0
78.861473 268.0
78.891525 192.0
79.070175 168.0
79.128593 196.0
79.318153 160.0
79.392624 208.0
79.649986 96.0
79.857956 168.0
80.346054 236.0
80.363892 236.0
80.494202 112.0
80.544212 152.0
80.948418 180.0
81.464981 52.0
82.28804 152.0
82.450615 208.0
82.745468 124.0
83.63501 84.0
84.306198 144.0
84.802193 188.0
85.145287 140.0
85.857536 156.0
86.273003 220.0
86.709846 192.0
86.789566 80.0
86.910133 124.0
87.0345 140.0
87.197975 144.0
87.765778 184.0
88.019554 100.0
88.187691 164.0
88.425232 80.0
88.745575 172.0
89.034561 240.0
89.732689 136.0
89.821327 140.0
89.851509 108.0
89.945869 176.0
90.174423 180.0
90.53389 40.0
90.878899 152.0
90.916847 200.0
91.052879 628.0
91.456635 152.0
91.509933 168.0
91.58992 316.0
91.820549 172.0
92.05529 148.0
92.345787 136.0
92.59269 100.0
92.61467 212.0
92.851425 144.0
93.04908 144.0
93.208504 164.0
93.4123 188.0
93.660622 204.0
93.79937 180.0
94.041626 148.0
94.167915 132.0
94.194954 200.0
94.231659 140.0
94.343758 188.0
95.00415 44.0
95.888908 200.0
96.081963 164.0
96.9188 204.0
96.97171 124.0
97.597961 212.0
97.975853 164.0
98.009354 164.0
98.172966 168.0
98.571739 148.0
99.23484 32.0
99.747047 244.0
99.874313 136.0
100.206772 156.0
100.316383 44.0
101.550156 148.0
101.851234 124.0
102.055618 212.0
102.642189 148.0
102.686554 176.0
102.763214 140.0
103.011536 144.0
103.053566 2232.0
103.098419 188.0
103.23185 216.0
103.29657 32.0
103.320847 192.0
103.636696 28.0
103.717766 36.0
103.798859 164.0
103.932739 168.0
104.058014 376.0
105.070114 256.0
105.161942 52.0
105.814056 160.0
105.867302 252.0
105.910309 152.0
106.141899 40.0
106.264969 264.0
106.373741 196.0
106.498947 160.0
107.039673 148.0
107.082481 240.0
107.691597 116.0
107.737045 124.0
107.873436 56.0
108.003716 92.0
108.055435 152.0
108.082329 196.0
108.314209 204.0
109.062119 712.0
109.169327 132.0
109.289978 116.0
109.366982 132.0
109.842079 188.0
110.219185 192.0
111.078369 212.0
111.185379 128.0
111.233658 224.0
111.412163 180.0
111.63076 144.0
111.69175 180.0
112.068596 64.0
114.1175 80.0
114.272766 204.0
114.888489 108.0
115.052986 352.0
116.063751 164.0
116.124893 160.0
116.309425 60.0
116.853134 204.0
116.878952 52.0
117.068123 1476.0
117.227806 148.0
117.251511 104.0
117.342049 96.0
117.508125 36.0
117.534012 128.0
117.756378 196.0
117.933548 128.0
118.059669 172.0
118.07518 356.0
118.262321 172.0
118.719467 224.0
119.047562 332.0
119.084084 296.0
119.77578 212.0
119.919594 200.0
120.059128 152.0
120.08094 88.0
121.055664 116.0
121.073181 224.0
121.990356 236.0
122.082703 160.0
122.208092 144.0
122.342346 196.0
122.705864 44.0
122.924232 236.0
123.0466 896.0
123.158257 96.0
123.425674 120.0
123.615913 204.0
123.660179 180.0
123.726585 176.0
123.753151 144.0
123.866104 172.0
124.050026 136.0
124.069984 192.0
124.384995 216.0
124.702629 172.0
124.818237 152.0
124.864937 192.0
125.635658 136.0
126.088943 160.0
126.590073 236.0
126.982269 196.0
127.029373 196.0
127.440224 176.0
127.748238 192.0
127.820763 172.0
128.059616 184.0
128.359238 144.0
128.701599 152.0
129.017914 180.0
129.567871 200.0
130.034988 72.0
130.06572 168.0
130.08493 152.0
130.603027 120.0
130.937607 120.0
131.04924 164.0
131.441437 184.0
131.500763 120.0
131.598923 144.0
131.884491 232.0
132.071991 152.0
132.087997 136.0
132.152054 72.0
132.213852 164.0
133.063736 348.0
133.101013 160.0
133.300873 188.0
133.585968 112.0
133.638885 176.0
133.809204 184.0
133.86908 192.0
134.069138 184.0
134.091965 140.0
134.420029 196.0
135.032242 136.0
135.0793 1940.0
135.678299 160.0
135.76178 176.0
136.021637 104.0
136.080902 320.0
136.302658 192.0
136.469452 200.0
136.609573 76.0
136.667725 108.0
136.775604 272.0
136.793411 232.0
136.812027 184.0
136.879562 204.0
136.912155 200.0
137.010498 144.0
137.059402 41032.0
137.113998 168.0
137.159698 132.0
137.173965 88.0
137.215958 104.0
137.249451 140.0
137.273376 148.0
137.296082 168.0
137.333191 180.0
137.371338 76.0
137.415665 76.0
137.449844 80.0
137.481003 56.0
137.532501 60.0
137.593048 72.0
137.62738 72.0
137.686447 84.0
137.73082 100.0
137.747177 64.0
137.812592 80.0
137.88504 124.0
138.034973 144.0
138.061401 3272.0
138.266251 88.0
138.383301 40.0
138.505081 72.0
138.737076 76.0
138.781616 100.0
138.849625 100.0
138.959885 120.0
138.997421 256.0
139.030014 7004.0
139.061508 312.0
139.100693 144.0
139.134933 108.0
139.211044 76.0
139.455383 72.0
139.521194 40.0
139.549408 88.0
139.789337 68.0
139.829346 56.0
139.884308 104.0
139.984726 120.0
140.032776 632.0
140.140198 108.0
140.444305 92.0
140.47261 48.0
140.706253 48.0
140.864487 40.0
141.02774 1428.0
141.088989 120.0
141.178848 68.0
141.202499 112.0
141.282913 40.0
142.029739 152.0
143.227142 48.0
143.472595 116.0
144.100281 224.0
144.748505 96.0
144.949722 252.0
145.06398 2020.0
145.595032 84.0
145.669495 68.0
146.065308 584.0
146.841736 152.0
147.017853 52.0
147.041992 192.0
147.075012 176.0
148.05014 320.0
148.173691 124.0
148.678055 40.0
149.056244 152.0
149.222183 64.0
149.441086 60.0
150.06218 160.0
150.087616 320.0
151.09285 204.0
151.462509 100.0
152.065689 180.0
152.092682 204.0
154.044098 184.0
154.88649 204.0
155.050018 140.0
156.033005 148.0
156.061203 200.0
156.383759 68.0
157.12886 112.0
159.076141 172.0
160.074066 60.0
161.047577 164.0
162.055862 340.0
162.100037 44.0
162.734177 80.0
163.074753 2060.0
163.229675 100.0
163.255096 168.0
163.323776 60.0
164.022354 680.0
164.075027 416.0
164.97876 156.0
165.032455 164.0
165.088715 192.0
165.303589 160.0
166.019348 336.0
166.410934 44.0
167.026733 180.0
168.060806 176.0
168.313766 124.0
169.086731 156.0
170.053482 184.0
170.162506 132.0
172.883881 188.0
175.06546 124.0
178.030045 140.0
178.082458 400.0
179.086166 208.0
180.10051 1208.0
181.105438 188.0
181.271317 68.0
181.719116 72.0
182.780472 72.0
183.127762 52.0
184.858322 40.0
186.094376 184.0
186.224731 84.0
187.056595 112.0
188.540573 104.0
192.050217 476.0
193.038193 176.0
195.039948 180.0
198.007431 144.0
198.059128 176.0
199.026688 132.0
200.007233 444.0
200.064148 96.0
207.324585 48.0
208.85202 112.0
212.465897 68.0
214.364578 120.0
215.039017 156.0
216.043472 168.0
219.043671 72.0
220.040649 528.0
222.043793 144.0
222.07486 144.0
225.016556 256.0
227.546494 60.0
238.126953 96.0
242.706696 120.0
246.060822 160.0
247.070312 236.0
258.160645 184.0
275.110657 92.0
292.317078 80.0
298.708344 132.0
299.979034 152.0
300.39975 96.0
300.931213 80.0
301.072815 200.0
315.112549 176.0
317.133209 272.0
331.18689 172.0
334.454834 100.0
337.416992 72.0
344.111206 144.0
354.410675 160.0
360.234711 144.0
365.200439 64.0
377.078247 200.0
378.100067 124.0
379.103088 124.0
379.261993 96.0
380.095825 124.0
403.083069 144.0
404.070679 104.0
410.182983 84.0
423.15506 112.0
464.796448 88.0
475.208344 64.0
488.40625 32.0
628.80481 100.0
682.057739 96.0
695.650085 40.0
804.631409 96.0
811.426331 188.0
820.631409 224.0
842.383118 152.0
861.840515 216.0
890.555054 172.0
897.786316 52.0
906.742188 200.0
907.545471 112.0
912.408752 64.0
929.174622 152.0
935.702087 192.0
944.312439 168.0
947.697754 180.0
956.664612 136.0
993.01709 172.0
993.751038 112.0
997.349487 212.0
1002.60498 152.0
1007.943787 176.0
1015.483704 216.0
1028.859619 160.0
1036.913086 204.0
1038.054199 104.0
1054.710083 96.0
1064.097168 172.0
1064.902344 196.0
1068.776978 208.0
1076.841187 184.0
1086.758911 216.0
1090.955688 136.0
1097.341919 124.0
1097.453979 176.0
1097.895752 128.0
1100.733398 140.0
1101.836548 68.0
1103.508667 140.0
1116.605591 324.0
1140.092407 184.0
1145.973633 156.0
1150.053589 176.0
1154.364014 192.0
1163.171875 168.0
1164.61145 148.0
1167.098755 172.0
1169.466187 232.0
1175.190674 160.0
1178.734619 172.0
1179.739258 104.0
1183.091431 164.0
1183.379028 232.0
1192.248657 200.0
1194.441895 156.0
1200.406372 204.0
1203.297607 160.0
1213.461304 108.0
1217.24292 232.0
1217.347046 44.0
1221.044312 176.0
1228.797485 108.0
1230.688965 132.0
1237.219238 172.0
1245.964722 84.0
1250.071045 136.0
1250.584839 192.0
1250.950928 332.0
1251.584473 152.0
1252.302856 284.0
1253.310303 168.0
1254.430908 184.0
1259.645874 232.0
1261.702271 72.0
1268.236206 200.0
1269.569092 192.0
1281.005493 180.0
1286.253906 140.0
1292.020996 104.0
1299.127808 180.0
1304.887695 136.0
1310.828491 216.0
1313.861572 156.0
1318.164917 160.0
1321.230591 188.0
1327.046509 92.0
1334.139771 68.0
1334.190674 208.0
1336.663574 108.0
1337.442383 152.0
1338.876709 144.0
1341.609131 176.0
1342.425781 144.0
1345.410034 124.0
1351.498291 128.0
1351.79834 180.0
1352.091064 192.0
1354.016602 232.0
1354.609863 200.0
1355.144775 112.0
1358.326538 252.0
1359.529785 148.0
1359.933472 212.0
1360.161011 132.0
1361.144775 172.0
1363.826416 240.0
1366.753418 164.0
1368.313843 156.0
1368.380127 176.0
1378.53833 216.0
1380.851196 200.0
1381.835083 252.0
1382.915527 136.0
1383.515137 184.0
1385.048096 180.0
1386.366089 180.0
1387.211792 152.0
1388.546509 132.0
1389.139893 192.0
1390.89856 228.0
1391.834106 132.0
1392.442993 180.0
1397.371582 160.0
1401.6604 204.0
1402.107544 112.0
1402.845459 72.0
1403.971436 156.0
1406.09021 172.0
1407.38916 172.0
1410.369995 124.0
1410.482178 56.0
1410.758667 128.0
1410.900757 304.0
1413.765625 140.0
1416.603394 180.0
1423.03064 180.0
1426.020508 120.0
1433.531494 236.0
1433.71228 176.0
1439.966797 40.0
1445.258545 132.0
1450.726929 292.0
1450.802734 172.0
1451.128662 156.0
1456.722046 96.0
1458.218994 116.0
1458.272095 84.0
1459.108398 200.0
1460.005615 160.0
1460.849854 76.0
1462.729492 164.0
1463.894409 188.0
1464.854126 188.0
1465.539795 220.0
1467.163208 76.0
1472.695679 156.0
1473.90271 40.0
1479.210571 224.0
1482.910278 224.0
1483.339478 136.0
1485.172119 128.0
1488.648926 120.0
1489.109741 180.0
1490.1698 136.0
1490.623169 148.0
1495.660767 216.0
1496.893555 172.0
1498.556396 120.0
1499.589111 148.0
1501.41626 212.0
1502.318726 152.0
1503.067139 236.0
1504.410156 160.0
1505.020142 160.0
