>compound MLS001160502-01!
>formula C24H24N2O5
>ionization [M+H]+
>parentmass 421.175598
#inchi InChI=1S/C24H24N2O5/c1-13-6-19(27)23-14(2)17(24(30)31-20(23)7-13)9-22(29)25-10-15-8-16(12-25)18-4-3-5-21(28)26(18)11-15/h3-7,15-16,27H,8-12H2,1-2H3/t15-,16+/m1/s1
#inchikey FFRHJQOTBHWMEG
#Ion_Source LC-ESI
#Instrument qTof
#Compound_Source NIH Natural Product Library
#PI Dorrestein
#Data_Collector VVP/LMS
#Scan -1
#Precursor_MZ 421.176
#ExactMass 420.169
#Charge 1
#CAS_Number N/A
#Pubmed_ID N/A
#Smiles Cc1cc(O)c2c(C)c(CC(=O)N3C[C@H]4C[C@@H](C3)c5cccc(=O)n5C4)c(=O)oc2c1
#INCHI_AUX N/A
#Library_Class 1
#SpectrumID CCMSLIB00000080180
#IonMode Positive
#UpdateWorkflowName UPDATE-SINGLE-ANNOTATED-GOLD
#LibraryQualityString Gold
#TaskID b1d8e8f6646f4e71acdff9ca3d919d08
##Scan# 1696
#SpectrumFile p2-B05_GB5_01_17993.mzXML
#LibraryName NIH_Natural_Products_Library.mgf
#MQScore -1
#Organism NIH_Natural_Products_Library
#TIC_Query 0
#RT_Query -1
#MZErrorPPM -1
#SharedPeaks 0
#MassDiff 0
#LibMZ -1
#SpecMZ 421.176
#SpecCharge 0
#internalFilename spec-00000.mgf

>collision 10
95.100471 160.0
95.257751 136.0
95.364624 196.0
95.561035 80.0
95.603844 220.0
95.664177 184.0
95.788811 252.0
95.964203 152.0
95.987602 168.0
96.055862 108.0
96.169037 140.0
96.274025 180.0
96.376038 152.0
96.394379 228.0
96.550018 196.0
96.777008 172.0
96.82988 116.0
96.855339 104.0
97.023766 128.0
97.059158 120.0
97.212166 156.0
97.33387 204.0
97.388863 92.0
97.432076 176.0
97.548019 120.0
97.632568 176.0
97.664032 148.0
98.010521 112.0
98.042053 356.0
98.059792 164.0
98.182022 148.0
98.255005 132.0
98.438568 172.0
98.558777 140.0
98.574867 168.0
98.606491 128.0
98.69149 180.0
98.779716 204.0
98.80027 204.0
98.820053 164.0
98.83757 160.0
98.909111 168.0
98.92495 200.0
98.956619 104.0
99.087341 72.0
99.228058 212.0
99.269691 160.0
99.33316 216.0
99.440308 204.0
99.537582 120.0
99.740227 168.0
99.89135 168.0
100.020699 188.0
100.074448 244.0
100.335442 160.0
100.506973 208.0
100.74855 136.0
100.902435 84.0
101.074448 136.0
101.212563 160.0
101.256622 184.0
101.35495 232.0
101.400871 132.0
101.432945 192.0
101.587349 124.0
101.613426 220.0
101.65155 100.0
101.762245 192.0
101.834244 180.0
101.914597 176.0
101.932678 88.0
101.970863 196.0
101.988449 160.0
102.019104 164.0
102.258476 180.0
102.288666 160.0
102.351074 140.0
102.451782 188.0
102.619057 236.0
102.719894 168.0
102.898727 104.0
103.054276 740.0
103.117661 76.0
103.342125 160.0
103.467613 332.0
103.526329 200.0
103.674217 136.0
103.714752 84.0
103.809174 188.0
103.874939 172.0
104.016983 168.0
104.047432 312.0
104.27494 144.0
104.323723 148.0
104.476242 148.0
104.49659 180.0
104.533218 172.0
104.586128 136.0
104.806076 188.0
104.965065 196.0
105.070808 2684.0
105.175919 204.0
105.211945 188.0
105.737335 128.0
105.810959 148.0
105.853958 196.0
105.882629 100.0
106.011696 108.0
106.075348 208.0
106.302887 164.0
106.343933 104.0
106.394279 160.0
106.517174 264.0
106.629417 128.0
106.855614 132.0
106.935867 220.0
107.00174 176.0
107.048935 260.0
107.069687 136.0
107.087479 272.0
107.129272 164.0
107.222145 148.0
107.236572 156.0
107.290169 112.0
107.42421 164.0
107.550323 172.0
107.603752 220.0
107.638855 76.0
107.938477 228.0
108.242661 136.0
108.536903 84.0
108.626083 176.0
108.650978 260.0
108.725677 168.0
108.752655 216.0
108.995636 144.0
109.03096 204.0
109.096436 200.0
109.259689 156.0
109.296181 192.0
109.365814 180.0
109.405365 248.0
109.609482 212.0
109.757477 148.0
109.865929 104.0
109.984871 164.0
110.124771 192.0
110.220863 192.0
110.271019 92.0
110.308647 148.0
110.423645 156.0
110.529755 188.0
110.584747 200.0
110.649643 148.0
110.727119 192.0
110.934555 132.0
110.974388 80.0
111.102325 148.0
111.335312 144.0
111.440338 156.0
111.499176 216.0
111.520195 192.0
111.619408 208.0
111.77256 160.0
111.787285 208.0
111.81675 204.0
111.884109 252.0
112.198013 120.0
112.238068 176.0
112.273918 180.0
112.375168 112.0
112.449028 116.0
112.548248 144.0
112.746819 168.0
112.782745 132.0
112.883041 244.0
112.926521 152.0
113.011955 172.0
113.114838 188.0
113.148491 156.0
113.178352 164.0
113.708321 112.0
113.750771 140.0
113.788986 244.0
113.935524 232.0
114.141693 36.0
114.454483 180.0
114.501335 164.0
114.569496 132.0
114.827415 136.0
114.908478 212.0
114.966087 124.0
115.028893 156.0
115.059593 332.0
115.209503 152.0
115.226593 120.0
115.352676 168.0
115.438202 164.0
115.476692 164.0
115.566544 148.0
115.887703 132.0
115.962708 136.0
116.063347 372.0
116.115471 144.0
116.194298 124.0
116.224335 156.0
116.269402 184.0
116.391762 68.0
116.744179 120.0
116.853279 176.0
117.059364 60.0
117.691772 160.0
117.862953 148.0
117.916977 192.0
117.999123 72.0
118.172142 136.0
118.385803 164.0
118.689812 132.0
119.054832 188.0
119.085052 504.0
119.362953 192.0
119.596413 64.0
119.624031 168.0
119.90937 200.0
119.926804 192.0
119.976891 180.0
120.056915 860.0
120.090332 136.0
120.157959 112.0
120.190681 116.0
120.286713 148.0
120.312904 188.0
120.402428 60.0
120.826485 236.0
120.953407 84.0
120.990623 140.0
121.030037 196.0
121.081909 180.0
121.207909 176.0
121.321426 180.0
121.356506 128.0
121.417908 188.0
121.617561 144.0
121.654877 228.0
121.841545 164.0
122.065002 144.0
122.188911 140.0
122.257126 60.0
122.340759 152.0
122.468483 44.0
122.684425 204.0
122.777039 172.0
122.880707 192.0
122.960152 164.0
123.010918 80.0
123.157272 156.0
123.322365 164.0
123.348885 100.0
123.393105 164.0
123.437325 200.0
123.607651 40.0
123.764809 144.0
123.802452 128.0
123.835678 112.0
123.877762 120.0
123.981895 52.0
124.07943 144.0
124.179214 188.0
124.401108 176.0
124.433723 208.0
124.525452 164.0
124.587646 220.0
124.796562 192.0
124.9478 88.0
125.019005 96.0
125.119164 160.0
125.248322 156.0
125.431038 252.0
125.493462 104.0
125.700905 172.0
125.977753 152.0
126.011269 148.0
126.05365 440.0
126.266098 116.0
126.30188 152.0
126.37571 144.0
126.570442 188.0
126.60627 164.0
126.657784 144.0
126.803421 176.0
126.888603 204.0
126.971573 48.0
127.035156 148.0
127.128609 208.0
127.409271 136.0
127.43174 164.0
127.744232 108.0
127.817917 224.0
127.897247 156.0
128.021072 232.0
128.068146 152.0
128.235107 44.0
128.494431 196.0
128.751755 240.0
129.070999 392.0
129.314697 184.0
129.504898 188.0
129.556992 208.0
129.597778 152.0
129.736023 80.0
129.960556 148.0
130.010468 36.0
130.068665 308.0
130.103531 160.0
130.239777 224.0
130.262497 36.0
130.330658 164.0
130.630753 196.0
130.785492 176.0
131.019073 132.0
131.047379 132.0
131.09343 220.0
131.184113 112.0
131.241119 148.0
131.382523 168.0
131.430435 160.0
131.528564 164.0
131.569656 116.0
131.820908 132.0
131.859756 136.0
132.015213 184.0
132.056549 392.0
132.089645 160.0
132.147873 56.0
132.227966 100.0
132.342422 184.0
132.461517 108.0
132.49588 172.0
132.521088 144.0
132.621918 152.0
132.670044 160.0
132.979721 148.0
133.057022 408.0
133.204742 184.0
133.308121 204.0
133.406967 148.0
133.43454 148.0
133.692169 140.0
133.952347 180.0
134.001953 152.0
134.06076 148.0
134.517303 140.0
134.542694 144.0
134.611969 72.0
134.662766 156.0
134.708969 80.0
134.900772 148.0
134.949326 164.0
134.970123 220.0
135.015747 116.0
135.081024 15952.0
135.138977 32.0
135.206085 92.0
135.336044 144.0
135.372772 132.0
135.388977 60.0
135.410736 112.0
135.50943 60.0
135.613708 136.0
135.646164 160.0
135.773682 60.0
135.864136 52.0
135.940704 164.0
136.054443 212.0
136.083969 620.0
136.117126 72.0
136.14267 108.0
136.463348 132.0
136.521469 124.0
136.586594 48.0
136.763428 72.0
137.189713 92.0
137.259659 96.0
137.555954 192.0
137.700729 136.0
137.927368 140.0
138.023224 220.0
138.130798 148.0
138.257141 168.0
138.339066 116.0
138.421005 108.0
138.601379 196.0
138.78186 96.0
139.124405 164.0
139.227707 196.0
139.291122 60.0
139.448547 132.0
139.775436 104.0
139.812408 124.0
139.959045 100.0
140.107422 80.0
140.156891 104.0
140.354889 104.0
140.420929 228.0
140.489334 128.0
140.538879 160.0
140.62619 128.0
140.900116 156.0
140.973358 236.0
140.989899 92.0
141.070755 256.0
141.162476 104.0
141.207413 124.0
141.25708 164.0
141.273178 152.0
141.560028 136.0
141.702148 68.0
141.832489 176.0
141.903595 192.0
142.069443 220.0
142.128922 180.0
142.191772 132.0
142.29982 40.0
142.801224 176.0
142.825012 188.0
143.053848 120.0
143.22728 224.0
143.263 152.0
143.296356 132.0
143.375 124.0
143.467957 112.0
143.613419 188.0
143.634872 116.0
143.656342 104.0
143.72554 132.0
143.896057 200.0
143.923645 156.0
144.056305 740.0
144.100403 164.0
144.145081 160.0
144.160141 232.0
144.358551 172.0
144.657623 172.0
144.846786 200.0
145.06279 156.0
145.208725 232.0
145.251892 232.0
145.283081 104.0
145.472656 224.0
145.520676 76.0
145.537491 164.0
145.698395 104.0
145.786377 156.0
145.88826 208.0
145.907486 180.0
146.062729 752.0
146.097473 112.0
146.140778 132.0
146.164841 92.0
146.257584 164.0
146.3237 140.0
146.386307 64.0
146.412796 208.0
146.603104 208.0
146.61998 184.0
146.663361 124.0
146.706757 132.0
146.908401 188.0
147.079742 716.0
147.115219 160.0
147.143417 200.0
147.21344 144.0
147.247253 164.0
147.270523 132.0
147.621841 100.0
147.708908 144.0
147.887955 168.0
147.929108 136.0
147.96785 164.0
148.075836 5392.0
148.113144 148.0
148.139587 144.0
148.321533 132.0
148.340912 136.0
148.367584 60.0
148.411224 144.0
148.488831 132.0
148.607697 164.0
148.804291 100.0
148.974289 64.0
149.077515 756.0
149.258652 200.0
149.343765 116.0
149.407013 68.0
149.523804 60.0
149.815994 128.0
149.83548 196.0
149.971954 148.0
150.06459 136.0
150.082581 180.0
150.176758 132.0
150.201157 180.0
150.230423 256.0
150.274338 36.0
150.306061 196.0
150.389038 116.0
150.476913 116.0
150.5233 168.0
150.713837 180.0
150.821365 156.0
150.9216 224.0
151.369385 88.0
151.501633 228.0
151.866882 120.0
151.898758 184.0
152.095062 104.0
152.188354 156.0
152.212906 200.0
152.259567 280.0
152.340622 72.0
152.406952 96.0
152.512634 160.0
152.566711 248.0
152.679825 80.0
153.031708 260.0
153.100647 56.0
153.270615 272.0
153.376587 152.0
153.800842 120.0
154.186142 172.0
154.282547 156.0
154.438339 164.0
154.492752 180.0
154.64122 168.0
154.688248 164.0
154.725388 120.0
154.762085 184.0
154.92598 168.0
155.116791 184.0
155.289093 144.0
155.677521 180.0
155.702347 148.0
156.080078 392.0
156.373627 68.0
156.490631 76.0
157.06955 184.0
157.148621 192.0
157.166092 176.0
157.183548 96.0
157.270905 148.0
157.398224 184.0
157.538086 268.0
157.628036 160.0
157.963058 148.0
158.040604 176.0
158.061798 240.0
158.300934 80.0
158.330978 132.0
158.353531 176.0
158.503082 160.0
159.005386 160.0
159.079971 860.0
159.27153 164.0
159.602768 244.0
159.638458 136.0
159.746613 208.0
159.766739 148.0
160.005829 128.0
160.076477 1644.0
160.151871 112.0
160.277847 180.0
160.461838 212.0
160.534958 44.0
160.643417 124.0
160.700531 156.0
160.754425 68.0
160.79985 140.0
160.842758 68.0
160.923538 188.0
161.027084 204.0
161.081512 232.0
161.125595 216.0
161.168549 108.0
161.246887 112.0
161.345459 244.0
161.60849 140.0
161.65152 100.0
162.011047 176.0
162.091248 164.0
162.185898 104.0
162.221115 188.0
162.302505 116.0
162.33548 140.0
162.414093 88.0
162.434387 180.0
162.46991 36.0
162.510498 156.0
162.571548 260.0
162.700851 168.0
162.774475 116.0
162.896393 160.0
163.033585 352.0
163.051376 172.0
163.129257 276.0
163.208984 92.0
163.244583 92.0
163.435364 192.0
163.514252 96.0
163.552429 152.0
163.710281 128.0
163.740845 180.0
163.850372 140.0
163.963837 40.0
163.987976 72.0
164.179184 152.0
164.403687 196.0
164.750931 152.0
165.011612 280.0
165.055084 72.0
165.572006 128.0
165.589935 180.0
165.62323 144.0
165.707764 180.0
165.782074 36.0
165.8564 140.0
165.92305 116.0
165.988068 164.0
166.021271 196.0
166.051254 128.0
166.105118 140.0
166.13591 156.0
166.544052 120.0
166.633957 200.0
166.703339 168.0
167.109604 272.0
167.323227 252.0
168.050034 204.0
168.49411 160.0
168.574203 248.0
168.731873 156.0
168.941345 128.0
169.07692 172.0
169.308899 156.0
169.456543 168.0
169.736481 104.0
169.847992 212.0
170.167191 116.0
170.200058 164.0
170.307419 184.0
170.579132 204.0
170.681656 28.0
170.827301 212.0
170.915756 168.0
170.973007 140.0
171.053696 216.0
171.087524 144.0
171.206558 96.0
171.267212 124.0
171.527771 180.0
171.663345 84.0
171.752029 128.0
171.90976 148.0
172.077728 176.0
172.099945 188.0
172.437927 228.0
172.475311 180.0
172.496216 160.0
172.530197 192.0
172.6008 128.0
172.645248 172.0
173.090118 152.0
173.19487 200.0
173.378265 140.0
173.435928 168.0
173.462143 120.0
173.501465 232.0
173.59848 204.0
173.692902 168.0
173.878952 228.0
174.092453 924.0
174.378189 56.0
174.4272 112.0
174.512253 140.0
174.612183 156.0
174.738449 120.0
174.762131 140.0
174.814758 212.0
174.96109 228.0
175.012177 104.0
175.075409 4212.0
175.117508 168.0
175.140335 48.0
175.375717 60.0
175.411636 128.0
175.48381 180.0
175.549728 60.0
175.668411 128.0
175.741135 64.0
175.797699 96.0
175.821442 48.0
175.855759 60.0
175.929672 96.0
175.977188 160.0
176.081039 324.0
176.172623 52.0
176.228104 168.0
176.304733 132.0
176.399658 212.0
176.502991 196.0
176.674911 208.0
176.738403 28.0
176.807205 156.0
176.891907 348.0
176.926315 48.0
177.058716 68.0
177.078873 164.0
177.167313 200.0
177.299789 260.0
177.392563 80.0
177.420975 268.0
177.450882 28.0
177.561493 180.0
177.821182 192.0
177.954987 136.0
177.973587 32.0
178.045273 140.0
178.087814 160.0
178.350815 96.0
178.669922 96.0
178.933395 236.0
179.324982 208.0
179.458267 92.0
179.874435 180.0
180.10141 180.0
180.454163 216.0
180.512985 120.0
180.56279 232.0
180.636017 192.0
180.751053 156.0
181.12587 132.0
181.27858 108.0
181.490341 144.0
181.514465 204.0
181.731735 136.0
181.903488 176.0
181.930344 132.0
182.059219 184.0
182.143219 224.0
182.585464 192.0
182.631683 80.0
182.849609 176.0
182.962677 116.0
183.199661 136.0
183.275391 184.0
183.318207 140.0
183.881851 144.0
183.96283 184.0
184.080917 400.0
184.26799 160.0
184.322037 184.0
184.34906 148.0
184.373383 128.0
184.424057 160.0
184.976532 112.0
185.033386 148.0
185.063171 160.0
185.095657 156.0
185.26358 108.0
185.461395 84.0
185.504761 96.0
186.01593 156.0
186.040634 148.0
186.202087 92.0
186.384094 144.0
186.917053 264.0
187.023193 168.0
187.066742 156.0
187.194717 100.0
187.58432 80.0
187.663376 148.0
187.709732 244.0
187.788818 92.0
187.987976 112.0
188.045288 168.0
188.116257 128.0
188.159943 148.0
188.403 104.0
188.441238 68.0
188.747375 128.0
188.878647 352.0
188.9142 184.0
189.07016 128.0
189.102051 1420.0
189.17691 184.0
189.222458 188.0
189.242615 136.0
189.354889 164.0
189.593246 60.0
189.628876 212.0
189.733032 108.0
189.782379 48.0
189.831741 88.0
189.864655 116.0
190.0896 188.0
190.227783 180.0
190.320175 116.0
190.399124 192.0
190.500336 200.0
190.592102 64.0
190.66629 156.0
190.726761 92.0
190.751495 264.0
190.820236 208.0
190.891724 104.0
190.983795 284.0
191.119003 25028.0
191.199829 60.0
191.24733 200.0
191.274139 88.0
191.312683 48.0
191.334702 72.0
191.378754 188.0
191.455856 180.0
191.498795 180.0
191.51741 104.0
191.551956 148.0
191.601852 56.0
191.706543 88.0
191.778214 184.0
191.825058 64.0
192.02359 188.0
192.086441 56.0
192.121597 2880.0
192.269135 40.0
192.333847 152.0
192.418198 120.0
192.467896 52.0
192.517593 108.0
192.539688 148.0
192.615707 160.0
192.672272 92.0
192.710953 60.0
192.846359 180.0
192.915771 176.0
193.12912 408.0
193.167114 164.0
193.261169 80.0
193.368637 120.0
193.376617 100.0
193.390396 92.0
193.395218 164.0
193.43071 76.0
193.457672 112.0
193.485916 136.0
193.526886 76.0
193.560181 144.0
193.572495 76.0
193.580246 104.0
193.612732 156.0
193.640427 64.0
193.671585 64.0
193.692322 108.0
193.742905 156.0
193.939194 332.0
194.081039 160.0
194.130951 132.0
194.433334 96.0
194.503265 164.0
194.524933 96.0
194.635025 200.0
194.849854 176.0
195.108307 96.0
195.155579 232.0
195.211182 108.0
195.411453 140.0
195.798386 120.0
196.199631 84.0
196.252594 192.0
196.364136 84.0
196.470139 124.0
196.52594 204.0
196.830185 168.0
196.87207 160.0
197.050842 136.0
197.087158 132.0
197.159821 192.0
197.422607 120.0
197.442184 132.0
197.514893 80.0
197.545227 180.0
197.624008 148.0
198.085236 160.0
198.14476 144.0
198.276459 140.0
198.346527 88.0
198.469879 188.0
198.893509 164.0
198.965408 52.0
199.137787 124.0
199.832123 128.0
199.896835 140.0
199.955933 112.0
200.057373 224.0
200.138916 92.0
200.243103 132.0
200.290985 112.0
200.338882 108.0
200.395218 92.0
200.440308 56.0
200.677078 140.0
200.764481 228.0
200.840637 160.0
200.863205 112.0
200.911163 200.0
201.165131 136.0
201.281418 108.0
201.334549 172.0
201.441879 112.0
201.583542 144.0
201.608582 140.0
201.636841 56.0
201.749908 56.0
201.778168 136.0
201.827591 132.0
201.860168 156.0
201.902588 128.0
201.96199 88.0
202.035538 136.0
202.085709 336.0
202.119583 124.0
202.216629 112.0
202.2789 140.0
202.320709 192.0
202.359711 164.0
202.405151 196.0
202.482758 60.0
202.502594 144.0
202.539413 148.0
202.632889 160.0
202.684006 212.0
202.710037 284.0
202.737732 120.0
202.77832 236.0
202.805756 168.0
202.858795 264.0
202.91098 100.0
202.94989 180.0
202.992325 188.0
203.01886 116.0
203.071579 98368.0
203.119888 308.0
203.178177 108.0
203.21077 132.0
203.234421 76.0
203.27449 124.0
203.357361 108.0
203.38382 40.0
203.424118 80.0
203.458374 112.0
203.48941 180.0
203.543655 76.0
203.579102 48.0
203.59967 208.0
203.662643 80.0
203.721039 108.0
203.755264 172.0
203.78096 132.0
203.817871 168.0
203.838776 100.0
203.862885 108.0
203.905655 196.0
203.915512 56.0
203.922043 148.0
203.960983 40.0
204.004868 120.0
204.025894 124.0
204.042755 288.0
204.074036 11772.0
204.138168 144.0
204.23111 72.0
204.270935 72.0
204.299377 76.0
204.327835 32.0
204.361969 60.0
204.418884 68.0
204.451111 92.0
204.492874 68.0
204.521332 148.0
204.549805 52.0
204.583969 72.0
204.606735 96.0
204.635208 88.0
204.683609 56.0
204.717789 84.0
204.74057 48.0
204.853653 148.0
204.894379 40.0
204.944 48.0
204.974152 60.0
205.076385 1648.0
205.150284 156.0
205.187927 84.0
205.254044 128.0
205.274094 108.0
205.342377 72.0
205.37291 60.0
205.41037 104.0
205.462402 216.0
205.48587 128.0
205.524475 84.0
205.571594 136.0
205.592178 116.0
205.615799 88.0
205.638626 88.0
205.670197 104.0
205.709991 148.0
205.769943 72.0
205.809265 124.0
205.832123 72.0
205.887009 32.0
205.906998 96.0
206.029831 104.0
206.058395 132.0
206.086975 160.0
206.121262 72.0
206.164124 260.0
206.384232 68.0
206.407104 104.0
206.650223 264.0
206.761826 152.0
206.844437 128.0
207.139771 28.0
207.225708 152.0
207.346069 200.0
207.463593 56.0
208.34462 136.0
208.394409 132.0
208.608994 40.0
208.741257 48.0
208.839035 68.0
209.129639 92.0
209.313889 136.0
209.478043 52.0
209.503983 120.0
209.751801 180.0
209.797928 104.0
209.982468 172.0
210.837021 184.0
210.95842 116.0
211.166611 124.0
211.207108 92.0
211.791794 76.0
211.884491 168.0
211.913467 168.0
212.032272 220.0
212.275787 156.0
212.612289 48.0
212.638412 60.0
212.766144 40.0
212.909546 268.0
213.056915 192.0
213.103043 168.0
213.268677 172.0
213.291931 80.0
213.414032 80.0
213.623428 40.0
213.745621 124.0
213.864944 124.0
213.955185 68.0
214.360046 52.0
214.569901 96.0
214.943237 76.0
214.972427 48.0
215.124191 168.0
215.445419 68.0
215.495087 104.0
215.895309 96.0
215.922607 188.0
216.109085 60.0
216.39592 100.0
216.978943 32.0
217.106323 136.0
217.134354 176.0
217.304489 76.0
217.712509 88.0
218.35318 172.0
218.697418 164.0
218.918213 312.0
219.386703 152.0
219.422073 72.0
219.540024 128.0
219.619644 120.0
219.837967 92.0
220.127258 44.0
220.431519 160.0
220.676849 224.0
220.812881 56.0
222.127991 80.0
223.360718 200.0
223.444016 212.0
223.756516 124.0
224.033478 128.0
224.152649 124.0
224.373215 188.0
224.456696 168.0
224.552124 180.0
225.238617 128.0
225.280441 244.0
225.600204 192.0
226.189499 148.0
226.485947 160.0
227.025421 164.0
227.055405 232.0
227.079391 152.0
227.118271 932.0
227.190384 140.0
227.21138 64.0
228.103287 132.0
228.665741 196.0
229.635895 156.0
230.079132 184.0
230.354263 148.0
230.511383 96.0
230.586929 148.0
230.623199 64.0
231.025375 92.0
231.066101 8784.0
231.110077 56.0
231.149994 84.0
231.252319 80.0
231.427887 36.0
231.658066 60.0
231.718643 36.0
231.827728 196.0
231.900467 72.0
232.068253 1748.0
232.315887 64.0
232.350891 208.0
232.516144 232.0
232.640594 72.0
232.862259 88.0
233.069702 340.0
233.099213 132.0
233.138718 60.0
233.19577 212.0
233.363663 52.0
233.403183 96.0
233.464005 96.0
233.530914 88.0
233.582626 160.0
233.716476 172.0
234.017807 124.0
234.11293 5364.0
234.144135 72.0
234.179733 172.0
234.298004 44.0
234.325424 64.0
234.401596 124.0
234.447311 108.0
234.471695 64.0
234.569229 108.0
234.657639 236.0
234.85585 72.0
235.115021 364.0
235.255585 108.0
235.573181 204.0
235.722885 32.0
235.900162 40.0
235.933777 200.0
236.141708 176.0
236.282425 140.0
236.481323 104.0
236.554794 68.0
237.357483 128.0
237.424957 108.0
237.796173 132.0
238.997742 124.0
239.351715 60.0
239.739853 36.0
240.048126 184.0
240.452255 88.0
241.029724 128.0
241.193527 72.0
241.218262 132.0
241.966904 220.0
242.357147 180.0
242.726013 248.0
242.93071 228.0
243.107559 108.0
243.331039 112.0
243.694 144.0
243.958588 208.0
244.039429 88.0
244.102432 136.0
244.398544 184.0
244.582352 192.0
244.660019 152.0
244.786072 184.0
244.885864 92.0
244.907669 216.0
244.968826 196.0
244.991776 132.0
245.026047 252.0
245.06839 108.0
245.1297 31804.0
245.253128 40.0
245.322556 136.0
245.362625 52.0
245.422211 108.0
245.457642 76.0
245.490463 32.0
245.521652 28.0
245.640167 116.0
245.744431 152.0
245.786804 40.0
245.844223 100.0
245.933487 60.0
245.984955 196.0
246.082642 220.0
246.131683 1864.0
246.183243 32.0
246.221527 160.0
246.314423 132.0
246.45813 40.0
246.505005 112.0
246.557312 80.0
246.668961 148.0
246.70816 120.0
246.761307 76.0
246.964569 92.0
247.030258 64.0
247.105347 36.0
247.146011 52.0
247.197647 48.0
247.355698 88.0
247.512238 48.0
247.54982 120.0
247.578003 56.0
247.609314 76.0
247.643768 128.0
247.744003 72.0
247.76593 112.0
247.787857 80.0
247.857269 80.0
247.884995 156.0
247.919464 56.0
247.964432 172.0
248.079315 68.0
248.129471 124.0
248.21727 116.0
248.697266 84.0
249.699524 180.0
250.22818 48.0
250.713257 104.0
251.028503 176.0
251.148346 136.0
251.416519 80.0
251.624847 40.0
253.085571 112.0
253.972916 220.0
254.401291 80.0
254.877686 216.0
255.116745 160.0
255.166931 56.0
255.682236 144.0
255.723602 164.0
255.892319 44.0
256.350983 200.0
256.408356 144.0
256.889832 60.0
256.915344 156.0
257.231262 176.0
257.569733 224.0
258.560913 184.0
259.717529 108.0
259.826599 128.0
260.343384 56.0
260.995697 192.0
261.458923 136.0
261.513641 84.0
261.961212 176.0
262.863953 92.0
262.915588 176.0
263.273926 156.0
264.661163 184.0
264.706512 68.0
265.247559 104.0
265.724274 208.0
266.052063 156.0
266.107239 160.0
267.069153 120.0
268.117523 156.0
268.466339 76.0
269.916229 172.0
270.033936 92.0
270.056854 148.0
270.174591 208.0
270.521484 176.0
270.558502 116.0
270.763794 80.0
270.822723 128.0
270.855499 96.0
271.240112 208.0
271.297882 124.0
271.340485 48.0
271.402802 108.0
271.671722 72.0
271.760315 96.0
272.150604 188.0
272.310303 148.0
272.436615 152.0
272.509735 220.0
272.607483 224.0
272.695526 156.0
272.786896 156.0
272.846405 168.0
272.854431 116.0
272.865051 184.0
272.949341 92.0
273.023804 124.0
273.125519 50792.0
273.217438 132.0
273.249237 68.0
273.293732 96.0
273.334991 100.0
273.369293 80.0
273.395325 104.0
273.452271 68.0
273.480255 124.0
273.487152 108.0
273.521881 160.0
273.554718 156.0
273.669281 80.0
273.712738 28.0
273.79837 88.0
273.837891 136.0
273.903748 44.0
273.997406 124.0
274.05545 80.0
274.126587 2696.0
274.358521 60.0
274.421143 48.0
274.473907 64.0
274.572845 56.0
274.655273 44.0
274.681671 88.0
274.777344 52.0
274.978638 44.0
275.071045 72.0
275.411163 52.0
275.49704 96.0
275.53009 68.0
275.582947 116.0
275.607666 200.0
275.648193 96.0
275.698608 56.0
275.755249 168.0
275.852997 84.0
275.879578 116.0
275.93042 60.0
276.007599 168.0
276.016632 212.0
276.045685 88.0
276.098602 148.0
276.16806 136.0
276.217682 132.0
276.277222 176.0
276.340088 36.0
276.50885 92.0
276.532013 60.0
277.522491 88.0
277.844208 32.0
278.209259 36.0
278.62439 56.0
279.568695 80.0
280.861389 64.0
281.816162 48.0
284.089386 52.0
285.143738 92.0
286.149506 128.0
290.394287 56.0
292.064911 44.0
292.143158 132.0
292.360901 60.0
298.467041 60.0
303.872528 80.0
304.011322 56.0
306.37915 76.0
308.106049 68.0
310.612518 120.0
312.266846 72.0
314.003174 68.0
315.069183 40.0
315.433167 44.0
315.708954 96.0
317.777588 116.0
320.790314 148.0
322.599701 144.0
323.340088 80.0
324.959778 64.0
338.897766 60.0
342.416931 116.0
348.041595 56.0
350.414581 112.0
354.054688 184.0
354.389923 52.0
357.167969 52.0
357.408752 40.0
358.659058 40.0
360.818329 136.0
363.188873 44.0
365.620453 48.0
365.791718 36.0
368.331299 160.0
374.364288 120.0
377.822662 120.0
380.850159 64.0
381.071564 104.0
389.961823 48.0
395.19873 104.0
397.294556 80.0
398.330658 108.0
399.411865 76.0
400.319275 128.0
412.791534 64.0
420.506287 52.0
420.849213 136.0
421.175598 2524.0
421.339294 120.0
421.42511 84.0
422.179169 552.0
422.238556 72.0
422.312195 108.0
422.696747 84.0
423.142883 180.0
423.183746 120.0
423.445892 48.0
424.229736 252.0
424.486816 100.0
425.251495 224.0
426.572479 60.0
428.197754 64.0
428.325439 120.0
430.05722 92.0
438.130859 124.0
440.299866 92.0
443.223938 80.0
444.444092 76.0
447.487122 80.0
450.046387 128.0
452.303894 40.0
452.989868 44.0
457.193268 88.0
457.223053 76.0
457.802032 112.0
467.033661 96.0
468.286163 36.0
474.985779 100.0
483.928375 156.0
486.400879 100.0
487.024384 56.0
487.683472 52.0
490.068604 64.0
497.263397 40.0
498.706848 48.0
508.582428 52.0
525.968689 64.0
533.251343 68.0
534.626404 68.0
536.657776 60.0
539.691284 116.0
541.009827 88.0
545.026306 92.0
548.456116 104.0
549.276794 72.0
574.320068 108.0
575.427185 100.0
610.57135 56.0
625.070862 104.0
625.833008 152.0
633.809204 44.0
637.437073 72.0
642.371094 176.0
647.316711 208.0
661.329529 112.0
667.061157 48.0
668.54541 48.0
674.435181 92.0
678.866882 44.0
680.719421 64.0
683.797058 80.0
686.062866 92.0
712.142273 60.0
734.284485 80.0
749.642883 64.0
774.520386 156.0
778.646851 40.0
781.888062 92.0
783.820435 68.0
784.32196 112.0
785.320007 48.0
796.711182 228.0
813.517395 28.0
822.53418 44.0
833.116516 196.0
845.328247 68.0
854.641296 84.0
861.152832 44.0
873.961731 204.0
877.165405 204.0
881.739685 48.0
882.94574 40.0
906.232788 76.0
906.814087 164.0
908.121094 232.0
923.594543 92.0
924.290283 192.0
931.28009 192.0
943.870605 220.0
949.394043 272.0
954.410889 76.0
975.256775 144.0
980.023621 56.0
980.921082 188.0
987.333252 40.0
989.035034 36.0
1000.459595 216.0
1000.749207 128.0
1001.964722 160.0
1003.206177 188.0
1020.67395 72.0
1034.505737 96.0
1036.234863 256.0
1042.645142 188.0
1044.779907 40.0
1048.462891 224.0
1050.616455 124.0
1053.120972 100.0
1056.624634 204.0
1059.706299 208.0
1066.325195 128.0
1069.915771 192.0
1076.899414 132.0
1093.93457 112.0
1095.468872 172.0
1104.697388 152.0
1106.954224 120.0
1108.676636 92.0
1115.353394 156.0
1131.095093 192.0
1132.300293 128.0
1137.542969 208.0
1139.847168 196.0
1141.057007 236.0
1141.655396 148.0
1144.75769 176.0
1144.966431 136.0
1152.69043 160.0
1153.677246 244.0
1154.082886 216.0
1156.904053 140.0
1160.142212 104.0
1161.73584 192.0
1165.347534 176.0
1171.960815 116.0
1178.900391 128.0
1180.055542 176.0
1183.373779 112.0
1184.140747 204.0
1184.633911 68.0
1189.200562 156.0
1192.944092 40.0
1205.211426 224.0
1205.653687 180.0
1211.126343 108.0
1212.761475 116.0
1218.660034 180.0
1219.076904 124.0
1220.877441 56.0
1222.672241 184.0
1226.258911 116.0
1226.976929 68.0
1231.484619 156.0
1233.797485 132.0
1239.361572 208.0
1239.950195 240.0
1245.577271 160.0
1245.633423 140.0
1246.99646 148.0
1249.169189 196.0
1251.153687 104.0
1252.498657 68.0
1253.611816 200.0
1254.330688 136.0
1256.989502 112.0
1259.1073 156.0
1261.636841 160.0
1262.987427 156.0
1265.584595 64.0
1266.398926 144.0
1272.483154 180.0
1277.514648 72.0
1279.706665 96.0
1280.30481 148.0
1281.786499 164.0
1281.978882 196.0
1283.340332 132.0
1290.001099 108.0
1292.847656 148.0
1299.705322 164.0
1302.354248 232.0
1302.79248 196.0
1304.826172 244.0
1305.832886 176.0
1311.859619 136.0
1315.914062 148.0
1317.741211 144.0
1324.454468 212.0
1324.512329 152.0
1329.144897 152.0
1329.55127 196.0
1331.859985 180.0
1333.858154 220.0
1334.134399 164.0
1334.388916 200.0
1337.647949 172.0
1338.004639 132.0
1340.328003 220.0
1343.543335 188.0
1346.426392 208.0
1352.062988 136.0
1352.72168 156.0
1353.849243 264.0
1354.024902 48.0
1358.848145 120.0
1358.928833 68.0
1359.501221 140.0
1361.828491 192.0
1365.650391 188.0
1368.461426 132.0
1369.381836 228.0
1373.044678 148.0
1373.767578 84.0
1373.848755 180.0
1374.106934 76.0
1374.874268 144.0
1384.255127 108.0
1389.510254 176.0
1392.286255 140.0
1393.133057 184.0
1393.861084 224.0
1394.262329 44.0
1394.797485 104.0
1398.963135 152.0
1399.126831 92.0
1400.184204 56.0
1403.634521 92.0
1403.865601 212.0
1404.208618 100.0
1404.365356 92.0
1408.134399 136.0
1411.459839 212.0
1412.155273 124.0
1412.4021 120.0
1412.94812 108.0
1415.140991 180.0
1422.195068 120.0
1425.221436 116.0
1426.702026 80.0
1428.09314 224.0
1429.823608 128.0
1430.515991 108.0
1431.539917 192.0
1432.383423 80.0
1432.760132 232.0
1437.532837 92.0
1437.985596 204.0
1438.589478 136.0
1438.914062 176.0
1440.666138 140.0
1442.419189 124.0
1445.906006 160.0
1446.988403 200.0
1447.350952 148.0
1448.836304 140.0
1450.056152 168.0
1451.132568 124.0
1451.610229 40.0
1452.209351 144.0
1456.034424 168.0
1458.306152 108.0
1459.241089 56.0
1461.18811 136.0
1461.454346 72.0
1462.220703 56.0
1462.580566 140.0
1464.613647 160.0
1470.446289 152.0
1471.400391 188.0
1471.690552 140.0
1471.942505 92.0
1473.347778 160.0
1474.967773 152.0
1476.588745 164.0
1477.391846 28.0
1479.511597 160.0
1480.828613 140.0
1483.196167 192.0
1483.357178 88.0
1483.548828 176.0
1484.25415 140.0
1486.210083 60.0
1486.800903 40.0
1490.164185 160.0
1490.563721 100.0
1491.524292 228.0
1492.016235 104.0
1492.070068 196.0
1492.191284 168.0
1492.954346 136.0
1495.546997 72.0
1496.27832 152.0
1499.004883 148.0
1501.163208 100.0
1501.672241 208.0
1501.957642 196.0
1504.156738 136.0
