>compound MLS001148205-01!41859-67-0
>formula C19H20ClNO4
>ionization [M+H]+
>parentmass 362.117
#inchi InChI=1S/C19H20ClNO4/c1-19(2,18(23)24)25-16-9-3-13(4-10-16)11-12-21-17(22)14-5-7-15(20)8-6-14/h3-10H,11-12H2,1-2H3,(H,21,22)(H,23,24)
#inchikey IIBYAHWJQTYFKB
#Ion_Source LC-ESI
#Instrument qTof
#Compound_Source NIH Pharmacologically Active Library
#PI Dorrestein
#Data_Collector VP/LMS
#Scan -1
#Precursor_MZ 362.117
#ExactMass 361.108
#Charge 1
#CAS_Number N/A
#Pubmed_ID N/A
#Smiles CC(C)(Oc1ccc(CCNC(=O)c2ccc(Cl)cc2)cc1)C(=O)O
#INCHI_AUX N/A
#Library_Class 1
#SpectrumID CCMSLIB00000084955
#IonMode Positive
#UpdateWorkflowName UPDATE-SINGLE-ANNOTATED-GOLD
#LibraryQualityString Gold
#TaskID d252d724072548979f1f6f1ced849daf
##Scan# 2081
#SpectrumFile p3-D02_GD2_01_18259.mzXML
#LibraryName Pharm_Active_Library.mgf
#MQScore -1
#Organism Pharm_Active_Library
#TIC_Query 0
#RT_Query -1
#MZErrorPPM -1
#SharedPeaks 0
#MassDiff 0
#LibMZ -1
#SpecMZ 362.117
#SpecCharge 0
#internalFilename spec-00000.mgf

>collision 10
45.064167 176.0
45.090893 160.0
45.110943 120.0
45.184502 116.0
45.252762 196.0
45.282223 312.0
45.343857 124.0
45.469933 392.0
45.647266 40.0
45.711842 64.0
45.827644 116.0
45.877514 116.0
45.912571 180.0
45.950344 164.0
46.012428 168.0
46.262543 76.0
46.403107 208.0
46.502476 136.0
46.665497 136.0
46.677734 124.0
46.738949 116.0
46.946011 144.0
47.274555 228.0
47.340965 120.0
47.754078 200.0
47.869686 180.0
48.043362 164.0
48.09185 228.0
48.229786 168.0
48.354275 136.0
48.442894 212.0
48.460907 184.0
48.571815 116.0
49.050175 120.0
49.101768 176.0
49.1199 176.0
49.404888 296.0
49.553593 164.0
49.620571 192.0
49.669659 160.0
49.798794 160.0
49.873264 240.0
49.99704 288.0
50.044899 196.0
50.208366 88.0
50.372101 148.0
50.827999 124.0
51.016907 144.0
51.075211 220.0
51.10651 164.0
51.183079 172.0
51.258873 216.0
51.28738 180.0
51.422882 84.0
51.705879 176.0
51.843365 152.0
51.867733 128.0
52.052814 132.0
52.1922 184.0
52.307301 156.0
52.449909 164.0
52.465767 208.0
52.513355 164.0
52.690914 124.0
52.836937 144.0
53.064331 112.0
53.161518 148.0
53.24427 200.0
53.268963 192.0
53.427425 208.0
53.628384 148.0
53.68816 176.0
53.853085 112.0
54.041672 96.0
54.183697 228.0
54.312702 88.0
54.358185 160.0
54.765434 200.0
55.24815 124.0
55.265903 160.0
55.305862 140.0
55.413971 208.0
55.578556 176.0
55.599331 76.0
55.676533 188.0
55.765678 160.0
56.014175 120.0
56.060364 172.0
56.121483 112.0
56.185616 200.0
56.379734 128.0
56.400661 80.0
56.791473 152.0
57.150528 184.0
57.307896 164.0
57.323696 168.0
57.335754 224.0
57.513733 136.0
57.604336 124.0
57.649666 184.0
57.71769 184.0
58.044773 156.0
58.152489 84.0
58.631584 208.0
58.686462 168.0
58.718487 184.0
58.825298 152.0
58.961243 88.0
59.222878 192.0
59.308979 168.0
59.391487 184.0
59.445187 192.0
59.65715 68.0
59.744808 56.0
59.76635 224.0
59.881809 132.0
60.344769 164.0
60.623398 164.0
60.637344 128.0
60.666798 52.0
60.713314 84.0
60.73658 168.0
60.825031 180.0
60.932186 124.0
61.120323 160.0
61.162346 188.0
61.262009 260.0
61.319664 168.0
61.450657 52.0
61.792828 120.0
61.856995 240.0
62.469013 160.0
62.516216 112.0
62.604374 204.0
62.623276 160.0
62.725697 156.0
62.832935 192.0
62.85976 148.0
62.982906 144.0
63.115662 144.0
63.232731 164.0
63.335651 188.0
63.394272 144.0
63.556019 292.0
63.997906 180.0
64.015419 56.0
64.433334 224.0
64.610794 88.0
65.030647 184.0
65.250725 184.0
65.332748 192.0
65.348839 172.0
65.450241 196.0
65.561394 128.0
65.588799 124.0
65.888962 176.0
65.930969 104.0
66.091064 180.0
66.131523 196.0
66.648865 116.0
66.70575 168.0
66.852135 164.0
66.970985 172.0
66.99379 128.0
67.02475 156.0
67.532478 168.0
67.578285 60.0
67.699417 152.0
67.763298 100.0
67.919044 192.0
67.983032 112.0
68.268883 216.0
69.090317 236.0
69.105209 164.0
69.123413 116.0
69.164787 96.0
69.191277 152.0
69.250885 188.0
69.264137 276.0
69.47467 184.0
69.504539 140.0
69.552666 176.0
69.615761 60.0
69.758652 176.0
69.969933 140.0
69.98159 164.0
70.123192 108.0
70.13652 60.0
70.29834 180.0
70.703766 212.0
70.828308 208.0
70.893654 180.0
70.974121 244.0
71.136864 168.0
71.264503 128.0
71.288025 132.0
71.607681 156.0
71.890915 152.0
71.997276 144.0
72.122307 172.0
72.152733 200.0
72.218689 196.0
72.576019 148.0
73.039665 104.0
73.068581 204.0
73.335945 256.0
73.639656 152.0
73.718239 188.0
73.85331 72.0
73.906342 116.0
74.147804 152.0
74.180374 224.0
74.250671 196.0
74.264572 188.0
74.343315 148.0
74.436012 156.0
74.47036 156.0
74.496132 112.0
74.592361 60.0
74.643944 140.0
74.869385 100.0
74.903831 172.0
75.058945 88.0
75.105507 196.0
75.158989 56.0
75.266014 88.0
75.622147 164.0
75.668884 184.0
75.984322 216.0
76.019028 164.0
76.156181 192.0
76.408249 156.0
76.594521 132.0
76.843819 164.0
77.007912 92.0
77.034111 160.0
77.362885 160.0
77.527534 104.0
77.606415 204.0
77.630966 148.0
78.593193 152.0
78.907585 136.0
79.135826 92.0
79.245644 220.0
79.710541 112.0
79.734734 208.0
80.073708 172.0
80.141151 148.0
80.383659 72.0
80.569359 132.0
80.631897 200.0
80.791039 72.0
80.91095 176.0
81.142067 60.0
81.581924 140.0
81.670036 132.0
82.015755 96.0
82.131157 116.0
83.149826 204.0
83.213364 76.0
83.375031 128.0
83.422287 140.0
83.766228 128.0
83.820885 108.0
83.837288 208.0
84.021454 156.0
84.38308 140.0
84.82795 224.0
85.049904 96.0
85.06826 136.0
85.106819 144.0
85.204163 184.0
86.278625 164.0
86.297119 168.0
86.310059 192.0
86.554314 176.0
86.635811 136.0
87.001152 220.0
87.099571 208.0
87.37693 184.0
87.823654 168.0
88.215797 180.0
88.415932 84.0
88.460854 104.0
88.646286 120.0
88.745628 176.0
88.899445 164.0
88.997063 236.0
89.019592 300.0
89.341003 256.0
89.604576 88.0
89.813828 140.0
89.877975 144.0
90.134781 116.0
90.408989 168.0
90.458199 112.0
90.837196 172.0
90.971931 104.0
91.054466 1256.0
91.121964 60.0
91.336784 116.0
91.746216 152.0
91.772293 200.0
91.952225 52.0
92.059135 232.0
92.089691 136.0
92.322861 176.0
92.363029 184.0
92.376419 60.0
92.661674 148.0
92.686584 168.0
93.027977 212.0
93.040703 172.0
93.068481 768.0
93.093254 128.0
93.339226 128.0
93.861069 308.0
93.976799 176.0
94.034698 184.0
94.072449 188.0
94.216209 124.0
94.278038 104.0
94.336029 196.0
94.504288 192.0
94.742432 184.0
94.837379 160.0
95.011909 220.0
95.077881 220.0
95.120583 152.0
95.141937 52.0
95.423645 64.0
95.949326 216.0
96.294716 208.0
96.365044 180.0
96.497948 156.0
96.630951 132.0
96.713142 176.0
96.838455 112.0
96.894325 232.0
96.985405 116.0
97.358185 160.0
97.462296 144.0
98.395905 136.0
98.957405 188.0
99.090111 140.0
99.117851 132.0
99.460953 232.0
99.558243 180.0
100.035439 228.0
100.218666 244.0
100.356201 128.0
100.386108 176.0
100.437965 180.0
100.501801 204.0
100.721413 124.0
101.093292 148.0
101.255455 32.0
101.343597 160.0
101.441803 224.0
101.519997 176.0
101.612267 196.0
101.702568 152.0
101.967697 128.0
102.045265 184.0
102.309189 224.0
102.69857 128.0
102.82972 192.0
102.993263 248.0
103.017509 184.0
103.054695 2384.0
103.074081 76.0
103.102371 204.0
103.165031 116.0
103.225685 60.0
103.282318 208.0
103.480644 192.0
103.606209 72.0
103.804848 168.0
103.865692 216.0
104.053345 368.0
104.570755 140.0
104.595184 32.0
104.629791 156.0
104.898697 244.0
105.00473 200.0
105.068787 324.0
105.215103 168.0
105.556129 140.0
105.570442 208.0
105.642029 156.0
105.830322 180.0
106.022881 92.0
106.631798 196.0
106.647469 200.0
106.751663 52.0
107.015236 132.0
107.048782 304.0
107.328247 176.0
107.563438 140.0
107.584084 108.0
107.705917 172.0
107.815422 64.0
107.972549 160.0
108.097191 176.0
108.28714 140.0
108.432167 172.0
108.523376 200.0
108.627075 240.0
108.645744 324.0
109.137512 212.0
109.21077 140.0
109.271103 172.0
109.502167 156.0
109.60424 184.0
109.956673 200.0
110.021385 128.0
110.430954 212.0
110.999817 1504.0
111.061417 52.0
111.162117 168.0
111.862015 216.0
112.03891 160.0
112.667603 152.0
112.997292 276.0
113.122276 112.0
113.351021 40.0
113.401886 36.0
113.749748 204.0
113.94088 96.0
113.985504 164.0
114.315109 224.0
114.355545 180.0
114.447083 36.0
114.992813 588.0
115.052597 128.0
115.300377 116.0
115.351677 156.0
115.668266 192.0
115.873856 128.0
116.030312 108.0
116.163277 68.0
116.21476 192.0
116.289871 204.0
116.352127 220.0
116.401512 208.0
116.74749 160.0
116.989883 208.0
117.074608 152.0
117.404335 172.0
117.553185 152.0
117.782043 152.0
118.071671 64.0
118.25341 88.0
118.413628 52.0
118.553558 184.0
118.727882 168.0
119.042091 112.0
119.083702 640.0
119.1642 152.0
119.277206 152.0
119.356796 184.0
119.362846 112.0
119.369621 228.0
119.507729 80.0
119.638313 76.0
119.787659 132.0
120.008698 144.0
120.055458 792.0
120.09375 248.0
120.421143 104.0
120.486679 176.0
120.600311 104.0
120.808044 184.0
120.889 144.0
120.959038 232.0
120.976555 108.0
121.02034 148.0
121.064835 24604.0
121.121078 196.0
121.149559 52.0
121.180229 92.0
121.197762 76.0
121.289803 48.0
121.316109 68.0
121.351189 52.0
121.384079 92.0
121.423553 28.0
121.506912 128.0
121.615654 188.0
121.717621 92.0
121.785698 168.0
121.825951 84.0
121.842819 44.0
121.88456 52.0
121.915329 64.0
121.948296 44.0
122.005447 64.0
122.067535 1988.0
122.165985 68.0
122.505005 32.0
122.527039 76.0
122.557884 84.0
122.621788 116.0
122.663673 40.0
122.701149 332.0
122.793762 172.0
122.908478 120.0
122.927284 96.0
122.968063 76.0
122.98793 124.0
123.021042 92.0
123.067604 172.0
123.133652 180.0
123.209137 200.0
123.263992 92.0
123.695274 228.0
123.772758 148.0
124.198273 172.0
124.559311 148.0
124.593414 68.0
124.637848 144.0
125.244194 132.0
125.421234 208.0
125.539406 196.0
125.802689 80.0
125.92997 140.0
126.03273 196.0
126.079659 112.0
126.200371 96.0
126.412872 176.0
127.181602 140.0
127.444359 152.0
127.469078 196.0
128.123825 84.0
128.360489 168.0
128.719284 164.0
128.836731 132.0
129.007004 324.0
129.06929 172.0
130.03688 128.0
130.093628 168.0
130.270752 220.0
130.545776 160.0
131.006805 116.0
132.009827 88.0
132.048889 48.0
132.211136 84.0
132.811417 212.0
133.065582 296.0
133.100677 172.0
133.585541 104.0
133.601639 72.0
133.620041 160.0
133.643051 164.0
133.71669 204.0
133.976898 164.0
134.002228 156.0
134.048325 156.0
134.09671 164.0
134.352676 204.0
134.574234 224.0
134.791367 168.0
134.923111 212.0
135.04567 176.0
135.128403 188.0
135.552673 216.0
135.568893 156.0
135.640747 96.0
136.07225 152.0
136.241791 80.0
136.30307 212.0
136.439331 200.0
137.109711 196.0
137.258911 152.0
138.125381 148.0
138.413254 84.0
138.471298 168.0
138.588928 176.0
138.689697 144.0
138.706421 88.0
138.830368 192.0
138.905426 136.0
138.921844 176.0
138.954041 156.0
138.994705 41928.0
139.057785 200.0
139.084991 92.0
139.141541 196.0
139.177719 108.0
139.218109 124.0
139.236374 76.0
139.255157 84.0
139.305405 144.0
139.426666 100.0
139.476028 28.0
139.504242 64.0
139.525391 120.0
139.614746 88.0
139.63591 40.0
139.784134 100.0
139.944183 124.0
139.998154 2352.0
140.093674 128.0
140.233948 64.0
140.457947 88.0
140.493332 100.0
140.558029 152.0
140.578278 236.0
140.643478 128.0
140.667969 136.0
140.705734 52.0
140.782867 96.0
140.834702 156.0
140.866318 112.0
140.889053 144.0
140.991714 12920.0
141.038818 188.0
141.059479 224.0
141.097916 88.0
141.119202 132.0
141.139999 116.0
141.232712 100.0
141.28476 80.0
141.391235 72.0
141.417267 48.0
141.455139 48.0
141.54425 84.0
141.597214 64.0
141.673004 40.0
141.74646 116.0
141.763046 72.0
141.996063 904.0
142.059433 56.0
142.092636 60.0
142.536652 88.0
142.743454 76.0
142.940903 64.0
142.995636 132.0
143.087051 308.0
143.174194 48.0
143.205154 176.0
143.83226 84.0
144.061493 76.0
144.090164 116.0
144.219208 44.0
145.155304 68.0
146.07605 760.0
147.07518 188.0
149.355301 84.0
149.581604 36.0
149.84462 112.0
150.437256 108.0
150.605743 104.0
150.725449 76.0
151.131348 184.0
151.204758 56.0
151.881012 100.0
152.008575 104.0
153.400665 56.0
154.081802 236.0
156.019592 296.0
157.018372 156.0
157.24292 220.0
157.752472 120.0
158.020096 236.0
158.613602 128.0
158.836761 208.0
158.952179 184.0
159.078842 204.0
159.489624 196.0
160.088425 216.0
160.317673 84.0
161.096634 3536.0
161.42337 240.0
162.095627 564.0
162.170212 84.0
163.107574 220.0
163.395752 92.0
163.809158 48.0
164.07164 128.0
165.029068 164.0
165.046967 140.0
166.679794 44.0
168.021255 152.0
169.065155 84.0
169.469116 120.0
170.012497 180.0
171.083344 396.0
171.994339 84.0
172.24501 52.0
172.995514 56.0
174.511932 84.0
175.101395 108.0
176.098343 168.0
177.031937 48.0
178.116699 144.0
179.119537 192.0
180.085114 128.0
182.034271 644.0
182.822479 56.0
183.841141 100.0
184.030106 196.0
184.138123 164.0
185.37175 44.0
187.085617 40.0
189.088425 660.0
189.27533 136.0
190.093079 444.0
191.092377 48.0
191.22171 140.0
192.431885 40.0
195.54216 136.0
198.125107 40.0
202.109085 180.0
207.098511 152.0
209.100937 164.0
209.687042 20.0
210.343231 96.0
213.190353 116.0
214.669189 68.0
219.401657 84.0
225.663284 120.0
226.95076 172.0
226.980743 100.0
229.060516 148.0
242.388657 120.0
247.165375 128.0
247.951401 40.0
250.021042 136.0
258.056213 164.0
264.713806 140.0
267.183868 124.0
273.957397 112.0
276.075836 1016.0
276.202118 112.0
277.077667 380.0
278.073364 556.0
278.784912 96.0
285.134766 216.0
286.177582 128.0
302.089752 216.0
303.156158 84.0
303.488922 60.0
305.461548 52.0
313.194061 48.0
314.396332 108.0
315.77066 88.0
316.10791 1964.0
316.520905 160.0
317.109772 164.0
318.101257 160.0
319.113312 116.0
319.445404 84.0
322.76944 80.0
323.209412 172.0
328.151764 160.0
329.089844 216.0
341.226685 160.0
350.066589 160.0
359.177948 132.0
359.24585 192.0
361.1875 128.0
362.084534 132.0
362.342102 160.0
377.612579 64.0
403.23465 32.0
407.377838 112.0
410.174591 52.0
454.936249 96.0
486.41452 68.0
509.198425 60.0
549.964355 56.0
619.399475 104.0
639.06488 108.0
661.548706 48.0
669.177795 84.0
678.306396 64.0
678.923401 84.0
681.565674 152.0
694.103882 192.0
697.537476 64.0
702.529663 172.0
710.921387 188.0
719.213501 140.0
743.270813 200.0
753.594604 236.0
786.583069 172.0
797.876831 212.0
829.97467 60.0
846.090088 204.0
847.45697 232.0
852.534363 132.0
855.198059 136.0
880.066711 176.0
885.234802 132.0
886.603271 172.0
899.546021 200.0
900.823914 264.0
912.883118 204.0
922.54834 132.0
925.821777 196.0
928.985718 176.0
931.183044 156.0
931.638611 212.0
935.688965 96.0
950.08783 92.0
953.458862 152.0
958.03064 180.0
963.193909 208.0
964.238159 156.0
979.146851 132.0
985.178589 164.0
989.850769 188.0
993.887573 148.0
996.788635 144.0
1002.552917 48.0
1005.870544 204.0
1016.560486 224.0
1020.905701 56.0
1022.17749 228.0
1028.461914 84.0
1029.496216 132.0
1031.764526 204.0
1040.490356 128.0
1048.286133 132.0
1054.934204 132.0
1054.97937 60.0
1056.887329 212.0
1057.422729 184.0
1057.612183 124.0
1060.889893 368.0
1064.289673 240.0
1070.551758 216.0
1071.222534 248.0
1071.378906 196.0
1071.509277 140.0
1075.780884 88.0
1076.440308 48.0
1081.134033 224.0
1084.087524 180.0
1086.828613 180.0
1091.636963 120.0
1092.011841 80.0
1097.200806 284.0
1097.477661 184.0
1108.457031 144.0
1113.963867 136.0
1116.117188 148.0
1116.17041 60.0
1117.387573 124.0
1118.638672 188.0
1121.689697 168.0
1126.026733 48.0
1133.479248 96.0
1135.234741 164.0
1135.456787 80.0
1140.257202 144.0
1143.108643 176.0
1145.694214 140.0
1145.842407 232.0
1147.210449 196.0
1150.516113 176.0
1152.136963 120.0
1152.91394 164.0
1160.136108 140.0
1160.732788 140.0
1161.024414 128.0
1164.302368 180.0
1164.92041 188.0
1167.918213 116.0
1168.237915 172.0
1172.459473 140.0
1173.154663 108.0
1173.522827 196.0
1174.579956 252.0
1178.86084 80.0
1179.188843 176.0
1183.354858 164.0
1184.621826 184.0
1185.800415 208.0
1189.744629 172.0
1193.482178 132.0
1195.456421 156.0
1197.707764 164.0
1198.203735 112.0
1198.637817 92.0
1198.789429 180.0
1201.092163 244.0
1203.887451 300.0
1205.151611 120.0
1205.386475 88.0
1207.20459 172.0
1210.062378 172.0
1210.457031 224.0
1212.507568 212.0
1213.505737 40.0
1214.594604 128.0
1214.976074 128.0
1218.433472 108.0
1219.28125 144.0
1221.589722 64.0
1222.675171 188.0
1225.014648 200.0
1226.004028 232.0
1227.628418 212.0
1227.81665 128.0
1227.921265 40.0
1228.116577 144.0
1228.339844 188.0
1230.628906 112.0
1231.089722 164.0
1232.703491 160.0
1233.367432 160.0
1234.437134 68.0
1234.590942 220.0
1234.842773 76.0
1237.859009 168.0
1240.87207 160.0
1243.481567 164.0
1244.2677 208.0
1244.984009 144.0
1247.407959 160.0
1247.843872 56.0
1255.991821 132.0
1257.452393 152.0
1258.737183 40.0
1259.344604 128.0
1261.810791 176.0
1262.199707 196.0
1262.850342 124.0
1264.37146 176.0
1265.242065 124.0
1265.596069 176.0
1266.226318 48.0
1266.927612 124.0
1269.77002 220.0
1271.380493 160.0
1271.635986 240.0
1272.097412 128.0
1273.560181 204.0
1275.933716 196.0
1276.772705 208.0
1277.313232 60.0
1281.470825 88.0
1283.502319 188.0
1288.691406 200.0
1289.148804 196.0
1289.970703 128.0
1290.9646 164.0
1292.788818 152.0
1293.361328 204.0
1293.540283 112.0
1294.091553 144.0
1295.645752 124.0
1297.143433 68.0
1298.369507 148.0
1298.957764 252.0
1300.38562 156.0
1304.760254 124.0
1306.543823 176.0
1307.335327 148.0
1311.109009 164.0
1311.209961 176.0
1311.267578 204.0
1312.557983 152.0
1312.817627 248.0
1314.101562 128.0
1316.440308 140.0
1317.08313 180.0
1319.31604 216.0
1320.849121 76.0
1322.947632 176.0
1324.106201 216.0
1325.069702 64.0
1325.134888 108.0
1325.866699 104.0
1326.925049 136.0
1327.178833 188.0
1330.516357 180.0
1330.784912 116.0
1330.857544 196.0
1332.426392 124.0
1333.38562 196.0
1334.214233 84.0
1334.694092 136.0
1337.385864 168.0
1339.009521 236.0
1341.020386 184.0
1343.025513 152.0
1344.762085 176.0
1345.061279 132.0
1347.259399 232.0
1347.55896 216.0
1347.814697 144.0
1348.830566 128.0
1350.153931 152.0
1351.346313 208.0
1352.356201 188.0
1352.875854 124.0
1353.490967 236.0
1354.128052 128.0
1356.72937 164.0
1357.70459 168.0
1357.821899 188.0
1361.315186 128.0
1364.04834 92.0
1364.651245 36.0
1365.268921 128.0
1365.916138 148.0
1367.947144 132.0
1368.425659 120.0
1374.831299 192.0
1376.521851 212.0
1379.137207 136.0
1379.528931 196.0
1380.046509 116.0
1380.556763 156.0
1380.615845 140.0
1381.747681 192.0
1383.375732 40.0
1384.24939 164.0
1384.901123 204.0
1389.816284 196.0
1392.696777 120.0
1393.335571 156.0
1393.907715 212.0
1395.163818 96.0
1395.379517 176.0
1396.30896 108.0
1396.539551 160.0
1397.484375 172.0
1397.789429 120.0
1397.848877 184.0
1399.598267 192.0
1400.886719 156.0
1402.854004 204.0
1404.330444 164.0
1408.278931 36.0
1408.36853 156.0
1408.808228 176.0
1409.317261 96.0
1412.479614 180.0
1416.312134 156.0
1416.679199 196.0
1416.806641 100.0
1416.98645 220.0
1419.459961 216.0
1421.492798 156.0
1422.866333 80.0
1423.346924 168.0
1424.473511 28.0
1424.683838 168.0
1424.99939 132.0
1427.713013 44.0
1429.473267 180.0
1429.72168 152.0
1431.852295 192.0
1434.919189 148.0
1435.02478 144.0
1436.012573 180.0
1436.42749 144.0
1437.076294 128.0
1437.740356 172.0
1438.261108 44.0
1440.375366 172.0
1440.594482 208.0
1440.987305 132.0
1441.939453 148.0
1442.891846 56.0
1443.375854 52.0
1443.700928 148.0
1444.033691 228.0
1444.154785 116.0
1444.616211 100.0
1446.212769 128.0
1449.226929 184.0
1449.492065 204.0
1450.007446 272.0
1453.533813 156.0
1454.383789 176.0
1454.505249 140.0
1454.915161 144.0
1455.796021 136.0
1456.327637 128.0
1457.056885 96.0
1458.135864 184.0
1458.964478 160.0
1459.116455 276.0
1460.059326 196.0
1461.139526 200.0
1461.360107 196.0
1465.334595 56.0
1465.989868 160.0
1466.264282 32.0
1466.706299 172.0
1467.270386 124.0
1467.720215 224.0
1469.09314 168.0
1469.184692 156.0
1469.238037 172.0
1469.520386 200.0
1471.268066 140.0
1471.466553 180.0
1472.825928 132.0
1474.62146 136.0
1475.768188 164.0
1476.21936 212.0
1476.640015 72.0
1476.861816 64.0
1477.527344 224.0
1480.612061 176.0
1482.190186 148.0
1484.236816 204.0
1484.321167 124.0
1486.461304 156.0
1486.867432 176.0
1487.175049 212.0
1488.31897 176.0
1489.156006 236.0
1489.27124 236.0
1490.930786 216.0
1491.130615 128.0
1491.199829 224.0
1493.860229 60.0
1496.592407 208.0
1496.723389 164.0
1497.817871 148.0
1499.419678 144.0
1500.020874 144.0
1500.714722 176.0
1501.562988 148.0
1502.180054 88.0
1505.097412 156.0
