>compound MLS002207023-01!Kinetin-9-riboside4338-47-0
>formula C15H17N5O5
>ionization [M+H]+
>parentmass 348.1302450960905
#inchi InChI=1S/C15H17N5O5/c21-5-9-11(22)12(23)15(25-9)20-7-19-10-13(17-6-18-14(10)20)16-4-8-2-1-3-24-8/h1-3,6-7,9,11-12,15,21-23H,4-5H2,(H,16,17,18)/t9-,11-,12-,15-/m1/s1
#inchikey CAGLGYNQQSIUGX
#Ion_Source LC-ESI
#Instrument qTof
#Compound_Source NIH Pharmacologically Active Library
#PI Dorrestein
#Data_Collector VP/LMS
#Scan -1
#Precursor_MZ 348.137
#ExactMass 347.123
#Charge 1
#CAS_Number N/A
#Pubmed_ID N/A
#Smiles OC[C@H]1O[C@H]([C@H](O)[C@@H]1O)n2cnc3c(NCc4ccco4)ncnc23
#INCHI_AUX N/A
#Library_Class 1
#SpectrumID CCMSLIB00000085557
#IonMode Positive
#UpdateWorkflowName UPDATE-SINGLE-ANNOTATED-GOLD
#LibraryQualityString Gold
#TaskID d252d724072548979f1f6f1ced849daf
##Scan# 1299
#SpectrumFile p4-C07_GC7_01_18355.mzXML
#LibraryName Pharm_Active_Library.mgf
#MQScore -1
#Organism Pharm_Active_Library
#TIC_Query 0
#RT_Query -1
#MZErrorPPM -1
#SharedPeaks 0
#MassDiff 0
#LibMZ -1
#SpecMZ 348.137
#SpecCharge 0
#internalFilename spec-00000.mgf

>collision 10
44.968075 160.0
44.998779 132.0
45.010796 224.0
45.605614 184.0
45.721279 144.0
45.880219 164.0
46.00703 176.0
46.427834 280.0
47.201317 144.0
47.222481 132.0
47.538296 256.0
47.744358 152.0
47.931572 152.0
48.032215 224.0
49.518085 220.0
49.909607 196.0
50.099609 84.0
50.218014 192.0
50.551422 120.0
51.217274 144.0
51.58971 180.0
51.662643 84.0
51.811527 156.0
52.029514 200.0
52.111378 124.0
52.270977 192.0
52.377514 196.0
52.423618 184.0
52.74691 188.0
53.0509 68.0
53.225002 212.0
53.275833 168.0
53.476498 188.0
53.654209 216.0
54.08514 148.0
54.104172 216.0
54.199371 152.0
54.227215 168.0
54.544254 124.0
54.604534 28.0
54.676624 120.0
54.772327 132.0
54.788528 92.0
55.481636 140.0
55.933228 116.0
56.010658 144.0
56.801392 196.0
56.886925 156.0
57.186047 200.0
57.371475 192.0
57.488968 172.0
58.094177 188.0
59.147144 200.0
59.222172 184.0
59.499722 92.0
59.598019 152.0
59.873367 184.0
60.030556 176.0
60.049061 168.0
60.520382 124.0
61.113293 172.0
61.415512 196.0
61.643444 116.0
61.665325 216.0
61.716911 220.0
61.851452 148.0
62.048832 260.0
62.06765 128.0
62.543663 48.0
62.705891 212.0
63.372746 212.0
63.440895 148.0
63.491634 84.0
63.92532 152.0
63.960331 176.0
64.413185 96.0
64.550629 196.0
64.683418 176.0
64.79071 132.0
64.981491 156.0
65.468536 164.0
65.776482 132.0
66.716034 156.0
66.971504 136.0
67.323784 96.0
67.639328 180.0
67.780174 144.0
67.801476 140.0
68.320335 172.0
68.83622 244.0
68.957352 260.0
69.097374 216.0
69.209915 212.0
69.680954 148.0
69.754074 160.0
69.802284 144.0
69.837212 164.0
69.895439 180.0
69.942039 172.0
70.05027 184.0
70.353775 224.0
70.905746 148.0
71.781593 200.0
71.894623 220.0
72.16996 156.0
72.459373 180.0
73.303833 208.0
73.716789 116.0
75.052246 152.0
75.286926 156.0
76.357956 104.0
76.497147 168.0
76.512817 156.0
76.802086 160.0
77.536407 220.0
77.92244 156.0
78.305916 240.0
78.402809 116.0
78.416908 176.0
78.506821 180.0
78.623253 220.0
78.999603 128.0
79.948853 172.0
80.132256 140.0
80.16967 172.0
80.714119 204.0
80.898399 140.0
80.964645 156.0
80.986137 112.0
81.477638 140.0
81.601646 148.0
81.689766 256.0
81.970634 188.0
82.607956 152.0
82.752731 200.0
82.883148 220.0
82.924828 152.0
83.053558 228.0
83.385818 176.0
83.425804 240.0
83.562202 152.0
83.906418 144.0
84.105247 192.0
85.029533 172.0
85.332626 232.0
85.444809 240.0
85.604942 164.0
86.541115 136.0
86.631859 108.0
86.880272 108.0
87.674217 172.0
87.694717 100.0
87.800987 200.0
87.899857 196.0
87.944649 236.0
88.561653 232.0
88.66095 164.0
88.889732 136.0
88.93853 148.0
89.75312 208.0
90.011627 184.0
90.12307 220.0
90.404816 144.0
90.560059 152.0
91.361092 212.0
91.484787 216.0
91.658104 200.0
91.925056 232.0
92.026222 176.0
92.540535 196.0
93.52726 164.0
93.88176 156.0
93.902977 176.0
94.03936 168.0
94.192497 264.0
95.40168 196.0
95.493073 196.0
95.853218 164.0
96.050125 156.0
96.200378 108.0
96.456749 148.0
96.57946 204.0
96.640106 164.0
96.867195 156.0
96.910301 128.0
96.988686 108.0
97.043144 272.0
98.03228 176.0
98.454445 52.0
98.476166 228.0
98.547287 72.0
98.622375 120.0
98.659935 36.0
98.681679 168.0
98.786499 140.0
99.041847 176.0
99.279671 144.0
99.499924 184.0
100.792549 188.0
100.920471 196.0
100.99646 64.0
101.374847 128.0
101.61058 212.0
102.784462 176.0
102.818764 112.0
103.196877 152.0
103.964203 176.0
104.358269 104.0
105.555161 124.0
105.579697 180.0
105.65947 244.0
105.679932 224.0
105.753601 108.0
105.788399 124.0
105.985008 160.0
106.017792 140.0
106.040337 160.0
106.214615 144.0
106.321304 196.0
106.33567 76.0
106.458847 136.0
106.602646 172.0
108.397934 140.0
108.692383 172.0
109.136879 172.0
109.788643 144.0
109.91172 216.0
110.149719 188.0
110.549049 128.0
110.905083 48.0
110.986839 80.0
111.007812 188.0
111.810295 188.0
112.280098 140.0
113.888611 144.0
114.569633 232.0
114.637489 136.0
114.677979 136.0
114.756851 176.0
114.793098 212.0
114.96376 180.0
115.258438 192.0
115.348198 128.0
116.560219 148.0
116.741798 164.0
116.920357 76.0
117.135658 36.0
117.448212 172.0
117.6381 204.0
118.238976 148.0
118.332054 60.0
118.435997 120.0
118.852234 196.0
118.930359 164.0
119.03598 1396.0
119.058449 192.0
119.073654 128.0
119.447495 136.0
119.750046 184.0
120.040672 156.0
120.264595 196.0
120.649048 68.0
121.027542 112.0
121.051987 720.0
121.257553 240.0
121.479012 168.0
121.655113 176.0
121.968994 144.0
122.047829 164.0
122.129196 148.0
122.498993 220.0
122.611359 184.0
123.08123 164.0
123.116562 240.0
123.822037 80.0
123.923935 216.0
124.216568 120.0
124.28756 100.0
125.276909 176.0
125.675972 192.0
125.77417 160.0
126.498398 212.0
126.690987 124.0
126.897163 116.0
127.096786 156.0
127.68084 152.0
127.815811 164.0
127.883324 204.0
127.921585 132.0
128.08371 236.0
128.48497 32.0
129.792252 224.0
129.985046 152.0
130.118973 176.0
130.609818 176.0
131.037781 128.0
131.101593 40.0
131.925552 144.0
132.030716 96.0
132.117645 84.0
132.190857 128.0
132.42894 184.0
132.694763 192.0
133.057251 164.0
133.620316 108.0
133.979462 160.0
134.272186 176.0
134.336777 176.0
134.387527 120.0
134.694565 144.0
134.833191 116.0
135.065796 356.0
135.152313 112.0
135.991196 160.0
136.035309 192.0
136.062363 3900.0
136.251282 176.0
136.390701 32.0
136.462769 176.0
136.602295 224.0
136.620911 168.0
136.809402 152.0
136.914185 132.0
137.060867 212.0
137.520355 144.0
137.686111 84.0
137.807587 84.0
137.964172 60.0
138.478943 152.0
138.7789 116.0
139.163681 152.0
140.455658 184.0
140.597214 124.0
140.797882 228.0
141.197281 92.0
141.663574 52.0
141.891068 140.0
142.698288 116.0
142.869522 152.0
143.090836 88.0
143.906235 220.0
144.231125 216.0
144.664078 204.0
144.929916 136.0
145.052078 436.0
145.265549 136.0
145.284744 132.0
145.445526 228.0
146.061066 180.0
146.88443 120.0
147.063507 224.0
147.108856 184.0
147.21991 124.0
147.251312 48.0
147.490509 104.0
147.57753 220.0
147.6259 160.0
147.69603 120.0
147.739578 152.0
147.790375 168.0
147.896866 108.0
147.916229 124.0
147.94043 188.0
147.986435 228.0
148.019608 188.0
148.062683 34912.0
148.129318 128.0
148.151108 112.0
148.182602 80.0
148.226227 104.0
148.324524 92.0
148.347397 80.0
148.366791 52.0
148.409378 72.0
148.45166 56.0
148.468628 96.0
148.492889 40.0
148.519562 148.0
148.636017 44.0
148.755386 64.0
149.064041 2440.0
149.116837 56.0
149.296738 68.0
149.581406 68.0
149.59845 52.0
149.637405 96.0
149.671494 84.0
149.820053 92.0
149.878525 84.0
149.929703 48.0
149.98819 144.0
150.065445 192.0
150.156433 116.0
150.207642 76.0
150.262085 140.0
150.493179 84.0
150.59819 48.0
150.864532 112.0
151.028366 136.0
151.569397 92.0
152.047577 168.0
152.177673 84.0
152.366791 136.0
152.954514 156.0
152.981583 76.0
153.518707 148.0
154.239624 136.0
156.616684 172.0
156.738754 100.0
158.104706 60.0
158.580551 40.0
158.650726 196.0
159.071228 408.0
159.25798 32.0
159.376053 244.0
159.441376 28.0
161.079102 68.0
161.096786 156.0
161.756775 124.0
161.89856 128.0
162.077057 160.0
162.920731 200.0
163.050323 88.0
163.398682 52.0
164.555756 132.0
164.596603 148.0
166.070999 180.0
166.882141 148.0
167.100754 204.0
168.722946 112.0
169.483871 72.0
170.883331 184.0
171.06398 168.0
172.071777 160.0
172.599564 120.0
172.937027 60.0
173.069595 660.0
173.725739 52.0
173.980286 252.0
174.06839 396.0
174.156219 136.0
174.624054 160.0
174.789795 164.0
175.772644 68.0
177.720093 176.0
177.749283 176.0
178.940033 196.0
179.678268 104.0
182.686752 216.0
182.775528 216.0
184.704483 120.0
185.351517 212.0
185.769028 120.0
185.961685 180.0
186.059402 156.0
186.727844 84.0
187.266739 228.0
188.021927 132.0
188.092438 2952.0
188.118668 220.0
188.319519 48.0
188.518951 40.0
188.568146 48.0
188.710297 36.0
188.825134 44.0
189.096771 324.0
190.077057 176.0
190.537903 156.0
190.730682 96.0
191.440506 100.0
192.300644 132.0
192.761841 44.0
192.86409 80.0
195.174561 104.0
195.229004 60.0
196.131042 68.0
196.454514 44.0
196.50473 152.0
197.070297 216.0
198.076767 604.0
199.107971 156.0
199.268082 60.0
200.23291 80.0
201.166199 152.0
201.332779 168.0
201.948883 156.0
202.107132 184.0
203.107346 140.0
203.697754 56.0
203.777298 128.0
204.334534 64.0
205.562576 188.0
207.960815 112.0
208.658844 120.0
209.320602 124.0
212.746735 72.0
213.455658 104.0
214.780762 116.0
214.982071 104.0
215.034607 164.0
215.090057 252.0
215.384964 208.0
215.481369 72.0
215.516022 172.0
215.645004 116.0
215.78334 212.0
215.896439 120.0
215.968185 120.0
216.001724 180.0
216.020065 104.0
216.087921 19600.0
216.139801 144.0
216.174347 68.0
216.207993 48.0
216.236725 76.0
216.291412 44.0
216.320679 136.0
216.367065 220.0
216.419449 76.0
216.449509 120.0
216.523438 108.0
216.552979 120.0
216.61351 52.0
216.888947 132.0
216.95929 64.0
217.013931 132.0
217.050186 52.0
217.090805 2540.0
217.196823 44.0
217.534271 92.0
217.725113 80.0
217.77211 68.0
217.901352 140.0
217.992447 160.0
218.089218 484.0
218.215836 56.0
218.242294 108.0
218.62764 96.0
218.707092 100.0
218.818954 132.0
218.919067 104.0
218.977966 76.0
219.246063 56.0
219.366913 152.0
221.775955 40.0
225.914963 48.0
226.073547 68.0
230.932312 80.0
232.277145 124.0
232.914581 96.0
235.088379 108.0
237.134338 48.0
246.949463 88.0
266.643524 76.0
266.776794 88.0
282.103699 164.0
339.901886 76.0
348.126373 144.0
348.200653 148.0
368.59787 68.0
373.739807 56.0
404.542297 64.0
426.735504 116.0
441.075439 56.0
441.564606 60.0
441.631531 52.0
511.700012 92.0
574.785034 100.0
622.314331 48.0
656.049866 184.0
712.133667 88.0
724.61615 180.0
821.543457 80.0
864.996643 216.0
877.674805 108.0
905.911743 152.0
930.25647 196.0
940.201965 216.0
961.923584 124.0
1003.682007 192.0
1003.845947 76.0
1009.902466 120.0
1010.889343 168.0
1022.61731 192.0
1025.139282 264.0
1035.482178 192.0
1040.926758 196.0
1042.307861 208.0
1044.931152 172.0
1063.152832 108.0
1087.850952 184.0
1103.173462 200.0
1104.634888 52.0
1106.103882 92.0
1116.081787 168.0
1116.720215 196.0
1136.171875 176.0
1143.260498 188.0
1143.529785 200.0
1152.099976 136.0
1171.937866 156.0
1175.845215 212.0
1177.702393 116.0
1192.192505 152.0
1196.560303 240.0
1198.240723 160.0
1206.294189 156.0
1216.497925 156.0
1226.075562 180.0
1227.044434 40.0
1227.441895 40.0
1230.812134 160.0
1234.208008 152.0
1239.653809 112.0
1239.843018 136.0
1243.209229 88.0
1243.904053 216.0
1264.903076 152.0
1272.254272 128.0
1274.029663 116.0
1274.242798 212.0
1279.84729 148.0
1283.759277 56.0
1287.541626 204.0
1291.200684 200.0
1296.570068 124.0
1297.602295 64.0
1297.666748 188.0
1299.904663 72.0
1311.375244 96.0
1311.944702 148.0
1312.038452 92.0
1324.496582 124.0
1336.722534 136.0
1347.469971 184.0
1347.521118 140.0
1352.515747 196.0
1354.177734 168.0
1354.727173 228.0
1354.910278 88.0
1355.914185 160.0
1361.137207 156.0
1362.775269 140.0
1363.906982 148.0
1365.01709 168.0
1368.571045 44.0
1369.410522 88.0
1375.604248 188.0
1380.051636 148.0
1388.804932 124.0
1391.090332 144.0
1393.979492 80.0
1395.064575 124.0
1397.117065 168.0
1398.791382 184.0
1398.903076 148.0
1402.500854 164.0
1402.687256 152.0
1409.276855 200.0
1414.826294 200.0
1418.20459 196.0
1419.576538 80.0
1422.907959 64.0
1424.432495 44.0
1424.935791 172.0
1434.666626 96.0
1436.189819 196.0
1440.016479 188.0
1442.343628 208.0
1445.330933 124.0
1449.131836 48.0
1454.326416 148.0
1456.953735 196.0
1457.386841 128.0
1459.826782 172.0
1468.165527 168.0
1469.103638 180.0
1476.015625 160.0
1477.461182 196.0
1485.42041 128.0
1487.791626 128.0
1488.144775 200.0
1490.318359 192.0
1491.640259 140.0
1496.941162 244.0
1497.695923 164.0
1498.728271 148.0
1504.234741 224.0
