>compound MLS000877005-01!
>formula C19H14N4O2
>ionization [M+H]+
>parentmass 331.119
#inchi InChI=1S/C19H14N4O2/c24-18-11-5-1-3-7-13(11)21-17-15(22-18)9-10-16-20-14-8-4-2-6-12(14)19(25)23(16)17/h1-8,15H,9-10H2,(H,22,24)
#inchikey QSYOIPMDADNFRO
#Ion_Source LC-ESI
#Instrument qTof
#Compound_Source NIH Natural Product Library
#PI Dorrestein
#Data_Collector VVP/LMS
#Scan -1
#Precursor_MZ 331.119
#ExactMass 330.112
#Charge 1
#CAS_Number N/A
#Pubmed_ID N/A
#Smiles O=C1NC2CCc3nc4ccccc4c(=O)n3C2=Nc5ccccc15
#INCHI_AUX N/A
#Library_Class 1
#SpectrumID CCMSLIB00000079733
#IonMode Positive
#UpdateWorkflowName UPDATE-SINGLE-ANNOTATED-GOLD
#LibraryQualityString Gold
#TaskID b1d8e8f6646f4e71acdff9ca3d919d08
##Scan# 1798
#SpectrumFile p1-D10_GD10_01_17918.mzXML
#LibraryName NIH_Natural_Products_Library.mgf
#MQScore -1
#Organism NIH_Natural_Products_Library
#TIC_Query 0
#RT_Query -1
#MZErrorPPM -1
#SharedPeaks 0
#MassDiff 0
#LibMZ -1
#SpecMZ 331.119
#SpecCharge 0
#internalFilename spec-00000.mgf

>collision 10
95.554131 156.0
95.916344 152.0
97.305267 68.0
97.503654 260.0
98.593475 168.0
102.037018 184.0
102.10833 144.0
104.570541 132.0
105.032738 916.0
105.930405 64.0
106.350746 168.0
106.496529 164.0
106.790436 112.0
106.930336 96.0
107.352661 88.0
108.765717 72.0
110.685799 144.0
116.58123 108.0
116.798378 120.0
117.623642 116.0
118.95488 232.0
119.9664 212.0
120.041542 164.0
120.516373 144.0
121.032127 364.0
122.026474 152.0
122.909691 148.0
123.205536 160.0
124.963623 104.0
127.142273 64.0
128.368286 164.0
128.438202 152.0
129.043411 144.0
130.0298 2128.0
130.069611 168.0
130.106613 84.0
130.212662 72.0
130.323959 68.0
131.011032 28.0
131.0298 300.0
131.880417 56.0
132.047577 176.0
132.122803 88.0
133.047592 192.0
133.276016 128.0
134.116287 152.0
137.052185 160.0
138.044205 144.0
142.715454 192.0
143.999878 148.0
144.564072 152.0
145.038269 152.0
146.024277 452.0
146.969376 140.0
147.030945 404.0
147.056244 76.0
150.975037 160.0
151.163391 156.0
158.070099 208.0
158.784058 132.0
159.057541 192.0
160.053085 148.0
160.599945 136.0
161.041626 152.0
163.620499 116.0
166.060791 312.0
166.509933 104.0
168.067322 180.0
169.756409 176.0
172.061691 88.0
174.440353 40.0
174.992798 132.0
178.057327 256.0
178.317902 140.0
178.78331 192.0
180.092331 192.0
181.047104 144.0
183.056183 128.0
183.38443 40.0
185.069107 512.0
186.070541 324.0
186.940308 140.0
189.627563 172.0
191.135193 148.0
192.073822 144.0
192.618408 124.0
193.075531 152.0
193.414749 184.0
194.072662 204.0
194.085678 176.0
194.09697 236.0
194.240479 72.0
195.73288 124.0
195.886047 28.0
197.972397 36.0
200.072601 156.0
200.455643 128.0
203.062057 160.0
204.061661 212.0
204.309097 116.0
205.069366 216.0
206.079224 208.0
207.095062 196.0
208.101608 176.0
208.584229 84.0
209.150864 156.0
210.09314 120.0
211.049103 196.0
211.711746 192.0
212.079681 136.0
213.077896 156.0
219.048721 180.0
219.078171 140.0
219.275589 44.0
219.64119 128.0
220.067978 212.0
220.937988 148.0
221.035629 148.0
221.070633 1112.0
222.078003 292.0
223.097717 232.0
229.175385 64.0
231.053284 180.0
232.067856 68.0
233.073166 356.0
234.078018 168.0
235.083893 132.0
239.109055 156.0
240.273788 124.0
245.088776 48.0
246.077164 120.0
247.08046 268.0
247.108856 172.0
248.085526 396.0
248.132965 140.0
249.065323 8108.0
249.124649 128.0
249.152924 44.0
249.174927 128.0
249.235901 92.0
250.070374 1296.0
250.105728 124.0
250.250534 64.0
250.707275 80.0
250.811279 84.0
250.931061 92.0
251.076599 264.0
251.653564 124.0
251.887253 112.0
252.023102 84.0
252.731339 116.0
252.96553 40.0
254.963715 72.0
257.100586 220.0
258.068451 180.0
259.09024 196.0
259.432281 60.0
260.08667 164.0
263.77478 56.0
264.09491 136.0
266.061798 96.0
268.075134 156.0
268.273926 64.0
272.07489 168.0
273.067596 232.0
276.121582 140.0
277.096375 164.0
284.072205 140.0
285.109772 148.0
286.103027 264.0
286.149139 44.0
286.630798 104.0
287.102722 224.0
290.105133 96.0
296.081512 164.0
306.319183 96.0
313.10318 176.0
314.095245 120.0
315.845947 124.0
320.029938 124.0
331.113037 304.0
331.202362 124.0
332.118561 400.0
367.031311 164.0
401.84726 80.0
417.427612 84.0
445.771729 80.0
445.935638 48.0
456.381378 44.0
459.008514 136.0
570.01062 48.0
933.72406 228.0
1213.1073 160.0
1285.761108 20.0
1342.462769 60.0
1373.766357 208.0
1388.515015 160.0
1390.844727 80.0
1405.520386 204.0
1419.350586 116.0
1428.039307 236.0
1456.397705 196.0
