>compound NCGC00160252-01!3-(4-methoxy-phenyl)-isochromen-1-one
>formula C16H12O3
>ionization [M+H]+
>parentmass 253.086
#inchi InChI=1S/C16H12O3/c1-18-13-8-6-11(7-9-13)15-10-12-4-2-3-5-14(12)16(17)19-15/h2-10H,1H3
#inchikey LCTOHXUIVJEHSV
#Ion_Source LC-ESI
#Instrument qTOF
#Compound_Source Prestwick Phytochem Lib
#PI Dorrestein
#Data_Collector VVP/LMS
#Scan -1
#Precursor_MZ 253.086
#ExactMass 252.079
#Charge 1
#CAS_Number N/A
#Pubmed_ID N/A
#Smiles COC1=CC=C(C=C1)C2=CC3=C(C=CC=C3)C(=O)O2
#INCHI_AUX N/A
#Library_Class 1
#SpectrumID CCMSLIB00000078727
#IonMode Positive
#UpdateWorkflowName UPDATE-SINGLE-ANNOTATED-GOLD
#LibraryQualityString Gold
#TaskID 67c915c6594c435cadc1fe2b5358144d
##Scan# 2414
#SpectrumFile p1-H02_GH2_01_17958.mzXML
#LibraryName phytochem_lib.mgf
#MQScore -1
#Organism phytochem_lib
#TIC_Query 0
#RT_Query -1
#MZErrorPPM -1
#SharedPeaks 0
#MassDiff 0
#LibMZ -1
#SpecMZ 253.086
#SpecCharge 0
#internalFilename spec-00000.mgf

>collision 10
95.34153 176.0
95.364853 152.0
95.473724 172.0
95.514572 160.0
95.676086 132.0
95.773453 184.0
95.802673 220.0
96.102913 52.0
96.199509 144.0
96.446625 60.0
96.798782 172.0
96.826195 196.0
96.865372 152.0
96.898674 96.0
96.949623 36.0
97.296799 196.0
97.428383 60.0
97.595444 180.0
97.668205 224.0
97.740997 128.0
98.002876 156.0
98.142822 192.0
98.505959 220.0
98.608704 144.0
98.650215 164.0
98.673943 140.0
98.816338 184.0
98.846024 120.0
98.956863 172.0
99.212433 172.0
99.349274 244.0
99.63118 228.0
100.038857 204.0
100.26194 204.0
100.379555 120.0
100.429085 168.0
100.475296 52.0
100.527176 152.0
100.866707 112.0
101.102715 144.0
101.124725 192.0
101.250862 136.0
101.611671 168.0
101.73008 144.0
102.011314 64.0
102.180244 148.0
102.48024 164.0
102.560852 76.0
102.576973 132.0
102.613266 148.0
102.637459 156.0
102.976494 80.0
103.214958 208.0
103.26754 156.0
103.403091 136.0
103.520515 52.0
103.536713 168.0
103.775826 196.0
104.342285 128.0
104.922508 140.0
105.071388 156.0
105.665916 148.0
106.237503 152.0
106.475601 64.0
106.841484 152.0
106.892921 280.0
107.201805 148.0
107.323425 144.0
107.348167 80.0
107.381165 212.0
107.825058 96.0
107.955299 160.0
108.605614 112.0
108.638809 188.0
108.862968 216.0
108.900352 120.0
108.956436 244.0
109.155975 80.0
109.180931 172.0
109.393158 144.0
109.572258 172.0
109.676453 136.0
110.187721 140.0
110.273399 224.0
110.605927 204.0
110.6269 76.0
110.708557 216.0
111.020805 148.0
111.16346 148.0
111.524689 160.0
111.989685 152.0
112.221497 156.0
112.314285 140.0
112.455658 160.0
112.66893 164.0
112.729111 220.0
113.039948 320.0
113.358704 212.0
113.591919 208.0
113.706497 92.0
113.804146 184.0
113.87635 148.0
113.918831 136.0
114.048454 148.0
114.482475 208.0
114.52507 148.0
114.721107 128.0
114.921585 96.0
115.147858 68.0
115.258949 36.0
115.327332 244.0
115.440048 144.0
115.53476 288.0
115.556152 128.0
115.697403 184.0
115.967308 184.0
116.061073 184.0
116.100227 168.0
116.145271 176.0
116.256836 44.0
116.43502 204.0
116.52739 172.0
117.45092 144.0
117.649452 116.0
118.036194 72.0
118.107567 156.0
118.211411 56.0
118.291496 188.0
118.685799 152.0
118.711823 152.0
119.408943 48.0
119.4655 144.0
119.653381 228.0
120.536018 240.0
120.920914 188.0
120.955933 204.0
120.973442 180.0
121.065407 128.0
121.260384 112.0
121.690338 168.0
121.839684 152.0
121.894615 192.0
122.04464 60.0
122.746506 200.0
122.839935 132.0
123.508438 108.0
124.101944 148.0
124.179565 76.0
124.337082 200.0
124.66037 172.0
124.68576 140.0
124.779121 80.0
124.925903 84.0
125.42025 100.0
125.464836 196.0
125.678947 164.0
125.989281 148.0
127.052017 584.0
127.328773 152.0
127.434349 52.0
127.61866 128.0
127.803093 76.0
127.985413 180.0
128.06424 184.0
128.535416 208.0
128.70018 152.0
128.722763 272.0
128.776962 152.0
129.032318 172.0
129.192535 156.0
129.428268 112.0
129.444122 148.0
129.484879 132.0
130.049438 204.0
130.237885 144.0
130.260605 152.0
130.417389 124.0
130.699387 196.0
131.296219 60.0
131.312195 144.0
131.426254 176.0
131.750458 112.0
132.178009 248.0
132.322205 140.0
132.984695 120.0
133.007645 192.0
133.065048 144.0
133.163788 204.0
133.499329 196.0
133.796143 172.0
134.114029 172.0
134.298492 148.0
134.356171 100.0
134.610062 112.0
134.910416 96.0
135.042389 404.0
135.405594 116.0
135.470444 172.0
135.62265 216.0
135.825119 172.0
136.01564 180.0
136.5056 176.0
136.600967 120.0
136.628876 128.0
137.157501 196.0
137.332367 132.0
137.614746 140.0
138.044281 360.0
138.552597 228.0
138.676788 132.0
138.704926 156.0
139.051315 948.0
139.29155 236.0
139.350281 112.0
139.394928 228.0
139.437225 176.0
139.928864 76.0
139.961823 164.0
140.061508 2556.0
140.102783 160.0
140.324677 140.0
140.754105 56.0
140.895813 128.0
141.018692 140.0
141.065994 372.0
141.200745 160.0
141.316666 148.0
141.449188 124.0
141.527313 112.0
141.619675 164.0
141.93013 92.0
142.017868 136.0
142.040833 316.0
142.065308 104.0
142.27652 176.0
142.994385 156.0
143.311111 104.0
144.118042 184.0
144.442505 220.0
144.770615 116.0
144.907135 120.0
145.026611 396.0
145.07251 156.0
145.528336 172.0
145.797379 128.0
145.864685 36.0
146.702393 88.0
146.820541 132.0
147.047333 152.0
147.119751 168.0
147.233231 200.0
147.719055 184.0
147.762604 140.0
148.111191 144.0
148.50386 104.0
148.542664 120.0
148.933472 196.0
149.041656 172.0
149.176468 116.0
149.943192 212.0
150.047653 352.0
150.267502 204.0
150.523804 116.0
151.019913 256.0
151.053619 864.0
151.176483 128.0
151.313553 40.0
151.333145 124.0
151.837936 152.0
152.02684 120.0
152.061172 796.0
152.346039 136.0
152.368149 144.0
152.461517 140.0
152.623764 168.0
152.685242 136.0
152.763947 80.0
152.906662 116.0
152.968201 76.0
153.068069 660.0
153.108536 108.0
153.359848 200.0
153.409149 164.0
153.502182 164.0
153.537369 160.0
153.584229 184.0
153.645889 244.0
153.69278 100.0
153.717453 80.0
153.969254 196.0
154.045822 160.0
154.076096 664.0
154.255875 48.0
154.302841 156.0
154.659058 184.0
154.775421 180.0
154.872009 192.0
154.916595 92.0
154.985962 112.0
155.053253 204.0
155.305756 104.0
156.043304 152.0
156.557495 156.0
157.060684 164.0
158.228867 196.0
158.246384 100.0
158.795181 280.0
158.857895 44.0
158.935669 108.0
159.061142 168.0
159.194214 208.0
159.669189 184.0
159.754715 108.0
160.044144 144.0
160.084427 48.0
160.439697 140.0
160.457352 168.0
160.500214 136.0
160.891281 192.0
161.041687 128.0
161.426941 204.0
161.487625 176.0
161.73053 144.0
161.758377 56.0
162.043945 168.0
162.158585 96.0
162.412125 160.0
162.442566 136.0
162.668411 224.0
162.70903 124.0
162.767426 112.0
163.003662 312.0
163.052902 9372.0
163.110413 40.0
163.199387 44.0
163.257874 72.0
163.291214 72.0
163.346893 44.0
163.392685 52.0
163.521805 232.0
163.756699 224.0
163.774521 48.0
163.871323 120.0
163.905563 224.0
164.061493 16224.0
164.118561 196.0
164.14151 32.0
164.195068 56.0
164.258835 40.0
164.298645 132.0
164.319305 272.0
164.371094 188.0
164.590607 56.0
164.615646 144.0
164.642319 60.0
164.667221 60.0
164.777069 104.0
164.875748 168.0
164.927841 68.0
164.968735 92.0
165.067383 3812.0
165.111923 80.0
165.191208 188.0
165.227036 80.0
165.311462 64.0
165.477844 48.0
165.667358 40.0
165.749344 160.0
165.944153 152.0
166.03389 116.0
166.072861 556.0
166.108276 180.0
166.153412 124.0
166.254532 68.0
166.272491 188.0
166.308426 56.0
166.328964 132.0
166.390564 204.0
166.542084 264.0
166.670532 76.0
166.799026 148.0
167.048508 788.0
167.080261 252.0
167.153946 160.0
167.30838 84.0
167.362442 68.0
167.717957 100.0
168.056717 8996.0
168.131805 96.0
168.241623 36.0
168.445633 76.0
168.637482 288.0
168.789368 60.0
169.059296 1748.0
169.545258 128.0
169.672272 80.0
169.970551 168.0
170.031204 220.0
170.062439 160.0
170.13147 184.0
170.263885 164.0
172.050369 160.0
172.102356 88.0
172.363556 192.0
172.538681 84.0
173.051468 140.0
173.465408 60.0
173.625336 52.0
173.843079 108.0
174.187027 220.0
174.870667 80.0
175.055634 372.0
175.186646 140.0
175.964645 96.0
176.001602 184.0
176.06131 4836.0
176.107239 140.0
176.133652 44.0
176.29747 56.0
176.358246 52.0
176.419052 80.0
176.450775 60.0
176.511581 60.0
176.615402 252.0
176.815811 236.0
176.860809 196.0
176.9561 128.0
177.067673 2356.0
177.610672 40.0
177.852127 180.0
177.966293 96.0
178.076508 5060.0
178.168137 48.0
178.234558 112.0
178.282394 68.0
178.484421 72.0
178.505692 196.0
178.630692 56.0
179.081375 804.0
179.117264 76.0
179.167053 168.0
179.205338 80.0
179.333649 164.0
179.536285 172.0
179.736343 116.0
180.053894 316.0
180.082489 212.0
180.393356 144.0
181.063477 1688.0
181.161377 44.0
181.855881 148.0
181.992798 64.0
182.016953 88.0
182.071121 752.0
182.145157 164.0
182.371582 104.0
182.411896 152.0
182.791122 84.0
182.984909 256.0
183.068924 140.0
183.353958 64.0
183.375519 164.0
183.553436 88.0
183.618164 156.0
184.333557 152.0
184.606583 48.0
184.998917 280.0
186.308762 172.0
188.048096 164.0
188.663361 140.0
188.988831 120.0
189.06665 420.0
189.399475 156.0
189.588516 80.0
189.695419 192.0
189.868149 180.0
189.895584 60.0
190.076736 216.0
190.126038 164.0
190.744019 48.0
190.980499 132.0
191.005249 48.0
191.049301 308.0
191.079529 148.0
191.412567 116.0
191.580582 60.0
191.635681 56.0
191.815262 196.0
191.95668 272.0
191.994034 144.0
192.056244 9796.0
192.103806 188.0
192.154022 48.0
192.198166 52.0
192.297516 188.0
192.405167 32.0
193.061188 2316.0
193.289627 104.0
193.494446 168.0
193.531754 168.0
193.70491 80.0
193.861221 244.0
194.038528 188.0
194.072449 2012.0
194.104019 124.0
194.478546 56.0
194.545166 144.0
194.675659 96.0
194.845093 88.0
194.920105 104.0
194.975693 140.0
195.035019 180.0
195.077347 284.0
195.209213 80.0
195.338638 60.0
195.484604 28.0
195.540894 212.0
195.561798 180.0
195.634903 52.0
196.051559 2932.0
196.141891 96.0
196.166977 56.0
196.295242 80.0
196.404007 196.0
196.518387 76.0
196.646744 40.0
196.847748 76.0
197.052505 460.0
197.09314 144.0
197.434601 108.0
197.652802 96.0
198.058746 108.0
198.100769 88.0
198.347824 120.0
198.989777 144.0
199.071213 108.0
200.241135 76.0
201.663132 172.0
201.730972 108.0
201.824265 164.0
202.002441 68.0
202.63942 140.0
203.708954 92.0
203.916382 92.0
204.080719 104.0
204.308792 224.0
204.328705 60.0
204.402679 252.0
205.064438 208.0
205.100433 184.0
205.379868 240.0
205.670914 124.0
206.068863 508.0
206.442307 228.0
206.467804 212.0
206.513809 164.0
206.631104 88.0
206.660187 424.0
206.691177 140.0
206.854309 252.0
206.925888 100.0
206.997467 136.0
207.079315 17124.0
207.129211 172.0
207.160721 48.0
207.179688 72.0
207.292526 68.0
207.361298 40.0
207.45015 52.0
207.490295 72.0
207.516098 64.0
207.539032 32.0
207.573441 68.0
207.610718 100.0
207.685287 56.0
207.72258 60.0
207.745529 64.0
207.777084 36.0
207.817261 56.0
208.009537 68.0
208.083359 2188.0
208.161697 104.0
208.242111 88.0
208.279236 52.0
208.408737 84.0
208.460449 64.0
208.635788 56.0
208.673157 40.0
208.753662 84.0
208.773804 92.0
208.857208 60.0
208.939743 104.0
209.057693 524.0
209.082291 308.0
209.1651 32.0
209.389679 72.0
209.467438 108.0
209.525131 148.0
209.66626 92.0
209.69899 56.0
209.77002 92.0
209.821899 172.0
210.06636 1588.0
210.130508 104.0
210.214188 84.0
210.65303 220.0
210.762817 56.0
211.070358 264.0
211.349792 144.0
211.465546 68.0
211.601608 56.0
211.731903 40.0
212.0746 100.0
212.717728 192.0
212.947113 88.0
213.948135 48.0
214.722488 164.0
215.922852 144.0
216.133469 116.0
216.297363 52.0
216.53746 144.0
216.780609 112.0
217.989639 84.0
218.065948 116.0
218.077484 112.0
218.082153 216.0
219.072372 156.0
219.219696 104.0
219.278641 56.0
219.302216 176.0
219.502686 220.0
219.695953 144.0
220.050095 1128.0
220.737015 72.0
221.058533 196.0
221.456161 44.0
221.512436 84.0
221.637985 64.0
221.696136 164.0
222.068878 164.0
222.093414 52.0
223.489685 128.0
224.049423 112.0
224.080185 648.0
224.135818 196.0
224.633713 128.0
224.66951 140.0
225.086975 576.0
225.502625 128.0
225.556427 64.0
226.091797 168.0
227.071472 160.0
232.007675 120.0
232.238144 140.0
233.003113 76.0
233.994583 244.0
234.073761 136.0
234.162079 164.0
234.299149 128.0
234.37532 100.0
234.533783 164.0
234.649628 208.0
234.741104 52.0
234.814301 144.0
234.844788 172.0
234.890549 156.0
234.951553 148.0
234.985123 240.0
235.018677 156.0
235.074463 25416.0
235.152954 120.0
235.194031 52.0
235.229263 144.0
235.304062 88.0
235.441788 112.0
235.476593 56.0
235.659882 28.0
235.837112 72.0
235.865387 160.0
235.93161 44.0
236.039658 224.0
236.077545 3808.0
236.139816 64.0
236.182632 28.0
236.225464 84.0
236.409042 52.0
236.442703 112.0
236.629425 52.0
236.786652 104.0
236.996964 36.0
237.079071 452.0
237.217621 108.0
237.392395 44.0
237.61937 96.0
237.674606 112.0
237.748245 104.0
237.809631 72.0
237.843399 64.0
237.904785 80.0
238.05217 84.0
238.08902 184.0
238.635986 104.0
238.798965 56.0
239.068253 144.0
239.65477 44.0
240.345444 92.0
245.741257 116.0
249.735413 72.0
250.273544 56.0
250.298737 96.0
250.453064 64.0
251.067657 116.0
251.65773 68.0
253.081741 864.0
253.952042 92.0
254.083603 152.0
254.615372 60.0
256.289429 160.0
257.913025 64.0
269.456848 76.0
289.158905 92.0
289.690491 112.0
292.805237 128.0
292.917633 164.0
298.283203 128.0
305.681244 88.0
307.947296 132.0
324.388123 44.0
337.520142 72.0
338.046906 84.0
338.325073 88.0
339.526917 76.0
339.680969 100.0
349.196075 64.0
361.933319 68.0
367.803253 48.0
380.585083 80.0
393.328613 80.0
398.770905 32.0
413.64859 80.0
424.937469 72.0
427.308105 120.0
460.130005 48.0
474.916412 80.0
510.559784 60.0
510.64975 76.0
524.473328 52.0
539.918823 48.0
545.650085 52.0
565.289978 80.0
573.935242 92.0
574.111694 124.0
578.473999 64.0
584.663269 20.0
604.455994 108.0
605.449768 100.0
632.234253 104.0
698.045898 52.0
698.819153 88.0
701.526123 160.0
708.740356 96.0
755.030273 160.0
761.442505 92.0
803.664368 112.0
851.572937 52.0
900.31897 60.0
908.08728 116.0
931.987488 200.0
933.896362 152.0
937.158447 136.0
940.666748 180.0
945.164246 192.0
945.3172 80.0
947.349976 144.0
952.796814 152.0
956.247314 148.0
972.70752 100.0
972.806824 36.0
972.862732 180.0
985.187012 156.0
997.544861 136.0
1008.000916 160.0
1019.748047 52.0
1025.580688 236.0
1036.150269 164.0
1043.061768 144.0
1056.850098 148.0
1057.846802 212.0
1070.715942 236.0
1076.395996 160.0
1080.755859 108.0
1117.834473 140.0
1126.495239 148.0
1126.996338 176.0
1147.723633 256.0
1148.074341 168.0
1151.117798 128.0
1155.70752 136.0
1166.416016 224.0
1171.921631 88.0
1180.289917 160.0
1181.781006 160.0
1187.706909 188.0
1190.692505 160.0
1190.843628 28.0
1191.516846 124.0
1194.589722 144.0
1200.623413 160.0
1211.329834 136.0
1214.719482 196.0
1215.732544 104.0
1224.554932 120.0
1224.736084 152.0
1229.072266 76.0
1230.991943 212.0
1233.653931 192.0
1237.305786 196.0
1237.536865 128.0
1237.739868 148.0
1240.696533 88.0
1240.801758 164.0
1240.984009 176.0
1247.195801 128.0
1253.953735 116.0
1263.861572 120.0
1272.863647 120.0
1274.959351 108.0
1275.428345 152.0
1277.632812 192.0
1288.619263 136.0
1288.983765 116.0
1289.455322 188.0
1290.720703 256.0
1296.382935 200.0
1297.902588 172.0
1302.725586 152.0
1305.838013 256.0
1311.590942 196.0
1312.520996 124.0
1316.352661 188.0
1316.959229 236.0
1325.372803 108.0
1337.246338 168.0
1338.964478 136.0
1343.680786 124.0
1344.425049 88.0
1345.636719 136.0
1348.339478 140.0
1355.862915 172.0
1355.980225 60.0
1361.658813 164.0
1365.848389 60.0
1369.68335 88.0
1372.019409 144.0
1373.044312 104.0
1373.855713 160.0
1377.325195 236.0
1377.642822 172.0
1378.019531 156.0
1380.924683 120.0
1381.5979 204.0
1384.595703 132.0
1385.358643 80.0
1386.114258 200.0
1399.923828 168.0
1402.948853 200.0
1412.477417 144.0
1413.756836 160.0
1414.318237 216.0
1416.684448 124.0
1421.700562 104.0
1421.873169 144.0
1430.231079 168.0
1434.690552 172.0
1436.394775 128.0
1436.71167 160.0
1441.732788 128.0
1442.329956 40.0
1444.424438 176.0
1449.126587 176.0
1449.550049 144.0
1454.03186 152.0
1454.092651 100.0
1457.1073 204.0
1463.046875 140.0
1463.998657 148.0
1465.057373 144.0
1465.346924 236.0
1469.799683 216.0
1470.181274 124.0
1470.417847 68.0
1473.174316 192.0
1476.300415 144.0
1477.746094 40.0
1478.212891 84.0
1479.322632 160.0
1481.757935 140.0
1488.50769 128.0
1491.211914 128.0
1494.595581 176.0
1496.142578 212.0
1498.553223 148.0
1499.046387 176.0
1501.682983 212.0
1501.891235 124.0
