>compound MLS001335914-01!Quinidine hydrochloride monohydrate6151-40-2
>formula C20H24N2O2
>ionization [M+H]+
>parentmass 325.1910544600905
#inchi InChI=1S/C20H24N2O2/c1-3-13-12-22-9-7-14(13)10-19(22)20(23)16-6-8-21-18-5-4-15(24-2)11-17(16)18/h3-6,8,11,13-14,19-20,23H,1,7,9-10,12H2,2H3/t13-,14-,19+,20-/m0/s1
#inchikey LOUPRKONTZGTKE
#Ion_Source LC-ESI
#Instrument qTof
#Compound_Source NIH Pharmacologically Active Library
#PI Dorrestein
#Data_Collector VP/LMS
#Scan -1
#Precursor_MZ 325.191
#ExactMass 324.184
#Charge 1
#CAS_Number N/A
#Pubmed_ID N/A
#Smiles COc1ccc2nccc([C@H](O)[C@H]3C[C@@H]4CCN3C[C@@H]4C=C)c2c1
#INCHI_AUX N/A
#Library_Class 1
#SpectrumID CCMSLIB00000085197
#IonMode Positive
#UpdateWorkflowName UPDATE-SINGLE-ANNOTATED-GOLD
#LibraryQualityString Gold
#TaskID d252d724072548979f1f6f1ced849daf
##Scan# 1256
#SpectrumFile p3-F10_GF10_01_18291.mzXML
#LibraryName Pharm_Active_Library.mgf
#MQScore -1
#Organism Pharm_Active_Library
#TIC_Query 0
#RT_Query -1
#MZErrorPPM -1
#SharedPeaks 0
#MassDiff 0
#LibMZ -1
#SpecMZ 325.191
#SpecCharge 0
#internalFilename spec-00000.mgf

>collision 10
45.038155 156.0
45.301697 232.0
45.396866 164.0
46.098282 116.0
46.387943 132.0
46.71524 144.0
47.407539 164.0
47.537827 160.0
48.131165 140.0
48.442371 136.0
48.460384 120.0
48.889492 172.0
49.464577 140.0
49.7239 172.0
50.245991 172.0
50.98946 180.0
51.121727 164.0
51.170128 208.0
51.37394 188.0
51.455292 164.0
51.543854 104.0
51.668255 360.0
52.391872 148.0
52.461052 116.0
53.333393 116.0
53.367432 156.0
53.577026 156.0
53.981361 172.0
54.390152 180.0
54.600269 188.0
54.824059 128.0
54.924324 128.0
55.869499 140.0
56.227139 76.0
56.803234 96.0
57.242126 164.0
57.89909 140.0
58.02335 112.0
58.231255 156.0
58.71069 140.0
59.149223 140.0
59.706219 220.0
61.42094 120.0
61.711433 228.0
61.856937 148.0
61.886684 184.0
62.26149 140.0
62.657906 48.0
62.722519 160.0
62.952885 204.0
63.462437 188.0
64.066414 140.0
64.324776 204.0
64.4142 200.0
65.257225 180.0
66.447647 80.0
66.847382 172.0
67.129219 208.0
67.35936 116.0
67.666832 148.0
68.027527 296.0
68.172073 132.0
68.188507 200.0
68.504448 56.0
68.626411 160.0
68.730331 44.0
69.032646 148.0
70.113449 176.0
70.268532 176.0
71.345482 84.0
71.811951 212.0
72.175056 248.0
73.309059 52.0
73.448875 148.0
74.713188 232.0
74.756203 56.0
74.850883 240.0
75.743835 152.0
75.936241 184.0
76.071594 140.0
76.553238 204.0
76.842606 192.0
77.029411 196.0
77.391449 48.0
77.429977 40.0
77.563148 144.0
80.241638 188.0
80.257683 188.0
80.657608 180.0
80.900909 184.0
82.260025 152.0
82.570824 156.0
83.136101 228.0
83.823532 104.0
84.11718 140.0
84.146393 148.0
84.26329 164.0
84.715187 180.0
85.197693 240.0
85.948929 116.0
86.214859 116.0
86.455284 112.0
87.321732 136.0
87.775375 220.0
89.031906 124.0
89.099525 100.0
89.172821 172.0
89.633911 84.0
90.065971 156.0
90.237946 152.0
90.565346 208.0
90.637344 240.0
90.766556 148.0
90.78521 200.0
90.935097 148.0
91.020531 180.0
91.053131 168.0
91.140205 164.0
91.218124 60.0
91.631111 80.0
92.986961 180.0
93.067596 164.0
93.271248 268.0
93.292397 164.0
93.373154 108.0
93.654175 80.0
94.062202 124.0
94.557823 216.0
95.074776 204.0
95.638969 92.0
96.016975 136.0
96.243355 152.0
96.499321 76.0
97.006401 100.0
97.08091 204.0
97.561989 248.0
97.855148 44.0
98.604782 236.0
98.677925 96.0
99.046028 196.0
99.369179 180.0
100.427544 128.0
100.900841 180.0
100.994827 228.0
101.190956 204.0
101.794525 128.0
102.05777 108.0
102.42205 208.0
102.59536 120.0
103.015137 208.0
103.049484 156.0
103.575493 172.0
103.630196 200.0
103.952614 204.0
104.908607 128.0
105.055443 192.0
105.071556 180.0
105.137062 96.0
105.163597 36.0
105.606995 92.0
105.670418 128.0
105.799355 72.0
105.965256 100.0
106.438896 216.0
106.784355 196.0
106.856354 108.0
106.901627 124.0
107.074562 196.0
107.352791 164.0
107.44355 152.0
108.079063 448.0
109.090034 132.0
109.104584 160.0
109.602043 184.0
110.093147 200.0
110.186279 160.0
111.052963 164.0
111.097015 176.0
111.641052 52.0
112.891663 220.0
113.004982 160.0
113.365883 60.0
113.700974 32.0
114.125847 180.0
114.268356 152.0
114.4067 128.0
114.788101 160.0
115.05246 236.0
115.364601 128.0
116.054283 200.0
116.103348 212.0
117.05674 356.0
117.117851 40.0
117.176018 36.0
117.264374 204.0
117.451965 216.0
117.784401 164.0
117.972404 144.0
118.043762 156.0
118.059509 184.0
118.078362 196.0
118.630539 196.0
118.73896 96.0
118.90168 148.0
119.02977 176.0
119.044968 164.0
119.060173 144.0
120.078621 628.0
120.176933 192.0
121.095451 244.0
121.505051 116.0
121.634537 132.0
122.093445 484.0
122.146553 140.0
122.415077 72.0
122.602333 120.0
122.922112 212.0
123.081047 172.0
123.098717 156.0
123.988083 156.0
124.112328 220.0
124.229774 220.0
125.205597 164.0
125.921547 132.0
126.165115 172.0
126.771721 220.0
127.197884 148.0
127.557304 172.0
127.797958 176.0
128.047836 208.0
128.537064 128.0
128.699585 204.0
128.920975 168.0
129.052078 216.0
129.452606 112.0
129.543213 32.0
130.069016 208.0
131.071533 532.0
131.430344 188.0
131.704315 92.0
132.075317 352.0
132.340103 200.0
132.580734 172.0
133.360992 112.0
133.397781 80.0
133.448364 128.0
133.83493 196.0
134.095398 436.0
134.34198 188.0
134.362747 156.0
134.796844 88.0
135.101715 340.0
135.120575 184.0
135.634705 208.0
135.755859 140.0
135.829483 200.0
136.038345 164.0
136.107819 396.0
136.526306 152.0
136.733368 160.0
137.117844 156.0
138.127441 336.0
138.222305 48.0
138.561829 140.0
138.63916 100.0
138.78215 156.0
138.94165 108.0
139.204544 200.0
139.406586 96.0
140.03476 140.0
140.107788 160.0
141.057404 176.0
141.532043 208.0
141.761841 128.0
142.064255 512.0
143.071182 292.0
143.745178 88.0
144.077408 236.0
144.89772 120.0
145.052246 588.0
145.156601 72.0
146.057785 352.0
146.430359 140.0
147.02829 204.0
147.064026 188.0
147.712097 164.0
148.046112 244.0
148.106659 176.0
148.424164 144.0
150.031342 132.0
150.350891 52.0
150.907867 176.0
151.238129 88.0
151.51976 192.0
151.573669 144.0
152.022446 148.0
153.202698 92.0
153.264297 276.0
154.062653 540.0
155.070938 616.0
156.080048 288.0
156.549149 136.0
157.047546 184.0
157.844315 152.0
158.056625 776.0
159.069382 344.0
159.137299 36.0
159.353317 44.0
159.516678 140.0
159.695206 132.0
160.074005 4960.0
160.165924 80.0
160.541473 76.0
160.634796 32.0
160.821518 92.0
161.076263 468.0
161.334335 80.0
161.357086 48.0
161.653046 140.0
161.885941 52.0
161.97966 172.0
162.092453 472.0
162.253357 104.0
162.37001 112.0
162.722748 208.0
162.750671 120.0
163.086029 40.0
163.108902 48.0
163.678818 76.0
164.100601 220.0
164.969864 148.0
166.014557 196.0
166.060898 208.0
166.122086 1200.0
166.42514 184.0
167.073395 296.0
167.147461 52.0
167.204086 176.0
167.258133 96.0
167.842972 164.0
168.071533 352.0
169.050186 576.0
169.554382 144.0
170.016037 132.0
170.057388 488.0
170.084824 200.0
171.066376 408.0
171.279694 212.0
171.409958 224.0
171.76976 232.0
172.073563 5164.0
172.106445 88.0
172.187408 144.0
172.298447 92.0
172.321503 144.0
172.34465 104.0
172.380737 60.0
172.597702 40.0
172.684814 64.0
172.762482 56.0
172.793442 204.0
173.011108 96.0
173.052994 152.0
173.080688 1804.0
173.283493 116.0
173.991638 196.0
174.031021 76.0
174.052856 520.0
174.0867 1052.0
174.217514 124.0
174.298965 44.0
174.323318 104.0
175.060181 208.0
175.087189 172.0
175.422821 196.0
176.019119 176.0
176.107468 220.0
176.809586 248.0
177.3022 100.0
177.917603 168.0
178.07959 40.0
178.746902 176.0
179.073898 212.0
179.244873 220.0
179.970444 172.0
180.079926 136.0
180.807175 184.0
180.957092 140.0
181.084976 192.0
182.057053 712.0
182.217697 48.0
182.607498 108.0
182.857712 56.0
183.065842 692.0
183.863037 140.0
184.074554 2572.0
184.135727 240.0
184.197845 132.0
184.514053 144.0
184.551895 152.0
184.819687 56.0
184.957718 152.0
185.049759 148.0
185.079529 556.0
185.106628 72.0
185.168915 48.0
185.876511 144.0
186.031219 84.0
186.055161 176.0
186.089828 1280.0
186.283783 208.0
186.397888 176.0
187.06427 116.0
187.093399 388.0
187.674561 220.0
188.070114 768.0
188.098785 168.0
188.28038 40.0
189.076233 780.0
189.44838 72.0
190.082672 184.0
190.183304 40.0
190.595261 188.0
191.067688 196.0
191.403992 64.0
191.483871 120.0
191.580276 152.0
191.638138 136.0
191.668442 52.0
192.077438 364.0
193.087021 156.0
193.40564 184.0
193.557907 180.0
194.061157 136.0
194.084412 136.0
194.717148 156.0
194.772705 180.0
195.072952 348.0
195.106186 240.0
196.073349 448.0
196.114685 188.0
196.233215 176.0
196.917496 152.0
196.995712 192.0
197.081116 364.0
197.168961 124.0
197.526855 280.0
198.016708 132.0
198.08812 2168.0
198.131561 64.0
198.543625 156.0
198.591309 84.0
199.054382 200.0
199.08989 500.0
199.118973 196.0
199.818939 196.0
200.067825 212.0
200.103073 292.0
200.131378 128.0
200.272186 124.0
201.069077 208.0
201.104416 192.0
202.083984 616.0
203.090347 172.0
203.135742 168.0
204.083359 80.0
204.091873 136.0
204.099274 160.0
205.087555 304.0
206.092453 292.0
207.072296 128.0
207.10498 276.0
208.001343 128.0
208.067642 164.0
208.098953 188.0
208.774246 188.0
208.918076 156.0
209.085037 148.0
209.114029 128.0
209.266327 72.0
209.484863 100.0
209.692688 44.0
209.825287 196.0
210.085953 1408.0
211.088211 320.0
211.231735 216.0
211.399551 64.0
211.897614 168.0
212.104477 480.0
212.605164 64.0
213.098206 272.0
213.252838 168.0
213.453445 228.0
213.549423 96.0
214.009232 128.0
214.085922 140.0
214.204361 76.0
215.088623 324.0
216.028915 180.0
216.102982 380.0
217.092743 164.0
218.094696 176.0
218.366821 180.0
218.446243 180.0
219.030441 132.0
219.107452 204.0
220.079041 380.0
220.118256 172.0
221.060455 188.0
221.087082 200.0
221.108276 904.0
221.291336 36.0
221.400909 192.0
221.729767 100.0
222.038116 140.0
222.089996 348.0
222.12117 340.0
222.222031 100.0
222.786148 64.0
223.090332 180.0
224.101715 500.0
225.100494 212.0
225.387268 116.0
226.120483 496.0
226.293594 68.0
226.425354 100.0
226.733948 204.0
227.117615 520.0
227.34877 64.0
227.42981 52.0
227.757111 160.0
227.964417 112.0
228.141769 148.0
229.846542 156.0
231.092987 152.0
231.581909 176.0
232.033432 128.0
232.11377 308.0
233.077179 120.0
233.117447 136.0
233.123688 280.0
233.734421 160.0
234.08345 140.0
234.091644 92.0
234.101135 172.0
234.379974 84.0
235.141998 152.0
236.103333 500.0
237.07225 144.0
237.103668 236.0
237.141296 128.0
237.182587 192.0
238.112167 364.0
239.109375 212.0
240.097458 208.0
240.132187 152.0
240.458435 140.0
240.86293 68.0
241.134842 128.0
242.118713 228.0
244.114243 188.0
246.074249 128.0
246.752258 60.0
247.071274 52.0
247.098022 312.0
247.123047 204.0
248.102127 316.0
249.030518 132.0
249.09021 260.0
249.113953 184.0
249.222153 56.0
249.970566 60.0
250.120544 328.0
250.190903 44.0
251.076355 188.0
251.116837 1208.0
251.39183 56.0
252.127014 424.0
252.162445 176.0
252.342636 84.0
252.579834 68.0
253.131668 1140.0
253.163269 160.0
253.463165 160.0
253.580429 220.0
253.856247 88.0
254.132446 676.0
254.154633 188.0
254.379776 84.0
254.678284 152.0
255.142242 168.0
255.864456 76.0
256.166992 128.0
256.846008 140.0
257.155518 180.0
258.133148 108.0
258.750702 140.0
259.129089 140.0
260.109802 124.0
260.120483 168.0
261.112518 108.0
261.147919 104.0
261.24118 180.0
262.124512 356.0
262.465118 128.0
262.616699 76.0
263.120178 516.0
263.146545 188.0
264.140076 784.0
265.139557 676.0
265.417419 92.0
266.098816 76.0
266.144928 164.0
267.152435 304.0
267.574951 68.0
268.171967 164.0
270.346283 140.0
273.642029 104.0
274.136139 248.0
275.142181 144.0
276.02771 168.0
276.135437 288.0
276.169067 172.0
276.19162 220.0
277.1315 296.0
277.173065 160.0
277.202881 72.0
278.149628 584.0
278.72937 76.0
279.148651 740.0
279.430969 68.0
280.153015 164.0
280.410034 60.0
281.140442 124.0
281.180481 108.0
281.504333 72.0
282.082367 96.0
282.151154 544.0
282.400024 68.0
282.426788 60.0
284.121887 92.0
284.783203 52.0
285.159515 60.0
287.864899 148.0
290.147644 172.0
291.154144 180.0
292.156067 168.0
293.167389 252.0
293.397888 140.0
294.146271 156.0
294.77475 164.0
295.198639 156.0
296.118835 156.0
296.174133 180.0
297.198303 260.0
297.841156 196.0
298.095428 92.0
299.375183 204.0
299.836823 80.0
303.997345 44.0
304.657074 72.0
305.147827 136.0
305.89859 100.0
307.179169 4804.0
307.378113 80.0
307.536957 52.0
307.589325 80.0
307.858154 52.0
307.900085 72.0
308.178741 516.0
308.266907 52.0
309.099182 48.0
309.180054 252.0
309.214691 96.0
309.820465 76.0
310.156891 96.0
310.191956 144.0
310.255066 88.0
323.176392 136.0
324.351105 88.0
324.462219 84.0
325.021759 152.0
325.188812 10320.0
325.2771 144.0
325.308624 52.0
325.319366 48.0
325.391479 68.0
325.603333 56.0
325.725464 60.0
326.020111 156.0
326.138702 212.0
326.191711 1908.0
326.347229 40.0
326.717682 44.0
326.868805 56.0
327.199707 452.0
327.365601 112.0
327.668182 120.0
327.740234 92.0
328.086243 92.0
328.207672 160.0
328.248505 136.0
328.612823 52.0
329.360138 80.0
333.785431 52.0
338.870178 64.0
339.786804 44.0
343.930603 104.0
349.032257 84.0
349.236816 128.0
362.771027 164.0
365.39917 64.0
371.163055 40.0
380.275665 72.0
381.981537 128.0
384.740692 124.0
417.945251 128.0
430.815796 112.0
437.596954 108.0
484.311066 56.0
618.064575 88.0
656.845642 112.0
673.477539 40.0
708.556702 84.0
736.623596 128.0
763.876282 96.0
769.652344 124.0
786.429993 32.0
789.167419 148.0
816.649841 92.0
827.074829 136.0
874.502563 84.0
876.94104 88.0
985.033875 120.0
995.977478 160.0
1052.977783 152.0
1057.723877 232.0
1069.928711 140.0
1089.602173 180.0
1094.937134 176.0
1166.082153 212.0
1185.012085 160.0
1189.435669 92.0
1194.410767 168.0
1194.87854 48.0
1209.716919 220.0
1210.901001 192.0
1225.162354 192.0
1230.274414 132.0
1233.061523 144.0
1235.473999 64.0
1237.622803 160.0
1240.053711 172.0
1257.094971 164.0
1262.471191 196.0
1268.404663 252.0
1271.575317 188.0
1277.003662 216.0
1290.818237 204.0
1299.255981 156.0
1300.181763 200.0
1311.769653 124.0
1324.169312 208.0
1331.095337 140.0
1331.574707 196.0
1340.982544 196.0
1351.381836 172.0
1352.699219 152.0
1358.077759 208.0
1368.58728 168.0
1375.790771 148.0
1376.721191 164.0
1381.148438 136.0
1386.664795 232.0
1391.330811 108.0
1402.422485 132.0
1414.890625 224.0
1418.561646 140.0
1420.218872 172.0
1422.342529 92.0
1424.039429 56.0
1434.092041 92.0
1440.536377 200.0
1446.995117 232.0
1449.130981 164.0
1449.835815 240.0
1450.237427 232.0
1455.760864 204.0
1467.281372 156.0
1490.289551 196.0
1501.390259 208.0
