>compound MegestrolAcetate
>formula C24H32O4 
>ionization [M+H]+
>parentmass 385.239
#inchi InChI=1S/C24H32O4/c1-14-12-18-19(22(4)9-6-17(27)13-21(14)22)7-10-23(5)20(18)8-11-24(23,15(2)25)28-16(3)26/h12-13,18-20H,6-11H2,1-5H3/t18-,19+,20+,22-,23+,24+/m1/s1
#inchikey RQZAXGRLVPAYTJ
#Ion_Source LC-ESI
#Instrument qTof
#Compound_Source Isolated
#PI Sirenas
#Data_Collector Ed Esquenazi 
#Scan -1
#Precursor_MZ 385.239
#ExactMass 0.0
#Charge 1
#CAS_Number N/A
#Pubmed_ID N/A
#Smiles N/A
#INCHI_AUX N/A
#Library_Class 3
#SpectrumID CCMSLIB00000005912
#IonMode Positive
#UpdateWorkflowName UPDATE-SINGLE-ANNOTATED-BRONZE
#LibraryQualityString Bronze
#TaskID d19310cd93df49b68e9fcbec27720eb5
##Scan# 3
#SpectrumFile MegestrolAcetate.mgf
#LibraryName fda_library.mgf
#MQScore -1
#Organism fda_library
#TIC_Query 0
#RT_Query -1
#MZErrorPPM -1
#SharedPeaks 0
#MassDiff 0
#LibMZ -1
#SpecMZ 385.239
#SpecCharge 0
#internalFilename spec-00000.mgf

>collision 10
102.045097 64.593803
103.05394 134.478394
105.069885 1097.68396
105.099022 7.668333
105.112968 7.268518
105.15609 13.0056
105.198906 10.66764
105.291603 10.92004
105.380959 8.34543
105.65345 15.26087
106.078957 143.067398
107.049492 214.547394
107.084923 912.201416
107.130943 4.711957
107.3255 4.453432
107.433182 17.23188
107.444389 9.755555
107.52018 7.371913
108.300774 6.700269
108.768311 18.67837
108.971336 2.386905
108.989861 19.096769
109.059097 14.27161
109.066559 230.470001
109.1008 748.904114
109.145966 3.688725
109.189583 5.371913
109.295036 5.415
109.480515 4.695513
109.516914 5.678572
109.841263 4.673077
110.169617 9.422222
111.080299 257.121399
111.399971 11.70127
113.059845 22.336809
113.078766 2.125
113.096619 49.432541
114.460991 6.667857
114.930275 5.481482
115.185112 6.857143
116.75016 17.683201
116.840393 9.960366
117.069931 220.3517
117.290054 15.08889
118.028152 2.449074
118.077805 92.357658
118.43927 10.41667
118.489471 7.334402
118.925003 6.402778
119.086403 907.042725
119.137848 1.671296
119.150185 17.14167
119.172951 4.963235
119.255653 15.51577
119.325737 2.041667
119.384789 3.700758
119.449539 25.26432
119.479675 9.033334
119.49131 7.001263
119.852859 4.34375
120.455368 15.86722
120.512711 1.720238
120.631256 5.028846
120.718971 5.002451
120.868088 11.70238
121.064804 564.97699
121.101707 573.36322
121.151276 1.6875
121.175011 11.38462
121.201859 2.14881
121.270012 3.335784
121.277672 1.671296
121.323769 13.54167
121.388802 6.033602
121.415634 7.339743
121.423286 12.68519
121.526825 3.028846
121.553673 12.77844
121.637505 7.814815
121.807137 3.490385
122.428024 24.12145
122.583771 7.078432
122.642357 8.595239
122.676231 10.6681
122.962181 9.259408
123.080704 275.407104
123.118019 193.470703
123.135323 5.337121
123.292236 18.59572
123.353561 9.333333
124.178452 6.555555
127.053299 38.67408
128.062149 196.310699
128.606949 8.716464
129.068817 532.504395
129.129227 5.041667
130.495712 6.378623
131.045197 23.728451
131.08522 917.746399
131.132462 7.927469
131.216125 4.166667
131.255981 17.530741
131.341034 8.747549
131.658844 3.125
131.666718 7.360043
131.706665 1.694445
132.05275 27.22315
132.446381 11.45588
132.699188 4.963235
132.92717 13.57992
133.063522 107.666298
133.101532 1872.282959
133.167725 5.939394
133.200012 3.35
133.220123 5.801667
133.328583 7.560484
133.356491 18.688829
133.392838 6.361111
133.412933 13.66935
133.465225 6.564103
133.504715 22.183821
133.537476 6.564103
133.552338 9.523809
133.718124 11.45833
133.823257 6.348333
134.1241 9.890432
134.437119 12.51852
134.709961 9.411822
134.754379 18.48576
134.774582 4.8
135.079544 107.421402
135.11824 293.265411
135.174698 6.705246
135.306427 16.313169
135.470123 6.033602
135.490433 14.09524
136.094467 32.678108
136.418716 4.844298
137.094849 449.134186
137.124603 6.001984
137.310593 13.9679
137.388062 5.333333
137.485947 8.560185
139.072525 52.254059
140.298553 7.576149
141.068802 219.585495
141.256454 13.7002
142.077057 497.419586
142.109207 3.746795
142.403748 5.742284
142.420349 7.130208
143.085464 632.642029
143.318542 13.9679
143.406006 4.711957
143.547684 17.42407
143.71312 10.22917
143.877167 2.337963
144.093643 71.316147
144.139832 3.733333
144.25296 6.805555
144.503784 6.520061
145.065201 118.765099
145.10141 1890.136963
145.15271 7.364899
145.195175 101.014603
145.228165 3.675
145.260162 24.226191
145.341476 5.708333
145.365219 2.520833
145.374496 22.35627
145.38768 11.58671
145.473526 6.833333
146.072937 52.80278
146.370789 17.775
147.083145 246.518204
147.115875 457.913605
147.171524 2.0
147.222488 4.005952
147.352356 1.680555
147.424866 7.078432
147.505188 10.36687
147.564285 8.733334
148.101486 11.37083
148.368317 3.675
149.096313 594.794617
149.132202 21.726191
149.170044 2.449074
150.672073 9.680555
150.725189 6.380208
151.112213 86.850647
151.145966 49.442921
152.06337 92.369568
152.098877 5.469444
153.067108 62.125912
153.122223 16.705191
154.077423 67.371063
154.39325 3.854167
154.788361 6.335318
155.084564 514.40332
155.19548 6.75
155.206711 2.520833
155.256165 3.678571
155.429611 9.04344
155.518936 6.520833
155.6259 2.520833
155.731171 5.125
155.755035 8.520833
156.064453 40.46006
156.072968 22.028009
156.090546 199.013794
156.233109 12.14103
156.698578 8.017858
156.720413 10.36458
156.763962 3.760417
156.877243 5.015
157.053528 24.55032
157.100174 1524.593994
157.13443 11.00079
157.147522 4.120098
157.167068 5.054487
157.182434 10.01389
157.266159 15.38849
157.287643 12.74242
157.382919 11.75119
157.654114 18.335649
157.684372 6.666667
157.754395 2.722222
158.071854 144.814194
158.134659 11.00269
158.144669 11.82843
158.20134 5.840278
158.472778 17.482759
159.006439 7.001667
159.080643 435.84671
159.116089 989.893921
159.185425 20.17647
159.199509 5.013889
159.313004 6.598684
159.423431 6.801667
159.449936 2.083333
159.559662 11.03157
159.681839 17.201191
159.73584 13.58333
160.088211 174.671799
160.131973 29.5625
160.246124 8.93889
160.285553 6.395833
160.324875 11.0303
160.440247 16.424549
160.457367 17.683201
160.509781 14.90705
160.611649 7.0
160.675995 6.387821
161.095642 1415.769043
161.133591 208.313599
161.216263 21.750771
161.227264 13.61837
161.283554 9.074275
161.353516 21.898149
161.735153 14.65988
161.941467 8.061869
163.019043 20.37042
163.112228 191.708405
163.174667 5.208333
163.300171 5.414216
164.175964 7.710784
164.519379 7.416667
165.066681 157.001099
165.087265 32.838699
165.426163 2.041667
165.609955 11.00872
166.04451 12.33418
166.076416 58.338902
167.085266 500.560486
167.194168 8.04529
167.243561 11.44298
167.413635 7.773809
167.716217 4.695513
168.093201 228.778793
168.12204 13.56871
168.221146 3.066667
168.656998 7.208333
169.101501 1509.244995
169.138992 4.700758
169.206375 12.25
169.223297 2.408333
169.247314 9.950757
169.308212 2.916667
169.342087 2.672619
169.401108 8.415
169.826797 6.763889
169.922134 5.742284
170.375671 25.03141
170.453125 13.70833
171.080719 553.424194
171.11676 1139.802002
171.170959 3.675
171.190689 19.04612
171.221466 2.083333
171.258148 2.027778
171.280792 2.336539
171.303528 2.666667
171.324921 22.25
171.358032 4.055556
171.369247 9.631173
171.384506 41.841179
171.534073 17.091459
171.634842 7.490385
171.650024 2.449074
172.05101 31.682289
172.151337 8.238889
172.233673 7.880051
172.960403 17.65766
173.095993 753.990112
173.132187 720.820374
173.19278 2.075
173.297943 15.75
173.344894 4.666667
173.473175 9.355496
173.52359 15.68709
173.54747 13.26453
173.651917 17.33532
174.028397 18.70833
174.098938 347.569885
174.222 15.76325
174.251266 34.259071
174.269104 4.640152
174.359146 5.966667
174.37471 6.583333
174.390778 9.204166
174.537827 10.10289
174.588394 3.760417
174.661942 15.66987
174.69873 10.00417
174.850601 11.09399
174.883163 39.640129
175.111771 2343.346924
175.14447 111.580902
175.167587 12.31373
175.204895 7.334459
175.238892 5.510417
175.369598 22.4181
175.396118 34.674721
175.435333 10.41667
175.45195 15.20436
175.498093 24.4454
175.590881 10.45343
175.702576 14.89167
175.961105 10.93452
176.768524 3.816667
177.461151 7.008333
178.661179 11.56048
179.085648 440.690094
179.327164 8.346265
179.508926 1.694445
179.593475 3.053571
180.09343 172.899399
180.194733 5.346264
180.517105 5.006944
181.079376 67.72644
181.102081 480.197388
181.144928 5.522727
181.44458 6.746795
181.739166 5.494048
182.109482 503.339386
182.189636 2.4
182.19902 3.333333
182.263855 6.037281
182.368103 8.006945
182.782364 3.185606
182.805283 2.722222
182.90918 8.840278
183.117249 2542.75708
183.170868 10.415
183.195801 4.786765
183.214508 23.59234
183.23378 8.022223
183.276001 7.242816
183.328308 67.143608
183.35141 27.79978
183.398422 6.34543
183.455841 8.786765
183.535278 16.56818
183.566101 6.933333
183.586609 2.016667
183.605301 12.4386
183.664703 6.375
183.898605 5.522727
183.912308 3.342592
183.977966 13.70525
184.011398 8.33422
184.256134 6.260417
184.455292 5.160714
184.874435 10.13644
185.09494 472.296509
185.132248 921.030823
185.183762 4.00463
185.224564 19.477551
185.244781 30.10215
185.45845 14.53289
185.785553 8.003205
185.994034 5.705246
186.198395 2.449074
186.226715 7.7
187.11113 1631.254028
187.148849 44.007389
187.176514 22.142361
187.352081 8.370614
187.372482 5.801667
187.409302 30.05341
187.439163 11.80474
187.48204 5.742284
187.55098 12.075
187.591263 8.535
187.715515 4.333333
187.761185 17.25379
187.85376 21.48765
187.898422 4.680556
188.011169 5.160714
188.119186 534.870422
188.145248 52.246712
188.480453 7.280303
189.181747 5.88587
189.440125 6.337963
189.694 6.030303
190.130264 12.25
190.791153 11.33333
191.083313 24.667311
192.092575 60.668758
192.159973 5.444445
192.420486 10.67083
193.100189 688.541321
193.159531 8.0
194.025101 12.17361
194.108414 592.786194
194.145035 9.476851
194.229172 3.761364
194.258743 8.458333
194.354874 1.777778
194.442368 8.268382
194.496948 11.3344
194.526596 9.519231
194.556961 1.833333
194.633621 12.69338
194.666946 31.737249
194.826355 3.680556
195.045975 28.28323
195.074097 11.68
195.116394 1657.651978
195.183212 4.226852
195.312256 9.240384
195.387619 2.5
195.407074 6.958333
195.43869 11.37186
195.689575 8.510417
195.730606 3.380953
195.775253 13.18561
195.896118 5.025641
196.058807 40.13633
196.09021 57.309521
197.095901 58.633091
197.132156 1964.251953
197.192078 2.854167
197.248245 26.36751
197.268494 28.865971
197.375824 27.48246
197.403549 7.415
197.43779 8.765873
197.467117 5.669117
197.663223 20.648439
197.684723 10.50595
197.79361 4.416667
197.858612 40.723412
197.914871 6.375
198.081619 6.095238
198.139557 1407.661011
198.220688 13.40221
198.31131 16.625
198.40947 6.533333
198.426468 19.699209
198.470703 5.208333
198.551987 5.84375
198.789368 21.5193
198.838943 12.74242
198.883362 20.085939
199.044403 5.69697
199.109985 200.438202
199.146683 868.491577
199.206406 7.666667
199.367523 9.208333
199.388123 16.00514
199.525696 9.666667
199.540482 8.02671
199.639954 12.60417
199.723495 3.375
199.904251 16.00528
199.924057 8.791667
200.091217 9.102273
200.268402 5.705246
201.165604 166.553696
201.365952 4.482143
201.980408 6.380208
202.78215 4.686404
203.137192 47.059132
203.745102 22.093439
204.08783 50.438202
205.100937 210.504395
205.436218 3.333333
206.395386 10.625
206.909821 9.405142
207.11525 398.071014
207.350372 14.36905
207.546661 5.225
207.656296 7.594136
207.836761 24.615
207.906723 24.557631
207.930054 18.27083
207.966339 10.16329
207.997314 10.7815
208.016525 17.15
208.037292 13.47756
208.077866 5.672619
208.124435 420.45459
208.183929 2.075
208.207932 17.66717
208.299973 11.66786
208.327316 20.79487
208.475204 10.08013
208.646988 8.557519
208.680069 12.01282
208.963623 15.94818
209.092468 169.115906
209.132553 8739.901367
209.195175 86.756119
209.235367 11.05357
209.250626 6.013528
209.278534 4.002451
209.318054 33.507881
209.359985 24.77844
209.386749 10.125
209.399292 17.507851
209.431656 38.572849
209.449677 4.669117
209.48967 18.825569
209.502243 38.620441
209.524368 17.7631
209.539566 47.060169
209.572739 18.09643
209.621277 23.727909
209.659439 9.185606
209.749725 21.388889
209.773468 14.01587
209.794617 22.68449
209.814743 34.635941
209.869339 24.23333
209.911713 18.735121
209.968582 14.49405
210.042175 75.849113
210.07782 40.892651
210.226151 6.047619
210.349304 19.37698
210.417465 15.67742
210.679962 6.340909
210.705353 11.45833
210.735886 7.680555
210.760773 7.732527
210.784348 7.573412
210.883682 11.66786
211.003265 7.763095
211.112442 428.176788
211.147934 3620.552979
211.212418 29.016159
211.256729 19.37993
211.267929 11.85688
211.296646 19.372549
211.321747 4.341667
211.356613 18.044121
211.402664 4.083333
211.457672 26.739361
211.481094 42.2155
211.635971 14.22685
211.654602 11.52273
211.680969 10.68182
211.698639 8.223765
211.729065 4.208333
211.768768 22.43001
211.946457 9.633772
212.153702 659.373718
213.024429 8.601191
213.126282 264.886292
213.229538 4.125
213.271362 17.79285
213.38826 12.87847
213.559601 3.440476
214.219437 23.14167
215.102997 18.706699
215.141159 92.423576
215.468597 3.686404
216.376221 12.30044
217.102448 73.446869
218.108185 118.827103
219.117081 342.8909
219.260101 4.630952
219.279663 14.65385
219.401749 2.893518
219.53717 10.67539
219.810501 11.0336
219.877029 26.329109
220.124847 236.569397
220.64682 15.53938
220.796707 7.344908
221.130844 378.948212
221.212173 19.738211
221.404526 17.0
221.532318 11.77885
221.929367 3.361111
221.961334 8.680555
222.075043 31.96884
222.100159 44.24284
222.139526 401.044708
222.339859 11.19133
222.419418 11.54688
222.47998 19.97963
222.516602 5.160714
222.687546 5.340278
222.743347 22.543289
222.765427 7.682539
222.815918 31.97727
222.863739 2.361111
222.886063 71.393761
222.92691 46.696369
223.025314 15.81548
223.111496 151.308105
223.147507 1998.887939
223.207001 5.669117
223.249771 14.70387
223.274567 14.13993
223.300537 23.33392
223.373749 9.7
223.44072 4.5
223.494812 9.149692
223.534576 18.459829
223.638596 7.011364
223.78093 16.63516
223.846756 6.057692
224.066376 3.926282
224.08638 26.912149
224.156113 11426.549805
224.215302 83.246132
224.241852 34.181931
224.258011 9.008333
224.295135 65.074242
224.308975 24.696461
224.326141 5.939394
224.342484 19.819441
224.369476 45.89867
224.410248 10.00198
224.454819 59.388
224.484818 29.35606
224.514923 19.887409
224.532028 10.21814
224.570007 16.723949
224.587418 5.673611
224.628098 13.47619
224.661804 55.040401
224.692886 33.692459
224.755219 15.29321
224.772446 50.638748
224.827484 20.16647
224.855835 17.080879
224.97226 5.047619
225.125977 287.423615
225.401917 18.873989
225.426636 11.66987
225.510208 8.462607
225.535965 7.083333
225.555771 19.00436
225.594208 3.791667
225.615021 3.354167
225.674301 19.047621
225.709946 2.708333
225.729691 10.44551
225.786255 8.972826
225.891998 10.47115
225.949463 5.573412
226.032944 15.0
226.77626 6.095238
227.142395 169.976593
227.178726 78.480827
227.242142 5.898148
227.299881 28.73554
227.346771 19.961599
227.421326 5.510965
229.230026 5.932018
229.319626 18.65761
229.562546 6.818182
231.462845 5.008333
232.12204 142.151001
232.151413 7.335145
232.422501 5.682971
232.941879 6.76923
233.01091 6.125
233.136078 109.133102
234.140427 777.168823
234.207291 1.666667
234.276505 3.010417
234.335098 8.692307
234.457581 21.09697
234.750916 6.98077
234.979935 5.083333
235.148987 549.459778
235.209442 2.669444
235.422745 10.17175
235.49324 12.89286
235.52951 5.016304
235.614944 4.35307
235.780472 6.075
235.876556 8.980392
235.938446 3.791667
236.112289 26.00119
236.154938 249.186798
236.502182 17.70248
236.877029 6.189394
236.957199 6.395833
237.124908 64.179977
237.162872 527.221802
237.232254 12.74887
237.273254 7.334402
237.523361 7.297619
238.138214 83.20536
238.529526 4.354167
239.144562 458.62619
239.178955 421.369385
239.225174 1.791667
239.314819 17.90909
239.340851 4.708333
239.496979 15.81548
240.320343 12.75
240.479691 7.787037
241.123093 28.377159
241.159042 416.885406
241.189377 107.207703
241.288025 31.823721
241.530914 2.761364
241.842316 8.680555
242.223526 10.01965
243.173065 13.525
243.399872 8.677381
243.888184 7.615
245.129745 130.381805
247.145187 33.46368
247.629852 9.4375
247.913361 17.2402
247.936661 6.688726
248.15625 94.158272
248.424683 22.539379
248.835403 9.749578
249.127365 60.250801
249.16423 1677.949951
249.317688 9.844298
249.379135 2.083333
249.441757 27.927361
249.566116 4.0
249.588226 12.13564
249.6492 9.840278
249.748199 15.12346
249.793945 2.041667
249.990311 1.777778
250.137924 25.01255
250.366394 7.375
250.915009 40.661781
251.144073 398.878296
251.206802 8.366667
251.305817 10.60093
251.366486 17.69919
251.46048 18.774771
251.870468 25.29611
252.150497 289.780396
252.179855 32.260529
252.484634 11.125
252.611969 15.88005
252.69751 7.367857
253.157547 156.710403
253.543762 20.722019
254.12532 26.91325
254.198044 18.98177
254.572968 10.16667
255.108871 5.371913
255.169098 29.27252
255.208908 9.72
255.464615 8.666667
259.55661 8.783046
260.252106 4.703703
261.166626 34.40287
261.388763 32.48167
261.685211 12.00076
261.764008 6.685185
263.141388 29.68116
263.176971 257.94809
263.246399 3.003205
263.570099 21.28229
263.658813 13.86111
263.748993 4.001812
263.792389 12.63333
263.862122 17.334681
264.151031 77.952332
264.185455 371.47229
264.219086 3.483333
264.260559 3.375
264.314301 2.367424
264.546234 13.5
264.846222 10.36594
265.156891 394.221985
265.194183 641.750671
265.260864 12.0819
265.280762 17.18528
265.418335 4.708333
265.509033 25.966669
265.526123 9.162635
265.565735 7.495968
265.622406 6.748333
265.730591 25.04487
265.757263 8.231482
265.900635 3.4
265.91449 4.458333
265.934357 7.004386
266.121674 6.564103
266.168701 198.726196
266.325989 6.734848
266.76712 3.6
266.967865 2.666667
267.11673 56.627609
267.137634 96.541901
267.174866 7123.214844
267.245361 37.141331
267.263672 15.06061
267.303589 30.338381
267.338013 28.525
267.371704 19.67647
267.388672 6.700269
267.411591 24.60214
267.46405 12.34032
267.502441 9.690476
267.530975 24.16564
267.557404 6.3
267.57074 11.26759
267.684479 3.005953
267.725067 5.898148
267.762085 16.59524
267.935608 4.225
267.980621 33.6754
268.419312 21.358009
268.589081 2.666667
269.040955 8.088889
269.294189 9.653985
269.326263 23.3419
271.119171 4.291667
273.160675 56.14362
273.635712 2.680556
274.170044 83.914146
275.013947 9.253379
276.146027 3.125
277.159576 32.895828
278.155914 36.384258
278.370056 10.07562
279.170959 24.702021
279.514893 4.017857
280.137573 3.375
280.181976 28.669121
280.376373 11.37186
280.479309 15.60417
280.533661 14.00278
280.557709 4.531863
280.651123 6.531863
280.89505 5.382936
280.965179 16.841181
281.189758 683.020325
281.246918 9.702586
281.6185 4.666667
281.659943 4.225
281.827454 63.09528
281.940613 3.555556
282.158539 56.849251
282.197327 2677.485107
282.24646 14.20833
282.272766 8.005555
282.339874 22.012541
282.383331 31.774509
282.406738 8.927469
282.46405 60.984749
282.506775 34.869492
282.570953 4.120098
282.617706 14.12919
282.680084 8.333333
282.722992 7.667793
282.778168 15.3952
283.052856 5.136111
283.076233 9.897988
283.249695 6.685185
283.519104 17.03347
283.695312 19.41469
283.76416 11.95833
283.811646 10.71196
283.852112 3.449074
284.128632 6.728535
284.315521 15.6
284.415863 17.67539
284.7388 6.399193
285.179291 14.45333
292.17926 170.927994
294.250763 16.161619
295.172272 125.025597
295.348755 7.034091
295.379578 6.668011
297.184235 18.51882
297.673981 22.66667
307.207489 158.376205
308.912018 4.034091
310.192932 266.217804
310.740936 13.6299
311.841827 2.333333
325.224854 46.670609
325.522095 3.761364
325.548279 8.45
326.207489 39.89801
327.650696 12.16667
390.380585 23.49507
1283.085815 10.01293
1412.536987 6.136111
1478.552979 12.4662
