>compound MLS001140920-01!4-[[2-(4-methyl-2-oxochromen-7-yl)oxypropanoylamino]methyl]cyclohexane-1-carboxylic acid
>formula C21H25NO6
>ionization [M+H]+
>parentmass 388.176
#inchi InChI=1S/C21H25NO6/c1-12-9-19(23)28-18-10-16(7-8-17(12)18)27-13(2)20(24)22-11-14-3-5-15(6-4-14)21(25)26/h7-10,13-15H,3-6,11H2,1-2H3,(H,22,24)(H,25,26)/t13?,14-,15-
#inchikey GCWSGQPKIODBTC
#Ion_Source LC-ESI
#Instrument qTof
#Compound_Source NIH Natural Product Library
#PI Dorrestein
#Data_Collector VVP/LMS
#Scan -1
#Precursor_MZ 388.176
#ExactMass 387.168
#Charge 1
#CAS_Number N/A
#Pubmed_ID N/A
#Smiles CC(Oc1ccc2c(C)cc(=O)oc2c1)C(=O)NC[C@H]3CC[C@@H](CC3)C(=O)O
#INCHI_AUX N/A
#Library_Class 1
#SpectrumID CCMSLIB00000080184
#IonMode Positive
#UpdateWorkflowName UPDATE-SINGLE-ANNOTATED-GOLD
#LibraryQualityString Gold
#TaskID b1d8e8f6646f4e71acdff9ca3d919d08
##Scan# 1798
#SpectrumFile p2-C05_GC5_01_18005.mzXML
#LibraryName NIH_Natural_Products_Library.mgf
#MQScore -1
#Organism NIH_Natural_Products_Library
#TIC_Query 0
#RT_Query -1
#MZErrorPPM -1
#SharedPeaks 0
#MassDiff 0
#LibMZ -1
#SpecMZ 388.176
#SpecCharge 0
#internalFilename spec-00000.mgf

>collision 10
95.045937 160.0
95.086487 2292.0
95.478935 112.0
96.043755 228.0
96.092522 552.0
96.455757 76.0
96.651321 164.0
96.900864 168.0
97.092079 204.0
97.386467 188.0
97.775749 240.0
98.317711 140.0
98.966072 168.0
99.013596 124.0
99.108681 148.0
99.912773 168.0
100.091904 148.0
100.159615 144.0
100.40078 152.0
100.52478 124.0
100.54641 136.0
100.600304 168.0
100.618271 144.0
100.742088 120.0
101.198067 128.0
102.117142 196.0
102.642754 168.0
102.703255 160.0
102.725441 148.0
103.054314 244.0
103.299133 256.0
103.483292 204.0
103.872391 168.0
104.026611 192.0
104.059242 216.0
105.07016 972.0
105.857506 140.0
106.041878 220.0
106.073608 368.0
106.181297 168.0
106.44397 156.0
106.616524 172.0
106.717247 32.0
106.867867 140.0
107.050819 256.0
107.086693 332.0
107.1577 100.0
107.553635 36.0
107.780807 176.0
107.828339 112.0
108.053726 180.0
108.754135 136.0
109.103111 156.0
109.440155 140.0
109.565117 152.0
109.581787 200.0
109.904961 192.0
110.059418 196.0
110.101654 160.0
110.322662 172.0
110.506699 176.0
110.523438 112.0
110.565292 172.0
111.101425 192.0
111.198219 180.0
111.717216 192.0
112.079338 208.0
112.1129 1296.0
112.138344 224.0
112.172073 36.0
112.429382 72.0
112.579269 112.0
112.911064 76.0
113.114471 204.0
113.372574 64.0
113.495522 80.0
113.739487 208.0
113.796806 124.0
113.995735 116.0
114.894989 120.0
115.057182 368.0
115.25795 232.0
116.034889 180.0
116.059792 156.0
116.275131 160.0
116.909111 172.0
116.997353 128.0
117.075348 180.0
117.342056 164.0
117.432625 100.0
117.46714 112.0
117.788765 140.0
118.035141 120.0
118.173576 184.0
118.513504 168.0
119.086105 324.0
119.466591 148.0
119.888992 196.0
120.088287 204.0
120.150642 240.0
120.382004 216.0
120.851967 136.0
120.954819 124.0
121.063568 672.0
121.097137 208.0
121.25927 56.0
122.062744 156.0
122.095505 336.0
122.155113 52.0
122.238716 88.0
122.28273 76.0
122.339966 148.0
122.469879 148.0
122.882111 112.0
122.899757 176.0
123.078133 172.0
123.098419 224.0
123.365753 60.0
123.527184 128.0
123.728561 236.0
124.043129 184.0
124.078812 340.0
124.118507 192.0
124.307053 180.0
124.824631 224.0
125.082703 164.0
125.116959 120.0
125.363327 112.0
125.465858 72.0
126.05452 448.0
126.383797 208.0
126.513603 244.0
126.529274 108.0
126.544945 168.0
126.85186 136.0
127.444344 80.0
127.592682 44.0
127.799591 32.0
128.588303 232.0
129.068176 264.0
129.485855 188.0
129.537949 128.0
129.694305 120.0
129.753235 228.0
129.995941 184.0
130.073105 44.0
130.284286 168.0
130.329727 136.0
130.384262 156.0
130.443359 148.0
130.463821 228.0
130.793655 56.0
131.049988 1104.0
131.088409 284.0
131.31543 60.0
131.705719 172.0
131.742264 172.0
131.856522 144.0
132.053467 328.0
132.085159 140.0
132.595734 128.0
132.763092 40.0
132.918167 200.0
133.065887 552.0
133.20607 136.0
133.491058 164.0
133.723404 184.0
133.748734 192.0
133.863846 116.0
134.068863 336.0
134.327087 176.0
134.384766 76.0
135.046066 312.0
135.082214 388.0
135.164902 144.0
135.29303 56.0
135.313873 76.0
135.353241 156.0
135.406494 64.0
135.561707 84.0
135.603424 128.0
135.691513 124.0
135.921127 84.0
136.044144 176.0
136.083862 204.0
136.169525 204.0
136.283356 180.0
136.56929 140.0
137.01622 228.0
137.121078 156.0
137.358902 152.0
137.793121 116.0
137.846863 164.0
138.036194 216.0
138.091965 872.0
138.12796 1312.0
138.153137 188.0
138.347382 184.0
139.064651 164.0
139.095169 136.0
139.130371 220.0
139.367584 184.0
139.398132 128.0
139.579132 108.0
139.61676 68.0
139.790833 72.0
139.981506 120.0
140.070999 164.0
140.108368 5812.0
140.179382 48.0
140.250076 32.0
140.301941 92.0
140.318451 52.0
140.344376 104.0
140.391541 64.0
140.436356 68.0
140.476456 64.0
140.554306 244.0
140.80217 32.0
141.066803 164.0
141.110703 564.0
141.161377 72.0
141.369537 52.0
141.405045 96.0
141.660767 40.0
141.99971 68.0
142.117432 200.0
142.201385 72.0
142.757294 208.0
143.173752 76.0
143.202332 148.0
143.378632 120.0
143.659973 140.0
144.056671 160.0
144.245026 236.0
144.52005 212.0
144.754623 252.0
145.073288 212.0
146.105927 84.0
146.609146 152.0
147.048141 144.0
147.081772 1280.0
147.371658 176.0
147.613373 120.0
148.050385 340.0
148.084518 68.0
148.63559 220.0
149.06073 632.0
149.106689 188.0
149.152878 60.0
149.233093 192.0
149.269791 200.0
149.68811 232.0
150.03653 236.0
150.12674 180.0
150.185272 56.0
150.212097 224.0
150.312134 200.0
150.431717 240.0
151.25795 92.0
151.671906 116.0
151.904846 60.0
152.108429 460.0
152.422882 108.0
152.781845 140.0
152.816284 116.0
153.067337 156.0
153.1129 108.0
153.19577 140.0
153.646545 172.0
153.984726 168.0
154.310898 192.0
154.872635 124.0
154.979156 136.0
155.708466 184.0
155.966858 172.0
157.07164 192.0
157.258484 132.0
158.164368 172.0
158.75061 84.0
158.876022 168.0
159.044693 848.0
159.080902 508.0
159.119461 136.0
159.159637 108.0
159.217392 196.0
159.23999 200.0
159.282684 128.0
159.77037 156.0
160.050446 444.0
160.090683 136.0
160.306671 44.0
160.778244 136.0
161.058456 176.0
161.399658 128.0
161.986801 60.0
162.095749 92.0
162.377136 192.0
163.070251 56.0
163.810684 152.0
164.266983 164.0
164.437927 144.0
164.559082 200.0
164.670258 160.0
165.155884 204.0
165.255646 180.0
165.370804 160.0
165.701141 136.0
166.086502 340.0
166.122803 364.0
166.326859 180.0
166.373062 144.0
166.457779 128.0
166.688095 152.0
166.727524 80.0
166.755783 252.0
167.131012 2084.0
167.316544 44.0
167.465897 192.0
167.924667 28.0
168.132919 100.0
168.234299 232.0
168.329834 148.0
168.57782 160.0
168.782028 132.0
169.126099 168.0
169.188232 128.0
169.2892 108.0
169.359131 108.0
169.558624 164.0
170.077347 192.0
171.041687 180.0
171.341156 124.0
171.505325 192.0
171.544418 128.0
171.662308 204.0
172.337799 232.0
172.384827 124.0
172.583481 108.0
173.059677 160.0
173.130386 144.0
173.455261 204.0
173.662399 136.0
173.943161 112.0
174.066559 168.0
174.702591 120.0
175.07753 2828.0
176.041153 312.0
176.080872 380.0
176.3004 88.0
176.469574 100.0
176.556839 196.0
176.624374 128.0
176.73143 168.0
176.768463 152.0
176.83992 108.0
176.895691 168.0
176.932678 188.0
176.953751 140.0
177.004669 228.0
177.056351 33236.0
177.127579 56.0
177.173569 60.0
177.202698 76.0
177.241119 80.0
177.264023 96.0
177.313995 196.0
177.34845 76.0
177.428192 96.0
177.462448 116.0
177.621567 56.0
177.756866 76.0
177.868866 100.0
177.990448 232.0
178.059464 3116.0
178.250763 72.0
178.402267 80.0
178.623703 160.0
178.652237 44.0
178.692139 48.0
178.730362 132.0
178.753342 80.0
178.830521 48.0
178.865112 88.0
178.929001 28.0
178.952972 140.0
179.014206 132.0
179.053009 308.0
179.091446 64.0
179.136017 128.0
179.176682 68.0
179.200668 28.0
179.22731 68.0
179.253952 208.0
179.301926 140.0
179.323242 140.0
179.387207 128.0
179.475998 92.0
179.547195 48.0
179.66188 96.0
180.078293 196.0
180.126373 60.0
180.361511 76.0
180.644958 56.0
180.751968 116.0
181.351852 68.0
181.837296 144.0
181.872192 84.0
182.019852 88.0
182.72673 192.0
183.025482 44.0
183.529343 108.0
184.136078 1452.0
184.225647 136.0
184.495895 60.0
184.755508 68.0
184.961166 128.0
185.058548 152.0
185.135437 316.0
185.16153 68.0
186.064468 236.0
187.050354 348.0
187.348083 244.0
187.95607 148.0
188.660721 220.0
188.743958 140.0
189.053757 212.0
190.057495 120.0
190.098648 148.0
191.564087 100.0
192.657944 124.0
193.043442 256.0
193.610748 120.0
194.118729 1500.0
194.234344 100.0
194.334229 144.0
195.125763 320.0
195.824219 48.0
196.130692 136.0
197.205292 112.0
197.317093 240.0
197.761871 88.0
197.904648 188.0
198.235168 144.0
201.338074 208.0
201.976822 96.0
202.353195 124.0
202.470215 148.0
202.670425 196.0
202.85463 168.0
202.902832 76.0
203.015564 200.0
203.072342 15096.0
203.106781 52.0
203.178619 80.0
203.32547 76.0
203.488037 160.0
203.515656 84.0
203.558243 76.0
203.754227 80.0
203.856522 48.0
203.958267 80.0
204.074005 2244.0
204.957733 116.0
205.02327 72.0
205.081284 388.0
205.101562 128.0
205.254166 68.0
205.329147 96.0
205.35968 88.0
205.445267 100.0
205.488052 168.0
205.522293 36.0
205.799149 88.0
206.736725 68.0
207.131821 120.0
207.507233 184.0
209.104355 76.0
214.145035 152.0
214.480103 64.0
221.926804 180.0
225.516953 252.0
228.241989 216.0
230.094955 144.0
230.699158 92.0
231.065933 656.0
232.064117 484.0
232.092545 484.0
233.066147 128.0
233.093491 200.0
239.071884 68.0
247.515564 156.0
248.016815 172.0
248.09317 3084.0
248.280167 40.0
248.314667 136.0
248.587601 124.0
248.951736 40.0
249.094894 468.0
250.099274 352.0
251.520813 100.0
260.099396 180.0
260.439758 72.0
268.557587 192.0
269.621918 160.0
271.560089 108.0
275.100616 44.0
277.373138 128.0
284.129395 216.0
284.51532 84.0
284.716797 104.0
284.740295 48.0
287.551514 136.0
307.030396 144.0
321.76358 100.0
324.152222 144.0
328.055389 148.0
334.044891 128.0
334.940338 56.0
341.889435 56.0
342.172119 2376.0
342.356964 80.0
342.386444 88.0
343.175079 552.0
343.894318 88.0
344.185974 116.0
347.750946 172.0
370.292023 108.0
372.328491 68.0
373.200745 132.0
378.246796 116.0
379.30426 64.0
389.26474 92.0
389.296173 136.0
390.181396 48.0
390.23526 172.0
394.872589 120.0
456.152802 72.0
470.97467 80.0
513.586792 48.0
526.037964 36.0
540.14978 116.0
549.650513 64.0
552.392944 48.0
636.59259 76.0
678.026001 152.0
773.488098 80.0
781.757568 40.0
810.587952 68.0
879.15509 188.0
905.288147 80.0
905.641479 168.0
923.039734 152.0
924.255493 152.0
924.509644 212.0
931.336182 180.0
947.587097 180.0
948.794434 164.0
957.131714 64.0
959.281799 132.0
972.834534 168.0
991.678955 176.0
1014.192688 236.0
1023.677734 204.0
1026.53894 124.0
1062.545898 164.0
1064.785278 128.0
1082.274414 196.0
1093.137695 156.0
1100.163452 176.0
1107.278076 192.0
1110.187378 184.0
1113.126953 52.0
1123.116211 64.0
1123.803345 160.0
1123.990112 248.0
1124.223633 80.0
1153.763916 164.0
1155.278687 264.0
1158.941284 168.0
1162.56897 64.0
1170.372314 100.0
1172.456787 176.0
1179.199463 220.0
1180.409546 172.0
1183.700806 144.0
1185.46814 152.0
1189.116455 164.0
1194.049194 156.0
1194.186768 188.0
1201.86084 184.0
1205.907471 192.0
1206.329102 184.0
1209.5802 140.0
1215.221191 232.0
1221.083862 204.0
1223.254761 176.0
1235.858398 148.0
1251.355225 204.0
1262.730103 236.0
1269.152832 124.0
1271.046631 80.0
1275.783813 68.0
1279.575562 136.0
1285.327271 104.0
1289.390503 216.0
1289.690674 108.0
1290.262573 180.0
1294.906372 164.0
1298.489746 172.0
1298.819702 204.0
1302.092529 176.0
1307.067017 164.0
1313.622925 248.0
1320.180908 148.0
1326.124512 132.0
1327.850098 104.0
1328.234497 128.0
1330.128296 64.0
1330.425903 84.0
1330.934082 60.0
1338.022827 168.0
1340.790649 156.0
1341.373779 264.0
1343.751099 224.0
1347.006958 200.0
1349.308838 80.0
1354.709473 228.0
1356.240967 260.0
1358.257324 224.0
1359.761353 248.0
1361.780396 112.0
1365.653687 180.0
1365.881592 212.0
1369.178955 160.0
1372.679199 164.0
1374.24292 176.0
1381.741699 236.0
1382.659302 104.0
1387.132812 96.0
1389.587402 156.0
1395.194458 220.0
1401.691895 108.0
1405.688599 148.0
1406.31543 196.0
1414.005981 116.0
1417.697998 220.0
1419.01709 148.0
1420.674561 132.0
1421.747437 192.0
1424.442749 168.0
1427.682129 148.0
1430.17981 144.0
1431.798462 188.0
1434.45813 128.0
1434.933105 196.0
1441.265381 124.0
1443.359131 180.0
1444.57666 168.0
1446.763672 32.0
1448.937012 204.0
1449.376465 212.0
1451.142456 68.0
1453.182617 188.0
1454.935791 120.0
1456.621582 196.0
1456.978516 292.0
1459.144409 228.0
1469.31897 60.0
1472.700562 60.0
1475.673096 176.0
1476.973145 92.0
1478.954834 152.0
1480.654419 128.0
1483.94165 148.0
1484.417114 72.0
1484.524414 72.0
1485.91272 136.0
1486.219604 176.0
1490.880615 76.0
1490.988159 196.0
1493.809814 240.0
1494.37915 152.0
1495.741211 192.0
1499.268677 72.0
1500.602173 224.0
1503.155151 164.0
