>compound MLS000028461-01!URSODEOXYCHOLIC ACID
>formula C24H40O4
>ionization [M+H]+
>parentmass 393.29993621209053
#inchi InChI=1S/C24H40O4/c1-14(4-7-21(27)28)17-5-6-18-22-19(9-11-24(17,18)3)23(2)10-8-16(25)12-15(23)13-20(22)26/h14-20,22,25-26H,4-13H2,1-3H3,(H,27,28)/t14-,15+,16-,17-,18+,19+,20+,22+,23+,24-/m1/s1
#inchikey RUDATBOHQWOJDD
#Ion_Source LC-ESI
#Instrument qTof
#Compound_Source NIH Pharmacologically Active Library
#PI Dorrestein
#Data_Collector VP/LMS
#Scan -1
#Precursor_MZ 393.3
#ExactMass 392.293
#Charge 1
#CAS_Number N/A
#Pubmed_ID N/A
#Smiles C[C@H](CCC(=O)O)[C@H]1CC[C@H]2[C@@H]3[C@@H](O)C[C@@H]4C[C@H](O)CC[C@]4(C)[C@H]3CC[C@]12C
#INCHI_AUX N/A
#Library_Class 1
#SpectrumID CCMSLIB00000084832
#IonMode Positive
#UpdateWorkflowName UPDATE-SINGLE-ANNOTATED-GOLD
#LibraryQualityString Gold
#TaskID d252d724072548979f1f6f1ced849daf
##Scan# 3575
#SpectrumFile p3-B05_GB5_01_18238.mzXML
#LibraryName Pharm_Active_Library.mgf
#MQScore -1
#Organism Pharm_Active_Library
#TIC_Query 0
#RT_Query -1
#MZErrorPPM -1
#SharedPeaks 0
#MassDiff 0
#LibMZ -1
#SpecMZ 393.3
#SpecCharge 0
#internalFilename spec-00000.mgf

>collision 10
45.180344 176.0
45.788414 192.0
49.926392 136.0
50.346359 216.0
52.219143 80.0
53.13063 212.0
55.064369 216.0
55.089706 184.0
55.320175 164.0
55.896042 192.0
56.326912 148.0
57.274921 164.0
57.756432 180.0
58.14127 152.0
58.191364 144.0
58.367615 140.0
58.933113 208.0
59.173241 160.0
59.542797 120.0
60.914402 212.0
63.54253 120.0
64.175545 92.0
64.461266 160.0
64.608368 236.0
64.723602 196.0
67.544617 104.0
70.273895 220.0
72.248009 128.0
73.326256 140.0
73.922264 80.0
78.611221 160.0
78.876144 192.0
79.095482 108.0
80.394707 132.0
80.982895 156.0
82.649925 116.0
84.569885 60.0
85.787735 192.0
86.123566 144.0
86.393448 116.0
89.493515 180.0
90.202858 84.0
92.602257 164.0
93.031769 224.0
94.283752 244.0
94.301147 232.0
94.60096 252.0
97.340324 128.0
97.66066 140.0
100.037155 136.0
100.078964 196.0
103.871376 32.0
105.073647 196.0
105.381935 148.0
105.954788 108.0
106.697716 164.0
107.111336 204.0
109.099983 192.0
111.545815 128.0
112.314384 172.0
113.284622 112.0
114.393105 268.0
115.973763 136.0
117.80925 128.0
119.815956 120.0
120.160416 148.0
120.969002 184.0
121.029037 1172.0
121.188004 32.0
121.271278 192.0
122.033005 148.0
122.096779 168.0
126.39827 168.0
128.451721 176.0
129.4552 180.0
130.860733 172.0
131.903275 200.0
132.022171 140.0
133.31279 200.0
133.570297 124.0
133.708344 184.0
134.843033 168.0
136.096268 248.0
139.260559 228.0
140.244049 124.0
144.985626 144.0
147.742584 128.0
148.660873 112.0
148.838074 176.0
148.903641 220.0
149.02417 13392.0
149.100433 60.0
149.13446 104.0
149.197647 44.0
149.265732 48.0
149.287613 112.0
149.345978 32.0
149.611221 28.0
149.672089 124.0
150.028046 872.0
150.706268 100.0
150.806458 112.0
150.98494 208.0
151.027527 520.0
151.251617 56.0
151.356888 164.0
151.547943 92.0
152.033447 152.0
155.17598 40.0
157.770126 88.0
158.91716 68.0
164.071609 76.0
164.546127 220.0
165.075027 148.0
167.034454 168.0
173.136566 232.0
174.120026 180.0
183.091034 156.0
186.992294 176.0
202.151184 120.0
203.147537 164.0
206.9608 124.0
207.780502 84.0
220.169861 172.0
248.993164 124.0
266.023315 152.0
267.541412 140.0
267.753082 32.0
281.171295 160.0
282.177307 128.0
283.167786 124.0
305.042603 160.0
305.139954 164.0
305.167755 104.0
319.180084 164.0
328.167328 92.0
348.200256 136.0
374.239563 56.0
390.231232 100.0
390.302002 116.0
393.205231 136.0
393.296997 312.0
394.293701 220.0
394.332581 108.0
394.343903 156.0
395.268066 108.0
395.30368 164.0
396.697784 180.0
397.338409 132.0
434.868164 48.0
568.27832 88.0
804.98822 40.0
894.512512 100.0
1022.356018 180.0
1101.679077 224.0
1125.876221 100.0
1141.792847 88.0
1147.961426 144.0
1153.078613 168.0
1155.134033 176.0
1155.722656 156.0
1171.486938 220.0
1179.730347 116.0
1209.696045 168.0
1214.948853 184.0
1215.330444 168.0
1229.498047 128.0
1244.814941 168.0
1249.376465 144.0
1261.364502 184.0
1266.692749 164.0
1275.960693 164.0
1299.342896 196.0
1314.003052 184.0
1332.18335 200.0
1339.268188 216.0
1342.948975 188.0
1346.963501 96.0
1356.307495 140.0
1363.345825 192.0
1364.771973 140.0
1380.145264 144.0
1380.980835 80.0
1385.103638 224.0
1387.734375 236.0
1394.771973 52.0
1422.199585 204.0
1427.759277 204.0
1473.39856 192.0
1487.381592 236.0
