>compound MLS001056736-01!Quinidine sulfate salt dihydrate
>formula C20H24N2O2
>ionization [M+H]+
>parentmass 325.190613
#inchi InChI=1S/C20H24N2O2/c1-3-13-12-22-9-7-14(13)10-19(22)20(23)16-6-8-21-18-5-4-15(24-2)11-17(16)18/h3-6,8,11,13-14,19-20,23H,1,7,9-10,12H2,2H3/t13-,14?,19-,20+/m1/s1
#inchikey LOUPRKONTZGTKE
#origInchi InChI=1S/C20H24N2O2.H2O4S.H2O/c1-3-13-12-22-9-7-14(13)10-19(22)20(23)16-6-8-21-18-5-4-15(24-2)11-17(16)18;1-5(2,3)4;/h3-6,8,11,13-14,19-20,23H,1,7,9-10,12H2,2H3;(H2,1,2,3,4);1H2/t13-,14?,19-,20+;;/m1../s1
#Ion_Source LC-ESI
#Instrument qTof
#Compound_Source NIH Pharmacologically Active Library
#PI Dorrestein
#Data_Collector VP/LMS
#Scan -1
#Precursor_MZ 325.193
#ExactMass 324.184
#Charge 1
#CAS_Number N/A
#Pubmed_ID N/A
#Smiles COc1ccc2nccc([C@H](O)[C@H]3CC4CCN3C[C@H]4C=C)c2c1.OS(=O)(=O)O.O
#INCHI_AUX N/A
#Library_Class 1
#SpectrumID CCMSLIB00000086002
#IonMode Positive
#UpdateWorkflowName UPDATE-SINGLE-ANNOTATED-GOLD
#LibraryQualityString Gold
#TaskID d252d724072548979f1f6f1ced849daf
##Scan# 697
#SpectrumFile p5-A04_GA4_01_18427.mzXML
#LibraryName Pharm_Active_Library.mgf
#MQScore -1
#Organism Pharm_Active_Library
#TIC_Query 0
#RT_Query -1
#MZErrorPPM -1
#SharedPeaks 0
#MassDiff 0
#LibMZ -1
#SpecMZ 325.193
#SpecCharge 0
#internalFilename spec-00000.mgf

>collision 10
45.244831 124.0
45.847935 100.0
45.93153 176.0
46.25042 180.0
46.707695 96.0
47.383442 88.0
47.627621 148.0
48.59536 104.0
49.075211 148.0
49.091946 80.0
49.172859 184.0
49.242668 212.0
49.266415 192.0
49.390827 232.0
49.505592 100.0
49.63451 156.0
50.041985 92.0
50.223778 152.0
50.25481 44.0
50.56004 124.0
50.846317 184.0
51.109215 116.0
51.206017 104.0
51.444138 128.0
51.803078 80.0
52.415123 176.0
52.661816 164.0
52.806351 224.0
53.10326 32.0
53.501408 168.0
54.294834 224.0
55.510006 160.0
55.63612 248.0
55.839691 144.0
56.055557 124.0
56.101761 32.0
56.355476 208.0
56.475071 208.0
56.932186 220.0
57.002789 64.0
57.243473 220.0
57.434879 172.0
57.714268 64.0
58.07621 156.0
58.156628 144.0
58.596104 228.0
59.351151 156.0
60.239182 108.0
61.500053 116.0
63.175167 112.0
65.073326 108.0
65.12471 52.0
65.288643 48.0
66.079041 164.0
66.667648 144.0
66.848152 116.0
67.695389 168.0
68.069267 152.0
68.277969 168.0
68.391495 88.0
68.529831 224.0
69.013435 168.0
69.260017 172.0
69.455612 172.0
69.830986 140.0
70.340858 160.0
70.52961 120.0
71.072212 52.0
72.143379 168.0
72.38871 200.0
72.872131 156.0
72.952011 192.0
72.974823 180.0
73.132317 148.0
73.984108 144.0
74.131409 112.0
74.38353 316.0
74.698654 52.0
75.106232 148.0
75.733673 200.0
75.839363 240.0
76.167313 152.0
76.849747 164.0
77.323311 220.0
77.528214 112.0
77.701805 172.0
77.726364 188.0
78.747429 168.0
78.920616 204.0
79.200226 184.0
79.558426 112.0
79.661423 132.0
79.725388 120.0
79.791161 168.0
79.864067 112.0
79.903198 164.0
79.999306 140.0
80.10437 220.0
80.145348 168.0
80.838173 100.0
81.022598 112.0
81.078148 52.0
81.440559 168.0
81.650848 152.0
81.93705 160.0
82.328468 196.0
82.420593 184.0
83.488312 192.0
83.571983 140.0
84.445793 216.0
85.456573 156.0
85.642502 132.0
86.048203 96.0
86.162704 104.0
86.552971 148.0
87.852119 172.0
88.018227 164.0
88.21814 160.0
88.732971 156.0
88.868011 208.0
88.99189 260.0
89.268105 116.0
89.403549 188.0
89.591843 168.0
89.759026 204.0
89.778442 168.0
89.908615 160.0
90.150337 224.0
90.416992 140.0
90.68972 220.0
90.706779 220.0
90.896439 144.0
91.056854 168.0
91.112885 132.0
91.632278 160.0
91.775223 160.0
92.367256 176.0
92.39212 280.0
92.595024 156.0
92.878693 44.0
93.069687 320.0
93.132057 184.0
93.468231 176.0
93.485809 56.0
94.042786 176.0
94.067177 428.0
94.199188 156.0
94.340256 132.0
94.467888 168.0
94.485016 136.0
94.771851 124.0
95.072411 156.0
95.507614 200.0
95.538078 176.0
95.589325 200.0
95.928215 104.0
96.086212 244.0
96.81723 132.0
97.119057 156.0
97.936028 204.0
97.989914 160.0
98.139709 184.0
98.518639 216.0
99.217232 176.0
99.278587 208.0
99.339462 232.0
99.556526 120.0
100.252808 136.0
102.531448 132.0
103.06015 120.0
104.048531 144.0
104.154129 220.0
104.550598 124.0
104.61573 152.0
104.874931 80.0
105.068184 436.0
105.52359 164.0
105.924698 156.0
106.008698 160.0
106.065781 244.0
106.375832 188.0
107.066681 136.0
107.084549 256.0
107.404694 208.0
107.524368 176.0
107.600739 144.0
108.007843 184.0
108.082214 780.0
108.399139 208.0
109.067421 144.0
109.08197 200.0
109.190086 148.0
109.270958 160.0
109.389839 168.0
109.873314 176.0
109.979736 44.0
110.046539 112.0
110.099319 248.0
110.180206 152.0
110.39341 168.0
110.554489 52.0
110.780617 108.0
111.04892 160.0
111.319641 180.0
111.561272 168.0
111.76738 52.0
111.824203 148.0
112.079018 184.0
112.273186 212.0
112.99324 60.0
113.230316 52.0
113.253616 128.0
114.01104 132.0
114.398155 104.0
114.649483 140.0
114.666534 160.0
114.95871 256.0
115.016335 172.0
115.05851 188.0
115.601936 176.0
116.103226 172.0
116.674385 180.0
117.059174 308.0
117.989479 112.0
118.039207 188.0
118.061966 180.0
118.197113 88.0
118.621613 176.0
118.949158 128.0
119.009949 144.0
119.044693 160.0
119.076607 144.0
119.668747 132.0
119.941063 132.0
120.078423 284.0
120.218048 160.0
120.672386 68.0
121.090347 164.0
121.798805 180.0
121.910851 204.0
121.974586 48.0
122.073524 116.0
122.09713 288.0
122.201103 160.0
122.218704 160.0
123.144409 236.0
123.32135 88.0
123.381035 40.0
123.40757 196.0
123.531418 184.0
123.70845 68.0
124.007477 92.0
124.111504 172.0
124.568855 80.0
124.65995 188.0
125.078079 116.0
125.7155 160.0
125.769066 204.0
125.894096 264.0
126.008011 160.0
126.838257 164.0
127.132072 136.0
127.370056 220.0
127.610519 192.0
127.709465 244.0
127.803955 160.0
128.096619 176.0
128.155197 48.0
128.461807 124.0
128.701035 44.0
129.508392 160.0
129.746323 108.0
130.064331 152.0
130.163803 56.0
130.365982 88.0
131.072235 344.0
131.356384 172.0
131.993591 128.0
132.044861 124.0
132.078201 288.0
132.096512 180.0
132.728622 156.0
133.069717 188.0
133.254227 208.0
133.587585 284.0
133.744064 152.0
133.937469 168.0
134.095093 776.0
134.920532 184.0
135.958221 80.0
136.076599 148.0
136.111115 824.0
136.58786 160.0
136.943985 124.0
137.115036 280.0
138.060547 192.0
138.130112 476.0
138.305237 144.0
138.35907 184.0
138.860535 148.0
139.116287 144.0
140.139343 216.0
140.627487 192.0
141.057495 372.0
141.651321 220.0
141.819565 176.0
142.062607 508.0
142.543396 148.0
142.788254 212.0
143.028564 196.0
143.070374 688.0
143.09285 140.0
143.350098 92.0
143.812759 56.0
143.889145 100.0
144.03244 124.0
144.057892 188.0
144.082062 460.0
144.340729 144.0
144.386169 176.0
145.051605 632.0
145.085434 116.0
145.091034 184.0
145.303589 208.0
145.344376 80.0
145.39238 196.0
145.848709 108.0
145.932846 200.0
145.983124 220.0
146.056381 156.0
146.093994 276.0
146.399673 208.0
147.075287 140.0
147.282394 104.0
147.548218 176.0
147.81427 152.0
148.022446 220.0
148.080566 160.0
148.110687 220.0
148.638153 48.0
149.113037 184.0
149.277008 172.0
149.780807 144.0
149.951355 116.0
151.130859 120.0
151.968811 140.0
152.062637 212.0
152.14061 192.0
152.324783 64.0
152.553329 212.0
152.759888 160.0
153.030609 156.0
154.065567 500.0
155.036377 196.0
155.073181 888.0
155.15535 52.0
155.219818 60.0
155.450516 224.0
155.649094 68.0
155.793152 124.0
156.071976 496.0
157.053055 340.0
158.060333 1572.0
158.094559 164.0
158.15712 124.0
158.916443 216.0
159.067535 680.0
159.592087 120.0
159.670044 200.0
159.687653 120.0
160.042892 172.0
160.0755 7164.0
160.152328 72.0
160.488464 196.0
160.564102 104.0
160.629684 160.0
160.654907 64.0
161.048706 104.0
161.080536 932.0
161.771881 80.0
161.974472 116.0
162.091965 180.0
162.131775 188.0
162.341965 96.0
162.641342 180.0
163.062973 228.0
163.092926 208.0
163.253387 204.0
163.951172 212.0
164.065872 148.0
164.121964 76.0
164.977264 160.0
165.128128 92.0
165.816833 96.0
165.888596 164.0
166.029617 76.0
166.067642 140.0
166.121933 932.0
166.324677 44.0
166.753616 208.0
167.072281 544.0
167.134216 196.0
167.450851 168.0
167.760056 72.0
168.036011 128.0
168.079102 512.0
168.436142 108.0
168.730743 144.0
168.836761 128.0
168.888489 84.0
168.968689 96.0
169.028198 180.0
169.053833 796.0
169.090302 404.0
169.123947 32.0
169.18866 100.0
169.813156 144.0
170.060074 468.0
170.628525 204.0
170.771545 52.0
171.07193 488.0
171.099426 160.0
172.075729 4840.0
172.108429 156.0
172.129318 60.0
172.289719 176.0
172.333054 76.0
172.60228 96.0
173.045242 216.0
173.081985 1812.0
173.136124 108.0
173.280182 52.0
173.552765 72.0
173.99617 52.0
174.054977 624.0
174.092957 392.0
175.057541 236.0
175.087967 364.0
175.416763 120.0
175.556503 64.0
175.920609 80.0
176.063919 160.0
176.105453 176.0
176.557388 48.0
177.031097 124.0
179.022797 120.0
179.985428 76.0
180.079712 380.0
180.485107 84.0
181.05777 184.0
181.087143 356.0
182.015121 144.0
182.061356 708.0
182.090775 160.0
183.068756 472.0
183.381744 72.0
183.503052 144.0
183.743088 144.0
184.075653 2664.0
184.431702 212.0
184.84819 112.0
184.972687 168.0
185.082199 1020.0
185.108047 168.0
185.167633 92.0
185.500916 192.0
185.886032 248.0
186.05452 380.0
186.091385 1472.0
186.594955 200.0
187.101364 276.0
187.169067 80.0
187.223526 72.0
187.814957 272.0
188.068542 324.0
188.100098 176.0
188.306244 72.0
188.453766 168.0
188.502945 88.0
188.560333 152.0
188.607117 140.0
188.929474 164.0
188.997879 132.0
189.078018 1352.0
189.118286 52.0
189.252426 60.0
190.085068 184.0
190.714615 40.0
191.363846 84.0
191.91214 260.0
192.005905 160.0
192.080673 216.0
193.090118 200.0
193.41777 64.0
194.08963 140.0
194.29068 36.0
194.957077 144.0
195.046005 104.0
195.069443 204.0
195.095566 136.0
195.105103 232.0
195.769379 36.0
196.076553 768.0
196.963089 100.0
197.044098 48.0
197.082275 880.0
197.153076 40.0
197.530533 36.0
197.567413 132.0
197.606064 68.0
197.68161 168.0
197.983948 224.0
198.090485 1200.0
198.266907 32.0
198.757645 128.0
199.094406 400.0
199.839417 200.0
200.075745 260.0
200.101364 112.0
200.188446 144.0
200.571609 104.0
201.070847 172.0
201.098999 176.0
201.678085 72.0
202.084595 756.0
202.311722 72.0
203.084595 224.0
203.221481 44.0
204.073242 148.0
204.096298 316.0
205.090363 180.0
206.077881 224.0
206.102966 136.0
206.343048 144.0
206.508911 76.0
206.955338 148.0
207.072739 200.0
207.102249 340.0
207.330597 164.0
208.064209 152.0
208.102997 148.0
208.65097 192.0
209.024887 52.0
209.081726 196.0
209.116974 132.0
209.26091 204.0
209.318497 72.0
209.5979 188.0
209.724716 56.0
210.092377 1192.0
211.064255 160.0
211.092834 764.0
211.130753 220.0
211.4953 144.0
212.02243 148.0
212.108658 652.0
212.159164 116.0
212.441635 76.0
213.097733 176.0
213.325668 72.0
213.346024 84.0
213.53212 40.0
213.895813 72.0
214.083252 452.0
214.104675 256.0
214.399689 168.0
215.099625 356.0
215.155151 152.0
216.087753 164.0
216.11087 100.0
216.35379 172.0
216.831238 108.0
217.367905 64.0
218.090363 156.0
218.119751 164.0
218.349091 60.0
218.596207 132.0
218.725708 136.0
219.097595 196.0
220.072159 240.0
220.110443 476.0
220.501312 220.0
221.110641 144.0
221.374039 152.0
221.566559 60.0
222.083191 380.0
222.116669 176.0
222.171341 60.0
222.485916 108.0
223.085648 308.0
223.1306 144.0
223.466675 124.0
224.107025 888.0
225.101715 368.0
225.141907 120.0
225.309174 52.0
225.386856 112.0
226.122635 528.0
227.116699 540.0
227.534378 52.0
228.069077 124.0
228.103973 184.0
228.147232 108.0
229.128342 148.0
229.248856 72.0
229.607605 120.0
230.087387 104.0
231.181564 52.0
232.110016 340.0
232.18129 52.0
233.040344 128.0
233.076813 184.0
233.104156 140.0
233.128479 184.0
233.484161 192.0
234.079895 292.0
234.108246 160.0
234.129349 204.0
235.093155 312.0
235.125977 128.0
236.105698 800.0
236.138824 168.0
236.345551 36.0
237.104126 560.0
237.960815 68.0
238.119507 608.0
239.127579 396.0
240.090164 192.0
240.121094 144.0
241.124405 100.0
242.120605 132.0
242.960602 144.0
243.333038 180.0
244.100494 160.0
244.137817 192.0
245.062317 88.0
245.255524 180.0
246.138412 96.0
246.194626 140.0
246.413284 180.0
247.103348 156.0
247.125748 132.0
248.107941 428.0
249.11055 128.0
249.959534 144.0
250.120422 432.0
251.030548 80.0
251.118317 656.0
251.529037 184.0
251.777786 92.0
252.124985 504.0
252.423141 52.0
252.872375 156.0
253.093964 176.0
253.135971 1100.0
253.759338 60.0
253.860809 220.0
254.08284 216.0
254.132034 356.0
254.654221 84.0
254.917908 148.0
255.200806 220.0
255.429779 192.0
256.13324 128.0
256.168304 88.0
256.496521 32.0
257.821045 40.0
259.068939 188.0
259.094543 100.0
260.104095 176.0
261.113586 392.0
261.670288 108.0
262.128784 208.0
263.119141 272.0
264.138214 576.0
264.449677 36.0
264.721619 120.0
265.13327 512.0
265.36319 132.0
266.002289 132.0
266.149231 356.0
267.146149 172.0
268.173615 252.0
268.220734 116.0
268.566376 136.0
269.090454 168.0
272.162964 64.0
272.520966 120.0
273.139038 176.0
275.152954 124.0
276.13504 128.0
276.161255 140.0
277.133148 352.0
278.152893 452.0
278.696442 56.0
279.059509 120.0
279.152008 1300.0
279.993774 80.0
280.152527 236.0
280.161102 156.0
280.263611 56.0
280.460236 92.0
281.166473 232.0
282.045715 116.0
282.150177 196.0
282.366699 168.0
283.149841 160.0
287.564301 180.0
288.584473 268.0
290.993439 200.0
292.159912 368.0
294.173187 112.0
294.456573 36.0
294.637604 152.0
295.184479 340.0
296.161957 92.0
297.184113 180.0
297.191345 140.0
298.259796 68.0
301.354462 224.0
303.174591 104.0
304.291504 184.0
304.97934 80.0
305.16568 132.0
305.688812 180.0
305.942871 96.0
306.327698 160.0
307.089294 108.0
307.179474 3480.0
307.36142 92.0
307.413757 92.0
307.588257 56.0
307.637146 36.0
307.713928 40.0
307.853607 68.0
307.947906 44.0
308.184326 764.0
308.503479 48.0
309.184174 152.0
309.374573 32.0
310.239868 72.0
310.418671 44.0
312.832428 108.0
313.575653 72.0
316.709625 136.0
317.535461 144.0
321.784271 132.0
322.747314 204.0
323.178162 176.0
323.593353 92.0
324.187958 164.0
324.973236 68.0
325.190613 7380.0
325.289062 56.0
325.328552 176.0
325.357269 64.0
325.414703 48.0
325.526031 104.0
325.820557 60.0
325.881622 108.0
326.195648 1228.0
326.255402 136.0
326.546661 48.0
327.050385 52.0
327.212372 176.0
327.532867 76.0
327.880371 72.0
328.138306 40.0
328.20105 128.0
328.429169 152.0
328.55304 52.0
328.836029 132.0
329.278564 144.0
333.027222 80.0
334.161407 52.0
341.598999 104.0
343.544037 76.0
343.750641 112.0
375.307739 128.0
378.359985 88.0
384.279175 124.0
388.728119 108.0
398.989838 52.0
406.46283 100.0
410.791901 96.0
442.55777 72.0
456.771973 120.0
497.863007 96.0
550.299561 68.0
595.048218 84.0
608.862488 60.0
614.631897 20.0
651.271606 56.0
670.236572 60.0
687.770996 44.0
741.315491 196.0
767.014709 108.0
855.111694 96.0
860.638062 76.0
862.934265 28.0
908.696777 56.0
913.671326 92.0
922.868896 56.0
929.070679 152.0
951.842896 208.0
964.670349 112.0
979.295654 212.0
1012.628662 220.0
1015.455383 176.0
1058.969971 176.0
1065.879028 84.0
1097.059814 132.0
1107.758667 156.0
1112.373901 172.0
1117.630859 244.0
1153.376831 160.0
1153.579712 40.0
1158.187744 84.0
1160.451172 68.0
1164.441284 136.0
1169.057495 164.0
1179.266968 124.0
1188.546265 104.0
1189.898315 144.0
1193.271729 224.0
1194.887939 144.0
1214.714844 236.0
1237.721069 204.0
1241.308716 156.0
1249.516113 20.0
1250.279541 184.0
1257.454102 208.0
1262.250854 228.0
1278.175537 172.0
1279.015259 188.0
1299.145264 152.0
1301.815308 216.0
1302.411377 208.0
1310.396484 152.0
1311.895508 124.0
1319.31665 80.0
1327.61438 56.0
1331.598755 160.0
1333.12439 244.0
1339.738281 136.0
1347.741821 112.0
1352.253784 152.0
1359.098389 36.0
1360.243164 96.0
1373.975098 192.0
1376.381226 260.0
1378.161377 192.0
1378.81897 72.0
1383.908325 52.0
1387.998413 88.0
1390.921509 132.0
1391.003174 200.0
1392.057373 212.0
1398.406372 124.0
1401.832153 136.0
1410.997925 40.0
1412.770386 164.0
1415.577148 164.0
1422.977783 148.0
1434.397583 172.0
1442.368652 160.0
1443.509399 172.0
1443.737183 120.0
1453.122314 192.0
1456.21936 160.0
1456.667603 216.0
1457.100586 192.0
1459.79126 128.0
1460.156372 100.0
1460.741943 212.0
1479.667969 180.0
1480.043091 232.0
1484.541138 224.0
1491.696899 180.0
1495.673706 196.0
1497.028687 92.0
1498.322754 180.0
1498.823486 224.0
1498.916016 188.0
1501.783813 216.0
1502.20813 44.0
1502.408691 96.0
