>compound MLS001066367-01!2-Fluoroadenosine
>formula C10H12FN5O4
>ionization [M+H]+
>parentmass 286.096
#inchi InChI=1S/C10H12FN5O4/c11-10-14-7(12)4-8(15-10)16(2-13-4)9-6(19)5(18)3(1-17)20-9/h2-3,5-6,9,17-19H,1H2,(H2,12,14,15)/t3-,5-,6-,9-/m1/s1
#inchikey HBUBKKRHXORPQB
#Ion_Source LC-ESI
#Instrument qTof
#Compound_Source NIH Pharmacologically Active Library
#PI Dorrestein
#Data_Collector VP/LMS
#Scan -1
#Precursor_MZ 286.096
#ExactMass 285.087
#Charge 1
#CAS_Number N/A
#Pubmed_ID N/A
#Smiles Nc1nc(F)nc2n(cnc12)[C@@H]3O[C@H](CO)[C@@H](O)[C@H]3O
#INCHI_AUX N/A
#Library_Class 1
#SpectrumID CCMSLIB00000085137
#IonMode Positive
#UpdateWorkflowName UPDATE-SINGLE-ANNOTATED-GOLD
#LibraryQualityString Gold
#TaskID d252d724072548979f1f6f1ced849daf
##Scan# 1123
#SpectrumFile p3-F04_GF4_01_18285.mzXML
#LibraryName Pharm_Active_Library.mgf
#MQScore -1
#Organism Pharm_Active_Library
#TIC_Query 0
#RT_Query -1
#MZErrorPPM -1
#SharedPeaks 0
#MassDiff 0
#LibMZ -1
#SpecMZ 286.096
#SpecCharge 0
#internalFilename spec-00000.mgf

>collision 10
51.326103 208.0
51.900955 240.0
53.675343 132.0
54.927929 72.0
55.815117 140.0
55.91777 140.0
58.260765 240.0
59.056526 184.0
60.509678 84.0
61.812187 112.0
63.439293 188.0
65.965645 240.0
67.719864 220.0
70.792366 64.0
72.434624 164.0
74.052879 200.0
80.914017 124.0
83.127594 228.0
84.008255 204.0
84.468613 148.0
84.572922 112.0
89.457405 212.0
90.300896 56.0
90.768677 128.0
97.028481 332.0
97.391533 160.0
98.30706 184.0
107.033333 264.0
107.316132 152.0
107.345001 144.0
107.402748 244.0
111.143616 124.0
112.216362 220.0
115.431297 204.0
115.561783 152.0
116.10804 128.0
116.98259 104.0
117.297104 96.0
121.316818 152.0
122.915855 96.0
123.35981 72.0
125.901794 208.0
126.346619 176.0
127.247612 144.0
130.521774 140.0
131.458038 168.0
132.443466 132.0
134.00798 208.0
134.04425 3904.0
134.113983 48.0
134.130127 88.0
134.386124 276.0
135.016769 32.0
135.046341 316.0
135.917938 112.0
140.775574 92.0
145.053726 116.0
147.047806 148.0
153.767563 160.0
154.019409 224.0
154.050842 5624.0
154.138 60.0
154.222031 32.0
155.052673 720.0
156.086426 156.0
156.576691 48.0
159.366013 112.0
165.753159 60.0
169.266876 60.0
171.097443 132.0
173.212784 56.0
179.093002 56.0
209.104858 104.0
291.872803 112.0
940.573547 152.0
941.81311 172.0
963.264099 148.0
986.643982 252.0
1000.263733 156.0
1016.469238 148.0
1051.102783 192.0
1102.071777 204.0
1111.726685 148.0
1127.744629 160.0
1199.088867 156.0
1209.747314 212.0
1227.604492 220.0
1232.078735 140.0
1362.168213 124.0
1383.503296 280.0
1385.458496 136.0
1394.363037 184.0
1413.267822 164.0
1419.125244 136.0
1434.839478 188.0
1438.271973 212.0
1446.072632 200.0
1447.25354 152.0
1452.687866 144.0
1459.052002 328.0
1471.29541 60.0
1476.522095 108.0
1486.627319 44.0
