>compound MLS001148112-01!LOBELINE HYDROCHLORIDE
>formula C22H27NO2
>ionization [M+H]+
>parentmass 338.209595
#inchi InChI=1S/C22H27NO2/c1-23-19(15-21(24)17-9-4-2-5-10-17)13-8-14-20(23)16-22(25)18-11-6-3-7-12-18/h2-7,9-12,19-21,24H,8,13-16H2,1H3/t19-,20+,21-/m0/s1
#inchikey MXYUKLILVYORSK
#origInchi InChI=1S/C22H27NO2.ClH/c1-23-19(15-21(24)17-9-4-2-5-10-17)13-8-14-20(23)16-22(25)18-11-6-3-7-12-18;/h2-7,9-12,19-21,24H,8,13-16H2,1H3;1H/t19-,20+,21-;/m0./s1
#Ion_Source LC-ESI
#Instrument qTof
#Compound_Source NIH Pharmacologically Active Library
#PI Dorrestein
#Data_Collector VP/LMS
#Scan -1
#Precursor_MZ 338.215
#ExactMass 337.204
#Charge 1
#CAS_Number N/A
#Pubmed_ID N/A
#Smiles CN1[C@H](C[C@H](O)c2ccccc2)CCC[C@@H]1CC(=O)c3ccccc3.Cl
#INCHI_AUX N/A
#Library_Class 1
#SpectrumID CCMSLIB00000084928
#IonMode Positive
#UpdateWorkflowName UPDATE-SINGLE-ANNOTATED-GOLD
#LibraryQualityString Gold
#TaskID d252d724072548979f1f6f1ced849daf
##Scan# 1696
#SpectrumFile p3-C08_GC8_01_18253.mzXML
#LibraryName Pharm_Active_Library.mgf
#MQScore -1
#Organism Pharm_Active_Library
#TIC_Query 0
#RT_Query -1
#MZErrorPPM -1
#SharedPeaks 0
#MassDiff 0
#LibMZ -1
#SpecMZ 338.215
#SpecCharge 0
#internalFilename spec-00000.mgf

>collision 10
44.920692 212.0
44.998096 108.0
45.013557 180.0
45.039497 164.0
45.07156 76.0
45.092945 180.0
45.187889 140.0
45.249458 192.0
45.268204 200.0
45.333042 160.0
45.372719 188.0
45.430389 196.0
45.473328 208.0
45.507275 196.0
45.540462 60.0
45.563301 100.0
45.580769 200.0
45.595551 188.0
45.717937 68.0
45.741646 208.0
45.75832 124.0
45.827583 196.0
45.860703 108.0
45.889011 164.0
45.936214 144.0
46.005043 132.0
46.018036 128.0
46.279503 208.0
46.343166 208.0
46.567005 172.0
46.600967 244.0
46.698849 140.0
46.70837 212.0
46.719254 204.0
46.837688 152.0
46.881287 228.0
46.964455 40.0
46.98901 148.0
47.050529 356.0
47.22261 200.0
47.296497 172.0
47.414291 184.0
47.469128 172.0
47.510277 188.0
47.522625 64.0
47.552814 172.0
47.622841 132.0
47.633831 164.0
47.679173 148.0
47.708038 164.0
47.752041 60.0
47.833225 152.0
47.903458 164.0
47.993042 84.0
48.056492 164.0
48.066151 112.0
48.119984 236.0
48.172466 136.0
48.218063 140.0
48.255386 156.0
48.288578 156.0
48.403442 192.0
48.499859 176.0
48.54974 168.0
48.640526 140.0
48.657185 40.0
48.675236 180.0
48.691902 228.0
48.725239 160.0
48.741913 124.0
48.921337 212.0
48.981216 160.0
49.023014 164.0
49.043537 316.0
49.064831 184.0
49.11232 232.0
49.163872 164.0
49.188995 124.0
49.287598 164.0
49.416798 144.0
49.447582 204.0
49.461582 204.0
49.492382 184.0
49.56522 152.0
49.582039 216.0
49.772827 148.0
49.806534 152.0
49.864143 56.0
49.875389 156.0
50.060719 160.0
50.087868 176.0
50.101955 128.0
50.174568 252.0
50.211906 152.0
50.40847 172.0
50.46751 56.0
50.490135 120.0
50.535404 128.0
50.56229 200.0
50.679829 188.0
50.733688 52.0
50.749924 164.0
50.858521 176.0
50.884075 152.0
50.989193 168.0
51.023308 88.0
51.044636 196.0
51.057438 208.0
51.120033 108.0
51.174126 244.0
51.188362 160.0
51.206879 168.0
51.239643 180.0
51.267818 176.0
51.279541 132.0
51.300812 252.0
51.322311 160.0
51.34798 84.0
51.387924 40.0
51.410755 144.0
51.437874 264.0
51.472137 144.0
51.493561 136.0
51.557854 124.0
51.625046 184.0
51.725201 136.0
51.735222 144.0
51.811127 208.0
51.879917 40.0
51.927238 172.0
51.938713 184.0
51.955364 236.0
51.965969 84.0
52.036613 220.0
52.06789 148.0
52.161285 180.0
52.181416 160.0
52.23175 152.0
52.259083 64.0
52.342571 184.0
52.372814 100.0
52.403069 168.0
52.499649 144.0
52.535004 156.0
52.591988 100.0
52.602089 152.0
52.645405 208.0
52.668514 160.0
52.761002 160.0
52.833313 68.0
52.881069 156.0
52.892647 152.0
52.951283 184.0
53.040359 140.0
53.069397 128.0
53.124508 52.0
53.272583 192.0
53.284206 164.0
53.311813 216.0
53.36269 124.0
53.528572 136.0
53.563526 200.0
53.610153 208.0
53.639301 64.0
53.735554 212.0
53.826054 220.0
53.855263 96.0
53.972179 160.0
53.995575 192.0
54.102398 288.0
54.314884 160.0
54.399998 200.0
54.517502 152.0
54.649849 160.0
54.686638 112.0
54.708721 176.0
54.754368 144.0
54.798561 180.0
54.825085 112.0
54.863407 156.0
54.912071 40.0
54.931244 144.0
55.077641 212.0
55.140919 140.0
55.200054 176.0
55.242947 128.0
55.356918 228.0
55.415688 148.0
55.496326 176.0
55.580757 52.0
55.59708 132.0
55.674278 192.0
55.709927 200.0
55.770855 140.0
55.848171 200.0
55.892803 108.0
55.912151 136.0
55.953831 40.0
55.978458 196.0
56.005951 192.0
56.046177 136.0
56.203266 96.0
56.233196 256.0
56.254982 88.0
56.346081 216.0
56.426788 60.0
56.453941 152.0
56.470154 156.0
56.546463 60.0
56.631805 124.0
56.685741 96.0
56.730705 160.0
56.744892 156.0
56.823692 300.0
56.88372 188.0
56.925762 204.0
56.948292 144.0
56.964813 140.0
57.050583 164.0
57.089565 168.0
57.155758 100.0
57.319893 156.0
57.350033 204.0
57.37566 140.0
57.417881 160.0
57.485771 172.0
57.520485 188.0
57.54464 148.0
57.60656 136.0
57.660957 160.0
57.67305 48.0
57.710842 212.0
57.810112 128.0
57.869717 176.0
57.887562 204.0
57.945446 204.0
57.96307 184.0
57.986362 152.0
58.014225 252.0
58.043972 152.0
58.057617 116.0
58.083405 208.0
58.094021 208.0
58.131954 144.0
58.185081 228.0
58.210896 156.0
58.235195 104.0
58.286846 156.0
58.3811 188.0
58.469337 196.0
58.521095 196.0
58.542412 132.0
58.57135 184.0
58.642967 200.0
58.697849 116.0
58.761913 184.0
58.807693 120.0
58.867035 240.0
58.96896 144.0
58.973892 84.0
58.979294 128.0
58.990189 216.0
59.052162 128.0
59.075108 52.0
59.153023 140.0
59.196022 68.0
59.220528 52.0
59.252697 136.0
59.303268 88.0
59.313995 56.0
59.327793 196.0
59.375328 88.0
59.471989 100.0
59.484268 128.0
59.763985 132.0
59.787067 128.0
59.827087 176.0
59.854801 316.0
59.911789 236.0
59.981136 160.0
60.055149 196.0
60.064957 112.0
60.07645 208.0
60.107605 200.0
60.356304 208.0
60.507935 180.0
60.607063 164.0
60.65976 152.0
60.752804 40.0
60.859898 164.0
60.937557 164.0
61.034042 164.0
61.060631 140.0
61.099251 188.0
61.13504 128.0
61.211319 152.0
61.264889 224.0
61.3344 240.0
61.365582 44.0
61.704388 172.0
61.750435 204.0
61.882751 144.0
61.915638 44.0
61.950096 164.0
62.033154 140.0
62.103718 208.0
62.127247 168.0
62.150784 180.0
62.257526 196.0
62.274803 128.0
62.307793 244.0
62.329788 200.0
62.358078 116.0
62.389515 92.0
62.444553 184.0
62.485455 220.0
62.595634 176.0
62.611382 212.0
62.748478 204.0
62.817867 116.0
62.844688 180.0
62.873093 160.0
62.885719 44.0
62.904659 152.0
62.934658 56.0
62.986774 132.0
63.016792 172.0
63.078426 164.0
63.089493 164.0
63.14642 188.0
63.181221 72.0
63.236603 228.0
63.247684 92.0
63.314713 192.0
63.382301 48.0
63.437775 92.0
63.544033 56.0
63.629738 68.0
63.750458 240.0
63.761585 124.0
63.790195 180.0
63.801323 168.0
63.837894 204.0
63.860161 168.0
63.917431 172.0
63.944485 232.0
63.961994 120.0
64.05117 180.0
64.062317 216.0
64.10215 212.0
64.154747 204.0
64.327042 132.0
64.408478 160.0
64.486771 100.0
64.562691 168.0
64.592308 200.0
64.621101 124.0
64.655296 184.0
64.699524 276.0
64.713936 148.0
64.768387 272.0
64.821213 140.0
64.832474 176.0
64.860672 196.0
64.911026 28.0
64.927063 76.0
64.963959 156.0
65.012093 144.0
65.105202 196.0
65.201599 200.0
65.247314 172.0
65.2659 36.0
65.294846 136.0
65.330238 136.0
65.511398 172.0
65.57338 168.0
65.594337 160.0
65.629807 132.0
65.642708 148.0
65.657219 120.0
65.770164 144.0
65.815369 184.0
65.86866 148.0
65.899361 184.0
66.040001 64.0
66.057655 140.0
66.123787 168.0
66.14032 188.0
66.206001 184.0
66.224525 152.0
66.265823 160.0
66.342812 140.0
66.45797 188.0
66.537498 144.0
66.685242 160.0
66.867485 152.0
66.90004 136.0
67.064568 52.0
67.079414 144.0
67.118362 140.0
67.136299 172.0
67.157501 172.0
67.183601 196.0
67.277466 140.0
67.58226 192.0
67.631355 164.0
67.768745 188.0
67.798416 184.0
67.870544 128.0
67.914825 52.0
67.93615 136.0
67.996857 188.0
68.11837 184.0
68.138077 136.0
68.203812 292.0
68.364998 172.0
68.463219 272.0
68.539551 92.0
68.633507 120.0
68.777283 136.0
68.7985 132.0
68.822899 128.0
68.899239 144.0
68.962036 168.0
68.985176 136.0
69.336082 120.0
69.477028 176.0
69.568306 220.0
69.672928 128.0
69.761551 160.0
69.781044 156.0
69.799255 144.0
69.824196 180.0
69.849144 216.0
69.88575 228.0
69.909042 128.0
69.935669 84.0
69.947327 148.0
69.965637 208.0
70.084175 164.0
70.242271 184.0
70.337387 172.0
70.381157 184.0
70.424217 144.0
70.449638 240.0
70.499397 164.0
70.512772 228.0
70.546204 160.0
70.574623 172.0
70.625282 136.0
70.887642 136.0
70.921165 148.0
70.953728 132.0
71.011703 192.0
71.025124 136.0
71.1577 204.0
71.219833 132.0
71.290398 156.0
71.369408 188.0
71.408089 144.0
71.458549 124.0
71.485474 116.0
71.529236 60.0
71.546074 148.0
71.583115 128.0
71.621849 132.0
71.704407 188.0
71.788704 180.0
71.889923 200.0
71.940559 108.0
72.03344 240.0
72.058777 84.0
72.09642 160.0
72.146667 156.0
72.185555 160.0
72.364769 184.0
72.458412 236.0
72.546196 152.0
72.902634 124.0
72.970627 188.0
72.992737 180.0
73.125427 196.0
73.154366 180.0
73.203743 164.0
73.363907 160.0
73.37925 152.0
73.418472 152.0
73.455994 92.0
73.474762 56.0
73.520828 180.0
73.561798 172.0
73.577164 92.0
73.739052 176.0
73.917297 116.0
74.176788 260.0
74.230782 212.0
74.354301 244.0
74.378326 152.0
74.428116 176.0
74.462463 132.0
74.474754 128.0
74.54493 184.0
74.582741 48.0
74.60318 148.0
74.799477 116.0
74.816986 164.0
74.940697 148.0
74.9562 148.0
74.98378 160.0
75.013077 96.0
75.080322 188.0
75.094963 164.0
75.151047 164.0
75.264969 156.0
75.346146 248.0
75.375519 172.0
75.463676 64.0
75.515556 176.0
75.589691 192.0
75.633904 192.0
75.690346 36.0
75.910423 64.0
76.215935 168.0
76.238525 200.0
76.254166 160.0
76.281975 172.0
76.322647 160.0
76.459389 160.0
76.534248 188.0
76.628304 56.0
76.666641 324.0
76.712883 180.0
76.768524 260.0
76.837524 64.0
76.863693 76.0
76.900345 152.0
77.136154 244.0
77.176361 196.0
77.230576 164.0
77.295303 268.0
77.312805 64.0
77.32856 128.0
77.452873 156.0
77.480904 180.0
77.528214 172.0
77.603592 208.0
77.65094 200.0
77.849251 164.0
77.879112 224.0
77.906288 208.0
78.149841 124.0
78.163918 196.0
78.214958 188.0
78.408707 160.0
78.600929 176.0
78.7192 92.0
78.745689 156.0
78.814583 148.0
78.873611 176.0
78.890106 192.0
78.941856 52.0
78.994919 196.0
79.112579 152.0
79.125877 188.0
79.148552 184.0
79.207344 172.0
79.295937 140.0
79.505211 140.0
79.533615 252.0
79.570892 140.0
79.595749 152.0
79.663239 196.0
79.757896 120.0
79.792976 176.0
79.840988 200.0
79.894348 136.0
80.029526 168.0
80.124939 184.0
80.159645 156.0
80.306435 192.0
80.345078 104.0
80.384338 116.0
80.420029 172.0
80.459305 156.0
80.662956 148.0
80.863289 152.0
80.908043 144.0
81.085373 140.0
81.105095 180.0
81.253937 224.0
81.442429 140.0
81.489136 124.0
81.668907 188.0
81.719276 188.0
81.820068 128.0
81.906502 176.0
81.964157 132.0
82.039856 160.0
82.33036 116.0
82.357452 204.0
82.46405 96.0
82.667023 188.0
82.76255 172.0
82.781754 192.0
82.806007 160.0
82.892967 152.0
82.918243 148.0
82.958221 148.0
83.048882 92.0
83.076096 76.0
83.128716 168.0
83.159569 132.0
83.192238 164.0
83.3339 204.0
83.364792 172.0
83.567284 128.0
83.630325 244.0
83.750496 136.0
83.777817 212.0
83.919975 168.0
83.945503 176.0
83.98111 264.0
84.100586 172.0
84.149872 224.0
84.208305 112.0
84.22657 200.0
84.301483 180.0
84.352661 64.0
84.416649 156.0
84.538643 192.0
84.81028 188.0
84.834106 160.0
84.848778 196.0
85.039551 180.0
85.08728 40.0
85.149712 104.0
85.232384 180.0
85.269135 176.0
85.307739 156.0
85.377609 128.0
85.631592 196.0
85.650009 152.0
85.764168 172.0
85.843529 156.0
85.967125 164.0
86.050186 188.0
86.105591 240.0
86.161003 140.0
86.209045 228.0
86.280838 152.0
86.338989 180.0
86.453804 160.0
86.556824 196.0
86.617935 32.0
86.658699 172.0
86.764336 340.0
86.878593 184.0
87.016663 172.0
87.120117 196.0
87.19313 176.0
87.238762 204.0
87.289803 72.0
87.351173 140.0
87.380875 188.0
87.444214 196.0
87.457237 196.0
87.572678 188.0
87.611801 148.0
87.695656 52.0
87.727341 132.0
87.803795 112.0
87.826172 164.0
87.861618 200.0
87.971725 136.0
87.994125 144.0
88.03894 128.0
88.072563 148.0
88.175323 244.0
88.242615 132.0
88.420326 348.0
88.467125 192.0
88.568245 152.0
88.682541 192.0
88.796913 180.0
88.85881 144.0
88.909477 184.0
88.968361 224.0
89.12355 60.0
89.19072 224.0
89.28334 104.0
89.336006 208.0
89.495979 152.0
89.518578 152.0
89.541176 168.0
89.769211 212.0
89.871071 40.0
89.980545 56.0
90.301788 200.0
90.330162 156.0
90.40963 172.0
90.424767 128.0
90.638763 136.0
90.708885 128.0
90.737328 96.0
90.76387 96.0
90.796112 140.0
90.864395 116.0
90.887161 276.0
90.917526 124.0
91.054077 1740.0
91.078911 160.0
91.139702 52.0
91.189117 164.0
91.375473 236.0
91.497276 176.0
91.516319 160.0
91.529648 160.0
91.866997 172.0
91.895615 256.0
91.971947 36.0
92.008217 216.0
92.054962 468.0
92.076958 200.0
92.149109 156.0
92.201141 168.0
92.289078 176.0
92.327324 132.0
92.422974 196.0
92.489952 148.0
92.530151 192.0
92.608665 104.0
92.689133 124.0
92.798386 116.0
92.838654 84.0
92.915665 156.0
92.958275 348.0
93.054276 324.0
93.178406 60.0
93.26873 132.0
93.305252 148.0
93.339859 128.0
93.422562 200.0
93.46489 104.0
93.59771 172.0
93.68631 156.0
93.74218 164.0
93.795837 172.0
93.838562 144.0
93.890625 164.0
93.93499 232.0
93.992058 188.0
94.01313 164.0
94.065018 6180.0
94.085793 360.0
94.10247 148.0
94.105194 184.0
94.132599 176.0
94.16275 220.0
94.193657 80.0
94.28833 128.0
94.336655 164.0
94.37339 176.0
94.468155 160.0
94.495239 100.0
94.528137 240.0
94.545555 36.0
94.662491 216.0
94.752739 176.0
94.787621 112.0
94.812813 200.0
94.857391 132.0
94.903923 216.0
94.943542 204.0
94.977615 156.0
95.006714 60.0
95.069481 660.0
95.103737 140.0
95.128975 40.0
95.15033 136.0
95.202759 140.0
95.251312 96.0
95.299881 264.0
95.389282 120.0
95.40583 256.0
95.498169 136.0
95.530792 176.0
95.566254 136.0
95.646049 188.0
95.660286 128.0
95.683403 212.0
95.701897 140.0
95.745346 128.0
95.75898 188.0
95.794044 96.0
95.807678 160.0
95.838852 148.0
95.861473 156.0
95.875877 196.0
95.891464 136.0
95.928406 168.0
95.957748 220.0
95.978668 208.0
95.991417 212.0
96.029297 136.0
96.054871 180.0
96.081284 57716.0
96.11422 140.0
96.146439 60.0
96.180771 108.0
96.197708 76.0
96.216599 124.0
96.245186 100.0
96.260468 92.0
96.284058 108.0
96.309715 64.0
96.348083 76.0
96.368027 76.0
96.402084 264.0
96.430763 140.0
96.460541 72.0
96.508347 68.0
96.54612 88.0
96.610046 40.0
96.644287 40.0
96.668396 112.0
96.702789 132.0
96.741165 92.0
96.766617 80.0
96.86908 200.0
96.91214 80.0
96.964119 148.0
96.982201 80.0
97.005623 128.0
97.024872 176.0
97.083931 3980.0
97.123283 136.0
97.167366 152.0
97.188019 88.0
97.227859 280.0
97.282227 72.0
97.299896 44.0
97.354218 84.0
97.405945 48.0
97.439339 48.0
97.488464 232.0
97.541527 80.0
97.592644 112.0
97.610268 108.0
97.65361 172.0
97.67981 200.0
97.696846 124.0
97.738197 100.0
97.759277 208.0
97.809052 272.0
97.827805 76.0
97.854332 68.0
97.885834 200.0
97.928413 116.0
97.968559 188.0
98.011627 188.0
98.059196 140.0
98.096298 22468.0
98.17157 108.0
98.203125 52.0
98.269081 120.0
98.285988 76.0
98.303741 72.0
98.355057 56.0
98.372826 136.0
98.396515 220.0
98.491936 100.0
98.594048 188.0
98.709633 36.0
98.750237 160.0
98.789795 88.0
98.831345 184.0
98.900612 84.0
98.961983 156.0
98.99762 44.0
99.099686 1604.0
99.130852 172.0
99.162056 148.0
99.180763 64.0
99.320679 76.0
99.405991 68.0
99.51445 144.0
99.538994 84.0
99.602547 120.0
99.636314 148.0
99.666519 40.0
99.764801 172.0
99.782501 108.0
99.829117 100.0
99.892769 80.0
99.92659 92.0
100.04998 72.0
100.077858 40.0
100.149544 120.0
100.224251 80.0
100.302979 224.0
100.504402 92.0
100.528351 88.0
100.632149 52.0
100.718018 120.0
100.787941 168.0
100.915863 148.0
100.947861 236.0
101.083885 148.0
101.918053 168.0
101.932121 128.0
102.002464 200.0
102.044685 140.0
102.362602 76.0
102.390793 152.0
102.723373 184.0
102.818207 176.0
102.878761 60.0
102.898949 164.0
102.916748 172.0
102.935295 60.0
102.953468 144.0
103.054131 736.0
103.117111 52.0
103.286957 104.0
103.309212 156.0
103.339554 192.0
103.398239 160.0
103.487312 52.0
103.620987 176.0
103.890625 48.0
103.990051 152.0
104.063133 220.0
104.097656 136.0
104.122025 152.0
104.162643 180.0
104.197182 96.0
104.278465 128.0
104.408585 176.0
104.432991 52.0
104.475708 168.0
104.567276 176.0
104.599838 144.0
104.689423 136.0
104.722015 188.0
104.736267 196.0
104.834068 96.0
104.864632 152.0
104.880943 84.0
104.913559 192.0
104.966568 404.0
104.988914 188.0
105.033646 31224.0
105.070778 460.0
105.095078 32.0
105.117043 172.0
105.146568 120.0
105.166504 192.0
105.190994 32.0
105.215492 68.0
105.234276 60.0
105.252831 120.0
105.269051 120.0
105.28492 128.0
105.342941 88.0
105.361946 152.0
105.378883 112.0
105.415665 240.0
105.509689 100.0
105.577126 156.0
105.640572 188.0
105.687622 60.0
105.783813 76.0
105.900536 252.0
106.011162 176.0
106.037338 2128.0
106.070602 136.0
106.103401 32.0
106.144409 224.0
106.175171 64.0
106.199783 76.0
106.249016 52.0
106.283897 48.0
106.370094 104.0
106.53643 44.0
106.587791 108.0
106.616562 76.0
106.648903 136.0
106.723457 96.0
106.81189 192.0
106.84568 136.0
106.978569 128.0
107.048599 2532.0
107.072662 356.0
107.087708 148.0
107.135086 52.0
107.252541 40.0
107.415443 64.0
107.508286 116.0
107.541313 92.0
107.555756 136.0
107.594978 184.0
108.00415 228.0
108.050697 728.0
108.080673 3448.0
108.177963 128.0
108.339493 340.0
108.606903 88.0
108.712715 144.0
108.907875 96.0
108.976433 52.0
109.088196 2992.0
109.115685 156.0
109.151031 84.0
109.2155 56.0
109.338257 52.0
109.446503 68.0
109.481903 92.0
109.542305 236.0
109.860901 164.0
109.890465 64.0
109.932198 120.0
109.980202 56.0
110.036568 168.0
110.094719 1264.0
110.207832 60.0
110.274704 84.0
110.427338 204.0
110.531937 152.0
110.793365 144.0
110.81575 92.0
111.013741 40.0
111.097641 156.0
111.166878 176.0
111.196259 92.0
111.271828 28.0
111.309624 132.0
111.465065 180.0
111.690025 124.0
111.70475 76.0
111.92363 80.0
112.115929 252.0
112.408447 120.0
112.805519 196.0
112.87529 148.0
112.915474 156.0
112.98951 160.0
113.084732 232.0
113.271065 168.0
113.290131 84.0
113.324028 64.0
113.409126 128.0
113.463905 176.0
113.593269 204.0
113.805496 116.0
114.090919 3788.0
114.134842 216.0
114.251823 128.0
114.331261 120.0
114.436989 144.0
114.498741 88.0
114.673447 200.0
114.788567 156.0
114.93148 92.0
115.05442 1872.0
115.093254 300.0
115.140686 60.0
115.206902 112.0
115.670952 148.0
115.690216 76.0
115.788712 120.0
115.981544 204.0
116.055504 152.0
116.105797 164.0
116.111839 156.0
116.573898 176.0
116.59539 44.0
116.642677 180.0
116.948112 132.0
117.040688 32.0
117.070724 1664.0
117.111755 176.0
117.767456 68.0
117.791214 168.0
117.903572 208.0
117.92086 60.0
118.01165 152.0
118.072121 220.0
118.206329 164.0
118.269089 148.0
118.500801 96.0
118.799988 88.0
118.975769 168.0
119.073486 152.0
119.174286 228.0
119.469093 180.0
119.59095 60.0
119.784744 116.0
119.893684 192.0
120.084175 236.0
120.290009 260.0
120.935478 128.0
120.952988 176.0
121.082169 156.0
121.139122 44.0
121.239906 192.0
121.290321 204.0
121.360474 132.0
121.856514 196.0
121.871887 108.0
121.972984 192.0
122.096115 148.0
122.219299 176.0
122.800888 108.0
123.039207 156.0
123.114281 168.0
123.134155 144.0
123.196007 108.0
123.439133 180.0
123.476723 184.0
123.565208 204.0
123.764404 64.0
123.790977 204.0
123.892868 144.0
124.178818 172.0
124.258675 132.0
124.280861 136.0
124.478416 120.0
124.493958 144.0
124.625015 120.0
124.669464 160.0
124.796165 196.0
124.871773 108.0
124.900688 40.0
125.078697 120.0
125.352646 76.0
125.740685 260.0
125.896957 128.0
126.019814 144.0
126.048866 368.0
126.451408 156.0
126.682037 96.0
126.758217 96.0
126.829933 112.0
127.053612 664.0
127.267403 152.0
127.640396 112.0
128.061569 6708.0
128.098404 260.0
128.147598 132.0
128.239243 64.0
128.385788 64.0
128.464722 144.0
128.545944 64.0
128.701218 148.0
128.728806 100.0
128.805588 32.0
128.960098 200.0
129.029312 48.0
129.067612 2636.0
129.146896 200.0
129.300751 40.0
129.341492 140.0
129.703918 64.0
129.785538 88.0
129.895462 128.0
129.955643 184.0
130.067551 440.0
130.096359 168.0
130.330292 164.0
130.446198 156.0
130.698654 208.0
130.996902 196.0
131.019684 220.0
131.04982 156.0
131.086273 1656.0
131.197433 184.0
131.31601 144.0
131.363907 40.0
131.425507 172.0
131.477997 104.0
131.514511 116.0
131.567017 68.0
131.708603 88.0
132.089417 752.0
132.25737 132.0
132.298584 336.0
132.683456 160.0
132.713272 140.0
133.062363 236.0
133.133194 132.0
133.188309 136.0
133.947403 160.0
134.098618 420.0
134.443115 152.0
134.595459 92.0
134.902756 156.0
135.009109 160.0
135.075455 260.0
135.39328 156.0
135.439606 128.0
135.731613 148.0
135.819733 136.0
136.075409 116.0
136.497894 112.0
136.604736 200.0
136.767761 152.0
136.788712 60.0
137.013214 60.0
137.079849 144.0
137.480957 132.0
138.032257 204.0
138.135162 136.0
138.397278 160.0
138.453491 116.0
138.865967 120.0
139.067749 140.0
139.377747 96.0
139.403595 168.0
139.944611 140.0
140.288803 188.0
140.59285 164.0
140.675461 192.0
141.070572 1588.0
141.162994 168.0
141.408218 152.0
141.44136 156.0
141.730286 160.0
142.075119 572.0
142.140778 136.0
143.022217 164.0
143.054459 180.0
143.085297 11892.0
143.155548 60.0
143.186508 108.0
143.250809 64.0
143.288925 48.0
143.327057 60.0
143.448593 28.0
143.596436 60.0
143.641754 28.0
143.698181 116.0
144.026062 88.0
144.055786 572.0
144.087555 984.0
144.188538 212.0
144.261963 72.0
144.425232 40.0
144.504181 128.0
144.544861 56.0
144.745926 68.0
144.765091 84.0
144.889633 172.0
145.035812 128.0
145.062927 328.0
145.097137 208.0
145.239624 92.0
145.390778 212.0
145.474792 24.0
145.621262 176.0
145.928864 108.0
146.098236 1068.0
146.152542 136.0
146.210297 176.0
146.29454 196.0
146.345108 96.0
146.829468 272.0
146.969376 172.0
147.076752 168.0
147.101746 376.0
147.126251 44.0
147.210754 128.0
147.384689 80.0
147.790894 48.0
147.921585 184.0
148.112961 772.0
148.173447 192.0
148.212219 44.0
148.641403 184.0
148.998322 124.0
149.088226 64.0
149.119827 164.0
149.26326 184.0
150.784409 176.0
150.972702 112.0
151.050964 244.0
151.107239 144.0
151.222244 144.0
151.86174 188.0
151.918152 128.0
152.033478 88.0
152.114471 104.0
152.512405 188.0
152.534531 164.0
152.849335 88.0
153.074509 208.0
153.504562 148.0
153.78334 108.0
154.080948 332.0
154.101913 160.0
154.319412 172.0
154.730118 124.0
155.017441 104.0
155.059967 180.0
155.178558 72.0
155.220703 188.0
155.290146 264.0
155.543228 216.0
155.587921 196.0
155.64006 104.0
155.94313 160.0
156.020187 248.0
156.276367 208.0
156.385117 176.0
156.532745 68.0
156.624893 196.0
156.761917 80.0
156.864105 72.0
157.061676 336.0
157.085403 200.0
157.102127 536.0
157.14592 248.0
157.675308 124.0
158.037903 84.0
158.063324 152.0
158.092957 140.0
158.132996 188.0
158.260666 108.0
159.045349 48.0
159.077682 1456.0
159.114578 176.0
159.188446 48.0
159.361771 112.0
159.462296 88.0
159.479889 44.0
159.515076 40.0
159.570374 92.0
159.708694 40.0
159.738876 100.0
159.819382 144.0
160.081924 120.0
160.112427 984.0
160.219696 100.0
160.446518 160.0
160.901703 132.0
160.996582 136.0
161.091354 172.0
161.118301 300.0
161.498154 220.0
161.555191 108.0
162.090042 392.0
162.118317 168.0
162.233871 208.0
162.355591 84.0
162.378418 140.0
162.451965 156.0
162.502716 100.0
162.682907 224.0
163.038498 72.0
163.097198 132.0
163.878235 48.0
164.832535 136.0
165.072815 128.0
165.487335 156.0
165.802124 140.0
166.076752 148.0
166.333344 128.0
166.836838 168.0
166.87027 156.0
167.081039 188.0
167.173782 124.0
167.451828 80.0
167.469864 156.0
167.50592 60.0
167.616699 144.0
167.848694 180.0
168.078262 108.0
168.755005 172.0
169.065399 132.0
169.101288 464.0
169.231079 96.0
169.487503 140.0
169.510818 52.0
169.534149 64.0
169.650787 100.0
169.790802 136.0
169.941254 152.0
170.095016 492.0
170.390411 232.0
170.704926 48.0
171.07959 196.0
171.117523 144.0
171.181137 124.0
171.254059 76.0
172.110626 288.0
172.24263 108.0
172.940765 108.0
173.040237 212.0
173.242813 208.0
173.359802 180.0
173.51445 148.0
174.126022 736.0
174.228302 144.0
174.627853 112.0
174.727814 116.0
174.996262 136.0
175.025238 60.0
175.093704 168.0
175.117401 136.0
175.182281 108.0
175.428329 176.0
175.599731 184.0
176.67746 80.0
176.981827 224.0
177.246704 216.0
177.307648 168.0
177.395126 148.0
177.652344 220.0
177.774399 152.0
177.792984 140.0
177.938965 48.0
178.40123 52.0
178.611313 136.0
178.954605 96.0
179.157013 196.0
179.266266 44.0
179.466171 164.0
179.636871 184.0
179.951782 88.0
179.973145 204.0
180.229553 140.0
180.266968 148.0
180.488831 132.0
180.654663 124.0
180.694778 112.0
181.251709 188.0
181.662735 168.0
182.01619 44.0
182.171951 188.0
182.419189 128.0
182.526733 176.0
182.725769 128.0
182.863007 152.0
182.884537 160.0
182.927612 144.0
183.280411 172.0
183.331619 100.0
183.479507 268.0
183.71373 112.0
183.852097 240.0
183.895279 156.0
184.110046 376.0
184.451706 164.0
184.551727 160.0
184.830322 84.0
185.097229 288.0
185.117004 372.0
185.244568 128.0
185.390869 104.0
185.4505 176.0
185.591461 76.0
185.789459 48.0
185.811157 160.0
186.104279 148.0
186.131592 384.0
186.615082 172.0
186.761932 124.0
187.055817 64.0
187.111664 264.0
187.142929 176.0
187.382614 128.0
187.502106 188.0
187.554291 112.0
187.57338 40.0
188.037064 132.0
188.106567 1488.0
188.217239 180.0
188.520447 52.0
188.837585 172.0
189.109543 448.0
189.771393 72.0
190.160919 136.0
190.237778 172.0
190.377808 88.0
190.482178 132.0
190.721237 124.0
190.814697 120.0
190.993454 128.0
191.12001 100.0
191.943604 136.0
192.368484 216.0
192.979034 176.0
193.593323 184.0
194.092117 48.0
194.15036 148.0
194.250198 192.0
194.42778 120.0
194.724838 116.0
195.511627 104.0
195.993378 156.0
196.109268 140.0
196.227509 100.0
196.333466 128.0
196.380875 236.0
196.592911 156.0
196.844147 100.0
196.98938 172.0
197.095551 88.0
197.428207 168.0
197.453369 148.0
198.04953 80.0
198.091553 136.0
198.127014 272.0
198.430649 116.0
198.940887 156.0
198.991776 184.0
199.132187 132.0
199.185547 156.0
199.311981 92.0
199.424393 132.0
199.474976 180.0
199.553696 132.0
199.657745 148.0
199.910934 136.0
200.012253 108.0
200.071365 144.0
200.14296 21252.0
200.230225 48.0
200.27655 60.0
200.352982 80.0
200.372711 76.0
200.400879 28.0
200.429062 64.0
200.453812 112.0
200.472931 84.0
200.553055 88.0
200.59816 64.0
200.71376 80.0
200.787079 152.0
200.894257 60.0
200.919647 152.0
201.094604 104.0
201.145309 3284.0
201.20752 32.0
201.297867 60.0
201.337402 56.0
201.648178 28.0
201.667953 52.0
201.696228 96.0
201.786682 152.0
202.112991 148.0
202.137131 196.0
202.151855 324.0
202.182709 220.0
202.293091 52.0
202.346878 136.0
202.369522 72.0
202.389343 112.0
202.439102 140.0
202.474304 128.0
202.567764 96.0
202.740601 56.0
202.852692 184.0
203.060974 64.0
203.083664 92.0
203.103516 144.0
203.344681 132.0
203.373062 76.0
203.577484 180.0
204.017883 44.0
204.048996 68.0
204.091812 204.0
204.902969 168.0
204.936279 116.0
205.065399 64.0
205.121094 168.0
205.205078 68.0
205.456055 148.0
205.57019 72.0
205.698624 96.0
206.135605 116.0
206.321381 164.0
207.526718 124.0
208.091949 100.0
208.379166 92.0
208.95993 156.0
209.04538 172.0
209.345627 164.0
209.651001 136.0
210.44136 100.0
210.747528 72.0
211.108856 152.0
211.139328 192.0
211.360519 128.0
211.383667 216.0
211.43576 108.0
212.241074 164.0
212.786545 128.0
212.80687 120.0
212.918289 108.0
212.975311 104.0
213.036316 164.0
213.803925 124.0
213.905792 116.0
214.120758 164.0
214.159119 152.0
214.526276 160.0
214.779968 76.0
214.934586 132.0
215.025055 212.0
215.077591 124.0
215.14473 196.0
215.346222 120.0
215.460144 220.0
215.492279 76.0
215.600388 152.0
215.72316 152.0
215.891617 128.0
215.937836 332.0
216.004745 108.0
216.04776 232.0
216.138565 20788.0
216.211624 68.0
216.249664 92.0
216.290115 56.0
216.336288 192.0
216.378693 52.0
216.43483 96.0
216.521942 100.0
216.58725 68.0
216.624466 60.0
216.651703 160.0
216.698212 116.0
216.787491 108.0
216.959137 172.0
217.040634 168.0
217.075821 156.0
217.140701 2936.0
217.189011 148.0
217.231262 40.0
217.269409 64.0
217.292877 96.0
217.316345 52.0
217.357819 180.0
217.395569 172.0
217.427856 100.0
217.454269 36.0
217.498795 116.0
217.598114 128.0
217.673492 148.0
217.762558 60.0
217.797791 56.0
217.818359 164.0
217.868301 128.0
217.912369 48.0
218.045395 132.0
218.093231 148.0
218.153564 28440.0
218.262146 44.0
218.318008 52.0
218.344482 40.0
218.385651 76.0
218.408539 92.0
218.416534 72.0
218.4841 60.0
218.50499 80.0
218.534073 88.0
218.598145 88.0
218.647293 72.0
218.676941 88.0
218.703629 168.0
218.756409 84.0
218.780945 84.0
218.812347 84.0
218.843445 128.0
218.920807 72.0
218.95369 68.0
218.983139 76.0
219.088226 196.0
219.155441 4208.0
219.522461 64.0
219.665863 160.0
219.696472 56.0
219.950256 108.0
220.029968 64.0
220.056534 60.0
220.083099 40.0
220.157272 228.0
220.227814 40.0
220.279617 116.0
220.331207 28.0
220.415405 104.0
220.546097 116.0
220.594208 88.0
220.617859 108.0
220.700653 128.0
220.731277 108.0
220.789429 108.0
220.84259 84.0
220.9384 72.0
221.259842 72.0
221.547104 52.0
221.692291 136.0
221.837524 88.0
222.157791 64.0
222.279434 76.0
222.718826 56.0
222.778244 132.0
222.944626 256.0
223.096222 84.0
225.773788 68.0
226.216614 108.0
227.212036 76.0
228.253784 84.0
228.951935 76.0
230.14003 132.0
232.768326 80.0
233.132843 116.0
233.780594 40.0
234.816422 140.0
235.066574 68.0
235.136765 68.0
236.374435 152.0
238.973373 60.0
239.823318 56.0
243.896698 224.0
244.384949 168.0
244.596573 52.0
245.734039 64.0
247.030548 40.0
247.055573 40.0
247.121277 204.0
249.740723 64.0
251.038284 76.0
251.375809 112.0
252.370819 96.0
253.082733 88.0
254.979721 60.0
255.090973 112.0
256.08374 104.0
256.437378 156.0
259.059479 100.0
260.568604 112.0
260.95105 244.0
261.063599 152.0
261.192261 76.0
263.174225 72.0
266.185577 140.0
266.471405 112.0
272.236725 148.0
273.690155 228.0
274.893311 132.0
276.132172 128.0
276.664886 32.0
277.141815 108.0
277.904419 120.0
277.927643 112.0
278.18985 176.0
283.586945 140.0
283.959106 120.0
284.311371 112.0
284.492645 48.0
284.633636 64.0
288.893829 172.0
289.523376 148.0
289.618225 100.0
290.177368 44.0
290.991638 68.0
292.164154 164.0
293.16861 68.0
294.618713 104.0
295.740326 64.0
297.385529 160.0
299.948059 68.0
302.175507 120.0
302.930206 172.0
304.55011 128.0
306.944489 72.0
308.575073 104.0
311.561035 164.0
312.278137 120.0
313.221436 92.0
320.13147 96.0
320.199615 3340.0
320.387909 52.0
320.573212 28.0
320.730011 196.0
320.833405 68.0
321.02951 128.0
321.200043 708.0
321.85379 72.0
322.053772 56.0
322.203735 144.0
322.361023 68.0
322.475403 192.0
323.215668 60.0
323.487671 60.0
324.619843 128.0
325.089783 108.0
326.001923 52.0
329.58374 88.0
333.992157 112.0
336.196411 112.0
336.356995 48.0
336.795166 132.0
336.879181 148.0
336.985138 144.0
338.033508 100.0
338.126038 216.0
338.209595 4772.0
338.264313 160.0
338.330017 44.0
338.41156 64.0
338.539734 44.0
338.880371 72.0
339.118561 76.0
339.212708 924.0
339.635559 32.0
339.78598 68.0
339.877686 52.0
339.976776 104.0
340.219421 336.0
340.718475 92.0
340.942627 92.0
341.177856 80.0
341.608124 120.0
341.773682 104.0
342.093872 36.0
342.476837 160.0
343.446228 160.0
345.681396 84.0
347.793884 52.0
348.466034 84.0
349.116547 76.0
357.771179 104.0
359.074921 56.0
363.182434 68.0
367.107361 64.0
367.256104 144.0
369.816071 124.0
369.904114 168.0
388.679047 48.0
389.138275 60.0
394.022003 80.0
402.362274 92.0
408.381134 120.0
413.901917 84.0
414.744598 56.0
430.364532 96.0
439.441895 60.0
446.975647 44.0
447.257629 188.0
448.036652 92.0
454.624359 140.0
474.519775 60.0
478.760742 68.0
487.417908 72.0
497.385895 88.0
501.589417 76.0
508.230713 40.0
531.307556 96.0
543.311768 80.0
544.755493 68.0
564.374634 68.0
585.072327 92.0
585.785095 56.0
589.630615 80.0
591.5896 120.0
605.300293 80.0
627.047607 80.0
662.405029 68.0
664.902039 184.0
691.595337 120.0
692.270691 80.0
697.91687 76.0
701.56543 120.0
703.364258 48.0
710.57196 144.0
719.566528 140.0
742.56073 160.0
743.000122 136.0
747.49353 108.0
757.64917 72.0
761.939331 172.0
765.09613 180.0
765.773438 164.0
768.684265 64.0
771.114197 76.0
782.708618 144.0
796.129578 60.0
799.834717 164.0
805.349243 88.0
806.705383 180.0
807.366943 132.0
813.633789 72.0
814.786682 164.0
815.116272 272.0
818.261658 180.0
819.235474 152.0
823.330872 188.0
825.290894 140.0
827.138733 64.0
830.731689 160.0
831.058716 184.0
831.150513 68.0
833.516235 48.0
833.769104 200.0
835.309998 116.0
835.563171 116.0
839.151245 168.0
841.205078 224.0
844.481323 136.0
846.611084 196.0
848.581238 168.0
851.668518 212.0
853.510803 184.0
856.583679 156.0
856.758484 176.0
858.45459 204.0
859.77887 212.0
861.396179 60.0
862.97998 168.0
863.833801 236.0
867.546509 32.0
868.532959 196.0
869.411743 156.0
871.390564 92.0
874.112976 180.0
876.562622 196.0
879.139587 168.0
879.346191 156.0
882.530212 116.0
883.476501 180.0
885.702271 40.0
885.773376 68.0
886.940735 68.0
888.731689 180.0
889.022461 176.0
891.029419 176.0
891.172058 252.0
891.356201 204.0
892.105103 188.0
893.038696 48.0
894.109619 60.0
895.187134 120.0
897.111633 108.0
897.30835 160.0
898.924805 176.0
901.815308 180.0
902.118225 172.0
902.736023 136.0
903.025513 68.0
903.621277 180.0
906.990662 192.0
907.729553 148.0
908.9599 172.0
911.157471 144.0
912.389526 180.0
913.532104 140.0
914.639343 172.0
916.87384 180.0
917.826355 180.0
920.342468 176.0
920.39679 228.0
922.305908 192.0
923.230957 156.0
924.132202 124.0
924.337952 332.0
924.834229 108.0
925.33667 180.0
927.184204 132.0
928.645325 156.0
930.660095 112.0
931.522461 200.0
933.126831 132.0
935.395996 184.0
937.418091 172.0
938.33844 160.0
940.528503 44.0
940.571228 136.0
941.847412 144.0
942.03064 228.0
943.185547 276.0
943.668518 148.0
943.784668 208.0
944.078186 144.0
944.139343 164.0
944.359558 152.0
945.589294 124.0
945.656677 192.0
945.944336 228.0
946.134094 208.0
946.740295 148.0
947.046509 152.0
949.406128 132.0
950.001099 112.0
950.044006 32.0
950.15448 196.0
950.598206 188.0
950.669861 164.0
951.412537 132.0
953.021667 184.0
954.490723 168.0
955.979431 160.0
956.656433 116.0
957.284485 108.0
957.518494 96.0
958.128296 236.0
958.177612 164.0
958.294678 256.0
958.880066 132.0
959.169739 176.0
959.669128 112.0
959.786255 228.0
959.921936 160.0
960.939636 208.0
961.704895 72.0
962.81311 168.0
964.039368 148.0
964.095032 172.0
964.193909 136.0
965.894226 204.0
966.123108 36.0
967.955139 64.0
968.877991 116.0
968.952332 172.0
969.144409 48.0
970.700256 184.0
971.295654 180.0
973.6604 152.0
974.281555 112.0
979.183167 180.0
980.553772 180.0
981.482666 164.0
981.569946 132.0
981.950378 180.0
982.00647 200.0
982.262207 116.0
982.399475 160.0
982.642761 160.0
982.817505 72.0
983.572632 132.0
984.77771 132.0
987.590332 168.0
988.904297 140.0
989.661743 164.0
989.949768 168.0
991.647583 188.0
991.879395 216.0
992.064392 188.0
992.74469 196.0
992.838806 148.0
993.064575 140.0
993.403259 196.0
994.689697 120.0
995.028687 208.0
995.367737 216.0
995.932983 140.0
998.132568 48.0
998.792908 168.0
999.780762 188.0
999.894043 84.0
1001.115356 112.0
1001.373535 184.0
1001.612915 144.0
1001.707397 168.0
1001.871155 132.0
1002.047607 164.0
1002.255493 180.0
1002.740723 204.0
1002.892029 88.0
1003.421509 128.0
1007.789124 148.0
1007.852295 224.0
1008.022949 144.0
1008.225159 152.0
1008.275696 124.0
1009.268188 124.0
1009.628601 108.0
1009.742493 184.0
1011.140686 188.0
1011.526794 172.0
1011.58374 188.0
1012.964233 148.0
1013.433044 168.0
1014.370972 144.0
1015.835815 112.0
1016.717773 196.0
1016.870117 88.0
1017.34613 188.0
1017.75885 208.0
1018.712952 172.0
1019.810791 176.0
1020.045959 104.0
1021.177795 184.0
1022.049316 188.0
1023.411438 52.0
1023.46875 160.0
1023.793518 176.0
1023.857178 160.0
1024.264771 140.0
1024.347656 188.0
1024.863647 152.0
1025.137695 184.0
1025.303345 132.0
1025.768677 216.0
1025.877075 208.0
1027.267212 76.0
1028.320068 156.0
1030.848999 192.0
1031.187744 204.0
1031.973999 224.0
1032.869385 200.0
1033.112427 232.0
1033.976318 144.0
1035.105347 208.0
1036.243042 172.0
1036.992798 116.0
1037.53125 140.0
1037.845459 188.0
1038.050659 156.0
1038.679199 140.0
1038.724121 144.0
1039.198853 132.0
1039.384888 152.0
1039.782715 180.0
1040.463135 200.0
1040.886963 144.0
1041.156616 176.0
1041.80542 216.0
1041.882446 212.0
1042.036621 136.0
1042.351562 44.0
1042.653564 140.0
1043.862183 208.0
1044.042236 152.0
1044.106567 88.0
1044.21582 96.0
1046.06897 52.0
1047.401855 104.0
1047.472778 172.0
1047.627319 208.0
1048.323242 184.0
1048.948364 136.0
1049.238525 204.0
1050.012329 48.0
1050.992798 184.0
1051.386475 164.0
1052.012573 176.0
1052.361206 72.0
1053.549561 144.0
1054.415405 68.0
1054.49292 188.0
1055.436768 192.0
1056.866211 168.0
1057.565186 168.0
1058.646362 184.0
1059.041504 112.0
1059.559692 164.0
1059.890137 208.0
1060.34375 128.0
1060.836304 120.0
1062.04248 196.0
1062.11377 168.0
1063.268677 168.0
1066.964722 180.0
1067.40686 160.0
1068.2323 244.0
1068.968018 216.0
1069.124268 148.0
1069.495239 136.0
1070.491333 184.0
1070.706177 136.0
1070.992798 128.0
1071.344604 304.0
1071.56604 92.0
1071.950562 168.0
1072.119995 168.0
1072.204712 112.0
1072.419678 172.0
1073.285522 180.0
1073.567139 136.0
1074.330322 132.0
1074.597778 220.0
1074.702148 132.0
1074.878418 124.0
1075.19165 112.0
1076.163208 132.0
1076.347046 120.0
1077.496582 176.0
1077.986694 160.0
1078.88208 144.0
1079.143677 164.0
1080.033081 104.0
1080.124634 188.0
1080.811523 120.0
1081.12561 92.0
1081.6427 148.0
1081.793213 252.0
1082.244995 188.0
1082.290894 148.0
1082.382568 176.0
1082.441406 40.0
1083.240479 256.0
1083.463257 152.0
1084.144653 188.0
1085.114746 112.0
1085.449219 124.0
1085.521362 200.0
1086.760986 188.0
1087.509155 204.0
1087.666626 184.0
1087.804565 160.0
1088.067139 144.0
1088.743408 260.0
1088.802612 340.0
1088.847168 212.0
1089.30249 164.0
1089.465942 164.0
1089.597412 116.0
1089.689331 180.0
1090.136108 172.0
1090.313599 108.0
1091.062988 144.0
1091.109009 192.0
1091.187866 36.0
1091.542969 176.0
1091.773071 176.0
1092.075562 124.0
1092.483398 204.0
1092.740601 172.0
1092.81897 128.0
1093.128296 144.0
1093.457275 140.0
1093.713989 156.0
1094.787109 176.0
1094.991333 144.0
1095.564331 200.0
1095.709351 156.0
1096.355103 336.0
1097.27124 208.0
1097.350342 164.0
1097.640503 252.0
1097.693237 60.0
1098.854126 196.0
1100.187256 164.0
1100.240112 172.0
1100.57019 68.0
1100.708862 124.0
1101.52124 168.0
1101.580688 124.0
1101.802002 204.0
1102.096069 224.0
1102.439697 184.0
1103.140259 260.0
1103.702271 160.0
1105.329468 244.0
1105.521362 152.0
1106.183228 152.0
1106.765747 208.0
1106.812134 144.0
1106.918091 116.0
1107.096924 84.0
1107.1698 68.0
1107.328735 176.0
1107.865234 232.0
1108.792847 164.0
1109.197144 88.0
1109.369507 140.0
1109.734131 156.0
1109.860107 136.0
1110.092285 176.0
1110.21167 52.0
1110.874878 132.0
1111.173462 60.0
1111.32605 132.0
1111.564941 352.0
1112.08252 184.0
1112.387939 156.0
1113.191284 192.0
1113.388916 192.0
1113.968384 48.0
1114.187622 196.0
1114.273926 108.0
1114.812134 212.0
1114.891846 120.0
1115.0448 152.0
1115.264038 152.0
1115.709473 184.0
1115.888916 168.0
1116.168213 236.0
1116.859863 156.0
1117.598389 220.0
1117.837891 156.0
1117.935425 200.0
1118.084106 168.0
1118.649902 168.0
1118.729736 108.0
1119.732178 252.0
1119.788452 176.0
1119.94165 176.0
1120.654541 164.0
1121.027588 212.0
1122.127441 192.0
1123.321167 76.0
1124.749146 212.0
1125.697266 180.0
1125.93103 88.0
1126.011108 216.0
1126.472168 196.0
1126.555786 160.0
1127.173584 136.0
1127.641357 36.0
1128.811279 156.0
1129.265991 168.0
1130.008545 228.0
1130.383301 156.0
1131.795654 144.0
1132.090332 152.0
1133.342896 196.0
1133.396484 176.0
1134.013062 120.0
1134.220825 192.0
1134.522461 112.0
1134.582886 156.0
1135.508179 204.0
1135.662476 152.0
1136.400391 388.0
1136.500977 32.0
1136.843262 248.0
1136.930542 156.0
1137.037842 168.0
1137.091553 48.0
1138.608887 132.0
1138.796875 188.0
1138.998413 136.0
1139.233521 144.0
1139.380737 212.0
1139.643311 212.0
1139.770996 228.0
1139.992798 144.0
1140.752319 116.0
1140.873291 184.0
1141.2229 184.0
1142.346069 136.0
1142.615112 80.0
1143.678345 164.0
1143.940918 188.0
1144.896973 196.0
1145.112549 152.0
1145.381958 196.0
1146.635132 148.0
1146.817139 156.0
1148.907471 216.0
1149.1521 212.0
1149.825195 136.0
1150.439453 152.0
1151.425293 112.0
1151.85083 164.0
1152.580444 168.0
1152.864258 212.0
1152.965576 192.0
1153.404907 132.0
1153.621216 200.0
1153.84436 160.0
1153.959351 164.0
1154.265381 200.0
1154.412354 100.0
1154.635498 32.0
1155.135986 224.0
1155.831055 188.0
1156.083252 160.0
1156.577393 200.0
1156.665283 84.0
1157.01062 196.0
1158.324341 148.0
1158.723999 168.0
1158.920532 200.0
1159.089966 40.0
1159.299927 32.0
1159.625244 96.0
1160.018433 152.0
1160.120117 48.0
1160.255737 172.0
1160.432007 124.0
1161.096558 204.0
1161.544189 92.0
1162.032593 116.0
1162.134399 148.0
1162.249756 128.0
1162.731567 68.0
1162.779053 116.0
1163.118408 112.0
1163.444214 236.0
1164.048584 256.0
1164.327026 148.0
1164.741333 192.0
1165.203247 140.0
1165.264404 124.0
1165.733276 220.0
1166.297363 212.0
1166.37207 184.0
1166.732422 156.0
1167.521118 176.0
1167.657104 120.0
1167.800049 228.0
1167.874756 192.0
1168.0448 188.0
1168.242188 192.0
1168.364624 152.0
1168.73877 156.0
1168.990601 184.0
1169.215088 176.0
1169.514648 204.0
1170.174927 152.0
1170.542603 232.0
1171.911743 176.0
1172.913574 148.0
1173.070312 96.0
1174.01123 180.0
1175.150391 248.0
1175.38916 56.0
1175.573486 160.0
1175.887329 168.0
1177.321045 216.0
1178.038208 140.0
1178.612183 236.0
1180.539795 172.0
1181.257935 204.0
1181.572632 236.0
1181.668457 204.0
1182.21582 236.0
1182.637207 216.0
1182.735962 132.0
1183.595581 208.0
1183.982178 228.0
1184.036865 36.0
1184.489014 44.0
1184.886353 368.0
1184.989014 104.0
1185.198975 224.0
1185.283691 108.0
1185.859375 36.0
1185.982666 152.0
1186.099243 112.0
1186.174683 188.0
1187.635132 176.0
1187.92334 160.0
1188.348633 236.0
1188.403564 192.0
1188.50647 156.0
1188.609375 240.0
1189.446655 156.0
1189.542725 160.0
1189.961548 164.0
1190.366699 156.0
1190.826782 172.0
1191.019165 208.0
1192.654419 204.0
1193.410645 160.0
1193.575684 152.0
1194.64856 164.0
1195.749512 152.0
1196.541138 164.0
1196.830322 200.0
1197.030029 128.0
1197.105835 180.0
1197.181519 184.0
1197.766968 136.0
1197.856567 252.0
1198.125122 136.0
1198.304321 216.0
1198.738403 192.0
1198.905518 220.0
1199.07666 160.0
1199.329224 228.0
1199.427612 128.0
1199.634399 228.0
1199.689575 176.0
1201.047974 68.0
1201.862061 136.0
1202.138062 68.0
1202.61145 188.0
1202.807617 184.0
1203.366699 212.0
1203.829346 104.0
1204.361206 144.0
1204.437134 240.0
1204.761841 216.0
1205.280029 192.0
1205.508057 236.0
1205.901978 168.0
1206.164673 88.0
1206.378906 264.0
1207.346924 120.0
1207.810303 212.0
1207.886475 180.0
1208.004028 156.0
1208.149292 224.0
1208.273804 224.0
1208.758179 152.0
1209.25647 160.0
1209.367188 136.0
1209.422607 88.0
1209.706421 60.0
1210.641113 156.0
1211.548462 196.0
1211.69397 76.0
1212.255127 136.0
1212.504639 168.0
1213.190918 156.0
1213.703979 64.0
1213.752441 124.0
1213.905029 188.0
1214.085449 196.0
1214.217163 168.0
1214.383545 64.0
1214.667969 188.0
1215.007935 220.0
1215.46582 200.0
1216.00708 124.0
1217.090088 228.0
1218.010254 188.0
1218.40271 32.0
1218.458374 164.0
1218.94812 132.0
1220.339478 236.0
1220.480957 176.0
1220.738159 172.0
1221.510254 196.0
1221.962402 180.0
1222.567749 48.0
1222.734741 96.0
1223.354248 164.0
1225.053467 160.0
1225.177856 176.0
1225.778076 152.0
1226.008057 124.0
1226.328613 148.0
1226.77478 84.0
1227.025757 204.0
1227.123291 108.0
1227.283691 140.0
1227.667236 196.0
1228.532104 148.0
1228.992554 164.0
1229.669434 160.0
1229.753296 128.0
1229.885864 196.0
1229.94165 124.0
1230.130127 252.0
1230.535034 72.0
1230.632812 200.0
1231.841064 220.0
1232.099976 176.0
1232.257324 180.0
1232.609619 152.0
1232.658447 80.0
1232.861084 204.0
1232.965942 36.0
1233.99353 260.0
1234.608887 108.0
1235.126465 176.0
1235.273315 216.0
1235.93103 152.0
1236.105957 148.0
1237.700439 196.0
1238.493286 188.0
1238.668335 260.0
1238.902466 140.0
1239.221802 108.0
1239.922607 136.0
1240.286987 284.0
1240.595459 196.0
1240.798706 164.0
1240.938965 108.0
1241.142334 164.0
1241.956543 204.0
1242.194336 104.0
1242.720459 200.0
1243.49939 144.0
1244.531372 84.0
1244.601562 44.0
1244.882446 116.0
1245.254639 164.0
1245.7323 196.0
1246.779297 180.0
1247.292358 144.0
1247.622681 188.0
1248.480591 148.0
1248.855103 216.0
1248.944702 184.0
1249.556763 60.0
1249.812622 228.0
1249.880371 88.0
1249.974243 248.0
1250.288574 164.0
1250.612305 180.0
1250.809448 164.0
1251.330322 252.0
1251.471191 116.0
1251.759888 32.0
1252.217651 84.0
1252.964355 128.0
1253.372925 180.0
1253.429321 188.0
1254.356201 144.0
1254.50061 136.0
1254.874268 204.0
1255.290283 140.0
1255.536865 112.0
1256.200195 232.0
1256.48938 112.0
1256.559937 228.0
1256.947998 136.0
1257.187988 172.0
1257.300903 120.0
1257.936157 136.0
1258.303223 268.0
1258.387939 192.0
1258.62793 96.0
1259.355347 112.0
1260.365601 180.0
1260.733032 188.0
1261.326782 84.0
1261.906494 132.0
1262.931885 204.0
1263.328003 132.0
1263.674683 184.0
1264.276123 140.0
1264.495483 180.0
1264.835327 152.0
1265.197388 132.0
1265.741455 152.0
1265.826416 148.0
1265.953857 144.0
1266.476562 172.0
1267.158081 216.0
1267.644287 208.0
1268.951172 196.0
1269.085938 272.0
1269.249023 184.0
1269.419189 172.0
1269.610718 160.0
1269.834595 268.0
1270.121338 188.0
1270.362549 292.0
1270.554077 60.0
1271.590088 196.0
1271.739136 148.0
1272.221802 164.0
1272.590942 176.0
1272.796875 132.0
1273.37207 232.0
1275.471191 172.0
1276.115112 192.0
1276.385254 136.0
1277.15332 68.0
1277.516113 56.0
1277.608643 172.0
1277.672607 148.0
1278.611938 184.0
1279.016479 200.0
1279.266724 168.0
1279.359253 180.0
1279.630493 208.0
1280.135376 196.0
1280.242188 208.0
1280.320557 232.0
1280.605469 168.0
1280.890381 44.0
1280.961548 164.0
1281.474487 160.0
1281.791138 172.0
1282.244141 204.0
1283.04248 228.0
1284.368896 196.0
1284.454468 136.0
1284.639893 180.0
1284.896729 128.0
1285.210693 68.0
1285.481812 224.0
1285.720459 100.0
1286.866577 204.0
1287.137939 144.0
1287.428345 148.0
1287.573608 152.0
1288.237793 184.0
1288.302124 56.0
1288.359253 176.0
1288.845093 56.0
1289.159546 156.0
1289.674072 156.0
1290.353271 64.0
1291.232788 220.0
1291.36145 160.0
1292.056763 184.0
1292.141235 108.0
1292.384521 184.0
1292.53479 136.0
1292.663574 148.0
1292.828125 164.0
1293.465088 168.0
1294.410156 120.0
1294.689453 88.0
1294.983154 120.0
1295.570557 184.0
1295.627808 160.0
1295.728149 220.0
1296.659668 124.0
1296.881836 160.0
1297.007446 184.0
1297.147095 140.0
1297.362061 172.0
1297.476807 144.0
1298.301392 184.0
1298.373169 152.0
1298.660034 148.0
1299.406006 200.0
1300.097046 184.0
1300.489624 184.0
1300.776733 208.0
1300.898804 148.0
1302.378052 196.0
1302.809082 220.0
1303.699951 164.0
1304.763794 160.0
1304.943604 180.0
1305.223999 120.0
1305.274292 180.0
1305.338989 84.0
1305.56189 192.0
1305.88562 156.0
1306.446655 156.0
1306.95752 136.0
1307.058228 180.0
1307.17334 116.0
1307.777832 160.0
1308.101807 180.0
1308.627319 104.0
1309.779541 148.0
1310.046143 56.0
1310.867432 156.0
1311.040405 128.0
1311.429688 136.0
1311.681885 168.0
1311.775635 56.0
1311.941406 188.0
1312.965332 172.0
1313.059082 124.0
1313.152832 180.0
1313.260986 240.0
1314.797729 136.0
1314.949341 140.0
1315.728882 216.0
1315.786743 144.0
1316.10437 180.0
1316.169312 100.0
1316.751221 168.0
1316.840942 184.0
1316.898804 164.0
1317.144287 212.0
1317.216553 108.0
1318.025757 132.0
1318.09082 84.0
1318.770142 104.0
1319.059204 208.0
1319.276123 48.0
1319.413452 144.0
1319.811157 196.0
1320.114868 168.0
1320.512573 136.0
1320.650024 252.0
1320.772949 216.0
1321.358887 176.0
1321.633911 144.0
1321.930542 148.0
1322.147705 140.0
1323.378296 172.0
1324.594971 184.0
1325.00061 168.0
1325.218018 128.0
1325.297607 76.0
1325.602051 116.0
1325.993286 156.0
1326.233032 176.0
1326.935669 240.0
1327.174927 192.0
1327.291016 116.0
1327.508545 172.0
1329.039062 200.0
1329.513428 160.0
1329.728516 172.0
1329.909912 64.0
1330.142212 136.0
1330.30188 172.0
1331.027954 224.0
1331.187744 156.0
1331.587158 132.0
1331.732422 188.0
1331.848633 164.0
1332.277222 68.0
1333.195068 180.0
1333.316284 172.0
1333.948608 144.0
1334.02124 64.0
1334.464722 140.0
1334.959229 204.0
1335.046509 212.0
1335.114868 148.0
1335.7229 116.0
1336.312134 188.0
1336.501343 172.0
1336.632324 76.0
1336.879761 176.0
1336.996216 172.0
1337.15625 120.0
1337.272705 212.0
1337.411011 164.0
1338.182739 244.0
1338.641479 160.0
1339.741211 100.0
1339.792236 216.0
1341.286133 152.0
1341.628784 196.0
1341.854736 128.0
1342.292236 276.0
1342.686035 188.0
1342.831909 168.0
1343.006958 116.0
1343.130981 152.0
1343.276855 128.0
1344.020874 200.0
1344.203369 168.0
1344.276367 200.0
1344.663208 216.0
1344.780029 152.0
1345.729004 204.0
1345.794678 168.0
1346.137939 156.0
1346.634521 132.0
1347.350342 168.0
1347.927612 132.0
1348.117554 192.0
1349.616089 168.0
1349.879272 100.0
1350.266968 232.0
1350.340088 144.0
1351.912964 144.0
1352.022827 136.0
1352.125244 164.0
1352.19104 64.0
1352.769409 176.0
1353.076782 160.0
1353.128052 180.0
1353.201294 136.0
1353.45752 168.0
1354.548828 172.0
1354.76123 156.0
1354.995728 116.0
1355.105591 84.0
1355.41333 168.0
1356.666626 144.0
1357.392456 164.0
1357.744507 172.0
1357.889648 212.0
1358.221191 152.0
1358.375244 160.0
1358.463257 160.0
1359.505127 144.0
1360.613525 148.0
1360.826416 184.0
1362.354004 68.0
1362.721436 224.0
1362.824219 144.0
1363.926636 148.0
1364.948486 100.0
1365.169189 132.0
1365.728027 52.0
1365.862549 156.0
1366.036987 112.0
1366.583252 176.0
1367.700073 236.0
1367.972412 180.0
1368.119629 180.0
1368.725464 188.0
1369.393555 136.0
1369.511353 208.0
1369.629272 124.0
1369.938599 132.0
1370.063843 140.0
1370.343872 200.0
1370.609009 152.0
1370.81543 172.0
1371.500854 92.0
1371.862061 192.0
1371.998047 168.0
1372.150513 216.0
1372.282227 320.0
1372.827881 128.0
1372.990112 164.0
1373.727783 196.0
1374.059692 192.0
1374.15564 260.0
1374.480225 144.0
1375.122314 44.0
1376.613647 176.0
1376.694824 156.0
1376.812988 56.0
1377.137939 188.0
1377.38916 164.0
1378.076172 172.0
1378.401245 128.0
1378.497314 168.0
1379.044189 120.0
1380.101318 160.0
1380.338013 108.0
1380.47522 176.0
1380.901733 144.0
1381.351562 260.0
1381.721069 76.0
1381.82019 156.0
1382.350098 64.0
1382.808838 168.0
1383.156738 56.0
1383.413574 140.0
1384.482056 132.0
1385.563477 104.0
1386.274902 272.0
1386.326782 156.0
1387.979736 160.0
1388.061401 48.0
1388.521118 240.0
1388.810425 144.0
1388.914307 252.0
1389.003296 176.0
1389.22583 136.0
1390.123535 240.0
1390.182983 168.0
1390.383301 232.0
1390.873169 160.0
1390.954834 132.0
1391.132935 128.0
1391.400269 176.0
1391.54126 116.0
1392.306152 52.0
1392.380371 164.0
1392.670044 140.0
1392.974609 204.0
1393.695312 208.0
1393.962769 148.0
1394.304565 212.0
1394.453247 128.0
1394.583252 232.0
1394.847168 152.0
1395.433838 184.0
1395.746826 224.0
1395.9104 108.0
1396.267334 184.0
1396.668335 404.0
1396.929321 160.0
1397.628662 172.0
1397.718018 164.0
1398.090088 160.0
1399.318237 224.0
1399.407593 128.0
1399.980957 180.0
1400.353394 112.0
1400.770508 152.0
1401.187622 148.0
1401.303345 192.0
1401.522949 152.0
1401.664551 132.0
1402.141479 152.0
1402.394897 172.0
1402.454468 92.0
1402.51416 196.0
1403.214844 208.0
1403.446045 148.0
1404.318481 188.0
1404.378174 148.0
1405.124146 164.0
1405.176392 240.0
1405.474854 188.0
1406.937744 160.0
1407.087402 212.0
1407.355835 156.0
1407.527588 172.0
1407.617188 112.0
1407.669434 76.0
1407.960693 152.0
1408.505859 160.0
1409.439819 176.0
1409.66394 200.0
1409.746094 228.0
1411.360718 128.0
1411.614258 172.0
1412.033813 148.0
1412.452637 168.0
1412.512451 144.0
1412.677124 204.0
1412.759399 244.0
1412.819214 180.0
1412.908936 96.0
1413.075928 144.0
1413.26062 128.0
1413.331665 268.0
1413.395264 164.0
1415.903076 68.0
1416.539795 188.0
1416.6521 148.0
1417.656128 96.0
1417.843506 192.0
1418.218262 124.0
1418.480591 184.0
1418.685181 176.0
1419.125366 180.0
1420.122681 172.0
1420.419434 228.0
1421.015381 172.0
1421.353027 184.0
1421.668213 196.0
1422.536377 132.0
1423.58252 140.0
1425.325317 72.0
1425.528198 156.0
1425.753662 176.0
1426.009155 44.0
1426.268799 152.0
1426.439819 216.0
1426.760864 152.0
1426.813477 188.0
1427.332275 204.0
1427.452637 192.0
1427.505249 212.0
1427.595459 128.0
1428.716187 92.0
1428.821533 180.0
1429.250366 128.0
1429.52124 124.0
1429.732056 160.0
1429.942749 108.0
1430.123413 176.0
1430.718018 176.0
1431.184814 180.0
1431.568848 168.0
1431.915283 204.0
1432.201538 156.0
1432.404907 100.0
1433.429565 272.0
1433.602905 176.0
1433.663208 212.0
1434.070068 172.0
1434.279297 192.0
1434.439453 148.0
1434.748535 156.0
1435.721191 148.0
1435.977661 180.0
1436.762207 168.0
1436.873535 168.0
1436.980957 40.0
1437.931763 180.0
1438.067627 148.0
1438.203491 140.0
1439.217163 260.0
1439.290649 92.0
1439.464233 164.0
1439.577515 176.0
1439.781494 140.0
1439.887207 120.0
1440.332764 132.0
1440.906982 160.0
1441.511475 196.0
1441.624756 164.0
1441.828857 156.0
1442.418335 48.0
1442.471313 152.0
1442.584717 156.0
1442.939941 100.0
1443.287842 256.0
1443.370972 148.0
1443.484375 188.0
1443.546631 160.0
1443.998657 144.0
1444.059204 112.0
1444.528076 140.0
1444.618896 156.0
1444.717285 312.0
1445.375488 160.0
1445.534424 248.0
1445.859863 144.0
1446.049072 144.0
1446.4729 212.0
1447.017944 44.0
1447.245117 140.0
1447.396484 204.0
1447.638916 176.0
1447.752441 264.0
1448.085693 176.0
1448.259888 244.0
1448.859131 188.0
1449.532715 208.0
1449.790283 196.0
1450.699829 204.0
1451.154785 116.0
1451.351929 200.0
1451.797485 172.0
1452.154541 176.0
1452.299805 128.0
1452.580566 176.0
1452.762573 156.0
1452.868774 188.0
1452.967407 60.0
1453.119141 132.0
1453.346802 180.0
1453.407471 140.0
1453.855225 128.0
1454.082886 188.0
1454.743286 176.0
1454.948242 208.0
1455.084839 128.0
1455.184204 136.0
1455.806152 176.0
1456.003662 48.0
1456.155518 196.0
1456.383423 236.0
1457.013916 148.0
1457.8573 144.0
1458.054932 224.0
1458.136353 184.0
1458.214478 188.0
1458.9823 144.0
1459.567749 208.0
1459.78064 72.0
1460.312988 164.0
1460.523682 108.0
1460.708496 200.0
1461.134521 212.0
1461.317139 228.0
1461.547607 196.0
1462.763916 236.0
1463.105713 140.0
1463.471069 48.0
1463.530029 168.0
1463.64624 212.0
1463.798584 176.0
1464.857178 144.0
1465.512451 180.0
1465.588623 156.0
1465.695312 188.0
1465.946777 144.0
1466.80188 156.0
1466.876587 160.0
1467.006226 40.0
1467.143433 132.0
1467.28064 184.0
1467.417847 160.0
1467.471191 264.0
1467.60083 224.0
1467.783813 188.0
1468.027832 124.0
1468.508301 184.0
1468.577026 248.0
1468.851562 192.0
1469.5448 216.0
1469.995972 188.0
1470.440796 208.0
1470.766846 232.0
1471.43103 160.0
1471.58374 180.0
1471.73645 164.0
1471.805054 140.0
1472.324341 188.0
1472.6604 116.0
1472.881958 48.0
1472.950684 120.0
1473.592407 256.0
1474.257202 88.0
1474.509399 224.0
1474.891602 120.0
1474.960327 168.0
1475.189697 192.0
1476.803101 252.0
1477.139648 144.0
1477.907349 240.0
1478.631714 40.0
1479.037354 196.0
1479.109741 272.0
1479.71106 156.0
1481.487793 80.0
1481.671631 152.0
1481.98584 160.0
1482.192627 120.0
1482.506836 160.0
1482.821045 140.0
1483.825195 128.0
1484.047607 140.0
1484.776123 188.0
1485.849976 216.0
1486.755371 116.0
1486.978027 164.0
1487.051514 204.0
1487.311157 140.0
1487.430786 180.0
1487.53064 220.0
1487.868408 120.0
1488.666992 164.0
1488.981812 152.0
1489.551025 188.0
1490.088013 180.0
1490.256958 180.0
1490.349243 200.0
1490.572021 192.0
1490.664307 172.0
1490.75647 172.0
1490.987061 160.0
1491.094604 132.0
1491.271362 36.0
1492.178467 180.0
1492.370728 152.0
1492.455322 116.0
1493.193481 168.0
1493.301147 156.0
1493.647339 248.0
1494.701294 136.0
1495.355469 148.0
1495.442261 200.0
1495.748047 200.0
1495.871216 180.0
1496.333862 228.0
1497.103149 212.0
1497.518921 124.0
1497.734619 136.0
1498.065918 188.0
1499.172852 220.0
1499.298706 192.0
1499.992432 192.0
1500.239014 112.0
1501.118042 192.0
1501.39563 160.0
1501.526733 164.0
1501.619263 88.0
1501.750488 148.0
1501.920166 384.0
1502.822754 196.0
1503.146851 136.0
1503.494019 164.0
1504.065186 164.0
1504.52063 252.0
1504.92981 96.0
1505.184692 76.0
