>compound [2-hydroxy-3-(2-methoxyphenoxy)propyl] carbamate
>formula C11H15NO5 
>ionization [M+H]+
>parentmass 242.102
#inchi InChI=1S/C11H15NO5/c1-15-9-4-2-3-5-10(9)16-6-8(13)7-17-11(12)14/h2-5,8,13H,6-7H2,1H3,(H2,12,14)
#inchikey GNXFOGHNGIVQEH
#Ion_Source LC-ESI
#Instrument qTof
#Compound_Source Commercial
#PI Dorrestein
#Data_Collector Garg_Neha
#Scan -1
#Precursor_MZ 242.102
#ExactMass 241.095
#Charge 1
#CAS_Number N/A
#Pubmed_ID N/A
#Smiles N/A
#INCHI_AUX N/A
#Library_Class 1
#SpectrumID CCMSLIB00000077009
#IonMode Positive
#UpdateWorkflowName UPDATE-SINGLE-ANNOTATED-GOLD
#LibraryQualityString Gold
#TaskID 48f7f52fc6d249b5abbcc6e7b3df5969
##Scan# 1109
#SpectrumFile NCP002928_G2_H11_BA5_01_15699.mzXML
#LibraryName NIH_Clinical_Collection_2.mgf
#MQScore -1
#Organism NIHcollection2_04212014_2_mgf
#TIC_Query 0
#RT_Query -1
#MZErrorPPM -1
#SharedPeaks 0
#MassDiff 0
#LibMZ -1
#SpecMZ 242.102
#SpecCharge 0
#internalFilename spec-00000.mgf

>collision 10
45.797428 156.0
48.601662 144.0
50.345943 220.0
54.169651 164.0
55.239861 148.0
58.374832 192.0
58.770882 176.0
59.78994 196.0
59.869995 148.0
62.598534 160.0
63.030758 176.0
66.511215 156.0
67.392265 216.0
68.32682 168.0
70.969414 204.0
71.113686 160.0
71.796753 168.0
75.807709 152.0
76.809158 172.0
81.009621 212.0
84.005165 148.0
87.844254 220.0
89.925201 200.0
90.023376 216.0
90.657112 176.0
91.06311 144.0
91.569023 180.0
93.031822 156.0
93.077896 140.0
93.193146 164.0
95.051109 480.0
99.28231 184.0
101.790794 176.0
103.05471 1236.0
103.701317 160.0
104.058342 184.0
105.070656 552.0
105.605049 156.0
107.04908 528.0
108.055099 188.0
108.653847 144.0
108.751381 148.0
109.029236 236.0
109.06382 136.0
110.035805 324.0
110.052528 204.0
110.914413 144.0
111.040215 144.0
111.910194 240.0
117.072151 172.0
117.939468 152.0
118.023781 180.0
118.050537 12672.0
119.051994 548.0
120.054153 160.0
120.941177 176.0
121.02829 424.0
121.062881 648.0
122.036102 2384.0
123.041428 828.0
124.053757 184.0
124.87088 172.0
125.059692 3596.0
126.062965 368.0
126.828331 116.0
130.043228 160.0
131.049332 492.0
132.058563 168.0
133.065109 148.0
134.050125 164.0
134.103134 156.0
135.046646 144.0
135.08139 1596.0
136.08493 296.0
137.060547 1112.0
137.503311 140.0
145.066177 468.0
145.898987 180.0
148.051239 944.0
149.059036 152.0
151.075485 2240.0
151.284851 148.0
151.831253 196.0
152.079025 348.0
153.083817 256.0
154.929642 160.0
156.058899 144.0
159.974335 168.0
162.075638 192.0
162.471161 180.0
163.075699 8524.0
163.182281 172.0
164.050415 148.0
164.078323 924.0
165.079376 212.0
167.0681 176.0
181.08609 1560.0
182.090179 176.0
199.096848 3356.0
200.09964 400.0
201.403931 140.0
224.093124 1092.0
225.100677 240.0
226.098541 168.0
228.98674 140.0
229.499023 200.0
236.140579 208.0
240.087082 148.0
242.105484 196.0
245.028046 172.0
1387.478271 152.0
1416.744629 176.0
1434.585205 168.0
1442.859253 172.0
1448.413818 168.0
1456.636475 176.0
1594.700928 216.0
1654.261353 152.0
1718.624634 172.0
1761.004761 144.0
1761.313843 164.0
1765.40918 184.0
1770.137207 176.0
1777.010376 148.0
1798.384033 144.0
1820.006592 196.0
1833.583496 148.0
1902.537109 176.0
1907.845093 172.0
1933.900879 192.0
1937.36853 144.0
1959.366821 212.0
1975.35437 140.0
1990.163696 212.0
1999.230591 168.0
