>compound MLS001331735-01!
>formula C14H22N2O3
>ionization [M+H]+
>parentmass 267.1703190160905
#inchi InChI=1S/C14H22N2O3/c1-17-12-5-4-11(13(18-2)14(12)19-3)10-16-8-6-15-7-9-16/h4-5,15H,6-10H2,1-3H3
#inchikey UHWVSEOVJBQKBE
#Ion_Source LC-ESI
#Instrument qTof
#Compound_Source NIH Pharmacologically Active Library
#PI Dorrestein
#Data_Collector VP/LMS
#Scan -1
#Precursor_MZ 267.168
#ExactMass 266.163
#Charge 1
#CAS_Number N/A
#Pubmed_ID N/A
#Smiles COc1ccc(CN2CCNCC2)c(OC)c1OC
#INCHI_AUX N/A
#Library_Class 1
#SpectrumID CCMSLIB00000085982
#IonMode Positive
#UpdateWorkflowName UPDATE-SINGLE-ANNOTATED-GOLD
#LibraryQualityString Gold
#TaskID d252d724072548979f1f6f1ced849daf
##Scan# 761
#SpectrumFile p4-H11_GH11_01_18419.mzXML
#LibraryName Pharm_Active_Library.mgf
#MQScore -1
#Organism Pharm_Active_Library
#TIC_Query 0
#RT_Query -1
#MZErrorPPM -1
#SharedPeaks 0
#MassDiff 0
#LibMZ -1
#SpecMZ 267.168
#SpecCharge 0
#internalFilename spec-00000.mgf

>collision 10
45.79937 176.0
45.980045 164.0
46.198944 160.0
46.211121 112.0
46.411583 220.0
46.646458 188.0
46.816536 180.0
47.163082 164.0
47.305344 168.0
47.320404 108.0
47.388885 180.0
47.948177 212.0
48.445618 80.0
48.506592 176.0
48.527386 152.0
48.568989 180.0
48.685577 216.0
49.02224 56.0
49.047325 220.0
49.4314 232.0
49.654152 152.0
49.677998 176.0
50.134968 88.0
50.376244 168.0
50.698849 144.0
51.203201 92.0
51.354279 160.0
51.387711 176.0
51.527008 132.0
52.1087 200.0
52.174812 136.0
52.223705 180.0
52.245281 176.0
52.299965 204.0
52.621441 120.0
52.958385 180.0
53.046776 96.0
53.125088 188.0
53.276066 140.0
54.212822 48.0
54.473991 152.0
54.718117 192.0
55.052837 136.0
55.627323 144.0
55.795197 152.0
56.173458 204.0
56.722263 172.0
57.320438 132.0
57.646389 228.0
58.202324 152.0
58.304104 136.0
58.462269 212.0
58.622169 124.0
58.760925 220.0
59.563118 180.0
59.589237 172.0
60.762642 40.0
61.353634 164.0
61.494026 208.0
61.520561 116.0
62.245487 196.0
62.514297 224.0
62.965179 152.0
63.393909 148.0
63.463657 176.0
63.485859 160.0
63.975243 112.0
64.083542 228.0
64.281265 152.0
64.37899 240.0
64.394615 188.0
64.672821 120.0
64.74968 164.0
65.507477 148.0
65.717415 120.0
66.466583 136.0
66.503914 160.0
66.905426 116.0
67.135178 144.0
67.409431 236.0
67.443748 160.0
67.900558 168.0
68.161583 160.0
68.416519 164.0
68.601028 152.0
68.77919 164.0
69.078278 180.0
69.351501 164.0
70.504906 132.0
71.050781 212.0
71.19178 168.0
71.312744 140.0
71.368217 112.0
71.534782 156.0
71.62571 136.0
71.844856 144.0
71.890419 56.0
72.003532 196.0
73.599846 148.0
73.791214 92.0
73.804893 72.0
75.616394 40.0
75.747993 196.0
76.247704 156.0
76.45118 264.0
77.064987 164.0
77.442856 132.0
77.863792 168.0
78.083481 212.0
78.604942 180.0
78.663185 120.0
78.788574 64.0
80.256393 148.0
80.790527 124.0
80.953293 128.0
81.545334 160.0
81.786354 176.0
81.851166 84.0
82.486237 144.0
82.775719 224.0
82.984093 196.0
83.785599 96.0
84.077354 236.0
84.334877 100.0
84.640396 196.0
84.858437 152.0
85.313751 72.0
85.698402 176.0
86.296425 216.0
86.575836 88.0
87.059868 192.0
87.308899 164.0
87.351677 132.0
87.961029 208.0
88.048782 176.0
88.082405 152.0
88.589355 68.0
89.041405 216.0
89.265038 144.0
89.835732 212.0
90.047142 148.0
90.347092 200.0
90.415817 232.0
90.529404 212.0
90.773865 284.0
91.05439 612.0
91.081322 144.0
91.341743 104.0
91.615868 140.0
91.953377 136.0
92.063705 188.0
92.127136 164.0
92.591949 68.0
93.004173 148.0
93.068733 116.0
93.465416 68.0
93.565498 144.0
93.73114 164.0
93.947083 144.0
94.107277 124.0
94.271461 208.0
94.755203 132.0
95.040222 148.0
95.054779 168.0
95.131439 196.0
95.434525 48.0
95.520096 188.0
96.133827 116.0
96.147491 52.0
96.260719 128.0
97.365227 116.0
97.669876 164.0
97.882431 144.0
98.432594 124.0
98.582733 156.0
98.712082 168.0
98.936783 172.0
98.960541 56.0
99.075417 224.0
99.686539 160.0
99.966934 104.0
100.054512 212.0
100.0784 184.0
100.138145 204.0
100.996971 128.0
101.016418 208.0
101.370804 160.0
101.400864 256.0
101.88044 84.0
102.03318 96.0
102.20816 208.0
102.312828 164.0
102.457825 180.0
102.528351 192.0
102.651329 208.0
102.77034 128.0
103.053009 128.0
104.295296 192.0
104.331886 124.0
104.614662 164.0
104.685928 148.0
104.75721 152.0
104.816299 232.0
105.01609 100.0
105.035278 332.0
105.068428 188.0
105.185448 96.0
105.222191 216.0
105.406021 48.0
106.042511 496.0
106.159348 76.0
106.290634 156.0
106.578102 68.0
106.868019 188.0
107.049736 588.0
107.331474 84.0
107.374779 156.0
107.599701 208.0
107.651321 256.0
107.822792 192.0
107.859993 60.0
108.05793 512.0
108.317299 216.0
108.420898 48.0
108.981178 76.0
109.06015 180.0
109.628334 264.0
109.709625 200.0
109.876465 156.0
110.068489 256.0
110.306664 124.0
111.047905 152.0
111.408951 244.0
111.463577 164.0
112.941475 144.0
113.946304 120.0
113.986679 192.0
114.220543 160.0
114.703918 116.0
114.874512 152.0
115.795776 172.0
115.92218 196.0
116.265305 180.0
116.299644 92.0
116.802444 204.0
116.944458 208.0
117.000427 196.0
118.04258 172.0
118.109627 240.0
118.33902 140.0
119.047241 312.0
119.106735 132.0
119.302307 120.0
120.057617 176.0
120.835495 220.0
120.892387 224.0
121.029701 2464.0
121.06292 696.0
121.617828 144.0
122.011047 92.0
122.035767 488.0
122.071327 516.0
123.042664 740.0
123.081345 460.0
123.287292 64.0
124.046478 160.0
124.081947 304.0
124.448036 188.0
125.108627 164.0
125.132843 64.0
125.830688 236.0
126.485703 184.0
126.602135 164.0
127.173843 92.0
128.788269 168.0
129.582291 176.0
130.049454 144.0
130.521988 144.0
130.549271 148.0
130.87468 192.0
131.050064 176.0
131.426285 92.0
132.253571 176.0
132.443619 56.0
133.023758 148.0
133.175323 188.0
133.48558 176.0
133.761658 156.0
133.922852 188.0
133.962006 88.0
134.036346 76.0
134.506226 168.0
135.044907 3880.0
135.190353 40.0
135.211182 196.0
135.257477 48.0
135.363968 136.0
135.491364 176.0
135.692993 160.0
135.73938 136.0
135.8255 180.0
135.982971 124.0
136.052383 9260.0
136.087433 184.0
136.106003 40.0
136.146164 68.0
136.175674 128.0
136.229095 116.0
136.266937 112.0
136.291824 56.0
136.477783 100.0
136.766251 100.0
136.808151 76.0
136.891983 148.0
137.055511 772.0
137.097504 152.0
137.14592 72.0
137.176224 44.0
137.470108 28.0
137.701233 108.0
137.804016 108.0
137.883469 212.0
138.023727 164.0
138.064178 176.0
138.540985 100.0
138.775345 184.0
138.951263 168.0
139.031036 148.0
139.101456 180.0
141.90654 36.0
142.293274 72.0
142.606842 168.0
144.651062 80.0
144.724136 128.0
145.485291 172.0
146.179916 156.0
146.235275 188.0
146.430298 48.0
146.623032 124.0
147.045471 156.0
148.053268 180.0
148.142883 248.0
149.019333 108.0
149.066742 208.0
149.390671 88.0
149.517197 172.0
150.026276 160.0
150.477631 160.0
150.981003 380.0
151.039062 4616.0
151.069061 132.0
151.137558 164.0
151.308884 36.0
151.345612 44.0
151.811203 184.0
152.044403 780.0
152.30452 88.0
152.727295 100.0
152.943832 208.0
153.049683 188.0
153.093033 172.0
153.21225 32.0
153.648621 52.0
154.092178 176.0
154.174561 132.0
155.921783 44.0
156.120667 180.0
157.169403 148.0
160.006699 156.0
160.160309 128.0
160.316513 120.0
160.717453 168.0
160.891602 220.0
162.055023 156.0
164.073029 224.0
164.101074 220.0
164.790207 116.0
164.935883 180.0
164.966553 52.0
165.015121 136.0
165.054916 6156.0
165.114853 44.0
165.171127 120.0
165.245316 76.0
165.324631 112.0
165.421906 196.0
165.590897 216.0
165.624191 44.0
165.67543 148.0
165.695923 124.0
165.72525 180.0
165.782654 108.0
165.826614 136.0
165.852234 176.0
165.969635 208.0
166.014496 180.0
166.063156 28004.0
166.10936 88.0
166.206161 40.0
166.232101 108.0
166.254913 56.0
166.275436 68.0
166.295166 88.0
166.393524 76.0
166.48082 28.0
166.543289 100.0
166.606689 96.0
166.691467 60.0
166.745438 72.0
166.894547 48.0
166.996948 112.0
167.030853 104.0
167.065506 2536.0
167.100784 284.0
167.277878 100.0
167.362839 88.0
167.396317 44.0
167.442673 44.0
167.460709 44.0
167.574051 120.0
167.656509 96.0
167.829224 40.0
168.069839 416.0
168.138779 108.0
168.213623 92.0
168.280746 88.0
168.324646 144.0
168.40213 100.0
168.456375 80.0
168.696701 44.0
168.932022 160.0
169.084686 120.0
169.131271 56.0
169.214111 44.0
169.436844 64.0
169.576782 88.0
171.4272 164.0
171.768753 176.0
174.242661 124.0
175.181854 48.0
175.239822 112.0
175.925537 44.0
176.083969 160.0
177.401688 144.0
177.566086 224.0
179.00116 104.0
179.022461 136.0
179.334183 140.0
179.856979 100.0
180.081268 92.0
180.864685 44.0
181.006577 136.0
181.040329 60.0
181.086685 6404.0
181.161926 52.0
181.255707 108.0
181.606903 80.0
181.724945 112.0
181.783966 100.0
181.837646 64.0
181.877899 48.0
182.089905 276.0
182.520004 64.0
182.842819 28.0
182.910095 84.0
183.090393 164.0
183.357224 92.0
184.307114 60.0
184.482803 76.0
184.988678 64.0
188.120346 32.0
193.057938 168.0
193.1492 88.0
194.032608 44.0
195.490875 116.0
201.276855 120.0
203.860336 72.0
218.920181 64.0
221.069321 100.0
226.958572 164.0
245.346451 72.0
250.864044 128.0
263.357605 76.0
271.294434 96.0
307.397736 44.0
315.292419 104.0
368.994171 84.0
402.726685 96.0
450.9711 100.0
458.943756 96.0
722.875793 188.0
818.075623 148.0
871.663452 156.0
944.515991 180.0
958.705078 200.0
964.716919 200.0
978.620483 192.0
1003.28717 60.0
1021.156921 96.0
1027.5271 228.0
1035.101318 188.0
1041.322021 228.0
1044.638794 172.0
1053.832397 172.0
1062.099487 144.0
1068.647949 116.0
1071.375854 132.0
1093.680054 220.0
1099.88269 192.0
1099.994873 180.0
1110.177612 88.0
1120.800293 188.0
1123.787476 140.0
1135.02478 188.0
1140.980347 92.0
1141.928467 96.0
1144.445312 64.0
1148.10437 176.0
1153.526245 208.0
1165.535889 72.0
1166.120361 100.0
1184.824585 156.0
1205.280151 160.0
1212.671265 228.0
1214.772217 224.0
1220.286499 176.0
1227.55603 208.0
1230.207397 72.0
1231.115112 140.0
1234.47644 228.0
1240.000244 184.0
1246.91333 180.0
1253.451172 192.0
1253.782349 132.0
1268.151001 160.0
1269.56897 112.0
1274.467041 164.0
1275.824463 176.0
1279.602295 240.0
1280.186157 188.0
1286.267944 176.0
1288.126953 60.0
1289.174927 184.0
1291.591431 120.0
1317.275757 56.0
1317.326294 200.0
1319.075073 148.0
1330.201782 160.0
1336.335571 172.0
1338.468262 88.0
1344.869263 112.0
1345.752563 252.0
1348.682007 128.0
1353.408081 160.0
1355.700928 192.0
1358.347778 188.0
1361.239502 140.0
1368.099487 192.0
1368.857788 52.0
1372.977295 148.0
1376.866699 220.0
1379.046265 156.0
1389.903076 152.0
1390.830811 184.0
1396.648926 188.0
1399.186523 156.0
1407.798706 176.0
1410.548218 164.0
1410.645386 180.0
1411.191162 168.0
1411.370605 188.0
1412.425171 148.0
1416.856812 136.0
1418.535522 160.0
1421.805786 172.0
1426.36499 188.0
1434.592896 148.0
1442.806641 168.0
1462.119019 136.0
1470.426392 180.0
1478.099121 184.0
1479.185913 164.0
1480.456909 192.0
1480.656006 184.0
1487.748779 88.0
1490.552246 184.0
1492.5354 132.0
1498.13855 140.0
1501.692017 196.0
1501.877197 40.0
1502.139404 160.0
1504.732544 112.0
