>compound MLS002153404-01!IC 261
>formula C18H17NO4
>ionization [M+H]+
>parentmass 312.123596
#inchi InChI=1S/C18H17NO4/c1-21-11-8-16(22-2)14(17(9-11)23-3)10-13-12-6-4-5-7-15(12)19-18(13)20/h4-10H,1-3H3,(H,19,20)/b13-10-
#inchikey JBJYTZXCZDNOJW
#Ion_Source LC-ESI
#Instrument qTof
#Compound_Source NIH Pharmacologically Active Library
#PI Dorrestein
#Data_Collector VP/LMS
#Scan -1
#Precursor_MZ 312.126
#ExactMass 311.116
#Charge 1
#CAS_Number N/A
#Pubmed_ID N/A
#Smiles COc1cc(OC)c(/C=C/2\C(=O)Nc3ccccc23)c(OC)c1
#INCHI_AUX N/A
#Library_Class 1
#SpectrumID CCMSLIB00000085442
#IonMode Positive
#UpdateWorkflowName UPDATE-SINGLE-ANNOTATED-GOLD
#LibraryQualityString Gold
#TaskID d252d724072548979f1f6f1ced849daf
##Scan# 1969
#SpectrumFile p4-A10_GA10_01_18334.mzXML
#LibraryName Pharm_Active_Library.mgf
#MQScore -1
#Organism Pharm_Active_Library
#TIC_Query 0
#RT_Query -1
#MZErrorPPM -1
#SharedPeaks 0
#MassDiff 0
#LibMZ -1
#SpecMZ 312.126
#SpecCharge 0
#internalFilename spec-00000.mgf

>collision 10
44.897572 160.0
44.910908 180.0
45.053738 228.0
45.153988 88.0
45.196796 152.0
45.262383 120.0
45.525211 200.0
45.556103 120.0
45.574913 188.0
45.756203 196.0
45.827866 112.0
45.887169 148.0
45.923576 188.0
45.941113 52.0
46.027493 192.0
46.092327 140.0
46.138283 292.0
46.158562 188.0
46.226196 196.0
46.280342 156.0
46.329704 172.0
46.373814 204.0
46.44025 104.0
46.45517 204.0
46.614021 76.0
46.741844 180.0
46.943447 196.0
47.003468 72.0
47.045776 140.0
47.135918 176.0
47.156292 176.0
47.19606 200.0
47.326046 148.0
47.400013 152.0
47.463066 160.0
47.47678 36.0
47.535767 52.0
47.693703 116.0
47.77346 156.0
47.788593 44.0
47.929325 144.0
47.946949 112.0
47.966244 44.0
47.993816 120.0
48.28381 132.0
48.31147 172.0
48.402817 36.0
48.429131 220.0
48.479858 156.0
48.730156 140.0
48.812164 156.0
48.92347 84.0
48.984741 156.0
49.139484 144.0
49.195309 92.0
49.290279 136.0
49.323822 120.0
49.352577 204.0
49.455303 172.0
49.496937 136.0
49.633221 160.0
49.839554 144.0
50.104061 168.0
50.191444 144.0
50.305321 168.0
50.321255 148.0
50.394699 208.0
50.404491 184.0
50.465366 144.0
50.520523 112.0
50.540329 232.0
50.584202 136.0
50.710266 88.0
50.723022 156.0
50.954708 152.0
51.026817 184.0
51.124966 124.0
51.220356 168.0
51.247425 188.0
51.261673 156.0
51.281624 204.0
51.35339 96.0
51.38715 132.0
51.492783 148.0
51.502781 180.0
51.619968 188.0
51.688633 256.0
51.784023 164.0
51.824657 224.0
51.857616 184.0
51.890587 136.0
51.917831 164.0
51.955761 180.0
52.104431 196.0
52.144665 156.0
52.17485 112.0
52.318714 128.0
52.348164 228.0
52.402245 36.0
52.418091 204.0
52.501701 152.0
52.533436 104.0
52.612804 220.0
52.767391 200.0
52.87009 160.0
53.017803 168.0
53.045341 184.0
53.138157 164.0
53.149765 132.0
53.199108 124.0
53.236858 96.0
53.28479 104.0
53.344376 156.0
53.390903 412.0
53.452 192.0
53.468006 48.0
53.533058 140.0
53.538342 204.0
53.634575 200.0
53.680698 148.0
53.693821 32.0
53.720078 168.0
53.734665 120.0
53.939114 144.0
53.974663 152.0
54.007839 168.0
54.123451 112.0
54.161526 204.0
54.198151 176.0
54.313969 132.0
54.343307 164.0
54.37706 116.0
54.513638 124.0
54.55479 152.0
54.565083 120.0
54.613609 80.0
54.674919 188.0
54.747536 116.0
54.812351 244.0
54.85804 68.0
54.902275 172.0
54.956852 176.0
54.981937 216.0
55.116318 172.0
55.235798 196.0
55.308067 152.0
55.403343 232.0
55.413715 148.0
55.567905 60.0
55.593102 192.0
55.713398 108.0
55.811489 92.0
55.936459 148.0
55.948368 128.0
56.003597 176.0
56.01836 180.0
56.089886 168.0
56.191292 44.0
56.228596 264.0
56.318176 116.0
56.330128 144.0
56.357018 144.0
56.397366 140.0
56.558907 136.0
56.595585 176.0
56.634666 248.0
56.720676 196.0
56.737167 156.0
56.845158 160.0
56.86467 160.0
57.028378 224.0
57.055435 104.0
57.084003 168.0
57.199852 160.0
57.243511 232.0
57.323349 108.0
57.437931 132.0
57.466595 140.0
57.495262 172.0
57.536018 160.0
57.570747 188.0
57.588871 180.0
57.6357 132.0
57.718769 180.0
57.744545 64.0
57.818676 148.0
57.857323 164.0
57.950417 104.0
57.983753 184.0
58.027714 236.0
58.150581 112.0
58.179424 136.0
58.237125 212.0
58.328293 132.0
58.436264 136.0
58.512363 168.0
58.561092 176.0
58.789776 168.0
58.818771 148.0
59.063255 172.0
59.219376 172.0
59.251545 104.0
59.49078 132.0
59.521488 124.0
59.589069 188.0
59.668987 112.0
59.699741 84.0
59.862858 56.0
59.919849 176.0
59.949738 224.0
60.00153 136.0
60.058651 192.0
60.094067 116.0
60.13419 120.0
60.229919 80.0
60.24073 68.0
60.254635 208.0
60.302536 196.0
60.415417 92.0
60.432434 92.0
60.545433 36.0
60.581059 172.0
60.616692 204.0
60.649239 76.0
60.782612 72.0
60.857113 120.0
60.891277 140.0
60.964294 36.0
61.021805 132.0
61.094902 116.0
61.20229 148.0
61.281723 232.0
61.32819 196.0
61.540634 176.0
61.578114 44.0
61.621849 164.0
61.657791 116.0
61.775059 196.0
61.812607 152.0
61.854862 160.0
61.87365 148.0
62.005226 124.0
62.2421 160.0
62.301785 40.0
62.327679 232.0
62.352066 124.0
62.380356 104.0
62.599743 136.0
62.677811 192.0
62.761349 168.0
62.780273 160.0
62.803928 152.0
62.865459 112.0
62.915966 200.0
62.928871 184.0
62.968075 248.0
63.084999 60.0
63.171974 224.0
63.235264 144.0
63.271671 104.0
63.330261 168.0
63.418991 148.0
63.48082 172.0
63.49192 168.0
63.555374 132.0
63.583935 128.0
63.606155 148.0
63.634731 128.0
63.709373 168.0
63.798367 168.0
63.811089 160.0
63.823807 140.0
63.917652 180.0
63.954258 40.0
63.992462 68.0
64.094398 196.0
64.217148 232.0
64.346405 216.0
64.364777 220.0
64.391113 180.0
64.762169 188.0
64.776588 180.0
64.863663 224.0
64.951309 136.0
64.994621 76.0
65.009064 116.0
65.102173 172.0
65.163216 128.0
65.270905 144.0
65.383507 180.0
65.444473 156.0
65.531654 100.0
65.570328 112.0
65.699318 164.0
65.725136 116.0
65.890472 128.0
65.967392 52.0
66.01104 172.0
66.040154 212.0
66.064941 172.0
66.205231 136.0
66.274887 72.0
66.323502 144.0
66.425659 172.0
66.747223 152.0
67.092392 156.0
67.141312 144.0
67.155991 172.0
67.327354 164.0
67.353485 152.0
67.405762 156.0
67.443352 148.0
67.583992 132.0
67.601181 160.0
67.627335 140.0
67.638 172.0
67.821342 124.0
68.056992 160.0
68.133232 176.0
68.182526 252.0
68.236771 164.0
68.332161 116.0
68.35849 164.0
68.475372 192.0
68.533028 148.0
68.58741 140.0
68.602249 144.0
68.759125 160.0
68.854698 60.0
68.894341 104.0
69.096031 76.0
69.157257 96.0
69.339439 92.0
69.445549 132.0
69.468773 172.0
69.505272 224.0
69.523529 156.0
69.599884 140.0
69.783539 96.0
69.864143 192.0
69.988968 144.0
70.020607 112.0
70.424225 152.0
70.481026 164.0
70.631485 188.0
70.71682 128.0
70.751968 88.0
70.875908 108.0
70.902687 188.0
70.927864 148.0
70.958038 52.0
71.026787 192.0
71.053627 160.0
71.098938 172.0
71.204704 112.0
71.250053 156.0
71.268539 176.0
71.287018 136.0
71.298782 164.0
71.342484 148.0
71.381157 220.0
71.404701 136.0
71.450111 208.0
71.524155 180.0
71.576347 200.0
71.707748 168.0
71.76506 188.0
71.776863 160.0
71.883133 156.0
71.903381 256.0
71.928795 140.0
72.015778 216.0
72.087456 140.0
72.102669 144.0
72.170288 56.0
72.508842 244.0
72.581734 100.0
72.629219 156.0
72.710663 172.0
72.751076 188.0
72.914459 236.0
73.002861 176.0
73.069199 112.0
73.159393 188.0
73.193443 136.0
73.217285 164.0
73.242409 208.0
73.387688 120.0
73.455902 132.0
73.496849 116.0
73.559998 260.0
73.585602 224.0
73.636833 136.0
73.681244 112.0
73.855606 140.0
73.960548 168.0
74.029282 192.0
74.071274 128.0
74.114105 140.0
74.144951 116.0
74.160378 192.0
74.172371 116.0
74.395378 192.0
74.424561 184.0
74.443451 104.0
74.479515 180.0
74.527855 200.0
74.587769 136.0
74.685104 192.0
74.715019 52.0
74.764259 136.0
74.787292 92.0
74.881989 128.0
74.9664 100.0
75.004791 160.0
75.038795 204.0
75.119743 128.0
75.142281 196.0
75.268272 164.0
75.413391 168.0
75.428947 128.0
75.442772 208.0
75.548264 120.0
75.600883 148.0
75.612282 200.0
75.659676 200.0
75.718132 228.0
75.981361 128.0
76.06987 164.0
76.105507 224.0
76.221687 220.0
76.554955 164.0
76.769295 160.0
76.858261 120.0
76.896652 136.0
76.987434 188.0
77.073029 184.0
77.149925 136.0
77.193634 148.0
77.445648 184.0
77.484192 172.0
77.561295 52.0
77.652466 168.0
77.710358 152.0
77.782303 216.0
77.885902 244.0
77.914009 192.0
77.957939 180.0
78.000122 120.0
78.137283 184.0
78.209435 180.0
78.241119 156.0
78.355591 180.0
78.376732 348.0
78.415504 160.0
78.503654 96.0
78.55127 80.0
78.727356 136.0
78.764854 128.0
78.86734 128.0
78.996422 236.0
79.0672 216.0
79.088432 172.0
79.102592 116.0
79.265533 56.0
79.283257 244.0
79.352386 200.0
79.387848 128.0
79.417999 180.0
79.499611 176.0
79.686371 132.0
79.732246 124.0
79.799797 160.0
79.872711 120.0
79.947433 216.0
80.264511 212.0
80.300835 192.0
80.391159 140.0
80.403656 168.0
80.42112 152.0
80.469162 196.0
80.487556 180.0
80.662636 160.0
80.696602 144.0
80.710907 176.0
80.941734 156.0
80.970383 124.0
81.094002 100.0
81.226692 104.0
81.242836 44.0
81.346916 184.0
81.369911 148.0
81.424126 132.0
81.452858 92.0
81.611008 120.0
81.62899 108.0
81.835915 144.0
82.014259 124.0
82.073746 144.0
82.156708 208.0
82.411827 144.0
82.463676 208.0
82.633659 164.0
82.646324 72.0
82.695183 112.0
82.718712 176.0
82.74044 200.0
82.767593 172.0
82.888954 52.0
83.095657 120.0
83.128319 156.0
83.21907 172.0
83.248123 196.0
83.277184 180.0
83.312317 164.0
83.360748 100.0
83.388008 208.0
83.422546 84.0
83.449814 120.0
83.500732 176.0
83.558945 212.0
83.751793 204.0
83.899506 132.0
84.156746 124.0
84.193268 180.0
84.206055 112.0
84.277504 104.0
84.302879 56.0
84.321152 180.0
84.34491 84.0
84.504013 244.0
84.520477 152.0
84.941147 136.0
84.962029 116.0
85.105186 132.0
85.172554 216.0
85.248459 124.0
85.320145 152.0
85.362427 68.0
85.441521 232.0
85.456238 196.0
85.47464 156.0
85.502243 120.0
85.518806 120.0
85.533531 164.0
85.557457 148.0
85.704803 92.0
85.731537 188.0
85.796951 172.0
85.843048 164.0
85.922356 160.0
85.974022 88.0
86.029396 128.0
86.0774 60.0
86.14019 136.0
86.153122 252.0
86.177139 152.0
86.269547 168.0
86.367554 140.0
86.3974 176.0
86.582245 148.0
86.611877 132.0
86.647072 124.0
86.871391 116.0
87.029137 72.0
87.049561 176.0
87.10714 120.0
87.283699 136.0
87.412048 108.0
87.586548 148.0
87.66716 168.0
87.683937 84.0
87.743584 228.0
87.803856 184.0
87.836823 120.0
87.905853 132.0
87.930115 200.0
87.952515 172.0
87.993584 192.0
88.023453 160.0
88.126183 152.0
88.202805 120.0
88.238327 156.0
88.257019 180.0
88.314995 100.0
88.367371 172.0
88.389824 88.0
88.419769 176.0
88.459076 188.0
88.493721 140.0
88.552696 172.0
88.713837 124.0
88.781334 108.0
88.833855 188.0
89.044937 252.0
89.076004 204.0
89.118919 180.0
89.145523 192.0
89.258308 300.0
89.35611 200.0
89.406914 172.0
89.42762 48.0
89.674347 136.0
89.736557 120.0
89.780602 100.0
89.798782 108.0
90.000702 40.0
90.095139 160.0
90.159378 60.0
90.188187 116.0
90.291718 264.0
90.537743 52.0
90.560463 132.0
90.619186 220.0
90.687408 156.0
90.740486 76.0
90.784096 180.0
90.850479 152.0
90.871353 132.0
90.930176 112.0
90.998512 248.0
91.05928 100.0
91.230286 84.0
91.29113 164.0
91.33297 84.0
91.487106 196.0
91.546127 168.0
91.746193 204.0
91.803391 140.0
91.883499 108.0
91.956009 156.0
92.024734 164.0
92.10685 188.0
92.14888 56.0
92.248253 224.0
92.267372 104.0
92.476128 120.0
92.563934 148.0
93.108551 148.0
93.164253 188.0
93.183464 144.0
93.238029 152.0
93.327614 68.0
93.404541 172.0
93.435318 204.0
93.473801 124.0
93.548012 172.0
93.583511 184.0
93.602768 176.0
93.687515 172.0
93.718338 108.0
93.762657 236.0
93.776154 160.0
93.84169 136.0
93.86483 136.0
93.893753 128.0
93.907257 132.0
93.959343 164.0
93.974777 240.0
94.131119 136.0
94.337852 168.0
94.359116 104.0
94.434532 132.0
94.70356 176.0
94.771362 104.0
94.856636 212.0
95.050575 224.0
95.064163 192.0
95.109001 232.0
95.287453 216.0
95.427391 144.0
95.491562 116.0
95.518791 140.0
95.57132 96.0
95.598557 188.0
95.670578 96.0
95.756248 284.0
95.776573 156.0
95.863396 180.0
95.955009 164.0
96.033005 152.0
96.175438 236.0
96.194962 180.0
96.255486 144.0
96.312996 152.0
96.341423 168.0
96.366821 192.0
96.507545 220.0
96.53492 156.0
96.628807 68.0
96.65815 172.0
96.678299 204.0
96.714386 196.0
97.030289 104.0
97.132263 116.0
97.210739 204.0
97.23233 156.0
97.462082 164.0
97.633102 104.0
97.680305 148.0
97.760971 152.0
97.851517 124.0
97.997261 116.0
98.135223 156.0
98.267372 120.0
98.318672 200.0
98.352226 116.0
98.397629 128.0
98.456863 124.0
98.50032 64.0
98.520073 156.0
98.545753 100.0
98.59713 232.0
98.63073 40.0
98.699928 80.0
98.727608 64.0
98.775078 108.0
98.814644 144.0
98.852234 120.0
98.887856 156.0
98.949669 176.0
99.236504 172.0
99.459961 168.0
99.55822 148.0
99.61158 180.0
99.800377 124.0
99.877937 164.0
99.948654 168.0
99.967468 132.0
100.012146 160.0
100.397758 284.0
100.423683 176.0
100.437645 252.0
100.527428 68.0
100.545387 116.0
100.838966 136.0
100.898933 92.0
101.003952 212.0
101.037064 180.0
101.199043 136.0
101.234596 148.0
101.337242 260.0
101.361282 152.0
101.499588 64.0
101.646019 136.0
101.92868 208.0
102.059799 84.0
102.122139 172.0
102.182487 164.0
102.297195 100.0
102.458298 112.0
102.567116 252.0
102.583244 180.0
102.65583 300.0
102.904015 172.0
102.920166 160.0
102.97065 156.0
103.056038 192.0
103.113068 152.0
103.168671 88.0
103.2882 176.0
103.33046 176.0
103.421516 176.0
103.514648 196.0
103.646309 168.0
103.660492 196.0
103.73143 176.0
103.806442 76.0
103.820641 184.0
103.855118 200.0
103.875404 44.0
103.90583 160.0
103.934235 144.0
103.974823 164.0
104.048332 208.0
104.157555 164.0
104.232719 212.0
104.295723 216.0
104.543846 156.0
104.606239 232.0
104.639511 144.0
104.66394 164.0
104.749481 88.0
104.830978 168.0
104.867661 136.0
104.936966 144.0
104.989029 136.0
105.037987 232.0
105.055252 144.0
105.10218 52.0
105.216103 220.0
105.298149 108.0
105.402336 100.0
105.551552 108.0
105.602676 140.0
105.647675 40.0
105.817795 192.0
105.868729 152.0
106.064308 304.0
106.420319 176.0
106.642181 112.0
106.716179 328.0
106.759361 120.0
106.905418 160.0
106.975403 124.0
106.995987 128.0
107.049049 796.0
107.082466 36.0
107.109245 196.0
107.160744 176.0
107.204018 128.0
107.263786 196.0
107.346252 180.0
107.69503 148.0
107.785934 208.0
107.899605 156.0
107.922348 144.0
107.996796 136.0
108.05587 324.0
108.123001 176.0
108.24514 120.0
108.359062 144.0
108.375633 164.0
108.394279 52.0
108.547676 116.0
108.627991 176.0
108.648361 164.0
108.715698 192.0
108.854782 156.0
109.029625 904.0
109.057785 172.0
109.087479 92.0
109.31002 156.0
109.457809 164.0
109.620293 168.0
109.660942 156.0
109.714081 164.0
109.793312 140.0
109.876747 124.0
109.968567 252.0
110.027008 144.0
110.10218 168.0
110.123062 180.0
110.169022 200.0
110.346657 156.0
110.363388 36.0
110.501427 120.0
110.543274 72.0
110.593498 164.0
110.727493 80.0
110.84481 192.0
110.872055 164.0
110.937027 192.0
110.976036 184.0
111.006218 92.0
111.054451 336.0
111.088013 164.0
111.121574 132.0
111.159348 176.0
111.188728 132.0
111.283188 200.0
111.438606 156.0
111.455414 196.0
111.823425 152.0
111.861313 236.0
111.890785 116.0
111.958168 72.0
111.987656 144.0
112.008713 120.0
112.151993 120.0
112.468384 200.0
112.554359 160.0
112.901497 144.0
113.009377 148.0
113.028419 124.0
113.047462 148.0
113.096138 124.0
113.125771 108.0
113.235878 208.0
113.263412 164.0
113.333321 144.0
113.384178 200.0
113.428688 232.0
113.473206 224.0
113.721397 192.0
113.901878 212.0
114.06337 244.0
114.086746 168.0
114.125015 180.0
114.152657 124.0
114.167549 128.0
114.439911 140.0
114.620964 168.0
114.774429 128.0
114.868271 60.0
114.898132 188.0
114.996292 188.0
115.055847 304.0
115.109436 60.0
115.286743 164.0
115.335899 136.0
115.359856 248.0
115.787338 136.0
115.810898 56.0
115.868736 192.0
115.909447 232.0
115.933022 164.0
115.967056 168.0
116.052834 228.0
116.110954 184.0
116.196754 156.0
116.323372 132.0
116.462936 296.0
116.531677 152.0
116.598297 196.0
116.656326 156.0
116.854179 116.0
116.918732 112.0
116.942406 232.0
116.961777 28.0
116.996223 56.0
117.03067 160.0
117.056976 944.0
117.085373 188.0
117.118965 76.0
117.459526 124.0
117.554459 244.0
117.595459 132.0
117.647263 184.0
117.847786 192.0
118.040489 124.0
118.06591 948.0
118.207047 120.0
118.256828 136.0
118.271973 132.0
118.317436 164.0
118.370209 148.0
118.386719 100.0
118.557022 252.0
118.812393 184.0
118.937408 176.0
118.98951 128.0
119.009048 72.0
119.030762 120.0
119.070915 132.0
119.175316 152.0
119.202362 160.0
119.241478 148.0
119.289299 120.0
119.504601 120.0
119.552475 112.0
119.678726 212.0
119.761475 120.0
119.920532 144.0
120.179329 136.0
120.313164 328.0
120.330627 188.0
120.402687 116.0
120.455109 160.0
120.507538 116.0
120.660522 176.0
120.684578 168.0
120.721748 124.0
120.833298 176.0
120.894569 64.0
120.958038 108.0
121.006195 184.0
121.032234 184.0
121.068428 368.0
121.172646 88.0
121.192368 212.0
121.271255 64.0
121.367714 96.0
121.444466 132.0
121.48864 176.0
121.567322 184.0
121.65493 140.0
121.70385 224.0
121.813225 96.0
121.831741 168.0
121.942863 192.0
122.03791 168.0
122.077538 216.0
122.24855 224.0
122.264915 284.0
122.358604 148.0
122.418053 176.0
122.466507 180.0
122.573402 192.0
122.604828 148.0
122.669228 80.0
122.753006 276.0
122.861076 148.0
123.050873 156.0
123.134789 148.0
123.17675 352.0
123.225349 60.0
123.362366 176.0
123.402161 88.0
123.444572 112.0
123.532646 120.0
123.554764 164.0
123.63221 216.0
123.944435 124.0
124.051651 700.0
124.079636 256.0
124.168335 160.0
124.241531 140.0
124.49012 128.0
124.552307 116.0
124.594513 128.0
124.758965 152.0
124.883484 184.0
124.903503 112.0
124.941322 60.0
125.003624 76.0
125.021423 168.0
125.066193 172.0
125.101547 100.0
125.173141 104.0
125.195061 148.0
125.284157 108.0
125.330948 140.0
125.395569 116.0
125.513718 216.0
125.556091 160.0
125.625229 104.0
125.652 96.0
125.71225 208.0
125.870735 144.0
126.194839 152.0
126.557182 128.0
126.711723 172.0
126.758774 40.0
126.807091 136.0
126.933617 188.0
127.070435 216.0
127.13044 140.0
127.328026 164.0
127.380234 136.0
127.539772 172.0
127.580238 196.0
127.6297 108.0
127.827637 148.0
127.892906 280.0
127.951431 120.0
128.049454 1348.0
128.132202 164.0
128.194687 84.0
128.2285 168.0
128.278076 112.0
128.29837 140.0
128.334442 132.0
128.352478 132.0
128.388565 220.0
128.458481 120.0
128.474274 168.0
128.600632 68.0
128.645782 160.0
128.794815 136.0
128.851288 148.0
129.002701 176.0
129.056595 184.0
129.165512 140.0
129.25946 160.0
129.577515 228.0
129.629623 136.0
129.681641 152.0
129.767899 192.0
129.869949 140.0
129.91304 156.0
130.046356 328.0
130.064819 2032.0
130.183136 68.0
130.21492 216.0
130.25354 240.0
130.26944 124.0
130.387589 68.0
130.443512 212.0
130.496704 132.0
130.674103 44.0
130.847076 148.0
130.910828 180.0
130.970047 164.0
131.030228 196.0
131.047501 244.0
131.068924 424.0
131.197906 116.0
131.56749 152.0
131.645111 128.0
131.814148 104.0
131.932999 160.0
131.98494 168.0
132.044296 1212.0
132.071899 156.0
132.104507 128.0
132.136414 216.0
132.296738 172.0
132.404266 208.0
132.450165 96.0
132.560135 212.0
132.697662 136.0
132.892609 108.0
132.977509 128.0
133.028305 188.0
133.054565 304.0
133.117554 180.0
133.133621 112.0
133.264557 248.0
133.322006 200.0
133.345886 132.0
133.416245 168.0
133.436935 120.0
133.519714 188.0
133.554214 100.0
133.722168 116.0
133.809647 148.0
133.844177 96.0
133.862595 160.0
133.93399 120.0
134.065323 176.0
134.088364 240.0
134.256653 224.0
134.282028 56.0
134.660538 136.0
134.886963 172.0
135.027222 212.0
135.047272 208.0
135.1483 112.0
135.277893 148.0
135.342728 92.0
135.508377 192.0
135.544235 132.0
135.653168 196.0
135.866516 120.0
136.052933 208.0
136.16362 148.0
136.309647 140.0
136.393646 120.0
136.500595 124.0
136.554077 144.0
136.630844 204.0
136.847275 196.0
136.898514 216.0
137.021606 344.0
137.056931 180.0
137.158386 164.0
137.229385 152.0
137.252808 168.0
137.293137 212.0
137.546646 128.0
137.569992 80.0
137.658722 200.0
137.766159 164.0
137.791855 128.0
137.831573 148.0
138.01622 116.0
138.037277 144.0
138.068878 156.0
138.08638 124.0
138.109772 188.0
138.140182 120.0
138.224411 208.0
138.262604 148.0
138.406982 84.0
138.437424 68.0
138.492065 192.0
138.547501 128.0
138.738464 156.0
138.830536 144.0
138.908508 204.0
139.052643 348.0
139.075668 1076.0
139.206589 76.0
139.258255 132.0
139.309921 160.0
139.48851 232.0
139.512024 48.0
139.563782 236.0
139.671921 180.0
139.780151 184.0
139.80838 104.0
139.887619 252.0
139.996719 100.0
140.059769 324.0
140.081619 168.0
140.114487 180.0
140.305374 152.0
140.430359 112.0
140.486969 136.0
140.553024 164.0
140.732407 144.0
140.914276 168.0
140.970978 120.0
140.996979 252.0
141.048965 164.0
141.071075 148.0
141.096252 96.0
141.285446 52.0
141.335129 160.0
141.36116 148.0
141.434525 120.0
141.533951 148.0
141.566315 216.0
141.704407 128.0
141.808746 176.0
142.065887 296.0
142.136017 216.0
142.202469 184.0
142.249939 48.0
142.283173 172.0
142.301315 192.0
142.409027 228.0
142.466034 156.0
142.542053 148.0
142.794052 48.0
142.820206 120.0
142.927261 172.0
143.073242 248.0
143.129593 112.0
143.155777 164.0
143.280502 176.0
143.391632 108.0
143.472672 52.0
143.622894 272.0
143.713547 132.0
143.961807 132.0
143.988068 136.0
144.045319 976.0
144.08287 296.0
144.16246 164.0
144.229385 200.0
144.27002 120.0
144.50679 212.0
144.625916 164.0
144.647034 204.0
144.834747 152.0
145.007263 204.0
145.053772 1036.0
145.16069 164.0
145.465378 124.0
145.525406 224.0
145.78241 156.0
145.986755 188.0
146.03244 108.0
146.060699 1584.0
146.085922 104.0
146.169571 188.0
146.273056 184.0
146.359726 144.0
146.66568 192.0
146.786224 140.0
146.851334 172.0
146.897156 36.0
146.914047 164.0
146.957016 168.0
147.017807 268.0
147.043381 200.0
147.066071 200.0
147.119171 160.0
147.23024 200.0
147.254395 140.0
147.406586 156.0
147.53952 60.0
147.585464 108.0
147.609634 164.0
147.74025 164.0
147.773453 160.0
148.013733 192.0
148.052475 156.0
148.156631 88.0
148.355347 160.0
148.445053 192.0
148.499863 256.0
148.588165 180.0
148.647079 112.0
148.654205 144.0
148.890808 140.0
148.942581 164.0
148.979019 168.0
149.031219 196.0
149.060471 196.0
149.15155 172.0
149.236633 64.0
149.329041 100.0
149.516373 104.0
149.628342 128.0
149.650253 188.0
149.714783 144.0
149.80368 164.0
149.923065 64.0
150.040085 420.0
150.05957 52.0
150.227844 152.0
150.435272 188.0
150.846924 200.0
150.874985 124.0
150.975235 36.0
151.03981 684.0
151.090195 144.0
151.109772 88.0
151.237015 148.0
151.26149 44.0
151.28598 84.0
151.32515 108.0
151.379013 188.0
151.506378 64.0
151.562729 52.0
151.59729 188.0
151.616638 52.0
151.638702 212.0
151.695068 148.0
151.801743 196.0
151.886337 184.0
152.057922 640.0
152.308517 136.0
152.444061 212.0
152.490341 120.0
152.625549 92.0
152.923203 132.0
152.960129 160.0
153.030731 224.0
153.071228 660.0
153.132477 208.0
153.226089 228.0
153.425705 188.0
153.465149 196.0
153.605728 224.0
153.672333 120.0
153.720444 136.0
153.89447 112.0
153.914215 44.0
153.995712 152.0
154.065216 1916.0
154.126648 148.0
154.223022 144.0
154.351578 108.0
154.452972 100.0
154.482651 116.0
154.62616 40.0
154.665771 120.0
154.764786 184.0
154.792023 80.0
154.930725 40.0
155.051804 232.0
155.073044 1392.0
155.139893 164.0
155.233109 212.0
155.418518 192.0
155.45636 108.0
155.47374 180.0
155.70462 88.0
155.963013 52.0
156.019012 220.0
156.05603 152.0
156.082153 492.0
156.124619 208.0
156.196747 112.0
156.219131 168.0
156.275711 172.0
156.475464 180.0
156.515289 120.0
156.83667 32.0
156.881531 120.0
156.901474 212.0
156.94635 56.0
156.966309 148.0
157.067917 316.0
157.101196 180.0
157.160858 140.0
157.308105 176.0
157.457413 160.0
157.592804 164.0
157.62529 196.0
157.647781 148.0
157.720261 172.0
157.785248 208.0
157.852753 156.0
157.897766 148.0
157.992828 148.0
158.033737 232.0
158.060852 2608.0
158.127945 76.0
158.213043 92.0
158.265625 84.0
158.313202 72.0
158.473511 52.0
158.61879 132.0
158.699081 172.0
158.746735 100.0
158.789368 160.0
158.867111 248.0
158.980026 28.0
159.066574 500.0
159.088943 204.0
159.198425 172.0
159.361694 152.0
159.454666 200.0
159.580353 368.0
159.597961 196.0
159.683456 224.0
159.779037 156.0
159.81427 104.0
160.013092 148.0
160.039902 184.0
160.063461 148.0
160.3582 132.0
160.435379 396.0
160.571854 124.0
160.684799 224.0
160.706192 144.0
160.789474 72.0
160.909363 128.0
160.961136 220.0
161.021729 144.0
161.047729 208.0
161.0672 124.0
161.148041 180.0
161.17836 176.0
161.279449 156.0
161.335052 92.0
161.352753 116.0
161.413437 64.0
161.443787 152.0
161.501953 204.0
161.590485 104.0
161.648682 208.0
161.719543 156.0
161.810669 128.0
161.8414 176.0
161.939819 140.0
162.02594 184.0
162.052063 324.0
162.421402 104.0
162.659912 220.0
162.766541 40.0
162.916397 136.0
163.048523 148.0
163.066315 164.0
163.086639 220.0
163.190872 140.0
163.40451 72.0
163.536835 144.0
163.587738 156.0
163.676849 144.0
163.735413 156.0
163.763428 188.0
163.816589 132.0
163.967255 144.0
164.005661 112.0
164.070038 560.0
164.183945 48.0
164.255371 132.0
164.280869 152.0
164.311493 192.0
164.331894 116.0
164.408447 104.0
164.4646 196.0
164.497787 252.0
164.648422 144.0
164.707169 108.0
164.77359 128.0
164.837463 84.0
165.065659 888.0
165.180054 152.0
165.226089 116.0
165.277267 256.0
165.32077 148.0
165.415466 60.0
165.455063 196.0
165.709976 128.0
165.812469 144.0
165.838104 200.0
165.966278 140.0
166.066559 5008.0
166.122711 148.0
166.181717 136.0
166.307465 188.0
166.451233 56.0
166.543686 120.0
166.871384 200.0
166.929184 136.0
167.016617 164.0
167.037201 224.0
167.072281 2788.0
167.17482 180.0
167.209595 128.0
167.240479 228.0
167.261063 76.0
167.340866 116.0
167.358887 184.0
167.443878 36.0
167.668015 132.0
167.693787 164.0
167.711823 92.0
167.820831 160.0
167.915512 356.0
167.949036 160.0
168.051117 676.0
168.078873 484.0
168.266434 144.0
168.310333 108.0
168.387802 116.0
168.571228 164.0
168.609985 172.0
168.995285 156.0
169.050812 744.0
169.075867 112.0
169.098099 388.0
169.170258 176.0
169.219803 128.0
169.30072 156.0
169.377045 180.0
169.387802 84.0
169.395081 148.0
169.422455 116.0
169.544235 148.0
169.669052 236.0
169.740936 196.0
169.826828 204.0
169.922806 132.0
169.987686 144.0
170.060028 3932.0
170.094803 492.0
170.156387 124.0
170.215042 252.0
170.392731 220.0
170.442093 48.0
170.595428 36.0
170.79306 100.0
170.816467 176.0
170.97258 256.0
171.062027 644.0
171.0923 204.0
171.113861 156.0
171.248535 200.0
171.380005 124.0
171.404846 128.0
171.449142 104.0
171.527344 180.0
171.683777 140.0
171.709854 152.0
171.84288 176.0
171.902893 128.0
171.975967 196.0
172.040558 628.0
172.073914 336.0
172.203125 188.0
172.234467 124.0
172.289322 124.0
172.325897 200.0
172.373383 160.0
172.738953 72.0
172.762497 216.0
172.791275 108.0
172.960068 168.0
173.042526 168.0
173.079178 212.0
173.115845 180.0
173.139404 140.0
173.272995 128.0
173.480026 156.0
173.600632 100.0
173.679306 92.0
173.729156 176.0
173.752762 148.0
173.792114 156.0
173.923325 164.0
173.952209 136.0
174.067719 88.0
174.269348 200.0
174.69986 172.0
174.81427 132.0
174.916916 108.0
174.963104 204.0
175.243469 176.0
175.261917 124.0
175.398956 140.0
175.435852 172.0
175.588791 204.0
175.654724 180.0
175.702209 160.0
175.725952 84.0
175.778732 164.0
175.860535 136.0
176.000443 164.0
176.052902 176.0
176.140411 172.0
176.264587 144.0
176.320084 140.0
176.449158 240.0
176.478683 180.0
176.550079 100.0
176.901978 28.0
176.941696 232.0
177.033493 184.0
177.054672 144.0
177.073318 124.0
177.100571 204.0
177.121765 148.0
177.389389 168.0
177.495438 140.0
177.667831 188.0
177.699677 208.0
177.779282 104.0
177.911987 176.0
178.004913 136.0
178.031464 52.0
178.064957 932.0
178.1138 256.0
178.166931 132.0
178.289154 156.0
178.358261 124.0
178.379517 96.0
178.597565 204.0
178.680023 136.0
178.770493 136.0
178.837021 148.0
178.866302 164.0
178.890259 256.0
178.948837 176.0
179.007416 184.0
179.074707 600.0
179.164551 136.0
179.201859 192.0
179.337753 48.0
179.396393 120.0
179.436768 56.0
179.492386 204.0
179.535049 160.0
179.575043 136.0
179.652405 188.0
180.048157 356.0
180.082214 3264.0
180.279846 44.0
180.400131 124.0
180.531143 192.0
180.573929 196.0
180.608688 168.0
180.734436 116.0
180.828094 100.0
181.065552 656.0
181.08847 704.0
181.379852 168.0
181.420059 136.0
181.511215 144.0
181.578247 124.0
181.682861 144.0
181.916336 56.0
182.031784 172.0
182.058304 1244.0
182.192932 192.0
182.219803 120.0
182.289658 136.0
182.354156 92.0
182.5047 104.0
182.526215 196.0
182.613998 192.0
182.618851 124.0
182.629745 248.0
182.671432 152.0
182.706406 56.0
182.770981 96.0
182.808655 232.0
182.875931 212.0
182.937836 176.0
182.986298 108.0
183.005142 212.0
183.068771 9776.0
183.11113 56.0
183.147247 120.0
183.203613 104.0
183.244858 244.0
183.273712 192.0
183.305679 160.0
183.387421 84.0
183.426514 192.0
183.592575 68.0
183.678879 88.0
183.767899 72.0
183.838058 180.0
183.873138 128.0
183.979721 164.0
184.013504 56.0
184.073715 3012.0
184.213348 32.0
184.245773 104.0
184.305908 76.0
184.394379 268.0
184.421402 188.0
184.47818 96.0
184.586319 168.0
184.610657 68.0
184.659332 32.0
184.745895 108.0
184.805405 124.0
184.916367 44.0
185.048035 156.0
185.074738 396.0
185.276489 64.0
185.321625 116.0
185.460754 144.0
185.493088 108.0
185.57547 140.0
185.609863 64.0
185.636978 152.0
185.807861 152.0
185.84584 160.0
185.984238 144.0
186.051941 180.0
186.08197 296.0
186.1064 168.0
186.130844 92.0
186.179718 128.0
186.208847 144.0
186.235825 140.0
186.299225 56.0
186.459549 184.0
186.62265 44.0
186.644394 176.0
186.701492 216.0
186.821182 144.0
186.858124 168.0
186.987152 204.0
187.063034 364.0
187.391129 176.0
187.54277 132.0
187.580933 236.0
187.842712 156.0
187.932739 76.0
188.075974 156.0
188.112854 220.0
188.506149 144.0
188.631866 144.0
188.824753 176.0
188.97644 192.0
189.047668 136.0
189.186295 272.0
189.54155 144.0
189.658325 112.0
189.795395 152.0
189.836533 152.0
189.987381 152.0
190.066498 1016.0
190.165741 168.0
190.272797 96.0
190.456787 124.0
190.580399 176.0
190.624374 208.0
190.847015 92.0
190.880005 136.0
190.968018 192.0
191.072815 696.0
191.124817 176.0
191.166092 112.0
191.218384 220.0
191.278931 116.0
191.551544 64.0
191.631439 148.0
191.758194 92.0
191.831528 184.0
191.898773 184.0
192.080032 1232.0
192.382446 176.0
192.527908 96.0
192.601089 240.0
192.68631 208.0
192.985626 124.0
193.053909 396.0
193.089905 356.0
193.296402 92.0
193.327164 168.0
193.354507 176.0
193.398788 160.0
193.423706 148.0
193.479065 172.0
193.573608 140.0
193.94722 256.0
194.06073 10308.0
194.096725 464.0
194.120117 208.0
194.145935 136.0
194.179169 152.0
194.313263 56.0
194.380936 72.0
194.438126 96.0
194.489304 100.0
194.554703 260.0
194.76297 68.0
195.065628 3000.0
195.188171 32.0
195.208588 140.0
195.388428 60.0
195.466339 36.0
195.577652 132.0
195.66951 180.0
195.76976 48.0
195.803177 176.0
195.934082 168.0
195.955109 184.0
196.07431 2704.0
196.117996 176.0
196.221146 96.0
196.246231 44.0
196.29364 124.0
196.355377 228.0
196.39682 236.0
196.460983 68.0
196.494461 108.0
196.527939 144.0
196.550262 148.0
196.741379 188.0
196.787506 80.0
196.81543 100.0
196.967209 180.0
197.048401 516.0
197.081421 692.0
197.48613 204.0
197.506989 152.0
197.779907 280.0
197.802307 104.0
197.838699 72.0
197.886292 152.0
197.947891 136.0
198.054688 2640.0
198.088898 912.0
198.1371 116.0
198.183182 64.0
198.27565 68.0
198.30368 120.0
198.339676 156.0
198.396179 76.0
198.505524 52.0
198.603683 108.0
198.704666 184.0
198.76358 140.0
198.797256 156.0
198.839355 176.0
198.895493 64.0
199.027435 152.0
199.062195 792.0
199.140076 180.0
199.342041 132.0
199.385178 160.0
199.460083 180.0
199.564087 124.0
199.592209 156.0
199.856613 140.0
199.935394 168.0
200.066071 104.0
200.270432 152.0
200.338028 108.0
200.594467 112.0
200.625473 220.0
200.774918 184.0
201.014893 244.0
201.107834 160.0
201.215103 120.0
201.344986 216.0
201.415604 180.0
201.650116 80.0
201.693253 176.0
201.867798 124.0
201.89325 184.0
201.975266 76.0
201.995056 236.0
202.061127 148.0
202.101807 148.0
202.235565 156.0
202.666016 220.0
202.855896 100.0
203.070877 132.0
203.108261 172.0
203.227417 148.0
203.284164 124.0
203.346603 84.0
203.531113 160.0
203.593597 184.0
203.735611 52.0
203.84642 96.0
203.982834 116.0
204.034012 156.0
204.078384 272.0
204.136368 156.0
204.159119 136.0
204.451706 108.0
204.805161 76.0
204.970398 140.0
205.021759 172.0
205.044495 116.0
205.089905 116.0
205.096558 220.0
205.178467 172.0
205.214157 172.0
205.343842 80.0
205.432266 220.0
205.512146 176.0
205.583496 148.0
205.634857 156.0
205.749039 180.0
205.80899 160.0
206.059631 2440.0
206.099487 256.0
206.134628 180.0
206.223221 68.0
206.243225 200.0
206.561935 212.0
206.634995 124.0
206.657883 144.0
206.720825 180.0
206.886841 164.0
206.924057 224.0
207.007095 164.0
207.068237 3640.0
207.101593 128.0
207.184052 148.0
207.233368 48.0
207.310928 184.0
207.399124 248.0
207.433975 108.0
207.545792 56.0
207.801056 136.0
207.832611 188.0
207.855576 188.0
207.973236 68.0
208.008499 168.0
208.076767 4868.0
208.140106 176.0
208.211533 108.0
208.323547 80.0
208.378128 156.0
208.398254 212.0
208.418365 112.0
208.460739 176.0
208.527557 104.0
208.570679 168.0
208.651169 72.0
208.717285 152.0
208.853668 124.0
208.941635 232.0
208.99054 196.0
209.079895 1652.0
209.217911 128.0
209.31868 68.0
209.35611 160.0
209.462677 156.0
209.511642 152.0
209.619354 136.0
209.721069 144.0
209.756592 84.0
209.794067 136.0
209.840622 188.0
209.867584 56.0
210.02475 36.0
210.056931 1964.0
210.091339 3104.0
210.170944 124.0
210.260651 84.0
210.368134 188.0
210.437408 144.0
210.466293 180.0
210.496841 88.0
210.5327 192.0
210.604904 92.0
210.625122 60.0
210.672668 148.0
210.778244 132.0
210.798477 128.0
210.873611 112.0
210.925629 176.0
210.958664 160.0
210.97937 320.0
211.063522 17188.0
211.130325 176.0
211.151154 44.0
211.171402 40.0
211.194534 68.0
211.220566 84.0
211.259369 68.0
211.293991 52.0
211.350113 120.0
211.396332 48.0
211.494385 140.0
211.550461 180.0
211.605453 108.0
211.637314 48.0
211.669159 76.0
211.718384 132.0
211.813965 172.0
211.860306 44.0
211.89798 60.0
211.950134 172.0
211.981995 88.0
212.031265 52.0
212.067352 2404.0
212.103073 124.0
212.132706 32.0
212.179092 64.0
212.205185 76.0
212.300873 60.0
212.50972 92.0
212.530029 80.0
212.631592 112.0
212.657715 64.0
212.834808 40.0
212.952606 92.0
212.991623 184.0
213.071243 184.0
213.296722 116.0
213.318314 188.0
213.378113 68.0
213.488617 172.0
213.523514 112.0
213.636948 104.0
213.683502 192.0
213.81813 192.0
213.936691 280.0
214.051941 388.0
214.074081 208.0
214.178375 140.0
214.367752 140.0
214.404984 144.0
214.50473 152.0
214.589264 104.0
214.633011 96.0
215.052597 324.0
215.140656 36.0
215.224213 136.0
215.248688 164.0
215.301254 120.0
215.400558 44.0
215.675217 196.0
215.774612 48.0
215.838928 188.0
215.923737 132.0
216.046585 160.0
216.080551 184.0
216.219223 172.0
216.361038 160.0
216.482697 116.0
216.509048 164.0
216.755112 168.0
216.778564 44.0
216.857681 156.0
216.884064 40.0
216.904587 196.0
216.933899 192.0
217.045303 180.0
217.086365 200.0
217.127411 208.0
217.262344 164.0
217.323959 176.0
217.367966 244.0
217.434601 176.0
217.445404 124.0
217.491226 56.0
217.519623 184.0
217.598969 108.0
217.690857 204.0
217.890594 188.0
217.987549 160.0
218.060837 596.0
218.105118 164.0
218.1492 184.0
218.282974 112.0
218.490326 56.0
218.596252 232.0
218.725754 164.0
218.781677 128.0
218.905334 192.0
219.068405 1316.0
219.276535 36.0
219.362015 148.0
219.544815 144.0
219.639191 148.0
219.709976 148.0
219.766037 140.0
219.966721 116.0
220.076477 2908.0
220.297455 132.0
220.384064 128.0
220.539749 68.0
220.572266 180.0
220.592957 92.0
220.640259 44.0
220.761475 56.0
220.839035 144.0
220.86203 196.0
220.94487 96.0
220.968536 52.0
221.049179 2444.0
221.077042 876.0
221.108643 252.0
221.134247 136.0
221.157593 148.0
221.287735 136.0
221.335541 64.0
221.38588 196.0
221.516205 160.0
221.608566 136.0
221.649521 84.0
221.726562 216.0
221.747314 112.0
221.833267 180.0
221.858688 124.0
221.910751 60.0
221.948822 152.0
221.973618 212.0
222.022308 252.0
222.056061 28536.0
222.09024 1072.0
222.134811 140.0
222.165253 80.0
222.20343 44.0
222.251434 28.0
222.295288 108.0
222.318542 52.0
222.351562 92.0
222.384979 48.0
222.411697 60.0
222.477005 208.0
222.49588 156.0
222.515106 120.0
222.545288 32.0
222.581909 156.0
222.672974 88.0
222.809616 116.0
222.851212 48.0
222.922516 64.0
222.951096 156.0
223.019562 172.0
223.060867 6496.0
223.187073 120.0
223.526169 44.0
223.592957 72.0
223.613586 116.0
223.710693 140.0
223.81192 36.0
223.936981 76.0
224.01651 148.0
224.067886 1572.0
224.172348 40.0
224.223007 176.0
224.37204 92.0
224.422729 160.0
224.491989 72.0
224.521133 128.0
224.571823 172.0
224.598679 268.0
224.637451 136.0
224.69519 136.0
224.729935 60.0
224.768723 188.0
224.822433 84.0
224.864212 60.0
224.911774 184.0
224.962723 84.0
225.076843 1388.0
225.180679 100.0
225.279251 96.0
225.333023 132.0
225.380829 104.0
225.434616 92.0
225.485428 168.0
225.527267 72.0
225.593033 176.0
225.634888 76.0
225.715607 232.0
225.742523 192.0
225.781403 56.0
225.805328 36.0
225.847198 196.0
225.981995 128.0
226.0504 220.0
226.086929 8308.0
226.137421 80.0
226.161362 40.0
226.227219 204.0
226.285217 64.0
226.317032 136.0
226.361954 132.0
226.427826 104.0
226.448792 32.0
226.475754 68.0
226.530746 188.0
226.556625 44.0
226.71843 52.0
226.745392 164.0
226.781357 48.0
226.805344 60.0
226.859299 184.0
227.003204 36.0
227.054749 396.0
227.087296 1408.0
227.138168 156.0
227.219162 244.0
227.418945 104.0
227.447235 68.0
227.560303 156.0
227.632858 164.0
227.666397 64.0
227.91272 56.0
228.021606 188.0
228.092453 276.0
228.115326 184.0
228.54715 120.0
228.613342 180.0
228.739761 104.0
228.775879 160.0
228.796951 72.0
228.830063 68.0
228.917389 136.0
229.034851 156.0
229.125214 120.0
229.152328 200.0
229.290131 104.0
229.3452 196.0
229.411514 100.0
229.44165 140.0
229.465775 92.0
229.571304 32.0
229.610519 92.0
229.737198 108.0
229.933319 264.0
230.03595 172.0
230.060089 128.0
230.156708 60.0
230.195953 88.0
230.241257 68.0
230.416458 40.0
230.473068 92.0
230.649139 228.0
230.767044 232.0
230.812393 76.0
230.869843 116.0
230.927307 84.0
231.073456 152.0
231.408447 64.0
231.438721 200.0
231.517456 188.0
231.556824 268.0
231.584091 76.0
231.6689 180.0
231.813156 144.0
231.862823 152.0
231.914337 152.0
231.957458 180.0
232.026505 100.0
232.071625 332.0
232.111389 136.0
232.181137 144.0
232.220566 148.0
232.293365 84.0
232.320663 160.0
232.539139 116.0
232.569489 80.0
232.602875 140.0
232.630203 152.0
232.794144 164.0
232.863998 216.0
232.891327 60.0
232.924744 192.0
232.991577 140.0
233.042206 176.0
233.08374 236.0
233.104935 208.0
233.246841 124.0
233.286346 128.0
233.459656 144.0
233.636078 56.0
233.693878 196.0
233.906906 160.0
233.95256 112.0
234.05806 1740.0
234.087891 176.0
234.177887 84.0
234.235764 152.0
234.36676 188.0
234.686798 36.0
234.796585 116.0
235.063019 2976.0
235.098602 200.0
235.12912 176.0
235.211517 144.0
235.306152 92.0
235.346191 144.0
235.443558 60.0
235.501587 104.0
235.690994 160.0
235.810181 40.0
235.914108 140.0
235.963013 60.0
236.071365 14100.0
236.198486 60.0
236.268845 64.0
236.372879 224.0
236.427948 64.0
236.51059 60.0
236.580994 44.0
236.685089 156.0
236.751602 124.0
236.822891 40.0
236.965073 136.0
237.030106 232.0
237.076263 3472.0
237.123154 188.0
237.162994 172.0
237.215103 116.0
237.252686 124.0
237.32547 52.0
237.35614 128.0
237.386795 180.0
237.411331 68.0
237.442001 32.0
237.491806 116.0
237.527054 184.0
237.570831 124.0
237.607635 84.0
237.787766 188.0
237.856201 180.0
237.915619 68.0
237.95874 100.0
237.991287 244.0
238.050903 832.0
238.084702 2784.0
238.145905 176.0
238.166321 180.0
238.190903 128.0
238.2892 40.0
238.355515 96.0
238.476654 152.0
238.624207 132.0
238.660172 160.0
238.716827 316.0
238.813492 108.0
238.890991 96.0
238.95636 228.0
239.058578 6636.0
239.090302 684.0
239.137924 56.0
239.270279 116.0
239.328781 48.0
239.374969 140.0
239.519714 124.0
239.59494 172.0
239.652191 128.0
239.744629 56.0
239.812424 60.0
239.93573 40.0
240.031311 72.0
240.063263 1684.0
240.102859 1228.0
240.160843 200.0
240.222534 144.0
240.284225 212.0
240.339767 124.0
240.509491 52.0
240.549622 44.0
240.734329 92.0
240.784286 116.0
240.849136 100.0
240.870758 92.0
240.981979 212.0
241.02832 136.0
241.072174 232.0
241.109833 128.0
241.186081 88.0
241.32814 208.0
241.355972 84.0
241.438736 144.0
241.547714 64.0
241.671463 136.0
241.74263 176.0
241.829285 88.0
241.857132 92.0
242.102158 144.0
242.151276 144.0
242.207031 160.0
242.234909 124.0
242.365021 100.0
242.57576 52.0
242.619171 72.0
242.746292 116.0
243.059891 236.0
243.140259 156.0
243.183716 60.0
243.814178 152.0
244.081512 104.0
244.355225 140.0
244.639603 164.0
244.865723 156.0
245.096237 276.0
245.224014 128.0
245.305054 232.0
245.445343 132.0
245.488998 128.0
245.816544 60.0
245.86647 188.0
246.065048 184.0
246.147415 28.0
246.375427 116.0
246.5504 144.0
246.600403 28.0
247.057587 196.0
247.225891 156.0
247.31665 76.0
247.416824 40.0
247.626617 140.0
247.814102 164.0
247.82692 140.0
247.952438 188.0
248.07106 1164.0
248.309845 180.0
248.356888 160.0
248.381989 96.0
248.702026 136.0
248.728867 136.0
248.799347 68.0
248.85585 84.0
248.904221 228.0
248.930237 168.0
248.997162 344.0
249.037888 352.0
249.079071 1048.0
249.113373 152.0
249.283035 112.0
249.352173 156.0
249.452759 72.0
249.493622 152.0
249.556503 108.0
249.613098 164.0
249.682281 120.0
249.728409 192.0
249.809875 204.0
249.836411 112.0
249.905624 84.0
249.940231 124.0
250.002914 200.0
250.049774 10936.0
250.085922 7484.0
250.153961 232.0
250.193253 92.0
250.217194 48.0
250.281525 148.0
250.374634 88.0
250.438004 152.0
250.480362 132.0
250.557327 36.0
250.629791 80.0
250.675552 88.0
250.762146 208.0
250.831497 188.0
250.935516 164.0
250.963898 176.0
251.057571 15612.0
251.091644 2468.0
251.156265 60.0
251.257217 100.0
251.291916 216.0
251.31517 152.0
251.361328 36.0
251.459152 76.0
251.499084 80.0
251.55069 52.0
251.635925 96.0
251.683289 60.0
251.705399 48.0
251.815918 40.0
251.893692 204.0
251.923325 40.0
251.975388 124.0
252.063095 2316.0
252.09964 1028.0
252.193573 136.0
252.220352 96.0
252.277252 180.0
252.384033 36.0
252.433472 68.0
252.515182 84.0
252.701035 48.0
252.746521 116.0
252.766663 172.0
252.815994 108.0
252.879349 204.0
252.919388 140.0
252.99852 80.0
253.069168 1632.0
253.107498 1300.0
253.147324 148.0
253.226501 36.0
253.255005 32.0
253.309052 200.0
253.346863 188.0
253.41806 204.0
253.445084 80.0
253.527466 232.0
253.559158 36.0
253.666931 44.0
253.726471 164.0
253.777893 104.0
253.806427 56.0
253.834137 92.0
253.885696 136.0
253.911072 208.0
253.945953 80.0
253.990356 144.0
254.081818 15472.0
254.148071 56.0
254.217667 136.0
254.269562 136.0
254.310822 60.0
254.336212 132.0
254.391907 96.0
254.437958 156.0
254.512192 84.0
254.606094 88.0
254.684189 88.0
254.757355 76.0
254.850677 44.0
254.898346 240.0
254.94429 132.0
255.006393 56.0
255.032059 52.0
255.084244 2376.0
255.219986 104.0
255.337036 80.0
255.397461 184.0
255.445175 36.0
255.480179 160.0
255.52153 36.0
255.56517 224.0
255.597885 48.0
255.64563 100.0
255.677444 180.0
255.820679 92.0
255.914017 252.0
255.970322 52.0
256.040375 152.0
256.100403 176.0
256.19574 160.0
256.269714 56.0
256.515106 56.0
256.591949 208.0
256.652191 112.0
256.693665 60.0
256.891388 132.0
256.942444 124.0
257.015808 92.0
257.086029 176.0
257.711884 144.0
257.820526 44.0
257.94516 120.0
258.060272 176.0
258.08902 32.0
258.216949 132.0
258.252136 120.0
258.280914 132.0
258.591278 100.0
258.648895 60.0
258.937042 60.0
259.09079 32.0
259.401642 232.0
259.648529 36.0
259.674194 100.0
259.780029 188.0
259.962921 48.0
259.985382 112.0
260.052765 152.0
260.383453 148.0
260.579407 220.0
260.74649 52.0
260.791504 44.0
261.072449 72.0
261.743744 128.0
262.053345 340.0
262.081665 652.0
262.185944 176.0
262.301086 60.0
262.481628 56.0
262.984894 92.0
263.03833 160.0
263.047241 88.0
263.083405 116.0
263.15921 68.0
263.488647 104.0
263.550018 132.0
263.782715 168.0
263.8797 152.0
263.907196 164.0
263.936279 160.0
264.00061 112.0
264.065918 11956.0
264.151337 64.0
264.18045 64.0
264.222534 48.0
264.378876 76.0
264.429626 44.0
264.507935 144.0
264.593323 160.0
264.818115 40.0
264.876434 32.0
264.908813 84.0
264.960663 80.0
264.986572 176.0
265.071625 7132.0
265.160034 228.0
265.21991 40.0
265.286896 184.0
265.339844 36.0
265.404694 132.0
265.463043 184.0
265.508453 44.0
265.566833 176.0
265.589539 136.0
265.63562 176.0
265.690094 132.0
265.836609 128.0
265.888031 32.0
265.926025 96.0
265.979004 116.0
266.081177 18872.0
266.159271 164.0
266.189941 228.0
266.222412 92.0
266.261383 44.0
266.339325 128.0
266.382935 84.0
266.4216 148.0
266.45517 104.0
266.485504 76.0
266.55368 184.0
266.633179 108.0
266.657715 116.0
266.723877 92.0
266.758881 176.0
266.837463 76.0
266.89505 40.0
266.9487 96.0
266.984528 128.0
267.053528 18264.0
267.161713 248.0
267.244751 44.0
267.283112 52.0
267.321167 156.0
267.378845 44.0
267.430939 60.0
267.480621 56.0
267.509918 112.0
267.554626 148.0
267.59726 92.0
267.632721 72.0
267.688995 64.0
267.792023 164.0
267.877899 44.0
267.941315 140.0
267.972382 56.0
268.055603 3168.0
268.09436 1336.0
268.177673 64.0
268.31131 52.0
268.34317 136.0
268.415649 60.0
268.453491 132.0
268.542847 48.0
268.565674 104.0
268.714233 124.0
268.816864 188.0
268.856934 88.0
268.91803 48.0
268.96048 128.0
269.061127 588.0
269.105042 5648.0
269.188995 100.0
269.233978 192.0
269.277191 64.0
269.300049 108.0
269.368622 152.0
269.453583 48.0
269.525452 124.0
269.54834 180.0
269.580994 80.0
269.61084 252.0
269.677887 136.0
269.744415 80.0
269.826141 132.0
269.858826 48.0
269.924225 104.0
269.973297 132.0
270.108826 796.0
270.215332 52.0
270.264404 60.0
270.293854 60.0
270.349487 120.0
270.536041 84.0
270.863525 56.0
270.902832 60.0
270.976959 120.0
271.060089 84.0
271.110229 328.0
271.151855 112.0
271.187897 92.0
271.253448 36.0
271.384583 176.0
271.642181 220.0
271.847076 56.0
271.899261 84.0
271.991486 36.0
272.034149 136.0
272.06778 180.0
272.099823 196.0
272.142487 92.0
272.201599 136.0
272.286987 100.0
272.661499 92.0
272.973816 108.0
273.210632 36.0
273.263275 56.0
273.302734 116.0
273.365265 40.0
273.542999 152.0
273.641754 76.0
273.852509 128.0
273.990845 140.0
274.313812 60.0
274.588318 200.0
274.636932 80.0
275.310211 92.0
275.353149 68.0
276.073578 164.0
276.265411 128.0
276.480499 188.0
276.536743 172.0
276.738678 48.0
277.091522 196.0
277.132812 84.0
277.673157 168.0
277.766022 156.0
278.079834 1576.0
278.15094 36.0
278.253845 44.0
278.413239 152.0
278.479645 52.0
278.516174 96.0
278.572662 32.0
278.609192 116.0
278.659027 176.0
279.087219 2744.0
279.131622 88.0
279.505707 124.0
279.809753 116.0
279.870514 32.0
279.916321 176.0
279.983337 64.0
280.096924 17548.0
280.169434 176.0
280.216064 136.0
280.23941 60.0
280.308807 92.0
280.426025 92.0
280.606628 132.0
280.639374 148.0
280.672699 120.0
280.729401 68.0
280.759399 72.0
280.959534 104.0
281.018585 108.0
281.100281 2596.0
281.156403 72.0
281.282593 64.0
281.319946 76.0
281.387848 260.0
281.463501 52.0
281.523621 60.0
281.636108 76.0
281.667236 200.0
281.697021 152.0
281.784149 60.0
281.831451 128.0
281.942261 264.0
282.019012 404.0
282.076599 62328.0
282.168915 216.0
282.200439 124.0
282.229065 88.0
282.268433 36.0
282.307709 124.0
282.342804 60.0
282.368988 120.0
282.399231 124.0
282.460205 240.0
282.493103 60.0
282.529663 36.0
282.56189 92.0
282.62384 28.0
282.671661 156.0
282.704376 40.0
282.731934 80.0
282.766937 140.0
282.814117 132.0
282.850922 32.0
282.888916 68.0
282.94754 28.0
283.029694 332.0
283.079865 8636.0
283.171509 112.0
283.222015 156.0
283.274048 384.0
283.324646 60.0
283.356598 140.0
283.403503 104.0
283.443695 80.0
283.505432 124.0
283.601227 68.0
283.665222 180.0
283.822479 84.0
283.969086 128.0
283.975525 44.0
284.045013 124.0
284.082153 812.0
284.125153 1060.0
284.181366 116.0
284.335724 140.0
284.365936 60.0
284.490021 76.0
284.656616 108.0
284.805756 76.0
284.829285 172.0
284.869568 124.0
284.90155 148.0
285.044189 112.0
285.133057 232.0
285.207855 84.0
285.39386 60.0
285.444305 40.0
285.494751 100.0
285.635986 48.0
285.659546 60.0
285.726837 52.0
285.916138 76.0
285.985931 36.0
286.117218 96.0
286.140778 116.0
286.241791 60.0
286.544922 48.0
286.608948 80.0
286.749451 80.0
287.15506 96.0
287.647675 96.0
288.059631 80.0
288.198151 108.0
288.309662 52.0
288.52597 68.0
288.982544 40.0
289.25235 72.0
289.6698 44.0
289.788361 52.0
289.82901 80.0
290.069641 32.0
291.335388 120.0
291.382965 56.0
291.50528 48.0
291.879181 68.0
291.916595 100.0
292.338409 128.0
292.81073 172.0
292.835449 124.0
292.992126 40.0
293.03302 156.0
293.06369 116.0
293.322693 56.0
293.841034 60.0
293.960449 104.0
294.015045 124.0
294.066254 92.0
294.107208 48.0
294.137939 104.0
294.264252 104.0
294.592102 52.0
294.762909 100.0
295.091034 168.0
295.419342 92.0
295.617798 116.0
295.641754 48.0
295.703369 116.0
295.829987 64.0
295.853973 176.0
295.881348 100.0
295.962463 184.0
296.042267 228.0
296.09201 4928.0
296.210114 120.0
296.480774 184.0
296.58017 116.0
296.621307 64.0
296.930786 120.0
297.005341 188.0
297.032776 192.0
297.099579 12432.0
297.293518 100.0
297.362152 36.0
297.399902 88.0
297.471252 92.0
297.580994 48.0
297.633362 68.0
297.667694 76.0
297.746674 96.0
297.881348 132.0
298.101288 1612.0
298.152069 32.0
298.248291 44.0
298.471741 112.0
298.712494 40.0
298.905151 56.0
298.932678 80.0
299.029053 156.0
299.097717 300.0
299.149506 128.0
299.211487 116.0
299.424988 76.0
299.529083 124.0
299.797028 84.0
299.996948 52.0
300.08313 56.0
300.110718 140.0
300.317627 68.0
300.390045 84.0
300.483215 124.0
301.339417 48.0
302.729919 52.0
303.266907 148.0
304.984985 160.0
305.085815 92.0
305.346588 92.0
305.610962 68.0
306.955475 116.0
307.063568 204.0
308.393799 112.0
309.604309 80.0
311.066376 264.0
311.501801 140.0
311.575562 92.0
311.610687 100.0
311.919952 108.0
312.123596 1724.0
312.292664 132.0
312.919037 112.0
313.12793 692.0
313.845673 52.0
314.128082 156.0
314.247742 176.0
314.343018 48.0
315.105682 52.0
317.966797 144.0
319.516052 104.0
319.669037 96.0
321.354401 96.0
321.739868 84.0
323.058533 92.0
328.991638 144.0
331.632233 148.0
334.519928 116.0
334.869476 116.0
336.671082 80.0
337.998016 144.0
341.880402 52.0
342.624176 84.0
343.844696 84.0
345.052582 96.0
349.28009 88.0
352.564789 60.0
353.709259 104.0
354.166077 88.0
356.774017 64.0
359.531158 80.0
361.640045 48.0
366.657166 204.0
366.840118 60.0
367.366364 80.0
372.458252 80.0
377.602966 36.0
378.206543 52.0
380.645081 64.0
380.695557 128.0
382.744812 148.0
383.750061 80.0
386.601501 76.0
398.915436 40.0
401.994171 68.0
407.399353 172.0
407.672577 48.0
409.656128 80.0
410.442017 52.0
410.849365 144.0
414.577301 68.0
415.355743 56.0
416.48822 88.0
418.155212 76.0
420.429291 64.0
421.151917 92.0
431.958405 76.0
432.037018 60.0
437.435883 80.0
439.098358 108.0
441.867798 44.0
445.767212 88.0
446.389343 72.0
446.494476 64.0
448.755707 108.0
450.029907 76.0
450.8367 60.0
453.100403 116.0
453.651337 76.0
454.461365 124.0
459.955444 48.0
464.997467 44.0
468.07547 80.0
471.254364 84.0
478.87619 124.0
478.915405 52.0
484.081879 92.0
485.199158 88.0
486.155365 84.0
487.156433 124.0
492.238983 60.0
492.433289 120.0
492.60556 64.0
497.831848 104.0
498.587067 56.0
500.940765 116.0
514.321472 44.0
516.571716 60.0
518.047485 100.0
518.088257 52.0
522.218933 36.0
533.256042 64.0
537.045227 76.0
539.936462 108.0
545.983948 44.0
546.886536 52.0
549.500732 72.0
554.527588 108.0
565.501648 72.0
573.404663 100.0
575.737549 104.0
576.535339 32.0
579.827942 100.0
585.853333 72.0
589.534729 52.0
589.737732 136.0
594.197632 48.0
598.085205 56.0
602.2052 116.0
611.299316 36.0
618.366333 72.0
624.906616 60.0
633.278137 56.0
645.461853 32.0
654.463257 40.0
665.574158 48.0
666.087708 64.0
671.574646 116.0
673.128052 60.0
675.26239 96.0
676.457581 120.0
677.306824 32.0
682.200134 124.0
687.413635 92.0
690.250061 68.0
693.469666 36.0
694.21936 80.0
697.327271 76.0
701.548767 112.0
708.206726 56.0
728.578735 128.0
731.068237 64.0
732.031799 96.0
735.676514 76.0
748.836609 48.0
779.152405 72.0
782.7677 48.0
794.521912 72.0
807.901672 112.0
809.463806 48.0
821.204956 40.0
830.912292 60.0
832.892761 84.0
836.998962 48.0
842.564758 76.0
844.524353 36.0
849.737915 80.0
852.466919 132.0
856.63269 168.0
857.471741 80.0
866.353271 104.0
870.306213 84.0
870.535217 104.0
875.26886 48.0
876.3703 88.0
887.92688 52.0
891.447266 108.0
893.052429 76.0
903.084595 104.0
903.287964 52.0
932.520264 48.0
938.357971 140.0
947.86853 156.0
955.352783 168.0
956.189575 120.0
959.454224 72.0
977.260254 184.0
979.875183 84.0
983.510742 168.0
983.966431 84.0
984.228638 164.0
989.424255 152.0
1000.555237 156.0
1032.095337 92.0
1032.140015 68.0
1036.921997 120.0
1044.247559 104.0
1045.592163 60.0
1046.776733 180.0
1052.31543 224.0
1054.653931 164.0
1058.496826 52.0
1058.639282 72.0
1067.282471 52.0
1071.643433 188.0
1072.418823 136.0
1081.026489 176.0
1085.192383 148.0
1089.5896 40.0
1137.344604 112.0
1144.827515 96.0
1149.991699 132.0
1152.118774 148.0
1152.240356 164.0
1157.414429 48.0
1159.09436 240.0
1159.643311 28.0
1162.634155 28.0
1170.281372 192.0
1171.255127 136.0
1182.596313 140.0
1183.732788 116.0
1184.362915 104.0
1189.876221 144.0
1195.41626 156.0
1196.985718 176.0
1198.377075 96.0
1203.232422 60.0
1205.297607 176.0
1205.670776 136.0
1222.940063 132.0
1223.907715 72.0
1225.063843 104.0
1229.477417 148.0
1229.575195 72.0
1235.269653 112.0
1241.601318 208.0
1244.724121 112.0
1246.149902 52.0
1255.949219 92.0
1258.729736 184.0
1258.93457 136.0
1262.248779 228.0
1262.467896 156.0
1267.26001 148.0
1270.762573 152.0
1270.847656 192.0
1276.259888 176.0
1282.154053 128.0
1283.437134 148.0
1283.572632 196.0
1285.384399 132.0
1286.583496 180.0
1292.32959 68.0
1294.119019 232.0
1295.01416 212.0
1297.844727 184.0
1302.200684 140.0
1302.365845 200.0
1302.416138 212.0
1306.535156 224.0
1311.078613 160.0
1314.69873 216.0
1316.084717 112.0
1318.020508 88.0
1318.338379 164.0
1319.393677 216.0
1323.365601 80.0
1327.270996 136.0
1335.870117 160.0
1336.197388 204.0
1337.405396 224.0
1340.595337 224.0
1345.007812 220.0
1347.60022 160.0
1348.491821 216.0
1349.230103 52.0
1352.353516 140.0
1356.616577 176.0
1360.321167 180.0
1362.641846 192.0
1365.214478 100.0
1366.391357 164.0
1367.083008 176.0
1367.369995 56.0
1368.26062 184.0
1372.157959 172.0
1372.799438 156.0
1374.960938 132.0
1375.721191 100.0
1379.451782 136.0
1379.61438 104.0
1383.194702 136.0
1383.757324 64.0
1384.949585 132.0
1386.42395 164.0
1390.480591 160.0
1391.816772 196.0
1395.145264 88.0
1399.021118 168.0
1399.296509 116.0
1402.782959 60.0
1405.482788 240.0
1405.646973 144.0
1409.238525 204.0
1412.228638 124.0
1414.338623 184.0
1415.03479 184.0
1415.18457 36.0
1415.641357 120.0
1416.225464 228.0
1416.929688 196.0
1417.858765 136.0
1418.083618 144.0
1420.76062 112.0
1421.368286 216.0
1425.378052 160.0
1426.092041 40.0
1428.107056 172.0
1439.539673 172.0
1442.380493 152.0
1444.921387 44.0
1445.723389 188.0
1448.448975 188.0
1448.994507 200.0
1452.193359 100.0
1452.595337 148.0
1452.91394 136.0
1454.325439 188.0
1456.231079 184.0
1458.594116 148.0
1458.70813 152.0
1461.940552 100.0
1462.739746 124.0
1464.072144 60.0
1464.567261 72.0
1465.656616 160.0
1465.748047 184.0
1468.919678 104.0
1469.781738 192.0
1473.041626 220.0
1473.438965 176.0
1474.585083 152.0
1477.414307 184.0
1477.995728 128.0
1478.952393 252.0
1479.878662 196.0
1482.85083 80.0
1484.460815 100.0
1484.667847 44.0
1486.044189 196.0
1486.954102 180.0
1487.698608 164.0
1488.804199 104.0
1492.092896 96.0
1492.554199 164.0
1492.74646 128.0
1493.354004 168.0
1494.900391 164.0
1495.231201 100.0
1497.587158 180.0
1497.810547 88.0
1498.858276 112.0
1500.777588 144.0
1501.047485 176.0
1504.859131 200.0
