>compound MLS001077329-01!
>formula C9H9Cl2N3O
>ionization [M+H]+
>parentmass 246.01954372009052
#inchi InChI=1S/C9H9Cl2N3O/c10-6-2-1-3-7(11)5(6)4-8(15)14-9(12)13/h1-3H,4H2,(H4,12,13,14,15)
#inchikey INJOMKTZOLKMBF
#origInchi InChI=1S/C9H9Cl2N3O.ClH/c10-6-2-1-3-7(11)5(6)4-8(15)14-9(12)13;/h1-3H,4H2,(H4,12,13,14,15);1H
#Ion_Source LC-ESI
#Instrument qTof
#Compound_Source NIH Pharmacologically Active Library
#PI Dorrestein
#Data_Collector VP/LMS
#Scan -1
#Precursor_MZ 246.022
#ExactMass 245.012
#Charge 1
#CAS_Number N/A
#Pubmed_ID N/A
#Smiles NC(=N)NC(=O)Cc1c(Cl)cccc1Cl.Cl
#INCHI_AUX N/A
#Library_Class 1
#SpectrumID CCMSLIB00000084894
#IonMode Positive
#UpdateWorkflowName UPDATE-SINGLE-ANNOTATED-GOLD
#LibraryQualityString Gold
#TaskID d252d724072548979f1f6f1ced849daf
##Scan# 1399
#SpectrumFile p3-C04_GC4_01_18249.mzXML
#LibraryName Pharm_Active_Library.mgf
#MQScore -1
#Organism Pharm_Active_Library
#TIC_Query 0
#RT_Query -1
#MZErrorPPM -1
#SharedPeaks 0
#MassDiff 0
#LibMZ -1
#SpecMZ 246.022
#SpecCharge 0
#internalFilename spec-00000.mgf

>collision 10
45.022797 160.0
45.097618 144.0
45.41898 192.0
45.491444 192.0
45.635201 120.0
45.824982 128.0
45.986809 128.0
46.200314 112.0
46.267982 168.0
46.383133 200.0
46.467216 88.0
46.487568 220.0
46.658718 112.0
46.858788 152.0
46.891491 212.0
47.012875 140.0
47.250633 148.0
47.283474 136.0
47.440998 152.0
47.547993 196.0
47.576817 128.0
47.759586 144.0
47.849033 228.0
47.858673 44.0
48.146885 44.0
48.372265 72.0
48.390259 96.0
48.47337 252.0
48.566261 164.0
48.853809 156.0
49.946358 228.0
50.420109 164.0
50.547386 172.0
50.575691 132.0
50.656406 184.0
50.942963 136.0
51.196148 148.0
51.227482 160.0
51.36694 116.0
51.692944 140.0
51.861942 168.0
52.245358 96.0
52.421021 160.0
52.530598 188.0
52.543034 168.0
52.628738 152.0
52.660511 196.0
52.841209 128.0
52.867256 172.0
53.268887 164.0
53.372074 152.0
53.404068 72.0
53.427345 176.0
53.749348 160.0
53.876373 184.0
53.956753 172.0
54.214657 188.0
54.388912 196.0
54.443237 64.0
54.456455 120.0
54.553436 196.0
54.66375 100.0
54.878811 108.0
55.362015 104.0
55.568058 160.0
55.6586 192.0
55.709099 32.0
55.820572 192.0
56.285496 80.0
56.307899 176.0
56.689392 140.0
56.713371 232.0
56.79734 92.0
56.90239 204.0
57.124813 96.0
57.37933 144.0
57.504536 180.0
57.59362 168.0
57.731155 56.0
57.802254 76.0
57.937008 120.0
58.120468 172.0
58.203953 72.0
58.301174 188.0
58.468468 244.0
58.541542 140.0
58.56134 176.0
58.623837 200.0
58.674107 184.0
59.132374 92.0
59.238026 144.0
59.420464 164.0
59.644085 208.0
59.709251 148.0
59.903194 184.0
60.21323 108.0
60.440479 80.0
60.460598 196.0
60.56588 236.0
60.800003 172.0
60.85899 148.0
61.132576 140.0
61.338165 148.0
61.3787 140.0
61.56284 204.0
61.678455 132.0
61.805134 104.0
62.104362 168.0
62.214207 88.0
62.418461 168.0
62.465645 180.0
62.675037 120.0
62.816933 128.0
62.892673 96.0
63.052982 228.0
63.5415 104.0
63.999252 28.0
64.757812 112.0
64.853951 132.0
65.232704 188.0
65.282616 140.0
65.469299 88.0
65.53212 148.0
65.57402 140.0
65.812775 140.0
66.596588 112.0
66.920212 248.0
66.970695 160.0
67.030891 160.0
67.176079 176.0
67.19239 152.0
67.49456 128.0
67.700745 88.0
67.762993 96.0
67.84166 100.0
68.556656 92.0
68.791847 156.0
68.795753 92.0
68.80143 152.0
68.870682 108.0
69.270432 200.0
69.283684 188.0
69.40136 56.0
69.580551 160.0
69.720078 52.0
69.796547 132.0
69.887398 240.0
69.931305 28.0
70.017876 168.0
70.132843 180.0
70.516731 180.0
70.603668 144.0
70.786079 140.0
70.817902 76.0
71.019676 136.0
71.050911 60.0
71.422165 188.0
71.497871 132.0
72.067848 116.0
72.456985 208.0
72.546806 188.0
72.65535 200.0
72.728317 44.0
73.012054 176.0
73.628998 152.0
73.767403 180.0
73.889633 252.0
74.210815 140.0
74.712318 168.0
74.853455 232.0
74.943024 144.0
75.244858 176.0
75.262123 132.0
75.329483 108.0
75.495407 76.0
75.616508 208.0
75.763695 164.0
75.824341 136.0
75.943977 200.0
76.10363 164.0
76.634132 180.0
76.771835 192.0
76.826416 208.0
76.949821 200.0
77.180458 148.0
77.252167 72.0
77.283661 160.0
77.892006 152.0
78.169792 48.0
78.534477 156.0
78.560944 84.0
78.942451 152.0
79.032669 56.0
79.202621 184.0
79.541306 136.0
79.653175 204.0
79.686928 156.0
79.800674 220.0
79.998154 152.0
80.037323 44.0
80.236877 124.0
80.568832 144.0
80.71003 160.0
81.191742 156.0
81.469955 100.0
81.647903 176.0
81.881874 152.0
81.91069 164.0
81.930504 204.0
82.056664 148.0
82.271355 184.0
82.515251 160.0
82.623764 136.0
82.649094 160.0
82.697952 216.0
82.824699 56.0
82.947922 128.0
83.240021 180.0
83.358101 148.0
83.645462 148.0
83.741966 136.0
83.83252 48.0
83.913948 148.0
84.117584 160.0
84.141319 144.0
84.477577 116.0
85.038284 164.0
85.236626 208.0
85.348755 136.0
85.367142 216.0
85.433357 108.0
85.462791 176.0
85.838562 128.0
86.00705 208.0
86.018066 96.0
86.211456 188.0
86.777878 120.0
86.891014 172.0
87.167671 88.0
87.320114 188.0
87.444771 136.0
87.555763 220.0
87.578827 124.0
87.76844 140.0
87.821136 200.0
88.048836 192.0
88.913788 172.0
89.0383 392.0
89.193642 160.0
89.359131 160.0
89.643456 136.0
89.698112 124.0
89.767876 204.0
89.926346 156.0
89.981087 116.0
90.425316 256.0
90.588158 144.0
90.690475 200.0
92.358459 180.0
92.471352 208.0
92.484749 120.0
92.628357 88.0
92.710747 72.0
92.791252 64.0
92.898651 160.0
93.301941 188.0
93.32309 208.0
93.58284 176.0
93.669502 92.0
93.80439 212.0
93.852592 148.0
94.031158 148.0
94.426132 192.0
94.538338 128.0
94.857918 140.0
95.135323 144.0
95.148911 168.0
95.251839 156.0
95.352875 280.0
95.551216 192.0
95.648514 116.0
95.925125 220.0
96.007011 192.0
96.065529 148.0
96.209938 144.0
96.288048 140.0
96.313438 212.0
96.329063 180.0
96.356415 196.0
96.551888 44.0
96.984581 212.0
97.064957 156.0
97.237595 172.0
97.271515 156.0
97.542046 184.0
97.752487 92.0
97.778069 144.0
97.986801 200.0
98.091248 188.0
98.562935 152.0
98.723053 148.0
98.999374 548.0
99.271599 60.0
99.432297 160.0
99.762024 148.0
99.809738 180.0
99.823654 160.0
99.974846 184.0
100.001572 196.0
100.04451 208.0
100.114197 80.0
100.494926 120.0
100.818413 68.0
100.9944 388.0
101.292603 156.0
101.400803 32.0
101.497025 144.0
102.006981 116.0
102.083382 216.0
102.314766 128.0
102.403366 172.0
102.43972 168.0
102.520218 176.0
102.671417 116.0
102.758156 172.0
103.346107 160.0
103.439209 132.0
103.512093 116.0
103.690369 168.0
103.836342 152.0
104.372459 212.0
104.429398 184.0
105.237091 136.0
105.305817 36.0
105.454964 220.0
105.585815 112.0
105.769958 56.0
105.786339 136.0
105.836128 212.0
105.933777 136.0
106.116173 132.0
106.619087 128.0
106.820587 112.0
106.948158 144.0
107.016098 108.0
107.201485 212.0
107.215912 120.0
107.230331 184.0
107.438599 196.0
107.475739 220.0
107.614029 272.0
107.684235 220.0
107.775131 184.0
107.795799 52.0
108.04805 164.0
108.723549 132.0
108.976883 124.0
109.361603 148.0
109.413643 132.0
109.463615 196.0
109.578178 208.0
110.310692 140.0
110.645409 164.0
110.687286 156.0
110.934509 104.0
110.953377 164.0
111.173615 128.0
111.25338 212.0
111.282768 136.0
111.339462 180.0
111.476013 164.0
111.705185 100.0
112.337151 220.0
112.645355 124.0
112.700279 32.0
112.823967 184.0
113.083046 68.0
113.324455 168.0
113.392265 84.0
113.411346 188.0
113.49614 96.0
113.725258 184.0
113.810173 92.0
114.049942 172.0
114.514076 152.0
114.771935 160.0
114.806053 172.0
114.895638 148.0
114.910568 68.0
115.594322 120.0
115.654243 132.0
115.776283 180.0
115.814835 152.0
115.898384 44.0
115.936951 88.0
115.986252 184.0
116.353081 140.0
116.591507 200.0
116.729088 144.0
116.944221 168.0
117.01741 92.0
117.187561 140.0
117.534706 196.0
117.692276 116.0
117.921265 48.0
117.936394 96.0
118.096397 176.0
118.594391 108.0
118.722305 160.0
119.032623 124.0
119.330299 200.0
119.52121 224.0
120.280128 136.0
120.524727 196.0
120.730209 112.0
121.165794 124.0
121.41568 100.0
121.61248 216.0
122.208679 176.0
122.406784 156.0
122.580803 192.0
122.602844 132.0
122.67778 108.0
122.878471 232.0
122.999313 6684.0
123.026657 192.0
123.070496 144.0
123.351067 60.0
123.439507 168.0
123.636391 184.0
123.871086 128.0
124.006111 2844.0
124.123741 36.0
124.494324 236.0
124.52224 148.0
124.772072 104.0
124.901054 144.0
124.922539 140.0
124.996773 1316.0
125.079063 228.0
125.139175 112.0
125.154755 188.0
125.177025 204.0
125.580399 120.0
125.665169 80.0
125.843727 244.0
126.002617 440.0
126.067101 120.0
126.093918 48.0
126.14756 80.0
126.257843 112.0
126.438332 148.0
126.57489 180.0
126.902023 104.0
127.011909 216.0
127.030884 228.0
127.249786 148.0
127.546326 120.0
127.888214 152.0
128.014297 144.0
128.264374 144.0
128.329758 208.0
128.661407 116.0
129.425598 92.0
129.527512 172.0
129.71785 192.0
129.810822 84.0
130.642105 160.0
130.842361 160.0
131.104309 152.0
131.46463 144.0
131.49202 116.0
131.590179 208.0
131.644974 188.0
131.756897 84.0
132.147842 116.0
132.358429 164.0
132.488983 60.0
132.617294 192.0
132.649384 128.0
132.731918 176.0
132.959976 1196.0
133.04895 136.0
133.073807 112.0
133.188629 200.0
133.216187 208.0
133.420731 252.0
133.560989 120.0
133.964951 164.0
134.058762 160.0
134.812912 88.0
134.836014 132.0
134.870697 36.0
134.896118 152.0
134.95639 608.0
134.977036 144.0
135.639175 192.0
135.970856 176.0
136.409836 128.0
136.5354 200.0
136.705215 76.0
136.798325 144.0
136.833237 160.0
136.949677 156.0
137.22699 28.0
137.296936 164.0
137.609619 140.0
137.731064 188.0
137.994553 276.0
138.140121 156.0
139.093842 72.0
139.300156 212.0
139.620148 144.0
139.700119 116.0
139.791885 168.0
140.026001 184.0
140.053207 112.0
140.126236 180.0
140.241699 212.0
140.550644 180.0
140.614365 156.0
140.909531 116.0
141.030045 144.0
141.046585 176.0
141.129333 196.0
141.396637 260.0
141.44162 160.0
141.645248 144.0
141.837189 92.0
141.913055 68.0
142.003159 88.0
142.128799 108.0
142.137375 104.0
142.15654 184.0
142.299789 144.0
142.625244 56.0
142.727463 64.0
142.905853 152.0
143.022751 224.0
143.122925 184.0
143.248367 184.0
143.565674 108.0
143.739822 192.0
144.430267 172.0
144.451782 188.0
144.468536 200.0
144.729401 152.0
145.019272 36.0
145.29744 152.0
145.35022 104.0
145.520645 180.0
145.691162 176.0
145.979584 76.0
146.422394 64.0
146.477783 176.0
146.701889 244.0
146.742874 252.0
146.856216 208.0
147.11441 176.0
147.162689 92.0
147.208572 56.0
147.84436 92.0
147.914551 136.0
148.72171 168.0
148.777542 176.0
148.872238 40.0
149.360748 168.0
149.889053 208.0
150.362137 120.0
150.418289 180.0
150.603851 220.0
150.767548 156.0
150.911774 136.0
151.07074 216.0
151.134354 88.0
151.200424 128.0
151.303223 124.0
151.374237 72.0
151.491791 92.0
152.414291 148.0
152.81752 196.0
153.016876 124.0
153.236084 136.0
153.512146 76.0
153.803268 144.0
154.097137 204.0
154.119385 128.0
154.527344 156.0
154.643646 196.0
154.802094 152.0
155.077087 72.0
155.243195 116.0
155.357285 192.0
155.521057 144.0
155.615387 84.0
156.000473 248.0
156.598877 188.0
156.864273 248.0
156.889191 160.0
156.954025 68.0
156.993912 272.0
157.210953 64.0
157.263367 112.0
157.290817 176.0
157.390686 128.0
157.470596 200.0
157.503067 128.0
157.652527 156.0
157.780441 156.0
157.995743 184.0
158.033051 80.0
158.224518 64.0
158.310898 116.0
158.463699 116.0
158.526337 104.0
158.563934 52.0
158.616562 92.0
158.636612 240.0
158.711823 192.0
158.73439 100.0
158.789566 140.0
158.809631 152.0
158.844742 196.0
158.874847 56.0
158.899353 440.0
158.91713 220.0
158.93399 336.0
158.93924 284.0
158.94455 72.0
158.976273 53072.0
159.04837 172.0
159.080505 76.0
159.162048 84.0
159.183426 72.0
159.218323 124.0
159.254333 204.0
159.275742 120.0
159.306198 92.0
159.341812 88.0
159.385452 88.0
159.460297 80.0
159.510727 92.0
159.543549 44.0
159.58812 56.0
159.754532 48.0
159.793289 188.0
159.912628 60.0
159.979248 2960.0
160.020874 184.0
160.041016 60.0
160.086349 160.0
160.207245 172.0
160.285339 108.0
160.426483 160.0
160.497223 68.0
160.597946 140.0
160.67868 80.0
160.706421 260.0
160.725189 156.0
160.798996 128.0
160.895721 196.0
160.917816 196.0
160.923141 148.0
160.934845 176.0
160.940399 236.0
160.973694 31936.0
161.01944 220.0
161.059097 152.0
161.096939 112.0
161.11795 128.0
161.152115 148.0
161.183197 148.0
161.233093 92.0
161.245819 152.0
161.255417 252.0
161.273651 128.0
161.291412 112.0
161.340347 96.0
161.363098 68.0
161.386841 52.0
161.430023 60.0
161.457932 56.0
161.497131 48.0
161.560364 48.0
161.603378 40.0
161.684357 60.0
161.76178 88.0
161.780533 52.0
161.861557 40.0
161.932465 36.0
161.977722 756.0
162.033783 176.0
162.09967 80.0
162.125015 52.0
162.183304 120.0
162.327805 56.0
162.358246 44.0
162.520584 48.0
162.736328 40.0
162.873459 68.0
162.985672 96.0
163.020828 96.0
163.130112 112.0
163.153 88.0
163.22673 128.0
163.262329 140.0
163.351349 108.0
163.557465 76.0
163.988785 164.0
164.240341 36.0
164.549118 56.0
164.707443 32.0
164.876068 44.0
165.32106 96.0
165.57962 68.0
166.08197 176.0
167.091537 60.0
167.524033 100.0
167.660599 32.0
168.202225 80.0
168.240952 60.0
169.218201 100.0
169.578262 112.0
169.884247 136.0
170.497009 88.0
170.671173 56.0
171.20462 64.0
172.33934 32.0
174.407028 88.0
174.706802 100.0
175.383545 88.0
178.127533 48.0
180.258942 100.0
180.603821 116.0
181.082916 176.0
183.008347 120.0
184.681488 180.0
185.903351 48.0
189.620529 108.0
197.682632 40.0
199.531052 140.0
203.996704 1444.0
204.931259 36.0
205.993744 792.0
207.552307 44.0
207.583847 88.0
214.811768 84.0
215.997742 124.0
223.060196 176.0
224.003494 124.0
226.144394 204.0
229.834778 92.0
229.883057 92.0
234.337387 48.0
237.648651 72.0
241.143829 76.0
243.529541 64.0
246.014389 148.0
246.351654 48.0
248.016357 140.0
267.456055 32.0
273.946259 120.0
280.374268 100.0
282.183472 40.0
288.771118 68.0
293.661987 36.0
307.438751 56.0
328.250519 136.0
384.396362 88.0
398.437469 188.0
399.83313 92.0
406.298309 92.0
406.607269 80.0
412.491913 40.0
424.802185 60.0
514.619019 84.0
516.15979 76.0
541.185608 60.0
555.807739 76.0
569.45105 68.0
599.556213 84.0
621.354675 72.0
631.276733 112.0
662.215881 56.0
663.250854 92.0
668.252747 64.0
755.026978 156.0
787.241638 60.0
855.604248 104.0
863.727356 64.0
868.454224 236.0
872.282654 124.0
895.936157 132.0
901.825806 156.0
943.678955 68.0
943.789001 260.0
946.156738 100.0
949.07312 248.0
951.281738 92.0
958.742554 240.0
966.875977 128.0
973.360229 176.0
997.985657 96.0
999.161804 136.0
1001.26416 188.0
1019.083862 36.0
1023.892883 212.0
1027.628296 140.0
1029.160156 128.0
1033.634521 124.0
1035.132324 216.0
1044.078125 176.0
1052.506958 144.0
1053.540283 176.0
1054.438477 172.0
1060.379761 180.0
1071.087646 212.0
1076.585693 104.0
1077.121338 112.0
1080.363647 140.0
1083.02124 180.0
1096.813232 140.0
1099.154541 168.0
1103.566772 104.0
1105.802734 184.0
1108.001099 172.0
1118.500122 68.0
1119.38562 156.0
1126.802612 184.0
1129.021851 136.0
1133.051392 164.0
1138.981445 180.0
1162.218872 148.0
1163.481201 192.0
1167.741821 116.0
1172.712036 268.0
1179.038818 104.0
1194.727173 156.0
1196.819458 152.0
1199.678589 172.0
1204.571167 216.0
1207.833862 148.0
1215.371338 112.0
1222.674805 152.0
1227.67688 148.0
1228.820801 128.0
1229.909424 188.0
1232.074219 244.0
1237.270386 136.0
1240.962524 200.0
1243.410767 120.0
1247.892456 176.0
1261.958374 224.0
1270.379028 168.0
1273.310547 128.0
1273.900146 156.0
1274.212646 168.0
1281.733276 160.0
1282.602783 92.0
1283.080444 188.0
1284.956055 164.0
1288.633057 164.0
1291.392334 72.0
1297.349976 208.0
1301.130737 152.0
1311.165039 140.0
1321.216309 120.0
1330.754028 92.0
1331.421997 144.0
1331.487427 216.0
1332.838623 112.0
1335.433838 144.0
1339.284302 164.0
1344.241821 140.0
1349.76416 108.0
1350.407715 172.0
1350.981812 240.0
1354.924194 176.0
1356.353149 164.0
1358.905273 108.0
1361.937134 108.0
1367.245483 120.0
1368.032959 164.0
1368.960693 160.0
1370.190796 160.0
1370.382324 104.0
1370.802368 144.0
1371.775269 188.0
1373.508057 244.0
1377.07312 108.0
1378.543335 192.0
1385.231812 128.0
1386.750732 156.0
1388.641357 240.0
1392.240845 148.0
1392.649292 104.0
1393.979126 112.0
1397.429321 84.0
1399.453735 168.0
1399.937744 96.0
1400.824097 80.0
1401.569092 192.0
1402.470825 68.0
1405.51355 160.0
1406.170288 208.0
1406.849609 196.0
1408.656738 128.0
1411.235107 124.0
1421.361938 60.0
1421.471802 200.0
1422.863037 100.0
1425.9729 96.0
1426.408813 80.0
1439.186157 148.0
1441.036621 124.0
1442.721924 80.0
1445.845825 212.0
1447.405273 120.0
1447.692993 92.0
1454.061157 160.0
1455.047974 180.0
1456.733887 120.0
1457.022583 36.0
1460.557495 148.0
1464.561157 108.0
1465.513428 136.0
1468.631348 200.0
1469.266357 180.0
1469.562134 40.0
1473.119751 100.0
1473.578125 144.0
1475.198242 216.0
1476.352783 156.0
1481.986694 176.0
1484.140503 144.0
1486.119385 44.0
1487.846313 184.0
1490.380859 156.0
1490.872559 176.0
1496.472534 128.0
1499.823608 176.0
1500.463379 112.0
1502.067505 200.0
1504.467407 76.0
