>compound MLS001159079-01!N-[2-(1H-indol-3-yl)ethyl]-2-(3,4,8-trimethyl-2-oxochromen-7-yl)oxyacetamide
>formula C24H24N2O4
>ionization [M+H]+
>parentmass 405.181
#inchi InChI=1S/C24H24N2O4/c1-14-15(2)24(28)30-23-16(3)21(9-8-18(14)23)29-13-22(27)25-11-10-17-12-26-20-7-5-4-6-19(17)20/h4-9,12,26H,10-11,13H2,1-3H3,(H,25,27)
#inchikey FDYQXCORWIBLAG
#Ion_Source LC-ESI
#Instrument qTof
#Compound_Source NIH Natural Product Library
#PI Dorrestein
#Data_Collector VVP/LMS
#Scan -1
#Precursor_MZ 405.181
#ExactMass 404.174
#Charge 1
#CAS_Number N/A
#Pubmed_ID N/A
#Smiles Cc1c(C)c2ccc(OCC(=O)NCCc3c[nH]c4ccccc34)c(C)c2oc1=O
#INCHI_AUX N/A
#Library_Class 1
#SpectrumID CCMSLIB00000079998
#IonMode Positive
#UpdateWorkflowName UPDATE-SINGLE-ANNOTATED-GOLD
#LibraryQualityString Gold
#TaskID b1d8e8f6646f4e71acdff9ca3d919d08
##Scan# 2235
#SpectrumFile p2-G02_GG2_01_18050.mzXML
#LibraryName NIH_Natural_Products_Library.mgf
#MQScore -1
#Organism NIH_Natural_Products_Library
#TIC_Query 0
#RT_Query -1
#MZErrorPPM -1
#SharedPeaks 0
#MassDiff 0
#LibMZ -1
#SpecMZ 405.181
#SpecCharge 0
#internalFilename spec-00000.mgf

>collision 10
95.158951 204.0
95.249199 168.0
95.268623 148.0
95.536903 176.0
95.560249 152.0
95.626999 172.0
95.986824 152.0
96.092873 184.0
96.141495 224.0
96.248299 192.0
96.293221 220.0
96.404579 140.0
96.439758 52.0
96.523819 164.0
96.833031 132.0
96.879135 220.0
97.027023 224.0
97.054474 188.0
97.079964 148.0
97.234955 180.0
97.327217 172.0
97.415878 168.0
97.431313 128.0
97.525642 212.0
97.555122 144.0
97.580681 176.0
97.667213 216.0
97.781334 104.0
97.83448 112.0
97.88961 168.0
97.969986 188.0
98.007797 184.0
98.0886 192.0
98.138977 160.0
98.246361 180.0
98.325294 192.0
98.502998 136.0
98.730301 272.0
98.904411 100.0
98.930145 208.0
98.944 120.0
98.983604 80.0
99.074715 108.0
99.104431 184.0
99.132172 188.0
99.266975 124.0
99.403847 188.0
99.467361 68.0
99.50927 148.0
99.667953 136.0
99.723595 108.0
99.745461 140.0
99.8946 140.0
99.93425 168.0
99.982147 152.0
100.029922 160.0
100.278908 196.0
100.374596 180.0
100.392548 120.0
100.578094 136.0
100.89772 124.0
100.94371 148.0
100.961708 92.0
101.039719 156.0
101.143784 156.0
101.606705 72.0
101.640808 172.0
101.915901 164.0
101.947655 20.0
102.046356 156.0
102.124977 172.0
102.312126 180.0
102.414825 220.0
102.44725 204.0
102.513542 220.0
102.900826 184.0
102.955345 100.0
103.026047 152.0
103.054398 1068.0
103.088356 172.0
103.127083 92.0
103.440613 160.0
103.639084 112.0
103.665428 148.0
103.697853 164.0
103.734535 168.0
103.748528 208.0
103.774887 176.0
103.797195 208.0
103.840042 156.0
103.878319 156.0
103.918892 108.0
103.983833 96.0
104.028488 220.0
104.052124 292.0
104.166573 192.0
104.20314 172.0
104.247849 164.0
104.308823 108.0
104.447098 160.0
104.479645 144.0
104.627449 256.0
104.721886 160.0
104.791145 164.0
104.891006 180.0
105.015388 76.0
105.049965 168.0
105.070908 744.0
105.120613 76.0
105.450279 172.0
105.628174 116.0
105.679314 56.0
105.781647 196.0
105.800072 120.0
105.9086 100.0
106.07048 136.0
106.232101 196.0
106.390503 176.0
106.474686 144.0
106.673996 168.0
106.704834 160.0
106.729507 168.0
106.840569 140.0
106.867317 160.0
107.047928 292.0
107.085785 164.0
107.132904 256.0
107.161751 124.0
107.213264 180.0
107.479286 356.0
107.536697 112.0
107.603127 208.0
107.68779 204.0
107.755959 200.0
107.826218 96.0
107.877899 152.0
107.910973 48.0
108.057823 188.0
108.092995 164.0
108.175789 212.0
108.210983 136.0
108.281387 116.0
108.318672 176.0
108.333374 208.0
108.360107 208.0
108.416054 172.0
108.46994 184.0
108.548729 120.0
108.580986 144.0
108.613022 200.0
108.843391 152.0
108.901535 120.0
109.063431 196.0
109.101028 164.0
109.179718 156.0
109.329826 200.0
109.394356 212.0
109.744362 72.0
109.765213 88.0
109.955055 148.0
110.126259 140.0
110.157593 144.0
110.34568 76.0
110.425148 164.0
110.471169 40.0
110.485809 76.0
110.615555 200.0
110.906723 64.0
110.996872 260.0
111.072372 144.0
111.347336 216.0
111.366234 256.0
111.393539 196.0
111.833015 144.0
111.894066 192.0
112.355621 172.0
112.554016 188.0
112.672302 112.0
112.775848 116.0
112.923851 100.0
112.997887 156.0
113.027512 220.0
113.15239 172.0
113.192619 128.0
113.456306 124.0
113.601677 148.0
113.635628 176.0
113.850021 168.0
113.864883 128.0
113.962601 156.0
114.234924 180.0
114.264519 212.0
114.364532 184.0
114.396461 176.0
114.556183 180.0
114.624359 132.0
114.767174 112.0
114.946358 88.0
114.969826 160.0
114.989037 112.0
115.053986 3468.0
115.087234 88.0
115.10218 176.0
115.130875 92.0
115.155571 92.0
115.183342 228.0
115.258118 36.0
115.290169 124.0
115.371391 48.0
115.598114 68.0
115.741539 184.0
115.833633 236.0
115.891479 176.0
115.919983 192.0
115.992203 208.0
116.06134 880.0
116.084351 184.0
116.112274 180.0
116.129433 124.0
116.262451 60.0
116.391251 196.0
116.51368 116.0
116.535164 52.0
116.584587 192.0
116.651222 140.0
116.678604 76.0
116.743675 68.0
116.763031 108.0
116.784218 216.0
116.842621 60.0
117.069008 7280.0
117.098778 216.0
117.187103 160.0
117.254532 248.0
117.301994 64.0
117.319229 184.0
117.387566 176.0
117.480309 100.0
117.508362 180.0
117.601151 148.0
117.629211 40.0
117.879753 112.0
118.070419 1116.0
118.130554 52.0
118.214935 56.0
118.234413 88.0
118.261513 100.0
118.392456 32.0
118.454231 192.0
118.609123 216.0
118.704514 88.0
118.782593 184.0
118.834663 72.0
118.888908 196.0
118.925804 132.0
119.023499 132.0
119.053902 140.0
119.337982 180.0
119.460358 180.0
119.50959 184.0
119.693237 264.0
119.710663 76.0
119.823929 128.0
119.911087 216.0
120.07296 224.0
120.129143 108.0
120.155319 148.0
120.253517 196.0
120.275345 328.0
120.382324 144.0
120.686058 100.0
120.70137 136.0
120.736359 148.0
120.881721 152.0
121.031784 136.0
121.063637 2252.0
121.101196 276.0
121.139099 144.0
121.164574 108.0
121.24646 64.0
121.424866 128.0
121.489853 148.0
121.511795 128.0
121.53154 220.0
121.573235 104.0
121.79847 68.0
121.9422 224.0
122.064285 128.0
122.201683 156.0
122.236893 180.0
122.263298 192.0
122.357948 256.0
122.421806 196.0
122.448235 172.0
122.59584 84.0
122.957527 156.0
123.036995 124.0
123.229141 132.0
123.494415 96.0
123.556358 156.0
123.627159 192.0
123.924866 144.0
124.07238 60.0
124.247581 172.0
124.267548 168.0
124.427353 192.0
124.591698 204.0
124.727257 180.0
124.862885 136.0
124.878456 124.0
125.30809 200.0
125.323685 140.0
125.346886 136.0
125.499771 180.0
125.530991 192.0
125.588982 164.0
125.649208 180.0
125.738297 160.0
125.809898 52.0
125.829987 72.0
125.867203 328.0
126.04351 172.0
126.147224 128.0
126.375343 216.0
126.411148 112.0
126.48053 140.0
126.59919 160.0
126.729111 128.0
126.744797 204.0
126.946541 212.0
126.968971 184.0
127.053291 2068.0
127.106506 188.0
127.170898 32.0
127.271919 116.0
127.521278 116.0
127.676414 48.0
127.70565 40.0
127.725891 176.0
127.750641 220.0
127.832092 160.0
128.051605 1540.0
128.137863 124.0
128.210754 224.0
128.284363 28.0
128.379059 152.0
128.433182 144.0
128.460251 164.0
128.500854 156.0
128.518906 116.0
128.665619 60.0
128.726578 60.0
128.827286 136.0
128.915665 188.0
129.013535 200.0
129.044342 204.0
129.068024 1492.0
129.11528 188.0
129.144684 136.0
129.198975 172.0
129.29628 72.0
129.351501 200.0
129.418518 60.0
129.694901 60.0
129.728912 60.0
129.826401 64.0
129.883102 136.0
130.012436 184.0
130.064667 1596.0
130.198593 236.0
130.246292 148.0
130.281342 168.0
130.453079 144.0
130.603165 156.0
130.664581 268.0
130.876251 96.0
131.003799 132.0
131.022018 164.0
131.046829 580.0
131.074829 664.0
131.126846 144.0
131.174713 224.0
131.354858 40.0
131.436981 40.0
131.455246 144.0
131.505447 72.0
131.717468 136.0
131.779037 240.0
131.809189 196.0
131.969193 168.0
132.047272 144.0
132.080429 836.0
132.117859 192.0
132.488739 156.0
132.504776 56.0
132.582672 140.0
132.708755 48.0
132.733978 172.0
132.786728 44.0
132.855545 180.0
132.903717 96.0
132.963379 156.0
133.050613 120.0
133.068085 132.0
133.085709 168.0
133.103577 280.0
133.172318 80.0
133.323959 168.0
133.39061 100.0
133.514771 140.0
134.071899 288.0
134.106476 148.0
134.644058 188.0
134.717972 88.0
135.0439 228.0
135.064713 180.0
135.504562 168.0
135.678391 48.0
135.738678 116.0
135.903366 172.0
135.94281 148.0
136.031006 156.0
136.063507 112.0
136.082092 208.0
136.207489 92.0
136.342255 144.0
136.391068 120.0
136.444534 152.0
136.497009 192.0
136.544525 116.0
136.565445 76.0
137.06366 112.0
137.133575 236.0
137.257126 188.0
137.656158 148.0
137.758926 200.0
137.807007 180.0
137.868744 112.0
138.158691 180.0
138.179749 192.0
138.198456 180.0
138.306107 132.0
138.336548 108.0
138.425522 140.0
138.495773 116.0
138.542633 104.0
138.636353 148.0
138.696198 112.0
138.75589 152.0
138.798096 224.0
138.866104 156.0
138.96933 64.0
139.175873 184.0
139.43428 244.0
139.692932 156.0
139.787048 128.0
139.89061 208.0
139.930634 160.0
139.954178 72.0
140.04689 348.0
140.149673 196.0
140.253372 112.0
140.340073 164.0
140.422012 168.0
140.550522 268.0
140.888626 180.0
140.921234 156.0
140.944855 144.0
140.968491 156.0
141.052383 228.0
141.072495 164.0
141.169434 156.0
141.209641 128.0
141.318451 156.0
141.368149 144.0
141.709122 136.0
141.787323 152.0
141.81813 176.0
141.879761 280.0
142.024414 180.0
142.065903 1636.0
142.216614 56.0
142.244034 160.0
142.373825 176.0
142.389938 148.0
142.463577 80.0
142.494461 172.0
142.560989 68.0
142.665573 104.0
142.691727 156.0
142.796356 140.0
142.813004 120.0
142.85582 196.0
142.881989 156.0
142.908157 144.0
142.927383 148.0
142.996216 176.0
143.023666 276.0
143.07309 16952.0
143.157745 212.0
143.179535 48.0
143.205734 160.0
143.249329 92.0
143.288086 140.0
143.320084 124.0
143.367737 68.0
143.395554 112.0
143.417801 204.0
143.436859 208.0
143.508575 204.0
143.546539 52.0
143.572006 212.0
143.642792 188.0
143.662933 140.0
143.681488 268.0
143.713074 176.0
143.742142 124.0
143.763626 164.0
143.782715 132.0
143.801804 84.0
143.844528 188.0
143.873734 148.0
143.911423 152.0
143.935944 188.0
143.970169 168.0
143.991974 296.0
144.01239 152.0
144.031158 460.0
144.081467 141128.0
144.143387 192.0
144.172058 200.0
144.212402 124.0
144.250946 196.0
144.284775 44.0
144.326553 172.0
144.34494 92.0
144.351883 32.0
144.361801 100.0
144.368958 72.0
144.397598 76.0
144.430862 132.0
144.447922 108.0
144.474213 696.0
144.514969 204.0
144.540268 136.0
144.555969 64.0
144.597702 20.0
144.624023 96.0
144.660355 92.0
144.697006 156.0
144.723373 112.0
144.760498 48.0
144.782043 56.0
144.803604 128.0
144.829941 40.0
144.860886 96.0
144.90239 264.0
144.924377 164.0
144.956924 40.0
145.084152 12660.0
145.149887 64.0
145.177475 72.0
145.197815 200.0
145.242828 188.0
145.268326 52.0
145.368179 56.0
145.395782 56.0
145.45459 40.0
145.484787 104.0
145.566238 60.0
145.599854 44.0
145.619064 136.0
145.683914 116.0
145.713593 92.0
145.758957 256.0
145.847931 192.0
145.865036 76.0
145.893005 84.0
145.909836 68.0
145.933868 100.0
145.989182 48.0
146.01973 136.0
146.080734 932.0
146.087646 1244.0
146.156601 88.0
146.182907 248.0
146.229279 140.0
146.25383 240.0
146.283875 108.0
146.306793 140.0
146.325012 100.0
146.350128 92.0
146.368515 88.0
146.403107 48.0
146.424774 80.0
146.451279 96.0
146.48259 112.0
146.562088 40.0
146.634384 96.0
146.672958 44.0
146.752502 60.0
146.875153 112.0
146.935806 256.0
147.041077 168.0
147.068466 132.0
147.096344 456.0
147.128891 104.0
147.196487 76.0
147.336578 108.0
147.403625 64.0
147.529922 64.0
147.554092 40.0
147.624222 56.0
148.047714 216.0
148.081619 132.0
148.263336 172.0
148.401505 88.0
148.758148 96.0
148.794922 188.0
148.952408 176.0
149.000992 140.0
149.095627 1060.0
149.188126 196.0
149.236755 96.0
149.312134 128.0
149.553009 132.0
149.64064 180.0
150.102554 500.0
150.21579 100.0
150.325592 56.0
150.596588 32.0
151.040085 176.0
151.101273 144.0
151.415939 68.0
151.638885 144.0
151.957672 76.0
152.117203 124.0
152.399628 168.0
152.451233 40.0
153.223862 84.0
153.253433 72.0
153.559113 92.0
153.929291 180.0
154.063019 184.0
154.087372 32.0
154.154099 76.0
154.215881 144.0
154.401306 72.0
154.418625 124.0
154.453247 108.0
155.062744 1960.0
155.240845 72.0
155.307816 68.0
155.359909 148.0
155.657745 96.0
155.687546 236.0
156.008072 108.0
156.032944 68.0
156.080475 1724.0
156.152298 144.0
156.229416 116.0
156.73732 72.0
156.916794 48.0
156.944214 44.0
157.086365 392.0
157.423325 60.0
157.730637 88.0
158.063171 304.0
158.084595 760.0
158.248489 116.0
158.268524 180.0
159.02562 68.0
159.080963 1720.0
159.126022 180.0
159.188797 32.0
159.276703 76.0
159.714081 112.0
159.985855 196.0
160.08168 432.0
160.177246 164.0
160.507401 88.0
161.057922 528.0
161.095383 876.0
161.295105 56.0
161.575806 156.0
162.067017 800.0
162.158218 48.0
162.203842 44.0
162.262146 48.0
162.353439 144.0
162.807709 148.0
163.065765 140.0
163.148193 84.0
163.260071 52.0
163.359268 52.0
164.018799 228.0
164.513687 52.0
164.539215 80.0
165.13205 56.0
165.667038 92.0
166.166641 160.0
166.626541 120.0
168.076141 56.0
168.158722 168.0
170.060211 348.0
170.843262 224.0
171.074875 204.0
171.093094 172.0
171.205063 52.0
171.674149 76.0
172.074249 472.0
173.083923 604.0
173.105927 704.0
173.203125 48.0
173.423218 40.0
173.968842 32.0
174.08699 152.0
174.10466 148.0
174.171036 80.0
174.260361 120.0
174.339188 208.0
174.391754 140.0
174.483749 60.0
174.752029 100.0
175.072784 684.0
175.879959 128.0
176.082138 1208.0
176.953247 136.0
177.089752 800.0
177.276413 216.0
177.406281 60.0
177.785583 192.0
178.090912 100.0
178.782166 188.0
179.083023 124.0
179.816238 132.0
179.842926 188.0
180.32637 48.0
182.086624 140.0
183.099121 140.0
183.122116 236.0
183.316086 56.0
183.615768 124.0
183.688156 32.0
183.863541 172.0
184.075287 648.0
184.103806 104.0
184.206451 40.0
184.376678 96.0
184.890518 76.0
185.006912 220.0
185.084076 2248.0
186.082428 188.0
186.659271 92.0
187.070114 128.0
188.073242 116.0
188.515686 32.0
188.567612 148.0
188.635941 52.0
189.049759 188.0
189.093674 860.0
189.152954 64.0
189.517197 84.0
190.097473 136.0
190.878677 156.0
191.68248 56.0
192.082245 28.0
192.58461 100.0
192.941086 60.0
193.054459 148.0
193.134659 164.0
193.995865 168.0
196.39006 116.0
197.001373 28.0
199.074051 268.0
200.548279 196.0
201.104828 140.0
202.061905 120.0
202.1185 144.0
203.07486 456.0
203.371124 148.0
203.845413 136.0
204.079559 780.0
204.115463 52.0
204.277573 176.0
204.539444 168.0
204.573532 88.0
204.772858 68.0
204.792801 100.0
204.875397 100.0
204.958023 368.0
205.020721 192.0
205.08667 17000.0
205.157532 32.0
205.17749 196.0
205.206009 72.0
205.33432 44.0
205.379959 76.0
205.462692 84.0
205.534012 36.0
205.568268 64.0
205.588242 44.0
205.659592 72.0
205.716675 84.0
205.793762 68.0
205.865158 44.0
206.089661 2664.0
206.285156 64.0
206.353775 116.0
206.390945 128.0
206.46991 52.0
206.602585 64.0
206.97467 60.0
207.020477 88.0
207.09285 320.0
207.454819 116.0
207.484665 44.0
207.676804 76.0
208.087158 280.0
209.372528 44.0
210.563644 80.0
215.062714 96.0
215.087402 152.0
215.131195 64.0
215.616058 124.0
215.803146 48.0
216.072235 164.0
216.104416 204.0
217.085587 2728.0
217.42601 84.0
217.605072 44.0
217.640305 48.0
217.716644 120.0
218.031326 36.0
218.090927 428.0
218.680984 80.0
218.772232 40.0
219.093231 240.0
219.331924 76.0
219.9189 84.0
220.752045 48.0
222.05513 80.0
224.139084 140.0
227.23378 76.0
228.101685 172.0
229.070648 120.0
229.112823 164.0
230.579315 96.0
230.815109 128.0
232.441772 60.0
242.123398 208.0
243.099945 56.0
244.090897 92.0
244.286835 80.0
245.079346 328.0
245.174225 104.0
246.085083 56.0
252.47673 164.0
255.983429 72.0
262.109253 1388.0
262.253296 28.0
263.0242 28.0
263.113495 292.0
265.094116 176.0
265.891907 84.0
271.844604 88.0
272.140045 208.0
272.701782 84.0
274.116943 400.0
275.109711 140.0
275.568787 76.0
278.567017 68.0
279.884033 52.0
283.250519 120.0
285.105957 100.0
287.13269 240.0
288.116302 256.0
289.887939 104.0
296.660492 48.0
297.106323 124.0
297.164642 196.0
297.367706 68.0
299.140778 164.0
300.364075 112.0
303.403778 28.0
303.913635 104.0
311.957031 44.0
312.878723 108.0
313.118195 136.0
315.127258 136.0
316.274689 100.0
322.152771 44.0
322.456482 88.0
322.692413 124.0
324.109802 96.0
331.609344 76.0
332.479767 64.0
333.907562 132.0
336.374329 108.0
337.141327 120.0
340.041931 68.0
341.636658 92.0
344.105896 40.0
351.858154 64.0
354.262848 48.0
354.768768 72.0
360.138519 116.0
363.906555 120.0
366.02063 104.0
369.145905 152.0
370.144287 168.0
371.15625 84.0
383.348633 48.0
384.659119 56.0
389.730835 116.0
390.257538 124.0
397.664612 100.0
397.767822 44.0
405.169403 148.0
420.169037 60.0
423.680878 132.0
436.513519 92.0
442.199768 88.0
452.445618 56.0
486.574738 76.0
492.237122 32.0
524.079468 44.0
542.227173 20.0
579.798889 76.0
603.094543 48.0
623.181824 108.0
627.506958 84.0
679.511414 64.0
689.854309 48.0
695.564148 168.0
697.565552 180.0
698.648804 112.0
726.304932 152.0
766.385803 176.0
775.071899 80.0
788.136902 92.0
789.422546 88.0
795.613892 48.0
800.578796 168.0
807.56012 144.0
810.753235 200.0
819.52124 128.0
825.211731 156.0
826.882019 204.0
844.042603 152.0
867.652832 184.0
868.250916 224.0
873.566528 96.0
877.017151 144.0
882.607788 196.0
883.157837 32.0
883.920959 228.0
895.312866 132.0
900.011841 152.0
902.0849 176.0
903.215088 168.0
909.170593 216.0
912.780884 160.0
916.814209 160.0
918.526489 48.0
918.846191 84.0
919.101196 76.0
921.122131 124.0
922.729614 196.0
932.100159 208.0
937.180908 224.0
937.753723 176.0
938.656006 68.0
939.699036 104.0
940.663269 224.0
944.390564 180.0
950.019897 40.0
951.099915 140.0
973.412292 144.0
977.75769 156.0
978.965454 172.0
979.538452 172.0
989.367676 128.0
989.774658 192.0
991.309326 108.0
1005.616882 64.0
1010.868591 212.0
1012.394226 236.0
1018.667053 68.0
1019.073608 208.0
1019.194336 196.0
1020.713501 120.0
1025.966187 156.0
1027.203369 164.0
1028.275269 124.0
1028.894531 136.0
1030.817017 240.0
1032.92041 196.0
1036.358276 176.0
1037.800415 132.0
1041.214355 96.0
1041.740967 148.0
1042.184326 184.0
1045.206421 120.0
1046.422852 192.0
1047.24707 100.0
1053.575195 72.0
1053.975708 128.0
1054.040283 84.0
1059.086548 232.0
1060.440674 188.0
1061.069458 136.0
1061.879028 140.0
1062.561157 148.0
1062.690918 184.0
1067.679565 132.0
1068.408081 148.0
1070.139282 260.0
1071.487549 292.0
1075.752563 228.0
1077.992798 224.0
1080.804565 84.0
1081.766602 176.0
1082.355835 212.0
1086.675171 88.0
1091.042725 48.0
1091.167603 104.0
1092.667114 224.0
1093.706787 164.0
1094.542969 152.0
1095.759644 232.0
1096.354492 184.0
1096.842163 184.0
1098.714966 72.0
1099.440796 184.0
1099.777466 220.0
1101.546997 44.0
1103.628784 88.0
1104.329834 144.0
1107.275024 148.0
1107.665771 148.0
1109.223022 220.0
1110.323608 160.0
1112.154785 192.0
1112.254395 176.0
1117.058716 124.0
1118.868774 164.0
1120.120728 188.0
1121.853271 56.0
1122.640015 148.0
1123.246948 176.0
1123.874146 148.0
1125.996948 48.0
1127.707275 180.0
1129.840332 208.0
1130.630005 180.0
1131.259155 148.0
1131.439819 140.0
1135.493774 152.0
1137.493286 204.0
1139.00415 116.0
1139.628906 120.0
1141.255493 144.0
1141.954834 140.0
1144.155273 220.0
1144.262939 144.0
1144.498657 108.0
1144.646729 152.0
1145.266357 124.0
1145.515625 172.0
1148.825439 168.0
1150.168335 172.0
1150.627319 212.0
1152.417114 184.0
1153.128052 220.0
1154.079834 240.0
1157.964111 160.0
1158.248657 168.0
1161.095337 184.0
1161.285156 216.0
1162.262085 100.0
1166.834961 204.0
1167.553833 160.0
1167.853149 148.0
1169.070923 60.0
1170.697876 176.0
1170.786499 156.0
1171.304077 140.0
1171.835449 160.0
1173.034912 212.0
1173.177979 100.0
1173.23938 224.0
1173.464355 148.0
1174.200806 132.0
1174.787476 152.0
1174.896606 68.0
1174.964844 160.0
1175.224121 160.0
1175.558472 180.0
1176.93042 156.0
1177.30603 136.0
1177.387939 176.0
1179.177979 216.0
1179.86145 184.0
1180.497314 168.0
1181.660156 144.0
1183.391724 132.0
1187.1604 152.0
1187.853149 172.0
1190.990112 236.0
1191.484741 92.0
1192.213013 200.0
1192.267944 48.0
1192.996582 200.0
1194.681396 104.0
1197.834229 132.0
1201.142944 92.0
1201.888062 80.0
1203.130371 200.0
1204.525269 128.0
1208.362061 168.0
1208.625 172.0
1209.199341 168.0
1209.78772 144.0
1211.955444 80.0
1213.383179 180.0
1213.736816 68.0
1214.284668 160.0
1215.468384 240.0
1215.588867 192.0
1218.908081 172.0
1222.842773 188.0
1224.974854 160.0
1225.560059 116.0
1226.312744 232.0
1226.96106 184.0
1228.941772 188.0
1230.051392 128.0
1231.838989 164.0
1234.746704 208.0
1235.054443 136.0
1236.362793 172.0
1236.6427 120.0
1237.713745 148.0
1237.986938 180.0
1239.885376 176.0
1241.329468 176.0
1242.353516 228.0
1243.069214 120.0
1244.655518 148.0
1245.786377 140.0
1246.973877 212.0
1247.93689 264.0
1248.30957 104.0
1248.675293 188.0
1249.092041 76.0
1250.553711 168.0
1251.370361 148.0
1251.637939 144.0
1253.250854 152.0
1255.0271 148.0
1256.571777 224.0
1257.072632 180.0
1257.263184 156.0
1257.326782 156.0
1258.025513 156.0
1258.858643 224.0
1259.049316 228.0
1264.485962 252.0
1264.719604 240.0
1265.878174 184.0
1267.035156 176.0
1267.297363 188.0
1268.863647 140.0
1269.23938 100.0
1270.21106 112.0
1271.041138 92.0
1271.374634 160.0
1272.412842 176.0
1272.836914 72.0
1273.270142 160.0
1273.534546 104.0
1273.767334 184.0
1274.818848 148.0
1275.359009 120.0
1276.553345 184.0
1277.015625 268.0
1277.342773 244.0
1278.189453 112.0
1279.627197 140.0
1279.961914 156.0
1281.479004 84.0
1281.899414 52.0
1282.619263 176.0
1282.911499 112.0
1287.235229 156.0
1288.049316 84.0
1288.62085 124.0
1288.74231 140.0
1290.307495 208.0
1290.457642 192.0
1290.686523 144.0
1294.078003 44.0
1297.265991 132.0
1298.255493 112.0
1299.718872 100.0
1300.063232 120.0
1300.458008 148.0
1300.953247 112.0
1302.446899 188.0
1302.60498 124.0
1303.064697 148.0
1304.918945 184.0
1305.479858 120.0
1307.033569 220.0
1308.005249 112.0
1312.702637 148.0
1313.099243 144.0
1315.06897 208.0
1315.530884 172.0
1316.281738 96.0
1317.177246 196.0
1318.138794 184.0
1318.362183 120.0
1318.578979 116.0
1318.629639 100.0
1319.207886 164.0
1320.249023 108.0
1320.690186 176.0
1321.203735 168.0
1323.679077 156.0
1324.381592 160.0
1325.685669 84.0
1326.446655 60.0
1326.707642 164.0
1327.222412 116.0
1327.77356 80.0
1329.681641 200.0
1329.768677 132.0
1329.906616 196.0
1330.930176 200.0
1331.641846 172.0
1332.464233 176.0
1333.92334 148.0
1334.003418 148.0
1334.643188 160.0
1334.854004 160.0
1335.530396 152.0
1336.265137 168.0
1336.708984 128.0
1337.531372 152.0
1337.982666 144.0
1338.11377 176.0
1338.652588 184.0
1338.768311 212.0
1339.504639 72.0
1340.28418 196.0
1341.858521 156.0
1342.142944 136.0
1342.609619 180.0
1344.236328 160.0
1345.776489 96.0
1347.054565 136.0
1349.612427 76.0
1349.781616 152.0
1350.255981 136.0
1350.621704 192.0
1350.936157 172.0
1354.178833 128.0
1354.830811 228.0
1355.67334 192.0
1355.881836 128.0
1356.846191 280.0
1357.06604 184.0
1357.491333 188.0
1357.711426 56.0
1357.968018 156.0
1359.860962 136.0
1361.329346 144.0
1361.520264 184.0
1363.173096 176.0
1364.319702 176.0
1364.554932 192.0
1364.606445 76.0
1364.724121 208.0
1364.981445 180.0
1365.290283 180.0
1365.452026 264.0
1367.12207 216.0
1368.167236 140.0
1368.483887 48.0
1369.55896 160.0
1370.774536 208.0
1371.120972 136.0
1371.541016 176.0
1371.725342 52.0
1372.351929 196.0
1372.99353 80.0
1375.088745 164.0
1375.69397 196.0
1377.806152 136.0
1378.641113 132.0
1381.291382 172.0
1383.544922 188.0
1383.76709 136.0
1384.981567 120.0
1385.108643 172.0
1385.322266 116.0
1385.759399 196.0
1385.900269 240.0
1387.241577 128.0
1388.146118 196.0
1388.761719 108.0
1389.088013 72.0
1389.458984 52.0
1389.666748 164.0
1392.970337 136.0
1393.252563 172.0
1393.461792 132.0
1393.638916 112.0
1394.092163 132.0
1394.500977 232.0
1398.755493 212.0
1399.060669 144.0
1399.172363 184.0
1399.790405 220.0
1400.430786 164.0
1402.002808 56.0
1402.651245 124.0
1402.942017 160.0
1403.680176 164.0
1404.164795 188.0
1404.731689 184.0
1407.859009 168.0
1408.247437 200.0
1408.493896 144.0
1408.57605 96.0
1409.584595 168.0
1409.636963 220.0
1410.503906 92.0
1411.331543 192.0
1411.401001 108.0
1412.807129 152.0
1415.823486 232.0
1415.875977 148.0
1416.662476 184.0
1417.366699 200.0
1418.228516 96.0
1419.315552 132.0
1421.025635 184.0
1421.393311 212.0
1423.269897 168.0
1423.45752 164.0
1423.585205 180.0
1423.74292 208.0
1423.998291 188.0
1425.252808 200.0
1425.590942 208.0
1426.124512 168.0
1428.35022 148.0
1428.568359 84.0
1429.049805 152.0
1429.305664 196.0
1429.53894 140.0
1430.524902 224.0
1431.571411 156.0
1432.08728 204.0
1432.588257 44.0
1433.093018 168.0
1433.416992 144.0
1433.816406 180.0
1434.683228 144.0
1434.826538 156.0
1434.894287 188.0
1436.093262 176.0
1436.75708 136.0
1437.511597 208.0
1437.572021 124.0
1439.700806 144.0
1440.388184 92.0
1443.116333 180.0
1443.2146 208.0
1443.931519 184.0
1444.454834 132.0
1444.757446 152.0
1444.848267 156.0
1445.536743 140.0
1447.838135 136.0
1447.936523 176.0
1449.057617 216.0
1450.315552 164.0
1450.914429 100.0
1451.065186 184.0
1451.369385 120.0
1452.787598 208.0
1452.88623 144.0
1453.735962 136.0
1454.320435 152.0
1454.715088 168.0
1455.967896 148.0
1456.871826 240.0
1457.631592 84.0
1458.743652 232.0
1458.824829 220.0
1459.501465 124.0
1459.790405 60.0
1460.026123 184.0
1461.129028 56.0
1462.034546 148.0
1462.177002 132.0
1462.871826 148.0
1463.001221 124.0
1464.684082 180.0
1465.689697 144.0
1465.986938 152.0
1467.404663 160.0
1468.11377 160.0
1468.388306 160.0
1469.212158 160.0
1469.860718 120.0
1470.356689 156.0
1470.570435 140.0
1470.692505 216.0
1470.784058 184.0
1470.845215 132.0
1470.936768 384.0
1471.76123 60.0
1471.990356 152.0
1472.40271 164.0
1472.807495 76.0
1472.998535 188.0
1473.326904 144.0
1474.290161 188.0
1474.687134 204.0
1474.76355 44.0
1475.275635 220.0
1476.483765 136.0
1476.651978 260.0
1476.766724 112.0
1477.416992 92.0
1477.853027 160.0
1477.944824 172.0
1478.633545 168.0
1479.069824 156.0
1479.353027 120.0
1481.788452 200.0
1482.01062 168.0
1482.313477 128.0
1482.493286 132.0
1483.796387 180.0
1484.103027 136.0
1484.808594 100.0
1485.759644 164.0
1485.845093 204.0
1487.187012 44.0
1488.2771 80.0
1488.591919 160.0
1489.275391 140.0
1490.381592 156.0
1490.952271 136.0
1491.718872 160.0
1492.356934 200.0
1492.795288 204.0
1493.810547 180.0
1494.333618 120.0
1495.141602 184.0
1495.541748 208.0
1495.857422 180.0
1496.527222 208.0
1497.28186 164.0
1498.475708 160.0
1500.464111 200.0
1500.703125 180.0
1500.872803 176.0
1501.852173 176.0
1502.214722 180.0
1502.731689 264.0
1503.310303 56.0
1503.565063 164.0
1503.734741 156.0
