>compound MLS000069761-01!ALPHA-METHYL-P-[1-OXO-2-ISOINDOLINYL]-BENZENEACETIC ACID
>formula C17H15NO3
>ionization [M+H]+
>parentmass 282.1124697920905
#inchi InChI=1S/C17H15NO3/c1-11(17(20)21)12-6-8-14(9-7-12)18-10-13-4-2-3-5-15(13)16(18)19/h2-9,11H,10H2,1H3,(H,20,21)
#inchikey RJMIEHBSYVWVIN
#Ion_Source LC-ESI
#Instrument qTof
#Compound_Source NIH Pharmacologically Active Library
#PI Dorrestein
#Data_Collector VP/LMS
#Scan -1
#Precursor_MZ 282.115
#ExactMass 281.105
#Charge 1
#CAS_Number N/A
#Pubmed_ID N/A
#Smiles CC(C(=O)O)c1ccc(cc1)N2Cc3ccccc3C2=O
#INCHI_AUX N/A
#Library_Class 1
#SpectrumID CCMSLIB00000084881
#IonMode Positive
#UpdateWorkflowName UPDATE-SINGLE-ANNOTATED-GOLD
#LibraryQualityString Gold
#TaskID d252d724072548979f1f6f1ced849daf
##Scan# 1883
#SpectrumFile p3-C02_GC2_01_18247.mzXML
#LibraryName Pharm_Active_Library.mgf
#MQScore -1
#Organism Pharm_Active_Library
#TIC_Query 0
#RT_Query -1
#MZErrorPPM -1
#SharedPeaks 0
#MassDiff 0
#LibMZ -1
#SpecMZ 282.115
#SpecCharge 0
#internalFilename spec-00000.mgf

>collision 10
45.005135 84.0
45.038521 84.0
45.118702 108.0
45.239105 140.0
45.299313 188.0
45.608002 156.0
45.998646 212.0
46.048603 72.0
46.152664 168.0
46.465542 116.0
47.795029 196.0
48.255726 180.0
48.275082 180.0
48.33432 92.0
48.534035 160.0
48.935463 172.0
49.323425 180.0
49.387749 128.0
49.98682 164.0
50.361839 132.0
50.583839 36.0
50.962509 176.0
51.070553 216.0
51.157356 196.0
51.645382 116.0
52.252197 164.0
52.538898 52.0
52.721039 140.0
52.826382 168.0
52.919006 164.0
52.943623 228.0
53.207531 232.0
53.603161 112.0
53.652718 100.0
53.843872 204.0
54.102688 164.0
54.335712 116.0
54.388542 116.0
54.642776 136.0
54.759071 116.0
55.059944 224.0
55.182594 192.0
55.750324 140.0
55.912426 96.0
55.922848 76.0
56.08073 140.0
56.112034 180.0
56.413605 156.0
56.446499 168.0
56.467438 164.0
56.59314 176.0
56.641064 80.0
56.759464 124.0
58.378311 168.0
58.495468 208.0
58.506123 128.0
59.47377 228.0
59.499866 156.0
59.602776 124.0
60.06002 220.0
60.381283 72.0
60.488049 44.0
60.605751 72.0
61.280087 196.0
61.404797 252.0
61.749962 156.0
62.060028 176.0
62.537601 148.0
62.668312 184.0
63.118168 176.0
63.181431 120.0
63.271641 156.0
63.426888 68.0
63.575977 156.0
63.69347 156.0
64.343208 156.0
64.712532 148.0
65.57196 168.0
65.933479 160.0
66.833488 164.0
66.927895 116.0
66.989784 44.0
67.38459 72.0
68.074188 156.0
68.095535 228.0
68.217133 160.0
69.059746 100.0
69.447327 180.0
69.472206 56.0
70.195717 160.0
70.514587 108.0
70.981659 144.0
71.161194 108.0
71.297256 156.0
71.309021 180.0
71.398132 88.0
71.512535 124.0
72.008232 176.0
72.33287 172.0
72.509026 168.0
73.430527 216.0
73.984161 60.0
74.170883 48.0
74.193169 104.0
74.438522 116.0
74.584557 176.0
74.679131 132.0
74.692886 148.0
74.975258 148.0
75.099396 164.0
75.133896 148.0
75.270248 180.0
75.579659 140.0
76.00071 112.0
76.780037 108.0
77.456451 164.0
77.861618 184.0
77.891472 172.0
77.916069 156.0
78.391144 116.0
78.419342 76.0
78.710426 208.0
78.922462 192.0
78.984367 260.0
79.466225 184.0
79.656189 124.0
80.018974 112.0
81.130226 80.0
81.523308 152.0
81.562843 148.0
81.780487 228.0
81.949768 96.0
82.030159 224.0
82.135452 148.0
82.408051 84.0
82.583405 108.0
82.615967 112.0
82.822327 132.0
83.085182 76.0
83.226746 92.0
83.601212 248.0
83.805153 44.0
84.786446 168.0
84.801109 140.0
85.237885 104.0
85.38311 196.0
85.598427 140.0
85.959724 132.0
86.325485 160.0
86.345833 160.0
86.60495 244.0
87.418121 164.0
87.457207 72.0
87.580093 52.0
87.848518 128.0
87.943687 140.0
88.240707 108.0
88.362274 124.0
88.405312 132.0
88.654381 140.0
88.678741 200.0
89.038971 148.0
89.450737 128.0
89.908752 148.0
89.995583 244.0
90.067345 124.0
90.137253 28.0
90.184494 192.0
91.052834 480.0
91.451515 112.0
91.668625 152.0
91.729614 212.0
91.819229 48.0
92.038681 148.0
92.057777 364.0
92.32341 108.0
92.725449 52.0
92.843323 176.0
93.007401 120.0
93.036194 188.0
93.060043 180.0
93.109154 160.0
93.153336 240.0
93.524452 108.0
93.676575 172.0
93.796043 180.0
94.095055 188.0
94.278557 132.0
94.81076 164.0
94.965858 136.0
95.086151 216.0
96.365532 168.0
96.553185 56.0
96.848724 136.0
97.005585 156.0
97.09568 232.0
97.142754 144.0
97.280121 132.0
97.368477 180.0
97.995987 76.0
98.204941 168.0
98.368721 156.0
98.779739 140.0
99.001419 80.0
99.721588 132.0
99.751404 132.0
99.76532 108.0
99.864746 140.0
99.994072 132.0
100.28685 128.0
100.534157 232.0
101.027679 128.0
101.057686 236.0
101.392097 160.0
101.472282 64.0
101.660828 92.0
101.745132 208.0
101.903862 112.0
101.956039 168.0
102.002266 208.0
102.044479 348.0
102.495346 52.0
102.894699 88.0
103.053482 716.0
103.129028 48.0
103.430405 212.0
103.584297 204.0
103.691689 96.0
104.051224 228.0
104.148201 112.0
104.308723 72.0
104.76252 132.0
104.86644 160.0
104.95002 172.0
105.033073 772.0
105.06955 576.0
105.096878 64.0
105.43586 176.0
105.79995 164.0
105.85318 148.0
106.025261 128.0
106.065506 1692.0
106.26107 64.0
106.324684 64.0
106.400635 120.0
106.579323 44.0
106.653305 56.0
107.046257 120.0
107.067673 284.0
107.124519 140.0
107.192513 40.0
107.472946 68.0
107.702095 164.0
107.782669 52.0
108.293648 160.0
108.473915 144.0
109.27346 188.0
109.63369 128.0
110.027916 200.0
110.042534 192.0
110.358025 152.0
110.431213 196.0
110.458405 108.0
110.688629 176.0
110.93795 184.0
111.843307 156.0
112.045471 128.0
112.832672 268.0
112.889763 60.0
113.012444 100.0
113.385139 164.0
113.781799 168.0
113.843376 148.0
114.328072 204.0
114.971672 232.0
115.053925 1396.0
115.225769 56.0
115.351852 152.0
115.463036 128.0
115.542183 220.0
115.724106 128.0
115.745514 88.0
116.050217 224.0
116.064529 164.0
116.107674 124.0
116.640144 148.0
117.057098 144.0
117.296677 156.0
117.391541 120.0
117.466515 140.0
117.775703 176.0
118.041039 712.0
118.064247 644.0
118.461411 128.0
118.697647 80.0
118.764877 44.0
118.892883 72.0
119.049477 656.0
119.071823 152.0
119.103485 204.0
120.048416 208.0
120.085121 180.0
120.170197 164.0
120.598213 140.0
120.996338 144.0
121.037941 168.0
121.21756 120.0
121.254814 236.0
122.24086 160.0
122.659317 68.0
122.765144 52.0
123.109406 216.0
123.228683 136.0
124.080772 172.0
124.577881 144.0
124.623207 200.0
125.145004 92.0
125.276398 204.0
125.452454 116.0
125.474747 192.0
126.126587 168.0
126.222717 136.0
126.240608 64.0
126.323364 84.0
126.484482 232.0
127.374687 132.0
128.056213 124.0
128.249985 192.0
128.313095 176.0
128.457428 156.0
128.511581 152.0
128.538651 180.0
128.847977 152.0
129.033295 168.0
129.350006 184.0
129.705643 36.0
129.918808 268.0
130.029892 136.0
130.065521 772.0
130.086731 188.0
130.604813 68.0
130.964447 140.0
131.043152 360.0
131.047089 144.0
131.072845 168.0
131.098862 148.0
131.564163 188.0
131.618958 116.0
131.769714 200.0
131.803986 64.0
132.044174 1312.0
132.07402 136.0
132.211029 40.0
132.529312 52.0
132.657654 156.0
132.932892 52.0
133.052734 184.0
133.258942 144.0
133.33017 28.0
133.543991 180.0
133.608398 148.0
133.840408 228.0
133.944489 204.0
134.029739 160.0
134.056595 128.0
134.285629 220.0
134.848969 144.0
134.969177 124.0
134.999237 144.0
135.062241 168.0
135.246796 80.0
135.508484 116.0
136.058136 192.0
136.157974 136.0
136.420532 192.0
136.57634 160.0
136.799713 160.0
137.013962 144.0
137.620361 116.0
137.917053 76.0
138.015244 172.0
138.120773 136.0
138.994339 124.0
139.106995 124.0
139.682709 172.0
139.795639 196.0
140.007507 188.0
140.212479 228.0
140.759766 172.0
140.92511 180.0
141.06218 132.0
141.592194 124.0
142.016434 192.0
142.052017 108.0
142.068619 168.0
142.384308 196.0
143.04805 356.0
143.08815 184.0
143.111954 52.0
144.053635 336.0
144.156738 148.0
144.685333 168.0
145.018295 176.0
145.414032 168.0
145.565277 40.0
145.884827 320.0
145.936142 196.0
146.014664 108.0
146.190277 132.0
146.524979 180.0
146.975845 144.0
147.072372 96.0
148.26474 180.0
148.412598 128.0
148.623627 168.0
150.522247 140.0
151.385452 228.0
152.065369 356.0
152.172546 112.0
152.192184 148.0
152.260941 92.0
152.565628 140.0
152.774658 108.0
152.98877 108.0
153.072479 140.0
153.12912 140.0
153.185776 32.0
154.06398 136.0
155.011597 200.0
155.187592 116.0
155.433151 236.0
155.490219 228.0
156.044159 188.0
156.245605 76.0
156.506943 80.0
156.63147 140.0
156.74855 40.0
156.888138 144.0
156.947968 152.0
157.939423 148.0
158.059784 2984.0
158.149597 176.0
159.065445 320.0
160.319534 240.0
160.339691 104.0
160.387589 52.0
161.215408 64.0
161.860458 104.0
162.951111 240.0
163.93074 128.0
164.06073 184.0
164.341263 160.0
165.072617 600.0
165.18689 184.0
165.28923 44.0
166.016724 68.0
166.07843 540.0
166.221954 152.0
166.363113 180.0
166.383652 204.0
167.084427 560.0
167.213913 44.0
167.994644 128.0
168.06044 192.0
168.110748 124.0
168.743591 160.0
168.8703 124.0
168.916855 120.0
169.060699 192.0
169.748215 112.0
171.513504 200.0
171.925583 196.0
172.016937 228.0
172.233673 36.0
172.304199 88.0
172.75386 156.0
173.146469 120.0
173.772964 60.0
174.534409 128.0
175.358627 180.0
175.991745 204.0
176.070969 124.0
176.837677 108.0
177.057205 144.0
177.063782 280.0
177.168671 180.0
177.473465 76.0
178.014771 172.0
178.080292 868.0
178.221954 132.0
179.085434 192.0
179.203751 116.0
179.243729 48.0
179.632965 176.0
179.814407 80.0
179.907837 108.0
179.963898 204.0
180.052017 140.0
180.08078 5792.0
180.12146 72.0
180.151825 152.0
180.177567 120.0
180.281769 56.0
180.367294 84.0
180.410065 88.0
180.478012 240.0
181.012054 120.0
181.08815 3632.0
181.154007 44.0
181.250458 128.0
181.521194 108.0
181.805542 160.0
181.829025 64.0
182.068024 304.0
182.088333 976.0
182.240555 44.0
182.291595 32.0
182.560425 56.0
182.689529 148.0
182.748718 220.0
183.055573 116.0
183.082748 128.0
183.346512 120.0
183.368073 44.0
184.080276 180.0
184.112671 192.0
184.401749 156.0
184.547729 128.0
185.124084 52.0
185.251389 136.0
185.950943 176.0
186.35556 128.0
186.485992 56.0
187.108932 76.0
188.20224 140.0
188.235001 56.0
188.704971 108.0
188.97847 112.0
189.06665 144.0
190.072556 280.0
190.893051 124.0
191.084793 864.0
191.37265 204.0
191.815369 92.0
192.08461 584.0
192.579681 168.0
193.090363 1904.0
193.140778 124.0
193.434082 172.0
193.66391 52.0
194.090576 504.0
194.259872 116.0
195.075928 128.0
196.039764 196.0
196.086777 100.0
196.108963 100.0
196.912491 180.0
197.091278 164.0
197.440704 224.0
197.717667 224.0
198.090057 160.0
198.148895 48.0
198.776947 64.0
199.195282 184.0
199.372284 160.0
199.830627 188.0
200.286667 160.0
201.071243 384.0
201.138229 116.0
202.077805 244.0
202.328339 136.0
203.070847 436.0
203.561707 188.0
203.655426 224.0
203.69519 148.0
203.891251 128.0
204.071228 376.0
204.289307 164.0
204.477112 80.0
205.066666 132.0
205.085342 144.0
205.463013 208.0
206.094315 860.0
206.188293 148.0
206.826096 136.0
206.949188 184.0
207.058014 224.0
207.10379 504.0
207.846344 172.0
207.877899 200.0
207.897995 228.0
207.969742 176.0
208.074554 3608.0
208.111389 496.0
208.210907 72.0
208.233887 68.0
208.377518 36.0
208.400497 28.0
208.449341 44.0
208.656296 196.0
208.742554 52.0
208.892105 120.0
209.081573 2716.0
209.119751 180.0
209.263351 156.0
209.323822 32.0
209.833817 72.0
209.977997 160.0
209.998184 204.0
210.043488 164.0
210.090637 1500.0
210.355972 56.0
210.636078 56.0
211.060898 240.0
211.094391 304.0
211.138977 48.0
211.225754 184.0
211.463013 72.0
211.509323 132.0
212.085724 148.0
212.137909 32.0
212.590363 132.0
213.400787 204.0
213.461838 108.0
215.17511 188.0
215.341553 148.0
215.399963 68.0
215.902679 156.0
216.092819 348.0
216.813141 136.0
217.018341 216.0
217.088562 2796.0
217.223633 48.0
217.505325 128.0
217.593399 156.0
217.675598 84.0
217.769577 48.0
217.97229 140.0
218.095764 9792.0
218.131836 196.0
218.210358 88.0
218.307404 40.0
218.433868 52.0
218.566254 96.0
218.592743 60.0
218.722229 168.0
218.872375 100.0
219.097549 2232.0
219.55014 148.0
219.641571 80.0
219.700562 96.0
220.079361 828.0
220.103134 588.0
220.1492 148.0
220.223038 64.0
220.373703 116.0
220.435745 40.0
220.692902 120.0
220.793442 96.0
220.825974 96.0
221.053574 232.0
221.083328 792.0
221.450485 76.0
222.089859 1072.0
222.215286 36.0
223.093628 408.0
223.391724 152.0
223.463135 148.0
223.647629 188.0
223.701202 36.0
224.049637 56.0
224.085388 128.0
224.687622 104.0
225.069656 168.0
226.10994 164.0
226.139877 188.0
226.566605 180.0
226.699905 88.0
227.137634 156.0
227.786011 104.0
228.02037 136.0
228.465393 132.0
229.076553 184.0
230.820938 116.0
233.057907 124.0
233.611237 120.0
234.091278 556.0
234.177383 128.0
234.268768 148.0
234.32666 112.0
234.759476 100.0
234.936386 44.0
235.097961 600.0
235.377304 124.0
235.683212 196.0
235.782181 196.0
235.931946 140.0
236.041107 240.0
236.1064 28364.0
236.198807 132.0
236.237762 44.0
236.259171 84.0
236.329544 52.0
236.378494 140.0
236.456482 64.0
236.542374 132.0
236.699905 68.0
236.73053 84.0
236.909882 108.0
236.975571 208.0
237.061371 332.0
237.109283 4264.0
237.202454 80.0
237.229935 96.0
237.427704 80.0
237.520172 124.0
237.602081 104.0
237.671585 44.0
237.763641 116.0
237.852646 76.0
237.904831 84.0
237.926315 72.0
237.957016 48.0
238.012283 104.0
238.080582 184.0
238.108856 668.0
238.147415 112.0
238.266632 64.0
238.347092 64.0
238.436218 68.0
238.473099 144.0
238.623718 64.0
238.761658 112.0
238.851288 108.0
238.92511 68.0
239.082047 136.0
239.103577 116.0
239.171295 68.0
239.411438 52.0
239.577759 148.0
239.636307 108.0
240.043167 92.0
240.095596 176.0
240.854843 100.0
241.058746 108.0
241.09584 40.0
245.878494 64.0
246.759369 48.0
247.738937 76.0
248.077377 172.0
249.072098 124.0
249.964966 184.0
250.084549 272.0
250.216766 132.0
255.73114 44.0
263.95047 36.0
264.096527 188.0
264.183319 68.0
264.944092 148.0
265.089874 124.0
266.056427 140.0
266.085663 200.0
267.086548 152.0
268.914429 92.0
277.895081 56.0
280.402374 156.0
282.110138 920.0
282.164856 208.0
282.907532 112.0
283.115601 384.0
284.213135 120.0
284.261597 80.0
284.714783 36.0
285.064148 40.0
285.245636 84.0
291.674927 96.0
292.457245 100.0
294.434723 72.0
295.929047 60.0
300.124268 120.0
300.924744 48.0
306.10849 168.0
306.592712 60.0
308.072113 204.0
310.070068 164.0
325.994843 88.0
383.021423 92.0
386.922577 92.0
387.792206 104.0
392.710815 68.0
397.342987 112.0
416.066132 44.0
453.503357 88.0
459.234772 72.0
503.376526 60.0
520.905945 28.0
535.225647 104.0
535.833618 124.0
566.373657 80.0
568.099121 144.0
581.805054 32.0
628.475159 72.0
633.083984 52.0
635.831177 56.0
755.453918 240.0
759.617188 56.0
881.388062 56.0
911.450134 60.0
921.053284 120.0
970.505615 164.0
972.000488 88.0
1004.030334 140.0
1012.264587 224.0
1032.776611 120.0
1050.815186 192.0
1055.103516 180.0
1064.72583 192.0
1083.138428 60.0
1085.078125 176.0
1097.175049 220.0
1107.205322 164.0
1114.302979 136.0
1119.857422 44.0
1122.116455 80.0
1132.547974 72.0
1141.830322 184.0
1143.155518 48.0
1171.055298 60.0
1175.827759 204.0
1183.511353 160.0
1186.176392 216.0
1187.321411 120.0
1187.540894 200.0
1193.687378 160.0
1195.627319 208.0
1195.985229 140.0
1202.118896 88.0
1215.363159 40.0
1221.149902 72.0
1221.365479 144.0
1233.882935 32.0
1246.049561 184.0
1250.254395 224.0
1250.627441 176.0
1253.451538 144.0
1277.66626 140.0
1283.592163 144.0
1285.389771 96.0
1290.025024 200.0
1290.890137 176.0
1300.439941 156.0
1311.985107 56.0
1322.835571 200.0
1339.967163 184.0
1361.119995 160.0
1384.155884 152.0
1388.179565 60.0
1389.945068 160.0
1391.355225 164.0
1407.422363 220.0
1410.769409 76.0
1414.884033 144.0
1427.053223 148.0
1429.377441 220.0
1429.738647 132.0
1434.536499 176.0
1436.384033 136.0
1448.183105 220.0
1453.155884 168.0
1456.351807 176.0
1459.91626 132.0
1460.273682 192.0
1462.754272 100.0
1465.633057 64.0
1471.834351 180.0
1474.446899 224.0
1478.676147 100.0
1502.165283 188.0
