>compound MLS001194484-01!2,9-dimethyl-1,10-phenanthroline
>formula C14H12N2
>ionization [M+H]+
>parentmass 209.106766
#inchi InChI=1S/C14H12N2/c1-9-3-5-11-7-8-12-6-4-10(2)16-14(12)13(11)15-9/h3-8H,1-2H3
#inchikey IYRGXJIJGHOCFS
#Ion_Source LC-ESI
#Instrument qTof
#Compound_Source NIH Pharmacologically Active Library
#PI Dorrestein
#Data_Collector VP/LMS
#Scan -1
#Precursor_MZ 209.107
#ExactMass 208.1
#Charge 1
#CAS_Number N/A
#Pubmed_ID N/A
#Smiles Cc1ccc2ccc3ccc(C)nc3c2n1
#INCHI_AUX N/A
#Library_Class 1
#SpectrumID CCMSLIB00000085234
#IonMode Positive
#UpdateWorkflowName UPDATE-SINGLE-ANNOTATED-GOLD
#LibraryQualityString Gold
#TaskID d252d724072548979f1f6f1ced849daf
##Scan# 1289
#SpectrumFile p3-G04_GG4_01_18297.mzXML
#LibraryName Pharm_Active_Library.mgf
#MQScore -1
#Organism Pharm_Active_Library
#TIC_Query 0
#RT_Query -1
#MZErrorPPM -1
#SharedPeaks 0
#MassDiff 0
#LibMZ -1
#SpecMZ 209.107
#SpecCharge 0
#internalFilename spec-00000.mgf

>collision 10
45.026321 208.0
45.063728 160.0
45.104149 212.0
45.141258 164.0
45.181389 172.0
45.218861 196.0
45.239666 200.0
45.253666 172.0
45.285809 160.0
45.301884 160.0
45.342087 120.0
45.40004 196.0
45.40889 248.0
45.477558 152.0
45.512543 140.0
45.524551 120.0
45.589039 176.0
45.61861 176.0
45.653572 128.0
45.753151 196.0
45.784122 116.0
45.836666 180.0
45.891933 96.0
45.909466 124.0
46.003922 192.0
46.022823 152.0
46.048485 84.0
46.172832 160.0
46.185005 36.0
46.209358 176.0
46.235073 260.0
46.290581 120.0
46.317669 280.0
46.385426 300.0
46.396271 196.0
46.446449 180.0
46.486176 188.0
46.4991 140.0
46.523808 180.0
46.583565 164.0
46.63652 132.0
46.718155 128.0
46.832508 232.0
46.868092 196.0
46.887012 212.0
46.964733 76.0
47.120365 148.0
47.174633 216.0
47.300896 164.0
47.380329 128.0
47.410477 128.0
47.443378 196.0
47.474915 164.0
47.646503 176.0
47.660244 224.0
47.719353 136.0
47.834557 180.0
47.866592 172.0
47.899647 156.0
47.921692 144.0
47.997509 112.0
48.118938 152.0
48.129982 132.0
48.147938 108.0
48.170036 204.0
48.196289 236.0
48.222549 272.0
48.234989 188.0
48.249962 212.0
48.312435 128.0
48.349796 244.0
48.419025 188.0
48.531281 160.0
48.635334 224.0
48.670044 156.0
48.731163 152.0
48.754787 180.0
48.774246 256.0
48.792885 216.0
48.806225 144.0
48.845169 144.0
48.864647 224.0
48.893406 108.0
48.938419 180.0
48.962093 132.0
48.998314 216.0
49.020607 124.0
49.126579 220.0
49.171234 120.0
49.257809 156.0
49.301125 140.0
49.376625 164.0
49.438187 164.0
49.477383 188.0
49.517994 92.0
49.553017 52.0
49.568432 124.0
49.610447 168.0
49.673592 132.0
49.683411 220.0
49.774647 164.0
49.804142 40.0
49.887054 196.0
49.954559 36.0
49.964409 156.0
49.991146 204.0
50.064354 132.0
50.096233 184.0
50.122116 44.0
50.173313 136.0
50.184139 220.0
50.195419 132.0
50.257488 152.0
50.293736 164.0
50.315166 204.0
50.39587 160.0
50.465134 100.0
50.54435 168.0
50.606632 100.0
50.745495 172.0
50.91721 184.0
50.958683 164.0
51.008152 180.0
51.02002 112.0
51.090637 136.0
51.190704 160.0
51.272911 284.0
51.288589 148.0
51.369873 212.0
51.394131 236.0
51.415535 128.0
51.436947 164.0
51.494064 328.0
51.640644 168.0
51.675625 104.0
51.687462 204.0
51.731445 132.0
51.77562 160.0
51.857506 204.0
51.894779 192.0
51.904816 104.0
51.93924 132.0
51.967934 128.0
51.992329 84.0
52.037628 140.0
52.055733 172.0
52.12468 160.0
52.17947 132.0
52.194897 148.0
52.22366 136.0
52.239483 232.0
52.424522 180.0
52.586773 76.0
52.648861 180.0
52.764465 116.0
52.793247 124.0
52.845463 124.0
52.985912 168.0
53.016342 192.0
53.078682 128.0
53.15255 148.0
53.260105 216.0
53.316204 224.0
53.321903 136.0
53.473858 168.0
53.53355 120.0
53.543747 152.0
53.567051 112.0
53.739094 176.0
53.756607 108.0
53.800396 156.0
53.956726 160.0
54.004986 184.0
54.064106 148.0
54.084003 160.0
54.097179 144.0
54.158688 232.0
54.174801 148.0
54.212898 152.0
54.236351 176.0
54.321404 136.0
54.566677 160.0
54.596085 140.0
54.738842 168.0
54.899479 188.0
54.923077 204.0
54.958488 132.0
54.993908 124.0
55.116489 264.0
55.168224 156.0
55.203712 208.0
55.277679 112.0
55.454464 144.0
55.474201 192.0
55.483578 240.0
55.516197 108.0
55.577023 180.0
55.623032 168.0
55.666092 152.0
55.734425 188.0
55.749287 120.0
55.774555 184.0
55.829571 208.0
55.874195 176.0
55.988819 212.0
56.115997 164.0
56.163212 204.0
56.254242 52.0
56.339371 148.0
56.379715 136.0
56.401237 168.0
56.44101 208.0
56.496353 200.0
56.548729 164.0
56.560703 164.0
56.581226 176.0
56.634678 120.0
56.773472 176.0
56.789188 376.0
56.822411 160.0
56.846985 208.0
56.867996 136.0
56.952084 140.0
56.974621 176.0
57.025715 200.0
57.156559 64.0
57.170101 140.0
57.191174 76.0
57.301113 188.0
57.331253 128.0
57.346325 120.0
57.366692 188.0
57.460938 68.0
57.473007 180.0
57.500172 84.0
57.560562 84.0
57.61343 192.0
57.645161 136.0
57.700672 188.0
57.75856 112.0
57.823627 144.0
57.838764 300.0
57.855415 160.0
57.881157 68.0
57.905388 96.0
57.988724 124.0
58.047852 108.0
58.107014 160.0
58.140396 236.0
58.151024 156.0
58.194263 176.0
58.269474 108.0
58.285 148.0
58.34547 180.0
58.459198 220.0
58.544811 176.0
58.581371 148.0
58.596607 132.0
58.620987 64.0
58.671288 144.0
58.713985 128.0
58.886459 124.0
59.057655 172.0
59.120388 180.0
59.152531 156.0
59.203503 180.0
59.233696 124.0
59.30265 184.0
59.316448 132.0
59.328712 208.0
59.354778 176.0
59.411533 64.0
59.54451 60.0
59.564285 180.0
59.575806 164.0
59.638813 136.0
59.681496 184.0
59.735378 196.0
59.754154 240.0
59.895794 148.0
59.940475 100.0
60.014469 124.0
60.025265 100.0
60.059196 152.0
60.185753 156.0
60.239853 148.0
60.284119 160.0
60.533695 44.0
60.561573 76.0
60.595322 148.0
60.617352 56.0
60.655243 188.0
60.71809 196.0
60.854687 48.0
60.980526 68.0
60.991405 132.0
61.058266 148.0
61.100269 200.0
61.31361 140.0
61.428997 184.0
61.453823 180.0
61.508587 168.0
61.560112 96.0
61.589577 208.0
61.741405 92.0
61.753151 188.0
61.82589 232.0
61.844673 168.0
61.897903 152.0
61.961246 164.0
61.972099 132.0
62.013844 176.0
62.118908 184.0
62.12989 132.0
62.20208 156.0
62.216209 48.0
62.261749 96.0
62.291592 112.0
62.32616 232.0
62.35759 160.0
62.38903 148.0
62.477104 112.0
62.582561 160.0
62.602104 184.0
62.617207 184.0
62.640835 120.0
62.667618 60.0
62.836334 92.0
62.848957 168.0
62.891567 128.0
62.924721 164.0
62.940514 224.0
63.183933 132.0
63.198174 180.0
63.301067 168.0
63.343834 148.0
63.386612 40.0
63.524559 124.0
63.546772 152.0
63.568985 204.0
63.653126 128.0
63.762348 256.0
63.972164 172.0
64.066681 188.0
64.081024 168.0
64.159126 168.0
64.203773 168.0
64.297195 160.0
64.311218 364.0
64.356972 348.0
64.478386 196.0
64.571121 152.0
64.639915 196.0
64.655922 140.0
64.694336 148.0
64.739174 128.0
64.772812 108.0
64.822479 148.0
64.864151 204.0
64.917068 200.0
64.965187 120.0
65.000488 220.0
65.011719 160.0
65.120895 140.0
65.178734 88.0
65.193199 120.0
65.225349 136.0
65.251068 152.0
65.265541 184.0
65.292877 100.0
65.305748 172.0
65.342751 108.0
65.432884 168.0
65.450592 80.0
65.463478 140.0
65.523079 120.0
65.573036 164.0
65.629463 92.0
65.642357 152.0
65.674622 64.0
65.698814 60.0
65.747223 116.0
65.792427 180.0
65.861862 124.0
65.944275 148.0
65.956367 56.0
66.005714 144.0
66.225822 128.0
66.276047 152.0
66.374931 192.0
66.423584 204.0
66.536575 188.0
66.585907 180.0
66.624893 108.0
66.777702 156.0
66.793968 124.0
66.809883 236.0
66.893242 60.0
66.909515 164.0
66.93557 208.0
67.06591 236.0
67.090363 148.0
67.155594 204.0
67.302475 196.0
67.335144 136.0
67.358009 188.0
67.467506 164.0
67.479721 144.0
67.552551 152.0
67.577087 176.0
67.636009 120.0
67.667961 208.0
67.719521 172.0
67.752281 120.0
67.798164 148.0
67.855537 124.0
67.90966 164.0
67.921761 176.0
67.950668 148.0
68.03273 176.0
68.121414 200.0
68.143456 188.0
68.167427 140.0
68.182213 80.0
68.215088 44.0
68.300606 84.0
68.341736 188.0
68.371353 156.0
68.413239 172.0
68.452026 168.0
68.488258 176.0
68.50473 164.0
68.556023 160.0
68.587128 192.0
68.676376 228.0
68.720718 184.0
68.770226 100.0
68.790039 140.0
68.814804 140.0
68.857742 188.0
68.870956 140.0
68.945305 176.0
69.104065 244.0
69.254715 104.0
69.322708 224.0
69.337563 200.0
69.362427 192.0
69.374031 180.0
69.51004 172.0
69.544891 192.0
69.561493 196.0
69.607986 200.0
69.619614 136.0
69.729263 240.0
69.807404 156.0
69.862297 184.0
69.928864 60.0
69.970184 224.0
70.022102 92.0
70.040428 144.0
70.073746 160.0
70.093742 52.0
70.208862 156.0
70.285515 156.0
70.377693 180.0
70.430763 144.0
70.445717 152.0
70.483925 176.0
70.551086 192.0
70.589546 148.0
70.668167 128.0
70.7267 156.0
70.805443 68.0
70.869102 160.0
70.896957 116.0
70.916031 164.0
71.060257 88.0
71.231499 224.0
71.288147 112.0
71.303757 172.0
71.334015 128.0
71.367279 168.0
71.396225 164.0
71.433235 80.0
71.463417 132.0
71.472244 152.0
71.685799 196.0
71.712769 132.0
71.756599 140.0
71.79538 164.0
71.845985 156.0
71.930672 148.0
72.043518 204.0
72.073929 196.0
72.089142 208.0
72.111938 196.0
72.300545 156.0
72.324242 168.0
72.33609 208.0
72.520737 228.0
72.600426 188.0
72.727676 64.0
72.768417 156.0
72.795593 160.0
72.885628 48.0
73.026733 164.0
73.040512 160.0
73.103302 76.0
73.156067 252.0
73.224182 128.0
73.321297 164.0
73.41848 92.0
73.507187 168.0
73.676231 168.0
73.773651 160.0
73.784904 200.0
73.821526 204.0
73.864288 176.0
73.927597 164.0
73.963539 140.0
73.985794 116.0
74.09198 152.0
74.251404 120.0
74.28743 160.0
74.347488 168.0
74.418221 196.0
74.443626 72.0
74.459084 64.0
74.490005 216.0
74.615463 160.0
74.656731 92.0
74.675652 212.0
74.694412 168.0
74.785751 144.0
74.809875 128.0
74.871864 96.0
74.914932 140.0
74.963173 132.0
75.013161 240.0
75.044197 124.0
75.068336 200.0
75.106277 120.0
75.192558 100.0
75.232262 120.0
75.410187 192.0
75.432655 160.0
75.538147 40.0
75.663216 180.0
75.775337 196.0
75.808258 144.0
75.849281 168.0
75.886269 112.0
75.953903 56.0
76.028519 100.0
76.111847 144.0
76.156998 188.0
76.200432 164.0
76.219543 140.0
76.255341 148.0
76.28038 124.0
76.32177 124.0
76.370804 176.0
76.38298 96.0
76.43367 180.0
76.459541 200.0
76.492615 56.0
76.504799 44.0
76.645882 152.0
76.668541 124.0
76.705147 128.0
76.820244 168.0
76.952888 116.0
77.028442 216.0
77.0839 132.0
77.233284 176.0
77.267502 176.0
77.405785 164.0
77.474098 188.0
77.547691 260.0
77.602043 44.0
77.631851 192.0
77.723076 196.0
77.757294 80.0
77.791527 176.0
77.81144 124.0
77.925003 128.0
77.949608 172.0
78.009369 196.0
78.037498 160.0
78.106087 264.0
78.201408 188.0
78.230042 64.0
78.260132 128.0
78.347275 176.0
78.416 84.0
78.555305 120.0
78.578239 160.0
78.629417 144.0
78.654129 48.0
78.68203 144.0
78.750526 208.0
78.809547 168.0
78.924446 88.0
78.947624 148.0
78.965118 140.0
79.007576 204.0
79.11908 120.0
79.157379 216.0
79.23243 152.0
79.38842 72.0
79.425667 160.0
79.493088 144.0
79.582878 192.0
79.613808 200.0
79.684868 116.0
79.70974 132.0
79.837746 144.0
79.921356 172.0
79.987206 76.0
80.049522 88.0
80.118988 128.0
80.188492 208.0
80.202751 204.0
80.218796 120.0
80.2705 204.0
80.300819 84.0
80.322227 192.0
80.453194 216.0
80.472679 120.0
80.671776 196.0
80.702644 164.0
80.749138 120.0
80.876183 116.0
80.944214 116.0
81.083954 160.0
81.234581 116.0
81.248932 108.0
81.284821 156.0
81.448204 252.0
81.493118 156.0
81.568604 164.0
81.593773 184.0
81.622543 188.0
81.662109 140.0
81.739471 268.0
81.768272 172.0
81.805588 224.0
81.892509 176.0
82.007828 108.0
82.029457 164.0
82.067322 132.0
82.119621 48.0
82.157501 148.0
82.267593 148.0
82.283844 36.0
82.431961 112.0
82.560318 100.0
82.634491 164.0
82.663437 220.0
82.706879 160.0
82.739143 236.0
82.761192 116.0
82.840889 120.0
82.895943 76.0
82.929092 160.0
83.040283 64.0
83.086609 184.0
83.134628 120.0
83.207237 204.0
83.270798 172.0
83.379814 108.0
83.406685 148.0
83.434349 192.0
83.476173 156.0
83.53801 108.0
83.605339 152.0
83.665405 136.0
83.698181 88.0
83.791077 132.0
83.809303 180.0
83.841225 172.0
84.002403 228.0
84.033577 144.0
84.124832 192.0
84.145164 176.0
84.168655 112.0
84.26841 368.0
84.300186 128.0
84.352501 212.0
84.405739 92.0
84.569046 212.0
84.706383 200.0
84.770515 28.0
84.842003 56.0
84.897011 64.0
84.932121 168.0
85.005585 196.0
85.098869 196.0
85.13192 192.0
85.153961 140.0
85.188866 176.0
85.234795 172.0
85.284424 128.0
85.30761 260.0
85.311028 160.0
85.359802 192.0
85.398422 172.0
85.438896 204.0
85.529068 172.0
85.56221 156.0
85.598778 172.0
85.702652 112.0
85.727989 120.0
85.785042 180.0
85.840446 92.0
85.873642 192.0
85.893936 200.0
86.023117 148.0
86.144997 64.0
86.176407 192.0
86.208725 192.0
86.33107 180.0
86.344635 128.0
86.477852 144.0
86.529686 120.0
86.666756 144.0
86.687141 156.0
86.716797 180.0
86.75943 164.0
86.779823 120.0
86.835457 184.0
87.047035 128.0
87.112045 116.0
87.172768 276.0
87.217972 104.0
87.32798 196.0
87.39743 132.0
87.415123 172.0
87.504471 132.0
87.646034 152.0
87.673988 176.0
87.708405 92.0
87.720589 164.0
87.75415 176.0
87.851135 220.0
87.974304 140.0
88.02285 120.0
88.091377 232.0
88.108383 152.0
88.124535 212.0
88.206848 196.0
88.234161 136.0
88.260178 200.0
88.359314 168.0
88.385506 160.0
88.432297 236.0
88.513771 160.0
88.675789 212.0
88.778908 192.0
88.936516 140.0
88.960922 124.0
88.975945 196.0
89.101776 148.0
89.187996 192.0
89.210785 164.0
89.237106 232.0
89.291641 188.0
89.351837 172.0
89.468529 164.0
89.547623 124.0
89.730415 36.0
89.803963 84.0
89.992691 128.0
90.024788 308.0
90.041786 152.0
90.157036 140.0
90.241158 128.0
90.327209 164.0
90.38208 200.0
90.486183 180.0
90.575195 140.0
90.768517 36.0
90.787544 136.0
90.861465 128.0
90.93737 264.0
91.129181 156.0
91.151985 184.0
91.180489 212.0
91.31929 220.0
91.344017 204.0
91.39827 164.0
91.42189 160.0
91.460098 188.0
91.473419 156.0
91.486748 80.0
91.517212 104.0
91.568634 88.0
91.595299 188.0
91.702011 144.0
91.719162 120.0
91.73632 252.0
91.757294 200.0
91.843109 116.0
91.898438 148.0
91.915611 132.0
91.93293 160.0
92.016777 196.0
92.053055 104.0
92.127548 180.0
92.184875 132.0
92.353127 148.0
92.466019 164.0
92.594299 104.0
92.607704 132.0
92.623032 64.0
92.640274 88.0
92.665176 120.0
92.694901 156.0
92.712006 264.0
92.795052 248.0
92.818527 76.0
92.887573 248.0
92.922806 308.0
93.010384 240.0
93.056465 256.0
93.12645 196.0
93.142883 216.0
93.17939 208.0
93.245621 248.0
93.283546 144.0
93.387009 172.0
93.415863 136.0
93.454346 220.0
93.471664 200.0
93.519775 140.0
93.575607 140.0
93.671906 132.0
93.706581 180.0
93.772102 36.0
93.808731 136.0
93.87043 200.0
93.89357 132.0
93.941795 92.0
93.966881 68.0
93.991501 184.0
94.044075 160.0
94.074959 164.0
94.15799 144.0
94.2314 184.0
94.27198 180.0
94.426651 140.0
94.453728 152.0
94.496292 132.0
94.538864 164.0
94.594994 208.0
94.643402 148.0
94.709251 160.0
94.852646 172.0
94.879784 228.0
94.916466 244.0
94.932144 252.0
95.09317 136.0
95.153351 388.0
95.43898 124.0
95.468155 140.0
95.611015 360.0
95.637428 104.0
95.774399 140.0
95.791168 164.0
95.79554 204.0
95.880898 112.0
95.906235 168.0
95.96862 212.0
96.204704 180.0
96.28672 196.0
96.333595 100.0
96.548615 156.0
96.57795 156.0
96.620827 144.0
96.718842 148.0
96.781494 164.0
96.82653 32.0
96.842201 184.0
96.873543 180.0
96.88726 136.0
96.924484 64.0
96.963684 152.0
96.993088 180.0
97.006805 60.0
97.021088 212.0
97.073471 128.0
97.171555 188.0
97.228462 124.0
97.275574 88.0
97.431465 284.0
97.473946 60.0
97.546669 216.0
97.609589 172.0
97.698097 216.0
97.811218 192.0
97.8339 120.0
97.851616 92.0
97.887062 68.0
97.942207 36.0
97.999344 80.0
98.022987 152.0
98.07029 168.0
98.257637 116.0
98.301048 84.0
98.332626 204.0
98.381973 164.0
98.425415 168.0
98.494713 180.0
98.528122 40.0
98.589378 144.0
98.7258 216.0
98.749527 220.0
98.785133 56.0
98.826683 248.0
98.90387 196.0
98.931587 132.0
98.971184 112.0
99.026634 72.0
99.149475 120.0
99.216873 200.0
99.331902 148.0
99.439056 176.0
99.478752 124.0
99.566124 160.0
99.649559 116.0
99.79068 124.0
99.863281 164.0
99.951797 204.0
99.977669 140.0
100.015488 72.0
100.069244 144.0
100.099113 60.0
100.224609 132.0
100.244537 112.0
100.352348 144.0
100.410011 136.0
100.441925 188.0
100.519737 180.0
100.539696 136.0
100.635521 204.0
100.829697 160.0
100.871269 184.0
100.995255 216.0
101.155594 188.0
101.233429 168.0
101.247444 168.0
101.373665 44.0
101.443817 136.0
101.457848 128.0
101.511993 72.0
101.602257 208.0
101.74823 208.0
101.809006 108.0
101.839134 92.0
101.857216 164.0
101.893379 184.0
102.042747 164.0
102.120583 212.0
102.213089 160.0
102.313728 48.0
102.462769 76.0
102.510628 284.0
102.571594 160.0
102.787407 124.0
102.813644 132.0
102.874199 204.0
102.914581 88.0
102.938812 96.0
102.971123 164.0
103.021622 140.0
103.04789 240.0
103.062035 224.0
103.106491 84.0
103.132767 200.0
103.152985 116.0
103.179268 172.0
103.258133 84.0
103.303307 48.0
103.32489 200.0
103.361313 168.0
103.391663 176.0
103.430122 72.0
103.454414 92.0
103.49086 120.0
103.555664 156.0
103.648018 96.0
103.961166 180.0
103.989578 144.0
104.003784 112.0
104.0383 168.0
104.06266 116.0
104.105309 132.0
104.271904 160.0
104.31459 92.0
104.357155 192.0
104.388184 224.0
104.497635 140.0
104.562752 132.0
104.623817 104.0
104.652328 144.0
104.674774 160.0
104.709732 168.0
104.775505 176.0
104.790833 72.0
104.825348 188.0
104.898849 156.0
104.925354 72.0
104.947784 112.0
104.982452 48.0
105.039558 200.0
105.104851 188.0
105.123215 124.0
105.181061 164.0
105.278374 172.0
105.309006 176.0
105.337608 324.0
105.562439 128.0
105.580849 72.0
105.914482 128.0
106.027176 184.0
106.113274 188.0
106.363564 188.0
106.474442 232.0
106.589485 112.0
106.623421 164.0
106.733383 52.0
106.758064 188.0
106.772461 284.0
107.037941 208.0
107.200684 240.0
107.349113 144.0
107.367676 164.0
107.433685 160.0
107.54512 208.0
107.720642 172.0
107.788826 220.0
107.821892 176.0
107.881844 176.0
107.962486 168.0
108.061775 96.0
108.123856 168.0
108.171471 132.0
108.250145 96.0
108.310211 92.0
108.380653 188.0
108.40345 220.0
108.430389 136.0
108.490509 48.0
108.50502 120.0
108.544418 108.0
108.648125 48.0
108.666801 196.0
108.922157 80.0
108.945015 148.0
109.009422 160.0
109.061386 96.0
109.096054 180.0
109.127914 180.0
109.152863 124.0
109.238144 232.0
109.273506 136.0
109.346344 188.0
109.425453 168.0
109.546249 136.0
109.767181 132.0
109.852699 144.0
109.901154 180.0
109.919472 212.0
110.004639 164.0
110.046745 144.0
110.060165 20.0
110.088562 120.0
110.119896 220.0
110.184654 196.0
110.209724 212.0
110.35186 180.0
110.399956 108.0
110.420876 144.0
110.452248 132.0
110.487816 228.0
110.517105 208.0
110.615471 112.0
110.659439 104.0
110.724358 160.0
110.768349 224.0
110.912941 132.0
110.944382 220.0
111.116364 164.0
111.240189 168.0
111.288475 196.0
111.324173 164.0
111.338875 136.0
111.404991 244.0
111.437614 236.0
111.467026 168.0
111.591049 216.0
111.637611 168.0
111.746696 108.0
111.978264 140.0
112.148941 216.0
112.185059 88.0
112.307083 212.0
112.393585 120.0
112.415337 144.0
112.509674 144.0
112.657509 148.0
112.680748 148.0
112.826584 220.0
112.877327 204.0
112.955589 192.0
112.980972 180.0
113.03582 308.0
113.038528 300.0
113.084663 172.0
113.131233 200.0
113.275246 212.0
113.46386 184.0
113.546562 96.0
113.580505 180.0
113.675301 88.0
113.689384 88.0
113.763008 116.0
114.036919 196.0
114.124199 144.0
114.164604 196.0
114.181618 172.0
114.270966 184.0
114.31295 208.0
114.413567 160.0
114.430595 172.0
114.456146 40.0
114.519714 132.0
114.539207 144.0
114.554123 148.0
114.583946 96.0
114.771523 168.0
114.840881 184.0
114.888832 124.0
114.937904 120.0
114.973213 176.0
115.012604 144.0
115.035576 176.0
115.052773 3196.0
115.084015 124.0
115.164215 168.0
115.181305 104.0
115.198395 180.0
115.238983 168.0
115.292412 112.0
115.472 48.0
115.555435 196.0
115.581108 184.0
115.641037 196.0
115.668861 200.0
115.743797 136.0
115.770302 224.0
115.793053 344.0
115.823044 100.0
115.974892 224.0
116.051079 492.0
116.078094 156.0
116.17247 100.0
116.283081 192.0
116.329132 152.0
116.37207 132.0
116.449387 108.0
116.524574 84.0
116.581314 124.0
116.623428 152.0
116.655678 144.0
116.686478 232.0
116.82196 124.0
116.93409 204.0
116.967606 116.0
117.039185 196.0
117.057289 800.0
117.090118 156.0
117.217445 192.0
117.292885 88.0
117.310127 48.0
117.422256 132.0
117.556023 184.0
117.616081 208.0
117.756805 120.0
117.795692 164.0
117.814247 136.0
117.856186 104.0
117.909027 140.0
117.953308 188.0
117.981544 172.0
118.018303 108.0
118.039925 168.0
118.085342 136.0
118.100487 100.0
118.178368 212.0
118.204338 228.0
118.258446 188.0
118.31694 192.0
118.353699 164.0
118.440331 84.0
118.455498 144.0
118.479324 132.0
118.544334 104.0
118.566002 172.0
118.691742 208.0
118.732948 88.0
118.819717 148.0
118.854431 144.0
119.075294 180.0
119.095421 244.0
119.393196 104.0
119.419296 176.0
119.615135 92.0
119.634132 160.0
119.660851 208.0
119.686981 152.0
119.704407 160.0
119.834824 124.0
119.900963 216.0
119.950615 116.0
119.976509 164.0
120.070541 184.0
120.157799 52.0
120.234169 204.0
120.345505 180.0
120.360794 140.0
120.483109 176.0
120.507141 148.0
120.572701 160.0
120.703873 252.0
120.721367 88.0
120.76255 212.0
120.818062 116.0
120.898575 132.0
120.920464 120.0
120.994888 180.0
121.036491 144.0
121.11972 200.0
121.266808 156.0
121.367378 172.0
121.485817 120.0
121.536278 96.0
121.665375 288.0
121.707497 196.0
121.727257 196.0
121.749222 232.0
121.764595 116.0
121.804131 100.0
121.843674 108.0
121.870567 180.0
121.92498 196.0
121.949158 160.0
121.966743 156.0
121.995323 136.0
122.015106 156.0
122.114067 212.0
122.13826 160.0
122.177864 152.0
122.210861 84.0
122.246071 184.0
122.29229 100.0
122.312103 140.0
122.419991 160.0
122.479462 148.0
122.505898 164.0
122.556572 208.0
122.741737 192.0
122.775444 140.0
122.80349 116.0
122.825546 204.0
122.85643 188.0
122.935867 184.0
123.007324 172.0
123.061691 132.0
123.121315 160.0
123.136772 132.0
123.384277 128.0
123.404175 80.0
123.436325 156.0
123.469101 144.0
123.645302 272.0
123.687996 236.0
123.709496 60.0
123.917686 192.0
123.939842 108.0
123.964218 140.0
123.993027 80.0
124.049271 196.0
124.097221 176.0
124.148224 184.0
124.225861 172.0
124.307953 148.0
124.34124 144.0
124.37793 144.0
124.394516 180.0
124.412277 136.0
124.452019 160.0
124.496658 100.0
124.77887 200.0
124.80777 68.0
124.892288 116.0
124.915993 280.0
124.987381 140.0
125.031487 364.0
125.065849 144.0
125.088112 116.0
125.152672 48.0
125.22171 300.0
125.269394 124.0
125.342018 52.0
125.393272 204.0
125.42894 176.0
125.495827 180.0
125.547112 128.0
125.736755 132.0
125.826042 180.0
125.893036 164.0
126.043755 600.0
126.098579 192.0
126.384842 92.0
126.458694 116.0
126.557198 184.0
126.572868 160.0
126.622139 160.0
126.65126 124.0
126.801384 220.0
126.895538 124.0
126.969536 128.0
127.052788 872.0
127.164246 128.0
127.19841 164.0
127.286636 136.0
127.348862 228.0
127.384804 180.0
127.452202 168.0
127.477371 140.0
127.519623 164.0
127.692757 132.0
127.722946 256.0
127.748993 108.0
127.798485 56.0
127.976311 108.0
127.996574 192.0
128.051575 832.0
128.199326 108.0
128.224121 200.0
128.284973 136.0
128.35939 76.0
128.377426 148.0
128.393219 260.0
128.414322 144.0
128.517288 120.0
128.546616 152.0
128.670776 168.0
128.729477 216.0
128.98027 176.0
129.054337 284.0
129.231308 180.0
129.259018 264.0
129.339951 184.0
129.360321 156.0
129.464478 216.0
129.507874 224.0
129.543747 136.0
129.580002 168.0
129.643448 144.0
129.677444 188.0
129.753922 212.0
129.861664 260.0
129.97908 136.0
130.063126 504.0
130.092575 148.0
130.158417 56.0
130.178848 184.0
130.249268 132.0
130.331055 168.0
130.375107 196.0
130.581131 140.0
130.697159 140.0
130.831635 220.0
130.849655 152.0
130.913422 200.0
131.056503 512.0
131.07254 164.0
131.120041 196.0
131.199707 156.0
131.243851 216.0
131.421768 208.0
131.465118 128.0
131.581543 192.0
131.638626 156.0
131.700287 128.0
131.816818 200.0
131.837387 184.0
131.999695 176.0
132.139221 152.0
132.157532 180.0
132.182709 168.0
132.201004 216.0
132.220459 196.0
132.287994 160.0
132.333786 172.0
132.372711 136.0
132.436844 152.0
132.471191 36.0
132.500977 132.0
132.704971 148.0
132.740585 160.0
132.890762 184.0
132.922882 164.0
133.033066 180.0
133.078979 228.0
133.09964 164.0
133.157059 188.0
133.184616 56.0
133.2995 152.0
133.43013 212.0
133.458115 124.0
133.536301 152.0
133.582306 140.0
133.660538 148.0
133.685852 140.0
133.722672 140.0
133.768707 120.0
133.823975 228.0
133.992844 152.0
134.058929 140.0
134.105026 172.0
134.145126 132.0
134.250275 132.0
134.351776 156.0
134.492538 204.0
134.524857 184.0
134.5849 204.0
134.619537 232.0
134.776611 120.0
134.82515 192.0
134.933792 272.0
135.029251 188.0
135.419769 84.0
135.762787 124.0
135.832367 204.0
135.94838 128.0
136.006409 176.0
136.108795 200.0
136.13179 172.0
136.168945 88.0
136.215729 232.0
136.357147 124.0
136.610611 120.0
136.631546 52.0
136.804306 196.0
136.837555 212.0
136.92952 156.0
136.97377 196.0
137.011047 196.0
137.036926 184.0
137.16951 168.0
137.400406 248.0
137.451736 228.0
137.528748 184.0
137.603455 184.0
137.636139 160.0
137.691498 176.0
137.787964 148.0
137.809006 112.0
137.904816 252.0
137.936264 204.0
138.040939 308.0
138.108246 204.0
138.248627 160.0
138.368011 172.0
138.405472 204.0
138.42421 168.0
138.538986 184.0
138.693649 128.0
138.740524 216.0
138.849701 108.0
138.977417 200.0
139.019669 288.0
139.053101 2308.0
139.140656 212.0
139.245056 220.0
139.397766 156.0
139.472916 168.0
139.519989 152.0
139.614044 228.0
139.632858 140.0
139.67659 156.0
139.752838 156.0
139.796417 156.0
139.970474 156.0
139.99295 160.0
140.053421 1412.0
140.078079 420.0
140.12587 252.0
140.196686 100.0
140.233261 164.0
140.255035 84.0
140.287476 56.0
140.320496 172.0
140.423584 128.0
140.490295 76.0
140.532776 72.0
140.622452 60.0
140.681458 136.0
140.735764 236.0
140.804245 100.0
140.929459 268.0
140.977615 252.0
141.021622 52.0
141.068314 1756.0
141.118546 160.0
141.148285 184.0
141.229706 136.0
141.258087 68.0
141.304001 140.0
141.447403 152.0
141.47345 216.0
141.527908 156.0
141.56105 156.0
141.591843 68.0
141.62738 56.0
141.648697 80.0
141.738724 168.0
141.781387 208.0
141.870361 136.0
141.889206 184.0
141.949707 184.0
141.973419 76.0
142.03746 232.0
142.063538 1624.0
142.100494 120.0
142.236801 152.0
142.298523 168.0
142.376892 132.0
142.464767 128.0
142.495667 176.0
142.588333 160.0
142.609726 204.0
142.947449 172.0
142.978607 248.0
143.048935 352.0
143.071503 3856.0
143.133133 212.0
143.23793 144.0
143.278961 200.0
143.305405 188.0
143.430954 200.0
143.470413 152.0
143.490555 128.0
143.584 128.0
143.607407 332.0
143.698059 84.0
143.781586 172.0
143.832779 188.0
143.872284 164.0
143.889008 160.0
143.929596 84.0
143.971069 232.0
144.034683 124.0
144.068237 908.0
144.123077 160.0
144.182831 336.0
144.211502 132.0
144.369308 124.0
144.402878 116.0
144.493698 168.0
144.529465 164.0
144.553513 164.0
144.577438 176.0
144.764175 104.0
144.922287 200.0
144.95343 224.0
144.981522 184.0
145.066406 412.0
145.093781 220.0
145.126022 140.0
145.146439 156.0
145.179977 164.0
145.217163 40.0
145.365906 100.0
145.639618 160.0
145.667877 136.0
145.91951 196.0
145.979431 176.0
146.02179 48.0
146.060318 272.0
146.149292 160.0
146.171921 140.0
146.17955 56.0
146.189041 116.0
146.204651 180.0
146.269638 220.0
146.308151 80.0
146.361115 76.0
146.402054 32.0
146.439362 256.0
146.46228 160.0
146.5466 64.0
146.580338 180.0
146.614075 100.0
146.681564 100.0
146.760559 136.0
146.817123 160.0
146.905838 152.0
146.966156 136.0
147.01683 136.0
147.038544 112.0
147.067474 168.0
147.137695 168.0
147.212051 176.0
147.260681 140.0
147.48056 104.0
147.523834 196.0
147.628052 216.0
147.751419 188.0
147.782867 152.0
147.838531 220.0
147.882095 176.0
147.966827 180.0
147.983765 172.0
148.018402 172.0
148.056412 140.0
148.107285 120.0
148.148468 104.0
148.223572 108.0
148.478134 100.0
148.611557 52.0
148.643097 120.0
148.715912 80.0
148.796021 76.0
148.822449 140.0
148.85672 164.0
148.944168 148.0
148.992752 112.0
149.2966 188.0
149.354965 148.0
149.376862 184.0
149.396332 148.0
149.420654 144.0
149.44986 168.0
149.632401 152.0
149.659195 148.0
149.746857 172.0
149.851608 48.0
149.893036 100.0
150.043884 264.0
150.270996 76.0
150.444275 80.0
150.607986 220.0
150.666519 180.0
150.683624 116.0
150.770981 132.0
150.859589 180.0
150.910934 172.0
150.932953 188.0
150.968384 140.0
150.99408 208.0
151.053345 496.0
151.072708 224.0
151.158005 176.0
151.177582 96.0
151.194702 172.0
151.28038 60.0
151.356277 160.0
151.601257 184.0
151.732147 120.0
151.802277 108.0
151.851334 208.0
151.891953 192.0
151.951904 88.0
152.054443 484.0
152.094254 152.0
152.145798 108.0
152.175262 176.0
152.271042 164.0
152.315262 128.0
152.344894 124.0
152.521667 160.0
152.62001 184.0
152.819244 204.0
152.895538 208.0
152.962601 228.0
152.984146 160.0
153.056015 1684.0
153.484848 152.0
153.538574 96.0
153.592834 124.0
153.792709 32.0
153.824799 192.0
153.945786 148.0
154.064804 1684.0
154.1978 148.0
154.215103 148.0
154.291733 104.0
154.375809 132.0
154.430222 168.0
154.477219 84.0
154.509369 204.0
154.623199 84.0
154.681244 240.0
154.722229 60.0
154.739548 292.0
154.761841 184.0
154.796509 176.0
154.915405 164.0
154.950089 120.0
154.988434 184.0
155.01947 140.0
155.069138 436.0
155.210342 156.0
155.232666 56.0
155.299622 224.0
155.376526 196.0
155.572601 176.0
155.624741 104.0
155.672821 196.0
155.771271 88.0
155.798599 176.0
155.830902 124.0
155.878113 208.0
155.955154 176.0
155.975037 192.0
156.034698 164.0
156.078369 512.0
156.251083 124.0
156.287003 220.0
156.397919 124.0
156.415344 80.0
156.459122 184.0
156.626999 40.0
156.701752 212.0
156.816376 68.0
156.851273 60.0
156.938538 156.0
156.992096 176.0
157.032959 236.0
157.061569 236.0
157.087204 792.0
157.182144 176.0
157.222931 72.0
157.252838 188.0
157.300308 124.0
157.517563 104.0
157.553268 176.0
157.617493 64.0
157.644989 208.0
157.779968 104.0
157.869995 100.0
157.990051 192.0
158.055542 252.0
158.090271 164.0
158.120178 144.0
158.30983 192.0
158.356827 188.0
158.375565 48.0
158.520889 160.0
158.62114 236.0
158.691345 140.0
158.718918 156.0
158.806702 152.0
158.859375 192.0
158.927124 112.0
158.954727 196.0
159.06163 164.0
159.107834 124.0
159.173126 224.0
159.208282 116.0
159.240936 120.0
159.411774 100.0
159.444855 200.0
159.738647 244.0
159.793991 76.0
159.8116 116.0
159.859421 228.0
159.919815 192.0
160.033112 160.0
160.237122 232.0
160.285004 204.0
160.310196 228.0
160.330368 108.0
160.414658 172.0
160.474045 124.0
160.666641 144.0
160.779282 132.0
160.871399 212.0
161.029236 184.0
161.046921 148.0
161.193466 48.0
161.266754 188.0
161.489258 160.0
161.542389 160.0
161.676498 120.0
161.729645 176.0
161.785339 184.0
161.833435 260.0
161.988297 168.0
162.094345 120.0
162.172913 176.0
162.259109 216.0
162.317429 160.0
162.454391 172.0
162.586349 176.0
162.681015 176.0
162.802139 72.0
162.921524 140.0
163.005371 116.0
163.057083 244.0
163.091782 160.0
163.12738 52.0
163.157883 168.0
163.264679 132.0
163.45549 212.0
163.508926 208.0
163.529282 128.0
163.635086 228.0
163.702423 160.0
163.91449 144.0
163.936798 88.0
164.015808 160.0
164.049789 668.0
164.156036 120.0
164.247849 120.0
164.619659 160.0
164.694565 128.0
164.78653 172.0
164.842743 172.0
164.944992 188.0
165.06308 840.0
165.307083 160.0
165.354248 92.0
165.408005 192.0
165.42749 156.0
165.530899 188.0
165.576996 180.0
165.871674 128.0
165.951141 144.0
165.989609 196.0
166.063446 5128.0
166.207718 160.0
166.258972 100.0
166.310303 76.0
166.389893 232.0
166.474625 48.0
166.50531 164.0
166.541412 68.0
166.654449 184.0
166.680145 168.0
166.703278 144.0
166.743057 368.0
166.838913 140.0
166.930969 160.0
166.946487 76.0
166.968079 192.0
167.022095 132.0
167.071548 20760.0
167.14679 128.0
167.171326 100.0
167.189331 188.0
167.251114 128.0
167.275894 136.0
167.320618 84.0
167.378128 60.0
167.407684 108.0
167.516342 48.0
167.58075 32.0
167.603943 84.0
167.665115 76.0
167.737976 128.0
167.894058 156.0
167.915894 72.0
167.990692 72.0
168.030869 272.0
168.07666 8024.0
168.115021 176.0
168.133926 196.0
168.317322 124.0
168.390793 84.0
168.424377 44.0
168.486374 176.0
168.532883 80.0
168.556137 44.0
168.602661 108.0
168.690552 84.0
168.734497 112.0
168.78363 172.0
168.801727 196.0
168.866745 172.0
168.894836 76.0
168.936218 68.0
169.01384 204.0
169.077927 784.0
169.195023 92.0
169.226105 64.0
169.244217 176.0
169.301193 220.0
169.350403 168.0
169.39444 112.0
169.436234 196.0
169.472168 104.0
169.492905 64.0
169.521408 156.0
169.575836 176.0
169.671753 88.0
169.692169 196.0
169.733978 168.0
169.752121 128.0
169.804001 112.0
169.842911 96.0
170.02713 228.0
170.061127 524.0
170.084656 360.0
170.179291 240.0
170.257721 196.0
170.323135 216.0
170.339737 148.0
170.507614 144.0
170.535034 124.0
170.739014 220.0
170.87532 100.0
170.908096 152.0
170.996582 120.0
171.061295 312.0
171.279541 204.0
171.329681 144.0
171.355957 100.0
171.46019 48.0
171.551422 132.0
171.610977 180.0
171.650497 108.0
171.7444 48.0
171.773087 160.0
171.807007 64.0
171.827881 124.0
171.969498 148.0
172.073212 100.0
172.320236 200.0
172.457245 156.0
172.533051 220.0
172.551361 52.0
173.132278 172.0
173.640732 128.0
173.72467 140.0
173.798141 144.0
173.863739 108.0
174.002869 84.0
174.055389 164.0
174.279236 200.0
174.352188 184.0
174.44162 92.0
174.609909 156.0
174.633575 140.0
174.66777 156.0
174.695084 84.0
174.732956 288.0
174.817749 188.0
174.908539 208.0
175.061508 1876.0
175.131058 104.0
175.186371 224.0
175.228531 132.0
175.281662 72.0
175.333267 140.0
175.494751 156.0
175.513199 248.0
175.562622 168.0
175.75589 104.0
175.882568 180.0
175.940643 200.0
175.973419 184.0
175.992905 364.0
176.057098 772.0
176.210037 188.0
176.231171 124.0
176.299438 72.0
176.416183 68.0
176.612045 64.0
176.850021 180.0
176.961212 96.0
177.048264 364.0
177.188705 164.0
177.408966 184.0
177.446091 196.0
177.538895 48.0
177.629074 44.0
177.843185 152.0
177.88649 176.0
178.013947 212.0
178.058487 664.0
178.130814 56.0
178.170654 180.0
178.255692 116.0
178.362 116.0
178.508224 32.0
178.534821 108.0
178.678467 48.0
178.705078 144.0
178.788132 208.0
178.816849 184.0
178.995911 184.0
179.014862 148.0
179.061752 656.0
179.136383 28.0
179.208313 192.0
179.248932 216.0
179.290924 60.0
179.324112 68.0
179.370895 120.0
179.469543 72.0
179.520203 48.0
179.578888 100.0
179.65358 120.0
179.738953 40.0
179.891083 56.0
179.936478 152.0
179.987213 244.0
180.019257 148.0
180.079391 5504.0
180.131439 152.0
180.174179 128.0
180.240982 104.0
180.268646 168.0
180.313141 44.0
180.354401 128.0
180.446793 56.0
180.508301 116.0
180.529694 144.0
180.572479 260.0
180.609924 124.0
180.702408 188.0
180.79454 148.0
180.91835 192.0
180.956406 180.0
181.085876 11512.0
181.222046 64.0
181.306076 108.0
181.351654 128.0
181.38382 144.0
181.426712 56.0
181.461563 176.0
181.496414 72.0
181.566147 84.0
181.603699 96.0
181.643936 64.0
181.662704 60.0
181.812973 72.0
181.863968 156.0
181.912628 156.0
181.946487 80.0
181.988571 156.0
182.090988 9008.0
182.158493 164.0
182.190353 216.0
182.231888 28.0
182.269516 296.0
182.323257 252.0
182.398514 116.0
182.439743 72.0
182.460358 156.0
182.482086 48.0
182.522202 48.0
182.583603 120.0
182.63887 148.0
182.675507 60.0
182.694336 96.0
182.863861 96.0
182.920395 140.0
182.982315 180.0
183.022705 144.0
183.094666 1408.0
183.134445 300.0
183.16275 56.0
183.217834 216.0
183.25209 176.0
183.302856 44.0
183.327103 164.0
183.348663 60.0
183.405273 136.0
183.446533 156.0
183.496933 76.0
183.526596 48.0
183.602097 60.0
183.645248 72.0
183.72348 52.0
183.750458 56.0
183.781174 168.0
183.810364 140.0
183.896194 128.0
183.952881 208.0
184.068756 344.0
184.099197 172.0
184.177017 116.0
184.217529 72.0
184.282379 100.0
184.331009 180.0
184.36615 116.0
184.449936 152.0
184.572693 128.0
184.59053 192.0
184.652725 132.0
184.686325 144.0
184.727081 124.0
184.842102 128.0
184.92601 116.0
184.953079 212.0
185.042419 176.0
185.086655 128.0
185.177811 132.0
185.235092 136.0
185.467743 220.0
185.500275 148.0
185.58432 168.0
185.608734 112.0
185.633133 196.0
185.825729 184.0
185.89357 180.0
186.046661 164.0
186.102585 148.0
186.121597 156.0
186.165039 152.0
186.197632 140.0
186.289993 96.0
186.365845 100.0
186.390518 84.0
186.512817 56.0
186.58078 72.0
186.648758 164.0
186.752106 60.0
186.801071 84.0
186.820114 48.0
186.917282 224.0
186.983383 136.0
187.033005 104.0
187.176682 176.0
187.266556 136.0
187.301956 236.0
187.342819 140.0
187.446365 144.0
187.582642 192.0
187.681335 120.0
187.830429 212.0
187.904449 220.0
188.081848 88.0
188.182861 316.0
188.395889 72.0
188.663727 80.0
188.770355 128.0
188.939957 136.0
189.032806 124.0
189.098663 148.0
189.172577 172.0
189.454651 184.0
189.484787 184.0
189.525894 84.0
189.583435 156.0
189.616333 200.0
189.789032 108.0
189.85759 52.0
189.950851 148.0
190.060959 444.0
190.280182 148.0
190.307648 160.0
190.362564 296.0
190.39003 268.0
190.455948 156.0
190.48616 148.0
190.705994 152.0
190.791214 168.0
190.821457 172.0
190.87645 164.0
190.895691 184.0
190.957275 368.0
190.997467 156.0
191.067795 1460.0
191.110352 188.0
191.335953 192.0
191.393784 192.0
191.415817 116.0
191.491226 168.0
191.510437 100.0
191.66571 100.0
191.798782 96.0
191.972488 96.0
191.991791 40.0
192.072617 3392.0
192.12674 164.0
192.171097 192.0
192.348587 64.0
192.378098 84.0
192.433304 144.0
192.463684 192.0
192.541336 164.0
192.615585 84.0
192.648743 44.0
192.680725 76.0
192.726105 88.0
192.799347 212.0
192.875671 100.0
192.92659 156.0
192.961349 144.0
193.001129 144.0
193.075134 25944.0
193.154633 32.0
193.200241 72.0
193.286209 108.0
193.312347 92.0
193.342789 40.0
193.378769 80.0
193.414749 216.0
193.497803 40.0
193.52272 80.0
193.542099 32.0
193.566391 156.0
193.590683 164.0
193.62796 36.0
193.647339 112.0
193.669495 76.0
193.721054 184.0
193.812912 188.0
193.839569 52.0
193.871765 116.0
193.91394 172.0
193.958252 136.0
193.975739 156.0
194.003555 80.0
194.023743 148.0
194.082397 18780.0
194.139404 52.0
194.186096 32.0
194.211502 60.0
194.219727 120.0
194.241287 160.0
194.272018 184.0
194.296021 92.0
194.320984 124.0
194.340408 60.0
194.379257 64.0
194.40889 144.0
194.437881 192.0
194.484726 64.0
194.555588 144.0
194.581894 32.0
194.615204 60.0
194.654083 28.0
194.696442 288.0
194.740173 140.0
194.792953 204.0
194.82074 136.0
194.877609 96.0
194.895752 196.0
194.941071 52.0
194.977249 116.0
195.020813 128.0
195.085358 3328.0
195.134552 44.0
195.169708 72.0
195.207092 64.0
195.31279 132.0
195.33226 44.0
195.362396 96.0
195.42128 36.0
195.447891 128.0
195.488831 88.0
195.499619 136.0
195.554871 124.0
195.577805 140.0
195.621933 96.0
195.680969 168.0
195.813812 88.0
195.882233 156.0
195.925232 104.0
195.950775 72.0
196.089859 612.0
196.162125 172.0
196.234604 168.0
196.309891 128.0
196.357315 164.0
196.39357 60.0
196.438202 112.0
196.477264 36.0
196.537003 196.0
196.561935 116.0
196.604324 116.0
196.63353 76.0
196.801025 304.0
196.870834 124.0
196.935074 164.0
197.002121 188.0
197.044022 116.0
197.068115 284.0
197.078445 176.0
197.121475 224.0
197.178162 176.0
197.2117 136.0
197.273209 400.0
197.326324 128.0
197.348694 52.0
197.371063 100.0
197.597626 148.0
197.62561 312.0
197.967117 148.0
198.000732 236.0
198.019836 184.0
198.062347 172.0
198.090363 148.0
198.178131 180.0
198.213638 64.0
198.282349 156.0
198.353775 176.0
198.522018 180.0
198.54483 148.0
198.604523 192.0
198.906403 164.0
198.928864 96.0
199.007477 136.0
199.068375 280.0
199.215317 152.0
199.372665 240.0
199.485107 140.0
199.504776 188.0
199.639755 144.0
199.667877 108.0
199.762466 216.0
200.023926 140.0
200.056534 928.0
200.098755 240.0
200.360352 200.0
200.554794 164.0
200.698578 108.0
200.763443 168.0
200.8396 188.0
200.98912 100.0
201.060394 300.0
201.087906 176.0
201.257294 232.0
201.325058 108.0
201.55954 212.0
201.743256 152.0
201.811111 56.0
201.898773 112.0
202.105286 140.0
202.125092 116.0
202.180435 180.0
202.230499 248.0
202.263779 144.0
202.388351 164.0
202.461975 188.0
202.562775 176.0
202.733963 144.0
202.858673 76.0
202.915375 148.0
203.006119 120.0
203.077026 92.0
203.142258 108.0
203.224533 104.0
203.306305 192.0
203.349411 124.0
203.383469 172.0
203.431732 100.0
203.590744 220.0
203.707199 168.0
203.792435 128.0
204.051666 156.0
204.108551 152.0
204.133865 212.0
204.216019 64.0
204.419678 124.0
204.654297 148.0
204.693039 164.0
204.77243 156.0
204.793839 136.0
204.890701 116.0
205.001175 124.0
205.074112 508.0
205.167145 112.0
205.23558 212.0
205.575043 180.0
205.717758 124.0
205.770477 276.0
205.83197 168.0
205.88623 168.0
205.974777 136.0
206.082245 5032.0
206.180496 156.0
206.286255 96.0
206.360596 124.0
206.457825 224.0
206.500168 188.0
206.535049 204.0
206.560791 180.0
206.618011 236.0
206.735321 176.0
206.804016 100.0
206.838623 136.0
206.868256 200.0
206.945526 148.0
206.967392 176.0
206.995834 196.0
207.029099 188.0
207.051712 216.0
207.091263 48116.0
207.149399 52.0
207.157822 84.0
207.184891 164.0
207.22113 184.0
207.267975 180.0
207.295319 52.0
207.333893 68.0
207.356812 212.0
207.377289 224.0
207.398911 184.0
207.441406 168.0
207.454071 56.0
207.463715 164.0
207.491547 52.0
207.520706 96.0
207.573517 452.0
207.609619 208.0
207.656479 164.0
207.701187 120.0
207.752945 84.0
207.780838 100.0
207.82608 208.0
207.843567 164.0
207.855255 140.0
207.864777 136.0
207.878418 104.0
207.888962 168.0
207.944534 44.0
207.987457 148.0
208.041031 468.0
208.098785 74560.0
208.163223 272.0
208.194214 196.0
208.246017 180.0
208.292496 112.0
208.326538 68.0
208.336884 148.0
208.364716 176.0
208.416397 148.0
208.42746 60.0
208.436813 200.0
208.476212 152.0
208.507736 64.0
208.527863 64.0
208.573517 236.0
208.613617 256.0
208.659912 192.0
208.694489 96.0
208.729218 160.0
208.754517 120.0
208.803055 248.0
208.835785 264.0
208.859955 228.0
208.898804 132.0
208.93277 168.0
208.953842 304.0
208.984894 160.0
209.031616 204.0
209.106766 152396.0
209.177841 204.0
209.186752 224.0
209.197021 156.0
209.205582 84.0
209.213669 88.0
209.255386 100.0
209.299835 140.0
209.343979 84.0
209.389954 260.0
209.444824 136.0
209.464661 212.0
209.529007 152.0
209.554855 216.0
209.580017 1072.0
209.621124 60.0
209.628815 52.0
209.642914 108.0
209.674393 140.0
209.705429 108.0
209.750931 84.0
209.796127 124.0
209.838928 212.0
209.900406 192.0
209.924194 52.0
209.964844 136.0
210.041977 172.0
210.064789 168.0
210.109375 24616.0
210.175171 104.0
210.209488 216.0
210.253937 188.0
210.280792 144.0
210.301559 204.0
210.327332 52.0
210.355927 80.0
210.386627 92.0
210.414749 88.0
210.442169 80.0
210.461807 80.0
210.503433 148.0
210.542892 84.0
210.574203 36.0
210.615906 120.0
210.661606 92.0
210.722214 44.0
210.752792 108.0
210.796021 152.0
210.820038 168.0
210.848984 80.0
210.890152 92.0
210.934769 88.0
211.016647 112.0
211.063248 128.0
211.08197 140.0
211.110077 2612.0
211.151627 104.0
211.201355 104.0
211.23262 72.0
211.2789 36.0
211.323685 176.0
211.373062 104.0
211.413559 60.0
211.461014 104.0
211.464981 120.0
211.480759 96.0
211.487534 88.0
211.547333 164.0
211.594406 176.0
211.632889 120.0
211.665802 48.0
211.672699 84.0
211.718307 60.0
211.752686 156.0
211.801437 96.0
211.808441 48.0
211.821777 140.0
211.846344 40.0
211.881104 68.0
212.002808 112.0
212.066574 136.0
212.104263 64.0
212.226028 56.0
212.362335 64.0
212.460953 128.0
212.556702 80.0
212.582123 100.0
212.646683 88.0
212.696014 92.0
212.826675 120.0
213.008133 108.0
213.047409 64.0
213.088089 236.0
213.242111 56.0
213.332214 36.0
213.457245 120.0
213.553223 68.0
213.657944 36.0
213.713226 72.0
213.838364 72.0
214.033417 164.0
214.097488 48.0
214.13826 64.0
214.208176 28.0
214.346466 112.0
214.51416 40.0
214.54039 72.0
214.662857 56.0
215.488937 32.0
215.57077 76.0
215.602905 52.0
215.637985 76.0
215.690598 80.0
215.751984 80.0
215.956696 140.0
216.021042 72.0
216.228806 120.0
216.322464 92.0
216.606522 128.0
216.843872 32.0
216.993378 104.0
217.151733 40.0
217.216263 100.0
217.409927 52.0
217.433411 152.0
217.624222 76.0
217.912064 88.0
218.076645 60.0
218.179962 108.0
218.250092 36.0
218.288315 72.0
218.351013 88.0
218.414795 92.0
218.879807 88.0
219.009399 88.0
219.180283 56.0
219.354172 60.0
219.598907 28.0
219.678558 104.0
220.398972 92.0
220.446259 88.0
220.531967 44.0
220.682739 124.0
220.827637 108.0
221.416641 120.0
221.541046 108.0
222.065735 80.0
222.484146 28.0
224.162262 92.0
224.206436 204.0
225.14624 56.0
225.349365 96.0
225.433029 36.0
225.540634 48.0
225.633316 112.0
225.794785 56.0
226.07196 2504.0
226.147842 68.0
227.075989 400.0
228.076584 160.0
229.220276 68.0
229.383026 56.0
229.461411 84.0
231.0168 80.0
232.28006 52.0
232.771744 120.0
233.54068 80.0
235.296005 56.0
239.149475 72.0
240.088135 196.0
240.817596 84.0
241.445023 112.0
244.824829 104.0
247.50737 44.0
249.389755 88.0
255.416809 88.0
256.53775 60.0
259.389313 128.0
259.575287 68.0
263.93869 68.0
269.082367 72.0
269.624634 40.0
270.563446 120.0
270.858185 68.0
272.728607 96.0
275.946198 52.0
284.844849 56.0
285.271637 40.0
290.910065 112.0
291.219055 92.0
292.330841 68.0
294.045105 148.0
296.775055 44.0
297.416626 84.0
299.77948 56.0
300.686523 36.0
302.15863 68.0
302.400208 104.0
304.894623 48.0
306.920715 72.0
308.271667 104.0
309.552063 132.0
312.873749 72.0
313.215363 76.0
315.431458 136.0
315.562256 52.0
316.634491 76.0
321.466064 28.0
321.990875 92.0
322.794983 92.0
323.825714 48.0
327.503815 44.0
330.142212 48.0
330.438843 108.0
332.972748 56.0
334.529053 76.0
338.036713 60.0
338.823975 32.0
341.807404 144.0
341.949005 116.0
343.245819 96.0
345.362061 80.0
345.683929 76.0
355.308868 100.0
359.146027 108.0
360.834106 68.0
361.571777 76.0
369.054718 96.0
369.831329 84.0
375.101654 84.0
375.707123 84.0
375.761139 96.0
376.904053 80.0
379.939667 92.0
382.870575 80.0
383.03418 104.0
385.578217 40.0
386.199921 84.0
396.298157 104.0
397.717957 60.0
399.736969 28.0
400.027527 104.0
407.751678 132.0
408.447296 128.0
408.628326 76.0
408.990509 56.0
415.707916 92.0
418.504669 112.0
422.259125 64.0
425.488251 72.0
428.317657 92.0
431.592224 48.0
434.610199 44.0
437.086792 96.0
438.244385 120.0
438.619476 44.0
438.940491 60.0
441.6427 112.0
443.049255 92.0
443.547943 64.0
445.121307 112.0
445.600159 44.0
447.64447 36.0
447.707642 68.0
451.518707 68.0
452.487762 32.0
453.17392 84.0
453.771576 76.0
454.564789 100.0
467.143921 44.0
481.9375 44.0
498.031647 44.0
506.01886 60.0
506.296509 44.0
510.987457 60.0
513.365845 64.0
513.4245 48.0
515.822144 28.0
533.313293 116.0
536.913818 104.0
537.070679 44.0
537.245972 60.0
543.274109 44.0
545.433533 60.0
551.79718 44.0
552.082458 104.0
569.678711 84.0
591.668823 28.0
601.191345 76.0
612.493103 72.0
623.770874 52.0
625.840515 64.0
633.061401 104.0
633.226685 108.0
640.328735 100.0
645.749512 76.0
646.776672 80.0
660.7771 76.0
672.029663 48.0
673.175598 112.0
706.521301 116.0
711.848328 100.0
714.138977 80.0
716.507935 80.0
734.186951 180.0
735.249756 88.0
735.967773 52.0
748.412292 104.0
748.450378 164.0
749.796021 52.0
755.600769 184.0
800.269409 72.0
800.477783 76.0
804.746399 48.0
807.917175 80.0
809.043396 124.0
821.848938 72.0
840.838806 100.0
853.549438 152.0
855.52771 104.0
856.156616 108.0
859.356934 88.0
882.29895 56.0
891.944336 44.0
895.603943 156.0
903.681396 72.0
905.716858 180.0
908.3125 136.0
929.083557 100.0
930.467346 208.0
932.411194 60.0
938.37085 80.0
940.927307 104.0
953.024292 96.0
957.558289 96.0
958.297546 56.0
965.402649 120.0
966.120178 148.0
969.00531 92.0
969.383301 84.0
977.555847 56.0
977.798584 56.0
979.6604 52.0
982.391052 104.0
993.740356 104.0
994.958008 40.0
998.822937 144.0
999.024231 228.0
1008.426392 100.0
1013.698364 144.0
1019.219238 28.0
1020.13446 124.0
1021.272766 152.0
1030.274048 252.0
1035.737305 236.0
1037.146973 228.0
1051.361572 124.0
1053.479614 96.0
1055.347412 244.0
1060.163696 188.0
1069.282227 124.0
1074.280151 212.0
1084.088257 116.0
1094.954834 136.0
1096.292236 124.0
1096.358154 148.0
1097.630493 172.0
1099.39856 224.0
1100.560303 216.0
1102.833008 96.0
1104.20166 140.0
1116.338501 108.0
1130.742676 32.0
1130.796265 40.0
1130.943481 44.0
1130.99707 156.0
1131.840698 44.0
1132.87207 84.0
1138.137207 144.0
1138.473022 228.0
1142.324463 176.0
1148.683838 172.0
1149.05481 160.0
1152.532227 136.0
1154.966064 124.0
1156.366821 200.0
1156.881226 204.0
1161.231689 220.0
1161.34021 48.0
1164.204346 200.0
1172.368286 136.0
1177.034424 140.0
1178.878906 60.0
1179.685547 84.0
1180.69751 128.0
1184.838867 64.0
1189.522949 204.0
1192.985352 48.0
1193.645386 188.0
1199.015259 120.0
1199.415039 80.0
1200.601074 132.0
1201.987671 80.0
1202.284424 124.0
1203.071289 200.0
1208.427734 112.0
1213.026367 84.0
1215.523315 156.0
1215.571899 184.0
1216.585327 168.0
1220.601318 120.0
1223.328857 28.0
1224.603149 152.0
1224.951416 52.0
1225.174438 132.0
1227.6698 56.0
1230.391235 180.0
1232.995361 228.0
1234.220215 172.0
1234.800659 140.0
1235.975952 180.0
1236.402832 56.0
1239.196899 140.0
1241.59436 156.0
1245.953613 168.0
1247.710693 192.0
1250.841309 32.0
1252.531372 104.0
1253.137207 172.0
1255.689209 148.0
1263.127197 84.0
1270.629639 168.0
1274.435425 184.0
1278.474609 112.0
1282.163818 160.0
1286.536499 176.0
1287.686157 268.0
1292.404541 60.0
1293.828857 52.0
1295.153687 132.0
1295.21106 64.0
1295.36145 148.0
1295.705322 80.0
1295.920288 128.0
1296.199707 96.0
1296.995239 152.0
1299.505371 120.0
1301.464966 60.0
1301.902954 192.0
1302.448853 112.0
1303.519409 44.0
1305.410034 184.0
1310.160767 212.0
1310.405762 180.0
1310.49939 156.0
1310.549805 168.0
1312.928711 176.0
1314.104614 116.0
1315.129395 192.0
1315.677979 128.0
1316.948975 52.0
1317.100708 220.0
1323.197266 120.0
1324.877563 132.0
1325.609375 220.0
1325.754272 160.0
1328.698364 144.0
1331.558472 160.0
1336.953125 136.0
1338.015869 48.0
1339.363159 240.0
1340.157349 60.0
1340.215576 76.0
1340.988159 204.0
1341.192139 152.0
1342.088989 216.0
1342.285767 60.0
1342.526489 196.0
1343.9198 96.0
1345.36499 20.0
1346.92041 100.0
1347.804443 180.0
1350.078003 140.0
1351.921631 172.0
1353.356445 56.0
1353.583496 188.0
1353.890991 48.0
1354.799316 120.0
1355.451416 136.0
1356.045044 156.0
1356.5802 136.0
1360.387695 228.0
1364.457764 140.0
1365.494751 64.0
1366.458374 280.0
1369.056885 152.0
1369.903931 152.0
1371.576782 124.0
1371.842163 204.0
1372.210815 156.0
1374.851685 164.0
1376.532227 212.0
1377.664917 156.0
1377.775757 168.0
1380.22229 196.0
1382.086426 152.0
1383.522339 116.0
1384.78125 148.0
1385.113525 144.0
1385.684937 152.0
1387.560181 160.0
1388.435181 224.0
1390.208374 200.0
1390.525879 224.0
1390.742676 64.0
1391.55188 148.0
1391.997437 208.0
1395.199951 156.0
1399.247314 228.0
1400.893311 52.0
1401.563843 88.0
1402.510376 248.0
1402.719116 144.0
1403.017334 76.0
1403.248413 136.0
1403.539185 168.0
1404.926514 144.0
1405.135498 184.0
1406.822144 120.0
1407.068604 96.0
1407.270142 160.0
1409.174805 132.0
1414.68689 212.0
1415.600464 120.0
1416.431763 144.0
1421.07251 140.0
1422.06311 184.0
1422.175781 168.0
1422.23584 180.0
1422.491089 96.0
1422.911499 168.0
1423.737427 200.0
1425.758423 228.0
1426.18689 124.0
1426.449951 156.0
1427.91626 52.0
1428.345093 88.0
1430.015503 48.0
1433.270874 272.0
1434.316528 188.0
1434.821655 148.0
1436.677002 144.0
1439.507568 28.0
1439.643433 116.0
1441.585083 200.0
1442.151855 196.0
1442.862549 84.0
1442.915405 240.0
1443.293457 164.0
1443.633789 148.0
1444.231323 36.0
1445.744507 132.0
1445.971558 220.0
1446.713379 148.0
1446.819458 216.0
1449.538696 156.0
1450.948486 144.0
1451.009155 184.0
1453.846191 248.0
1454.256104 100.0
1454.734253 348.0
1455.334106 224.0
1455.782104 140.0
1456.70874 212.0
1457.407837 156.0
1457.795288 200.0
1457.848511 156.0
1458.084106 108.0
1458.889893 176.0
1459.102783 124.0
1460.152222 128.0
1460.616211 224.0
1461.985718 152.0
1462.236694 144.0
1462.800171 132.0
1464.109863 180.0
1464.993408 168.0
1465.206787 176.0
1466.258423 188.0
1466.563232 148.0
1466.669922 172.0
1467.622925 96.0
1469.331543 212.0
1469.835083 180.0
1470.506714 184.0
1471.094482 160.0
1471.346436 156.0
1471.407471 156.0
1471.934326 164.0
1472.35437 176.0
1473.240479 140.0
1473.393311 116.0
1474.371338 108.0
1475.938599 104.0
1478.547241 132.0
1478.998901 144.0
1479.5271 180.0
1480.147339 184.0
1480.292725 176.0
1481.57959 48.0
1482.782715 144.0
1483.648926 208.0
1485.880737 192.0
1486.51001 140.0
1486.701782 168.0
1487.46167 112.0
1488.836182 156.0
1489.0896 52.0
1492.909424 212.0
1493.20166 144.0
1493.640137 196.0
1494.486328 196.0
1495.456055 120.0
1497.019043 160.0
1497.404053 176.0
1498.675171 140.0
1498.76001 192.0
1500.532837 204.0
1500.594482 136.0
1501.234497 136.0
1502.028931 172.0
1503.533569 144.0
1503.707764 244.0
1504.969482 136.0
