>compound MLS001074128-01!ALPHA-[1-(T-BUTYLAMINO)ETHYL]-2,5-DIMETHOXYBENZYL ALCOHOL HYDROCHLORIDE
>formula C15H25NO3
>ionization [M+H]+
>parentmass 268.1907201120905
#inchi InChI=1S/C15H25NO3/c1-10(16-15(2,3)4)14(17)12-9-11(18-5)7-8-13(12)19-6/h7-10,14,16-17H,1-6H3/t10-,14-/m0/s1
#inchikey TWUSDDMONZULSC
#origInchi InChI=1S/C15H25NO3.ClH/c1-10(16-15(2,3)4)14(17)12-9-11(18-5)7-8-13(12)19-6;/h7-10,14,16-17H,1-6H3;1H/t10-,14-;/m0./s1
#Ion_Source LC-ESI
#Instrument qTof
#Compound_Source NIH Pharmacologically Active Library
#PI Dorrestein
#Data_Collector VP/LMS
#Scan -1
#Precursor_MZ 268.192
#ExactMass 267.183
#Charge 1
#CAS_Number N/A
#Pubmed_ID N/A
#Smiles COc1ccc(OC)c(c1)[C@@H](O)[C@H](C)NC(C)(C)C.Cl
#INCHI_AUX N/A
#Library_Class 1
#SpectrumID CCMSLIB00000084952
#IonMode Positive
#UpdateWorkflowName UPDATE-SINGLE-ANNOTATED-GOLD
#LibraryQualityString Gold
#TaskID d252d724072548979f1f6f1ced849daf
##Scan# 1476
#SpectrumFile p3-D02_GD2_01_18259.mzXML
#LibraryName Pharm_Active_Library.mgf
#MQScore -1
#Organism Pharm_Active_Library
#TIC_Query 0
#RT_Query -1
#MZErrorPPM -1
#SharedPeaks 0
#MassDiff 0
#LibMZ -1
#SpecMZ 268.192
#SpecCharge 0
#internalFilename spec-00000.mgf

>collision 10
44.887981 48.0
44.913322 104.0
45.131012 108.0
45.151772 140.0
45.171135 152.0
45.417618 192.0
45.47934 184.0
45.552372 124.0
45.565289 280.0
45.635181 180.0
45.711853 208.0
45.862698 144.0
46.113758 100.0
46.131332 156.0
46.185421 220.0
46.230072 220.0
46.642399 60.0
46.721272 208.0
46.743042 60.0
46.78796 160.0
46.90921 120.0
46.956936 116.0
46.995132 72.0
47.029251 256.0
47.29306 180.0
47.340981 192.0
47.41222 156.0
47.464314 112.0
47.486256 256.0
47.499973 108.0
47.604286 200.0
47.641819 172.0
47.740341 80.0
47.871078 68.0
47.960632 168.0
47.993111 144.0
48.062691 156.0
48.134472 124.0
48.211834 224.0
48.233948 180.0
48.287876 152.0
48.323845 168.0
48.387512 188.0
48.449837 156.0
48.481705 164.0
48.495567 240.0
48.698147 204.0
48.78569 156.0
48.849663 104.0
48.870533 140.0
49.012562 36.0
49.02359 188.0
49.165962 108.0
49.239956 192.0
49.274879 152.0
49.304226 152.0
49.348289 184.0
49.43045 216.0
49.607971 136.0
49.626198 128.0
49.720184 192.0
49.746853 168.0
49.77634 172.0
49.822693 172.0
49.915459 156.0
49.926708 140.0
49.943588 72.0
49.97876 240.0
50.028023 116.0
50.091393 160.0
50.246471 36.0
50.374943 232.0
50.386246 68.0
50.397549 68.0
50.425812 164.0
50.571499 196.0
50.621052 164.0
50.708889 156.0
50.769852 136.0
50.960072 184.0
51.184814 160.0
51.401493 72.0
51.424328 152.0
51.454304 132.0
51.481434 132.0
51.560772 136.0
51.574306 136.0
51.630066 148.0
51.705894 192.0
51.774616 176.0
51.89212 32.0
52.072937 128.0
52.086647 228.0
52.166336 216.0
52.210911 140.0
52.22961 192.0
52.269894 196.0
52.307316 140.0
52.351952 208.0
52.462368 252.0
52.48761 144.0
52.530682 152.0
52.641819 172.0
52.656166 124.0
52.712788 200.0
52.776207 140.0
53.0005 164.0
53.1064 172.0
53.152828 152.0
53.237026 172.0
53.301682 148.0
53.315475 192.0
53.389622 164.0
53.44199 232.0
53.60508 100.0
53.682343 164.0
53.764927 180.0
53.780056 148.0
53.844337 212.0
53.933346 144.0
54.022671 132.0
54.032909 240.0
54.043152 144.0
54.235249 216.0
54.308319 140.0
54.392025 176.0
54.408108 144.0
54.549141 116.0
54.596191 216.0
54.637379 300.0
54.797859 124.0
54.824387 168.0
54.843544 156.0
54.856812 248.0
54.901718 248.0
54.914322 148.0
54.957104 188.0
55.002476 156.0
55.020569 216.0
55.064415 208.0
55.137264 108.0
55.208229 172.0
55.222214 220.0
55.28072 248.0
55.357407 264.0
55.38446 116.0
55.418434 136.0
55.589645 156.0
55.640911 188.0
55.796913 108.0
55.838551 164.0
55.869789 160.0
55.887642 136.0
55.930801 148.0
55.947178 40.0
56.164749 56.0
56.227417 160.0
56.261749 128.0
56.390522 156.0
56.430576 160.0
56.531765 220.0
56.587681 172.0
56.658463 200.0
56.729511 204.0
56.748001 248.0
56.865013 156.0
57.060299 144.0
57.085861 240.0
57.130985 108.0
57.161079 164.0
57.191181 100.0
57.222794 128.0
57.332756 84.0
57.356873 64.0
57.424599 188.0
57.752491 64.0
57.779724 64.0
57.819065 192.0
57.976574 88.0
57.987183 132.0
58.022049 140.0
58.277035 216.0
58.356071 136.0
58.368237 160.0
58.435165 68.0
58.541718 128.0
58.625507 168.0
58.655991 192.0
58.732235 84.0
58.781055 176.0
58.822266 176.0
58.916946 124.0
58.975018 176.0
59.132561 136.0
59.273453 168.0
59.311771 136.0
59.346928 176.0
59.374634 216.0
59.452877 216.0
59.538853 200.0
59.684841 140.0
59.746365 204.0
59.783295 128.0
59.800224 160.0
59.89537 172.0
59.949619 48.0
60.216522 204.0
60.316959 236.0
60.330471 216.0
60.378807 180.0
60.431404 128.0
60.45771 220.0
60.510338 40.0
60.535114 228.0
60.688522 172.0
60.785568 124.0
60.854546 104.0
60.955513 228.0
60.967945 204.0
60.992813 156.0
61.005249 104.0
61.037899 244.0
61.092339 204.0
61.294746 136.0
61.435074 64.0
61.461597 188.0
61.475643 424.0
61.542763 136.0
61.641174 176.0
61.653675 104.0
61.688065 176.0
61.757248 360.0
61.988579 156.0
62.04187 128.0
62.233284 52.0
62.269402 104.0
62.365814 200.0
62.412411 172.0
62.4533 172.0
62.547634 164.0
62.621719 148.0
62.63747 220.0
62.802517 204.0
62.850311 152.0
63.022423 124.0
63.099873 272.0
63.248577 192.0
63.308743 152.0
63.380028 200.0
63.422821 176.0
63.552864 232.0
63.563972 176.0
63.710049 204.0
63.754539 144.0
63.811764 128.0
63.851521 180.0
63.886513 196.0
63.956532 92.0
63.999718 160.0
64.200981 120.0
64.267303 96.0
64.465309 44.0
64.559631 128.0
64.67643 140.0
64.770905 164.0
64.891098 152.0
64.934395 124.0
65.233063 212.0
65.307785 164.0
65.464752 180.0
65.50663 160.0
65.706543 128.0
65.801765 168.0
65.825989 156.0
65.919678 192.0
65.955238 144.0
66.018295 120.0
66.202782 220.0
66.228699 176.0
66.248138 240.0
66.325645 188.0
66.36483 72.0
66.421593 124.0
66.437813 156.0
66.492989 128.0
66.528694 224.0
66.585533 52.0
66.658638 172.0
66.748039 120.0
66.778946 72.0
66.860291 136.0
66.918892 156.0
66.969376 196.0
66.982407 196.0
67.057365 124.0
67.098114 140.0
67.116325 48.0
67.163345 228.0
67.233383 108.0
67.259621 128.0
67.315132 104.0
67.519417 40.0
67.581573 220.0
67.601212 144.0
67.645409 52.0
67.707626 144.0
67.725639 148.0
67.740387 100.0
67.760048 132.0
67.792816 180.0
67.837074 160.0
67.948593 104.0
68.038857 248.0
68.073341 64.0
68.134117 148.0
68.147263 144.0
68.173553 212.0
68.201492 144.0
68.219574 116.0
68.239304 212.0
68.285347 132.0
68.328117 84.0
68.539467 192.0
68.63118 148.0
68.66581 56.0
68.758202 160.0
68.787918 236.0
68.81897 168.0
68.999374 172.0
69.148254 76.0
69.189636 164.0
69.29895 184.0
69.328781 204.0
69.353638 196.0
69.481331 200.0
69.510269 192.0
69.67392 160.0
69.72377 188.0
69.79525 92.0
69.870094 136.0
70.278305 128.0
70.29332 172.0
70.320908 184.0
70.400162 188.0
70.493713 120.0
70.517113 172.0
70.568932 172.0
70.595688 68.0
70.742928 192.0
70.824982 124.0
70.878517 252.0
71.098274 224.0
71.120094 40.0
71.140244 104.0
71.160385 176.0
71.362007 160.0
71.579071 220.0
71.705421 96.0
71.730705 168.0
71.750061 156.0
71.767799 188.0
71.835258 128.0
71.899376 84.0
71.944954 196.0
72.022636 172.0
72.282997 148.0
72.386261 140.0
72.415047 216.0
72.535355 212.0
72.567566 188.0
72.686302 140.0
72.976761 196.0
73.002266 48.0
73.083344 404.0
73.107742 184.0
73.160507 204.0
73.191696 152.0
73.235435 76.0
73.356422 168.0
73.583672 156.0
73.640739 212.0
73.813995 164.0
73.94059 172.0
73.9851 164.0
74.084427 136.0
74.285004 196.0
74.375946 120.0
74.393112 164.0
74.590668 68.0
74.614738 144.0
74.631927 100.0
74.683525 212.0
74.728249 228.0
74.755783 96.0
74.800529 176.0
74.960709 156.0
75.012413 136.0
75.029655 116.0
75.186623 156.0
75.212006 232.0
75.390411 144.0
75.428436 224.0
75.539108 176.0
75.570251 136.0
75.601402 128.0
75.649864 152.0
75.691414 156.0
75.765892 184.0
75.811287 144.0
76.003433 144.0
76.029465 216.0
76.055496 148.0
76.170105 124.0
76.204849 116.0
76.28653 116.0
76.319565 132.0
76.432632 188.0
76.451775 184.0
76.507469 224.0
76.551109 188.0
76.668724 208.0
76.730476 132.0
76.908409 140.0
76.990471 204.0
77.055099 228.0
77.147728 164.0
77.16172 192.0
77.202911 308.0
77.221176 148.0
77.469734 208.0
77.524055 208.0
77.536324 224.0
77.587158 168.0
77.630989 160.0
77.767838 144.0
77.787148 176.0
77.811722 168.0
77.832794 168.0
77.913437 188.0
77.983879 136.0
78.015518 180.0
78.036621 228.0
78.119278 60.0
78.186142 176.0
78.300575 128.0
78.395714 148.0
78.459167 172.0
78.494431 112.0
78.614388 204.0
78.734436 152.0
78.746803 340.0
78.792732 176.0
78.90107 172.0
78.937668 96.0
79.024345 208.0
79.084 180.0
79.164185 228.0
79.254097 152.0
79.362648 272.0
79.420158 140.0
79.504875 228.0
79.534737 176.0
79.797661 192.0
79.822556 148.0
79.980896 220.0
79.996918 260.0
80.030746 152.0
80.077049 148.0
80.16256 156.0
80.579445 228.0
80.628349 220.0
80.673035 36.0
80.732269 188.0
80.778542 112.0
80.937836 128.0
80.977234 196.0
80.998726 176.0
81.066811 132.0
81.145676 156.0
81.219208 200.0
81.312508 84.0
81.414841 220.0
81.599388 180.0
81.715034 56.0
81.817619 148.0
81.864433 116.0
81.90226 180.0
82.028397 136.0
82.17466 156.0
82.260056 172.0
82.364037 136.0
82.47245 168.0
82.571892 176.0
82.662346 196.0
82.756477 136.0
82.834763 212.0
82.855515 188.0
82.977524 120.0
82.992027 60.0
83.084526 60.0
83.164185 192.0
83.2715 144.0
83.35688 128.0
83.48777 64.0
83.656914 196.0
83.742577 212.0
83.902931 368.0
83.917519 136.0
84.04155 136.0
84.145584 220.0
84.178452 164.0
84.235069 92.0
84.679558 236.0
84.765663 140.0
84.785995 168.0
84.961845 88.0
85.17485 128.0
85.293457 160.0
85.349388 172.0
85.376976 188.0
85.424797 200.0
85.467117 168.0
85.533371 52.0
85.625435 220.0
85.647537 152.0
85.806023 108.0
85.931435 28.0
85.986794 120.0
86.134895 172.0
86.178848 140.0
86.317482 156.0
86.717369 64.0
86.841599 224.0
86.867561 204.0
86.891678 116.0
87.081024 228.0
87.146049 228.0
87.160912 128.0
87.456612 84.0
87.557159 152.0
87.730446 156.0
87.750954 140.0
87.764008 136.0
87.833008 44.0
87.933769 176.0
88.028984 180.0
88.058861 252.0
88.142929 176.0
88.156013 100.0
88.182175 184.0
88.335503 216.0
88.412216 196.0
88.539528 160.0
88.567619 156.0
88.597595 204.0
88.640686 172.0
88.91449 172.0
89.021034 244.0
89.111664 80.0
89.203751 112.0
89.290245 192.0
89.335388 196.0
89.384308 260.0
89.416367 216.0
89.453941 208.0
89.480019 132.0
89.529259 140.0
89.56881 120.0
89.927071 144.0
90.083794 232.0
90.172249 192.0
90.197174 180.0
90.346573 152.0
90.393875 92.0
90.46769 224.0
90.539642 140.0
90.621101 140.0
90.723442 180.0
90.823944 360.0
90.894142 116.0
90.948936 156.0
91.052818 1004.0
91.121994 196.0
91.158096 120.0
91.192307 196.0
91.270462 144.0
91.293015 140.0
91.297752 156.0
91.305008 216.0
91.386276 188.0
91.471916 84.0
91.530937 192.0
91.618553 168.0
91.780563 140.0
91.870201 148.0
91.893127 224.0
92.055344 136.0
92.294205 160.0
92.347755 192.0
92.414711 140.0
92.469467 196.0
92.556351 168.0
92.569756 140.0
92.681023 144.0
92.703857 172.0
92.784363 48.0
92.991531 148.0
93.074081 196.0
93.116333 196.0
93.222 84.0
93.306572 120.0
93.328857 208.0
93.414268 172.0
93.522026 144.0
93.63755 112.0
93.66259 148.0
93.679924 196.0
93.74929 124.0
93.899391 176.0
93.945961 224.0
94.026199 172.0
94.040688 220.0
94.06353 184.0
94.094566 272.0
94.119667 188.0
94.144768 196.0
94.167946 204.0
94.227829 116.0
94.334122 144.0
94.378593 116.0
94.397926 164.0
94.419197 184.0
94.46756 172.0
94.4869 196.0
94.573982 188.0
94.694031 140.0
94.845161 128.0
94.876183 84.0
94.99836 52.0
95.050186 324.0
95.073135 208.0
95.080742 148.0
95.171089 192.0
95.221581 192.0
95.291512 168.0
95.459465 216.0
95.482018 60.0
95.52092 176.0
95.553986 116.0
95.608475 136.0
95.6474 40.0
95.661026 136.0
95.687729 140.0
95.717491 116.0
95.783707 136.0
95.871384 168.0
95.968849 192.0
96.027351 68.0
96.076118 136.0
96.132706 272.0
96.262421 224.0
96.28241 276.0
96.321281 164.0
96.343582 312.0
96.441284 156.0
96.672073 124.0
96.71904 208.0
96.832603 44.0
96.891373 196.0
97.072235 204.0
97.293419 84.0
97.39946 192.0
97.417145 164.0
97.472153 216.0
97.523254 136.0
97.586159 152.0
97.686462 144.0
97.72187 116.0
97.757294 156.0
97.830116 152.0
97.867523 220.0
97.991615 224.0
98.031021 184.0
98.058617 160.0
98.228188 72.0
98.400879 168.0
98.484795 184.0
98.540108 176.0
98.6409 116.0
98.660667 76.0
98.706146 160.0
98.77932 84.0
99.004959 136.0
99.240776 168.0
99.860367 44.0
99.957848 64.0
100.047417 84.0
100.107147 176.0
100.154945 168.0
100.224678 168.0
100.424034 200.0
100.475266 120.0
100.52977 84.0
100.630066 180.0
100.789368 76.0
100.911293 176.0
100.937286 196.0
101.009293 180.0
101.039299 176.0
101.077316 224.0
101.223442 132.0
101.483932 128.0
101.527107 204.0
101.584213 264.0
101.624084 204.0
101.629608 140.0
101.774872 136.0
102.04747 168.0
102.080307 172.0
102.178871 192.0
102.335892 220.0
102.591728 208.0
102.720787 48.0
102.922615 136.0
102.952904 184.0
103.001381 228.0
103.053749 1868.0
103.098358 224.0
103.176643 96.0
103.205498 188.0
103.36718 144.0
103.438156 148.0
103.549522 88.0
103.571808 144.0
103.715668 188.0
103.792709 184.0
103.825157 112.0
103.843414 64.0
103.888039 60.0
103.952965 152.0
103.989494 128.0
104.049385 564.0
104.147865 196.0
104.178337 152.0
104.216942 184.0
104.235229 204.0
104.464981 76.0
104.583755 184.0
104.601318 152.0
104.699051 240.0
104.72757 176.0
104.741821 144.0
105.004761 192.0
105.034355 616.0
105.070236 2848.0
105.184319 56.0
105.233315 72.0
105.261902 156.0
105.347687 40.0
105.413063 108.0
105.554115 48.0
105.654335 232.0
105.734749 216.0
105.822166 184.0
105.852875 172.0
105.914322 168.0
105.99012 128.0
106.039742 244.0
106.072212 492.0
106.091782 132.0
106.256668 164.0
106.353119 168.0
106.54615 180.0
106.685905 152.0
106.756805 176.0
106.943916 168.0
107.048279 972.0
107.083557 156.0
107.148956 164.0
107.282921 220.0
107.332405 88.0
107.3489 176.0
107.37571 184.0
107.443779 148.0
107.474731 136.0
107.542831 108.0
107.658447 172.0
107.716278 120.0
107.867134 124.0
107.935356 164.0
108.056221 472.0
108.079117 184.0
108.136024 188.0
108.529633 132.0
108.571106 160.0
108.80558 176.0
108.884491 152.0
108.934341 244.0
109.002907 184.0
109.030014 352.0
109.063179 1600.0
109.140099 216.0
109.196243 200.0
109.211212 184.0
109.308716 188.0
109.420982 144.0
109.441803 176.0
109.462631 44.0
109.548019 72.0
109.608444 216.0
109.65638 44.0
109.808578 188.0
109.877419 132.0
109.988022 236.0
110.033943 124.0
110.072144 176.0
110.125092 216.0
110.318069 220.0
110.430984 116.0
110.508392 124.0
110.723999 112.0
110.761703 68.0
110.929344 120.0
110.958694 184.0
111.000626 204.0
111.042572 176.0
111.151665 124.0
111.170547 172.0
111.189438 176.0
111.399406 124.0
111.521286 108.0
111.569633 224.0
111.588554 220.0
111.693703 116.0
111.843102 200.0
111.885208 136.0
111.971542 136.0
111.992599 116.0
112.083191 164.0
112.249718 100.0
112.395271 160.0
112.451622 176.0
112.524025 112.0
112.619049 192.0
112.701439 128.0
112.82399 248.0
113.010147 212.0
113.07151 212.0
113.209122 232.0
113.238777 196.0
113.552452 160.0
113.692482 140.0
113.756157 184.0
113.781631 96.0
113.836838 304.0
114.047173 140.0
114.066299 176.0
114.342812 144.0
114.540405 220.0
114.566391 180.0
114.636703 116.0
114.694252 132.0
114.734756 212.0
114.916039 156.0
115.053947 1028.0
115.114555 120.0
115.136017 152.0
115.268356 124.0
115.354988 180.0
115.422264 132.0
115.542046 184.0
115.574135 136.0
115.652489 216.0
115.713257 136.0
115.742805 180.0
115.899895 204.0
116.008911 196.0
116.058693 316.0
116.120407 192.0
116.159019 172.0
116.253426 148.0
116.401543 224.0
116.450943 88.0
116.496048 116.0
116.648621 76.0
116.700218 196.0
116.779793 128.0
116.846474 216.0
116.867989 144.0
116.915337 156.0
117.066917 1076.0
117.102638 204.0
117.158646 76.0
117.212509 104.0
117.257767 136.0
117.339684 168.0
117.365555 180.0
117.387115 92.0
117.424545 136.0
117.585594 232.0
117.63092 152.0
117.708649 144.0
117.778923 200.0
117.85553 200.0
117.896591 152.0
118.028458 168.0
118.065216 2736.0
118.104149 144.0
118.229637 120.0
118.318382 184.0
118.358444 136.0
118.411499 112.0
118.563156 60.0
118.667206 200.0
118.727921 112.0
118.795158 140.0
118.814682 68.0
119.016533 172.0
119.048813 2620.0
119.072746 3668.0
119.159889 124.0
119.264198 52.0
119.326187 124.0
119.355507 52.0
119.383781 44.0
119.403351 68.0
119.514297 212.0
119.541649 140.0
119.616585 120.0
119.742874 44.0
119.777725 156.0
119.825653 208.0
119.886665 136.0
120.028358 180.0
120.057167 1516.0
120.077278 836.0
120.106873 60.0
120.222504 128.0
120.259613 156.0
120.310616 204.0
120.379684 120.0
120.427734 200.0
120.447395 164.0
120.554451 156.0
120.703102 236.0
120.733711 172.0
120.750137 220.0
120.832146 188.0
120.924057 180.0
120.972214 188.0
121.064224 5820.0
121.129883 96.0
121.167122 32.0
121.256966 180.0
121.302994 80.0
121.345818 64.0
121.502556 144.0
121.537666 68.0
121.735222 108.0
122.014282 192.0
122.068535 796.0
122.146225 220.0
122.291451 200.0
122.40593 124.0
122.68869 132.0
122.721031 128.0
122.867165 140.0
122.908516 164.0
122.92617 180.0
122.992378 200.0
123.044212 11140.0
123.077354 180.0
123.11602 80.0
123.146942 44.0
123.184494 88.0
123.292763 32.0
123.392227 52.0
123.436455 84.0
123.469627 160.0
123.522705 88.0
123.558105 124.0
123.732948 184.0
123.777229 76.0
123.814873 124.0
123.89019 252.0
123.96109 104.0
124.047943 1380.0
124.120689 176.0
124.149521 168.0
124.393585 116.0
124.440918 128.0
124.46241 188.0
124.544579 104.0
124.709007 144.0
124.820168 116.0
125.009247 40.0
125.038177 140.0
125.067116 128.0
125.160614 64.0
125.191795 156.0
125.47924 212.0
125.610817 112.0
125.682205 116.0
125.753616 56.0
125.90097 76.0
125.98362 260.0
126.106514 164.0
126.285385 116.0
126.408432 176.0
126.426338 156.0
126.4711 88.0
126.551697 268.0
126.717438 204.0
126.885529 200.0
126.995407 156.0
127.051804 200.0
127.195114 284.0
127.345551 136.0
127.43541 144.0
127.592735 152.0
127.664688 84.0
127.761414 180.0
127.783913 144.0
127.911789 132.0
128.059982 512.0
128.13739 184.0
128.16011 228.0
128.186966 108.0
128.331223 112.0
128.358276 168.0
128.423676 160.0
128.459778 128.0
128.728363 116.0
129.00386 176.0
129.067535 124.0
129.121582 132.0
129.18718 208.0
129.298065 164.0
129.343323 156.0
129.399918 36.0
129.481445 208.0
129.57431 28.0
129.684341 116.0
129.762436 220.0
129.853134 112.0
130.034637 152.0
130.065109 3420.0
130.214005 92.0
130.248077 140.0
130.286179 176.0
130.359406 160.0
130.388947 120.0
130.429855 168.0
130.552643 116.0
130.618591 160.0
130.736908 80.0
130.773315 192.0
130.948639 204.0
130.996475 244.0
131.050995 640.0
131.072845 6644.0
131.104385 100.0
131.187897 184.0
131.221039 148.0
131.274536 208.0
131.352081 112.0
131.38858 200.0
131.473007 160.0
131.488983 164.0
131.511307 92.0
131.536331 124.0
131.613022 184.0
131.644226 140.0
131.721878 144.0
131.767578 148.0
131.820129 188.0
131.916122 88.0
132.043503 3792.0
132.076691 1564.0
132.151688 140.0
132.184021 60.0
132.202026 156.0
132.309601 52.0
132.364563 92.0
132.481369 52.0
132.566147 140.0
132.728897 92.0
132.783936 40.0
132.813751 148.0
132.875687 184.0
132.912399 104.0
132.946823 160.0
133.0233 164.0
133.06308 496.0
133.135071 152.0
133.162628 116.0
133.311966 128.0
133.413101 176.0
133.44989 68.0
133.468277 100.0
133.544174 240.0
133.661499 40.0
133.70752 148.0
133.774277 72.0
133.822632 136.0
134.018402 116.0
134.041824 172.0
134.071335 804.0
134.09433 160.0
134.348099 168.0
134.368866 48.0
134.469193 144.0
134.553497 156.0
134.761368 144.0
134.837616 184.0
134.853806 172.0
134.872299 52.0
134.946274 184.0
134.983261 204.0
135.018997 204.0
135.040634 196.0
135.080338 7288.0
135.114349 148.0
135.242386 112.0
135.288681 36.0
135.307205 136.0
135.392868 160.0
135.446152 192.0
135.527237 68.0
135.589798 136.0
135.638474 180.0
135.826294 36.0
135.847183 184.0
135.935349 136.0
135.981277 192.0
136.004974 88.0
136.04509 220.0
136.075241 6124.0
136.117401 188.0
136.153564 196.0
136.169815 108.0
136.22789 204.0
136.260422 92.0
136.390549 176.0
136.426773 188.0
136.578903 192.0
136.599838 92.0
136.627747 52.0
136.688248 32.0
136.772034 132.0
136.797638 124.0
136.825577 80.0
136.930649 128.0
136.974609 152.0
137.02121 124.0
137.059525 7164.0
137.109756 44.0
137.138687 68.0
137.254288 232.0
137.290939 156.0
137.361572 184.0
137.468887 44.0
137.499237 80.0
137.700012 96.0
137.821503 164.0
137.844864 180.0
137.910477 52.0
137.939224 140.0
137.961731 128.0
138.031876 164.0
138.066849 19328.0
138.144775 44.0
138.162857 104.0
138.198593 136.0
138.242401 200.0
138.258789 60.0
138.305603 124.0
138.387527 64.0
138.457779 52.0
138.544449 44.0
138.802277 144.0
138.945343 80.0
139.015747 44.0
139.070389 1420.0
139.109619 116.0
139.222321 180.0
139.306885 48.0
139.346817 108.0
139.478424 60.0
139.538239 180.0
139.7724 212.0
139.788879 196.0
139.859482 144.0
139.957214 168.0
140.072632 444.0
140.13266 120.0
140.192047 216.0
140.243423 132.0
140.330643 168.0
140.578323 68.0
140.772247 188.0
140.852188 56.0
140.9207 124.0
141.005783 52.0
141.027725 180.0
141.057785 200.0
141.100327 188.0
141.131073 84.0
141.454407 144.0
141.523849 220.0
141.696747 164.0
141.732285 124.0
141.902039 220.0
142.187607 188.0
142.413162 152.0
142.662659 104.0
142.733994 108.0
142.833878 44.0
142.917145 192.0
143.014725 164.0
143.038513 160.0
143.157562 200.0
143.259979 60.0
143.300491 176.0
143.54361 160.0
143.662872 236.0
143.872879 156.0
143.920624 176.0
143.958832 164.0
144.056122 352.0
144.161896 156.0
144.279022 160.0
144.298141 208.0
144.652206 140.0
144.707275 120.0
144.731216 92.0
144.894089 88.0
144.93721 64.0
144.999512 252.0
145.062698 920.0
145.218857 208.0
145.29686 160.0
145.340042 176.0
145.445648 176.0
145.508057 60.0
145.596909 160.0
145.688187 244.0
145.760254 268.0
145.781891 184.0
145.862396 176.0
145.909286 152.0
145.928513 164.0
146.060898 3088.0
146.108902 48.0
146.144989 84.0
146.173859 100.0
146.282166 188.0
146.385696 52.0
146.443497 112.0
146.465179 176.0
146.50853 172.0
146.532623 140.0
146.561539 236.0
146.625641 120.0
146.639786 136.0
146.694092 148.0
146.710968 60.0
146.74472 212.0
146.797775 92.0
146.819473 308.0
146.851898 372.0
146.870132 176.0
146.9039 140.0
146.959381 120.0
146.995575 128.0
147.043167 5892.0
147.067581 23528.0
147.11055 164.0
147.116943 228.0
147.164551 120.0
147.286057 64.0
147.357773 48.0
147.37468 44.0
147.410934 104.0
147.55838 52.0
147.584976 32.0
147.632965 212.0
147.682755 92.0
147.734924 128.0
147.756699 64.0
147.788147 184.0
147.882843 92.0
148.018982 192.0
148.048996 1484.0
148.073181 3984.0
148.129517 56.0
148.152084 76.0
148.171906 80.0
148.267624 132.0
148.301559 124.0
148.40094 140.0
148.437317 112.0
148.485825 84.0
148.628952 232.0
148.733307 56.0
148.852173 100.0
148.923828 124.0
148.963989 112.0
148.990723 160.0
149.052185 308.0
149.096176 1548.0
149.134079 84.0
149.15657 32.0
149.243484 104.0
149.260498 60.0
149.314011 212.0
149.355988 152.0
149.425903 84.0
149.452667 228.0
149.477005 144.0
149.591385 100.0
149.674164 120.0
149.715561 224.0
149.882996 104.0
150.064072 212.0
150.100052 468.0
150.176041 192.0
150.220108 100.0
150.246826 172.0
150.278656 80.0
150.31282 180.0
150.405563 192.0
150.536438 232.0
150.723053 76.0
150.89415 120.0
150.938156 184.0
151.004181 40.0
151.039825 180.0
151.07254 748.0
151.246414 100.0
151.346786 188.0
151.459442 76.0
151.905579 140.0
152.081055 504.0
152.126434 60.0
152.155899 132.0
152.207458 44.0
152.224655 48.0
152.295868 168.0
152.50473 136.0
152.551422 248.0
152.652237 148.0
152.671127 176.0
152.694046 108.0
152.735855 116.0
152.900711 92.0
152.96962 236.0
153.01886 188.0
153.091309 1780.0
153.132141 120.0
153.191254 180.0
153.400726 184.0
153.519073 164.0
153.53685 228.0
153.649796 168.0
154.017624 104.0
154.092056 392.0
154.212814 188.0
154.244949 148.0
154.482346 232.0
155.014679 124.0
155.063492 188.0
155.304749 72.0
155.602524 156.0
155.686951 116.0
155.801208 96.0
155.893143 136.0
156.09201 152.0
156.477692 148.0
156.557373 72.0
156.622131 120.0
156.714294 240.0
156.833923 72.0
156.851364 116.0
157.044556 168.0
157.160614 116.0
157.180573 40.0
157.214447 200.0
157.340317 148.0
157.495148 176.0
157.600555 188.0
157.742523 176.0
158.064133 356.0
158.087677 80.0
158.275421 52.0
158.537399 160.0
158.6362 160.0
158.851868 176.0
159.077301 460.0
159.12793 156.0
159.944962 56.0
159.990265 136.0
160.05574 112.0
160.075714 320.0
160.116287 188.0
160.144455 176.0
160.219452 92.0
160.453827 132.0
160.713623 116.0
160.907959 144.0
160.93573 184.0
160.963516 212.0
161.059174 2524.0
161.084183 288.0
161.279312 188.0
161.468994 192.0
161.509415 96.0
161.608078 176.0
161.663742 156.0
161.681458 204.0
161.785233 76.0
161.838409 148.0
161.863724 120.0
161.948425 196.0
162.013153 156.0
162.033234 104.0
162.067337 11932.0
162.090515 33088.0
162.147461 32.0
162.172668 164.0
162.213165 52.0
162.245377 108.0
162.275635 92.0
162.312241 92.0
162.337601 84.0
162.397171 120.0
162.414871 68.0
162.438614 188.0
162.458389 40.0
162.484711 228.0
162.525299 100.0
162.576065 32.0
162.611588 100.0
162.710587 108.0
162.74614 56.0
162.776611 104.0
162.796921 72.0
162.81723 60.0
162.835007 84.0
162.868027 100.0
162.949326 72.0
163.015396 248.0
163.074509 4196.0
163.095627 4532.0
163.149261 76.0
163.207535 196.0
163.279785 56.0
163.381531 160.0
163.436722 140.0
163.485855 84.0
163.625854 136.0
163.739243 60.0
163.872894 148.0
163.898376 68.0
163.99588 200.0
164.04007 148.0
164.069931 11708.0
164.140533 204.0
164.163483 76.0
164.201736 164.0
164.25354 248.0
164.290909 96.0
164.341446 120.0
164.365005 72.0
164.415192 96.0
164.441574 32.0
164.536026 56.0
164.599854 52.0
164.668808 72.0
164.809311 56.0
164.840576 168.0
164.901306 76.0
164.983109 48.0
165.008667 92.0
165.073715 1092.0
165.25676 48.0
165.330978 132.0
165.430801 120.0
165.510162 112.0
165.543457 156.0
165.587997 152.0
165.612595 84.0
165.758636 64.0
165.804764 68.0
165.82782 48.0
166.014984 116.0
166.078003 364.0
166.143234 56.0
166.197113 108.0
166.261978 188.0
166.335693 104.0
166.381897 104.0
166.5103 196.0
166.702972 80.0
167.098251 128.0
167.616501 196.0
167.634537 92.0
167.915543 164.0
168.694138 112.0
168.842712 88.0
168.876343 48.0
169.163559 60.0
169.850266 56.0
170.117538 140.0
170.574738 112.0
171.199173 188.0
171.438858 116.0
171.861282 248.0
172.576965 60.0
173.477585 124.0
173.550995 76.0
173.781815 96.0
173.80542 64.0
173.936646 160.0
174.475174 136.0
175.078461 176.0
175.362274 104.0
175.654968 128.0
176.048218 204.0
176.07991 176.0
176.116898 124.0
176.434006 104.0
176.566208 156.0
176.912842 148.0
176.936661 132.0
177.039932 112.0
177.089706 1604.0
177.155991 196.0
177.365814 88.0
177.397629 64.0
178.005203 184.0
178.031769 80.0
178.08609 712.0
178.286804 40.0
178.568619 56.0
178.635117 92.0
178.664383 128.0
178.70961 168.0
178.74324 224.0
178.769302 212.0
178.800079 72.0
178.853317 184.0
178.933182 152.0
178.976501 148.0
179.037018 68.0
179.09375 19920.0
179.123138 200.0
179.194519 160.0
179.249451 108.0
179.303436 64.0
179.375412 40.0
179.477463 72.0
179.543381 100.0
179.562057 40.0
179.642075 84.0
179.743454 200.0
179.908936 88.0
179.998108 100.0
180.019928 112.0
180.092972 1440.0
180.135925 208.0
180.258835 44.0
180.617081 36.0
180.817749 48.0
180.900726 52.0
180.924255 56.0
180.942337 96.0
181.079788 340.0
181.092728 368.0
181.097794 464.0
181.230148 92.0
181.248901 100.0
181.294464 212.0
181.353561 76.0
181.508911 64.0
181.577393 112.0
181.809372 236.0
181.999954 68.0
182.529312 36.0
182.798309 48.0
182.90596 152.0
183.10791 68.0
183.180634 128.0
183.504028 104.0
184.021118 252.0
184.367813 48.0
184.581375 216.0
185.301361 180.0
185.404327 176.0
186.106918 160.0
186.250854 144.0
186.525299 148.0
186.745544 216.0
187.224548 64.0
187.93602 52.0
188.605103 136.0
189.508209 56.0
189.853592 264.0
189.886505 204.0
191.007156 200.0
192.103516 124.0
192.58934 136.0
193.37735 108.0
193.729019 92.0
193.806595 204.0
193.87587 104.0
193.909119 176.0
193.936844 144.0
193.982361 76.0
194.022781 208.0
194.081436 204.0
194.117172 34304.0
194.199493 232.0
194.226471 108.0
194.283463 56.0
194.355118 160.0
194.37439 52.0
194.384628 96.0
194.421112 192.0
194.460327 220.0
194.49437 68.0
194.527679 60.0
194.599854 132.0
194.624847 116.0
194.647064 40.0
194.717758 72.0
194.786987 136.0
194.855377 112.0
194.912216 96.0
194.923828 44.0
194.934433 80.0
195.041565 148.0
195.121994 3524.0
195.163895 72.0
195.186142 88.0
195.208389 104.0
195.252884 60.0
195.27359 80.0
195.469864 56.0
195.523926 104.0
195.589539 84.0
195.673065 44.0
195.80394 64.0
195.876358 88.0
195.948792 108.0
196.007294 36.0
196.043518 76.0
196.096405 168.0
196.124313 880.0
196.221924 124.0
196.343796 124.0
196.387375 96.0
196.473526 72.0
196.679428 148.0
196.816223 52.0
196.83577 140.0
196.964233 72.0
197.101135 48.0
197.123489 148.0
197.25206 32.0
197.330338 56.0
198.133575 112.0
198.994583 92.0
199.522781 80.0
199.78714 128.0
199.840591 72.0
201.105911 48.0
204.256805 88.0
204.492966 124.0
204.59259 68.0
206.879303 80.0
207.04538 52.0
207.71608 56.0
210.190338 64.0
211.560318 108.0
212.012177 44.0
217.718643 76.0
219.148254 56.0
223.688385 72.0
224.513702 132.0
226.743988 68.0
226.986816 176.0
227.103775 176.0
230.919937 120.0
231.431366 72.0
250.184799 164.0
252.782425 140.0
253.393539 52.0
253.932434 88.0
254.329041 92.0
258.133057 40.0
258.686554 84.0
262.529358 60.0
268.18692 148.0
268.209717 60.0
279.999298 44.0
288.559692 76.0
295.227875 80.0
298.269043 116.0
299.593903 52.0
303.180511 120.0
304.453705 56.0
307.611725 76.0
312.310699 44.0
313.123718 88.0
321.12677 88.0
322.801697 52.0
324.656708 60.0
333.771393 72.0
335.125458 124.0
335.51178 40.0
338.072266 108.0
338.416351 60.0
348.775696 76.0
351.046783 116.0
361.263275 48.0
365.889435 88.0
367.505463 52.0
392.638123 76.0
393.056274 68.0
412.968872 68.0
413.838928 108.0
428.296234 104.0
430.300415 64.0
434.244049 40.0
458.969727 108.0
474.730286 140.0
508.377014 76.0
572.835266 60.0
573.878967 56.0
577.326599 124.0
657.561951 48.0
678.037109 164.0
712.769592 140.0
719.592712 52.0
745.725769 156.0
769.053833 220.0
789.589355 64.0
797.972656 80.0
811.228577 100.0
812.879089 72.0
821.595825 112.0
831.581177 148.0
838.43103 72.0
839.376465 164.0
840.460876 48.0
845.8125 52.0
847.804871 216.0
849.561768 180.0
858.373413 172.0
859.20166 100.0
860.46228 224.0
864.337463 92.0
864.788086 208.0
865.742432 84.0
867.271545 200.0
869.019165 140.0
870.198853 216.0
877.223328 180.0
879.25238 184.0
881.845154 192.0
885.643738 92.0
890.608398 184.0
894.794861 168.0
900.316467 200.0
903.885315 176.0
907.599121 216.0
911.783264 192.0
912.167969 76.0
913.256287 128.0
917.145996 164.0
932.653748 92.0
943.394531 160.0
945.119263 156.0
949.36438 204.0
950.566711 72.0
959.867676 72.0
966.483215 176.0
976.75708 140.0
985.847473 168.0
987.097717 168.0
989.475403 168.0
990.778076 156.0
993.423584 108.0
994.797913 124.0
1005.328064 132.0
1006.97583 48.0
1007.550659 76.0
1009.554382 140.0
1018.528992 156.0
1019.876038 252.0
1022.477417 148.0
1024.355713 68.0
1028.794189 196.0
1033.037476 164.0
1038.033325 128.0
1043.311035 148.0
1047.326538 164.0
1049.375854 240.0
1050.872192 152.0
1056.991211 148.0
1062.459717 136.0
1065.913818 116.0
1068.618774 56.0
1071.398804 64.0
1073.39978 132.0
1074.032349 208.0
1074.802246 168.0
1077.557617 160.0
1079.427002 120.0
1080.532349 48.0
1082.41748 204.0
1082.620483 184.0
1082.816895 72.0
1083.819214 188.0
1084.232056 112.0
1089.133179 220.0
1093.933472 124.0
1096.284912 92.0
1096.831909 176.0
1098.539795 152.0
1100.262329 176.0
1103.354126 80.0
1107.397339 80.0
1107.516602 100.0
1109.060425 112.0
1111.500977 136.0
1114.071411 188.0
1116.203979 56.0
1117.547607 188.0
1119.75769 124.0
1121.736694 148.0
1122.85022 144.0
1124.197754 144.0
1124.337891 224.0
1126.147217 88.0
1127.369873 156.0
1130.191772 196.0
1130.653564 224.0
1131.376465 120.0
1132.246948 220.0
1132.581787 184.0
1136.309082 200.0
1136.463379 144.0
1137.799072 120.0
1144.80542 116.0
1149.06543 112.0
1152.002197 196.0
1152.752197 132.0
1153.259033 216.0
1153.502319 104.0
1154.327271 192.0
1156.377075 120.0
1156.546265 160.0
1156.776489 128.0
1158.842041 176.0
1160.163574 192.0
1160.651855 116.0
1161.533447 168.0
1162.252563 56.0
1162.697144 204.0
1163.610107 52.0
1165.539062 168.0
1165.892456 244.0
1169.633301 168.0
1170.034912 120.0
1170.402588 124.0
1172.405273 204.0
1173.986938 72.0
1174.491577 100.0
1176.395508 140.0
1177.132812 108.0
1177.610962 156.0
1179.223389 176.0
1181.390991 128.0
1181.459351 184.0
1181.781006 176.0
1183.108765 56.0
1184.17688 168.0
1187.706909 120.0
1193.20752 160.0
1195.917847 160.0
1197.735718 180.0
1198.824219 136.0
1199.472168 72.0
1199.8927 128.0
1200.768433 144.0
1201.340942 240.0
1202.562256 152.0
1204.682129 188.0
1205.559692 172.0
1211.43396 132.0
1211.946655 156.0
1213.526978 128.0
1214.421509 236.0
1218.357422 192.0
1220.233887 140.0
1221.402222 220.0
1222.786865 112.0
1225.711792 140.0
1227.273193 72.0
1228.109985 148.0
1229.135498 148.0
1229.784546 176.0
1231.139038 68.0
1233.913086 192.0
1234.654297 44.0
1235.661621 160.0
1235.97644 128.0
1236.858276 148.0
1240.437744 176.0
1240.704102 236.0
1241.335205 200.0
1241.82605 140.0
1241.89624 140.0
1245.925537 144.0
1246.101196 244.0
1246.719604 100.0
1247.092041 168.0
1247.935669 84.0
1249.940308 64.0
1250.299194 120.0
1254.525391 168.0
1255.286865 204.0
1256.133301 60.0
1256.591797 208.0
1258.052734 128.0
1258.363403 208.0
1259.097778 116.0
1260.800415 132.0
1261.245605 52.0
1261.910156 200.0
1262.079834 232.0
1262.270752 40.0
1262.46875 192.0
1263.013428 148.0
1263.734985 240.0
1264.081665 148.0
1264.456787 132.0
1264.93811 148.0
1265.759399 184.0
1266.042603 88.0
1266.545532 96.0
1268.054688 256.0
1269.912354 164.0
1270.572021 132.0
1271.317017 224.0
1271.380981 256.0
1271.913208 172.0
1273.049194 180.0
1273.560547 120.0
1273.972534 136.0
1276.865601 136.0
1277.157227 104.0
1277.889893 72.0
1279.612305 192.0
1281.442749 196.0
1282.946533 72.0
1283.745117 80.0
1283.816406 164.0
1283.951904 156.0
1284.201538 156.0
1285.029053 108.0
1285.129028 116.0
1285.328735 156.0
1287.127563 176.0
1287.870361 128.0
1288.920532 164.0
1289.856689 172.0
1291.301147 204.0
1292.6604 212.0
1293.461914 216.0
1295.137573 164.0
1296.011475 184.0
1296.068848 176.0
1296.914551 180.0
1297.559692 136.0
1297.810669 212.0
1299.718628 188.0
1301.412598 160.0
1302.245605 160.0
1302.303101 236.0
1304.631226 216.0
1304.997925 176.0
1305.177734 120.0
1306.191772 120.0
1306.414795 128.0
1306.537109 160.0
1307.933105 148.0
1308.185059 120.0
1310.043091 128.0
1311.012451 208.0
1311.981567 48.0
1312.262817 140.0
1312.594482 40.0
1313.120972 168.0
1313.539307 56.0
1315.740356 52.0
1315.870239 160.0
1316.758423 176.0
1319.150146 200.0
1319.236938 108.0
1320.726562 128.0
1322.419678 192.0
1322.810547 128.0
1323.013184 168.0
1324.591919 176.0
1324.729492 188.0
1324.867188 164.0
1325.070068 176.0
1325.983154 216.0
1328.165527 192.0
1328.811157 112.0
1329.848877 116.0
1332.74646 100.0
1332.848267 168.0
1332.971802 220.0
1333.422363 148.0
1333.582275 192.0
1333.705811 144.0
1333.763916 136.0
1334.011108 200.0
1334.258301 212.0
1335.174438 128.0
1335.239868 120.0
1336.018188 156.0
1336.778687 92.0
1337.240723 88.0
1338.114258 192.0
1338.245361 112.0
1339.111938 192.0
1341.057251 140.0
1341.115601 228.0
1341.512207 172.0
1342.865479 144.0
1343.733521 176.0
1344.426758 140.0
1344.886597 44.0
1346.215332 160.0
1346.974976 184.0
1347.74939 216.0
1347.912842 252.0
1348.852905 240.0
1349.00647 140.0
1350.424927 148.0
1352.122437 204.0
1352.481079 56.0
1353.030029 224.0
1354.025879 56.0
1355.007446 184.0
1355.770874 160.0
1356.634521 236.0
1358.130371 160.0
1358.944702 160.0
1360.118896 132.0
1360.250977 156.0
1360.691528 40.0
1360.933838 212.0
1362.064819 196.0
1362.204346 136.0
1363.732788 160.0
1364.034058 152.0
1364.982544 184.0
1367.527954 176.0
1371.512817 120.0
1371.888794 100.0
1372.301636 40.0
1372.404907 184.0
1373.075928 56.0
1373.407837 184.0
1373.606934 164.0
1374.706299 200.0
1375.053223 176.0
1376.167847 104.0
1376.891602 128.0
1376.950684 180.0
1378.472534 128.0
1379.884277 148.0
1379.958252 100.0
1380.586792 124.0
1381.459595 116.0
1382.18457 100.0
1382.283447 148.0
1383.383667 104.0
1383.620483 136.0
1383.679688 180.0
1384.360962 192.0
1385.012695 168.0
1385.835083 132.0
1386.264771 164.0
1387.109741 268.0
1388.20813 168.0
1389.134155 188.0
1390.536621 52.0
1390.781494 200.0
1391.80603 104.0
1391.96936 132.0
1392.236694 144.0
1393.083496 112.0
1393.722656 148.0
1393.78186 148.0
1395.521118 88.0
1396.413574 180.0
1397.283813 168.0
1397.432617 144.0
1398.54895 180.0
1398.90625 152.0
1399.055176 128.0
1399.561401 124.0
1400.276367 184.0
1400.328491 192.0
1400.723267 132.0
1401.848267 128.0
1402.615967 192.0
1404.084839 148.0
1404.144409 136.0
1404.539795 172.0
1405.039551 192.0
1406.181274 132.0
1406.270874 160.0
1407.82373 140.0
1408.309204 100.0
1410.805054 172.0
1411.006836 120.0
1411.193848 120.0
1411.365723 176.0
1412.180908 180.0
1414.672729 204.0
1415.301636 132.0
1415.443848 28.0
1419.362915 136.0
1419.490356 112.0
1420.996216 228.0
1421.425659 84.0
1422.116089 196.0
1422.829224 132.0
1423.383301 224.0
1424.278564 116.0
1424.473877 152.0
1425.773804 172.0
1426.525391 180.0
1426.623169 164.0
1426.750977 160.0
1426.86377 108.0
1427.435181 200.0
1429.533936 160.0
1429.594116 160.0
1430.685547 132.0
1430.956665 144.0
1431.498779 144.0
1431.626709 160.0
1432.078613 172.0
1432.613525 144.0
1432.688843 96.0
1432.862061 148.0
1433.065552 212.0
1433.600464 188.0
1434.052734 240.0
1434.21106 128.0
1435.334351 160.0
1435.907471 168.0
1436.299683 116.0
1436.435425 180.0
1436.631592 192.0
1438.08667 220.0
1438.397461 120.0
1438.948486 148.0
1441.713135 208.0
1442.302734 100.0
1442.468994 200.0
1442.574829 168.0
1442.839478 148.0
1443.421631 176.0
1443.943481 36.0
1444.230835 180.0
1444.4729 40.0
1445.093262 160.0
1445.14624 156.0
1445.267334 152.0
1445.562378 184.0
1445.827271 124.0
1445.940796 152.0
1446.924805 236.0
1448.712158 168.0
1449.060669 180.0
1449.530396 32.0
1450.470215 52.0
1450.712769 156.0
1450.932617 124.0
1451.099487 184.0
1451.235962 228.0
1451.994263 196.0
1452.942383 172.0
1452.995483 152.0
1454.019897 132.0
1454.171753 168.0
1455.295288 40.0
1455.765991 104.0
1455.940674 208.0
1456.411621 160.0
1457.239624 212.0
1457.665161 168.0
1458.858398 108.0
1459.28418 216.0
1460.24231 76.0
1460.310791 212.0
1461.223633 128.0
1462.928467 128.0
1463.050171 132.0
1465.380737 192.0
1466.325684 132.0
1466.760132 64.0
1468.643555 128.0
1469.269043 176.0
1469.528442 224.0
1470.673096 240.0
1471.615967 188.0
1471.925171 184.0
1472.041382 72.0
1472.161865 208.0
1472.849243 200.0
1472.963867 68.0
1474.117554 164.0
1475.302246 164.0
1475.452271 180.0
1475.661621 176.0
1475.745728 152.0
1475.990356 76.0
1476.563965 204.0
1476.869873 156.0
1477.275269 108.0
1478.071045 184.0
1478.178101 192.0
1479.234375 124.0
1479.47168 148.0
1479.969238 132.0
1480.48999 204.0
1481.118042 148.0
1482.121704 172.0
1483.554932 204.0
1483.945923 224.0
1485.410645 268.0
1486.200928 192.0
1486.338989 128.0
1486.713379 92.0
1489.371582 196.0
1489.901611 128.0
1490.38562 176.0
1490.554688 148.0
1491.215576 176.0
1492.460938 68.0
1492.737793 128.0
1494.260742 40.0
1495.145752 52.0
1495.384277 144.0
1495.599854 172.0
1495.692139 160.0
1495.792236 48.0
1496.277222 108.0
1496.446655 184.0
1496.731567 116.0
1497.17041 148.0
1498.01001 156.0
1498.988525 204.0
1499.212036 148.0
1499.389282 200.0
1500.368164 188.0
1503.492188 172.0
1503.978394 72.0
1505.043823 136.0
1505.170166 184.0
1505.33728 140.0
