>compound MLS001140513-01!(2R)-2-[[(2R)-2-[[1-[(2-methylpropan-2-yl)oxycarbonyl]-4-phenylpiperidine-4-carbonyl]amino]propanoyl]amino]-2-phenylacetic acid
>formula C28H35N3O6
>ionization [M+H]+
>parentmass 510.26
#inchi InChI=1S/C28H35N3O6/c1-19(23(32)30-22(24(33)34)20-11-7-5-8-12-20)29-25(35)28(21-13-9-6-10-14-21)15-17-31(18-16-28)26(36)37-27(2,3)4/h5-14,19,22H,15-18H2,1-4H3,(H,29,35)(H,30,32)(H,33,34)/t19-,22-/m1/s1
#inchikey NFDIIJYBVFLLLH
#Ion_Source LC-ESI
#Instrument qTof
#Compound_Source NIH Natural Product Library
#PI Dorrestein
#Data_Collector VVP/LMS
#Scan -1
#Precursor_MZ 510.26
#ExactMass 509.253
#Charge 1
#CAS_Number N/A
#Pubmed_ID N/A
#Smiles C[C@@H](NC(=O)C1(CCN(CC1)C(=O)OC(C)(C)C)c2ccccc2)C(=O)N[C@@H](C(=O)O)c3ccccc3
#INCHI_AUX N/A
#Library_Class 1
#SpectrumID CCMSLIB00000079452
#IonMode Positive
#UpdateWorkflowName UPDATE-SINGLE-ANNOTATED-GOLD
#LibraryQualityString Gold
#TaskID b1d8e8f6646f4e71acdff9ca3d919d08
##Scan# 2254
#SpectrumFile p1-E06_GE6_01_17926.mzXML
#LibraryName NIH_Natural_Products_Library.mgf
#MQScore -1
#Organism NIH_Natural_Products_Library
#TIC_Query 0
#RT_Query -1
#MZErrorPPM -1
#SharedPeaks 0
#MassDiff 0
#LibMZ -1
#SpecMZ 510.26
#SpecCharge 0
#internalFilename spec-00000.mgf

>collision 10
95.144066 192.0
95.230392 152.0
95.292549 148.0
95.343071 52.0
95.411102 196.0
95.444153 144.0
95.636749 84.0
95.801697 124.0
95.872406 104.0
95.954269 120.0
96.071281 96.0
96.092743 136.0
96.207886 180.0
96.332863 116.0
96.534172 60.0
97.219803 148.0
97.425964 108.0
97.545837 184.0
97.591049 164.0
97.693321 244.0
97.846817 232.0
97.888168 208.0
97.959068 108.0
97.98468 104.0
98.144325 112.0
98.302124 212.0
98.550064 148.0
98.586487 192.0
98.66555 232.0
98.701134 124.0
98.762444 144.0
98.926674 212.0
99.023697 132.0
99.205994 180.0
99.267456 240.0
99.354721 164.0
99.418221 172.0
99.500374 204.0
99.57505 192.0
99.696236 100.0
99.775742 68.0
100.038704 668.0
100.121964 184.0
100.135902 72.0
100.170799 208.0
100.197655 184.0
100.333168 220.0
100.63443 156.0
100.688339 80.0
100.850174 116.0
100.888153 180.0
100.946136 160.0
100.964134 160.0
101.082161 204.0
101.203323 224.0
101.490776 156.0
101.721489 76.0
102.01075 348.0
102.050957 224.0
102.105247 240.0
102.121338 212.0
102.173637 36.0
102.219917 76.0
102.252113 200.0
102.368874 172.0
102.465553 188.0
102.648972 152.0
102.804298 148.0
102.818428 196.0
102.931473 208.0
103.070847 156.0
103.299301 192.0
103.594849 160.0
103.653603 196.0
103.99836 152.0
104.034897 124.0
104.081589 148.0
104.181107 200.0
104.217674 216.0
104.410789 148.0
104.732361 124.0
104.82811 84.0
104.915756 184.0
105.007072 148.0
105.038109 88.0
105.07103 272.0
105.272812 40.0
105.370857 104.0
105.570023 188.0
105.69799 204.0
105.7425 192.0
105.882225 136.0
105.945724 108.0
105.976456 136.0
106.005142 196.0
106.06485 2308.0
106.128128 128.0
106.216309 160.0
106.372261 180.0
106.62307 156.0
106.637222 192.0
106.742065 108.0
106.756462 216.0
106.811989 168.0
106.931328 80.0
107.017784 136.0
107.048508 904.0
107.070518 228.0
107.118271 116.0
107.139297 48.0
107.161957 48.0
107.234085 76.0
107.351593 148.0
107.460915 108.0
107.857407 124.0
107.914284 156.0
107.955292 104.0
108.050102 152.0
108.513641 44.0
108.546394 60.0
108.750122 92.0
109.049202 132.0
109.076218 156.0
109.184334 188.0
109.286263 132.0
109.481926 120.0
109.684021 92.0
109.907173 72.0
109.92804 100.0
109.959343 76.0
110.138901 124.0
110.676353 116.0
110.934044 204.0
111.469238 56.0
111.549103 128.0
111.814743 152.0
112.08577 64.0
112.254898 152.0
112.653297 108.0
112.674423 164.0
112.991547 156.0
113.071953 160.0
113.637726 124.0
113.656822 196.0
114.200661 60.0
114.311287 232.0
114.449638 180.0
114.756454 116.0
114.858818 152.0
114.971893 196.0
114.986832 148.0
115.055344 568.0
115.244553 220.0
115.371307 132.0
115.501755 136.0
115.544533 112.0
115.608727 104.0
115.670792 176.0
115.726456 140.0
115.932083 144.0
116.034973 200.0
116.064987 144.0
116.212982 32.0
116.386841 124.0
116.412605 168.0
116.468445 148.0
116.509262 64.0
116.603806 220.0
116.700539 108.0
116.762894 128.0
116.872604 144.0
116.935005 224.0
117.069771 2444.0
117.432701 136.0
117.605301 92.0
117.717567 60.0
118.013588 44.0
118.071251 248.0
118.091438 176.0
118.113068 180.0
118.400925 156.0
118.416084 164.0
118.494064 180.0
118.511398 216.0
118.669617 192.0
118.743347 180.0
118.893044 208.0
118.92746 200.0
119.07106 52.0
119.177498 232.0
119.362259 188.0
119.647278 188.0
119.78447 208.0
119.845467 172.0
120.028557 136.0
120.05909 144.0
120.25544 204.0
120.541519 200.0
120.897964 132.0
121.950668 156.0
122.260765 168.0
122.359818 128.0
122.507362 200.0
122.591576 216.0
122.705704 188.0
123.116119 192.0
123.496246 148.0
123.569244 176.0
123.699814 156.0
123.825722 148.0
124.302643 196.0
124.349243 180.0
124.651268 176.0
124.746834 44.0
124.782402 180.0
124.893593 184.0
124.973679 132.0
125.30542 88.0
125.448044 172.0
125.568451 76.0
126.059578 132.0
126.095337 136.0
126.23394 176.0
126.318932 152.0
126.341301 152.0
126.390518 136.0
126.69725 160.0
126.715172 152.0
127.051453 228.0
127.615166 220.0
127.8536 164.0
127.871101 160.0
127.905365 200.0
128.062012 788.0
128.227448 148.0
128.265762 236.0
128.328888 180.0
128.579041 200.0
128.886383 80.0
128.929321 212.0
129.04686 152.0
129.068481 412.0
129.252243 104.0
129.411118 84.0
129.558334 184.0
130.041321 168.0
130.061737 192.0
130.243393 200.0
130.295639 136.0
130.441071 148.0
130.4729 104.0
130.509277 204.0
130.588867 172.0
130.650284 140.0
130.693512 140.0
130.820953 104.0
130.841446 168.0
130.917526 176.0
131.084808 5340.0
131.135132 292.0
131.16037 32.0
131.187714 80.0
131.215073 84.0
131.292603 200.0
131.32811 168.0
131.381561 104.0
131.404373 96.0
131.570969 128.0
131.717117 100.0
131.81308 80.0
131.870209 144.0
131.963928 64.0
132.062256 68.0
132.088364 684.0
132.359756 168.0
132.391815 136.0
132.428467 216.0
132.598007 132.0
132.820404 96.0
132.948883 132.0
133.077423 124.0
133.100006 852.0
133.17157 84.0
133.221054 104.0
133.247375 108.0
133.291031 76.0
133.355377 180.0
133.387558 124.0
133.935196 184.0
134.097809 204.0
134.114014 204.0
134.142578 36.0
134.322433 156.0
134.682526 192.0
134.698685 184.0
134.779556 60.0
135.043045 5980.0
135.080093 68.0
135.133301 160.0
135.191147 28.0
135.253632 80.0
135.286041 100.0
135.330032 208.0
135.348557 60.0
135.40181 88.0
135.424973 160.0
135.508133 76.0
135.642776 56.0
135.823639 128.0
135.939651 72.0
136.047302 912.0
136.081238 140.0
136.406464 56.0
136.429718 128.0
136.453461 188.0
136.936066 164.0
137.01384 152.0
137.048782 200.0
137.172302 104.0
137.501175 268.0
137.712677 144.0
137.968338 164.0
138.061859 92.0
138.092255 120.0
138.167114 96.0
138.199875 152.0
138.277084 188.0
138.912064 188.0
139.088043 132.0
139.449356 164.0
139.543793 100.0
139.615677 176.0
139.687241 152.0
139.797821 36.0
139.889603 140.0
140.339584 60.0
140.87059 188.0
141.04071 212.0
141.073639 228.0
141.109268 200.0
141.599091 56.0
142.077896 140.0
142.315231 48.0
142.419724 172.0
142.621689 116.0
142.66684 108.0
142.800003 220.0
142.819031 180.0
142.911804 72.0
143.01651 96.0
143.085938 3572.0
143.107788 244.0
143.266541 52.0
143.314194 52.0
143.347549 216.0
143.504868 60.0
143.693283 176.0
143.970169 68.0
143.986877 216.0
144.06337 164.0
144.088638 848.0
144.170837 152.0
144.192337 176.0
144.232971 208.0
144.310318 220.0
144.876663 120.0
144.912598 156.0
145.060989 336.0
145.095184 176.0
145.140305 180.0
145.358582 108.0
145.380173 116.0
145.569824 172.0
145.990356 200.0
146.051392 136.0
146.066711 208.0
146.235733 52.0
146.847702 248.0
146.89595 220.0
148.070618 204.0
148.805359 156.0
148.88063 128.0
148.977783 116.0
149.043381 144.0
149.123566 212.0
149.177048 148.0
149.571106 252.0
150.473083 96.0
150.507263 152.0
150.719757 88.0
150.910416 128.0
151.370407 156.0
151.387558 84.0
151.470825 180.0
151.608032 176.0
151.862991 204.0
151.946396 120.0
152.069504 3136.0
152.100998 180.0
152.177094 60.0
152.196747 196.0
152.26059 52.0
152.442383 80.0
152.528397 116.0
153.072479 408.0
153.390244 156.0
153.715469 164.0
153.866028 120.0
154.073471 160.0
154.271179 104.0
154.29837 48.0
154.409637 76.0
154.540741 120.0
154.7957 92.0
154.917053 136.0
154.936874 140.0
155.527039 144.0
155.688416 192.0
155.750519 108.0
155.882187 112.0
156.394501 168.0
156.496567 240.0
157.059769 136.0
157.144577 128.0
157.294312 40.0
157.354218 232.0
157.43663 164.0
157.586502 140.0
157.67395 52.0
157.711441 200.0
157.848938 124.0
157.951477 128.0
158.094025 352.0
158.25679 152.0
158.408386 196.0
158.687729 96.0
158.843216 144.0
158.90593 120.0
158.983719 204.0
159.119263 80.0
159.136841 88.0
159.375443 104.0
159.413132 188.0
159.438263 156.0
159.518692 148.0
159.538803 112.0
159.565964 164.0
159.60408 120.0
159.654465 180.0
159.683075 128.0
159.707275 152.0
159.747131 180.0
159.782745 92.0
159.828033 144.0
159.858231 164.0
159.898499 256.0
159.966446 256.0
159.991913 136.0
160.027847 176.0
160.052521 516.0
160.083267 292.0
160.111954 65792.0
160.171814 168.0
160.190308 80.0
160.194763 72.0
160.205124 128.0
160.253403 72.0
160.261703 68.0
160.291336 44.0
160.326096 108.0
160.353897 68.0
160.421066 68.0
160.456436 144.0
160.51503 108.0
160.570114 48.0
160.614044 180.0
160.641785 44.0
160.661972 88.0
160.692245 72.0
160.712418 76.0
160.765656 124.0
160.798218 100.0
160.816635 148.0
160.873947 120.0
160.899185 80.0
160.921906 52.0
160.951355 224.0
160.969879 96.0
161.020386 44.0
161.051392 88.0
161.115021 10624.0
161.176193 208.0
161.288696 144.0
161.308426 76.0
161.348877 36.0
161.38681 72.0
161.486588 104.0
161.551193 136.0
161.573959 64.0
161.670105 84.0
161.771347 96.0
161.887817 60.0
161.928329 56.0
161.948593 48.0
161.98912 56.0
162.049927 304.0
162.082855 48.0
162.118103 524.0
162.15889 48.0
162.280563 140.0
162.312378 88.0
162.351562 52.0
162.379456 76.0
162.404816 92.0
162.470779 76.0
162.506287 64.0
162.554504 36.0
162.57373 152.0
162.625565 140.0
162.76265 28.0
162.955673 92.0
162.991257 72.0
163.058105 144.0
163.138657 44.0
163.156448 84.0
163.250534 48.0
163.278503 48.0
163.30394 96.0
163.39296 68.0
163.454025 188.0
163.568558 60.0
163.696274 184.0
163.739136 152.0
163.774796 212.0
163.976074 108.0
164.450455 168.0
164.504059 184.0
164.53215 76.0
164.560226 104.0
165.265656 88.0
165.288681 204.0
165.414078 88.0
165.903351 184.0
165.921295 64.0
166.413895 48.0
166.570541 168.0
167.089828 104.0
167.76712 100.0
167.942474 176.0
168.143707 196.0
168.487137 96.0
168.714554 72.0
168.836075 60.0
169.294128 160.0
169.615387 72.0
169.641312 76.0
169.672424 140.0
169.747604 112.0
170.035568 236.0
170.096619 1044.0
170.136795 88.0
170.232864 48.0
170.266617 220.0
170.752609 76.0
170.874863 84.0
171.09227 156.0
171.812744 88.0
171.833618 72.0
171.937988 76.0
171.977142 140.0
172.110275 256.0
172.512619 84.0
172.632889 116.0
172.847382 188.0
172.902344 84.0
172.954681 116.0
173.245346 76.0
173.329178 136.0
173.426147 44.0
173.496918 36.0
173.520523 160.0
173.693588 52.0
173.984879 156.0
174.134674 152.0
175.315781 188.0
175.684906 168.0
176.503647 172.0
176.567108 208.0
177.099457 444.0
178.035278 156.0
178.768997 136.0
179.776291 72.0
179.885727 188.0
179.957809 124.0
180.540314 40.0
180.973801 148.0
181.777924 64.0
181.883896 184.0
182.153793 100.0
182.710251 168.0
182.866318 184.0
183.361877 204.0
183.529007 128.0
184.030853 216.0
184.079453 56.0
184.168579 120.0
184.993301 168.0
185.563171 192.0
185.985397 196.0
186.045105 160.0
186.090729 616.0
186.776077 136.0
187.101974 168.0
187.12085 260.0
187.255112 148.0
187.329697 136.0
187.397186 52.0
187.456711 152.0
187.601166 152.0
187.783844 324.0
187.819305 136.0
187.952988 180.0
188.053955 132.0
188.106827 31036.0
188.178009 72.0
188.220474 40.0
188.259903 124.0
188.288742 36.0
188.315628 180.0
188.395264 108.0
188.452637 84.0
188.492432 88.0
188.540665 88.0
188.566803 156.0
188.59996 188.0
188.702393 188.0
188.774292 100.0
188.890045 100.0
188.917404 64.0
188.942032 64.0
188.994003 48.0
189.021378 168.0
189.109634 4824.0
189.163681 128.0
189.211716 88.0
189.261185 72.0
189.374527 76.0
189.442993 76.0
189.525192 68.0
189.54985 84.0
189.60466 40.0
189.68689 80.0
189.714294 96.0
189.903488 60.0
189.928177 96.0
190.024185 132.0
190.079071 36.0
190.115906 660.0
190.164139 72.0
190.21904 220.0
190.251984 64.0
190.372787 108.0
190.599442 88.0
190.691467 180.0
190.991165 52.0
191.087433 68.0
191.112198 88.0
191.205765 84.0
191.315857 148.0
191.340637 156.0
191.384689 132.0
191.701462 84.0
192.048828 136.0
192.435165 36.0
192.501434 80.0
193.375015 56.0
193.876297 116.0
194.356018 244.0
194.558624 208.0
195.821014 140.0
196.347763 148.0
197.806229 156.0
199.230774 80.0
199.250443 108.0
199.565216 72.0
200.046295 44.0
201.563629 96.0
202.205566 236.0
203.07251 260.0
203.344879 64.0
203.537918 148.0
203.955536 204.0
204.100967 16096.0
204.153168 124.0
204.180847 64.0
204.23703 36.0
204.285385 56.0
204.527252 64.0
204.618347 84.0
204.646805 48.0
204.854706 80.0
204.883194 60.0
205.002869 40.0
205.104355 1548.0
205.222351 72.0
205.245163 56.0
205.427689 40.0
205.530396 52.0
205.910049 76.0
206.084305 152.0
206.110016 100.0
206.258636 72.0
206.418732 72.0
206.467346 100.0
206.537659 96.0
206.618942 84.0
206.653275 60.0
207.681686 80.0
207.776352 168.0
209.052078 40.0
209.63089 100.0
210.805359 48.0
210.944077 140.0
211.409729 100.0
213.204819 92.0
215.147598 136.0
215.445465 160.0
215.766937 96.0
216.100693 720.0
216.179352 52.0
217.066925 124.0
217.099106 144.0
218.388474 36.0
220.387161 160.0
220.461044 84.0
222.10231 176.0
223.10524 1380.0
224.101608 280.0
224.149582 44.0
225.331116 52.0
226.416916 56.0
227.334259 136.0
227.754578 44.0
229.147369 80.0
229.955521 76.0
230.11409 164.0
230.136642 192.0
231.148148 1272.0
231.409515 100.0
231.688141 232.0
231.782059 104.0
232.088196 136.0
232.109421 56.0
232.153671 628.0
237.624023 264.0
238.164307 148.0
243.781021 132.0
247.693405 184.0
249.730469 80.0
255.691177 100.0
257.12851 100.0
257.217865 48.0
257.680115 60.0
258.441864 120.0
258.512268 188.0
258.847046 176.0
258.995697 116.0
259.069366 160.0
259.142731 5864.0
259.264801 112.0
259.311127 44.0
259.351349 92.0
259.376984 36.0
259.502014 80.0
259.748932 52.0
259.819519 92.0
260.14502 1076.0
260.243164 36.0
260.451904 44.0
260.689636 92.0
261.062531 144.0
261.145447 164.0
261.889648 72.0
261.992706 76.0
262.04425 52.0
263.021393 28.0
263.144043 88.0
263.350708 96.0
263.499329 52.0
264.887115 80.0
265.395935 132.0
268.204712 48.0
268.886383 40.0
274.24884 112.0
275.135956 364.0
276.150604 108.0
277.152924 200.0
278.367676 56.0
279.155212 144.0
280.16037 108.0
283.082855 192.0
284.816742 56.0
287.014313 76.0
290.016296 64.0
290.901611 168.0
290.993286 72.0
291.149475 104.0
292.502655 72.0
293.483795 100.0
297.266937 48.0
302.273834 92.0
303.13031 264.0
303.73584 128.0
304.130768 168.0
316.294678 56.0
317.025024 96.0
317.797272 52.0
318.841248 100.0
333.091614 160.0
337.051727 140.0
337.793884 112.0
337.863403 64.0
337.94754 44.0
344.081635 80.0
347.631226 68.0
348.206635 220.0
349.146881 112.0
356.556671 76.0
357.143188 164.0
365.2034 112.0
365.983551 72.0
366.097778 80.0
373.242065 100.0
375.190216 200.0
378.877014 60.0
392.19931 136.0
392.849243 152.0
393.062286 104.0
393.21225 116.0
395.366089 176.0
408.525391 32.0
408.819092 84.0
410.210266 616.0
411.211578 176.0
413.209137 176.0
413.269806 164.0
438.777557 120.0
445.082764 80.0
451.54715 92.0
467.287933 148.0
469.256165 60.0
509.534485 144.0
519.257507 104.0
542.918579 40.0
576.276794 92.0
584.403625 52.0
586.170715 20.0
589.302185 76.0
590.293091 68.0
599.033997 104.0
604.707764 108.0
627.256287 148.0
637.712463 64.0
641.079285 36.0
651.89856 56.0
658.633728 104.0
696.390625 48.0
725.480652 184.0
737.154663 68.0
739.274475 64.0
761.605957 72.0
775.155518 128.0
784.437012 48.0
790.317749 216.0
791.745117 56.0
795.861023 48.0
800.83783 48.0
815.781738 88.0
830.192749 172.0
849.404541 108.0
866.233276 28.0
871.9422 196.0
893.900024 56.0
923.815613 164.0
927.321472 120.0
932.31012 48.0
934.079407 164.0
943.910583 176.0
948.851624 152.0
948.986511 216.0
957.213867 144.0
960.905884 136.0
968.404114 164.0
976.080688 168.0
983.026123 80.0
986.173706 188.0
992.189209 184.0
994.830261 164.0
995.954285 44.0
1007.172241 108.0
1011.769409 176.0
1013.485779 60.0
1018.351379 200.0
1022.744812 224.0
1022.903931 152.0
1027.007446 152.0
1028.213257 124.0
1034.957275 204.0
1035.738525 148.0
1039.925415 168.0
1041.170898 196.0
1043.921387 172.0
1046.224731 164.0
1049.387939 128.0
1055.922852 80.0
1063.438354 152.0
1077.333862 144.0
1077.699707 212.0
1081.309326 88.0
1084.190918 164.0
1097.218506 144.0
1105.593994 112.0
1106.163086 128.0
1106.560303 212.0
1106.891357 128.0
1112.819092 176.0
1118.496216 52.0
1122.046875 164.0
1124.328003 156.0
1126.818726 52.0
1127.854492 160.0
1129.659912 92.0
1129.807007 168.0
1132.377441 216.0
1138.93689 164.0
1142.701416 200.0
1143.919556 92.0
1144.027222 148.0
1145.933105 196.0
1146.633911 212.0
1149.749634 124.0
1155.838135 112.0
1157.916382 240.0
1158.505737 228.0
1161.216919 160.0
1161.339111 252.0
1162.003784 216.0
1162.254883 96.0
1165.38501 68.0
1166.757812 128.0
1169.437866 164.0
1175.769287 148.0
1175.823975 160.0
1179.724121 224.0
1187.838623 180.0
1191.97168 32.0
1192.231079 160.0
1194.102661 184.0
1194.185303 48.0
1195.912231 196.0
1198.983887 188.0
1201.148804 164.0
1204.689941 76.0
1210.236572 140.0
1213.659302 116.0
1217.996704 244.0
1222.891602 36.0
1224.945679 136.0
1226.625 152.0
1228.033447 160.0
1228.849609 100.0
1230.028931 124.0
1230.915649 52.0
1233.89209 152.0
1235.997314 176.0
1242.302734 72.0
1242.590332 144.0
1244.050049 208.0
1245.089233 44.0
1245.904053 48.0
1246.669922 128.0
1250.228271 132.0
1252.762939 120.0
1252.967285 140.0
1259.789062 184.0
1260.191772 148.0
1260.410767 56.0
1265.262695 204.0
1266.735596 40.0
1268.748169 200.0
1269.53418 152.0
1271.315796 140.0
1271.79126 164.0
1272.245605 112.0
1272.344971 156.0
1274.376099 148.0
1275.193359 212.0
1277.063232 164.0
1278.870361 56.0
1282.445923 200.0
1283.729126 184.0
1284.627808 136.0
1289.383057 216.0
1290.119263 244.0
1292.522339 156.0
1293.552979 124.0
1297.772583 68.0
1298.324707 104.0
1299.056274 160.0
1299.657471 164.0
1301.194824 180.0
1301.517944 148.0
1304.147217 76.0
1308.492065 60.0
1316.293457 172.0
1319.826782 44.0
1322.655396 56.0
1323.37207 244.0
1327.45874 100.0
1331.820435 240.0
1335.890991 140.0
1339.894897 160.0
1340.463257 188.0
1341.512695 144.0
1341.862671 172.0
1343.656738 228.0
1343.926758 216.0
1345.853638 112.0
1347.540771 104.0
1349.163208 116.0
1350.552612 140.0
1351.108521 40.0
1351.84021 204.0
1352.981934 156.0
1354.080322 164.0
1356.139038 120.0
1356.652222 152.0
1357.553955 56.0
1357.832642 156.0
1358.434082 188.0
1362.832153 184.0
1363.684082 164.0
1364.622681 216.0
1365.676636 188.0
1365.99292 224.0
1368.266724 224.0
1368.701172 152.0
1369.19458 156.0
1370.365723 88.0
1372.894043 128.0
1373.10791 204.0
1377.100708 96.0
1378.31958 152.0
1379.088135 88.0
1381.106689 196.0
1382.423584 156.0
1383.378296 136.0
1385.851929 124.0
1386.489136 108.0
1386.859741 132.0
1386.926392 60.0
1387.022827 148.0
1388.869141 112.0
1389.536743 164.0
1391.637085 132.0
1392.535645 168.0
1393.040649 88.0
1393.315552 96.0
1393.872803 128.0
1395.255249 164.0
1395.411377 120.0
1396.720215 40.0
1401.425049 196.0
1403.340576 148.0
1403.884888 156.0
1406.54834 76.0
1407.287476 92.0
1407.436768 232.0
1408.84082 136.0
1409.296509 236.0
1410.888428 120.0
1411.381958 164.0
1414.307007 216.0
1414.801025 96.0
1415.325073 200.0
1416.890381 148.0
1419.746216 148.0
1421.223999 224.0
1423.933838 132.0
1424.700073 160.0
1425.038086 152.0
1425.81958 200.0
1425.969849 108.0
1426.796753 248.0
1428.293213 112.0
1428.481201 156.0
1429.188354 164.0
1430.663452 168.0
1433.065918 92.0
1433.269409 224.0
1434.482788 168.0
1435.108521 144.0
1435.417603 136.0
1435.975708 284.0
1436.812988 200.0
1438.979004 204.0
1439.711426 156.0
1441.524414 192.0
1444.17041 188.0
1445.062988 136.0
1445.751587 164.0
1446.970215 224.0
1447.32605 104.0
1449.810669 200.0
1450.022827 44.0
1455.659424 272.0
1456.63147 148.0
1461.915527 136.0
1463.118164 172.0
1463.521606 168.0
1463.871948 104.0
1464.400269 196.0
1466.888916 84.0
1468.680786 132.0
1469.077515 156.0
1472.054077 132.0
1473.887329 140.0
1476.754028 180.0
1477.029419 192.0
1477.473022 152.0
1477.618408 112.0
1478.169312 164.0
1479.363281 120.0
1480.749146 124.0
1481.323608 164.0
1485.877197 240.0
1486.897827 172.0
1487.128052 156.0
1488.141357 136.0
1488.602051 184.0
1488.962891 188.0
1489.093506 152.0
1491.337036 168.0
1493.982178 148.0
1494.212891 196.0
1495.875122 64.0
1497.268799 140.0
1497.692383 80.0
1500.674683 128.0
1500.790283 168.0
1500.890503 192.0
1501.73877 208.0
1502.533325 108.0
1502.93457 140.0
1503.706177 172.0
1503.891479 76.0
1504.022705 172.0
