>compound MLS000069446-01!COUMESTROL
>formula C15H8O5
>ionization [M+H]+
>parentmass 269.043701
#inchi InChI=1S/C15H8O5/c16-7-1-3-9-11(5-7)19-14-10-4-2-8(17)6-12(10)20-15(18)13(9)14/h1-6,16-17H
#inchikey ZZIALNLLNHEQPJ
#Ion_Source LC-ESI
#Instrument qTof
#Compound_Source NIH Pharmacologically Active Library
#PI Dorrestein
#Data_Collector VP/LMS
#Scan -1
#Precursor_MZ 269.05
#ExactMass 268.037
#Charge 1
#CAS_Number N/A
#Pubmed_ID N/A
#Smiles Oc1ccc2c(c1)oc3c2c(=O)oc4cc(O)ccc34
#INCHI_AUX N/A
#Library_Class 1
#SpectrumID CCMSLIB00000085539
#IonMode Positive
#UpdateWorkflowName UPDATE-SINGLE-ANNOTATED-GOLD
#LibraryQualityString Gold
#TaskID d252d724072548979f1f6f1ced849daf
##Scan# 1803
#SpectrumFile p4-C05_GC5_01_18353.mzXML
#LibraryName Pharm_Active_Library.mgf
#MQScore -1
#Organism Pharm_Active_Library
#TIC_Query 0
#RT_Query -1
#MZErrorPPM -1
#SharedPeaks 0
#MassDiff 0
#LibMZ -1
#SpecMZ 269.05
#SpecCharge 0
#internalFilename spec-00000.mgf

>collision 10
45.02935 184.0
45.0574 172.0
45.264717 56.0
45.378605 144.0
45.575909 172.0
45.661942 72.0
45.696915 152.0
45.726521 200.0
45.963699 44.0
46.275925 156.0
46.290947 172.0
46.359905 184.0
46.437183 192.0
46.5797 160.0
46.757816 204.0
46.771427 160.0
47.085014 108.0
47.484646 136.0
47.595798 156.0
47.657608 84.0
47.836395 108.0
48.174244 100.0
48.248871 216.0
48.353996 160.0
48.402447 152.0
48.528538 164.0
48.590946 80.0
48.667282 136.0
48.973225 208.0
49.087502 252.0
49.270344 188.0
49.552948 204.0
49.724022 112.0
49.820908 176.0
49.885551 172.0
50.099453 208.0
50.212215 184.0
50.466396 88.0
50.800625 172.0
50.864479 160.0
50.895714 176.0
50.945423 156.0
51.101807 144.0
51.342537 168.0
51.665344 172.0
51.891624 136.0
52.175888 76.0
52.242043 108.0
52.342789 164.0
52.479671 212.0
52.494091 156.0
52.638393 124.0
53.031891 220.0
53.147907 96.0
53.632175 164.0
54.13768 180.0
54.172832 140.0
54.325287 188.0
54.549961 56.0
54.582306 220.0
54.638199 140.0
54.654381 152.0
54.980042 164.0
55.109985 184.0
55.281509 148.0
55.348122 172.0
55.4533 68.0
55.46664 156.0
55.626842 180.0
55.674355 172.0
55.794708 156.0
55.843781 276.0
55.861629 192.0
56.01495 132.0
56.165501 56.0
56.386475 228.0
56.441784 176.0
56.588413 52.0
56.76672 168.0
56.837223 184.0
57.002125 224.0
57.036961 168.0
57.393757 136.0
57.809155 188.0
57.87727 164.0
57.887871 32.0
58.072762 92.0
58.097031 244.0
58.620056 180.0
59.027626 152.0
59.052097 152.0
59.349178 92.0
59.591686 136.0
59.663918 164.0
59.680832 92.0
59.728504 128.0
59.850082 148.0
60.150707 44.0
60.251083 276.0
60.4165 164.0
60.580593 72.0
60.633274 156.0
60.910225 164.0
61.239197 84.0
61.630753 220.0
61.690144 68.0
61.849693 104.0
62.034531 184.0
62.108231 140.0
62.284027 168.0
62.301308 312.0
62.626919 176.0
62.656849 200.0
62.756138 52.0
62.784523 100.0
62.888649 180.0
63.134869 156.0
63.173073 164.0
63.271191 160.0
63.631069 108.0
63.735897 136.0
63.80265 184.0
63.902843 132.0
63.953766 100.0
64.339523 176.0
64.507263 100.0
64.580818 160.0
64.798523 52.0
65.226997 180.0
65.366913 152.0
65.555321 236.0
65.652046 164.0
65.676193 160.0
65.740768 196.0
65.926476 44.0
66.089798 224.0
66.436508 140.0
66.472198 180.0
66.608574 168.0
66.873604 164.0
66.955902 200.0
67.036461 148.0
67.62439 148.0
67.648941 120.0
68.099861 204.0
68.251045 160.0
68.389236 144.0
68.685822 184.0
68.702316 192.0
68.824448 180.0
68.850868 144.0
68.94503 188.0
69.021072 148.0
69.169968 172.0
69.19149 164.0
69.222946 64.0
69.249443 212.0
69.375374 188.0
69.426773 92.0
69.443359 84.0
69.516357 156.0
69.672432 156.0
69.695686 128.0
69.976776 184.0
70.171707 84.0
70.25843 88.0
70.433708 160.0
70.821754 220.0
71.205833 196.0
71.624641 84.0
71.853897 184.0
71.946724 156.0
72.012573 148.0
72.04467 220.0
72.198479 272.0
72.220467 132.0
72.245842 160.0
72.568054 172.0
72.642235 60.0
72.730469 268.0
72.820457 188.0
72.844238 272.0
73.049927 144.0
73.092461 120.0
73.242271 124.0
73.487755 180.0
73.639832 228.0
73.877274 132.0
74.058723 176.0
74.144386 132.0
74.242104 120.0
74.65081 200.0
74.70929 160.0
75.04512 108.0
75.176216 148.0
75.269424 160.0
75.469864 36.0
75.627281 136.0
75.708656 128.0
75.727707 228.0
75.762138 200.0
76.321198 168.0
76.489952 128.0
76.847206 72.0
76.880356 160.0
77.179062 208.0
77.671165 128.0
78.097984 44.0
78.147247 164.0
78.365562 136.0
78.430771 144.0
78.476601 160.0
78.552437 180.0
78.764259 56.0
79.920128 184.0
80.092812 168.0
80.151604 144.0
80.256767 164.0
80.695984 84.0
80.966187 192.0
81.05217 216.0
81.279892 172.0
81.340912 116.0
81.639153 188.0
81.919662 160.0
82.177734 208.0
82.325745 192.0
82.365479 208.0
82.381737 136.0
82.414253 192.0
82.587799 208.0
83.053299 140.0
83.06781 168.0
83.124054 140.0
83.187576 204.0
83.401917 128.0
83.440086 200.0
83.800446 156.0
83.929855 192.0
84.205406 244.0
84.461288 212.0
84.701073 136.0
84.789024 148.0
84.882515 128.0
84.979729 104.0
85.102699 96.0
85.214729 76.0
85.481346 124.0
85.496063 172.0
85.604675 144.0
85.829483 220.0
86.117371 148.0
86.511223 216.0
86.563065 148.0
86.624184 144.0
86.676056 136.0
86.709412 128.0
86.930099 132.0
87.097183 228.0
87.242126 76.0
87.662766 148.0
87.73732 164.0
87.841751 160.0
88.447166 116.0
88.86319 60.0
88.880074 144.0
88.919487 44.0
89.005836 120.0
89.079079 84.0
89.223778 144.0
89.432579 32.0
89.583221 164.0
89.988686 120.0
90.051003 224.0
90.361015 132.0
90.656944 192.0
91.041489 192.0
91.214386 132.0
91.419792 148.0
91.85228 176.0
92.088959 176.0
92.111877 188.0
92.251373 200.0
92.43306 124.0
92.471336 112.0
92.515366 32.0
92.545998 220.0
92.741394 164.0
92.758644 180.0
92.919731 228.0
93.036797 132.0
93.278839 164.0
93.540443 280.0
93.652122 124.0
93.985634 112.0
94.246292 92.0
94.460884 200.0
94.522797 216.0
94.580856 144.0
94.737701 84.0
94.886925 192.0
94.910194 196.0
95.011047 164.0
95.232338 224.0
95.399445 196.0
95.529732 104.0
95.548126 152.0
95.605614 44.0
95.646484 212.0
96.014725 148.0
96.342636 84.0
96.510712 36.0
96.911957 72.0
96.972702 184.0
97.21785 100.0
97.361153 64.0
98.075333 40.0
98.556854 180.0
98.639862 204.0
98.693237 128.0
98.958366 120.0
99.299194 160.0
99.575066 172.0
99.664459 180.0
99.694267 152.0
99.855293 232.0
99.930885 268.0
100.325211 100.0
100.60849 200.0
100.870178 152.0
100.884171 76.0
100.916161 168.0
100.936157 108.0
101.030151 192.0
101.050163 156.0
101.498817 136.0
101.647247 228.0
101.779724 144.0
102.040924 144.0
102.177681 172.0
102.219933 160.0
102.278297 132.0
102.378967 144.0
102.699409 104.0
102.74984 108.0
102.969864 188.0
103.055267 1032.0
103.078949 136.0
103.279091 160.0
103.526001 144.0
103.655052 176.0
103.948486 232.0
104.309319 244.0
104.347778 176.0
104.475899 204.0
104.636673 152.0
104.781273 248.0
104.847275 168.0
105.035294 256.0
105.127899 96.0
105.19117 208.0
105.411743 184.0
105.657097 144.0
105.673462 68.0
105.847443 128.0
105.8843 168.0
106.396919 156.0
106.415398 160.0
106.639305 168.0
106.949883 216.0
107.042526 160.0
107.207321 192.0
107.221748 112.0
107.419685 124.0
107.442375 100.0
107.55587 152.0
107.683884 144.0
107.936653 176.0
108.053894 188.0
108.312653 92.0
108.366516 128.0
108.513672 156.0
108.66922 152.0
108.768829 104.0
108.89341 124.0
109.525703 88.0
109.660728 188.0
109.729919 156.0
110.113869 88.0
110.209961 136.0
110.333267 132.0
110.617775 156.0
110.802055 160.0
111.350769 176.0
111.757339 76.0
111.948891 124.0
112.184868 208.0
112.262878 164.0
112.554077 140.0
112.573082 220.0
112.758987 124.0
113.016975 116.0
113.17572 88.0
113.427818 116.0
113.53595 224.0
113.55928 136.0
113.799072 224.0
114.002983 108.0
114.02211 176.0
114.4944 220.0
114.577477 136.0
114.74157 216.0
114.807671 148.0
114.82473 164.0
114.922859 172.0
115.055229 5528.0
115.077423 336.0
115.092087 196.0
115.198257 164.0
115.275177 44.0
115.437637 40.0
115.459023 92.0
115.600212 160.0
115.936417 52.0
116.05825 720.0
116.311745 72.0
116.498566 68.0
116.780151 152.0
116.844681 184.0
116.995323 100.0
117.021164 148.0
117.046997 208.0
117.229042 164.0
117.331398 152.0
117.376678 56.0
117.424118 172.0
117.443527 180.0
117.486671 116.0
117.715454 80.0
117.931496 184.0
118.288391 164.0
118.895264 120.0
119.02076 192.0
119.053734 256.0
119.08197 152.0
119.099342 164.0
119.186241 176.0
119.412323 172.0
119.51239 160.0
119.605965 176.0
119.714828 148.0
119.782341 252.0
119.8172 156.0
120.015526 176.0
120.070045 168.0
120.315964 176.0
120.681465 80.0
120.854256 256.0
120.887077 84.0
120.904587 192.0
121.029106 1292.0
121.127907 148.0
121.152 180.0
121.180481 188.0
121.241837 96.0
121.441345 72.0
122.179413 176.0
122.419319 124.0
122.443542 100.0
122.465569 112.0
122.542671 148.0
122.849106 144.0
123.062157 172.0
123.089676 56.0
123.7519 296.0
123.817223 152.0
123.850441 112.0
124.318237 168.0
124.455864 128.0
125.883171 160.0
125.930069 164.0
126.055176 192.0
126.106575 48.0
126.339737 176.0
126.386108 248.0
126.589806 168.0
126.609955 160.0
126.858658 104.0
126.894531 168.0
127.053764 300.0
127.150246 172.0
127.388245 208.0
127.559029 212.0
127.786163 208.0
127.806412 112.0
128.062485 4008.0
128.086578 156.0
128.166672 60.0
128.328949 228.0
128.51503 36.0
128.703491 40.0
128.805115 212.0
128.821396 212.0
128.870636 28.0
129.017532 176.0
129.033356 136.0
129.069489 2228.0
129.175827 128.0
129.227859 220.0
129.361389 188.0
129.489151 236.0
129.515366 48.0
129.612778 28.0
129.934738 128.0
129.968765 116.0
130.071976 324.0
130.107208 124.0
130.218475 256.0
130.24118 220.0
130.338867 212.0
130.73909 56.0
131.048843 1456.0
131.422699 36.0
131.639542 212.0
131.810852 184.0
132.047943 124.0
132.09436 188.0
132.249954 96.0
132.417084 204.0
132.444565 64.0
132.882416 192.0
132.965027 112.0
133.029282 144.0
133.067429 124.0
133.461197 156.0
133.813217 48.0
133.995163 180.0
134.19249 136.0
134.253326 172.0
134.553284 52.0
134.599457 224.0
134.652573 208.0
134.765762 212.0
135.100998 176.0
135.290756 156.0
135.480652 76.0
135.726318 164.0
135.75415 180.0
136.018631 96.0
136.045441 168.0
136.262466 200.0
136.369354 180.0
136.422821 152.0
136.606537 68.0
136.622818 180.0
136.985962 192.0
137.06517 140.0
137.251648 40.0
137.526932 112.0
137.879593 52.0
138.874619 224.0
139.055237 1908.0
139.185684 172.0
139.292419 208.0
139.454544 192.0
139.548569 144.0
140.061127 724.0
140.299591 132.0
140.474823 156.0
140.509476 92.0
140.561386 140.0
140.81871 124.0
140.842331 104.0
140.896652 128.0
141.014801 152.0
141.070892 5696.0
141.10463 28.0
141.132996 96.0
141.215775 48.0
141.296188 100.0
141.338776 112.0
141.395569 92.0
141.466583 208.0
141.577866 92.0
141.611023 96.0
141.980743 60.0
142.07486 556.0
142.106461 68.0
142.20137 64.0
142.339066 160.0
142.436432 96.0
142.529083 128.0
142.548096 228.0
142.58374 76.0
142.738266 48.0
142.930923 52.0
143.010529 108.0
143.049393 1000.0
143.083252 76.0
143.166595 104.0
143.192795 116.0
143.395294 164.0
143.447739 64.0
143.531174 56.0
143.750626 208.0
143.865189 96.0
143.951141 88.0
144.052963 292.0
144.089676 148.0
144.137466 48.0
144.503281 228.0
144.558319 152.0
145.030655 180.0
145.064804 364.0
145.164368 64.0
145.31308 132.0
145.550705 172.0
145.747665 248.0
146.062592 156.0
146.079437 116.0
146.168457 180.0
146.283966 92.0
146.332123 196.0
146.498291 208.0
146.686249 144.0
147.044449 408.0
147.538391 216.0
147.603668 248.0
147.998077 160.0
148.276657 60.0
148.477875 188.0
148.946304 164.0
149.079926 56.0
149.649109 164.0
149.709976 168.0
149.787918 160.0
150.00235 220.0
150.048218 152.0
150.424347 132.0
151.013214 188.0
151.055862 1036.0
151.083771 52.0
151.306854 120.0
151.407242 260.0
151.581177 140.0
151.784622 184.0
151.87291 148.0
152.007843 160.0
152.061295 616.0
152.629288 180.0
152.830994 188.0
153.08699 136.0
153.316086 112.0
153.459045 188.0
153.488632 52.0
154.232468 160.0
154.367706 140.0
154.422119 72.0
154.555695 76.0
154.577972 104.0
154.678787 244.0
155.058395 648.0
155.420441 152.0
155.51474 148.0
156.057281 184.0
156.088608 176.0
156.586319 124.0
156.733292 260.0
156.822998 184.0
156.897278 140.0
156.94516 156.0
156.997513 172.0
157.024246 196.0
157.065567 14380.0
157.129715 140.0
157.152969 172.0
157.227036 68.0
157.254486 48.0
157.304398 132.0
157.344345 32.0
157.399277 140.0
157.429245 64.0
157.476685 120.0
157.656982 244.0
157.709045 88.0
157.743362 132.0
157.904068 76.0
158.009399 224.0
158.034683 204.0
158.069138 1420.0
158.140671 48.0
158.24939 108.0
158.279434 208.0
158.314499 92.0
158.357071 84.0
158.44223 112.0
158.577545 120.0
158.879242 120.0
158.92688 132.0
158.983826 144.0
159.044373 164.0
159.068314 284.0
159.244919 108.0
159.352936 84.0
159.420776 56.0
159.481094 168.0
159.641998 224.0
160.047897 92.0
160.430069 144.0
160.510757 68.0
160.869003 80.0
161.02655 216.0
161.101334 112.0
161.22261 120.0
161.404617 128.0
161.493134 176.0
162.328857 132.0
163.650131 248.0
164.294922 144.0
164.491425 108.0
165.122513 144.0
165.291351 208.0
165.865021 60.0
166.095795 164.0
166.971619 184.0
167.049194 492.0
167.61261 72.0
167.700226 196.0
167.927124 104.0
167.97612 40.0
168.058502 3224.0
168.156738 72.0
168.200623 40.0
168.337448 60.0
168.35553 132.0
168.600937 148.0
168.771545 120.0
168.906036 144.0
168.939651 208.0
168.986221 60.0
169.065216 3600.0
169.133728 28.0
169.233505 160.0
169.618103 68.0
169.742554 144.0
169.830719 120.0
169.940689 72.0
170.070129 356.0
170.339462 168.0
170.466766 116.0
170.547333 100.0
170.601929 212.0
170.708527 160.0
170.747528 180.0
170.841171 184.0
170.877594 144.0
171.0103 124.0
171.043289 2096.0
171.215973 60.0
171.275879 132.0
171.374878 120.0
171.533844 88.0
172.048553 340.0
172.55719 124.0
172.855362 120.0
173.06514 196.0
173.36528 236.0
173.559967 68.0
173.759308 96.0
173.864258 148.0
174.287033 56.0
174.620895 96.0
174.726105 56.0
174.947159 168.0
175.034607 152.0
175.134125 108.0
175.442429 192.0
175.703506 124.0
175.88295 204.0
176.038712 192.0
176.073044 72.0
176.40596 260.0
176.622787 168.0
177.009171 156.0
178.790421 152.0
179.006042 40.0
179.054321 292.0
179.824463 36.0
180.059418 144.0
180.698273 216.0
180.781219 40.0
181.046234 132.0
181.783432 48.0
181.871994 108.0
182.45491 52.0
182.600113 160.0
183.049728 160.0
183.095856 196.0
183.842056 220.0
184.04924 1092.0
184.255157 52.0
184.292984 56.0
184.401077 124.0
184.590317 40.0
184.814819 36.0
184.849991 156.0
184.969086 128.0
185.059647 1100.0
185.142349 40.0
185.363327 84.0
185.532532 32.0
185.85527 148.0
185.874268 48.0
185.928543 140.0
186.06694 248.0
186.303238 188.0
186.341278 68.0
186.463547 192.0
186.504318 156.0
186.694626 64.0
187.00206 164.0
187.070099 120.0
187.206238 80.0
187.391464 132.0
187.418701 48.0
187.456848 184.0
188.223358 72.0
188.261581 56.0
189.667847 112.0
190.153305 136.0
190.356461 160.0
190.543228 156.0
191.773254 172.0
192.026917 96.0
192.592712 116.0
192.65625 136.0
192.700455 176.0
192.87178 132.0
193.037674 92.0
193.211914 100.0
193.236816 80.0
193.582809 196.0
193.93187 148.0
193.970673 148.0
194.742035 120.0
195.044052 264.0
195.181122 192.0
195.920135 136.0
196.049622 168.0
196.077484 180.0
196.735474 160.0
196.822296 120.0
196.942383 180.0
197.059799 18200.0
197.170181 120.0
197.2173 92.0
197.290787 68.0
197.319626 180.0
197.366058 132.0
197.409103 100.0
197.523773 92.0
197.69458 76.0
197.756012 140.0
197.940781 48.0
197.99678 200.0
198.062866 1500.0
198.159241 48.0
198.271332 68.0
198.293747 52.0
198.358215 72.0
198.394653 164.0
198.461945 76.0
198.48999 124.0
198.964142 76.0
199.031525 80.0
199.063385 288.0
199.306793 104.0
199.34613 104.0
199.458557 76.0
199.511765 112.0
199.559753 64.0
199.601929 124.0
199.686295 124.0
200.173141 52.0
200.381577 92.0
200.426666 56.0
200.638046 28.0
200.934158 88.0
201.052353 212.0
201.222031 48.0
201.854935 68.0
202.021805 220.0
202.350082 300.0
202.384064 144.0
202.806152 44.0
203.032974 140.0
203.628952 112.0
204.709625 148.0
205.148392 188.0
206.184479 64.0
206.756454 188.0
207.034149 168.0
207.091415 180.0
207.458191 252.0
207.934326 72.0
208.061249 244.0
208.238663 208.0
208.411026 100.0
208.865234 196.0
209.046494 88.0
209.187515 152.0
209.216309 112.0
210.176041 108.0
210.25972 216.0
211.010742 196.0
211.036774 132.0
211.100388 64.0
211.427277 120.0
211.65596 152.0
212.03862 324.0
212.148483 192.0
212.257828 232.0
212.627075 160.0
212.708344 148.0
212.809952 188.0
212.844788 160.0
212.891998 232.0
212.934814 128.0
212.958038 100.0
213.016144 188.0
213.055145 24540.0
213.120728 68.0
213.178833 104.0
213.204987 76.0
213.274612 92.0
213.309631 56.0
213.431732 88.0
213.467896 56.0
213.492065 64.0
213.580048 44.0
213.72551 128.0
213.758484 60.0
213.794205 68.0
213.898392 88.0
214.007828 92.0
214.057434 2680.0
214.153442 44.0
214.182556 220.0
214.311783 112.0
214.494339 76.0
214.564301 48.0
214.785934 104.0
214.908447 92.0
215.059372 684.0
215.212006 80.0
215.308365 60.0
215.411179 116.0
215.460251 56.0
215.509918 116.0
215.562515 44.0
215.641418 76.0
215.702805 84.0
215.729111 52.0
215.863602 48.0
215.941925 56.0
215.998138 76.0
216.167816 140.0
216.410767 48.0
216.451752 160.0
217.507172 124.0
218.712296 120.0
220.804153 48.0
222.718796 48.0
223.037735 176.0
223.280518 68.0
223.706009 84.0
224.049347 700.0
224.400131 176.0
224.641693 56.0
224.835632 52.0
225.011749 128.0
225.053131 2848.0
225.543472 196.0
225.567383 88.0
226.001022 148.0
226.051239 404.0
226.893539 56.0
227.040085 192.0
227.130432 124.0
227.316437 112.0
227.709717 96.0
227.907974 68.0
228.048965 292.0
228.376938 72.0
229.198792 48.0
229.313293 76.0
229.650986 88.0
231.291641 180.0
232.055038 64.0
236.68634 148.0
236.811905 204.0
237.038605 72.0
239.037613 132.0
239.425491 68.0
239.696579 56.0
239.761292 88.0
239.835251 120.0
239.88765 68.0
240.037857 1028.0
240.084381 204.0
240.282028 68.0
240.433578 128.0
240.489136 156.0
240.523087 36.0
240.603348 220.0
240.668182 64.0
240.742294 116.0
240.828766 68.0
240.980133 136.0
241.049362 6592.0
241.125366 184.0
241.147003 112.0
241.171036 160.0
241.211914 28.0
241.410934 64.0
241.440704 56.0
241.524216 248.0
241.579147 64.0
241.620102 44.0
241.644852 44.0
241.678894 76.0
241.953568 64.0
242.049881 1344.0
242.164902 52.0
242.220657 60.0
242.245438 96.0
242.772339 68.0
243.059189 188.0
243.650742 144.0
243.737732 104.0
244.191605 48.0
244.60231 164.0
244.636551 88.0
248.010101 48.0
252.043991 224.0
252.073883 224.0
253.039581 172.0
254.226364 148.0
255.478226 140.0
255.920593 36.0
259.12085 84.0
261.403748 124.0
267.015228 184.0
267.037659 208.0
268.034119 356.0
268.087616 148.0
268.113708 96.0
268.191925 52.0
268.325562 156.0
269.043701 4140.0
269.141235 64.0
269.306549 100.0
269.366577 88.0
269.660645 108.0
270.047028 640.0
270.121674 116.0
270.223083 144.0
270.295074 188.0
270.367065 80.0
270.409607 80.0
270.841797 52.0
271.048401 256.0
271.248108 36.0
271.467773 124.0
271.897522 104.0
271.992676 92.0
272.790894 32.0
288.047302 192.0
288.990509 140.0
290.016571 156.0
291.567596 112.0
309.489868 48.0
319.221954 68.0
338.295563 64.0
338.896179 68.0
338.971619 168.0
355.873383 60.0
356.978088 132.0
357.026978 96.0
358.227631 80.0
359.66806 108.0
364.496704 96.0
365.607086 128.0
377.016296 56.0
396.515015 80.0
414.278381 84.0
415.015961 52.0
421.295776 108.0
424.500488 80.0
428.087891 40.0
434.05069 108.0
440.221771 88.0
446.285004 68.0
448.398193 64.0
456.620056 56.0
480.236725 68.0
507.721771 96.0
521.605652 108.0
527.74646 88.0
532.218323 68.0
550.640198 128.0
551.29425 28.0
555.559631 96.0
561.986206 92.0
580.213257 64.0
609.524475 88.0
615.178406 72.0
667.280029 92.0
687.575378 72.0
734.882996 176.0
750.372986 116.0
755.626953 28.0
819.066956 156.0
917.9776 88.0
922.717407 56.0
935.536255 148.0
1000.106934 168.0
1001.895264 120.0
1003.58429 188.0
1014.69928 196.0
1016.18335 152.0
1026.736206 156.0
1028.02478 228.0
1032.432739 164.0
1036.330933 140.0
1037.715332 108.0
1043.410034 216.0
1045.996094 144.0
1050.119873 56.0
1050.242432 212.0
1060.289551 176.0
1060.795166 164.0
1088.523804 144.0
1104.115601 144.0
1106.72937 192.0
1109.319824 184.0
1122.497192 144.0
1132.052979 180.0
1136.503784 168.0
1142.281372 152.0
1142.940674 56.0
1153.143799 156.0
1153.97522 128.0
1160.400391 180.0
1165.001709 212.0
1168.094604 164.0
1168.63208 128.0
1176.148682 148.0
1183.134888 168.0
1189.565063 64.0
1192.120117 160.0
1193.570435 196.0
1194.127441 216.0
1206.366455 164.0
1223.870483 152.0
1225.29834 204.0
1231.639404 128.0
1232.841064 196.0
1236.498657 224.0
1236.932495 104.0
1240.252686 76.0
1241.086914 184.0
1242.531738 172.0
1248.249023 192.0
1248.846802 192.0
1250.655029 108.0
1254.47998 104.0
1258.988525 180.0
1259.828979 132.0
1260.146851 100.0
1270.735352 200.0
1273.720215 100.0
1275.21936 220.0
1282.778564 180.0
1284.026367 168.0
1284.168945 160.0
1288.559082 144.0
1290.560303 256.0
1290.724731 160.0
1292.67749 48.0
1296.286621 76.0
1297.003296 184.0
1298.257935 200.0
1302.571411 192.0
1304.367798 176.0
1320.222412 180.0
1321.025146 232.0
1323.029785 128.0
1323.645142 88.0
1324.101318 252.0
1325.274902 160.0
1329.778198 232.0
1333.104248 196.0
1338.763916 200.0
1338.924072 220.0
1345.128906 112.0
1349.746094 252.0
1352.760376 216.0
1353.507202 172.0
1356.95813 112.0
1357.552124 204.0
1359.400635 112.0
1359.598755 196.0
1359.855713 124.0
1360.523682 160.0
1364.005615 196.0
1366.101318 136.0
1367.896851 176.0
1368.198608 48.0
1369.531494 100.0
1371.167114 172.0
1373.60022 148.0
1379.818237 144.0
1382.473633 176.0
1383.065674 108.0
1393.001831 224.0
1396.703613 160.0
1400.536865 208.0
1403.629639 180.0
1404.397827 140.0
1407.830933 76.0
1411.776611 140.0
1414.859253 100.0
1419.632202 152.0
1421.316162 208.0
1423.459229 164.0
1423.511719 188.0
1423.59436 116.0
1424.171021 92.0
1425.389648 156.0
1430.579224 136.0
1433.252808 116.0
1434.496338 152.0
1436.019409 124.0
1438.675537 156.0
1439.536255 252.0
1444.81189 168.0
1446.211792 148.0
1446.779541 152.0
1447.044556 228.0
1449.771362 64.0
1450.317017 184.0
1453.684326 132.0
1453.760254 196.0
1460.445923 180.0
1461.168579 168.0
1461.297852 100.0
1461.701172 136.0
1467.078247 212.0
1468.206665 160.0
1470.083374 208.0
1472.083374 164.0
1477.479492 216.0
1478.795654 172.0
1480.42627 136.0
1483.721069 152.0
1484.878906 156.0
1485.630615 120.0
1489.153809 196.0
1490.01416 60.0
1490.167847 144.0
1490.26001 124.0
1491.397339 32.0
1499.085693 176.0
1500.380615 228.0
1502.030884 112.0
1502.601685 144.0
1503.033813 236.0
