>compound MLS001076329-01!HYOSCINE HYDROCHLORIDE
>formula C17H21NO4
>ionization [M+H]+
>parentmass 304.15433460409054
#inchi InChI=1S/C17H21NO4/c1-18-13-7-11(8-14(18)16-15(13)22-16)21-17(20)12(9-19)10-5-3-2-4-6-10/h2-6,11-16,19H,7-9H2,1H3/t11-,12-,13-,14+,15-,16+/m1/s1
#inchikey STECJAGHUSJQJN
#origInchi InChI=1S/C17H21NO4.ClH/c1-18-13-7-11(8-14(18)16-15(13)22-16)21-17(20)12(9-19)10-5-3-2-4-6-10;/h2-6,11-16,19H,7-9H2,1H3;1H/t11-,12-,13-,14+,15-,16+;/m1./s1
#Ion_Source LC-ESI
#Instrument qTof
#Compound_Source NIH Pharmacologically Active Library
#PI Dorrestein
#Data_Collector VP/LMS
#Scan -1
#Precursor_MZ 304.155
#ExactMass 303.147
#Charge 1
#CAS_Number N/A
#Pubmed_ID N/A
#Smiles CN1[C@H]2C[C@@H](C[C@@H]1[C@H]3O[C@H]32)OC(=O)[C@H](CO)c4ccccc4.Cl
#INCHI_AUX N/A
#Library_Class 1
#SpectrumID CCMSLIB00000085902
#IonMode Positive
#UpdateWorkflowName UPDATE-SINGLE-ANNOTATED-GOLD
#LibraryQualityString Gold
#TaskID d252d724072548979f1f6f1ced849daf
##Scan# 1157
#SpectrumFile p4-G09_GG9_01_18405.mzXML
#LibraryName Pharm_Active_Library.mgf
#MQScore -1
#Organism Pharm_Active_Library
#TIC_Query 0
#RT_Query -1
#MZErrorPPM -1
#SharedPeaks 0
#MassDiff 0
#LibMZ -1
#SpecMZ 304.155
#SpecCharge 0
#internalFilename spec-00000.mgf

>collision 10
45.202808 72.0
45.559471 132.0
45.570217 428.0
45.664322 156.0
45.846081 132.0
46.078175 148.0
46.114662 160.0
46.328468 76.0
46.388096 148.0
46.571289 248.0
46.597099 160.0
46.775257 160.0
46.903305 204.0
47.103901 232.0
47.180431 176.0
47.207779 92.0
47.283024 144.0
47.362438 172.0
47.75639 120.0
47.786652 72.0
47.838951 172.0
47.870621 196.0
47.909302 196.0
47.982235 236.0
48.080173 144.0
48.107586 172.0
48.145061 204.0
48.204468 164.0
48.23349 124.0
48.276352 112.0
48.405052 184.0
48.842247 168.0
48.895119 180.0
48.957771 236.0
49.017673 168.0
49.033005 212.0
49.289787 200.0
49.39045 156.0
49.587883 68.0
49.680431 68.0
49.82082 172.0
49.903744 128.0
49.945198 168.0
50.090927 144.0
50.113468 160.0
50.220612 228.0
50.26717 64.0
50.460686 184.0
50.479069 148.0
50.816196 236.0
51.007923 160.0
51.130249 192.0
51.157295 148.0
51.217106 136.0
51.352097 144.0
51.556683 188.0
51.679665 204.0
51.88018 176.0
51.928936 148.0
51.987759 84.0
52.111256 180.0
52.180244 120.0
52.311165 136.0
52.375965 192.0
52.473965 160.0
52.486702 192.0
52.560509 140.0
52.820572 200.0
52.926224 180.0
52.939259 52.0
52.978367 112.0
53.089977 104.0
53.207512 100.0
53.255436 132.0
53.315006 132.0
53.364429 200.0
53.396423 168.0
53.461891 64.0
53.553616 132.0
53.713959 188.0
53.746059 152.0
53.852631 184.0
53.94323 176.0
54.003181 192.0
54.294647 180.0
54.495762 168.0
54.585426 136.0
54.70755 100.0
55.054062 188.0
55.15601 172.0
55.492073 184.0
55.646381 140.0
55.909496 244.0
56.05991 200.0
56.171738 104.0
56.464184 188.0
56.507885 148.0
56.869045 156.0
56.944122 164.0
57.028263 156.0
57.046303 160.0
57.080883 144.0
57.138042 152.0
57.508755 184.0
57.606907 216.0
58.091343 52.0
58.294804 180.0
58.334324 196.0
58.421005 176.0
58.4347 156.0
58.504711 160.0
58.631138 236.0
58.721092 120.0
58.872189 132.0
59.191803 152.0
59.233158 180.0
59.592155 136.0
59.750523 232.0
59.893692 172.0
59.939911 136.0
60.179001 160.0
60.508335 52.0
60.543949 152.0
60.557888 180.0
60.717529 240.0
60.737694 172.0
60.764069 152.0
60.790447 112.0
60.847878 124.0
61.055069 216.0
61.08255 256.0
61.108376 132.0
61.207062 212.0
61.236649 112.0
61.387825 68.0
61.557926 220.0
61.808044 216.0
61.853432 64.0
61.872215 184.0
61.97559 244.0
62.298798 176.0
62.311367 140.0
62.334938 112.0
62.481171 44.0
62.50005 68.0
62.537819 136.0
62.804111 144.0
63.075714 52.0
63.162685 92.0
63.257633 136.0
63.294048 144.0
63.684189 264.0
63.714375 44.0
63.847897 184.0
63.948135 60.0
63.999077 60.0
64.214218 220.0
64.329109 140.0
64.377007 176.0
64.675636 196.0
64.70961 128.0
64.868217 248.0
64.898682 192.0
64.965431 188.0
65.419243 180.0
65.501373 124.0
65.562599 168.0
65.760979 92.0
65.982292 204.0
66.231514 140.0
66.327118 244.0
66.433685 140.0
66.539642 180.0
66.606224 144.0
66.838715 116.0
66.885918 84.0
66.947784 172.0
66.978729 168.0
67.014572 204.0
67.275528 244.0
67.290222 108.0
67.365349 268.0
67.494469 152.0
67.612259 56.0
67.736694 220.0
68.209305 136.0
68.324417 164.0
68.4561 228.0
68.657158 144.0
68.672005 104.0
69.038338 212.0
69.07505 176.0
69.46434 192.0
69.552292 88.0
69.598778 152.0
69.625351 240.0
69.906311 192.0
69.917961 124.0
70.051285 172.0
70.645477 152.0
70.657188 208.0
70.846375 132.0
71.003944 176.0
71.054268 188.0
71.215424 188.0
71.457504 164.0
71.541656 92.0
71.831512 168.0
71.858505 208.0
72.113503 168.0
72.238632 176.0
72.331711 108.0
72.350327 32.0
72.575676 120.0
72.602806 176.0
72.814468 224.0
72.877815 68.0
72.894806 160.0
73.071648 32.0
73.100571 228.0
73.499329 184.0
73.697403 240.0
73.714493 180.0
74.142334 148.0
74.27607 148.0
74.348137 188.0
74.418518 176.0
74.485497 204.0
75.089668 160.0
75.169029 208.0
75.207001 132.0
75.445389 132.0
75.620102 240.0
75.93544 140.0
75.956261 144.0
76.051697 204.0
76.228844 116.0
76.479294 148.0
76.524559 148.0
76.569832 104.0
76.637772 176.0
76.929039 232.0
77.126434 76.0
77.248848 164.0
77.495705 232.0
77.520233 244.0
77.958969 96.0
77.97654 100.0
78.180557 216.0
78.298515 140.0
78.647629 156.0
78.689995 172.0
78.742569 228.0
78.826004 100.0
78.937378 156.0
79.103691 204.0
79.996635 176.0
80.01622 140.0
80.094582 140.0
80.294212 204.0
80.394119 192.0
80.458382 184.0
80.515518 120.0
80.604843 140.0
81.114937 148.0
81.242264 200.0
81.797562 172.0
81.943443 168.0
82.132736 128.0
82.190468 220.0
82.289742 144.0
82.392693 44.0
82.454132 192.0
82.63858 160.0
82.729073 168.0
82.89753 184.0
83.178658 200.0
83.207703 168.0
83.398453 156.0
83.476631 76.0
83.603973 216.0
83.735062 164.0
84.035851 112.0
84.205627 216.0
84.339012 184.0
84.44323 184.0
84.518242 152.0
84.617081 152.0
84.657364 156.0
84.681175 180.0
84.725136 216.0
84.809174 140.0
84.826828 184.0
84.973488 140.0
85.102966 184.0
85.312416 216.0
85.888809 184.0
85.957077 68.0
86.071526 132.0
86.481956 152.0
86.578232 236.0
86.639359 180.0
86.663445 168.0
86.741325 192.0
86.975014 164.0
87.034424 164.0
87.421082 152.0
87.478638 256.0
87.517883 184.0
87.54023 160.0
87.719093 180.0
87.890686 204.0
88.215668 176.0
88.329735 60.0
88.393349 212.0
88.565598 188.0
88.606812 136.0
88.629295 152.0
88.81115 204.0
89.023232 180.0
89.077698 40.0
89.211128 48.0
89.276939 204.0
89.617661 76.0
89.828819 60.0
90.066666 180.0
90.19516 152.0
90.871262 52.0
90.920471 180.0
90.947166 204.0
90.975647 188.0
91.052719 428.0
91.081985 104.0
91.097183 140.0
91.289162 188.0
91.357422 212.0
91.407104 248.0
91.626076 168.0
91.816315 160.0
91.833862 172.0
91.868195 128.0
91.944527 160.0
92.057594 228.0
92.23867 140.0
92.814957 144.0
92.907021 128.0
93.071686 716.0
93.287277 164.0
93.360344 184.0
93.410347 164.0
93.580399 124.0
93.620148 168.0
93.710686 156.0
93.743446 72.0
93.940117 244.0
94.064095 872.0
94.452034 220.0
94.5112 168.0
94.599098 192.0
94.66687 36.0
94.736603 100.0
94.845123 208.0
94.944008 156.0
95.039062 128.0
95.070984 872.0
95.124458 108.0
95.31868 112.0
95.587036 176.0
95.620125 120.0
95.633743 188.0
95.680466 56.0
95.723305 128.0
95.773941 208.0
96.044693 852.0
96.080765 504.0
96.158058 60.0
96.197098 56.0
96.384598 256.0
96.482323 160.0
96.528175 152.0
96.644661 180.0
96.679886 168.0
96.769936 72.0
96.803223 128.0
96.836517 176.0
97.051277 3148.0
97.086418 148.0
97.152115 68.0
97.582237 64.0
97.84391 132.0
97.879356 184.0
97.985451 240.0
98.059883 2900.0
98.299232 112.0
98.386086 140.0
98.55397 52.0
98.693504 176.0
98.862457 100.0
98.896103 168.0
98.935692 136.0
98.977272 192.0
99.060455 124.0
99.125839 164.0
99.187286 184.0
99.435226 60.0
99.484848 224.0
100.07534 152.0
100.186874 92.0
100.220749 144.0
100.633636 144.0
100.649612 112.0
100.793434 132.0
100.987358 172.0
101.067383 176.0
101.181473 36.0
101.367752 140.0
101.646492 160.0
101.730797 208.0
101.74485 144.0
102.047432 548.0
102.275566 208.0
102.436661 200.0
102.666191 96.0
102.716866 168.0
102.763268 256.0
102.817749 160.0
102.918686 120.0
102.94696 172.0
102.961319 72.0
103.018394 240.0
103.054581 28344.0
103.084381 288.0
103.10733 116.0
103.132835 60.0
103.171249 128.0
103.197533 48.0
103.225838 124.0
103.262245 72.0
103.296631 44.0
103.314835 40.0
103.37516 64.0
103.444359 56.0
103.531784 180.0
103.548401 84.0
103.573959 72.0
103.602318 76.0
103.624603 68.0
103.729988 104.0
103.766479 84.0
103.790817 104.0
103.865852 68.0
103.967308 56.0
104.057602 3340.0
104.085045 156.0
104.11348 244.0
104.15657 112.0
104.363434 60.0
104.414268 64.0
104.471222 156.0
104.544479 104.0
104.57399 80.0
104.697166 88.0
104.735863 60.0
104.75827 80.0
104.774574 140.0
104.79393 128.0
104.860153 80.0
104.890732 124.0
104.992683 200.0
105.057289 184.0
105.345802 124.0
105.380539 104.0
105.754784 76.0
105.85305 144.0
105.896057 160.0
106.06633 368.0
106.256851 152.0
106.277374 124.0
106.326622 88.0
106.62854 84.0
106.94117 152.0
107.0485 740.0
107.069832 312.0
107.171829 76.0
107.248077 92.0
107.334671 144.0
107.45018 84.0
107.571938 124.0
107.722694 32.0
107.828072 180.0
107.968666 124.0
108.043022 304.0
108.081314 1212.0
108.11969 168.0
108.237694 148.0
108.44487 52.0
108.567192 164.0
109.083023 476.0
109.181931 40.0
109.383766 132.0
109.721252 224.0
109.763374 112.0
109.881851 120.0
110.002892 168.0
110.027946 48.0
110.059418 2396.0
110.095787 6208.0
110.215927 192.0
110.263992 140.0
110.29744 56.0
110.349701 48.0
110.431259 132.0
110.498207 172.0
110.581909 64.0
110.734756 188.0
110.789215 84.0
111.013496 148.0
111.062538 184.0
111.099182 492.0
111.168739 36.0
111.183434 28.0
111.34436 92.0
111.508972 204.0
111.666664 120.0
111.778168 76.0
111.792892 168.0
111.87709 196.0
111.900253 168.0
112.077225 188.0
112.275345 64.0
112.290108 80.0
112.342842 88.0
112.591919 180.0
112.701767 80.0
112.830696 120.0
112.995667 160.0
113.084549 76.0
113.684334 60.0
114.054527 504.0
114.207001 188.0
115.06002 184.0
115.814308 216.0
115.99955 312.0
116.047897 156.0
116.0672 156.0
117.780365 64.0
117.881912 52.0
118.035393 384.0
118.063507 288.0
119.07106 204.0
119.201653 156.0
119.319023 88.0
119.477791 136.0
119.57354 120.0
119.701988 168.0
119.989609 196.0
120.080727 1836.0
120.105186 136.0
120.262299 28.0
120.819427 160.0
120.911446 200.0
121.014328 136.0
121.064384 9116.0
121.158882 208.0
121.19175 64.0
121.535416 180.0
121.593063 192.0
121.773102 88.0
122.034615 60.0
122.06678 988.0
122.096184 124.0
122.269997 120.0
122.851715 52.0
122.915703 84.0
122.957634 96.0
122.990746 136.0
123.067078 832.0
123.12764 160.0
123.151932 36.0
123.299965 208.0
123.375122 228.0
124.070297 140.0
124.105766 120.0
124.354233 92.0
124.46302 148.0
124.825226 124.0
125.063286 188.0
125.56015 184.0
126.037888 168.0
126.053528 72.0
126.072929 176.0
126.265915 108.0
126.870506 236.0
127.088066 52.0
127.602417 180.0
127.874619 188.0
127.901627 52.0
128.117813 164.0
128.144852 128.0
128.176392 136.0
128.91658 48.0
129.061569 172.0
129.138153 196.0
129.167557 144.0
129.312363 148.0
129.366699 180.0
130.021912 64.0
130.808243 168.0
130.852585 208.0
131.040543 144.0
131.063324 128.0
131.887207 160.0
132.450104 156.0
132.917816 64.0
133.076202 212.0
133.184143 120.0
133.26915 192.0
133.719879 188.0
134.55899 168.0
134.600555 180.0
135.391449 100.0
135.648651 72.0
135.875916 104.0
136.083572 300.0
136.138214 188.0
136.156799 92.0
136.233459 160.0
136.901016 124.0
137.012817 176.0
137.087387 172.0
137.362518 236.0
137.465179 108.0
137.843491 160.0
137.906586 120.0
137.9814 152.0
138.035172 188.0
138.091156 31748.0
138.180374 52.0
138.308914 56.0
138.404892 92.0
138.498581 44.0
138.540741 52.0
138.73761 188.0
138.775116 56.0
138.973007 120.0
139.030807 60.0
139.092697 2216.0
139.178711 116.0
139.40892 68.0
139.794601 28.0
139.912292 120.0
139.975861 132.0
140.098465 220.0
140.123169 112.0
140.152527 104.0
140.216156 60.0
140.30809 92.0
140.36232 64.0
140.381195 64.0
140.407135 44.0
141.503601 188.0
141.768906 56.0
142.214783 152.0
142.452255 88.0
142.799301 108.0
142.915863 152.0
143.018204 140.0
144.218002 120.0
144.974319 188.0
145.374817 36.0
146.305038 60.0
146.610947 144.0
146.880997 56.0
147.753448 116.0
148.048416 92.0
150.123856 76.0
151.110718 208.0
152.167084 224.0
152.705261 108.0
152.966095 164.0
153.09906 108.0
153.505676 164.0
153.902969 164.0
154.090866 224.0
154.446686 56.0
154.756027 332.0
154.944275 144.0
154.978958 60.0
155.070648 140.0
155.316132 116.0
155.904572 132.0
156.101593 10888.0
156.188019 72.0
156.230118 52.0
156.264053 156.0
156.317383 56.0
156.387558 164.0
156.44931 32.0
156.581284 40.0
156.885284 48.0
156.9758 212.0
157.105682 800.0
157.139679 184.0
157.729065 52.0
157.901596 124.0
158.10495 312.0
158.205933 148.0
158.241928 44.0
158.482376 104.0
158.697937 72.0
159.521439 88.0
161.014816 268.0
163.958725 136.0
165.064133 176.0
166.666245 72.0
168.36647 60.0
170.470108 200.0
171.007523 324.0
174.753403 116.0
174.987656 176.0
176.148056 152.0
178.642624 116.0
178.951355 140.0
180.892288 96.0
182.725296 108.0
189.001465 156.0
189.020615 168.0
189.749222 232.0
192.354523 76.0
193.748337 196.0
194.089264 88.0
194.499863 112.0
201.631393 108.0
214.346191 52.0
219.28447 152.0
221.382111 48.0
223.094193 176.0
226.672943 76.0
227.891205 168.0
228.126083 160.0
228.149689 192.0
232.599609 236.0
239.871124 180.0
244.996948 112.0
248.674377 48.0
250.844818 44.0
261.925385 120.0
263.900513 108.0
274.140533 204.0
274.477356 48.0
274.566376 48.0
275.24292 128.0
276.651398 40.0
284.267792 68.0
284.308044 160.0
285.147705 108.0
285.204834 152.0
292.937256 64.0
298.774353 120.0
299.328491 104.0
300.717865 136.0
300.893921 80.0
304.075226 148.0
304.149872 2764.0
304.241852 76.0
304.273071 48.0
304.335571 60.0
304.669006 112.0
305.159515 832.0
305.291199 40.0
306.164246 140.0
306.314514 60.0
307.343018 120.0
307.845703 48.0
313.212006 92.0
313.29303 76.0
316.684235 28.0
320.050964 72.0
328.408569 76.0
332.384613 80.0
355.542023 100.0
395.853851 48.0
399.62088 88.0
490.957092 64.0
545.268555 48.0
584.002747 72.0
606.098206 88.0
624.817017 36.0
702.570557 84.0
710.883179 172.0
720.96991 172.0
723.601746 140.0
754.021057 76.0
763.516968 152.0
764.30365 172.0
791.280396 184.0
820.668213 196.0
822.488098 144.0
833.306335 176.0
835.703979 212.0
839.338684 180.0
839.707764 108.0
843.877197 212.0
844.033325 56.0
848.114929 220.0
850.957581 140.0
878.666077 132.0
879.409668 160.0
887.95343 196.0
890.089905 212.0
890.535339 112.0
893.525513 144.0
915.981995 140.0
924.344177 184.0
931.717285 152.0
933.175964 200.0
945.146423 220.0
946.790283 160.0
950.713928 140.0
956.349976 88.0
958.222107 64.0
962.34845 152.0
972.395813 172.0
979.963989 80.0
980.094849 160.0
985.361084 128.0
993.738525 116.0
994.730103 156.0
997.714172 224.0
1003.368652 168.0
1003.98584 200.0
1007.76709 120.0
1008.822571 132.0
1009.151367 180.0
1012.422913 180.0
1015.852051 128.0
1019.509399 108.0
1025.039551 208.0
1025.116089 168.0
1027.462524 180.0
1028.968872 140.0
1029.224243 152.0
1030.143921 120.0
1030.310059 120.0
1030.476196 40.0
1036.785645 116.0
1037.266357 140.0
1040.917114 128.0
1041.109741 216.0
1041.681396 180.0
1041.880615 200.0
1042.246826 120.0
1046.047852 160.0
1046.215332 168.0
1048.392456 132.0
1050.171875 128.0
1051.210693 76.0
1051.481689 52.0
1052.785889 148.0
1053.554565 204.0
1054.905151 208.0
1056.159668 224.0
1056.780762 160.0
1059.11145 152.0
1059.966553 40.0
1060.647095 160.0
1060.984253 260.0
1061.78833 172.0
1064.910278 140.0
1065.053101 212.0
1065.248047 184.0
1065.71582 176.0
1066.177124 84.0
1066.294189 64.0
1066.495605 224.0
1069.116821 100.0
1072.314575 180.0
1072.549316 216.0
1072.979492 132.0
1073.083862 184.0
1076.875366 128.0
1082.912476 184.0
1086.911621 184.0
1089.741699 140.0
1089.813965 216.0
1090.405396 188.0
1090.793213 196.0
1099.646118 244.0
1101.336548 284.0
1101.389282 132.0
1101.73291 152.0
1103.669434 192.0
1105.852539 240.0
1108.196899 160.0
1110.769287 208.0
1112.00354 116.0
1113.231689 172.0
1117.632324 60.0
1120.435547 112.0
1121.935059 148.0
1124.062744 124.0
1124.122803 148.0
1124.489868 168.0
1124.963867 168.0
1125.237549 232.0
1129.240479 208.0
1130.297485 204.0
1130.36438 80.0
1132.86853 140.0
1134.168579 176.0
1138.288086 212.0
1138.805176 160.0
1139.080566 196.0
1139.866699 208.0
1140.068237 144.0
1142.4823 128.0
1144.083984 156.0
1146.340454 220.0
1155.138184 100.0
1158.746582 80.0
1159.403931 168.0
1162.930786 192.0
1163.433105 252.0
1164.825317 200.0
1167.911377 132.0
1168.49646 236.0
1168.972778 148.0
1174.075439 272.0
1174.791626 160.0
1175.330688 180.0
1176.156494 248.0
1177.194214 180.0
1178.293945 112.0
1179.544678 168.0
1181.185791 188.0
1181.397827 232.0
1187.199585 144.0
1187.707031 164.0
1189.362671 220.0
1189.64917 168.0
1191.633911 148.0
1192.630493 52.0
1193.998657 116.0
1194.143188 176.0
1196.345093 172.0
1198.866211 60.0
1198.914429 76.0
1199.817383 172.0
1200.196655 236.0
1201.231201 232.0
1201.465698 208.0
1201.665771 128.0
1201.714111 136.0
1202.763062 192.0
1202.915039 144.0
1206.023438 156.0
1207.454712 184.0
1209.115234 188.0
1211.206299 116.0
1212.598999 128.0
1212.709839 112.0
1213.694336 176.0
1216.427979 120.0
1216.670898 132.0
1216.969482 176.0
1217.06665 188.0
1217.587524 136.0
1221.897339 112.0
1224.556641 220.0
1224.911865 216.0
1225.169678 172.0
1226.751587 148.0
1228.057251 180.0
1228.488037 68.0
1228.829956 192.0
1230.805298 188.0
1233.14563 168.0
1234.472534 236.0
1235.152466 204.0
1236.99292 140.0
1238.015137 152.0
1239.332153 160.0
1240.796997 196.0
1242.080444 92.0
1242.746826 188.0
1245.133667 152.0
1245.84314 144.0
1246.897217 140.0
1247.023682 172.0
1248.563477 208.0
1249.02063 204.0
1249.126221 160.0
1249.421631 164.0
1249.745239 112.0
1250.040894 160.0
1250.906616 92.0
1250.998047 172.0
1252.033203 180.0
1254.175049 136.0
1254.379517 164.0
1255.796875 112.0
1255.987305 196.0
1256.276489 188.0
1256.354126 116.0
1258.012573 156.0
1261.212646 176.0
1261.325684 192.0
1262.259033 152.0
1262.492432 180.0
1263.779785 92.0
1266.845459 180.0
1267.837524 168.0
1270.624268 52.0
1271.596436 140.0
1272.611694 232.0
1272.696899 164.0
1274.103149 60.0
1274.174194 120.0
1280.541016 184.0
1280.669189 104.0
1281.060913 44.0
1281.466309 188.0
1285.353149 220.0
1286.045532 120.0
1286.238159 240.0
1286.44519 208.0
1286.687988 132.0
1288.609253 204.0
1290.102905 172.0
1290.918091 192.0
1291.418701 128.0
1292.033936 216.0
1292.105469 168.0
1294.016479 224.0
1294.16687 68.0
1295.069214 156.0
1297.512939 160.0
1297.928711 148.0
1298.129517 220.0
1298.359009 460.0
1298.430786 44.0
1300.001953 208.0
1300.324829 160.0
1300.734009 88.0
1304.97998 152.0
1305.497681 116.0
1308.440796 64.0
1309.059937 236.0
1309.938721 168.0
1311.055542 140.0
1311.480835 172.0
1313.622437 164.0
1313.846069 164.0
1313.983154 140.0
1314.084229 244.0
1314.271851 120.0
1314.675903 120.0
1314.755249 292.0
1318.958984 136.0
1319.016846 144.0
1319.3927 152.0
1321.9823 164.0
1322.257324 200.0
1327.052979 80.0
1327.219727 192.0
1327.546021 152.0
1330.818726 196.0
1330.876831 140.0
1331.922607 136.0
1333.775635 124.0
1334.262695 172.0
1335.397095 180.0
1335.658936 92.0
1338.075073 92.0
1340.209229 152.0
1341.36084 160.0
1341.805542 256.0
1342.294067 168.0
1343.307861 100.0
1344.234497 164.0
1345.176025 160.0
1345.949951 140.0
1346.190918 172.0
1346.293213 68.0
1349.040527 52.0
1350.005737 148.0
1350.371338 180.0
1350.495728 40.0
1353.467041 212.0
1353.598877 52.0
1353.675415 204.0
1354.411865 184.0
1356.448975 164.0
1358.047485 216.0
1358.128174 192.0
1358.38501 240.0
1361.240112 92.0
1361.423706 68.0
1362.532837 108.0
1362.863525 132.0
1363.480835 232.0
1364.421753 172.0
1365.590942 144.0
1366.628296 116.0
1367.312622 252.0
1367.504028 80.0
1368.122314 92.0
1372.29248 252.0
1372.425171 124.0
1373.568359 36.0
1374.46106 144.0
1375.723145 176.0
1376.882446 184.0
1379.771729 172.0
1380.459473 172.0
1383.004517 128.0
1383.81897 120.0
1384.181763 260.0
1385.359375 92.0
1386.619141 184.0
1387.278809 176.0
1388.428101 156.0
1388.83606 168.0
1389.259888 260.0
1389.459229 128.0
1390.268066 148.0
1391.693359 204.0
1392.92627 152.0
1393.208496 68.0
1393.996094 60.0
1394.092773 220.0
1395.542236 140.0
1396.397461 124.0
1397.014893 180.0
1398.220337 156.0
1398.666992 140.0
1399.500732 152.0
1400.215698 164.0
1401.072266 120.0
1402.190063 176.0
1403.405273 184.0
1403.994385 212.0
1404.225586 184.0
1405.001343 164.0
1405.187866 240.0
1407.285278 124.0
1409.137573 80.0
1411.978271 176.0
1412.91333 152.0
1413.018066 164.0
1413.811279 172.0
1413.938477 116.0
1415.907471 168.0
1416.252075 212.0
1416.843872 128.0
1418.859985 144.0
1419.684814 96.0
1419.819824 276.0
1420.082275 72.0
1420.547363 204.0
1420.674927 152.0
1422.701172 152.0
1422.918945 168.0
1423.729858 160.0
1423.835083 136.0
1424.135498 212.0
1424.233154 164.0
1424.856689 136.0
1424.991943 164.0
1425.856079 172.0
1427.006226 168.0
1427.547607 192.0
1427.825928 236.0
1428.615723 164.0
1429.22522 128.0
1429.481079 220.0
1435.115601 144.0
1435.221069 48.0
1436.390137 164.0
1436.744629 196.0
1437.242676 104.0
1437.846436 160.0
1438.269043 132.0
1439.68396 216.0
1439.847168 136.0
1440.292725 156.0
1440.474121 168.0
1440.79895 172.0
1441.426025 212.0
1442.476685 148.0
1446.130249 180.0
1446.591919 172.0
1447.031006 136.0
1447.25061 168.0
1448.235107 208.0
1452.43457 240.0
1452.533081 148.0
1453.208374 160.0
1454.088623 152.0
1454.23291 104.0
1454.76416 160.0
1455.971558 228.0
1456.396851 180.0
1459.041504 144.0
1459.383545 204.0
1459.824585 132.0
1460.235352 44.0
1461.399292 136.0
1461.901489 56.0
1462.137451 160.0
1464.482544 188.0
1465.556641 96.0
1468.255371 168.0
1469.582642 160.0
1469.74231 224.0
1470.223633 192.0
1471.307617 260.0
1472.674561 160.0
1473.904541 48.0
1474.72998 128.0
1475.563232 124.0
1476.09082 144.0
1477.743042 52.0
1478.041016 228.0
1480.697876 192.0
1481.088501 176.0
1481.25708 72.0
1481.884888 240.0
1482.053833 176.0
1482.153442 232.0
1484.276855 144.0
1484.606567 176.0
1484.813721 156.0
1485.749512 168.0
1489.157837 176.0
1489.265381 56.0
1489.979858 172.0
1490.064331 72.0
1490.648315 160.0
1492.070312 120.0
1492.846924 108.0
1493.32373 176.0
1493.416138 156.0
1493.593018 164.0
1493.654541 164.0
1495.3396 136.0
1495.547485 172.0
1495.786133 224.0
1496.748535 40.0
1496.925659 164.0
1498.481567 152.0
1498.774414 232.0
1502.27478 196.0
1502.922852 164.0
1503.455322 152.0
1503.926147 144.0
1504.721313 188.0
