>compound MLS001048949-01!4-[(E)-6,7-dihydroxy-3,7-dimethyloct-2-enoxy]-1H-quinolin-2-one
>formula C19H25NO4
>ionization [M+H]+
>parentmass 332.186
#inchi InChI=1S/C19H25NO4/c1-13(8-9-17(21)19(2,3)23)10-11-24-16-12-18(22)20-15-7-5-4-6-14(15)16/h4-7,10,12,17,21,23H,8-9,11H2,1-3H3,(H,20,22)/b13-10+
#inchikey PBWIOAMUZKICDN
#Ion_Source LC-ESI
#Instrument qTof
#Compound_Source NIH Natural Product Library
#PI Dorrestein
#Data_Collector VVP/LMS
#Scan -1
#Precursor_MZ 332.186
#ExactMass 331.178
#Charge 1
#CAS_Number N/A
#Pubmed_ID N/A
#Smiles C/C(=C\COc1cc(O)nc2ccccc12)/CCC(O)C(C)(C)O
#INCHI_AUX N/A
#Library_Class 1
#SpectrumID CCMSLIB00000079426
#IonMode Positive
#UpdateWorkflowName UPDATE-SINGLE-ANNOTATED-GOLD
#LibraryQualityString Gold
#TaskID b1d8e8f6646f4e71acdff9ca3d919d08
##Scan# 1802
#SpectrumFile p1-B06_GB6_01_17890.mzXML
#LibraryName NIH_Natural_Products_Library.mgf
#MQScore -1
#Organism NIH_Natural_Products_Library
#TIC_Query 0
#RT_Query -1
#MZErrorPPM -1
#SharedPeaks 0
#MassDiff 0
#LibMZ -1
#SpecMZ 332.186
#SpecCharge 0
#internalFilename spec-00000.mgf

>collision 10
94.972343 52.0
95.014763 212.0
95.06855 156.0
95.127579 172.0
95.597923 36.0
95.627113 160.0
95.656311 144.0
95.671883 156.0
95.730293 88.0
95.814049 164.0
95.880295 180.0
95.946571 188.0
96.003113 76.0
96.046021 104.0
96.098442 156.0
96.168945 136.0
96.202126 124.0
96.334915 76.0
96.420883 48.0
96.522537 152.0
96.567513 168.0
96.686859 132.0
96.765152 156.0
96.943398 232.0
97.038475 148.0
97.106117 176.0
97.339882 164.0
97.369102 248.0
97.428032 148.0
97.62458 196.0
97.689484 180.0
97.732765 172.0
97.830551 64.0
97.892204 124.0
97.94735 176.0
98.028122 220.0
98.093163 180.0
98.114853 124.0
98.166115 184.0
98.19767 160.0
98.385117 144.0
98.420654 184.0
98.517433 128.0
98.634018 132.0
98.788254 140.0
98.804085 164.0
99.031723 232.0
99.190231 108.0
99.368713 196.0
99.467934 132.0
99.487785 236.0
99.72049 212.0
99.751991 192.0
99.901131 44.0
99.984695 164.0
100.020523 184.0
100.379128 164.0
100.478859 128.0
100.62455 248.0
100.666481 172.0
100.704567 224.0
100.968239 68.0
100.986237 184.0
101.040245 168.0
101.056252 92.0
101.266441 48.0
101.384636 156.0
101.428734 40.0
101.656319 172.0
101.870186 144.0
101.904343 260.0
102.026932 188.0
102.109375 156.0
102.17173 188.0
102.536186 176.0
102.582542 128.0
102.687393 44.0
102.751945 176.0
102.915421 56.0
102.973984 176.0
103.057167 212.0
103.115074 268.0
103.281197 140.0
103.356049 56.0
103.404617 180.0
103.44915 48.0
103.761124 200.0
103.852379 136.0
104.012672 124.0
104.028908 164.0
104.043121 188.0
104.307205 120.0
104.383324 208.0
104.451576 108.0
104.495392 212.0
104.514641 228.0
104.565514 236.0
104.785431 192.0
104.858788 224.0
105.107574 160.0
105.170837 364.0
105.285172 72.0
105.321938 164.0
105.387306 172.0
105.411827 172.0
105.556961 180.0
105.571274 156.0
105.591721 136.0
105.849571 248.0
105.960175 164.0
106.085182 200.0
106.117981 104.0
106.183189 284.0
106.228729 240.0
106.315804 200.0
106.364342 132.0
106.401108 212.0
106.448334 148.0
106.472977 208.0
106.645554 76.0
106.668159 176.0
106.741333 88.0
106.789474 108.0
106.923203 152.0
107.034363 148.0
107.086182 1000.0
107.211517 88.0
107.269234 84.0
107.355827 232.0
107.510544 224.0
107.657112 140.0
107.768654 156.0
107.809982 160.0
107.855453 196.0
108.008461 104.0
108.089218 220.0
108.455704 168.0
108.56559 48.0
108.729477 116.0
108.746078 108.0
109.076332 164.0
109.099655 292.0
109.140778 268.0
109.240608 132.0
109.288452 188.0
109.440392 168.0
109.502869 348.0
109.657043 132.0
109.721657 204.0
109.898933 144.0
110.007462 112.0
110.055473 104.0
110.182877 152.0
110.260193 172.0
110.416985 212.0
110.495354 120.0
110.523674 72.0
110.614952 32.0
110.652 216.0
110.691124 260.0
110.705788 196.0
110.871277 164.0
111.01593 284.0
111.076752 148.0
111.190048 228.0
111.208939 152.0
111.418922 112.0
111.477753 152.0
111.877373 236.0
111.932114 88.0
111.959496 128.0
112.026894 140.0
112.163864 76.0
112.231323 160.0
112.311455 192.0
112.366302 160.0
112.507706 192.0
112.89225 168.0
112.943001 104.0
113.008583 156.0
113.059364 72.0
113.093231 144.0
113.209671 104.0
113.268974 228.0
113.355835 148.0
113.474533 208.0
113.597534 148.0
113.729088 180.0
113.774811 364.0
113.80127 108.0
113.818253 200.0
113.847984 208.0
113.964813 212.0
114.077446 164.0
114.098709 144.0
114.166748 176.0
114.249695 180.0
114.485229 176.0
114.503914 204.0
114.588196 152.0
114.607376 28.0
114.6436 152.0
114.689262 216.0
114.833336 196.0
114.901596 216.0
114.940002 120.0
115.139427 200.0
115.20047 136.0
115.226105 156.0
115.446259 160.0
115.504005 176.0
115.581024 124.0
115.636665 176.0
115.68161 200.0
115.919975 164.0
115.979355 176.0
116.005074 148.0
116.049843 6600.0
116.123009 40.0
116.144455 48.0
116.15947 84.0
116.182068 120.0
116.245285 168.0
116.317291 80.0
116.366791 92.0
116.384811 144.0
116.479301 88.0
116.540283 32.0
116.631866 180.0
116.775917 140.0
116.851204 200.0
117.051445 308.0
117.073746 176.0
117.133217 80.0
117.184921 104.0
117.754402 152.0
117.821358 60.0
117.899147 128.0
117.93589 180.0
118.015869 188.0
118.031006 208.0
118.058784 128.0
118.130493 212.0
118.247337 152.0
118.323097 176.0
118.368561 152.0
118.767174 144.0
118.80854 108.0
118.836746 140.0
118.923546 200.0
119.084061 176.0
119.473297 112.0
119.516815 188.0
119.590805 192.0
119.622383 112.0
119.732315 164.0
119.793304 120.0
119.821625 176.0
119.852318 224.0
119.928398 168.0
119.978539 168.0
120.04567 5168.0
120.105011 136.0
120.18573 44.0
120.231552 228.0
120.375633 84.0
120.644371 80.0
120.863075 52.0
120.965935 68.0
121.049271 352.0
121.292313 168.0
121.551102 124.0
121.586212 76.0
121.619133 140.0
121.667427 112.0
121.783806 216.0
121.801384 32.0
121.970573 152.0
122.054413 176.0
122.117889 240.0
122.234482 140.0
122.377556 148.0
122.4282 172.0
122.703629 148.0
122.736694 40.0
122.851379 248.0
122.935226 200.0
122.959496 196.0
123.034546 188.0
123.299606 160.0
123.323914 132.0
123.381386 152.0
123.449577 124.0
123.640182 104.0
123.890381 132.0
123.910324 200.0
123.934692 84.0
123.965652 136.0
124.049934 200.0
124.566971 184.0
124.637741 140.0
124.849495 176.0
124.900391 176.0
124.924858 196.0
125.082855 192.0
125.104164 152.0
125.158546 172.0
125.180809 188.0
125.332283 48.0
125.361244 136.0
125.428108 188.0
125.657799 208.0
125.836349 104.0
125.977043 136.0
126.43988 208.0
126.500313 72.0
126.562996 152.0
126.686646 172.0
126.732422 224.0
126.78476 184.0
126.822861 96.0
126.838554 104.0
126.99102 160.0
127.296227 100.0
127.323174 208.0
127.457962 84.0
127.563591 188.0
127.583817 168.0
127.653519 180.0
127.765976 172.0
127.896492 144.0
127.964027 184.0
128.029327 124.0
128.065369 184.0
128.225327 172.0
128.41185 164.0
128.61911 168.0
128.712585 112.0
128.834549 132.0
129.148758 148.0
129.551666 36.0
129.841385 156.0
129.914383 168.0
130.057327 44.0
130.089111 216.0
130.263962 40.0
130.298035 216.0
130.379837 152.0
130.46167 200.0
130.573074 132.0
130.598099 96.0
130.695923 148.0
130.798325 108.0
130.893951 140.0
130.955429 140.0
131.055664 116.0
131.071625 164.0
131.299255 204.0
131.331512 192.0
131.413635 248.0
131.509476 112.0
131.539139 112.0
131.709534 272.0
131.961777 192.0
132.009796 164.0
132.050964 36.0
132.140167 140.0
132.506485 164.0
132.538559 144.0
132.554596 136.0
132.577515 132.0
132.759094 172.0
132.788422 176.0
132.884766 156.0
132.907715 92.0
133.010025 228.0
133.038528 160.0
133.0569 172.0
133.139557 156.0
133.215454 192.0
133.346329 48.0
133.461761 168.0
133.608459 212.0
133.63147 96.0
133.739624 168.0
133.831696 80.0
133.900787 132.0
134.060883 188.0
134.112747 220.0
134.158859 184.0
134.244156 124.0
134.304123 212.0
134.431015 156.0
134.465622 160.0
134.608749 144.0
134.661865 148.0
134.71962 172.0
134.835144 180.0
134.883682 96.0
135.062622 164.0
135.117416 1664.0
135.229111 188.0
135.263031 176.0
135.288498 116.0
135.304703 136.0
135.362595 56.0
135.427429 168.0
135.589615 136.0
135.608154 140.0
135.633652 208.0
135.67305 60.0
135.705505 148.0
135.826096 100.0
135.858582 168.0
136.00708 168.0
136.065125 176.0
136.120773 136.0
136.171936 92.0
136.262527 76.0
136.499603 140.0
136.682541 228.0
136.701981 120.0
137.052307 92.0
137.090866 100.0
137.130493 348.0
137.186371 176.0
137.305344 184.0
137.368317 220.0
137.519989 76.0
137.578339 172.0
137.604019 192.0
137.650711 164.0
137.765167 184.0
138.092407 48.0
138.277237 112.0
138.307663 232.0
138.41301 128.0
139.067062 148.0
139.116364 108.0
139.144531 52.0
139.163315 84.0
139.214966 108.0
139.259598 104.0
139.384094 136.0
139.595657 140.0
139.757965 152.0
139.779129 64.0
139.90387 224.0
140.016891 240.0
140.052231 216.0
140.127609 36.0
140.177094 132.0
140.41098 184.0
140.523697 128.0
140.587402 140.0
140.729034 112.0
140.755005 124.0
140.849472 160.0
140.875458 96.0
141.019592 84.0
141.055038 112.0
141.097595 156.0
141.237106 124.0
141.350662 192.0
141.3909 144.0
141.587387 192.0
141.74884 132.0
141.981476 196.0
142.073303 224.0
142.294006 164.0
142.315369 120.0
142.564789 176.0
142.6147 200.0
142.645599 196.0
142.671753 160.0
142.707413 48.0
143.109497 144.0
143.1595 120.0
143.30957 176.0
143.438263 160.0
143.504913 192.0
143.633789 196.0
143.788879 52.0
143.828751 368.0
143.898682 108.0
143.929718 216.0
143.945114 156.0
143.984955 152.0
144.007019 156.0
144.045288 33020.0
144.088654 124.0
144.126923 72.0
144.178146 60.0
144.208435 132.0
144.279694 148.0
144.324738 112.0
144.343094 124.0
144.365845 60.0
144.410049 68.0
144.435608 60.0
144.457169 240.0
144.553009 232.0
144.606247 76.0
144.640747 124.0
144.728333 172.0
144.749878 36.0
144.785797 132.0
144.835144 152.0
144.860046 208.0
144.958282 204.0
144.979218 168.0
145.049698 3072.0
145.100571 76.0
145.133484 84.0
145.164429 48.0
145.190811 100.0
145.284348 72.0
145.430725 68.0
145.531555 144.0
145.697266 188.0
145.841446 48.0
145.911148 40.0
146.049011 548.0
146.076019 108.0
146.130005 180.0
146.176727 96.0
146.194977 60.0
146.235886 72.0
146.291245 28.0
146.312912 224.0
146.334579 160.0
146.462219 228.0
146.761047 72.0
146.811676 136.0
147.047623 180.0
147.463516 196.0
147.490097 196.0
147.603378 140.0
147.731918 160.0
147.91098 148.0
147.981186 160.0
148.065735 156.0
148.189468 96.0
148.242783 148.0
148.313065 76.0
148.366394 156.0
148.458527 148.0
148.536133 176.0
148.616196 164.0
148.718109 64.0
148.773941 52.0
148.977936 196.0
149.085342 272.0
149.148026 156.0
149.778229 152.0
150.041412 64.0
150.214554 144.0
150.304825 184.0
150.374512 200.0
150.59288 156.0
150.656387 148.0
150.771225 176.0
151.147812 212.0
151.206543 120.0
151.382812 52.0
151.461182 176.0
151.543182 196.0
151.662094 96.0
151.757706 208.0
151.875412 156.0
152.209167 156.0
152.425339 156.0
152.508896 204.0
152.558044 176.0
152.673615 40.0
152.764618 100.0
152.833496 228.0
153.129761 820.0
153.168304 100.0
153.188644 220.0
153.211639 136.0
153.25946 140.0
153.281631 192.0
153.387619 144.0
153.964951 180.0
154.127991 144.0
154.221893 140.0
154.320786 144.0
154.338089 212.0
154.392487 128.0
154.427109 172.0
154.729004 48.0
154.756241 132.0
154.778519 144.0
154.837952 44.0
154.904831 188.0
154.941986 40.0
155.078278 44.0
155.222061 124.0
155.254288 92.0
155.306381 200.0
155.326218 112.0
155.465164 176.0
155.658783 140.0
155.686096 128.0
155.8078 136.0
155.857498 200.0
156.193115 168.0
156.220474 144.0
156.407104 152.0
156.439453 100.0
156.778198 120.0
156.86792 140.0
156.960159 240.0
157.01503 148.0
157.217316 184.0
157.346893 180.0
157.421799 152.0
157.846298 148.0
157.93663 164.0
158.094254 140.0
158.382172 116.0
158.545456 204.0
158.700439 64.0
158.722992 168.0
158.773148 188.0
158.848389 140.0
158.978867 148.0
159.02153 172.0
159.049133 180.0
159.25 184.0
159.267578 116.0
159.320328 68.0
159.428375 52.0
159.445969 152.0
159.488159 224.0
159.543991 168.0
159.601822 160.0
159.742661 204.0
160.039627 216.0
160.141602 180.0
160.16806 128.0
160.286469 124.0
160.372147 156.0
160.654556 128.0
160.699966 156.0
160.823624 168.0
160.848862 148.0
160.876633 52.0
161.025665 164.0
161.076126 232.0
161.265625 192.0
161.30571 172.0
161.451263 216.0
161.484467 164.0
161.500763 224.0
161.541916 332.0
161.570984 168.0
161.588165 176.0
161.620407 192.0
161.649994 136.0
161.659073 132.0
161.697662 136.0
161.741928 160.0
161.775589 92.0
161.798706 124.0
161.821747 228.0
161.85054 232.0
161.89595 160.0
161.912323 384.0
161.942474 216.0
162.001663 348.0
162.01825 336.0
162.05632 180264.0
162.111969 216.0
162.159058 140.0
162.198441 148.0
162.218185 160.0
162.224869 96.0
162.236313 424.0
162.290497 336.0
162.296326 204.0
162.338013 92.0
162.357712 208.0
162.401154 156.0
162.421677 116.0
162.449738 128.0
162.472153 1524.0
162.522141 112.0
162.583572 92.0
162.607422 92.0
162.62674 144.0
162.646622 72.0
162.664749 64.0
162.69075 144.0
162.761993 68.0
162.796219 132.0
162.818375 68.0
162.841537 40.0
162.88472 52.0
162.92395 72.0
162.96962 108.0
162.990219 136.0
163.059143 16576.0
163.09639 224.0
163.153839 76.0
163.206619 72.0
163.24826 196.0
163.267868 64.0
163.288849 52.0
163.357513 64.0
163.414017 228.0
163.442856 148.0
163.480515 124.0
163.504944 68.0
163.524597 88.0
163.558533 84.0
163.585022 128.0
163.609451 60.0
163.632568 156.0
163.708557 76.0
163.7444 148.0
163.806244 72.0
163.828461 44.0
163.871765 36.0
163.923996 124.0
163.953308 116.0
163.997864 112.0
164.024445 92.0
164.060272 1320.0
164.132111 156.0
164.144211 72.0
164.155014 168.0
164.185303 76.0
164.211761 96.0
164.241531 136.0
164.260681 144.0
164.288223 216.0
164.319153 300.0
164.350327 52.0
164.396118 244.0
164.458557 76.0
164.482712 112.0
164.560394 104.0
164.598694 96.0
164.71106 88.0
164.755127 120.0
164.780045 172.0
164.821106 56.0
164.9487 48.0
164.969147 92.0
165.017731 84.0
165.045853 48.0
165.065994 228.0
165.155823 64.0
165.196747 152.0
165.224884 96.0
165.283722 48.0
165.309311 76.0
165.357941 100.0
165.421936 112.0
165.447525 68.0
165.485931 48.0
165.526901 88.0
165.621658 48.0
165.639587 32.0
165.666489 80.0
165.726685 48.0
165.777939 112.0
165.816376 72.0
165.924042 52.0
165.949677 72.0
166.126633 140.0
166.229248 64.0
166.40123 60.0
166.511642 80.0
166.53476 64.0
166.586136 48.0
166.98967 32.0
167.06427 176.0
168.761261 36.0
168.781937 104.0
170.035736 88.0
170.162933 52.0
170.659164 128.0
170.807404 52.0
170.955704 32.0
171.763367 80.0
171.818146 80.0
172.126129 96.0
172.254089 40.0
172.392563 108.0
172.575531 44.0
172.596451 44.0
172.920837 60.0
173.491852 92.0
173.615082 48.0
173.822327 56.0
173.85643 200.0
174.055939 296.0
174.116333 128.0
174.263443 196.0
174.629425 88.0
174.897202 136.0
175.063065 184.0
175.128906 76.0
175.904114 68.0
176.258011 144.0
176.630768 72.0
178.94751 28.0
180.420181 112.0
180.998077 72.0
181.357071 96.0
181.678833 88.0
182.059982 212.0
183.785431 84.0
184.393021 56.0
185.109909 80.0
186.089828 180.0
188.073242 172.0
193.812759 112.0
196.083099 236.0
196.638107 124.0
197.02623 108.0
204.237228 92.0
204.518921 40.0
205.020172 140.0
207.334991 52.0
208.951584 212.0
211.094635 196.0
212.212311 148.0
213.830307 84.0
217.067154 52.0
218.012375 136.0
218.471054 64.0
221.011261 100.0
222.552536 156.0
224.710358 84.0
227.079483 32.0
227.100479 80.0
227.205475 92.0
236.019547 120.0
240.239243 76.0
242.025589 48.0
242.112289 140.0
242.896439 80.0
243.166367 88.0
243.53273 48.0
248.295441 72.0
259.973785 92.0
260.985626 92.0
261.123901 164.0
263.531891 88.0
265.240601 48.0
282.898987 48.0
289.447479 84.0
290.392944 44.0
293.733063 68.0
294.665009 84.0
302.049286 64.0
307.26355 80.0
310.6745 160.0
313.931427 108.0
317.694702 76.0
320.499817 88.0
344.739441 80.0
346.919464 52.0
347.999054 108.0
349.459686 108.0
349.697845 64.0
350.997986 100.0
355.490509 64.0
358.118378 64.0
358.604431 76.0
359.709564 64.0
367.49707 88.0
372.120514 152.0
372.287292 92.0
376.734222 108.0
384.507751 44.0
390.159973 92.0
397.696899 76.0
403.189056 64.0
406.898193 216.0
412.360382 64.0
418.937805 52.0
419.284119 116.0
421.283447 56.0
433.631927 108.0
438.823853 128.0
445.234406 80.0
462.31958 72.0
463.355774 88.0
469.248016 48.0
479.120667 48.0
480.110107 80.0
483.740906 76.0
484.502869 88.0
497.854523 52.0
514.971985 160.0
515.121094 64.0
525.125061 52.0
529.966064 52.0
540.727844 88.0
554.813721 160.0
556.037964 32.0
560.962524 120.0
574.396484 84.0
593.862854 52.0
608.6203 100.0
635.869873 108.0
644.248535 84.0
668.647705 72.0
671.770142 96.0
696.281067 48.0
733.092041 96.0
736.620544 92.0
736.966309 84.0
752.090515 64.0
754.226196 48.0
772.58728 164.0
776.936035 60.0
799.352417 168.0
800.979492 236.0
807.408081 112.0
807.713501 288.0
812.134705 64.0
837.273621 204.0
849.422791 112.0
857.685486 176.0
866.029114 100.0
872.971863 128.0
874.248413 64.0
874.501465 128.0
876.633362 112.0
877.729736 140.0
891.765991 236.0
897.492737 120.0
902.944763 52.0
904.171204 176.0
932.943176 92.0
932.985779 92.0
955.214661 112.0
960.228333 140.0
963.333008 176.0
964.556519 180.0
972.3172 120.0
988.175781 48.0
993.657776 236.0
994.329163 220.0
999.790405 40.0
1005.575867 200.0
1006.27655 152.0
1011.85907 100.0
1019.979004 196.0
1021.117065 144.0
1027.454956 188.0
1033.185425 160.0
1033.959717 232.0
1035.432129 196.0
1038.239136 156.0
1041.737183 232.0
1042.328247 140.0
1042.662354 136.0
1043.260132 96.0
1044.276123 60.0
1053.926392 120.0
1062.446655 180.0
1066.134644 140.0
1072.199829 136.0
1073.131958 176.0
1083.471191 144.0
1084.677002 184.0
1084.821167 180.0
1087.477661 132.0
1088.042236 120.0
1088.744751 132.0
1091.097046 148.0
1094.459106 184.0
1095.960815 212.0
1097.496582 100.0
1098.175781 184.0
1102.751221 36.0
1110.623657 88.0
1112.149658 180.0
1114.699951 144.0
1117.046753 228.0
1118.237793 156.0
1119.908936 112.0
1120.708374 72.0
1122.741455 188.0
1124.249146 92.0
1125.484009 168.0
1129.413574 36.0
1133.108643 88.0
1133.289551 164.0
1133.403442 84.0
1134.234497 136.0
1137.031372 184.0
1137.615234 184.0
1138.676147 220.0
1141.108643 188.0
1143.079346 148.0
1144.727905 184.0
1144.896973 140.0
1144.971069 104.0
1146.237427 212.0
1146.82373 120.0
1153.438477 68.0
1156.827515 192.0
1160.953613 172.0
1161.740479 192.0
1163.029663 196.0
1164.713623 196.0
1164.890259 200.0
1165.189087 192.0
1166.038452 236.0
1167.500122 236.0
1168.125854 220.0
1169.092041 224.0
1172.585693 52.0
1177.040283 208.0
1178.180786 120.0
1193.33374 156.0
1195.018799 196.0
1196.863403 144.0
1197.317871 56.0
1199.433105 96.0
1201.591553 164.0
1202.80603 92.0
1205.2854 208.0
1205.893433 188.0
1209.130249 228.0
1213.092041 128.0
1214.01416 164.0
1217.032593 240.0
1217.338135 68.0
1219.053955 184.0
1222.141235 216.0
1222.642334 200.0
1223.435791 184.0
1225.3927 176.0
1227.895142 144.0
1230.183838 188.0
1232.474487 176.0
1232.781982 40.0
1234.704468 200.0
1235.3479 116.0
1236.257446 188.0
1237.447388 144.0
1238.504761 204.0
1239.927124 144.0
1240.564941 136.0
1244.360229 100.0
1248.90686 140.0
1249.209351 32.0
1249.92688 72.0
1250.94043 132.0
1252.278198 176.0
1255.181641 48.0
1255.668213 108.0
1256.47229 208.0
1256.571167 148.0
1257.693115 112.0
1261.903442 192.0
1262.497314 104.0
1264.11731 140.0
1264.223511 284.0
1265.221436 156.0
1265.936523 136.0
1266.425171 128.0
1266.793579 84.0
1267.317871 88.0
1267.367432 164.0
1267.990967 208.0
1271.160889 144.0
1273.368774 236.0
1274.292236 172.0
1274.775391 124.0
1279.576416 156.0
1279.775757 136.0
1284.301025 148.0
1287.262695 240.0
1287.376953 84.0
1287.476929 120.0
1288.248291 160.0
1288.641235 60.0
1289.656006 172.0
1289.934692 148.0
1291.801147 144.0
1292.359131 192.0
1293.454102 196.0
1295.509155 132.0
1296.216797 120.0
1296.684326 148.0
1298.053467 116.0
1298.440796 40.0
1299.96167 140.0
1301.433105 180.0
1302.474365 140.0
1302.783325 120.0
1305.183716 184.0
1305.866943 192.0
1306.168945 144.0
1307.694336 128.0
1309.112549 144.0
1311.144165 132.0
1312.174927 148.0
1314.345825 208.0
1317.866943 60.0
1320.985229 92.0
1322.0271 168.0
1322.352783 108.0
1324.054199 212.0
1324.206177 200.0
1331.669312 112.0
1332.046997 200.0
1333.296631 148.0
1335.434082 204.0
1336.146973 212.0
1337.376709 200.0
1338.978516 124.0
1341.864014 164.0
1342.556763 44.0
1342.812012 232.0
1343.234985 108.0
1344.387817 124.0
1344.639893 164.0
1349.281616 196.0
1350.480835 140.0
1352.500244 88.0
1354.799561 108.0
1355.063232 212.0
1355.905884 160.0
1359.822266 172.0
1360.020386 116.0
1360.181885 136.0
1360.438843 116.0
1361.789917 192.0
1363.09021 204.0
1365.324951 68.0
1365.832397 224.0
1367.28186 112.0
1367.473145 140.0
1369.210693 196.0
1370.121826 164.0
1371.09668 216.0
1371.981201 156.0
1372.792236 172.0
1374.267456 144.0
1374.48877 164.0
1375.234131 164.0
1375.677002 176.0
1379.252197 116.0
1379.414795 60.0
1380.412964 140.0
1382.632202 172.0
1383.63147 148.0
1383.823975 176.0
1385.156982 112.0
1386.557251 160.0
1389.189453 148.0
1390.272705 148.0
1390.973511 156.0
1391.445435 224.0
1391.586548 220.0
1391.890991 180.0
1393.324463 164.0
1393.710815 192.0
1394.223511 136.0
1395.30127 188.0
1395.672974 112.0
1396.037354 184.0
1396.424072 164.0
1396.721558 160.0
1397.197632 144.0
1401.307251 184.0
1401.515869 168.0
1401.605347 172.0
1403.222656 168.0
1403.394165 172.0
1403.856445 160.0
1405.258789 116.0
1405.721436 128.0
1410.288818 116.0
1410.994507 172.0
1411.31604 208.0
1411.383301 104.0
1411.899292 120.0
1413.253296 128.0
1413.74707 192.0
1413.84436 272.0
1414.922241 48.0
1416.0979 120.0
1416.457397 196.0
1418.975342 192.0
1420.100098 152.0
1420.160156 144.0
1421.450439 220.0
1421.758179 172.0
1422.050903 96.0
1422.328613 44.0
1426.317139 132.0
1426.911011 136.0
1427.738037 212.0
1428.445068 120.0
1429.618774 132.0
1429.709106 96.0
1429.97998 176.0
1430.446899 116.0
1430.732666 172.0
1430.830566 140.0
1431.169434 132.0
1432.148315 152.0
1432.231201 100.0
1433.738037 140.0
1434.333496 224.0
1434.499268 240.0
1435.848999 136.0
1436.927612 120.0
1436.980469 136.0
1438.157593 168.0
1438.331177 152.0
1438.572754 180.0
1440.823242 160.0
1442.160645 204.0
1442.213623 188.0
1442.772949 168.0
1442.901489 144.0
1442.992188 176.0
1444.028198 144.0
1444.118896 132.0
1446.229858 120.0
1447.244263 180.0
1447.501709 164.0
1448.145386 140.0
1448.516602 144.0
1448.86499 144.0
1450.039551 140.0
1450.259277 172.0
1451.297852 76.0
1452.321655 152.0
1452.875366 192.0
1453.801025 48.0
1454.196899 120.0
1454.704224 232.0
1455.493774 220.0
1457.012817 140.0
1457.210327 56.0
1458.859497 216.0
1459.178833 92.0
1459.460083 220.0
1460.098877 72.0
1460.44104 240.0
1460.737793 168.0
1461.133301 212.0
1461.764771 276.0
1462.366089 148.0
1462.541138 108.0
1462.700928 152.0
1462.982544 168.0
1464.048584 200.0
1464.574097 108.0
1464.764526 152.0
1465.099609 128.0
1465.853882 212.0
1467.050537 208.0
1467.77478 128.0
1468.400146 160.0
1469.384155 240.0
1470.783569 168.0
1472.047974 116.0
1472.139526 152.0
1472.629395 148.0
1473.59082 176.0
1473.78186 72.0
1474.981689 156.0
1476.136108 264.0
1476.640869 40.0
1477.168579 196.0
1477.956543 176.0
1478.025391 188.0
1478.300903 140.0
1478.354492 200.0
1478.951416 128.0
1480.430908 248.0
1480.965088 160.0
1481.478394 120.0
1482.121948 156.0
1482.198486 168.0
1483.455444 176.0
1484.252808 44.0
1485.175781 132.0
1487.605469 160.0
1488.442261 204.0
1489.909302 160.0
1490.262695 148.0
1490.649292 204.0
1491.423096 136.0
1491.669067 168.0
1492.79834 168.0
1493.078857 188.0
1493.26062 100.0
1493.475952 204.0
1493.645142 208.0
1494.068237 132.0
1494.291382 208.0
1494.606812 144.0
1495.561035 180.0
1497.438721 164.0
1499.943848 240.0
1500.167358 112.0
1500.668457 172.0
1500.807251 196.0
1500.946045 152.0
1501.115723 232.0
1501.516724 48.0
1502.210815 160.0
1502.496338 188.0
1502.581177 64.0
1503.517822 184.0
1503.868896 156.0
