>compound Olanzapine
>formula C17H20N4S 
>ionization [M+H]+
>parentmass 313.148682
#inchi InChI=1S/C17H20N4S/c1-12-11-13-16(21-9-7-20(2)8-10-21)18-14-5-3-4-6-15(14)19-17(13)22-12/h3-6,11,18H,7-10H2,1-2H3
#inchikey WXPNDRBBWZMPQG
#Ion_Source LC-ESI
#Instrument qTof
#Compound_Source Isolated
#PI Sirenas
#Data_Collector Ed Esquenazi 
#Scan -1
#Precursor_MZ 313.149
#ExactMass 0.0
#Charge 1
#CAS_Number N/A
#Pubmed_ID N/A
#Smiles N/A
#INCHI_AUX N/A
#Library_Class 3
#SpectrumID CCMSLIB00000004375
#IonMode Positive
#UpdateWorkflowName UPDATE-SINGLE-ANNOTATED-BRONZE
#LibraryQualityString Bronze
#TaskID d19310cd93df49b68e9fcbec27720eb5
##Scan# 2
#SpectrumFile Olanzapine.mgf
#LibraryName fda_library.mgf
#MQScore -1
#Organism fda_library
#TIC_Query 0
#RT_Query -1
#MZErrorPPM -1
#SharedPeaks 0
#MassDiff 0
#LibMZ -1
#SpecMZ 313.149
#SpecCharge 0
#internalFilename spec-00000.mgf

>collision 10
101.107849 123.166702
101.302994 6.834917
101.919815 9.000341
102.308609 4.961538
104.144455 3.506466
104.315948 5.55787
104.66832 8.214711
104.93087 2.1125
106.303429 5.561484
107.058006 44.757462
107.070129 38.488991
109.013969 4.671875
109.076904 53.744579
110.010185 19.66082
112.10125 12.03361
115.715752 11.48098
116.048683 66.14164
118.049698 24.33642
118.064926 24.338329
118.659042 6.006945
119.059532 135.336807
120.081367 67.084862
121.051369 17.500759
121.070549 24.623659
121.207809 7.266447
121.349442 5.180059
124.074524 42.655128
124.097549 7.163915
126.046501 19.84466
126.179268 3.167572
127.036095 18.19841
127.413216 6.104167
128.046783 25.37764
128.064468 46.980659
128.097412 3.175595
130.051239 14.00833
131.056885 20.859671
132.325119 8.592628
133.074234 58.62711
135.295227 9.010715
135.724182 2.334167
136.093582 5.052632
137.107712 16.317181
137.448105 4.662725
140.967102 35.988232
140.994736 22.369249
141.052368 5.694256
141.162384 2.466667
141.846786 2.501225
142.067047 76.401756
142.121582 6.160088
142.990875 73.468277
143.696564 8.870833
145.080276 19.002649
145.94841 14.5638
146.406326 9.987714
148.021667 17.61941
149.811188 8.425287
150.039841 13.92604
151.895752 11.4321
152.049301 4.226852
153.045975 32.36768
154.049362 32.474689
154.064911 28.1875
154.406387 4.34375
155.059204 11.46774
155.068726 18.676041
156.934189 18.539671
157.229172 1.5625
158.068451 15.00298
158.082306 17.44792
159.009583 9.88469
159.088623 12.34732
163.120026 80.977913
163.235306 5.511905
163.413223 2.336539
163.608963 4.372578
164.045898 10.05235
164.130615 32.562241
166.208923 8.000672
167.059341 45.241531
168.165726 5.104167
168.251465 6.335
168.861206 2.334722
169.076248 880.728516
169.277145 12.08848
169.373917 7.729167
169.49025 7.175495
169.693893 4.627604
170.052765 5.691469
170.606155 3.169271
171.009003 17.8125
171.089172 90.035316
171.325531 9.041274
171.361526 40.003361
171.384796 5.197304
171.63028 5.020833
173.01506 81.755463
173.07338 4.829392
174.315613 7.647467
176.13945 3.833333
178.61171 9.561237
179.060425 198.523697
179.158005 4.786859
179.205383 9.134921
180.067749 455.540405
180.107376 10.15014
180.127853 0.833333
180.412796 6.541274
180.44548 10.02898
180.459351 2.017045
180.719254 5.294872
181.64386 5.183435
182.07991 34.360649
184.021347 28.7297
185.184097 4.378788
186.037582 320.641815
186.509995 3.335648
186.69722 7.891304
187.028107 36.655079
188.286407 3.282051
194.071106 15.27938
194.897903 4.360887
195.077454 237.244293
195.184326 5.365079
196.096725 42.74147
196.924362 12.78427
196.96228 5.67647
196.974152 4.815587
197.010849 61.024761
197.025284 9.397136
197.102921 51.695789
197.137497 3.740741
198.024811 1256.597046
198.082108 6.919207
198.098953 36.94294
198.126083 5.960318
198.137939 5.212121
198.170609 6.355978
198.204361 3.500906
198.228851 4.667385
198.278442 11.92819
198.314651 11.67787
198.34137 11.70417
198.352341 7.724824
198.365875 7.365079
198.382874 19.16011
198.446091 5.940104
198.476837 6.314881
198.493423 4.704167
198.527756 7.66449
198.585449 5.371795
198.964371 8.490886
199.116379 6.167046
200.050323 46.98555
201.047897 46.33947
201.256271 6.909275
202.13588 28.267361
203.058533 16.523809
205.080688 5.89797
206.083954 82.036072
207.083267 54.84742
207.313126 8.535088
208.08287 43.792419
208.24968 3.75947
208.346832 9.02558
209.108749 17.440861
210.038223 7.206117
210.113312 6.765731
211.098038 24.000151
211.306412 9.767408
211.6745 8.803572
211.788177 4.360119
211.810837 9.521361
211.962769 4.002315
211.993149 5.461436
212.014313 5.685248
212.040604 392.726593
212.079758 6.083333
212.123825 5.8075
212.180618 5.660017
212.213974 3.547619
212.276901 6.866421
212.37381 12.45605
212.602432 23.60972
212.621704 5.357073
212.88063 6.514493
212.955566 7.082449
213.047516 5705.571777
213.111252 59.346809
213.129288 5.173334
213.157715 15.05827
213.169983 6.287879
213.194794 10.69697
213.230682 9.366667
213.249176 13.25089
213.267975 22.65476
213.293015 11.33823
213.345993 29.026541
213.408707 5.640625
213.429916 42.116951
213.454453 4.352083
213.466583 12.88214
213.495117 6.333686
213.534576 15.46585
213.585388 7.94676
213.629333 13.9094
213.673065 9.706226
213.693436 7.501984
213.794479 14.24286
213.988754 8.118055
214.180695 8.802777
214.453506 3.826993
214.834396 7.866667
214.997284 6.058624
215.062134 631.269287
215.145233 4.677296
215.320419 7.970238
215.379364 4.36397
215.61731 11.28902
215.798889 4.731304
215.849991 2.333333
216.793793 5.926257
217.080719 37.83342
217.192078 8.176879
218.436096 8.043859
218.808563 4.208333
221.053436 9.579166
221.096542 12.25928
222.102295 401.907593
222.220718 5.860119
222.358795 4.083333
222.419922 7.91875
222.504196 6.588644
223.1091 569.47467
223.246796 2.5125
223.288345 3.178571
223.335052 4.503788
223.517136 3.703704
223.579605 3.621408
223.663071 7.969086
223.859833 9.882936
223.922607 8.475236
224.001099 4.333333
224.042374 13.21528
224.438721 4.224856
224.957367 25.16585
225.046219 78.678589
225.273346 4.394608
225.409561 11.48713
226.052902 50.163929
227.061951 421.842712
227.182022 6.3075
227.21994 2.387061
227.303299 2.734722
227.618652 4.054824
227.650146 5.83716
227.749878 3.905357
227.788712 3.12963
228.07132 56.769321
228.091827 8.181818
228.170197 4.475379
228.690018 10.17978
228.845001 14.66774
228.863876 6.162725
228.919708 12.77797
228.974808 5.168982
229.078125 156.300003
229.269989 4.194221
229.46991 7.512603
229.51918 9.407552
229.692307 4.620039
229.714355 7.142857
230.07457 3577.842041
230.138672 20.372629
230.165421 7.344298
230.182053 10.37619
230.309372 18.47308
230.341705 17.877529
230.382355 2.604167
230.410919 24.375469
230.443527 8.428572
230.468597 4.9
230.536331 4.778409
230.552155 9.535088
230.566574 13.82051
230.60347 2.6125
230.65686 8.106667
230.715393 12.94242
230.732346 7.406703
230.783997 4.184627
230.860046 13.33501
230.892502 8.356419
231.598938 4.018518
232.324478 4.731304
232.711731 9.734317
233.096436 33.854172
234.106445 13.8617
234.232132 5.546997
235.858734 3.420259
236.110535 14.2697
237.625137 6.346726
237.932983 8.464286
238.048996 11.37974
238.897812 6.017857
238.975739 2.541667
239.062546 865.075623
239.123703 5.192308
239.220551 5.391026
239.258484 5.480072
239.32048 25.90309
239.543884 6.489805
239.577866 4.09375
239.602722 5.505682
239.802078 5.697601
240.157761 2.201389
240.233185 3.902778
240.42749 6.25
240.528839 2.568056
240.64856 7.119379
240.772003 3.80303
241.072205 173.896301
241.098969 10.42593
241.193954 16.34272
241.480637 4.743056
241.722855 5.030637
242.072678 377.493988
242.140366 3.333867
242.779739 20.50099
243.093613 34.108921
244.089111 57.956902
248.120544 54.921459
249.888458 3.833333
250.160385 4.483552
251.055084 33.792721
251.518936 2.016667
252.087524 2.166667
252.214584 5.029167
252.501877 3.215278
252.706543 3.835227
252.9776 4.041667
253.074127 38.09753
253.211533 9.815705
253.265411 3.176471
253.326324 4.083333
253.459229 5.362319
253.608551 3.715278
253.791992 3.673611
253.819427 6.043403
253.947876 12.75527
254.018921 5.908951
254.074677 328.116913
254.169846 7.14938
254.268494 6.5625
254.407242 13.33333
254.433853 32.454151
254.464127 68.822319
254.483261 10.94929
254.503235 38.624451
254.523788 52.529709
254.560791 170.043106
254.610886 76.362244
254.631348 32.936729
254.651123 97.400414
254.679962 155.419098
254.733582 126.358398
254.749359 72.11953
254.787186 21.470181
254.818405 37.22234
254.833954 25.081671
254.851379 3.802778
254.874756 39.861252
254.89592 57.575661
254.919342 19.14031
254.981094 16.568859
255.006622 102.574898
255.18074 31.22743
255.195679 11.34959
255.215958 28.3428
255.290268 28.95225
255.351791 11.57031
255.409286 19.60091
255.428818 27.399099
255.485596 12.64839
255.802689 14.48214
255.853622 28.41032
255.910828 26.373079
255.952118 63.157631
255.984619 11.14833
256.042938 323.430511
256.090637 90630.898438
256.158081 1.834325
256.273926 6.69422
256.578979 54.85854
256.600739 28.667561
256.624481 53.57407
256.656219 89.813187
256.713043 84.760399
256.760864 24.073339
256.782745 94.960678
256.815643 28.86166
256.83313 96.315033
256.851318 56.713779
256.866791 78.993378
256.898071 12.93417
256.921875 73.455017
256.979858 29.45339
257.018158 15.6544
257.06134 28.266041
257.187988 36.92313
257.225891 10.22899
257.256073 29.26379
257.303009 5.097222
257.317749 50.461449
257.33429 4.893518
257.389832 93.875954
257.434723 2.844363
257.45462 27.99383
257.499481 32.0275
257.518951 31.28554
257.548248 25.12546
257.608093 19.71702
257.675812 3.527778
257.948395 21.58946
258.078461 7.018581
258.147919 10.26224
258.212036 2.760417
258.239288 10.51905
258.275513 35.085911
258.345123 5.94676
258.401306 8.671875
258.638031 9.97405
258.703064 23.03688
258.770508 4.5375
258.901855 6.273359
259.009186 4.129808
259.033844 2.168982
259.235229 7.709393
259.468323 19.564619
259.492889 4.503472
259.529663 6.641905
259.554657 9.433611
259.571533 4.384615
259.600372 13.64681
259.666687 5.683402
259.852356 7.953224
259.9039 4.9
259.930237 5.606667
260.087311 3.565104
260.143402 4.514077
260.553192 4.86
260.899841 4.729167
260.924011 9.76434
260.997101 7.078241
261.041962 4.500833
261.250092 7.741072
261.536835 5.167032
261.671875 5.66713
262.011597 4.387821
262.133026 36.316738
262.251831 4.501736
262.742188 6.021505
263.922089 7.501812
265.076141 8.510629
266.069244 18.446501
266.698669 8.015705
267.079315 10.54054
269.644012 5.342105
269.701141 4.844907
270.102936 124.793701
270.661774 8.333776
272.129242 4.001603
275.502411 24.83349
276.751801 8.46713
277.406982 11.90744
279.154541 53.129749
280.162933 32.156059
280.271515 18.575661
280.288391 7.278409
280.32785 23.213409
280.346191 6.541667
280.417175 13.48684
280.438721 11.14661
280.457489 10.90111
280.474823 21.126101
280.497986 10.95271
280.525177 18.320681
280.56427 15.60065
280.585693 7.111111
280.723755 3.234167
280.751068 8.834615
280.788086 5.512821
281.121765 3.9675
281.16748 22.924561
281.55365 4.153846
281.691956 9.673612
281.722992 13.64855
282.073059 50.238491
282.10614 7694.310059
282.155701 55.6549
282.176941 78.994537
282.202667 54.35051
282.236389 20.93854
282.257507 15.49004
282.2854 25.211809
282.312134 8.092803
282.329834 14.47468
282.371368 38.287338
282.399414 57.27832
282.425781 18.96764
282.456757 16.732161
282.484283 24.8559
282.510223 6.856019
282.549469 29.929569
282.596008 26.750351
282.616699 30.121349
282.643738 6.131194
282.730194 20.172449
282.756653 15.50031
282.806396 42.38644
282.878906 5.177632
282.918457 18.785179
282.976746 29.05863
283.021698 19.91802
283.351379 13.6809
283.669464 4.855978
284.05603 4.357074
284.273071 8.873346
284.455658 10.85526
287.537811 4.32353
296.821564 7.37633
297.514008 25.724939
305.87854 2.875
307.914215 5.573412
308.625671 8.352814
309.178894 4.602083
309.907257 6.334936
309.925629 7.200269
309.972412 6.428442
310.022125 5.055556
310.219666 4.028846
310.985779 5.860119
311.01474 9.056327
311.084137 4.374167
311.131012 339.770599
311.16861 1.708333
311.18512 27.587299
311.207123 46.629799
311.244843 119.436996
311.283173 73.73494
311.3125 10.93896
311.332275 85.845108
311.350159 27.95455
311.367371 110.021599
311.398804 56.041988
311.441711 76.201347
311.46225 68.258171
311.488007 76.871246
311.533783 5.340278
311.549957 22.434561
311.58609 55.571499
311.602539 69.113564
311.65155 17.543819
311.670746 9.274167
311.700378 74.849403
311.802948 74.62394
311.984558 52.90855
312.015564 29.694019
312.161896 26.588169
312.226929 9.515625
312.317535 39.610039
312.416351 44.589741
312.533752 28.92901
312.867859 6.710938
312.888184 12.57341
312.909271 7.166667
313.069092 26.00704
313.092163 161.329803
313.148682 72015.15625
313.6539 39.37207
313.673401 76.152832
313.735352 105.2621
313.761993 48.481892
313.821564 33.647308
313.843964 75.744164
313.870697 138.252701
313.910187 121.469704
313.934052 84.955482
313.985229 31.208811
314.033478 75.694427
314.063599 76.284798
314.111389 64.513718
314.215271 10.43393
314.262787 107.907097
314.294556 28.19047
314.388153 4.540833
314.509705 32.391232
314.635101 10.36154
314.720367 29.53104
314.898865 8.148149
314.955719 10.68293
315.136963 16.633329
315.180786 5.442402
315.281952 26.32424
315.32901 12.19682
315.38504 5.0625
315.431671 9.502547
315.639648 13.96756
315.841614 13.12042
315.884064 18.11158
315.937744 11.80601
316.02478 5.334239
316.043274 11.12756
316.122711 7.506945
316.185516 6.196272
316.359344 8.506682
316.424683 8.981547
316.49408 3.726716
316.558716 7.282407
316.597198 5.375
316.662384 8.003205
316.964539 5.393939
317.082001 25.26717
317.250427 7.513889
317.485931 3.0
317.622314 6.175804
317.789703 4.214286
317.969604 3.504167
318.559052 3.926697
318.733673 9.713611
319.335846 7.000508
319.410431 2.843202
319.716919 8.264544
319.902557 8.313406
322.614288 6.167439
322.639832 15.91336
322.851715 4.234797
323.865723 3.520833
324.072021 3.3075
359.477936 2.566667
457.144684 16.567499
495.33963 8.214711
561.360413 4.166667
674.288025 3.868421
746.771423 5.074912
993.884155 5.5
1135.551147 5.490196
1144.758911 4.203804
1597.782471 36.842171
