>compound MLS001049053-01!7-methoxy-1-methyl-2,3,4,9-tetrahydro-1H-pyrido[3,4-b]indole
>formula C13H16N2O
>ionization [M+H]+
>parentmass 217.134
#inchi InChI=1S/C13H16N2O/c1-8-13-11(5-6-14-8)10-4-3-9(16-2)7-12(10)15-13/h3-4,7-8,14-15H,5-6H2,1-2H3
#inchikey ZXLDQJLIBNPEFJ
#Ion_Source LC-ESI
#Instrument qTof
#Compound_Source NIH Natural Product Library
#PI Dorrestein
#Data_Collector VVP/LMS
#Scan -1
#Precursor_MZ 217.134
#ExactMass 216.126
#Charge 1
#CAS_Number N/A
#Pubmed_ID N/A
#Smiles COc1ccc2c3CCNC(C)c3[nH]c2c1
#INCHI_AUX N/A
#Library_Class 1
#SpectrumID CCMSLIB00000079941
#IonMode Positive
#UpdateWorkflowName UPDATE-SINGLE-ANNOTATED-GOLD
#LibraryQualityString Gold
#TaskID b1d8e8f6646f4e71acdff9ca3d919d08
##Scan# 1443
#SpectrumFile p2-A02_GA2_01_17979.mzXML
#LibraryName NIH_Natural_Products_Library.mgf
#MQScore -1
#Organism NIH_Natural_Products_Library
#TIC_Query 0
#RT_Query -1
#MZErrorPPM -1
#SharedPeaks 0
#MassDiff 0
#LibMZ -1
#SpecMZ 217.134
#SpecCharge 0
#internalFilename spec-00000.mgf

>collision 10
95.071945 192.0
95.204605 168.0
95.515587 160.0
95.645958 52.0
95.70826 164.0
95.729683 208.0
95.858253 44.0
95.907318 180.0
96.090286 228.0
96.152733 196.0
96.197624 148.0
96.418343 100.0
96.518044 136.0
96.5728 160.0
96.756744 192.0
96.823318 164.0
96.85466 128.0
96.931068 108.0
96.955986 180.0
97.001625 136.0
97.052597 132.0
97.148705 56.0
97.344978 212.0
97.565041 116.0
97.697609 176.0
97.72435 140.0
97.757797 196.0
97.799133 64.0
97.885757 40.0
97.936958 112.0
98.007881 40.0
98.144623 204.0
98.222778 152.0
98.254341 184.0
98.301697 132.0
98.66909 164.0
98.938148 140.0
99.084702 148.0
99.122353 148.0
99.425766 84.0
99.523041 168.0
99.58857 128.0
99.797241 120.0
99.884743 156.0
100.219208 204.0
100.610123 168.0
100.670578 188.0
100.701981 216.0
100.765907 160.0
101.049812 204.0
101.073822 160.0
101.125854 156.0
101.388374 160.0
101.444351 68.0
101.520294 164.0
101.580711 112.0
101.917999 116.0
102.044632 160.0
102.302147 108.0
102.371536 208.0
102.427002 112.0
102.481392 68.0
102.543861 44.0
102.767708 120.0
102.818153 120.0
102.929184 128.0
102.953423 196.0
103.001892 224.0
103.05323 748.0
103.147385 152.0
103.171646 236.0
103.252525 132.0
103.307137 124.0
103.497391 168.0
103.554092 104.0
103.872322 184.0
103.918983 140.0
103.979866 128.0
104.052589 516.0
104.176826 120.0
104.197144 44.0
104.268707 200.0
104.349571 168.0
104.439049 184.0
104.457359 196.0
104.471596 168.0
104.491943 152.0
104.575378 204.0
104.664955 84.0
104.958374 132.0
105.009361 144.0
105.064896 224.0
105.093002 124.0
105.158302 176.0
105.436066 208.0
105.462639 140.0
105.489212 144.0
105.591446 44.0
105.843163 128.0
106.048027 172.0
106.064423 40.0
106.119774 180.0
106.195648 176.0
106.431656 172.0
106.454247 212.0
106.493263 60.0
106.517914 136.0
106.665871 56.0
106.682312 64.0
107.041832 196.0
107.056244 180.0
107.061424 240.0
107.203056 132.0
107.219543 164.0
107.469063 156.0
107.597023 188.0
107.700279 152.0
107.840782 128.0
107.859383 148.0
107.977242 148.0
108.05394 156.0
108.126205 28.0
108.200722 124.0
108.233849 184.0
108.25663 156.0
108.28933 152.0
108.436874 180.0
108.519791 232.0
108.845558 184.0
108.895401 208.0
109.0159 144.0
109.103203 188.0
109.163498 76.0
109.244614 176.0
109.600639 200.0
109.615227 88.0
109.715271 180.0
109.813278 220.0
109.994812 108.0
110.040741 212.0
110.143066 184.0
110.180672 160.0
110.276794 92.0
110.538216 112.0
110.613564 248.0
110.707779 100.0
110.737099 200.0
110.799942 160.0
110.942451 160.0
111.21096 52.0
111.441963 164.0
111.653191 116.0
111.874855 212.0
112.033157 124.0
112.19754 196.0
112.408463 188.0
112.439262 204.0
112.520332 172.0
112.710426 124.0
113.008568 188.0
113.328285 176.0
113.625114 232.0
113.735466 140.0
113.820389 96.0
113.943581 132.0
114.028046 144.0
114.047707 148.0
114.079498 176.0
114.618065 104.0
114.925117 144.0
114.978462 192.0
115.054375 1776.0
115.077393 232.0
115.108688 160.0
115.221893 172.0
115.266762 188.0
115.29882 132.0
115.313782 72.0
115.360809 140.0
115.501938 144.0
115.746574 196.0
115.773758 128.0
115.872292 144.0
115.90229 68.0
116.051552 332.0
116.131683 176.0
116.211052 84.0
116.322655 176.0
116.485855 136.0
116.568611 224.0
116.739471 140.0
116.844872 204.0
116.866386 176.0
117.032127 180.0
117.060547 1196.0
117.111809 124.0
117.379044 208.0
117.420021 144.0
117.486885 208.0
117.51709 112.0
117.735115 160.0
117.882019 176.0
118.038582 296.0
118.064926 544.0
118.093887 148.0
118.111191 48.0
118.165276 176.0
118.212875 152.0
118.299454 184.0
118.386063 224.0
118.414215 192.0
118.485703 188.0
118.598389 160.0
118.633072 48.0
118.665588 108.0
118.680771 160.0
118.826088 140.0
118.893356 120.0
119.043152 164.0
119.074501 220.0
119.234329 168.0
119.261612 144.0
119.329971 156.0
119.390862 208.0
119.469162 172.0
119.60408 128.0
119.678101 104.0
119.94825 156.0
120.015831 200.0
120.100883 44.0
120.253624 256.0
120.27108 168.0
120.450134 124.0
120.784584 60.0
120.823959 236.0
120.996857 204.0
121.025322 92.0
121.053787 136.0
121.198494 200.0
121.244667 180.0
121.483116 232.0
121.56456 156.0
121.676506 244.0
121.773125 148.0
121.792892 116.0
121.878571 120.0
121.918129 68.0
122.028038 140.0
122.057579 312.0
122.250206 140.0
122.284081 224.0
122.380074 144.0
122.494598 164.0
122.937775 72.0
123.065208 284.0
123.098923 144.0
123.145302 248.0
123.527702 212.0
123.556465 180.0
123.829277 180.0
123.90184 212.0
123.97496 76.0
124.329796 116.0
124.43856 180.0
124.478531 104.0
124.516281 132.0
124.567368 160.0
124.700691 124.0
124.891907 212.0
124.941704 192.0
124.958649 196.0
125.03653 72.0
125.194595 256.0
125.288147 172.0
125.341621 196.0
125.515495 152.0
126.06218 160.0
126.18087 208.0
126.207703 224.0
126.227821 84.0
126.265839 60.0
126.534363 104.0
126.767319 316.0
126.863693 52.0
127.002724 152.0
127.052078 156.0
127.06778 144.0
127.114899 176.0
127.325928 96.0
127.371597 192.0
127.451729 136.0
127.478691 136.0
127.571579 220.0
127.957802 140.0
128.060455 1716.0
128.383682 152.0
128.509995 188.0
128.618317 40.0
128.717667 164.0
128.73526 156.0
128.813583 240.0
129.068085 1956.0
129.164383 244.0
129.181 152.0
129.251129 160.0
129.339401 136.0
129.400513 196.0
129.497894 152.0
129.556793 116.0
129.797043 208.0
129.835587 116.0
129.862915 316.0
129.903641 188.0
130.01709 180.0
130.064957 12480.0
130.15683 164.0
130.17807 44.0
130.29184 100.0
130.325912 40.0
130.369095 272.0
130.444107 64.0
130.516846 132.0
130.539597 120.0
130.571426 148.0
130.587357 136.0
130.63739 156.0
130.712479 216.0
130.839935 160.0
130.933304 260.0
130.953796 52.0
130.976578 160.0
131.044861 308.0
131.071075 2352.0
131.158463 204.0
131.243225 68.0
131.31163 148.0
131.348572 144.0
131.692795 112.0
131.749908 120.0
131.770462 72.0
131.836731 136.0
131.859589 112.0
131.914444 100.0
132.021912 60.0
132.045547 900.0
132.075546 220.0
132.156876 164.0
132.264435 92.0
132.305634 48.0
132.378906 92.0
132.43158 192.0
132.610291 140.0
132.722626 52.0
132.743271 48.0
132.783829 204.0
132.828125 196.0
133.002518 128.0
133.051926 852.0
133.156357 176.0
133.335556 128.0
133.42981 88.0
134.057968 184.0
134.191895 96.0
134.311813 88.0
134.355789 180.0
134.501022 156.0
135.23143 176.0
135.266144 116.0
135.405075 160.0
135.451401 136.0
135.486145 148.0
135.731842 96.0
135.775894 184.0
136.075882 292.0
136.132599 188.0
136.226196 116.0
136.395828 128.0
136.442322 120.0
136.533005 152.0
136.609772 188.0
136.847153 152.0
136.984558 92.0
137.138351 116.0
137.177979 108.0
137.201294 164.0
137.373871 152.0
137.48587 96.0
137.502197 148.0
137.953018 144.0
138.069916 128.0
138.226654 128.0
138.390518 80.0
138.62944 40.0
138.788849 152.0
139.052582 428.0
139.129044 132.0
139.472015 144.0
139.613083 188.0
139.895432 156.0
139.961365 196.0
140.054749 144.0
140.109741 60.0
140.145081 124.0
140.428284 132.0
140.479874 148.0
140.550644 84.0
140.61908 64.0
140.88591 68.0
141.067154 300.0
141.20163 148.0
141.299652 176.0
141.637695 140.0
141.678452 180.0
141.723465 228.0
141.780334 152.0
141.830109 192.0
141.974731 168.0
142.003189 140.0
142.026917 164.0
142.064987 2136.0
142.245224 136.0
142.411438 204.0
142.470825 52.0
142.54924 168.0
142.939224 128.0
142.986816 212.0
143.045273 184.0
143.071579 1812.0
143.112976 48.0
143.177277 40.0
143.234436 60.0
143.507858 148.0
143.546661 200.0
143.577667 64.0
143.668304 172.0
143.716019 104.0
143.74704 36.0
143.94371 104.0
144.010208 104.0
144.041428 364.0
144.081009 7016.0
144.184067 28.0
144.231873 92.0
144.271454 172.0
144.294022 124.0
144.468414 244.0
144.547562 156.0
144.801331 204.0
144.846848 256.0
144.939728 140.0
145.011719 228.0
145.059479 608.0
145.08905 19792.0
145.128632 348.0
145.15361 48.0
145.18959 124.0
145.22789 248.0
145.27536 168.0
145.314331 76.0
145.340714 36.0
145.429916 48.0
145.465515 44.0
145.616791 56.0
145.643219 260.0
145.700867 28.0
145.784958 176.0
145.905151 200.0
145.924377 104.0
145.943619 40.0
145.986908 72.0
146.059647 624.0
146.091217 2908.0
146.186981 96.0
146.287659 60.0
146.355072 44.0
146.403229 80.0
146.439362 136.0
146.473083 68.0
146.559814 72.0
146.911819 228.0
146.960068 96.0
147.013153 92.0
147.034882 248.0
147.067719 920.0
147.135406 136.0
147.179718 156.0
147.201447 56.0
147.228012 112.0
147.261826 96.0
147.349701 148.0
147.546967 108.0
147.643692 64.0
147.868698 36.0
147.888062 164.0
147.993515 256.0
148.072586 788.0
148.14473 200.0
148.168961 152.0
148.358002 64.0
148.406479 192.0
148.496216 204.0
148.539871 48.0
148.770416 168.0
148.787399 164.0
148.843246 148.0
148.862671 168.0
148.930679 32.0
149.077332 144.0
149.12262 44.0
149.234451 152.0
149.346313 156.0
149.458221 44.0
149.531235 180.0
149.779587 120.0
150.025711 148.0
150.093979 72.0
150.19397 204.0
150.550308 192.0
150.716415 148.0
150.801956 172.0
151.055969 136.0
151.183487 108.0
151.428314 156.0
151.489548 180.0
151.5802 204.0
151.808182 188.0
152.059891 288.0
152.080505 104.0
152.129608 200.0
152.188522 208.0
152.397308 92.0
152.807907 56.0
152.959244 204.0
153.068237 204.0
153.103302 88.0
153.179657 104.0
153.756622 92.0
153.949188 84.0
154.065613 2364.0
154.117157 228.0
154.339615 116.0
154.470703 220.0
154.619156 192.0
154.737976 104.0
154.80484 160.0
154.935242 68.0
154.955933 184.0
155.072922 1396.0
155.139328 48.0
155.285629 80.0
155.402222 128.0
155.618164 168.0
155.757233 88.0
155.866547 200.0
155.916245 108.0
155.936127 140.0
156.081192 10352.0
156.149323 160.0
156.213028 56.0
156.241989 84.0
156.308334 188.0
156.326584 36.0
156.42366 84.0
156.515778 80.0
156.583008 40.0
156.633698 156.0
156.693008 128.0
156.896973 184.0
156.966797 56.0
157.001709 124.0
157.06131 316.0
157.089172 11516.0
157.158478 72.0
157.36853 60.0
157.463409 108.0
157.49826 368.0
157.518372 88.0
157.59082 72.0
157.620804 84.0
157.714401 44.0
157.743271 220.0
157.775772 64.0
157.793274 68.0
157.847855 216.0
157.870789 208.0
157.88829 128.0
157.9133 68.0
157.998901 164.0
158.059967 17388.0
158.140991 92.0
158.181747 112.0
158.236115 148.0
158.256729 136.0
158.293701 108.0
158.333771 68.0
158.371338 44.0
158.419769 84.0
158.440445 124.0
158.466537 56.0
158.534195 56.0
158.667038 160.0
158.764832 108.0
158.830048 60.0
158.862656 60.0
158.890244 80.0
158.963013 52.0
159.000656 68.0
159.025757 136.0
159.066162 2788.0
159.097305 648.0
159.136932 224.0
159.161316 76.0
159.20903 152.0
159.309509 76.0
159.362259 132.0
159.455246 60.0
159.58847 56.0
159.686554 200.0
159.726196 64.0
159.7444 156.0
159.762009 172.0
159.782135 132.0
159.83168 168.0
159.8526 148.0
160.046417 172.0
160.074051 1864.0
160.114532 80.0
160.215164 100.0
160.285721 88.0
160.444504 60.0
160.631119 136.0
160.66391 92.0
160.714371 36.0
160.901154 56.0
161.083511 620.0
161.161652 272.0
161.257324 116.0
161.338211 116.0
161.727783 36.0
161.955658 108.0
162.089935 140.0
162.158356 84.0
162.59967 48.0
163.053635 172.0
163.100037 152.0
163.461182 36.0
164.3862 128.0
164.57254 168.0
165.987564 228.0
166.067032 276.0
166.963425 140.0
167.0737 1480.0
167.444687 192.0
167.604416 144.0
167.666183 128.0
167.838974 216.0
168.080627 4608.0
168.131317 220.0
168.236313 56.0
168.259537 52.0
168.608261 80.0
168.722 192.0
168.758194 100.0
168.931 216.0
169.050171 400.0
169.087494 3556.0
169.195435 168.0
169.24205 140.0
169.296417 52.0
169.38707 192.0
169.77327 68.0
169.882202 148.0
169.921127 192.0
170.059921 8468.0
170.114471 200.0
170.159897 48.0
170.180664 112.0
170.271561 44.0
170.289734 80.0
170.413788 160.0
170.456009 136.0
170.500183 132.0
170.604904 56.0
170.723755 68.0
170.934692 244.0
171.062546 1272.0
171.124496 60.0
171.207809 52.0
171.270325 76.0
171.39537 124.0
171.419998 204.0
171.666473 48.0
171.702988 148.0
171.868225 152.0
172.075897 5180.0
172.145035 188.0
172.272018 124.0
172.381744 108.0
172.452316 52.0
172.643173 44.0
172.758255 48.0
172.784424 220.0
172.831512 100.0
172.897278 248.0
172.924469 192.0
172.968567 152.0
173.047592 180.0
173.083847 30940.0
173.126358 232.0
173.155197 112.0
173.200653 140.0
173.271591 152.0
173.339508 160.0
173.388733 56.0
173.438522 72.0
173.486282 56.0
173.525467 72.0
173.585922 196.0
173.848251 52.0
173.88237 88.0
173.913864 104.0
173.956024 68.0
174.004929 64.0
174.088196 5224.0
174.142288 204.0
174.168564 48.0
174.210587 76.0
174.373505 84.0
174.391907 92.0
174.591721 72.0
174.659439 64.0
174.723236 84.0
174.76796 88.0
174.815338 40.0
174.965363 88.0
175.094269 472.0
175.1418 96.0
175.226105 52.0
175.289337 84.0
175.347321 64.0
175.434296 144.0
175.460663 128.0
175.486938 124.0
175.518661 40.0
175.581955 72.0
175.642624 196.0
175.782455 76.0
176.025314 68.0
176.109818 116.0
177.080521 164.0
177.220917 40.0
177.485977 100.0
178.018066 116.0
178.239838 176.0
178.439178 116.0
178.804657 204.0
178.870163 88.0
179.101822 36.0
179.298981 112.0
179.490921 164.0
179.602936 148.0
179.997925 160.0
180.438797 216.0
180.548431 112.0
180.722305 148.0
180.941772 80.0
180.976578 204.0
181.196213 180.0
181.469589 136.0
181.810257 88.0
182.014282 156.0
182.059937 140.0
182.855728 40.0
183.066544 1044.0
183.130356 132.0
183.181534 84.0
183.343201 84.0
183.712601 172.0
184.07399 3236.0
184.114777 28.0
184.99173 60.0
185.082809 5948.0
185.137039 112.0
185.193924 60.0
185.226425 48.0
185.267059 32.0
185.565186 84.0
185.654663 36.0
186.086731 764.0
186.341415 80.0
186.618652 52.0
186.814468 132.0
186.882477 108.0
186.955948 88.0
187.097534 1072.0
187.20369 112.0
187.235382 112.0
187.372559 164.0
187.391632 52.0
187.410706 88.0
187.582214 56.0
187.800552 160.0
187.928772 124.0
187.961777 164.0
187.994263 140.0
188.014282 440.0
188.107742 24212.0
188.145782 140.0
188.156586 236.0
188.197937 104.0
188.234482 60.0
188.266266 100.0
188.431152 56.0
188.46666 48.0
188.513123 36.0
188.556839 32.0
188.704453 44.0
188.726334 152.0
188.893158 36.0
188.961548 80.0
188.999863 156.0
189.068268 180.0
189.109192 2060.0
189.142166 68.0
189.166809 156.0
189.221725 136.0
189.306442 88.0
189.39682 176.0
189.506409 100.0
189.648911 52.0
189.78598 68.0
189.956024 52.0
190.068512 80.0
190.115677 164.0
190.153625 192.0
190.271622 140.0
190.296967 136.0
190.364975 84.0
190.446121 116.0
190.518784 48.0
193.026978 56.0
193.331268 120.0
194.057022 180.0
196.186661 108.0
197.473938 48.0
198.008514 104.0
198.058929 48.0
198.092361 1676.0
198.630768 84.0
198.675644 60.0
199.094589 892.0
199.327042 84.0
199.501297 140.0
199.740326 188.0
199.88382 136.0
200.027359 108.0
200.075211 116.0
200.106598 4164.0
200.25824 52.0
200.444183 68.0
200.540009 244.0
200.754272 128.0
201.047668 124.0
201.114044 372.0
201.140808 64.0
201.400589 88.0
201.465561 100.0
201.504105 124.0
201.750992 48.0
201.770782 56.0
202.117081 200.0
202.217728 44.0
202.563171 116.0
202.942932 44.0
202.962784 268.0
203.340088 72.0
203.859802 100.0
203.947906 116.0
204.405487 164.0
205.066498 88.0
206.599915 132.0
207.613892 108.0
209.928909 68.0
210.75737 28.0
212.224884 140.0
213.084 140.0
216.125076 188.0
218.166397 164.0
219.102264 172.0
220.648743 60.0
236.841339 48.0
237.279572 88.0
244.028931 60.0
244.427063 72.0
255.003784 108.0
258.28479 36.0
262.637238 108.0
282.520996 48.0
284.746735 64.0
292.656616 80.0
310.682526 48.0
312.787476 44.0
313.622284 144.0
317.043549 36.0
323.750427 140.0
330.414642 56.0
352.683472 132.0
357.187439 80.0
363.360321 84.0
367.042175 60.0
391.607666 48.0
392.805939 72.0
398.415466 48.0
401.771545 68.0
401.88327 48.0
404.012756 80.0
417.924469 84.0
424.451782 48.0
424.480499 64.0
453.903534 132.0
465.459137 48.0
480.875732 96.0
530.519592 68.0
585.376831 108.0
585.564636 200.0
619.714233 176.0
666.027893 104.0
691.837585 120.0
712.586853 92.0
732.330933 260.0
749.133972 84.0
767.031311 88.0
774.668152 220.0
811.014648 32.0
819.670105 140.0
825.715637 184.0
831.81781 120.0
854.396362 200.0
866.07135 156.0
886.959961 172.0
889.771851 152.0
899.385742 200.0
904.394653 68.0
933.724121 152.0
935.403442 188.0
954.522705 32.0
962.693909 160.0
983.973267 156.0
984.310425 132.0
984.485291 248.0
996.084778 124.0
997.366638 148.0
1014.898132 212.0
1016.598083 68.0
1024.768921 128.0
1025.208618 160.0
1025.960815 196.0
1038.404175 152.0
1041.63269 152.0
1044.744019 72.0
1046.005371 200.0
1052.200439 264.0
1058.375 84.0
1058.556396 160.0
1063.782104 220.0
1068.64978 120.0
1072.022705 180.0
1072.439819 76.0
1072.531128 68.0
1079.811157 44.0
1085.810303 144.0
1088.638794 44.0
1090.879272 148.0
1091.839233 180.0
1094.464844 180.0
1097.541992 196.0
1107.428345 52.0
1108.441895 56.0
1113.384033 108.0
1115.370605 172.0
1115.689697 120.0
1115.975586 144.0
1119.662109 200.0
1120.594727 164.0
1122.59436 160.0
1130.450195 100.0
1134.019775 188.0
1136.017944 164.0
1140.281738 160.0
1142.924561 128.0
1145.637817 144.0
1145.893799 92.0
1149.899292 120.0
1150.628418 164.0
1151.310303 196.0
1165.943604 168.0
1167.548096 140.0
1169.248901 176.0
1170.133789 108.0
1174.77478 164.0
1176.467163 184.0
1184.228271 132.0
1188.519653 200.0
1188.828491 132.0
1193.141968 80.0
1193.540771 140.0
1195.466797 216.0
1196.058716 212.0
1197.050171 216.0
1197.559692 128.0
1199.296021 164.0
1202.296143 156.0
1203.538696 124.0
1204.339844 180.0
1205.161865 144.0
1206.675537 196.0
1208.632935 208.0
1212.95166 20.0
1216.39502 148.0
1216.637939 132.0
1219.131592 200.0
1219.479004 140.0
1220.723511 148.0
1222.281616 144.0
1225.554199 128.0
1227.994141 192.0
1228.356812 192.0
1230.499268 132.0
1236.622803 184.0
1238.457153 96.0
1244.537354 164.0
1246.630493 184.0
1248.423096 140.0
1248.669312 44.0
1248.98584 124.0
1252.998413 128.0
1255.416016 160.0
1256.883301 156.0
1257.419556 108.0
1257.546631 156.0
1259.262329 160.0
1264.07666 172.0
1264.734863 156.0
1265.039185 116.0
1265.159546 164.0
1265.364868 156.0
1266.497925 256.0
1267.114258 156.0
1267.510986 164.0
1268.063721 132.0
1269.233398 88.0
1269.775635 212.0
1269.857544 240.0
1270.48877 176.0
1271.162842 172.0
1273.59082 48.0
1274.940796 168.0
1277.671143 164.0
1278.261719 56.0
1279.827637 88.0
1281.095459 252.0
1282.050171 124.0
1283.233398 220.0
1285.829956 176.0
1287.929077 184.0
1288.579102 152.0
1293.749756 76.0
1297.410522 196.0
1298.722778 120.0
1300.143433 132.0
1301.758545 168.0
1303.978516 140.0
1305.840576 76.0
1309.748901 156.0
1311.067383 160.0
1313.006592 204.0
1315.83252 184.0
1320.713013 184.0
1321.277344 168.0
1323.854126 176.0
1324.839111 164.0
1324.904297 152.0
1325.005737 196.0
1326.237671 156.0
1326.331909 184.0
1326.513062 140.0
1327.622437 132.0
1328.928101 180.0
1329.856934 136.0
1329.929565 204.0
1332.652832 144.0
1332.841675 244.0
1333.154175 200.0
1333.859131 212.0
1333.982666 188.0
1338.078491 148.0
1339.906494 184.0
1342.96814 176.0
1343.602783 164.0
1344.668091 140.0
1345.660889 136.0
1346.047852 172.0
1346.778198 88.0
1347.917847 168.0
1349.167603 160.0
1351.654419 164.0
1357.155273 164.0
1357.88855 168.0
1359.641968 204.0
1361.117554 184.0
1361.793213 108.0
1363.909302 220.0
1367.682617 244.0
1368.418823 160.0
1368.904785 60.0
1369.376099 60.0
1369.921143 172.0
1370.569458 268.0
1374.115967 200.0
1376.736328 152.0
1377.4823 132.0
1378.612671 164.0
1378.834351 168.0
1379.699219 216.0
1379.910156 116.0
1380.764038 152.0
1382.591309 136.0
1382.709717 132.0
1383.31665 164.0
1383.657227 148.0
1385.390137 92.0
1385.990234 140.0
1387.383667 136.0
1387.761719 208.0
1388.132446 40.0
1388.473633 196.0
1389.37854 212.0
1390.209595 152.0
1392.377319 168.0
1393.967163 124.0
1395.892334 256.0
1397.260986 156.0
1397.35022 176.0
1398.243164 144.0
1398.60791 52.0
1399.501221 280.0
1399.739502 184.0
1400.089478 164.0
1400.946045 144.0
1401.474976 100.0
1402.346924 216.0
1402.637573 168.0
1406.635742 48.0
1406.755249 116.0
1408.988159 84.0
1409.227173 156.0
1409.336548 208.0
1415.495239 164.0
1419.504272 72.0
1419.849243 196.0
1420.381714 168.0
1420.606812 132.0
1420.674316 124.0
1423.173462 64.0
1424.457764 136.0
1424.683105 212.0
1427.824951 220.0
1429.510132 116.0
1429.969116 176.0
1430.910156 196.0
1431.745972 164.0
1433.109375 216.0
1433.644409 216.0
1434.096558 128.0
1435.476196 108.0
1436.637695 140.0
1437.067749 148.0
1437.822266 148.0
1437.95813 152.0
1438.599731 128.0
1440.797363 184.0
1441.099487 160.0
1442.248169 220.0
1442.316284 224.0
1444.471313 184.0
1445.206177 148.0
1446.2948 140.0
1446.461426 184.0
1446.612793 140.0
1447.415283 56.0
1448.85437 164.0
1449.490845 184.0
1450.460815 128.0
1451.764893 124.0
1454.200195 236.0
1455.361694 176.0
1459.479858 132.0
1460.772827 192.0
1461.7771 60.0
1462.696655 176.0
1468.282837 104.0
1469.678833 172.0
1469.84668 108.0
1470.052734 184.0
1471.136475 200.0
1471.212891 184.0
1472.549072 140.0
1472.77832 120.0
1473.175415 172.0
1474.588989 176.0
1474.665527 124.0
1475.376343 156.0
1475.605713 132.0
1476.431519 180.0
1478.305786 260.0
1478.593628 156.0
1478.994629 132.0
1479.484497 168.0
1479.79834 228.0
1480.793823 164.0
1482.624878 188.0
1482.916138 124.0
1484.357422 200.0
1484.894165 200.0
1486.344116 132.0
1486.543579 180.0
1488.071045 136.0
1488.286011 168.0
1488.977173 96.0
1489.645386 160.0
1490.321411 204.0
1490.390625 124.0
1491.082275 132.0
1491.543335 148.0
1491.712524 156.0
1492.296753 176.0
1494.358032 136.0
1496.944824 160.0
1498.715942 128.0
1499.578979 240.0
1500.951172 140.0
1501.545044 124.0
1501.89209 216.0
1502.231445 164.0
1504.160645 176.0
1504.338135 184.0
