>compound Racecadotril
>formula C21H23NO4S 
>ionization [M+H]+
>parentmass 386.141937
#inchi InChI=1S/C21H23NO4S/c1-16(23)27-15-19(12-17-8-4-2-5-9-17)21(25)22-13-20(24)26-14-18-10-6-3-7-11-18/h2-11,19H,12-15H2,1H3,(H,22,25)
#inchikey ODUOJXZPIYUATO
#Ion_Source LC-ESI
#Instrument qTof
#Compound_Source Isolated
#PI Sirenas
#Data_Collector Ed Esquenazi 
#Scan -1
#Precursor_MZ 386.143
#ExactMass 0.0
#Charge 1
#CAS_Number N/A
#Pubmed_ID N/A
#Smiles N/A
#INCHI_AUX N/A
#Library_Class 3
#SpectrumID CCMSLIB00000005131
#IonMode Positive
#UpdateWorkflowName UPDATE-SINGLE-ANNOTATED-BRONZE
#LibraryQualityString Bronze
#TaskID d19310cd93df49b68e9fcbec27720eb5
##Scan# 4
#SpectrumFile Racecadotril.mgf
#LibraryName fda_library.mgf
#MQScore -1
#Organism fda_library
#TIC_Query 0
#RT_Query -1
#MZErrorPPM -1
#SharedPeaks 0
#MassDiff 0
#LibMZ -1
#SpecMZ 386.143
#SpecCharge 0
#internalFilename spec-00000.mgf

>collision 10
106.623589 51.42725
108.079781 9.005556
115.32608 1.633333
115.530029 5.30625
115.655075 6.962
117.069847 186.425003
117.121216 2.001471
117.446785 7.347222
118.049561 36.632198
120.080711 143.2742
120.390793 5.538462
122.022026 5.3
128.552353 5.144048
129.071213 44.462849
136.973022 68.894836
137.041321 180.458405
137.145508 2.0
137.379883 4.128572
143.048599 58.216061
143.522797 5.716667
144.220047 6.800641
144.240692 3.036765
144.270126 2.75625
144.282104 13.57432
144.311432 5.447093
144.356781 4.672059
144.403442 4.563334
144.457977 10.65625
144.920761 4.689286
145.04306 38.02597
145.064804 1702.192993
145.115005 12.90638
145.165237 5.60049
145.207184 9.647368
145.232819 11.83134
145.244888 7.605
145.291016 3.205556
145.316635 3.601191
145.353409 4.41
145.445389 10.57622
145.475342 4.069841
145.530716 9.132447
145.638046 1.8
145.659683 37.696049
145.880783 1.3
145.901031 2.184091
146.065582 7.673684
146.189835 2.281667
146.219559 4.513637
146.265503 3.0375
146.529449 3.625
147.37413 6.45473
157.062851 119.345901
157.099197 1.802778
159.186523 20.299179
161.042526 24.75559
163.054535 2.236765
163.064285 11.99231
165.27948 5.333333
166.084656 426.268005
166.143097 2.2
166.201263 4.338462
166.269302 7.802381
166.339859 7.096154
166.538162 15.95783
166.796631 3.657143
166.879318 5.0
169.432663 7.118519
177.034637 78.680344
177.474075 3.867857
178.303665 1.620455
179.051834 676.110229
179.109833 4.672222
179.178024 3.319697
179.275879 2.45
179.356079 4.607143
179.648712 6.611112
179.676147 13.18333
179.735657 8.578571
179.863968 9.516071
179.877441 7.938
182.321274 10.21453
187.920746 13.34318
191.053604 197.811905
191.084 60.71629
191.162964 4.6
191.230316 2.88
191.33548 6.104032
192.102081 24.000231
193.102936 71.771873
201.165375 1.801471
201.28186 19.895901
202.085709 469.502014
202.395874 6.606452
202.524567 7.630224
202.539093 2.864286
202.759323 3.955556
203.461365 9.426667
205.889191 6.028571
207.117035 253.604706
207.165054 1.889286
207.300262 6.2125
207.647583 6.104032
208.081284 97.063187
208.134033 8.969
208.393417 3.85
208.519409 4.521
209.228149 3.808333
209.671204 7.459314
212.624374 10.40167
214.102142 3.823148
214.990524 74.751534
217.097855 20.200979
219.043121 70.930527
219.639893 11.86207
220.096176 23.818451
220.636414 4.8
221.063675 87.505783
221.339752 4.865789
221.936722 2.869444
226.865128 37.416889
228.416229 30.333071
230.960251 24.6
233.733612 3.404167
233.771881 3.622368
233.797455 1.807143
233.859665 13.50756
234.292419 7.664286
234.408646 3.053261
234.654663 8.170282
234.702621 1.8
234.760193 2.816667
234.963837 6.067857
235.110992 3259.940918
235.176224 16.96221
235.209213 3.001471
235.231598 16.62344
235.260712 12.83984
235.306534 6.446429
235.358627 8.843103
235.374603 8.4
235.406662 15.57978
235.422073 5.311364
235.437317 2.911364
235.5121 9.066667
235.528732 21.188459
235.561478 5.258333
235.613815 4.862699
235.676987 32.320881
235.696701 12.67856
235.731644 15.44158
235.809235 10.443
235.844833 5.253261
236.072083 68.753281
236.14949 9.513995
236.245087 47.092461
236.28299 14.64558
236.420319 5.2
237.321426 4.037121
238.313965 4.128572
238.86203 5.503049
239.496902 1.802778
239.691345 13.9122
240.214096 14.44444
240.914413 1.669444
241.10495 381.512299
241.152588 3.628571
241.444412 9.676562
241.580307 6.136111
243.637619 10.192
247.320572 3.65
250.085983 18.959249
251.086487 54.1506
251.311264 6.360556
251.53743 9.006896
251.896225 6.930814
257.780151 37.846298
262.637421 4.388462
263.089752 26.17647
264.127594 7.476818
264.158936 3.689286
264.670685 5.568421
266.13269 1.205
267.292114 3.344048
267.379425 12.18833
267.41568 4.032143
267.447357 27.58651
267.465027 5.778704
267.495239 86.146896
267.528656 10.89091
267.547913 5.810526
267.56076 30.5515
267.581116 12.99457
267.6073 12.51149
267.642792 33.20417
267.684448 5.227174
267.698456 69.071411
267.71344 16.277269
267.769836 81.546371
267.791626 28.85084
267.832306 25.5137
267.867554 16.73625
267.917114 4.813334
267.992279 1.469445
268.109131 23.896191
268.152771 14.96703
268.18515 16.640909
268.276886 10.53885
268.397644 5.291129
268.459137 54.517262
268.627838 7.648529
269.000916 2.822222
269.053162 29.13587
269.100006 19671.029297
269.167725 15.29412
269.204987 6.963636
269.257233 7.007258
269.274536 9.43141
269.301239 27.32877
269.339996 9.384615
269.354462 30.231791
269.380829 76.478127
269.41275 67.348747
269.430786 8.88125
269.512207 40.190041
269.535431 16.675619
269.581421 28.548809
269.602844 5.257143
269.647461 61.915878
269.713959 28.19322
269.7435 25.34
269.798645 36.13916
269.841766 69.966812
269.979218 23.199829
270.1604 10.40058
270.187042 7.433696
270.210602 21.06304
270.390076 2.856818
270.43457 9.054592
270.555145 2.811842
270.758545 21.954651
270.815796 15.77971
270.879608 13.48201
271.021118 3.70625
271.233551 14.67476
271.27951 7.625
271.465759 6.6
271.669556 7.453333
271.815521 9.801667
271.895813 4.803125
272.082672 9.824524
272.142456 2.602273
272.18869 3.344048
272.682281 6.947283
272.926483 6.225
273.264099 5.603333
273.533142 3.857143
275.18573 2.555769
275.773407 13.60357
276.005829 5.963636
276.041748 1.525
276.39444 9.200334
276.614258 1.617308
276.713501 2.625
276.785034 15.41622
277.668304 2.236765
277.784424 11.58947
278.083374 975.284729
278.149384 8.00619
278.245422 1.975
278.324738 2.016667
278.480988 6.823148
278.584991 1.633333
278.759979 5.67
278.793182 11.25786
278.91687 5.955882
279.005127 4.592391
281.106445 50.554771
281.198212 3.401667
287.105804 77.049553
287.539886 2.001923
292.138489 27.25721
292.47583 2.111364
296.067505 10.19051
296.15152 15.97357
296.224762 6.720715
296.343872 5.721377
296.404388 2.535
296.47467 4.669444
296.507965 5.175
296.588501 6.710294
296.615448 2.575
296.696655 4.704167
296.714325 12.61249
296.792236 1.202778
297.405792 2.184091
297.683838 2.3125
298.046265 17.60417
298.126587 3022.065918
298.200928 30.247919
298.23172 14.491
298.25058 12.38
298.305084 36.776699
298.333466 9.73376
298.37973 11.00278
298.400909 13.49536
298.442688 3.223148
298.463196 7.865385
298.492371 30.987289
298.524231 24.52643
298.556641 17.6761
298.576538 4.761
298.617004 6.061735
298.635071 9.025
298.653076 7.139131
298.768616 23.27611
298.877411 24.13932
298.934937 12.11511
299.098114 3.623148
301.161591 3.008333
301.594238 8.24
307.551758 3.155769
308.363434 22.350479
308.976349 145.095306
309.217987 9.648529
309.497101 9.606465
309.67572 5.544047
310.146698 18.87236
310.22821 10.00217
311.111176 150.918701
311.257416 5.267592
311.276703 10.64342
312.032227 3.853333
316.139252 29.75745
316.187683 1.6
319.624237 2.25625
324.036316 14.8704
324.108276 19.04727
324.161774 9.381685
324.193176 3.223148
324.243408 5.744118
324.299683 13.00056
324.352448 6.180494
324.412445 1.2
324.443787 2.645
324.549286 1.008333
324.58551 11.29226
324.638062 7.526755
324.694977 3.159211
324.983154 8.937931
325.012054 4.848529
325.133911 13.63432
325.276123 2.89
325.453461 1.408333
325.945953 12.83975
326.051514 26.6159
326.075592 9.326152
326.121613 5090.462891
326.196075 61.002102
326.242828 19.96665
326.266907 20.369961
326.296356 19.696609
326.314087 13.08421
326.352081 11.51739
326.378265 11.28606
326.415497 24.805559
326.485535 55.85231
326.533813 2.041667
326.55188 21.809389
326.61554 6.602941
326.657135 23.649
326.72879 22.644699
326.811462 20.640381
326.865082 10.73389
327.375946 24.66172
327.577606 7.995271
327.925629 1.066667
328.201843 7.489893
331.037781 4.083333
338.810974 2.919118
339.323975 4.781452
341.771271 4.090909
341.821289 2.2
341.866333 6.20061
341.897461 3.177941
341.935455 14.99576
341.95697 22.69062
341.992889 64.007439
342.035004 64.037827
342.081787 20.48831
342.104492 15.08333
342.132629 25.97393
342.159851 13.96338
342.178314 8.0
342.211914 21.507401
342.250214 59.244148
342.285828 7.35
342.340332 17.444229
342.362213 23.15143
342.480957 6.85625
342.509857 6.059524
342.560364 6.049138
342.594238 19.13607
342.799683 88.603828
342.819244 26.03887
342.883759 9.832018
342.908752 3.202778
343.241882 1.828572
343.394745 15.38214
343.444885 11.86471
343.476288 4.2125
343.547211 8.804245
343.65509 6.266667
343.701172 1.911364
343.721405 3.313636
343.748566 5.74146
343.914856 7.423684
343.954559 10.2699
344.13269 26753.580078
344.209656 51.609829
344.293579 25.41263
344.351044 3.936111
344.391144 51.81971
344.449921 48.438339
344.48526 62.05592
344.515137 4.411111
344.533539 74.371223
344.559021 31.555559
344.578003 123.462997
344.627716 75.438461
344.644257 33.604141
344.665344 71.720802
344.684601 49.469818
344.733643 71.847702
344.815948 17.774321
344.85788 59.234531
344.898743 43.59655
344.968201 8.710222
345.008881 23.75647
345.051575 48.65263
345.266174 13.31324
345.332306 24.691629
345.418793 19.30946
345.466156 17.482401
345.994415 7.845
346.118683 6.85
346.159149 7.363158
346.201019 26.461901
346.244324 8.228449
346.273712 11.08176
346.381165 15.71221
346.429688 14.22388
346.74704 9.221491
346.816956 4.472727
346.955566 2.8125
347.919983 2.0
347.939453 3.801316
348.225311 9.940908
348.790894 2.75625
348.920013 2.827174
349.173492 7.441327
349.212555 12.93921
349.776917 2.49
350.809387 13.66514
351.028656 11.2
351.91568 3.005556
352.274689 1.2
354.354156 4.803333
355.697998 5.401191
357.989349 4.025
359.19043 1.8
368.127563 112.047401
368.173248 1.80625
369.917542 6.923077
383.591064 13.00357
383.69397 2.75625
383.775024 5.59527
383.839233 5.265385
383.87735 12.90179
383.911591 4.188462
383.931702 4.628125
383.979675 4.853261
384.00058 4.017308
384.627655 2.094231
385.480652 10.26207
386.01358 2.025
386.141937 1709.735962
386.228333 52.492001
386.263794 65.891663
386.307556 3.045
386.345306 35.669411
386.379395 28.20845
386.41626 17.823059
386.455383 10.88159
386.537933 26.445589
386.581085 4.30431
386.635773 3.721
386.791229 13.16635
386.855652 4.525
386.992798 10.96406
387.08075 6.038333
387.56601 8.441605
388.59314 10.97194
388.946289 7.400758
650.609497 15.23682
728.616333 7.431154
1104.646851 1.85
1260.258911 6.626471
1502.582031 13.11201
