>compound MLS001076098-01!
>formula C22H32O3
>ionization [M+H]+
>parentmass 345.2424213360905
#inchi InChI=1S/C22H32O3/c1-13-11-16-17(20(3)8-5-15(24)12-19(13)20)6-9-21(4)18(16)7-10-22(21,25)14(2)23/h12-13,16-18,25H,5-11H2,1-4H3/t13-,16+,17-,18-,20+,21-,22-/m0/s1
#inchikey FRQMUZJSZHZSGN
#Ion_Source LC-ESI
#Instrument qTof
#Compound_Source NIH Pharmacologically Active Library
#PI Dorrestein
#Data_Collector VP/LMS
#Scan -1
#Precursor_MZ 345.246
#ExactMass 344.235
#Charge 1
#CAS_Number N/A
#Pubmed_ID N/A
#Smiles C[C@H]1C[C@H]2[C@@H]3CC[C@](O)(C(=O)C)[C@@]3(C)CC[C@@H]2[C@@]4(C)CCC(=O)C=C14
#INCHI_AUX N/A
#Library_Class 1
#SpectrumID CCMSLIB00000084826
#IonMode Positive
#UpdateWorkflowName UPDATE-SINGLE-ANNOTATED-GOLD
#LibraryQualityString Gold
#TaskID d252d724072548979f1f6f1ced849daf
##Scan# 2288
#SpectrumFile p3-B03_GB3_01_18236.mzXML
#LibraryName Pharm_Active_Library.mgf
#MQScore -1
#Organism Pharm_Active_Library
#TIC_Query 0
#RT_Query -1
#MZErrorPPM -1
#SharedPeaks 0
#MassDiff 0
#LibMZ -1
#SpecMZ 345.246
#SpecCharge 0
#internalFilename spec-00000.mgf

>collision 10
44.894363 116.0
45.066563 188.0
45.343571 164.0
45.407925 140.0
45.462929 144.0
45.54483 176.0
45.639046 152.0
45.660419 208.0
45.746532 164.0
45.809826 148.0
45.82869 172.0
45.921707 244.0
46.014816 176.0
46.239212 128.0
46.289303 124.0
46.58226 140.0
47.391651 200.0
47.675339 168.0
47.887211 56.0
47.946453 404.0
48.002975 84.0
48.058151 184.0
48.124405 144.0
48.405098 48.0
48.642181 152.0
48.715778 148.0
48.845058 148.0
49.109711 176.0
49.139008 132.0
49.349911 196.0
49.404453 164.0
49.629944 96.0
49.795536 104.0
50.082466 136.0
50.097961 196.0
50.347618 228.0
50.385757 136.0
50.455009 128.0
50.525723 116.0
50.63755 148.0
50.647465 156.0
50.766514 152.0
50.878609 160.0
50.999352 152.0
51.221329 124.0
51.402393 52.0
51.613804 44.0
51.713943 172.0
51.986248 176.0
52.185909 180.0
52.447918 132.0
52.547424 168.0
52.638359 164.0
52.759727 144.0
52.908737 140.0
52.998535 120.0
53.066658 116.0
53.094208 248.0
53.300346 240.0
53.329411 180.0
53.740078 140.0
53.886082 124.0
54.557907 208.0
54.918087 252.0
55.039097 176.0
55.204601 144.0
56.165531 64.0
56.219242 60.0
56.367081 200.0
56.480701 176.0
56.546535 184.0
56.65435 212.0
56.861275 188.0
56.892796 184.0
57.155815 92.0
57.425476 152.0
57.549221 200.0
57.742645 76.0
57.830399 208.0
57.995495 32.0
58.083439 200.0
58.154755 156.0
58.279282 136.0
58.403938 72.0
58.417629 64.0
58.716171 120.0
58.83519 164.0
59.033821 80.0
59.049114 128.0
59.587162 172.0
59.702446 204.0
59.86095 144.0
59.919483 192.0
59.97496 136.0
60.016582 144.0
60.085987 76.0
60.132282 220.0
60.311447 224.0
60.32209 208.0
60.512554 148.0
60.738811 184.0
61.153675 176.0
61.181694 144.0
61.359295 196.0
61.68401 144.0
62.053467 168.0
62.086399 156.0
62.490097 152.0
62.518417 160.0
62.578236 132.0
63.044994 172.0
63.090981 224.0
63.152649 172.0
63.219097 116.0
63.777367 232.0
64.074944 108.0
64.341278 144.0
64.438705 164.0
64.773056 184.0
65.02639 224.0
65.227165 144.0
65.378349 184.0
65.540993 152.0
65.666733 156.0
65.960602 208.0
66.031746 164.0
66.086746 144.0
66.504845 212.0
66.548676 172.0
66.638008 212.0
66.761543 164.0
66.862404 152.0
67.15567 80.0
67.318871 152.0
67.668785 132.0
67.731018 168.0
68.086929 188.0
68.804855 188.0
68.824669 148.0
68.930382 236.0
68.960129 216.0
69.112267 188.0
69.337479 136.0
69.415398 136.0
69.436951 176.0
69.483398 104.0
69.626152 156.0
69.69426 188.0
69.996994 128.0
70.068611 184.0
70.320404 116.0
70.358795 192.0
70.673012 236.0
70.721542 36.0
70.917503 132.0
71.148994 84.0
71.379173 124.0
71.806923 124.0
71.833908 184.0
71.862686 144.0
71.970612 152.0
72.576355 200.0
72.705276 200.0
72.740921 232.0
72.895477 164.0
72.926064 156.0
73.643372 196.0
73.703163 120.0
73.792046 104.0
73.805725 80.0
73.913483 208.0
74.144669 124.0
74.208092 112.0
74.245811 128.0
74.420845 132.0
74.520462 148.0
74.656258 128.0
74.742264 192.0
74.811104 100.0
74.89032 168.0
74.991486 156.0
75.06955 164.0
75.359535 160.0
75.418297 92.0
75.483986 216.0
75.911705 124.0
76.269348 184.0
76.300636 216.0
76.349327 220.0
76.849258 184.0
76.877174 104.0
76.948746 140.0
77.195114 128.0
77.615364 156.0
77.650436 128.0
78.020943 184.0
78.286629 184.0
78.392319 76.0
78.518211 176.0
78.649811 164.0
78.754211 156.0
78.821121 132.0
79.105865 128.0
79.332611 240.0
79.545486 244.0
79.63604 176.0
79.664459 184.0
79.723091 140.0
79.861763 128.0
80.326668 196.0
80.346291 168.0
80.437302 108.0
80.93251 188.0
80.989815 68.0
81.163651 104.0
81.382553 152.0
81.88427 220.0
82.048241 52.0
82.086105 192.0
82.262917 148.0
82.289993 232.0
82.45076 128.0
82.564659 44.0
83.200653 232.0
83.264206 144.0
83.422287 112.0
83.882835 160.0
84.152832 112.0
84.333687 276.0
84.346481 160.0
84.458015 164.0
84.666664 76.0
84.824234 112.0
84.838898 72.0
85.020485 152.0
85.259361 164.0
85.49646 132.0
85.577454 212.0
85.634537 184.0
86.478302 128.0
86.519028 124.0
86.580132 120.0
87.108734 168.0
87.173767 216.0
87.506714 128.0
87.687401 176.0
88.081093 176.0
88.260498 116.0
88.53183 164.0
88.644226 136.0
88.676086 172.0
88.871117 144.0
89.281509 168.0
89.410019 224.0
89.677856 172.0
89.743835 196.0
89.758919 204.0
89.87587 184.0
90.060875 200.0
90.200699 204.0
90.317932 240.0
90.370903 160.0
90.617035 224.0
90.643562 148.0
90.869194 220.0
91.056335 228.0
91.22052 160.0
91.486847 164.0
91.768806 172.0
91.969109 212.0
92.232697 76.0
92.41246 204.0
92.757172 100.0
92.947037 176.0
93.070412 820.0
93.150543 168.0
93.456223 128.0
93.573624 196.0
93.708443 140.0
93.73542 120.0
94.043983 112.0
94.078728 148.0
94.515518 140.0
94.548416 208.0
94.561958 116.0
94.786606 184.0
94.807922 240.0
94.906776 220.0
95.046661 380.0
95.085297 984.0
95.11512 204.0
95.423241 156.0
95.572998 144.0
95.61776 156.0
95.780334 40.0
96.087364 232.0
96.536606 140.0
96.702896 136.0
96.937904 256.0
96.959457 164.0
97.004539 140.0
97.039825 156.0
97.065529 6380.0
97.14769 88.0
97.298798 172.0
97.334145 160.0
97.420555 124.0
97.448067 92.0
97.556152 136.0
97.621033 220.0
97.695778 48.0
97.742996 68.0
97.963501 124.0
97.987144 32.0
98.050194 196.0
98.069115 352.0
98.79657 168.0
98.935097 200.0
98.962814 160.0
98.998451 240.0
99.04599 168.0
99.293739 104.0
99.551727 128.0
99.567612 244.0
99.591446 92.0
99.686806 44.0
100.050789 184.0
100.110519 136.0
100.482605 224.0
100.525162 120.0
100.68087 80.0
101.14872 116.0
101.170738 84.0
101.196762 88.0
101.342972 132.0
101.441177 176.0
101.790268 208.0
101.810356 112.0
102.127899 184.0
102.200317 180.0
102.445938 100.0
103.056419 396.0
103.113815 240.0
103.708855 196.0
103.996864 92.0
104.057762 132.0
104.305603 76.0
104.557808 152.0
104.598511 40.0
104.620903 148.0
104.663658 156.0
104.736977 220.0
104.955032 48.0
105.069 2544.0
105.122337 216.0
105.342804 220.0
105.714912 140.0
105.864349 152.0
106.07708 444.0
106.286613 112.0
106.356392 176.0
106.477531 136.0
106.656281 68.0
107.050308 452.0
107.086914 1336.0
107.244949 168.0
107.420212 172.0
107.583237 220.0
107.638985 40.0
107.667892 156.0
107.917923 152.0
108.054924 700.0
108.092972 184.0
108.172386 104.0
108.304909 132.0
108.62619 144.0
108.962494 156.0
109.026909 116.0
109.064758 876.0
109.101112 608.0
109.126686 188.0
109.426285 196.0
109.563736 152.0
109.995399 60.0
110.070557 160.0
110.103973 176.0
110.238876 104.0
110.496941 188.0
111.081436 360.0
111.198914 36.0
111.276581 160.0
111.656921 100.0
111.705292 120.0
112.084251 60.0
112.383659 228.0
112.459633 80.0
112.990021 164.0
113.057732 368.0
113.648933 124.0
113.729576 164.0
113.789009 156.0
113.986542 68.0
114.029045 164.0
114.243805 160.0
114.275711 164.0
114.303375 88.0
114.616386 116.0
114.795441 156.0
114.82103 100.0
114.878616 160.0
115.03653 112.0
115.054634 324.0
115.224457 128.0
115.346268 176.0
115.956268 152.0
116.080612 172.0
116.179268 176.0
116.28656 412.0
116.521355 232.0
116.828316 136.0
117.072311 308.0
117.187569 180.0
117.43116 92.0
117.625351 164.0
117.780388 160.0
118.07476 132.0
118.208885 120.0
118.464363 116.0
118.555626 132.0
118.609543 152.0
118.629051 32.0
118.691925 140.0
118.787354 72.0
119.043457 204.0
119.085297 1940.0
119.112953 220.0
119.206375 128.0
119.695801 164.0
119.76767 168.0
120.089249 348.0
120.125153 168.0
120.594604 120.0
120.946747 164.0
121.065269 524.0
121.101646 284.0
121.143822 132.0
121.194214 36.0
121.343246 144.0
121.935921 92.0
122.028244 152.0
122.074417 232.0
122.105522 196.0
122.122803 156.0
122.243797 208.0
122.649033 36.0
122.858521 136.0
122.879074 176.0
122.963448 188.0
123.006371 60.0
123.045296 120.0
123.053902 128.0
123.081261 23724.0
123.118622 76.0
123.155411 180.0
123.187523 108.0
123.216156 60.0
123.260345 76.0
123.328857 136.0
123.362015 92.0
123.440857 212.0
123.629639 84.0
123.656189 48.0
123.71817 80.0
123.742523 192.0
123.769089 120.0
123.999474 72.0
124.023857 56.0
124.041588 68.0
124.057106 60.0
124.084267 1488.0
124.205673 100.0
124.23008 48.0
124.392067 72.0
124.534172 144.0
124.549721 168.0
124.56971 80.0
124.591927 96.0
124.663025 120.0
124.69455 108.0
124.72303 124.0
124.781464 56.0
124.850395 56.0
125.003258 100.0
125.061119 152.0
125.094833 192.0
125.163521 88.0
125.19915 28.0
125.622635 96.0
125.776596 112.0
125.796692 60.0
126.055763 84.0
126.098228 112.0
126.151871 120.0
127.193481 156.0
127.359642 84.0
127.465233 128.0
128.070251 188.0
128.108688 176.0
129.068375 228.0
129.285034 72.0
129.629242 148.0
129.719894 148.0
129.862747 180.0
130.07515 176.0
130.680527 220.0
130.889938 88.0
131.056213 44.0
131.087311 912.0
131.624161 112.0
132.010559 80.0
132.08786 200.0
132.138 108.0
132.376465 100.0
132.80043 52.0
132.880722 56.0
133.065704 160.0
133.102814 1876.0
133.20285 176.0
133.714844 48.0
133.776993 96.0
134.034943 148.0
134.069504 152.0
134.098602 192.0
134.150177 112.0
134.581589 144.0
134.902725 116.0
135.036835 52.0
135.081085 1012.0
135.116974 948.0
135.460403 136.0
135.662003 200.0
135.768661 176.0
136.014603 124.0
136.086563 140.0
136.121399 120.0
136.704849 124.0
136.818909 196.0
136.835205 188.0
136.85849 44.0
136.953964 36.0
137.095673 3372.0
137.131042 156.0
137.289566 68.0
137.479691 104.0
137.550873 76.0
137.873184 32.0
137.938629 56.0
138.099838 328.0
138.336304 48.0
138.490845 224.0
139.051193 152.0
139.082901 252.0
139.112213 136.0
139.166214 104.0
139.189697 72.0
139.401108 200.0
139.709106 104.0
140.430954 124.0
140.890182 164.0
141.068481 608.0
141.355957 128.0
141.912582 232.0
142.007431 40.0
142.077591 632.0
142.275574 276.0
143.085129 980.0
143.198166 132.0
143.422134 224.0
143.558029 204.0
144.093307 364.0
145.066681 148.0
145.100861 1772.0
145.268112 40.0
145.289703 100.0
145.34729 52.0
145.462479 168.0
145.529709 84.0
145.762695 148.0
146.078125 160.0
146.10379 416.0
146.421829 112.0
146.539856 140.0
146.710968 100.0
147.081345 260.0
147.115646 1560.0
147.21283 44.0
147.652649 72.0
148.093155 356.0
148.123062 592.0
148.878906 160.0
149.094406 500.0
149.129654 340.0
149.238541 132.0
149.535309 68.0
149.559647 124.0
150.105301 184.0
150.532394 260.0
150.700928 168.0
150.842667 124.0
151.040726 36.0
151.07608 168.0
151.11496 220.0
151.439697 60.0
153.067902 124.0
153.099915 232.0
153.896378 132.0
154.054428 176.0
154.077652 208.0
155.083878 304.0
155.306931 176.0
155.776062 180.0
155.85556 180.0
156.094406 536.0
156.484833 88.0
156.908371 28.0
157.068924 204.0
157.102203 916.0
157.602203 104.0
158.073441 192.0
158.10675 168.0
158.520523 120.0
158.946793 184.0
158.974396 256.0
159.022079 100.0
159.082138 236.0
159.116455 2036.0
159.237991 124.0
159.356064 108.0
159.393753 60.0
160.030106 116.0
160.086838 324.0
160.119553 460.0
160.2845 72.0
160.511353 116.0
160.642502 184.0
160.894852 40.0
161.066574 136.0
161.095139 944.0
161.131393 1084.0
161.1651 92.0
161.296265 124.0
161.347076 140.0
161.415329 76.0
162.1026 208.0
162.132889 304.0
162.97673 132.0
163.111725 736.0
163.150803 260.0
163.246155 160.0
163.335175 36.0
164.081299 60.0
164.11528 296.0
164.147598 168.0
164.430756 84.0
164.566055 164.0
164.829132 60.0
165.069412 132.0
165.131638 144.0
165.153809 108.0
165.706741 128.0
166.078323 176.0
166.548141 104.0
167.085892 244.0
167.108551 168.0
167.391678 100.0
167.75238 48.0
167.863235 156.0
168.069595 80.0
168.095993 348.0
168.214111 132.0
168.449097 88.0
168.818695 172.0
169.067032 180.0
169.101532 412.0
169.779449 76.0
170.10762 348.0
171.070633 168.0
171.117111 1484.0
171.956985 64.0
172.024841 44.0
172.079666 148.0
172.118866 580.0
172.181503 116.0
172.450607 96.0
172.628372 68.0
172.730377 60.0
173.09549 308.0
173.132202 2240.0
173.204147 32.0
173.382309 188.0
173.641846 144.0
173.906845 36.0
174.106369 124.0
174.136292 516.0
174.445312 60.0
174.705643 124.0
175.112549 916.0
175.149796 784.0
175.247986 92.0
175.290146 88.0
175.464096 108.0
175.677704 76.0
175.696167 68.0
175.801712 136.0
176.12645 176.0
176.152283 240.0
176.282318 156.0
176.779465 228.0
177.127899 808.0
177.166016 136.0
177.290558 56.0
177.534439 48.0
177.945724 60.0
179.078522 148.0
179.110474 168.0
179.147766 100.0
181.104507 392.0
182.110214 252.0
182.471603 180.0
182.511932 76.0
182.980087 124.0
183.113571 408.0
183.163208 176.0
183.883087 148.0
184.123993 204.0
185.08017 140.0
185.102295 196.0
185.130585 1104.0
185.207916 88.0
185.275635 56.0
186.094681 128.0
186.139648 228.0
186.282059 104.0
187.112518 404.0
187.148926 764.0
187.457397 68.0
188.1147 164.0
188.15564 144.0
189.127747 852.0
189.165939 800.0
189.887726 84.0
189.961792 48.0
189.980988 72.0
190.127213 360.0
190.195023 108.0
190.501953 180.0
191.07901 128.0
191.142593 1052.0
191.30278 48.0
192.145248 176.0
193.101181 176.0
193.15712 112.0
194.103867 292.0
194.981506 184.0
195.116562 216.0
195.340179 96.0
195.573898 72.0
195.949829 44.0
196.122467 188.0
196.387482 76.0
196.666489 76.0
197.093414 200.0
197.133865 992.0
198.077454 104.0
198.139221 312.0
199.082596 156.0
199.113327 196.0
199.146378 1400.0
199.48436 148.0
200.125793 132.0
200.157364 336.0
200.652649 108.0
200.971344 124.0
201.087051 52.0
201.125092 472.0
201.14209 172.0
201.162979 480.0
201.327011 56.0
202.131027 328.0
202.169434 108.0
203.145111 764.0
203.706146 48.0
203.751602 36.0
203.913559 64.0
204.015884 164.0
204.146683 148.0
204.17511 124.0
204.220627 52.0
204.69873 156.0
205.023468 96.0
205.091873 240.0
205.157379 268.0
205.59668 164.0
206.079254 160.0
206.162277 148.0
207.112061 236.0
207.16066 152.0
208.115051 132.0
209.130127 632.0
209.236938 48.0
209.519165 160.0
210.124252 176.0
210.234222 44.0
210.768433 152.0
211.112427 200.0
211.149017 1280.0
211.641953 64.0
211.746201 60.0
212.122864 180.0
212.144852 480.0
212.853958 56.0
213.126358 668.0
213.163727 1120.0
213.401535 140.0
214.101471 108.0
214.136963 1056.0
214.168686 152.0
214.35199 100.0
215.104446 144.0
215.143448 1928.0
215.17012 172.0
216.010284 96.0
216.140976 196.0
217.155945 460.0
217.208328 144.0
218.165619 136.0
218.65683 228.0
219.141235 268.0
219.165024 152.0
219.847412 56.0
220.113083 108.0
221.126968 264.0
221.148636 152.0
222.104797 180.0
222.142151 176.0
222.864777 144.0
223.117401 172.0
223.143555 316.0
223.176865 224.0
224.143951 132.0
224.155746 120.0
224.93454 128.0
225.119644 116.0
225.165237 760.0
225.956558 204.0
226.127121 124.0
226.169968 380.0
226.917923 48.0
226.974365 180.0
227.123764 184.0
227.141006 140.0
227.180939 960.0
227.878326 76.0
228.115738 136.0
228.148804 208.0
228.180878 192.0
228.56987 72.0
229.152283 160.0
229.202194 36.0
230.162964 184.0
231.132645 156.0
231.177155 588.0
232.170654 120.0
233.135468 180.0
233.172485 184.0
235.145996 96.0
236.089996 96.0
236.151169 116.0
236.307175 44.0
236.362244 80.0
237.163727 364.0
237.465073 96.0
237.805634 80.0
238.143356 152.0
238.169754 192.0
239.141663 400.0
239.180923 488.0
239.45047 36.0
240.15538 492.0
240.184021 196.0
240.869263 184.0
241.011368 80.0
241.158661 436.0
241.196304 328.0
241.864899 108.0
241.914429 200.0
242.132645 320.0
242.16214 100.0
243.13562 184.0
243.177063 408.0
243.679016 64.0
244.179474 124.0
244.456345 80.0
245.194595 392.0
245.992874 116.0
246.189697 180.0
246.564438 120.0
247.14711 96.0
247.703323 76.0
248.3647 180.0
249.167328 144.0
250.174652 180.0
250.788879 56.0
251.180725 328.0
252.185394 272.0
253.158157 140.0
253.202667 192.0
253.300858 160.0
254.150482 176.0
254.201248 200.0
254.798157 68.0
255.175354 192.0
255.230408 128.0
256.183502 188.0
257.154755 1236.0
257.192963 160.0
257.953033 84.0
258.161682 316.0
258.659943 104.0
259.092255 116.0
259.16275 204.0
259.19635 124.0
260.208313 132.0
261.162689 120.0
264.43103 204.0
265.19574 304.0
266.204163 400.0
267.111084 204.0
267.209961 1772.0
267.283508 76.0
268.211029 404.0
268.342041 92.0
269.187836 956.0
269.562775 104.0
269.667358 76.0
269.981201 76.0
270.187073 128.0
271.022125 48.0
271.167694 208.0
271.191956 224.0
271.205322 200.0
271.215668 224.0
273.188934 140.0
274.176727 100.0
275.163757 664.0
275.394104 60.0
275.493195 76.0
275.886444 52.0
276.172485 288.0
276.551331 176.0
277.492096 112.0
278.826477 104.0
279.042542 52.0
279.381744 72.0
279.551453 64.0
281.194397 116.0
281.217743 116.0
281.394684 64.0
282.207428 180.0
283.153534 156.0
283.199524 136.0
284.048431 108.0
284.210968 608.0
285.102661 124.0
285.2211 888.0
285.553162 64.0
285.61908 60.0
286.187805 128.0
286.226929 160.0
287.205231 204.0
288.196014 60.0
288.537354 236.0
291.207855 80.0
292.218689 164.0
292.574463 64.0
292.625519 68.0
292.679993 56.0
293.00354 80.0
294.183502 140.0
294.934967 180.0
299.235687 152.0
299.867096 88.0
300.235992 116.0
301.223083 120.0
301.513306 76.0
301.572052 92.0
302.583221 64.0
303.241547 180.0
307.940643 84.0
309.073273 56.0
309.122253 152.0
309.222473 720.0
310.22464 572.0
310.744537 64.0
311.144623 52.0
311.214844 128.0
316.19577 136.0
321.71225 100.0
324.466858 60.0
326.470398 76.0
327.23288 960.0
327.2836 40.0
328.22821 152.0
329.248535 132.0
329.8414 72.0
330.221039 132.0
330.452545 40.0
336.73761 156.0
344.294434 128.0
345.240387 904.0
345.419373 92.0
345.781982 68.0
346.25058 464.0
346.433655 108.0
346.554871 160.0
346.79306 132.0
346.989532 72.0
347.245392 144.0
363.823944 68.0
368.359344 164.0
370.501556 120.0
386.648743 76.0
405.016693 60.0
408.742249 60.0
431.883728 76.0
450.185699 28.0
483.651978 88.0
538.668457 112.0
565.040771 112.0
581.542847 52.0
612.734558 92.0
616.020081 92.0
673.367493 68.0
720.122131 216.0
748.614441 52.0
753.845764 164.0
753.922302 44.0
763.329041 52.0
801.122314 104.0
822.420593 168.0
827.141846 64.0
835.013855 176.0
840.353699 136.0
840.394104 108.0
878.17395 168.0
885.348633 196.0
890.502319 180.0
914.321289 124.0
915.543396 224.0
916.260193 40.0
922.270386 160.0
925.125488 148.0
929.428467 68.0
939.936829 200.0
948.927917 136.0
959.385315 168.0
979.24469 200.0
981.026794 88.0
987.852112 60.0
1004.839233 80.0
1009.083313 236.0
1020.730835 160.0
1024.785278 144.0
1030.35498 152.0
1031.434937 152.0
1033.091187 152.0
1033.750122 208.0
1040.627808 204.0
1042.901855 216.0
1043.0625 40.0
1044.547852 172.0
1045.017456 200.0
1047.489624 200.0
1047.579712 168.0
1049.268188 156.0
1049.725952 232.0
1049.835571 36.0
1053.017212 112.0
1057.685425 164.0
1059.582764 252.0
1061.157593 104.0
1062.973755 136.0
1065.109619 276.0
1068.197266 284.0
1069.049561 200.0
1074.751099 84.0
1074.855591 152.0
1076.121826 200.0
1077.486816 148.0
1078.924561 160.0
1081.403687 140.0
1082.162964 224.0
1084.993286 124.0
1091.185669 168.0
1095.949219 204.0
1097.28064 204.0
1100.856812 232.0
1102.825562 216.0
1106.523315 176.0
1106.781494 164.0
1110.233887 196.0
1114.608398 144.0
1124.384155 240.0
1125.185181 132.0
1128.84668 188.0
1130.880371 132.0
1134.008179 180.0
1141.399292 168.0
1146.434448 116.0
1146.751221 140.0
1147.728638 144.0
1149.94812 116.0
1150.224854 140.0
1151.188965 104.0
1157.810791 232.0
1161.185791 172.0
1161.233276 72.0
1163.499634 164.0
1163.710083 180.0
1164.891724 192.0
1165.822632 132.0
1168.365479 180.0
1169.488281 148.0
1172.498657 192.0
1175.485474 216.0
1176.202148 136.0
1183.345825 256.0
1184.893677 184.0
1186.051758 152.0
1186.22998 204.0
1187.155518 144.0
1190.792847 128.0
1190.840942 104.0
1192.015625 264.0
1192.654785 128.0
1193.452271 144.0
1193.87854 108.0
1197.911743 228.0
1199.800049 212.0
1207.056396 100.0
1209.96936 104.0
1215.666748 216.0
1215.937378 192.0
1219.305664 164.0
1221.224609 180.0
1224.453979 188.0
1228.615234 180.0
1233.370605 196.0
1236.133057 176.0
1237.273926 168.0
1238.387329 168.0
1241.099365 92.0
1243.659912 168.0
1245.239624 272.0
1246.855469 208.0
1247.727051 228.0
1247.966064 208.0
1249.063232 240.0
1249.119507 64.0
1254.78833 244.0
1255.768555 184.0
1262.71814 236.0
1263.255737 132.0
1267.425659 156.0
1269.637329 156.0
1271.247681 164.0
1271.80835 108.0
1272.19165 180.0
1273.661499 204.0
1273.732544 136.0
1274.862183 208.0
1276.610962 192.0
1277.514282 172.0
1277.976685 180.0
1281.743286 144.0
1286.107788 176.0
1288.835815 192.0
1292.639771 180.0
1297.424194 112.0
1299.030518 68.0
1301.693237 244.0
1305.803833 160.0
1306.47998 224.0
1306.861206 132.0
1307.055542 192.0
1308.794189 160.0
1315.812622 164.0
1320.082886 168.0
1321.355835 68.0
1325.606079 108.0
1326.011841 132.0
1326.526489 208.0
1329.899414 192.0
1333.123901 112.0
1333.225708 116.0
1337.67688 128.0
1338.761719 156.0
1339.038452 28.0
1339.089355 140.0
1339.32251 120.0
1343.732788 80.0
1344.579224 132.0
1344.907593 168.0
1345.72522 144.0
1345.966187 244.0
1348.939697 148.0
1349.509888 124.0
1350.753174 160.0
1351.909058 204.0
1352.597046 164.0
1352.99231 160.0
1353.0802 172.0
1353.182739 196.0
1354.141968 196.0
1354.49353 144.0
1355.626587 164.0
1357.227173 176.0
1358.209839 160.0
1361.174805 188.0
1362.210327 132.0
1365.341431 140.0
1365.517822 112.0
1368.917847 208.0
1370.958374 108.0
1371.032104 152.0
1372.764404 152.0
1376.28418 176.0
1378.433594 208.0
1378.500122 180.0
1380.481201 248.0
1384.018188 128.0
1384.321777 124.0
1386.144043 196.0
1387.745117 160.0
1388.494019 164.0
1390.304199 176.0
1395.407104 228.0
1397.206909 52.0
1397.444946 220.0
1397.705322 44.0
1397.898804 136.0
1398.315552 180.0
1398.69519 224.0
1400.772705 128.0
1403.261719 168.0
1403.686768 148.0
1408.119507 196.0
1408.306274 128.0
1409.426758 184.0
1410.114258 160.0
1412.267578 192.0
1412.484497 36.0
1412.798706 144.0
1413.382202 148.0
1416.781372 196.0
1417.755371 140.0
1420.957153 60.0
1421.775024 56.0
1423.938599 164.0
1427.183472 148.0
1428.115967 148.0
1429.387329 136.0
1429.974365 180.0
1431.531128 160.0
1432.918579 212.0
1433.555664 80.0
1434.161987 72.0
1434.538818 164.0
1436.506958 180.0
1437.419922 244.0
1437.970825 220.0
1439.828491 184.0
1444.317383 64.0
1447.420288 224.0
1447.950439 152.0
1448.438599 232.0
1451.74707 152.0
1453.370361 144.0
1454.364502 144.0
1454.622681 200.0
1454.80481 172.0
1458.374878 152.0
1465.932007 172.0
1466.046387 152.0
1467.883545 124.0
1470.767334 212.0
1470.935181 252.0
1471.920044 212.0
1473.913696 176.0
1475.388794 196.0
1475.985107 140.0
1476.260376 168.0
1478.341064 184.0
1479.994507 128.0
1480.369751 176.0
1481.434326 192.0
1484.599731 140.0
1484.94812 48.0
1485.044556 244.0
1485.771973 220.0
1489.258301 164.0
1489.373535 96.0
1490.356812 212.0
1493.185669 184.0
1493.316406 120.0
1494.193359 172.0
1494.447266 40.0
1494.66272 28.0
1495.155151 200.0
1496.178955 164.0
1496.743652 184.0
1496.925781 164.0
1497.410889 168.0
1499.437134 180.0
1500.647339 104.0
1501.364502 204.0
1503.447388 180.0
1503.871826 152.0
1504.342651 116.0
1504.73645 116.0
