>compound MLS001074064-01!Bentyl
>formula C19H35NO2
>ionization [M+H]+
>parentmass 310.273376
#inchi InChI=1S/C19H35NO2/c1-3-20(4-2)15-16-22-18(21)19(13-9-6-10-14-19)17-11-7-5-8-12-17/h17H,3-16H2,1-2H3
#inchikey CURUTKGFNZGFSE
#origInchi InChI=1S/C19H35NO2.ClH/c1-3-20(4-2)15-16-22-18(21)19(13-9-6-10-14-19)17-11-7-5-8-12-17;/h17H,3-16H2,1-2H3;1H
#Ion_Source LC-ESI
#Instrument qTof
#Compound_Source NIH Pharmacologically Active Library
#PI Dorrestein
#Data_Collector VP/LMS
#Scan -1
#Precursor_MZ 310.28
#ExactMass 309.267
#Charge 1
#CAS_Number N/A
#Pubmed_ID N/A
#Smiles CCN(CC)CCOC(=O)C1(CCCCC1)C2CCCCC2.Cl
#INCHI_AUX N/A
#Library_Class 1
#SpectrumID CCMSLIB00000085644
#IonMode Positive
#UpdateWorkflowName UPDATE-SINGLE-ANNOTATED-GOLD
#LibraryQualityString Gold
#TaskID d252d724072548979f1f6f1ced849daf
##Scan# 1949
#SpectrumFile p4-D09_GD9_01_18369.mzXML
#LibraryName Pharm_Active_Library.mgf
#MQScore -1
#Organism Pharm_Active_Library
#TIC_Query 0
#RT_Query -1
#MZErrorPPM -1
#SharedPeaks 0
#MassDiff 0
#LibMZ -1
#SpecMZ 310.28
#SpecCharge 0
#internalFilename spec-00000.mgf

>collision 10
44.932472 180.0
44.993103 232.0
45.020569 196.0
45.053963 224.0
45.116772 140.0
45.162239 160.0
45.276005 208.0
45.304359 140.0
45.333611 124.0
45.349689 220.0
45.367634 208.0
45.447697 200.0
45.499931 156.0
45.516487 252.0
45.674633 224.0
45.696587 212.0
45.721722 160.0
45.748642 132.0
45.776917 156.0
45.78904 212.0
45.802509 136.0
45.814632 128.0
45.826756 84.0
45.882015 144.0
45.89389 228.0
45.968304 152.0
46.172333 64.0
46.239979 156.0
46.309029 176.0
46.321217 176.0
46.352875 164.0
46.365932 160.0
46.486629 192.0
46.506985 180.0
46.540302 184.0
46.566727 48.0
46.608841 176.0
46.625149 124.0
46.691765 144.0
46.891903 208.0
46.936565 152.0
47.0242 168.0
47.048771 308.0
47.058327 212.0
47.074444 224.0
47.134819 136.0
47.216843 124.0
47.226414 160.0
47.42495 60.0
47.441402 128.0
47.486618 168.0
47.512714 196.0
47.534668 176.0
47.622532 192.0
47.648632 128.0
47.673363 140.0
47.685734 140.0
47.7421 152.0
47.751728 52.0
47.864574 196.0
47.894875 156.0
48.000996 196.0
48.064449 176.0
48.09343 172.0
48.235703 172.0
48.28548 196.0
48.295162 136.0
48.317295 188.0
48.365887 176.0
48.40588 140.0
48.415573 172.0
48.534748 116.0
48.595776 152.0
48.612976 196.0
48.64254 224.0
48.651859 264.0
48.691559 168.0
48.705448 80.0
48.734623 136.0
48.751297 136.0
48.763805 152.0
48.774925 196.0
48.795776 192.0
48.805511 156.0
48.83054 140.0
49.097942 176.0
49.110497 192.0
49.164909 144.0
49.276619 128.0
49.289192 152.0
49.338528 216.0
49.426228 136.0
49.44442 108.0
49.469612 136.0
49.497616 192.0
49.50742 152.0
49.521423 92.0
49.577465 176.0
49.622318 176.0
49.705322 136.0
49.726124 216.0
49.761219 208.0
49.783688 76.0
49.794922 32.0
49.882038 100.0
49.92281 120.0
49.966415 60.0
49.976265 116.0
50.014797 168.0
50.087856 196.0
50.141819 220.0
50.164986 120.0
50.22139 152.0
50.259937 136.0
50.272179 124.0
50.289116 172.0
50.327232 176.0
50.376663 140.0
50.419052 140.0
50.467113 144.0
50.477013 48.0
50.491154 208.0
50.50671 184.0
50.577461 152.0
50.629189 124.0
50.765079 192.0
50.829731 156.0
50.865009 168.0
50.891171 168.0
50.934792 60.0
50.958942 180.0
51.018631 176.0
51.042805 176.0
51.061291 184.0
51.132427 180.0
51.148083 164.0
51.373234 92.0
51.398914 244.0
51.414612 156.0
51.446014 136.0
51.473141 176.0
51.487423 56.0
51.524563 148.0
51.654652 208.0
51.741947 176.0
51.756268 52.0
51.790638 140.0
51.82502 176.0
51.857979 192.0
51.94688 188.0
52.038731 144.0
52.066013 124.0
52.120304 212.0
52.172344 200.0
52.238495 140.0
52.262951 160.0
52.28022 128.0
52.323402 32.0
52.389648 208.0
52.434734 152.0
52.510731 44.0
52.529404 196.0
52.682159 168.0
52.696854 60.0
52.763432 172.0
52.790905 196.0
52.803921 48.0
52.853107 164.0
52.892181 60.0
52.964203 184.0
53.061676 116.0
53.122585 152.0
53.184982 180.0
53.206528 172.0
53.235798 152.0
53.248867 200.0
53.318604 144.0
53.3564 112.0
53.407295 68.0
53.419651 196.0
53.484413 236.0
53.590725 88.0
53.665058 160.0
53.680969 184.0
53.740902 268.0
53.764252 168.0
53.796486 140.0
53.843086 184.0
53.911751 160.0
54.002396 216.0
54.04628 100.0
54.081406 60.0
54.12093 252.0
54.142895 172.0
54.195633 180.0
54.209137 148.0
54.220543 236.0
54.232269 212.0
54.310764 180.0
54.357716 168.0
54.396553 120.0
54.409248 192.0
54.420696 216.0
54.472916 192.0
54.516994 240.0
54.556679 180.0
54.589024 176.0
54.650806 144.0
54.733234 100.0
54.75827 164.0
54.79826 188.0
54.826038 132.0
54.93515 184.0
54.955803 132.0
54.984634 156.0
55.011887 140.0
55.080196 124.0
55.133003 152.0
55.155174 160.0
55.277927 172.0
55.325291 164.0
55.34898 188.0
55.365269 148.0
55.394627 156.0
55.446247 200.0
55.477879 156.0
55.507408 192.0
55.523846 52.0
55.538677 180.0
55.562412 48.0
55.580257 152.0
55.616314 248.0
55.637573 360.0
55.748016 92.0
55.762878 168.0
55.814911 116.0
55.881844 100.0
55.933929 144.0
55.98455 128.0
55.996464 120.0
56.108223 172.0
56.191742 164.0
56.282791 164.0
56.293243 160.0
56.36179 180.0
56.447159 104.0
56.505493 72.0
56.539909 160.0
56.566853 116.0
56.587811 84.0
56.599789 224.0
56.634235 168.0
56.659702 152.0
56.763123 44.0
56.803616 80.0
56.85463 252.0
56.86964 132.0
56.908634 160.0
56.920681 300.0
56.949215 200.0
57.009312 140.0
57.021336 220.0
57.082973 144.0
57.096508 156.0
57.128094 256.0
57.167213 240.0
57.182262 60.0
57.194305 180.0
57.224415 156.0
57.283405 140.0
57.317799 196.0
57.335884 152.0
57.420311 160.0
57.448971 212.0
57.470093 132.0
57.509327 144.0
57.527443 252.0
57.587841 172.0
57.60899 168.0
57.666409 212.0
57.704201 192.0
57.734989 240.0
57.745029 256.0
57.764275 172.0
57.822189 236.0
57.835812 172.0
57.860035 108.0
57.885773 124.0
57.963028 152.0
57.979698 188.0
57.996368 168.0
58.019108 208.0
58.052467 208.0
58.070663 216.0
58.125278 240.0
58.169292 152.0
58.240662 176.0
58.255852 40.0
58.35675 204.0
58.36832 164.0
58.479378 172.0
58.549412 128.0
58.728733 152.0
58.761292 144.0
58.874249 284.0
58.903267 36.0
58.935352 152.0
58.981197 144.0
59.004128 200.0
59.024006 56.0
59.051533 120.0
59.079067 152.0
59.190796 148.0
59.216831 148.0
59.239807 144.0
59.304165 120.0
59.33329 192.0
59.472885 140.0
59.485165 136.0
59.51894 92.0
59.584984 164.0
59.60957 156.0
59.673866 188.0
59.780262 176.0
59.798016 236.0
59.814121 132.0
59.861851 164.0
59.908058 92.0
59.937332 220.0
60.057095 152.0
60.193394 184.0
60.289169 180.0
60.388458 144.0
60.415958 212.0
60.497978 132.0
60.56147 108.0
60.583153 156.0
60.61879 124.0
60.655987 264.0
60.685444 200.0
60.739723 224.0
60.78006 168.0
60.941544 108.0
60.978836 172.0
61.027027 156.0
61.071297 248.0
61.135914 144.0
61.286961 252.0
61.31863 236.0
61.444408 212.0
61.520908 208.0
61.576874 128.0
61.62711 68.0
61.641171 240.0
61.709946 104.0
61.743835 220.0
61.805359 136.0
61.827267 160.0
61.855438 112.0
61.90554 120.0
61.979164 148.0
62.001102 208.0
62.019909 160.0
62.03648 140.0
62.177349 200.0
62.231693 184.0
62.244255 152.0
62.310223 184.0
62.425732 140.0
62.527225 152.0
62.549259 192.0
62.594917 180.0
62.61224 200.0
62.62484 68.0
62.642166 140.0
62.755638 132.0
62.875526 160.0
63.046085 168.0
63.107735 196.0
63.145687 136.0
63.207386 228.0
63.24062 252.0
63.259613 132.0
63.328979 164.0
63.348293 148.0
63.383152 148.0
63.403751 144.0
63.419601 184.0
63.511566 56.0
63.549641 152.0
63.5909 144.0
63.663929 132.0
63.692516 192.0
63.730644 164.0
63.744946 148.0
63.762428 124.0
63.779911 164.0
63.894409 156.0
63.908726 44.0
63.927822 188.0
63.953285 204.0
64.050415 156.0
64.096619 192.0
64.160477 312.0
64.19545 164.0
64.21299 56.0
64.228943 144.0
64.311913 192.0
64.431679 160.0
64.642738 180.0
64.665146 188.0
64.698761 216.0
64.729179 212.0
64.748398 228.0
64.777229 136.0
64.788445 64.0
64.812477 148.0
64.830101 148.0
64.852539 120.0
64.907547 168.0
64.998482 184.0
65.049835 152.0
65.138161 236.0
65.221718 144.0
65.298889 196.0
65.334282 180.0
65.379333 108.0
65.45253 212.0
65.482231 228.0
65.504921 196.0
65.540367 140.0
65.625214 200.0
65.648369 148.0
65.758072 144.0
65.781937 168.0
65.824265 164.0
65.87455 176.0
65.896767 176.0
65.932182 184.0
65.938652 148.0
66.097443 144.0
66.189713 168.0
66.309151 128.0
66.330658 140.0
66.405029 180.0
66.444176 220.0
66.488785 180.0
66.541557 128.0
66.557793 252.0
66.604889 140.0
66.652008 172.0
66.672829 152.0
66.69426 104.0
66.746986 216.0
66.825989 164.0
66.871552 156.0
66.943184 52.0
66.985771 200.0
67.011597 156.0
67.031151 216.0
67.052338 120.0
67.112648 108.0
67.189308 204.0
67.406464 148.0
67.465576 168.0
67.599426 160.0
67.68618 248.0
67.70256 168.0
67.756615 64.0
67.781189 172.0
67.88282 168.0
67.927101 76.0
67.969574 140.0
68.051826 168.0
68.074821 324.0
68.097809 160.0
68.153664 144.0
68.238655 164.0
68.258865 120.0
68.295044 88.0
68.349335 56.0
68.382248 176.0
68.586487 160.0
68.6343 116.0
68.682129 164.0
68.74939 240.0
68.800941 232.0
68.850471 220.0
68.893417 208.0
68.944641 164.0
68.971085 144.0
69.033913 144.0
69.048798 192.0
69.123238 164.0
69.143097 188.0
69.189445 128.0
69.25753 208.0
69.459564 200.0
69.496063 192.0
69.527596 184.0
69.559128 204.0
69.746834 236.0
69.77343 208.0
69.846596 112.0
69.871979 124.0
69.888191 108.0
69.978073 168.0
70.006378 48.0
70.036697 216.0
70.069672 192.0
70.087997 116.0
70.102997 108.0
70.13633 196.0
70.231918 148.0
70.283089 52.0
70.321472 164.0
70.445038 164.0
70.460068 204.0
70.511871 196.0
70.565361 176.0
70.60215 208.0
70.651741 204.0
70.66906 152.0
70.704201 128.0
70.734329 180.0
70.86998 32.0
70.89344 132.0
70.913551 80.0
70.948753 136.0
70.977257 152.0
71.004318 176.0
71.049377 184.0
71.079582 200.0
71.126572 200.0
71.139999 184.0
71.173584 220.0
71.237404 148.0
71.30629 152.0
71.366814 180.0
71.44754 140.0
71.462685 156.0
71.57209 220.0
71.597351 196.0
71.646194 172.0
71.698433 196.0
71.715286 108.0
71.808014 128.0
71.824883 204.0
71.895744 196.0
71.96859 200.0
72.002106 124.0
72.022377 152.0
72.05278 56.0
72.174477 216.0
72.204765 228.0
72.233665 176.0
72.252274 160.0
72.358902 204.0
72.502876 120.0
72.567871 200.0
72.682632 76.0
72.766228 156.0
72.806557 132.0
72.847321 160.0
72.881294 108.0
72.93058 188.0
72.952675 220.0
73.349312 164.0
73.39193 204.0
73.40387 228.0
73.461861 124.0
73.48233 180.0
73.576195 188.0
73.792343 132.0
73.829636 224.0
73.897507 80.0
73.940285 56.0
73.9711 76.0
73.984795 84.0
74.056709 92.0
74.109818 184.0
74.140663 104.0
74.168083 168.0
74.205803 112.0
74.272682 84.0
74.360184 180.0
74.423706 136.0
74.46492 192.0
74.495834 28.0
74.507858 136.0
74.540504 108.0
74.600662 212.0
74.690079 128.0
74.79332 180.0
74.955215 140.0
74.972443 60.0
75.013809 240.0
75.050018 156.0
75.072327 200.0
75.116516 228.0
75.172668 232.0
75.439323 184.0
75.452301 192.0
75.550758 176.0
75.580353 220.0
75.601059 76.0
75.646057 96.0
75.756889 212.0
75.893806 180.0
75.92849 212.0
75.97879 160.0
76.012291 220.0
76.069031 88.0
76.154114 168.0
76.21492 140.0
76.239243 156.0
76.308777 140.0
76.381813 104.0
76.404427 104.0
76.623795 120.0
76.672585 152.0
76.74231 180.0
76.789398 192.0
76.881927 204.0
76.935799 124.0
76.963905 212.0
76.986603 64.0
77.14386 160.0
77.178825 244.0
77.348526 152.0
77.381783 204.0
77.479866 148.0
77.581505 212.0
77.641121 196.0
77.684975 200.0
77.706024 132.0
77.721817 168.0
77.784996 136.0
77.816597 148.0
77.925491 48.0
77.953606 160.0
77.983482 164.0
78.018639 156.0
78.059082 224.0
78.096008 188.0
78.157585 172.0
78.179245 220.0
78.33786 128.0
78.437607 280.0
78.479919 172.0
78.591042 180.0
78.622803 56.0
78.696945 208.0
78.783485 176.0
78.80822 176.0
78.93119 112.0
79.023926 160.0
79.062851 100.0
79.154907 144.0
79.227524 180.0
79.257645 116.0
79.339172 160.0
79.365768 168.0
79.395355 216.0
79.438484 216.0
79.539635 152.0
79.553833 136.0
79.614204 160.0
79.637291 168.0
79.675545 184.0
79.733231 144.0
79.761673 124.0
79.774109 144.0
79.850571 196.0
79.884369 204.0
79.913376 172.0
79.971558 96.0
80.008942 176.0
80.078384 168.0
80.139778 176.0
80.174591 180.0
80.187065 212.0
80.206673 140.0
80.233414 148.0
80.249458 236.0
80.322578 156.0
80.381454 160.0
80.474274 228.0
80.534988 184.0
80.592155 160.0
80.676155 124.0
80.722641 192.0
80.747681 164.0
80.781662 164.0
80.821022 144.0
80.860397 236.0
80.89798 192.0
80.952827 216.0
80.958069 136.0
81.000053 228.0
81.176575 172.0
81.193626 168.0
81.207298 200.0
81.231293 144.0
81.249237 124.0
81.270767 196.0
81.40226 140.0
81.579674 176.0
81.660316 156.0
81.718155 232.0
81.79554 164.0
81.818939 156.0
81.860352 72.0
81.878365 188.0
81.923393 168.0
81.977448 128.0
82.071182 188.0
82.163651 164.0
82.177597 232.0
82.195641 124.0
82.303947 200.0
82.522575 132.0
82.587151 180.0
82.622559 212.0
82.634712 248.0
82.740738 192.0
82.803055 192.0
82.833847 416.0
82.893639 168.0
82.920822 60.0
82.937134 124.0
83.011467 160.0
83.07132 180.0
83.083588 108.0
83.097908 140.0
83.185356 128.0
83.194267 208.0
83.289146 156.0
83.352737 160.0
83.396355 144.0
83.572754 60.0
83.651009 48.0
83.672852 140.0
83.74205 184.0
83.778481 108.0
83.79422 256.0
83.834969 152.0
83.873238 156.0
83.986618 420.0
84.037369 156.0
84.06292 132.0
84.092117 104.0
84.117668 156.0
84.212624 196.0
84.393539 144.0
84.441086 244.0
84.485382 184.0
84.532555 180.0
84.592957 144.0
84.619881 232.0
84.640556 172.0
84.787109 148.0
84.832932 160.0
84.860428 144.0
84.904442 104.0
84.922783 152.0
84.974144 200.0
84.988823 176.0
85.078316 184.0
85.102623 204.0
85.17424 172.0
85.209145 244.0
85.251411 148.0
85.28817 192.0
85.302872 208.0
85.335968 188.0
85.370903 208.0
85.416885 144.0
85.461037 152.0
85.722511 244.0
85.750153 172.0
85.766739 120.0
85.914261 152.0
85.932716 160.0
86.043449 164.0
86.409386 240.0
86.433441 156.0
86.514877 156.0
86.613022 108.0
86.637108 136.0
86.653778 124.0
86.879669 176.0
86.957199 160.0
86.984871 240.0
87.039581 136.0
87.063721 180.0
87.086006 88.0
87.113541 180.0
87.206779 224.0
87.273705 204.0
87.375999 48.0
87.454338 164.0
87.601257 148.0
87.628372 224.0
87.672058 264.0
87.824944 128.0
88.039574 172.0
88.116158 236.0
88.180588 196.0
88.217079 72.0
88.252594 188.0
88.336754 88.0
88.400368 160.0
88.454651 116.0
88.493965 148.0
88.540779 104.0
88.560341 148.0
88.670044 192.0
88.711281 92.0
88.728157 216.0
88.758156 52.0
88.810669 220.0
88.893211 136.0
88.953278 136.0
88.985191 100.0
89.017479 184.0
89.054672 204.0
89.08564 160.0
89.158005 84.0
89.251991 128.0
89.373528 216.0
89.502548 176.0
89.614571 196.0
89.649048 164.0
89.724579 40.0
89.875465 208.0
89.899994 284.0
89.932083 184.0
90.049141 164.0
90.069916 196.0
90.277817 152.0
90.378075 160.0
90.410248 40.0
90.438637 180.0
90.461349 212.0
90.48217 176.0
90.516258 120.0
90.538979 204.0
90.573074 200.0
90.751213 192.0
90.777756 216.0
90.849831 188.0
90.865013 148.0
90.916245 288.0
90.929527 60.0
90.992172 164.0
91.020653 188.0
91.054123 1084.0
91.100418 228.0
91.146019 216.0
91.165024 52.0
91.195427 172.0
91.311302 144.0
91.377983 188.0
91.395111 140.0
91.417946 140.0
91.431267 72.0
91.461716 184.0
91.665054 188.0
91.694084 196.0
91.829453 124.0
91.880959 224.0
91.903854 132.0
92.014557 44.0
92.051849 256.0
92.069427 204.0
92.146332 192.0
92.215126 44.0
92.310715 148.0
92.343231 176.0
92.368095 152.0
92.526932 176.0
92.557564 228.0
92.603523 140.0
92.633125 212.0
92.680153 116.0
92.69548 188.0
92.71273 176.0
92.753242 176.0
92.774063 184.0
92.912148 120.0
92.942841 196.0
92.956131 156.0
92.977531 156.0
93.069595 2688.0
93.088089 144.0
93.117538 140.0
93.161713 140.0
93.184769 180.0
93.267403 220.0
93.304199 144.0
93.330849 156.0
93.488586 88.0
93.57328 204.0
93.613716 172.0
93.650307 188.0
93.666901 180.0
93.715805 80.0
93.763977 188.0
93.848801 200.0
93.916298 220.0
93.955139 176.0
94.001183 172.0
94.04171 164.0
94.073883 292.0
94.134377 48.0
94.198112 152.0
94.359001 112.0
94.478706 192.0
94.5326 136.0
94.631317 164.0
94.68145 184.0
94.710716 104.0
94.736511 372.0
94.763023 172.0
94.78627 60.0
94.822716 308.0
94.841423 140.0
94.869652 192.0
94.887062 120.0
94.900635 160.0
94.918472 140.0
94.939415 152.0
95.031731 156.0
95.038589 224.0
95.053551 172.0
95.057297 172.0
95.085968 21252.0
95.160622 56.0
95.205284 64.0
95.21888 240.0
95.275208 96.0
95.304352 80.0
95.391342 140.0
95.426804 100.0
95.477364 252.0
95.527031 216.0
95.557343 208.0
95.574623 48.0
95.784554 140.0
95.819954 168.0
95.927139 148.0
95.962227 136.0
96.032433 48.0
96.05584 80.0
96.087585 1884.0
96.11541 180.0
96.204147 192.0
96.22953 180.0
96.25296 168.0
96.283241 168.0
96.379921 180.0
96.405327 52.0
96.503059 232.0
96.536301 64.0
96.632149 108.0
96.650719 100.0
96.731956 60.0
96.745659 64.0
96.771111 88.0
96.863159 172.0
97.039536 76.0
97.06707 180.0
97.100731 3928.0
97.13134 196.0
97.151321 72.0
97.181 156.0
97.202332 68.0
97.251396 164.0
97.290657 80.0
97.304398 80.0
97.420265 52.0
97.518517 140.0
97.581421 72.0
97.656151 204.0
97.695488 152.0
97.752548 188.0
97.774193 120.0
97.811592 80.0
97.833244 156.0
97.884438 172.0
97.92382 228.0
97.96125 128.0
98.010506 176.0
98.065681 156.0
98.103355 208.0
98.160309 104.0
98.251045 212.0
98.278664 28.0
98.410904 152.0
98.474098 104.0
98.563141 164.0
98.598572 128.0
98.713226 168.0
98.774536 52.0
98.820038 148.0
98.863571 124.0
98.909096 184.0
98.966644 236.0
99.044128 1148.0
99.132896 64.0
99.228043 40.0
99.245476 136.0
99.279419 136.0
99.301414 212.0
99.352982 132.0
99.527641 180.0
99.715805 140.0
99.752144 112.0
99.787926 172.0
99.851562 44.0
99.869461 116.0
99.944588 196.0
99.958984 216.0
99.980873 220.0
100.020683 152.0
100.057159 168.0
100.08934 164.0
100.112495 24628.0
100.136612 160.0
100.144676 220.0
100.182976 80.0
100.209869 100.0
100.229797 108.0
100.251717 40.0
100.270599 84.0
100.284523 84.0
100.297554 228.0
100.340309 188.0
100.383286 52.0
100.4132 72.0
100.427979 212.0
100.465813 80.0
100.67543 152.0
100.799286 172.0
100.828468 32.0
100.88044 44.0
100.912422 132.0
101.018417 156.0
101.042427 80.0
101.115379 1212.0
101.154327 192.0
101.223305 76.0
101.258614 168.0
101.322899 208.0
101.340744 156.0
101.386307 136.0
101.43972 248.0
101.595367 176.0
101.669609 100.0
101.724075 144.0
101.888474 72.0
101.910576 76.0
101.928658 124.0
101.955574 132.0
102.061317 192.0
102.103149 160.0
102.118752 208.0
102.15786 144.0
102.197632 172.0
102.282623 188.0
102.345032 168.0
102.423576 92.0
102.443718 136.0
102.50013 44.0
102.640778 196.0
102.923729 176.0
102.937859 128.0
103.028755 152.0
103.09745 108.0
103.271324 144.0
103.323914 168.0
103.445343 92.0
103.576965 116.0
103.611397 48.0
103.672188 128.0
103.765427 148.0
103.820175 48.0
103.836052 164.0
103.904999 220.0
103.911453 180.0
103.915886 220.0
103.974358 140.0
104.051498 112.0
104.195694 144.0
104.2509 212.0
104.350151 152.0
104.368454 176.0
104.415222 160.0
104.443703 176.0
104.567818 136.0
104.590202 164.0
104.616669 116.0
104.665527 120.0
104.712372 164.0
104.973228 84.0
105.030327 128.0
105.069092 320.0
105.218071 88.0
105.23645 200.0
105.332436 184.0
105.350815 176.0
105.374413 124.0
105.391678 192.0
105.416199 176.0
105.493866 164.0
105.524536 204.0
105.655426 188.0
105.672699 160.0
105.744781 180.0
105.795738 220.0
105.813011 140.0
105.89492 196.0
105.909264 140.0
105.958427 232.0
106.058838 284.0
106.078651 180.0
106.151878 136.0
106.251602 240.0
106.311104 44.0
106.334534 212.0
106.35215 24.0
106.424004 52.0
106.456856 232.0
106.534904 120.0
106.598602 120.0
106.62326 180.0
106.70137 48.0
106.806252 232.0
106.82682 156.0
106.898834 168.0
106.923531 136.0
107.012039 136.0
107.032631 112.0
107.061462 120.0
107.085892 996.0
107.102539 368.0
107.139732 40.0
107.154152 148.0
107.275749 160.0
107.620285 96.0
107.667778 200.0
107.704956 72.0
107.797928 68.0
107.96331 172.0
108.000641 160.0
108.060532 108.0
108.088768 148.0
108.130882 48.0
108.166069 172.0
108.201263 180.0
108.242676 208.0
108.387619 152.0
108.445702 164.0
108.470352 112.0
108.509964 104.0
108.545685 176.0
108.576706 192.0
108.603279 232.0
108.648918 200.0
108.69249 144.0
108.726227 216.0
108.787628 180.0
108.823715 144.0
108.859558 196.0
108.883476 112.0
108.916702 184.0
108.958252 180.0
108.972794 168.0
108.996666 312.0
109.020584 184.0
109.039291 116.0
109.063721 1508.0
109.101952 68548.0
109.161461 136.0
109.183922 120.0
109.200134 92.0
109.229828 188.0
109.251381 92.0
109.274269 100.0
109.298195 184.0
109.315163 160.0
109.356033 96.0
109.383148 172.0
109.420586 176.0
109.4431 516.0
109.469002 100.0
109.507416 72.0
109.562294 68.0
109.58033 168.0
109.603249 48.0
109.626411 68.0
109.647011 48.0
109.665764 88.0
109.724136 120.0
109.751236 76.0
109.773308 56.0
109.78669 260.0
109.864517 64.0
109.903503 216.0
109.953751 52.0
109.974457 112.0
110.050514 176.0
110.080673 164.0
110.10466 5600.0
110.166565 68.0
110.20417 172.0
110.233421 216.0
110.268951 132.0
110.306549 216.0
110.321861 64.0
110.398575 68.0
110.427849 128.0
110.456375 88.0
110.46505 56.0
110.49688 52.0
110.561745 116.0
110.59639 80.0
110.626633 128.0
110.648071 100.0
110.666412 52.0
110.691536 112.0
110.705849 264.0
110.727142 76.0
110.769028 132.0
110.783173 128.0
110.813713 220.0
110.849648 96.0
110.879639 152.0
110.9291 152.0
110.993286 108.0
111.010056 76.0
111.028931 100.0
111.080673 684.0
111.10791 480.0
111.165291 164.0
111.19677 92.0
111.253448 184.0
111.398346 156.0
111.442467 76.0
111.48114 168.0
111.69474 116.0
111.738914 92.0
111.772583 212.0
111.847771 132.0
111.888344 92.0
111.962044 72.0
111.98748 152.0
112.048409 168.0
112.084671 228.0
112.101082 120.0
112.126373 208.0
112.149551 160.0
112.186836 64.0
112.212799 56.0
112.468056 52.0
112.544052 104.0
112.571503 172.0
112.588394 148.0
112.605293 188.0
112.655991 128.0
112.713036 188.0
112.990013 228.0
113.054688 284.0
113.098297 164.0
113.119102 36.0
113.244034 92.0
113.364792 180.0
113.501976 184.0
113.629837 40.0
113.685608 128.0
113.767784 164.0
113.842102 340.0
114.08094 196.0
114.207657 156.0
114.311905 112.0
114.387489 152.0
114.439613 124.0
114.495934 200.0
114.740746 264.0
114.893578 72.0
114.908516 184.0
115.088539 184.0
115.153999 176.0
115.371956 156.0
115.423271 108.0
115.453209 128.0
115.502396 136.0
115.65432 176.0
115.693459 212.0
115.827759 132.0
115.864182 136.0
115.954178 124.0
115.990616 200.0
116.082802 188.0
116.104118 392.0
116.157867 144.0
116.196487 208.0
116.310226 132.0
116.430458 180.0
116.454086 196.0
116.512085 168.0
116.621674 104.0
116.69046 48.0
116.832405 168.0
116.927086 136.0
117.10363 180.0
117.230743 48.0
117.254448 224.0
117.355759 68.0
117.370857 160.0
117.390259 108.0
117.407516 192.0
117.433395 140.0
117.717323 216.0
117.742027 232.0
117.936127 172.0
118.014305 180.0
118.040253 52.0
118.068359 216.0
118.089989 124.0
118.12233 5200.0
118.19117 52.0
118.265244 76.0
118.291222 256.0
118.329063 100.0
118.451462 80.0
118.5793 180.0
118.605904 88.0
118.676857 172.0
118.757088 112.0
118.785286 40.0
118.863396 56.0
119.085503 380.0
119.127945 576.0
119.454346 148.0
119.476105 92.0
119.500038 120.0
119.737305 168.0
119.82444 144.0
119.909424 200.0
119.994438 76.0
120.024963 56.0
120.044586 76.0
120.068573 180.0
120.092613 180.0
120.127472 196.0
120.581635 204.0
120.599121 64.0
120.675636 184.0
120.824356 48.0
120.841858 144.0
120.91626 216.0
121.03009 176.0
121.060753 184.0
121.099861 512.0
121.161507 116.0
121.242577 180.0
121.488159 168.0
121.663719 156.0
121.687874 140.0
121.716415 92.0
121.733978 156.0
121.856987 156.0
121.892143 96.0
121.927307 32.0
121.94928 172.0
121.98381 224.0
122.008301 184.0
122.076797 140.0
122.123955 192.0
122.239578 288.0
122.307808 176.0
122.483963 284.0
122.512596 28.0
122.552254 200.0
122.596329 228.0
122.618362 128.0
122.640793 92.0
122.792542 108.0
122.938148 248.0
123.052925 184.0
123.073578 192.0
123.11615 10592.0
123.278404 100.0
123.300331 104.0
123.448448 180.0
123.587807 60.0
123.63649 168.0
123.658615 116.0
123.754913 64.0
123.789238 48.0
123.811378 164.0
123.931 80.0
123.984184 188.0
124.098343 40.0
124.119629 588.0
124.212555 176.0
124.45002 76.0
124.470001 168.0
124.689056 132.0
124.818871 120.0
124.876686 220.0
124.938972 96.0
124.960106 112.0
125.01017 132.0
125.060722 1244.0
125.121468 164.0
125.14373 176.0
125.20385 76.0
125.470428 208.0
125.638504 168.0
125.709908 192.0
125.883041 212.0
125.904121 220.0
125.933159 228.0
126.067757 404.0
126.111008 160.0
126.275124 88.0
126.384735 68.0
126.47419 148.0
126.488892 156.0
126.545891 144.0
126.624268 92.0
126.731789 148.0
126.946983 52.0
126.978378 56.0
127.003052 152.0
127.069687 204.0
127.231941 108.0
127.265617 132.0
127.402618 136.0
127.434929 188.0
127.557678 188.0
127.600388 108.0
127.746056 176.0
127.818565 156.0
127.946854 192.0
127.989632 148.0
128.163071 184.0
128.208145 96.0
128.632172 128.0
128.715714 124.0
128.842194 40.0
128.952911 132.0
129.027512 216.0
129.088562 120.0
129.104385 164.0
129.136047 44.0
129.565125 124.0
129.611465 140.0
129.652252 160.0
129.717972 128.0
129.888046 184.0
129.917542 144.0
129.951569 228.0
130.010559 132.0
130.065033 100.0
130.112503 132.0
130.371658 152.0
130.55806 184.0
130.744614 220.0
130.803787 120.0
130.979065 136.0
131.061142 172.0
131.08429 176.0
131.145462 120.0
131.200165 136.0
131.343842 64.0
131.745605 112.0
131.859848 176.0
132.150269 72.0
132.278427 140.0
132.344818 160.0
132.438141 176.0
132.512024 128.0
132.551941 104.0
132.589935 156.0
132.686203 100.0
132.706833 52.0
132.750397 124.0
132.775635 192.0
132.819214 108.0
132.98671 248.0
133.034912 160.0
133.101288 1320.0
133.149719 108.0
133.319717 84.0
133.434647 88.0
133.608826 192.0
133.696884 132.0
134.030777 280.0
134.072266 128.0
134.102402 160.0
134.287689 192.0
134.323578 208.0
134.535889 128.0
135.092819 140.0
135.187683 144.0
135.24202 200.0
135.664825 120.0
135.780746 192.0
135.984924 160.0
136.082413 208.0
136.130234 196.0
136.393723 124.0
136.426254 140.0
136.48439 160.0
136.528564 184.0
136.791489 48.0
136.861328 76.0
136.926529 156.0
137.098938 196.0
137.135635 160.0
137.192169 96.0
137.208481 160.0
137.488388 156.0
137.621445 116.0
137.953201 124.0
138.233871 60.0
138.285187 160.0
138.40007 176.0
138.500763 100.0
138.552307 96.0
138.81012 136.0
138.826538 180.0
138.932098 184.0
139.075226 164.0
139.112961 172.0
139.159744 40.0
139.481598 128.0
139.664993 148.0
139.700287 180.0
139.760117 240.0
139.916794 96.0
139.935623 128.0
140.112259 208.0
140.165527 132.0
140.248947 156.0
140.497696 164.0
140.963806 160.0
141.039627 184.0
141.089767 516.0
141.31163 104.0
141.434692 72.0
141.733093 196.0
141.75441 136.0
141.782852 196.0
142.017563 132.0
142.485214 128.0
142.518478 112.0
142.581039 232.0
142.691986 152.0
142.789474 152.0
142.953629 144.0
143.010742 208.0
143.06311 112.0
143.175018 92.0
143.221024 128.0
143.244095 136.0
143.370377 192.0
143.568253 148.0
143.687515 148.0
143.868881 168.0
143.890381 172.0
144.130432 252.0
144.201828 232.0
144.301315 164.0
144.375549 84.0
144.949966 124.0
145.095886 200.0
145.350418 168.0
145.580872 120.0
145.700958 104.0
145.780258 104.0
145.929291 120.0
146.051926 192.0
146.162598 120.0
146.22757 76.0
146.311829 104.0
146.527084 244.0
146.680405 184.0
146.718964 44.0
146.759949 64.0
146.9505 184.0
146.977036 40.0
146.996338 228.0
147.119522 320.0
147.184631 96.0
147.307022 224.0
147.394775 168.0
147.416519 116.0
147.469696 152.0
147.672791 72.0
147.696976 172.0
147.865555 196.0
147.963165 48.0
148.026123 176.0
148.212631 124.0
148.25383 128.0
148.307159 200.0
148.462326 128.0
148.491425 44.0
148.53508 124.0
148.656387 132.0
148.697647 132.0
148.955017 228.0
149.025482 128.0
149.057068 196.0
149.129791 448.0
149.168869 144.0
149.25882 124.0
149.336639 168.0
149.446106 180.0
149.804001 132.0
149.842972 116.0
149.923386 144.0
149.952621 116.0
149.996506 192.0
150.057449 196.0
150.084274 140.0
150.113525 220.0
150.138992 164.0
150.169617 60.0
150.203766 168.0
150.5056 220.0
150.694473 192.0
151.134583 84.0
151.195755 104.0
151.283875 120.0
151.472427 144.0
151.56308 216.0
151.692963 144.0
151.805756 200.0
151.832733 132.0
151.884232 164.0
151.987274 136.0
152.58165 180.0
152.655411 104.0
152.693634 244.0
152.761185 68.0
152.940811 328.0
152.96138 164.0
152.994965 160.0
153.054047 200.0
153.090729 9620.0
153.159958 44.0
153.265884 92.0
153.428558 96.0
153.46553 212.0
153.500061 140.0
153.581436 132.0
153.677658 76.0
153.722076 188.0
153.773895 108.0
153.806915 168.0
153.841965 188.0
154.051544 244.0
154.09584 1628.0
154.154648 136.0
154.203644 168.0
154.285217 68.0
154.310806 132.0
154.329712 124.0
154.349503 76.0
154.389069 28.0
154.47374 120.0
154.517685 144.0
154.567169 168.0
154.586975 152.0
154.678543 144.0
154.73819 128.0
154.80069 112.0
154.825745 124.0
154.845993 108.0
154.85498 188.0
154.893982 136.0
154.931961 192.0
154.952148 220.0
154.966354 148.0
155.000092 164.0
155.035385 112.0
155.06308 300.0
155.10704 93844.0
155.186615 204.0
155.209549 104.0
155.233185 372.0
155.264786 112.0
155.286972 180.0
155.319412 108.0
155.355865 132.0
155.400085 132.0
155.41832 72.0
155.451828 92.0
155.484085 80.0
155.514496 344.0
155.551102 76.0
155.583374 120.0
155.615646 128.0
155.644058 60.0
155.677368 28.0
155.704025 92.0
155.727753 112.0
155.759262 96.0
155.806702 168.0
155.825867 204.0
155.848892 152.0
155.87645 64.0
155.930145 80.0
156.000717 76.0
156.024658 128.0
156.047958 32.0
156.109955 10572.0
156.166672 116.0
156.204636 40.0
156.230896 36.0
156.275269 88.0
156.302383 96.0
156.335098 120.0
156.37384 60.0
156.403702 128.0
156.43985 92.0
156.466888 104.0
156.494492 148.0
156.513245 128.0
156.535645 64.0
156.563049 168.0
156.580475 40.0
156.645233 184.0
156.714996 84.0
156.760925 248.0
156.788513 132.0
156.829132 96.0
156.88945 88.0
156.911896 124.0
156.934326 152.0
156.955841 140.0
157.01886 156.0
157.061523 136.0
157.113342 1232.0
157.14563 168.0
157.178528 164.0
157.194412 104.0
157.217545 172.0
157.248657 128.0
157.29657 160.0
157.334702 212.0
157.366547 88.0
157.403427 40.0
157.460968 104.0
157.495834 100.0
157.5383 40.0
157.573273 216.0
157.615753 176.0
157.705719 64.0
157.778976 52.0
157.851624 44.0
157.923248 40.0
157.978271 104.0
158.015808 56.0
158.118515 184.0
158.18248 100.0
158.22081 92.0
158.258575 116.0
158.321182 56.0
158.385284 128.0
158.531616 120.0
158.630646 96.0
158.677002 92.0
158.977997 56.0
159.040741 56.0
159.412445 88.0
159.726715 184.0
160.036255 160.0
160.177292 148.0
160.227676 164.0
160.37384 132.0
160.754654 112.0
160.860657 84.0
160.951553 52.0
161.469604 160.0
161.677048 124.0
161.732742 52.0
161.953018 92.0
162.110092 68.0
162.193741 160.0
162.457458 156.0
162.934738 124.0
163.183807 88.0
163.211777 52.0
163.267715 140.0
163.506866 132.0
163.539948 180.0
163.636688 52.0
163.769104 160.0
163.822601 216.0
163.921967 52.0
164.067245 96.0
164.148834 84.0
164.301865 152.0
164.462631 244.0
164.483047 176.0
164.559647 60.0
164.622879 336.0
164.694153 136.0
164.740967 112.0
164.774185 124.0
164.858505 304.0
164.981186 100.0
165.005524 172.0
165.030304 136.0
165.086014 216.0
165.107529 156.0
165.163788 40368.0
165.211838 152.0
165.263214 44.0
165.329865 284.0
165.380966 56.0
165.418625 48.0
165.462158 48.0
165.584824 44.0
165.664474 44.0
165.684967 60.0
165.702896 56.0
165.728516 96.0
165.82077 36.0
165.846405 116.0
165.889984 48.0
166.110504 92.0
166.138336 156.0
166.166077 3648.0
166.194443 192.0
166.234238 92.0
166.305527 80.0
166.322006 76.0
166.389084 80.0
166.426178 76.0
166.521194 68.0
166.67276 56.0
166.701782 136.0
166.785843 204.0
166.821823 108.0
166.839828 156.0
167.009537 68.0
167.125305 76.0
167.170609 308.0
167.197357 56.0
167.287445 108.0
167.320923 68.0
167.354385 140.0
167.434219 56.0
167.542404 120.0
167.748566 76.0
167.782074 156.0
168.065781 36.0
168.132874 88.0
168.243866 28.0
168.504715 32.0
168.556381 108.0
168.595154 76.0
168.636505 76.0
168.701126 216.0
168.832993 64.0
168.882126 108.0
168.970078 84.0
169.047699 84.0
169.177124 144.0
169.576019 116.0
169.910538 236.0
169.960938 140.0
170.307709 68.0
170.523361 80.0
171.13208 188.0
171.577591 160.0
171.9767 104.0
172.66124 80.0
172.998764 144.0
173.129684 320.0
173.806 96.0
174.005478 96.0
174.131531 104.0
174.433685 136.0
174.607224 180.0
174.704544 184.0
174.904541 220.0
174.970352 100.0
175.094116 156.0
175.148041 5368.0
175.212646 236.0
175.310135 176.0
175.415573 76.0
175.724121 56.0
175.858704 112.0
176.150803 768.0
176.201996 236.0
176.365829 152.0
176.423981 56.0
176.913391 52.0
177.043137 48.0
177.159683 324.0
177.312531 140.0
177.398178 80.0
177.692566 192.0
177.833206 96.0
177.944702 132.0
178.090744 112.0
178.170441 164.0
178.859192 128.0
179.258682 240.0
179.285324 124.0
179.503922 144.0
179.645279 76.0
179.738663 60.0
180.112427 160.0
181.311081 56.0
181.47995 228.0
181.573807 76.0
181.624771 156.0
181.67038 216.0
182.086426 100.0
182.360474 176.0
182.392731 160.0
182.672379 76.0
182.9711 248.0
183.05188 164.0
183.070724 216.0
183.520721 160.0
183.868134 148.0
183.946991 108.0
184.225128 128.0
184.69548 128.0
184.746872 88.0
187.132462 160.0
188.08934 188.0
188.714951 156.0
189.065079 76.0
189.303253 96.0
192.330261 256.0
192.360626 104.0
192.797028 192.0
192.984985 208.0
193.059647 84.0
193.120499 120.0
193.16066 1252.0
193.19519 216.0
193.236679 108.0
193.303085 84.0
194.165329 200.0
194.344955 236.0
195.409103 176.0
195.509277 76.0
195.534317 96.0
195.684647 180.0
196.306015 60.0
197.009369 64.0
197.272064 44.0
198.260086 140.0
198.34137 72.0
198.957367 136.0
199.076447 124.0
199.211258 132.0
199.683487 36.0
199.914185 180.0
200.564774 76.0
200.779053 188.0
201.100677 180.0
201.374557 132.0
201.750366 192.0
201.987671 92.0
202.350143 40.0
202.449249 164.0
202.610703 160.0
203.27417 184.0
204.501892 160.0
204.630005 192.0
205.11145 120.0
205.330994 60.0
205.44223 128.0
206.645004 44.0
208.207245 132.0
208.678513 180.0
209.334564 128.0
209.844574 68.0
210.014709 116.0
210.121445 236.0
210.147415 80.0
211.378326 128.0
211.404373 208.0
212.537384 108.0
212.746353 104.0
212.769577 84.0
213.048386 96.0
213.263412 48.0
215.419693 124.0
216.868118 120.0
217.129059 156.0
217.375488 208.0
219.983185 64.0
220.068802 128.0
220.662674 36.0
221.180374 164.0
221.443893 208.0
221.775742 172.0
222.832184 136.0
222.939148 64.0
223.566635 176.0
223.66188 132.0
223.685684 168.0
223.715454 208.0
223.894104 152.0
224.186066 68.0
224.824249 136.0
225.218353 124.0
225.397598 132.0
225.923813 52.0
226.270966 40.0
227.188034 200.0
227.230026 164.0
228.699509 140.0
228.780792 152.0
230.288498 144.0
232.30748 92.0
232.416702 56.0
232.501663 88.0
232.586639 76.0
233.118149 156.0
233.768906 216.0
234.262146 200.0
234.475433 180.0
235.039597 116.0
235.121994 156.0
235.268509 104.0
235.332626 112.0
235.473099 108.0
235.583054 56.0
235.949783 52.0
235.974243 80.0
236.0354 64.0
236.105728 148.0
236.197495 140.0
236.485107 108.0
236.653473 128.0
236.77182 180.0
236.784409 116.0
236.792007 152.0
236.964371 252.0
237.005722 252.0
237.043793 140.0
237.099457 332.0
237.110733 172.0
237.119659 200.0
237.184814 54496.0
237.245544 116.0
237.28157 56.0
237.313904 88.0
237.379242 140.0
237.406906 64.0
237.435959 52.0
237.47023 76.0
237.515961 92.0
237.573257 108.0
237.643829 68.0
237.672516 60.0
237.695023 20.0
237.7491 76.0
237.776901 108.0
237.836487 112.0
237.859116 136.0
237.911804 100.0
237.981476 32.0
238.026611 112.0
238.054794 44.0
238.187622 6136.0
238.235184 196.0
238.264893 60.0
238.294388 44.0
238.333359 72.0
238.480682 72.0
238.558792 108.0
238.604797 84.0
238.632462 88.0
238.653992 44.0
238.693954 88.0
238.721634 100.0
238.761612 36.0
238.81041 60.0
238.866196 120.0
238.915405 56.0
239.027359 96.0
239.108063 72.0
239.146194 108.0
239.191986 640.0
239.2724 44.0
239.337891 60.0
239.423935 76.0
239.477692 96.0
239.589615 76.0
239.7668 96.0
239.851089 152.0
239.894714 92.0
239.937683 132.0
239.99028 136.0
240.153732 88.0
240.190948 308.0
240.286377 172.0
240.425232 48.0
240.659836 44.0
240.712326 56.0
240.872925 172.0
240.977966 44.0
241.049026 96.0
241.101562 80.0
241.191193 112.0
241.639603 52.0
242.060547 80.0
243.074203 56.0
243.654816 40.0
246.140335 100.0
248.657288 64.0
249.156555 132.0
249.216248 48.0
249.461395 72.0
249.59343 92.0
250.273087 116.0
251.325851 88.0
252.425095 52.0
253.178253 92.0
254.757843 84.0
255.816803 120.0
256.339142 80.0
257.177887 152.0
257.829437 188.0
261.585388 96.0
262.690674 100.0
264.121887 176.0
268.385803 132.0
268.424927 116.0
269.296295 160.0
271.043243 140.0
271.685883 80.0
272.575653 160.0
273.621582 80.0
276.360992 60.0
278.409576 88.0
279.726227 84.0
282.001099 44.0
282.041199 136.0
284.228119 56.0
284.990295 76.0
285.979004 76.0
286.204559 52.0
287.755524 200.0
287.991913 104.0
293.090851 184.0
295.183319 148.0
300.648895 80.0
300.700653 168.0
302.480713 128.0
305.945221 148.0
307.227692 64.0
307.367249 100.0
308.876495 80.0
309.194916 160.0
309.22641 148.0
309.317413 132.0
309.341919 148.0
309.636017 84.0
309.744598 180.0
310.080963 140.0
310.161591 156.0
310.273376 8716.0
310.599915 84.0
310.666565 80.0
310.705139 64.0
311.05957 60.0
311.094696 76.0
311.194214 132.0
311.273102 2048.0
311.379089 56.0
311.407196 60.0
311.509064 72.0
311.663635 104.0
311.719879 64.0
312.152252 44.0
312.226074 140.0
312.275146 164.0
312.641205 92.0
312.880585 48.0
313.380676 92.0
313.412415 72.0
314.138672 108.0
314.205688 52.0
315.52655 76.0
316.103088 76.0
317.91748 56.0
319.879425 64.0
319.911469 68.0
320.036072 80.0
322.547638 64.0
324.613434 36.0
326.268646 112.0
327.452515 124.0
331.111115 68.0
332.227509 124.0
332.844513 152.0
333.760193 72.0
334.105713 96.0
336.430481 96.0
339.291656 100.0
340.873596 116.0
347.534943 80.0
349.868988 124.0
355.550598 44.0
356.955566 48.0
357.151154 60.0
358.89856 108.0
361.777496 72.0
379.23056 136.0
380.211792 56.0
381.338104 32.0
389.304199 52.0
394.319366 60.0
401.944244 108.0
402.782623 80.0
417.774994 48.0
421.039886 96.0
421.885712 68.0
422.110565 100.0
425.757782 112.0
432.291931 52.0
433.93222 60.0
434.695435 52.0
435.708527 104.0
437.10556 56.0
438.30896 40.0
441.121948 124.0
442.083954 64.0
444.090729 40.0
446.905334 176.0
457.754364 52.0
463.199829 96.0
466.297729 84.0
477.526093 124.0
481.348083 76.0
489.29303 80.0
492.512177 96.0
493.992981 68.0
497.897949 40.0
499.635925 112.0
513.960144 68.0
526.594299 76.0
530.089478 60.0
535.625732 100.0
543.754211 100.0
546.709961 84.0
548.946045 68.0
553.464661 92.0
560.505798 96.0
570.511414 92.0
591.509155 76.0
611.374634 152.0
619.467163 52.0
642.287292 84.0
659.245178 140.0
664.55011 32.0
668.867004 124.0
684.934875 136.0
701.725891 52.0
709.858276 92.0
716.0495 48.0
741.831238 200.0
746.511414 104.0
757.602417 140.0
758.599792 72.0
759.614258 108.0
770.039368 140.0
775.361755 188.0
785.983276 64.0
788.250366 120.0
798.200256 48.0
810.420776 128.0
812.007996 148.0
813.636597 188.0
814.346375 80.0
814.976929 96.0
818.811096 164.0
830.16095 68.0
832.812439 160.0
838.433594 168.0
843.94635 188.0
845.531372 172.0
847.245361 176.0
847.627747 136.0
851.973511 108.0
858.177612 176.0
858.894958 120.0
864.199463 180.0
871.728516 288.0
872.269226 160.0
874.392517 172.0
878.092468 256.0
883.065491 112.0
887.133423 140.0
887.246094 116.0
889.405334 188.0
890.260315 144.0
891.032471 212.0
893.583069 128.0
893.922241 96.0
894.315002 32.0
894.398315 168.0
895.970459 152.0
896.190918 132.0
901.214844 124.0
903.947449 68.0
906.061035 128.0
908.213135 156.0
908.969055 96.0
912.807495 248.0
912.861633 164.0
915.660034 224.0
918.52301 108.0
922.145874 148.0
923.929688 232.0
924.389526 260.0
925.703125 112.0
925.793945 204.0
926.781372 184.0
927.205566 184.0
927.278259 108.0
930.220093 148.0
930.602539 176.0
930.699707 220.0
933.087524 152.0
936.933838 208.0
938.268494 80.0
938.445312 144.0
940.141113 52.0
940.470703 164.0
940.775879 152.0
943.139893 176.0
944.778748 148.0
945.255981 76.0
945.623169 68.0
949.452332 120.0
950.519714 152.0
950.832703 204.0
950.875671 72.0
951.016846 220.0
951.170288 184.0
952.9021 200.0
953.64563 216.0
953.713257 232.0
954.426392 132.0
954.555481 164.0
957.472473 156.0
959.401123 72.0
962.393433 188.0
962.7948 256.0
966.151123 116.0
967.4198 140.0
970.145569 236.0
970.331543 164.0
973.700989 200.0
974.539612 172.0
975.515381 144.0
976.081116 216.0
977.182068 104.0
977.480713 152.0
978.140442 208.0
978.420593 180.0
978.912476 124.0
981.021362 152.0
981.741699 140.0
982.352905 236.0
984.187805 144.0
984.36261 112.0
985.343262 180.0
986.762024 148.0
989.884277 120.0
992.114807 136.0
993.444336 184.0
994.379272 176.0
997.721008 200.0
998.645386 44.0
998.821533 164.0
998.985046 124.0
999.607971 160.0
1000.388367 136.0
1002.662231 200.0
1008.569885 204.0
1011.030212 172.0
1011.213745 132.0
1011.542908 88.0
1011.941711 100.0
1012.055664 156.0
1013.651917 92.0
1015.217712 164.0
1016.676819 168.0
1017.806763 180.0
1019.401184 168.0
1020.901428 192.0
1022.383728 92.0
1023.561401 164.0
1023.835205 168.0
1024.115479 160.0
1024.612305 96.0
1024.911743 196.0
1025.733887 84.0
1026.754028 60.0
1027.041138 80.0
1028.821411 116.0
1029.070435 140.0
1029.811157 116.0
1030.354126 108.0
1030.494751 112.0
1030.820557 184.0
1031.005981 172.0
1031.140137 184.0
1032.041504 144.0
1032.322876 164.0
1032.994385 224.0
1033.359131 56.0
1033.845337 116.0
1036.272217 180.0
1037.848999 96.0
1037.977295 192.0
1038.984253 208.0
1041.193237 144.0
1042.078735 60.0
1042.342163 164.0
1044.103638 96.0
1044.824097 180.0
1045.609131 188.0
1046.47168 176.0
1046.729248 164.0
1046.948242 208.0
1047.353882 148.0
1047.656738 140.0
1047.766235 44.0
1047.998169 148.0
1048.391235 184.0
1049.693359 136.0
1051.151245 140.0
1051.402954 116.0
1052.46167 44.0
1054.68396 184.0
1055.854248 212.0
1056.397583 180.0
1056.682251 100.0
1056.856934 172.0
1057.219238 188.0
1058.358643 96.0
1058.436279 80.0
1059.446655 112.0
1059.932617 180.0
1060.003906 160.0
1060.360352 172.0
1063.187988 168.0
1063.746094 156.0
1064.733032 52.0
1064.908447 156.0
1065.811401 188.0
1066.318359 168.0
1067.299927 156.0
1067.397461 200.0
1068.750488 160.0
1070.019653 192.0
1070.950806 176.0
1071.367798 160.0
1071.4198 164.0
1071.602295 108.0
1073.375244 256.0
1074.490601 148.0
1074.620972 140.0
1074.823242 168.0
1075.345215 120.0
1076.298462 108.0
1077.61792 196.0
1079.618164 208.0
1080.193726 200.0
1080.468384 160.0
1081.090088 228.0
1081.338745 160.0
1082.307617 180.0
1082.399292 156.0
1083.244141 152.0
1083.565186 160.0
1083.971436 196.0
1084.036865 140.0
1084.272827 144.0
1084.456421 164.0
1087.453735 108.0
1089.174072 112.0
1089.449951 152.0
1089.594482 48.0
1090.304199 228.0
1091.033813 120.0
1091.789917 160.0
1092.677979 164.0
1094.310181 132.0
1094.534058 216.0
1094.883057 128.0
1095.937012 116.0
1097.512329 164.0
1098.01355 228.0
1098.250977 132.0
1098.580811 160.0
1099.834595 52.0
1100.092041 180.0
1100.283447 232.0
1100.507935 180.0
1100.79187 232.0
1100.897583 256.0
1101.102295 100.0
1101.359863 196.0
1102.63501 160.0
1102.905762 196.0
1103.057983 148.0
1104.85022 204.0
1105.055298 116.0
1105.266968 120.0
1105.855957 144.0
1106.484863 196.0
1107.345703 112.0
1108.770142 156.0
1109.55896 128.0
1109.658325 168.0
1110.639893 116.0
1110.706177 160.0
1110.918457 180.0
1111.840698 116.0
1113.035645 172.0
1113.812622 108.0
1113.958862 188.0
1114.151489 208.0
1114.27771 96.0
1114.550171 196.0
1114.882324 28.0
1115.567017 160.0
1115.67334 160.0
1116.085571 44.0
1116.245117 240.0
1117.775146 184.0
1120.098633 144.0
1120.171875 32.0
1121.291382 160.0
1122.151245 172.0
1122.264526 128.0
1122.638062 188.0
1124.058838 80.0
1124.505981 32.0
1125.514038 176.0
1126.322144 196.0
1126.970215 124.0
1127.865723 180.0
1129.363403 144.0
1129.483887 232.0
1130.380371 144.0
1131.799438 188.0
1132.033813 208.0
1132.167725 92.0
1133.112183 96.0
1133.239502 132.0
1133.856079 52.0
1134.358765 148.0
1134.593384 144.0
1135.27063 204.0
1135.639404 216.0
1137.887451 176.0
1138.47168 140.0
1139.317993 200.0
1139.820312 176.0
1141.206543 156.0
1142.470947 88.0
1143.338989 188.0
1143.863892 144.0
1144.281372 136.0
1144.429443 216.0
1145.304932 196.0
1145.938232 192.0
1147.528809 168.0
1147.697388 36.0
1148.169434 228.0
1148.236816 164.0
1148.59436 144.0
1148.675293 180.0
1148.796753 184.0
1149.491577 144.0
1149.579346 164.0
1150.031494 144.0
1150.125977 160.0
1150.355591 176.0
1150.942871 144.0
1151.071167 104.0
1151.23999 148.0
1151.874878 204.0
1152.624878 136.0
1153.280396 156.0
1153.571045 208.0
1154.619141 212.0
1155.633789 204.0
1155.769043 124.0
1155.999146 172.0
1156.384888 124.0
1156.493164 160.0
1157.393555 204.0
1157.827026 224.0
1158.125 124.0
1158.334961 176.0
1159.297119 160.0
1159.676636 128.0
1160.883423 164.0
1161.364868 156.0
1161.432739 132.0
1161.595581 144.0
1162.029663 176.0
1162.823608 204.0
1162.939087 100.0
1163.108765 256.0
1163.624634 164.0
1165.322632 120.0
1165.512939 140.0
1166.389648 152.0
1166.736328 232.0
1167.164673 148.0
1167.436646 160.0
1167.963135 116.0
1168.474731 204.0
1169.103394 32.0
1169.736328 32.0
1169.824829 208.0
1170.62146 52.0
1171.929321 140.0
1172.065552 236.0
1172.460815 136.0
1172.719727 168.0
1173.456055 236.0
1173.837891 112.0
1175.399902 76.0
1175.652466 168.0
1175.966431 112.0
1177.031372 128.0
1177.584473 168.0
1177.775757 36.0
1178.704956 84.0
1178.868896 64.0
1179.863037 164.0
1181.248291 200.0
1181.672363 176.0
1183.973877 196.0
1184.198364 160.0
1184.452637 156.0
1184.986206 68.0
1185.554932 152.0
1185.815308 104.0
1186.576172 152.0
1186.764648 224.0
1187.227661 152.0
1188.949585 184.0
1189.464355 192.0
1189.793823 96.0
1189.883057 152.0
1190.006714 112.0
1191.098633 156.0
1191.545166 100.0
1191.895874 212.0
1192.459106 160.0
1192.589722 216.0
1193.338989 148.0
1193.797729 144.0
1194.707642 188.0
1194.838379 172.0
1195.340576 176.0
1195.856812 144.0
1195.948853 272.0
1196.641479 104.0
1196.965088 156.0
1197.543579 64.0
1198.390991 176.0
1198.866455 32.0
1199.228394 152.0
1199.734863 180.0
1199.948608 96.0
1200.334717 124.0
1201.217529 120.0
1201.486572 140.0
1201.63147 200.0
1202.02478 80.0
1202.549316 108.0
1203.122192 152.0
1203.605469 108.0
1204.337524 196.0
1204.669067 156.0
1204.848755 164.0
1205.15271 40.0
1205.297852 228.0
1205.436035 192.0
1205.809204 120.0
1206.251587 220.0
1206.528076 148.0
1206.64563 192.0
1206.796387 196.0
1206.873779 192.0
1207.122681 96.0
1207.35791 160.0
1207.904297 148.0
1208.865967 140.0
1208.914429 240.0
1210.035767 168.0
1211.303101 172.0
1211.760254 140.0
1212.044434 144.0
1213.042358 192.0
1213.257324 208.0
1213.40979 132.0
1214.283569 36.0
1214.380615 92.0
1214.741333 212.0
1215.358765 184.0
1215.560059 148.0
1217.948242 124.0
1218.448486 188.0
1218.552734 168.0
1218.622192 152.0
1219.087769 176.0
1220.171997 196.0
1220.248535 152.0
1220.686523 112.0
1221.608643 240.0
1221.952515 124.0
1222.307373 180.0
1222.731812 84.0
1224.932129 160.0
1225.919556 220.0
1227.657349 232.0
1228.38269 128.0
1228.857056 168.0
1229.017578 108.0
1229.338501 196.0
1230.364624 112.0
1231.370117 188.0
1231.600586 252.0
1231.663452 132.0
1231.865234 172.0
1232.355103 48.0
1233.291504 208.0
1233.473267 164.0
1233.564087 180.0
1233.655029 76.0
1233.864746 216.0
1234.046509 132.0
1234.878662 144.0
1235.081543 220.0
1235.459229 128.0
1235.634155 64.0
1236.263916 168.0
1236.382935 128.0
1236.977783 176.0
1238.203125 220.0
1238.700439 76.0
1238.826538 136.0
1238.980713 160.0
1240.263062 184.0
1240.39624 164.0
1240.459351 204.0
1240.683716 112.0
1240.943115 92.0
1242.486084 244.0
1242.981445 164.0
1243.047363 116.0
1243.625366 212.0
1243.819336 72.0
1244.09314 224.0
1244.640747 200.0
1244.84436 128.0
1245.420288 248.0
1245.617676 168.0
1245.687256 200.0
1246.200073 160.0
1246.417969 76.0
1247.254272 144.0
1247.479126 156.0
1248.069702 152.0
1248.351074 152.0
1248.674561 100.0
1249.870483 148.0
1250.243408 164.0
1250.820557 60.0
1251.207764 148.0
1251.538696 148.0
1252.278076 112.0
1253.130493 176.0
1253.694214 148.0
1256.239502 172.0
1256.296021 144.0
1256.571045 124.0
1256.69104 116.0
1257.7052 208.0
1258.37085 192.0
1258.568604 104.0
1258.63916 64.0
1258.831543 164.0
1259.232422 136.0
1259.614014 204.0
1259.748047 212.0
1259.797485 220.0
1260.044678 136.0
1260.207275 156.0
1261.380371 320.0
1261.620728 252.0
1261.882324 148.0
1262.27832 204.0
1262.497437 160.0
1262.617676 48.0
1262.731445 164.0
1262.836914 216.0
1263.898071 152.0
1264.442993 184.0
1264.846436 192.0
1264.959717 204.0
1265.143799 140.0
1265.232422 168.0
1265.455322 140.0
1265.688965 136.0
1265.802246 104.0
1266.177612 140.0
1267.94165 200.0
1268.055054 112.0
1268.359863 176.0
1268.905762 188.0
1269.050293 228.0
1269.45874 120.0
1269.93396 144.0
1270.153809 72.0
1270.728516 120.0
1270.834839 168.0
1271.210938 224.0
1271.416748 192.0
1271.601318 176.0
1271.828369 172.0
1272.666138 172.0
1272.71582 72.0
1272.836548 144.0
1273.177368 156.0
1273.454346 200.0
1273.532471 148.0
1273.838013 168.0
1274.718994 164.0
1276.410767 176.0
1276.616943 176.0
1276.759277 276.0
1276.972534 172.0
1277.114868 172.0
1277.207275 232.0
1277.335327 108.0
1278.11084 92.0
1278.409668 124.0
1279.043091 116.0
1280.210815 192.0
1280.652344 192.0
1281.165161 144.0
1282.269653 160.0
1282.690186 120.0
1283.80957 156.0
1284.244629 136.0
1284.365845 184.0
1284.422974 184.0
1284.729736 172.0
1284.986572 56.0
1285.785767 156.0
1285.942749 56.0
1286.670898 208.0
1286.906494 200.0
1287.620605 176.0
1288.03479 220.0
1289.036499 176.0
1289.192261 204.0
1289.599609 152.0
1289.814087 44.0
1290.378906 152.0
1290.520874 276.0
1290.879395 156.0
1291.916504 192.0
1292.052368 204.0
1292.199707 244.0
1292.369141 208.0
1292.451416 152.0
1292.739258 156.0
1293.472046 124.0
1293.57666 48.0
1293.655396 156.0
1294.256836 156.0
1294.435913 172.0
1294.665039 196.0
1294.829712 136.0
1294.894165 124.0
1295.782471 208.0
1296.069092 204.0
1297.287476 164.0
1297.39502 92.0
1297.717651 148.0
1298.248291 180.0
1298.649902 48.0
1298.778931 144.0
1298.929565 52.0
1299.381592 168.0
1299.941284 128.0
1300.292847 224.0
1301.491699 180.0
1302.05188 148.0
1302.260132 132.0
1302.418091 160.0
1302.597778 204.0
1303.129395 140.0
1303.488647 148.0
1303.596436 148.0
1303.80481 136.0
1304.351074 132.0
1304.55957 200.0
1305.034058 160.0
1305.458252 148.0
1306.429321 152.0
1306.594727 180.0
1306.695435 156.0
1306.85376 168.0
1307.033691 160.0
1308.105957 144.0
1309.33728 84.0
1309.682983 208.0
1309.827026 164.0
1309.927856 48.0
1310.338501 240.0
1310.475464 80.0
1310.922119 152.0
1311.354614 96.0
1311.563599 116.0
1312.118652 236.0
1312.175903 172.0
1314.152588 188.0
1314.239136 148.0
1314.751465 208.0
1315.466064 232.0
1316.686279 164.0
1316.838013 140.0
1317.618164 120.0
1318.087769 172.0
1318.326294 196.0
1318.962891 44.0
1319.193604 164.0
1319.417725 196.0
1320.646973 52.0
1320.892944 152.0
1321.167847 144.0
1321.696045 148.0
1322.007202 196.0
1322.260498 160.0
1323.809692 192.0
1323.903809 32.0
1323.998047 212.0
1325.743896 156.0
1326.46875 88.0
1326.545532 160.0
1326.896484 80.0
1328.020386 188.0
1328.586304 132.0
1329.154419 132.0
1329.34082 236.0
1329.406128 160.0
1329.538086 176.0
1330.916016 176.0
1331.366211 116.0
1332.477661 116.0
1333.204224 240.0
1333.814697 168.0
1333.99646 188.0
1334.381836 132.0
1334.847168 204.0
1335.188965 72.0
1335.807251 100.0
1336.112793 92.0
1336.447388 128.0
1336.60022 192.0
1337.383667 160.0
1337.415039 104.0
1337.432251 156.0
1337.738037 232.0
1337.881226 128.0
1338.201538 124.0
1338.296143 208.0
1338.696655 188.0
1338.878784 196.0
1338.929688 204.0
1339.111816 112.0
1339.61438 40.0
1339.789185 172.0
1339.978638 116.0
1340.095215 120.0
1341.188354 172.0
1341.39978 64.0
1341.589233 52.0
1341.917358 136.0
1341.990234 160.0
1342.157959 176.0
1342.639282 216.0
1342.777832 172.0
1343.098755 152.0
1344.733154 148.0
1344.930176 180.0
1345.029419 208.0
1345.426636 164.0
1345.514282 140.0
1346.039917 108.0
1346.229858 184.0
1346.310425 180.0
1346.419678 148.0
1347.719971 60.0
1348.874634 180.0
1349.01355 420.0
1349.276733 132.0
1349.415649 172.0
1350.76123 140.0
1351.266113 100.0
1351.624634 144.0
1351.924561 128.0
1351.983154 120.0
1352.039795 180.0
1352.64917 196.0
1353.271484 152.0
1353.469238 144.0
1353.930542 160.0
1354.846069 144.0
1356.670898 112.0
1357.030151 188.0
1357.433472 148.0
1358.056885 168.0
1359.215942 92.0
1359.39209 80.0
1359.531494 148.0
1359.803101 208.0
1360.610474 96.0
1360.940918 204.0
1361.271362 144.0
1361.924927 76.0
1362.182007 180.0
1362.402466 80.0
1362.541992 140.0
1362.659546 208.0
1362.835938 224.0
1363.225342 168.0
1363.563477 184.0
1364.026489 52.0
1364.394043 92.0
1364.849854 180.0
1365.202881 164.0
1365.511719 92.0
1365.850952 204.0
1366.114868 172.0
1366.181152 140.0
1366.806519 256.0
1367.351074 196.0
1367.763306 112.0
1367.822144 180.0
1368.204956 300.0
1368.322754 152.0
1368.584229 148.0
1368.815308 208.0
1369.309448 208.0
1369.987183 172.0
1370.289673 132.0
1370.471802 132.0
1370.908203 152.0
1371.556763 52.0
1372.109619 192.0
1372.176025 152.0
1372.389771 172.0
1372.515137 152.0
1372.617676 172.0
1372.97229 136.0
1373.687744 208.0
1373.946045 104.0
1374.248535 192.0
1374.897827 132.0
1375.886963 204.0
1375.98291 180.0
1376.256104 148.0
1376.492432 220.0
1376.625366 172.0
1376.699219 124.0
1376.781006 152.0
1377.462769 196.0
1377.607666 204.0
1378.110107 172.0
1378.390869 200.0
1378.619873 184.0
1378.738159 192.0
1379.662109 96.0
1379.772949 92.0
1380.342285 244.0
1380.623291 160.0
1380.815674 220.0
1381.555298 184.0
1381.703247 60.0
1381.784668 128.0
1382.095459 140.0
1383.25 56.0
1383.360962 28.0
1384.116211 132.0
1384.464233 156.0
1384.753052 168.0
1384.893799 180.0
1385.004883 168.0
1386.803955 180.0
1387.650513 180.0
1388.132446 64.0
1388.25354 100.0
1388.480957 96.0
1388.599731 56.0
1389.207886 176.0
1389.712402 228.0
1389.779175 36.0
1390.697144 200.0
1390.981445 144.0
1391.218994 252.0
1391.352661 124.0
1392.013428 184.0
1392.080322 160.0
1392.265991 156.0
1392.518433 260.0
1392.607544 136.0
1393.558472 192.0
1394.83667 192.0
1394.918457 172.0
1395.022583 180.0
1395.208374 164.0
1395.42395 144.0
1395.654541 156.0
1396.227051 148.0
1397.194092 132.0
1397.283325 132.0
1397.39502 212.0
1397.573486 192.0
1398.17627 136.0
1398.25769 144.0
1398.734497 184.0
1399.233276 188.0
1399.464111 228.0
1400.178955 232.0
1400.402466 144.0
1400.596069 180.0
1401.296387 132.0
1401.445312 168.0
1401.564575 180.0
1401.825317 84.0
1402.682495 196.0
1403.211792 176.0
1404.956909 128.0
1405.509033 148.0
1406.184448 192.0
1406.643433 200.0
1407.27063 188.0
1408.36084 156.0
1408.637329 120.0
1408.891235 72.0
1408.973389 88.0
1409.06311 228.0
1409.15271 176.0
1409.324585 144.0
1409.45166 104.0
1409.687134 200.0
1409.967285 112.0
1410.340942 244.0
1411.223145 168.0
1411.731567 160.0
1412.150391 152.0
1412.247681 184.0
1412.344849 136.0
1412.501953 240.0
1412.569214 156.0
1413.482056 152.0
1414.627197 184.0
1415.60791 176.0
1416.536743 200.0
1416.731445 200.0
1417.001221 196.0
1419.039795 168.0
1419.519653 224.0
1419.962158 356.0
1420.209595 192.0
1420.427124 156.0
1420.577148 148.0
1420.629761 144.0
1420.914795 204.0
1421.038452 152.0
1421.462524 104.0
1421.537598 172.0
1421.665161 192.0
1421.996216 148.0
1422.100464 176.0
1422.445679 48.0
1423.444214 136.0
1423.962402 184.0
1424.127686 120.0
1425.547607 180.0
1425.713013 160.0
1425.945923 160.0
1426.043701 184.0
1426.291626 172.0
1426.34436 204.0
1426.825439 136.0
1427.517212 248.0
1427.675049 128.0
1428.126343 176.0
1428.336914 80.0
1428.676392 196.0
1428.804199 224.0
1429.578369 172.0
1429.67627 52.0
1431.535645 176.0
1431.701294 188.0
1431.994995 208.0
1432.537354 84.0
1432.635254 172.0
1432.71814 100.0
1432.929077 160.0
1433.305908 64.0
1433.479126 124.0
1433.871094 140.0
1434.067017 132.0
1434.54187 232.0
1434.609741 116.0
1434.75293 124.0
1435.424072 164.0
1436.653442 88.0
1437.626831 180.0
1437.936157 164.0
1438.162598 156.0
1438.389038 136.0
1438.608032 208.0
1438.683472 168.0
1439.057739 212.0
1439.136475 64.0
1439.717896 152.0
1439.845215 172.0
1440.276855 32.0
1440.903809 136.0
1441.024658 160.0
1441.243774 164.0
1441.984375 180.0
1442.082642 120.0
1442.498413 168.0
1442.906616 184.0
1443.027588 120.0
1443.088135 204.0
1443.234741 216.0
1443.458618 256.0
1444.239502 80.0
1445.069702 144.0
1445.175659 192.0
1445.425293 136.0
1445.720459 132.0
1446.795288 116.0
1446.916382 212.0
1447.393433 136.0
1447.473511 216.0
1447.560059 120.0
1447.946289 176.0
1448.279541 184.0
1448.33252 96.0
1448.467041 168.0
1448.590698 204.0
1448.711304 56.0
1448.938599 108.0
1449.491699 212.0
1449.544678 140.0
1450.666382 100.0
1450.772583 164.0
1452.072754 160.0
1452.243652 176.0
1452.380127 208.0
1453.138794 188.0
1453.848999 248.0
1454.565552 140.0
1454.747681 120.0
1455.013428 144.0
1455.081665 116.0
1455.658813 172.0
1457.75 180.0
1458.65979 48.0
1459.777466 384.0
1460.644531 168.0
1460.910767 240.0
1461.245483 236.0
1461.641113 68.0
1461.831421 228.0
1462.196655 164.0
1462.280396 132.0
1462.58374 204.0
1462.927368 172.0
1463.216675 92.0
1463.52124 236.0
1463.841064 204.0
1464.145752 224.0
1464.320923 224.0
1464.396973 76.0
1465.036865 104.0
1465.158813 144.0
1465.497559 192.0
1466.195068 156.0
1466.406372 156.0
1466.461792 140.0
1466.629517 172.0
1466.842896 92.0
1466.980103 212.0
1467.590088 160.0
1468.360229 200.0
1469.130615 148.0
1469.237427 144.0
1469.449097 200.0
1469.512085 212.0
1470.137817 128.0
1470.252319 200.0
1470.313354 208.0
1470.702637 176.0
1470.794189 180.0
1471.443115 212.0
1471.565308 204.0
1471.710327 144.0
1472.687866 156.0
1472.869141 168.0
1473.841431 84.0
1474.154663 228.0
1474.651489 200.0
1474.773682 200.0
1474.918701 124.0
1475.010742 120.0
1475.224121 144.0
1475.538208 128.0
1475.966309 124.0
1476.195801 128.0
1477.571411 220.0
1477.889404 164.0
1477.98645 204.0
1480.052368 160.0
1480.649658 212.0
1481.254761 136.0
1481.645508 32.0
1481.867676 184.0
1483.791382 164.0
1483.882446 164.0
1484.067383 224.0
1484.991821 204.0
1485.294434 200.0
1485.606689 200.0
1485.754761 220.0
1486.3302 164.0
1486.845337 148.0
1487.013184 228.0
1487.235718 136.0
1487.895386 172.0
1488.233765 192.0
1488.425781 148.0
1488.797363 180.0
1488.947876 252.0
1489.116943 188.0
1490.000244 136.0
1490.077148 160.0
1490.530396 256.0
1490.707153 160.0
1491.060669 140.0
1491.813965 132.0
1492.182983 152.0
1492.990356 148.0
1493.747437 132.0
1493.90564 168.0
1494.351929 212.0
1494.490356 136.0
1494.648804 220.0
1494.744263 204.0
1495.021362 36.0
1495.275269 52.0
1495.606323 164.0
1496.183594 120.0
1496.357178 160.0
1496.483887 168.0
1497.369507 92.0
1498.84082 224.0
1498.925659 212.0
1499.526733 216.0
1499.696289 196.0
1499.97168 172.0
1500.220459 180.0
1500.806396 160.0
1501.639282 176.0
1502.08667 240.0
1502.487793 164.0
1502.927612 160.0
1503.09729 136.0
1503.286133 176.0
1503.390503 208.0
1503.591187 56.0
1504.20874 156.0
1504.880371 172.0
1505.050171 192.0
1505.27417 160.0
