>compound MLS002207187-01!TEMEPHOS3383-96-8
>formula C16H20O6P2S3
>ionization [M+H]+
>parentmass 466.9970010720905
#inchi InChI=1S/C16H20O6P2S3/c1-17-23(25,18-2)21-13-5-9-15(10-6-13)27-16-11-7-14(8-12-16)22-24(26,19-3)20-4/h5-12H,1-4H3
#inchikey WWJZWCUNLNYYAU
#Ion_Source LC-ESI
#Instrument qTof
#Compound_Source NIH Pharmacologically Active Library
#PI Dorrestein
#Data_Collector VP/LMS
#Scan -1
#Precursor_MZ 467.0
#ExactMass 465.99
#Charge 1
#CAS_Number N/A
#Pubmed_ID N/A
#Smiles COP(=S)(OC)Oc1ccc(Sc2ccc(OP(=S)(OC)OC)cc2)cc1
#INCHI_AUX N/A
#Library_Class 1
#SpectrumID CCMSLIB00000085758
#IonMode Positive
#UpdateWorkflowName UPDATE-SINGLE-ANNOTATED-GOLD
#LibraryQualityString Gold
#TaskID d252d724072548979f1f6f1ced849daf
##Scan# 2783
#SpectrumFile p4-F02_GF2_01_18386.mzXML
#LibraryName Pharm_Active_Library.mgf
#MQScore -1
#Organism Pharm_Active_Library
#TIC_Query 0
#RT_Query -1
#MZErrorPPM -1
#SharedPeaks 0
#MassDiff 0
#LibMZ -1
#SpecMZ 467
#SpecCharge 0
#internalFilename spec-00000.mgf

>collision 10
45.436275 188.0
45.479218 200.0
45.702309 160.0
45.729225 72.0
46.050121 236.0
46.105518 128.0
46.231289 124.0
46.429089 112.0
46.698006 64.0
46.714329 140.0
46.740181 184.0
47.182106 128.0
47.202614 160.0
47.290173 200.0
47.593147 116.0
47.64809 116.0
47.731934 88.0
47.866791 248.0
47.948071 156.0
48.001701 200.0
48.044598 208.0
48.121887 192.0
48.331985 184.0
48.585537 204.0
49.400532 180.0
49.469105 184.0
49.544273 184.0
49.558739 104.0
49.918091 188.0
49.954659 172.0
50.225124 236.0
50.308384 52.0
50.36628 132.0
50.421387 116.0
50.717205 220.0
51.225925 144.0
51.272945 176.0
51.790169 168.0
51.944981 136.0
51.973675 252.0
52.079914 188.0
52.212147 72.0
52.357506 176.0
52.396397 180.0
52.495857 216.0
52.567986 164.0
52.673386 180.0
52.716728 120.0
52.738407 136.0
52.761539 152.0
52.84687 176.0
52.865685 152.0
52.89463 112.0
52.962688 212.0
53.145359 136.0
53.283291 188.0
53.335609 156.0
53.736553 96.0
53.995083 192.0
54.059029 200.0
54.218658 236.0
54.352108 228.0
54.587139 148.0
54.660694 76.0
55.225193 188.0
55.701565 156.0
55.948429 116.0
55.984165 148.0
56.382263 152.0
56.448277 176.0
56.669815 148.0
56.725269 144.0
56.861767 44.0
56.950352 228.0
57.007442 176.0
57.023975 172.0
57.278267 136.0
57.560303 152.0
57.623741 216.0
57.770393 48.0
57.800652 208.0
58.339092 168.0
58.355816 156.0
58.404678 124.0
58.59325 136.0
58.629822 184.0
58.829639 200.0
59.152199 72.0
59.302311 72.0
59.512482 88.0
59.578526 88.0
59.605976 120.0
59.752254 128.0
59.787647 160.0
59.824589 200.0
59.912373 204.0
60.009468 56.0
60.126709 180.0
60.355343 200.0
60.425171 164.0
60.458988 224.0
60.674297 112.0
60.758049 172.0
60.858932 168.0
60.987877 208.0
61.053181 144.0
61.470684 212.0
61.565914 156.0
61.704987 196.0
61.894314 124.0
61.966366 172.0
62.168644 144.0
62.248707 128.0
62.276978 184.0
62.742779 76.0
62.758545 184.0
62.777466 180.0
62.935268 176.0
63.148613 224.0
63.175503 96.0
63.297375 140.0
63.35915 212.0
63.444729 64.0
63.536716 268.0
64.056564 176.0
64.417091 104.0
64.552948 176.0
64.833107 112.0
64.850731 172.0
65.192589 124.0
65.274574 44.0
65.379143 224.0
65.880608 116.0
65.895149 128.0
65.980812 176.0
66.013145 188.0
66.121544 120.0
66.275383 116.0
66.871391 192.0
67.004921 168.0
67.029366 248.0
67.140221 80.0
67.506035 48.0
68.073044 188.0
68.317947 220.0
68.433159 188.0
68.653969 32.0
68.668808 120.0
68.772758 112.0
68.800819 112.0
68.903221 212.0
69.096657 156.0
69.235703 84.0
69.298653 172.0
69.338425 224.0
69.65036 180.0
69.750061 144.0
69.834862 120.0
69.972984 156.0
70.061256 88.0
70.076248 168.0
70.677353 168.0
70.75769 188.0
71.120697 104.0
71.133224 272.0
71.207108 144.0
71.254143 276.0
71.344894 132.0
71.393654 168.0
71.700066 216.0
71.838333 176.0
71.907516 136.0
72.345322 112.0
72.660545 144.0
72.740311 128.0
72.852386 148.0
73.024071 156.0
73.170418 92.0
73.495972 160.0
73.543755 48.0
73.856445 168.0
73.991638 172.0
74.013901 140.0
74.087547 112.0
74.262398 160.0
74.56974 236.0
74.664299 80.0
74.690102 132.0
74.764084 272.0
74.975914 164.0
75.12075 132.0
75.184593 140.0
75.372826 152.0
75.488647 136.0
75.58033 84.0
75.614944 120.0
75.673798 136.0
75.971901 84.0
76.289703 116.0
76.644768 184.0
76.66568 164.0
76.819115 44.0
76.995407 184.0
77.427399 128.0
77.639458 176.0
77.820198 196.0
78.078522 212.0
78.148888 108.0
78.203438 200.0
78.294991 92.0
78.317894 100.0
78.337265 132.0
78.436813 204.0
78.492371 140.0
78.585854 76.0
78.698822 192.0
78.898468 148.0
79.009888 104.0
79.119621 184.0
79.220566 212.0
79.383629 132.0
80.048256 104.0
80.256744 160.0
80.271004 108.0
80.683464 188.0
80.830132 128.0
81.209946 252.0
81.270935 132.0
81.491791 140.0
81.763329 168.0
82.251785 200.0
82.408905 192.0
82.835869 156.0
83.000801 152.0
83.46566 216.0
83.837021 160.0
83.864365 212.0
83.94458 184.0
84.075935 152.0
84.437675 156.0
84.492554 148.0
84.802025 168.0
85.590164 124.0
85.61042 192.0
85.960678 184.0
86.036354 96.0
86.134232 200.0
86.39119 224.0
86.430038 184.0
86.442993 172.0
86.496666 156.0
86.591103 148.0
86.693001 128.0
86.824959 156.0
87.186653 136.0
87.236839 152.0
87.665352 180.0
87.761871 164.0
87.814087 96.0
87.959625 172.0
88.292213 144.0
88.580467 108.0
88.756638 148.0
88.81665 168.0
89.093796 152.0
89.619415 160.0
89.932472 200.0
89.953232 168.0
90.009872 124.0
90.106201 36.0
90.376579 48.0
90.46743 120.0
90.613258 180.0
90.666313 128.0
90.829376 188.0
91.26239 144.0
91.40181 176.0
91.528778 196.0
92.209839 64.0
92.408722 68.0
92.816704 180.0
92.947144 136.0
92.970177 152.0
93.007706 312.0
93.07 168.0
93.181396 200.0
93.793373 152.0
93.912926 108.0
93.93029 212.0
93.947647 124.0
94.003601 156.0
94.420898 128.0
94.511818 176.0
94.556328 200.0
94.593102 96.0
94.618271 228.0
94.813911 176.0
94.846863 160.0
94.96788 132.0
95.003944 192.0
95.042747 176.0
95.06797 144.0
95.083672 400.0
95.467934 168.0
95.904411 64.0
95.92617 176.0
95.962769 124.0
96.002884 212.0
96.029076 164.0
96.042732 128.0
96.109062 208.0
96.914658 124.0
97.0401 220.0
97.112663 184.0
97.161705 168.0
97.479797 140.0
97.713928 160.0
97.739365 52.0
97.948051 144.0
98.084023 176.0
98.707909 76.0
98.929512 100.0
99.097855 136.0
99.395287 120.0
99.431007 116.0
99.832314 232.0
100.162712 136.0
100.342072 160.0
100.543541 184.0
100.905098 88.0
101.023094 172.0
101.152962 152.0
101.195213 176.0
101.21524 208.0
101.349442 188.0
101.891182 164.0
101.96553 184.0
102.027847 172.0
102.089592 2116.0
102.172646 108.0
102.268311 156.0
102.307487 152.0
102.436371 160.0
102.54921 52.0
102.956764 156.0
103.098183 236.0
103.16893 128.0
103.243744 188.0
103.363098 212.0
103.610123 92.0
103.790512 152.0
103.851349 112.0
103.944672 136.0
104.01368 112.0
104.31839 208.0
104.662231 176.0
104.929146 96.0
105.010719 68.0
105.06987 148.0
105.233154 148.0
105.310753 244.0
105.377602 168.0
105.531815 116.0
105.856819 224.0
105.901871 168.0
106.016609 124.0
106.04335 160.0
107.047882 108.0
107.204445 152.0
107.354942 52.0
107.466331 212.0
107.534431 184.0
107.571587 160.0
107.637657 140.0
107.730598 172.0
107.991539 172.0
108.004906 132.0
108.055504 176.0
108.336746 108.0
108.846977 108.0
109.004295 2192.0
109.079674 140.0
109.099945 224.0
109.191956 60.0
109.252281 108.0
109.362572 200.0
109.470833 40.0
109.877296 132.0
110.012184 312.0
110.038002 172.0
110.075584 204.0
110.111595 148.0
110.46434 204.0
110.533386 48.0
110.585701 120.0
110.64222 176.0
110.67572 156.0
110.778351 148.0
110.895691 164.0
110.962776 148.0
111.025681 176.0
111.130569 120.0
111.227104 160.0
111.250198 44.0
111.376198 212.0
111.617889 188.0
111.77565 132.0
112.199013 152.0
112.245399 100.0
113.014282 124.0
113.091927 192.0
113.173035 208.0
113.202682 232.0
113.722107 212.0
113.795021 92.0
113.866486 120.0
114.107811 156.0
114.227829 128.0
114.858368 172.0
115.052559 148.0
115.184959 204.0
115.749596 188.0
115.775291 176.0
115.863113 184.0
115.916679 144.0
116.058159 160.0
116.073166 112.0
116.521774 176.0
116.594833 204.0
116.83136 88.0
116.855026 228.0
117.419418 172.0
117.531601 144.0
117.870613 232.0
118.114922 168.0
118.177666 104.0
118.339996 68.0
118.357323 48.0
118.467781 180.0
118.524109 176.0
118.684517 212.0
118.986107 152.0
119.009995 152.0
119.085999 208.0
119.309822 140.0
119.391861 216.0
119.551262 64.0
119.710182 172.0
119.906258 64.0
119.954208 116.0
120.04142 36.0
120.311981 84.0
120.44519 144.0
120.552254 240.0
120.569733 164.0
120.834328 136.0
121.007744 272.0
121.086067 76.0
121.506943 356.0
121.68911 160.0
121.794525 64.0
122.017654 164.0
122.09124 140.0
122.106636 44.0
122.163826 160.0
122.370705 212.0
122.445137 96.0
122.988136 156.0
123.022392 176.0
123.116096 508.0
123.332558 148.0
123.367928 180.0
123.403305 128.0
123.502823 176.0
123.905716 116.0
123.945602 108.0
123.987709 204.0
124.00322 132.0
124.032455 192.0
124.105194 164.0
124.295959 108.0
124.45134 164.0
124.566826 232.0
124.675697 120.0
124.746826 132.0
124.795738 156.0
124.86245 128.0
124.887917 240.0
124.926956 140.0
124.945786 424.0
124.981773 32800.0
125.035988 196.0
125.057968 76.0
125.100433 84.0
125.147293 48.0
125.174019 60.0
125.231918 36.0
125.25045 300.0
125.276474 88.0
125.292068 60.0
125.316574 44.0
125.346786 76.0
125.45253 28.0
125.481506 92.0
125.541718 44.0
125.584091 112.0
125.615318 88.0
125.673325 188.0
125.830093 84.0
125.92112 56.0
125.954628 112.0
125.983627 852.0
126.028351 224.0
126.106567 216.0
126.334656 76.0
126.45459 120.0
126.599266 160.0
126.625648 80.0
126.720215 148.0
126.916977 60.0
126.956078 240.0
126.977921 1848.0
127.014435 1436.0
127.100113 236.0
127.125595 48.0
127.145798 72.0
127.217621 72.0
127.258034 44.0
127.350113 116.0
127.391716 92.0
127.493904 84.0
127.532112 136.0
127.550095 172.0
127.595055 148.0
127.966286 84.0
127.989037 196.0
128.063095 332.0
128.104721 176.0
128.825562 156.0
128.9216 72.0
128.979233 196.0
129.069656 492.0
129.189529 176.0
129.517776 188.0
129.615189 124.0
129.658249 68.0
129.744385 220.0
129.796539 116.0
129.86911 172.0
130.105118 180.0
130.16188 160.0
131.048981 140.0
131.126465 68.0
131.194839 176.0
131.226761 152.0
132.243347 120.0
132.781219 212.0
133.440826 156.0
134.073853 144.0
134.322876 80.0
134.417465 156.0
134.509796 148.0
134.595215 136.0
134.692215 88.0
135.110641 108.0
135.323578 140.0
135.423157 180.0
135.930878 64.0
136.046921 216.0
136.077103 48.0
137.005081 168.0
137.044693 312.0
137.113571 272.0
138.04863 336.0
138.223892 220.0
138.369888 212.0
138.441605 172.0
138.467361 240.0
138.868149 116.0
138.919754 112.0
138.945557 136.0
138.966675 104.0
138.985443 140.0
139.021408 696.0
139.054413 840.0
139.116882 216.0
139.38298 172.0
139.976059 304.0
139.999603 168.0
140.022171 256.0
140.056152 168.0
140.092834 84.0
140.405685 128.0
140.517197 220.0
140.602158 176.0
140.647003 184.0
140.852432 200.0
140.958054 1376.0
141.010742 176.0
141.061676 168.0
141.259018 124.0
141.285049 32.0
141.351303 180.0
141.682785 144.0
141.96669 160.0
142.335052 48.0
142.577362 132.0
142.593994 92.0
142.705719 76.0
142.791336 128.0
142.905518 68.0
142.953888 336.0
142.991837 7552.0
143.188797 88.0
143.995941 188.0
144.052277 180.0
144.202805 156.0
144.511292 140.0
144.733902 180.0
144.993271 332.0
145.042953 112.0
145.063431 168.0
145.246979 48.0
145.335556 124.0
145.443542 172.0
145.683685 36.0
145.7005 48.0
145.844681 108.0
145.895172 92.0
146.015396 208.0
146.065903 192.0
146.166962 120.0
146.790863 180.0
146.82222 180.0
146.96936 132.0
147.018448 252.0
147.256653 76.0
147.295288 80.0
147.626419 172.0
147.740097 120.0
148.006332 244.0
148.680267 184.0
148.840485 116.0
148.891479 212.0
149.00322 120.0
149.026611 120.0
149.29248 72.0
149.316803 156.0
149.418152 132.0
149.769516 172.0
149.87915 48.0
150.003448 96.0
150.135117 72.0
150.320511 152.0
150.684341 176.0
150.706329 172.0
150.813858 168.0
151.019257 140.0
151.051239 200.0
151.144012 196.0
151.161148 208.0
151.462296 192.0
151.535782 48.0
151.690186 208.0
152.057693 544.0
152.252075 108.0
152.365067 200.0
152.583801 40.0
152.981293 168.0
153.013 284.0
153.068527 176.0
153.122711 144.0
153.337051 92.0
153.855072 128.0
154.013107 144.0
154.341812 228.0
154.391266 108.0
154.559479 40.0
154.710464 140.0
154.968658 136.0
154.996384 2684.0
155.025879 216.0
155.045471 296.0
155.090576 144.0
155.198547 240.0
155.362244 88.0
155.521072 64.0
155.714737 128.0
155.911011 152.0
155.974579 352.0
156.003174 360.0
156.050735 224.0
156.724747 160.0
156.9552 220.0
157.004074 724.0
157.067688 216.0
157.148621 92.0
157.240952 152.0
157.263412 248.0
157.748016 88.0
157.973083 148.0
158.013351 124.0
158.295959 60.0
158.466293 48.0
158.538956 80.0
158.737 148.0
158.874954 60.0
158.950226 72.0
159.025513 428.0
159.490189 132.0
159.656143 148.0
160.03389 176.0
160.293045 108.0
160.434189 80.0
160.999512 180.0
161.035858 296.0
161.100433 80.0
161.188873 124.0
161.633926 192.0
161.80098 212.0
162.044113 148.0
162.43454 136.0
162.532806 184.0
162.69339 124.0
162.944824 104.0
163.09729 136.0
163.43808 156.0
163.499161 196.0
165.07576 388.0
165.185745 60.0
166.013046 172.0
166.077393 176.0
166.449295 160.0
166.780716 92.0
167.055862 208.0
167.189667 104.0
167.207672 132.0
167.323517 188.0
167.898148 196.0
168.054413 212.0
168.590027 108.0
168.985062 184.0
169.006363 108.0
169.029648 132.0
169.063293 304.0
169.200485 140.0
169.84317 196.0
170.019592 124.0
170.115631 76.0
170.17276 164.0
170.523453 184.0
170.812073 252.0
170.965591 476.0
170.991608 160.0
171.02478 5008.0
171.100937 136.0
171.969055 304.0
172.030853 1792.0
172.078644 152.0
172.541092 96.0
172.974319 160.0
173.031754 224.0
173.108887 168.0
173.454742 216.0
173.538635 136.0
173.56485 108.0
173.824539 112.0
173.968903 120.0
174.030365 344.0
174.063431 112.0
175.020248 188.0
176.247147 108.0
176.646362 264.0
177.117554 72.0
177.308319 196.0
177.385193 48.0
177.679565 172.0
177.71405 144.0
178.075089 68.0
178.378006 184.0
178.580093 136.0
179.765671 228.0
180.056656 152.0
180.30513 152.0
181.008713 40.0
181.06488 192.0
181.075073 184.0
181.084457 256.0
181.44278 100.0
182.069992 172.0
182.662003 128.0
182.858429 72.0
182.914963 72.0
183.024246 1112.0
183.661362 144.0
183.985199 220.0
184.033508 1756.0
184.171707 124.0
184.639114 160.0
184.84201 172.0
184.942154 164.0
184.977402 328.0
185.001709 124.0
185.037537 1700.0
185.131668 148.0
185.16687 204.0
185.459503 180.0
185.480316 188.0
185.624878 152.0
185.708954 140.0
185.945007 192.0
185.998718 172.0
186.042435 328.0
186.050018 308.0
186.059265 332.0
186.316101 204.0
186.393097 160.0
186.480072 140.0
186.575211 164.0
186.626862 132.0
186.667648 168.0
186.749237 108.0
186.94397 664.0
186.976776 160.0
187.018356 1512.0
187.056305 156.0
187.871552 108.0
188.023758 596.0
188.570587 28.0
188.96196 208.0
189.030273 440.0
189.095734 148.0
189.2901 128.0
189.31749 196.0
189.753174 96.0
190.038422 100.0
190.900955 132.0
190.993256 164.0
191.110016 204.0
191.143036 40.0
192.352966 100.0
192.410934 184.0
193.140503 124.0
193.904694 52.0
194.109848 56.0
194.190277 168.0
194.862076 120.0
195.023254 192.0
196.019608 144.0
196.05304 152.0
196.306732 132.0
196.350677 164.0
196.37645 80.0
196.404343 188.0
196.543839 92.0
197.041687 756.0
197.311935 140.0
197.384644 100.0
197.555252 68.0
197.807114 288.0
198.008545 132.0
198.051987 160.0
198.504761 88.0
198.816147 140.0
198.936844 136.0
199.020569 900.0
199.070099 148.0
199.833389 64.0
199.889664 144.0
200.027817 2776.0
200.067398 156.0
200.236786 80.0
200.266922 100.0
200.345795 88.0
200.458496 104.0
200.551498 152.0
200.590973 128.0
200.667084 112.0
200.870148 80.0
200.978531 340.0
201.034485 1360.0
201.214432 28.0
201.27655 40.0
201.440369 108.0
201.853012 240.0
201.929382 40.0
201.982452 868.0
202.03334 340.0
202.359512 36.0
202.441635 32.0
202.855301 52.0
202.969238 352.0
202.99501 568.0
203.049164 152.0
203.082153 104.0
203.482285 132.0
203.502151 68.0
203.627106 196.0
203.92543 188.0
204.003098 592.0
204.05336 228.0
204.542679 76.0
204.964188 260.0
205.013153 168.0
205.052536 144.0
205.577286 76.0
205.597275 72.0
206.02153 156.0
206.455826 132.0
206.634552 136.0
206.826279 188.0
207.019455 104.0
207.169922 256.0
207.479431 120.0
208.481201 136.0
208.633545 84.0
209.03334 112.0
209.456573 120.0
209.600632 144.0
209.629456 120.0
209.868698 132.0
209.92926 88.0
210.004242 32.0
210.033096 144.0
210.099442 124.0
210.261032 148.0
210.627716 148.0
210.853088 152.0
210.931137 208.0
211.033081 160.0
211.064133 156.0
211.550201 168.0
211.900635 44.0
211.955688 104.0
212.01944 160.0
212.15567 112.0
212.62558 152.0
212.805557 76.0
212.988525 208.0
213.035583 436.0
213.238403 128.0
213.465164 48.0
213.63678 204.0
213.674591 140.0
213.86084 192.0
213.948166 164.0
213.986633 344.0
214.04512 440.0
214.452118 96.0
214.472519 92.0
214.49585 52.0
214.621216 144.0
214.694107 172.0
214.939163 36.0
215.011414 2328.0
215.05098 876.0
215.090927 44.0
215.207153 64.0
215.236893 84.0
215.47934 52.0
215.593292 180.0
215.85054 80.0
215.879791 76.0
215.900269 128.0
216.008881 940.0
216.062195 120.0
216.567566 76.0
216.693542 144.0
216.75499 140.0
216.952255 132.0
216.983047 288.0
217.024918 2260.0
217.08403 184.0
217.262314 68.0
217.385559 184.0
217.602768 52.0
217.96405 156.0
218.005051 276.0
218.028381 720.0
218.572739 176.0
218.613937 128.0
218.722839 84.0
218.796432 280.0
218.960968 244.0
218.983978 128.0
219.025696 840.0
219.070328 148.0
219.568466 128.0
219.704163 164.0
219.8517 188.0
220.013947 136.0
220.043564 232.0
220.143951 200.0
220.452911 100.0
220.480743 116.0
220.785263 176.0
220.962967 160.0
221.025009 168.0
221.383072 216.0
222.035065 140.0
222.061752 136.0
222.907867 144.0
223.333008 180.0
224.253067 112.0
224.745132 164.0
225.646164 60.0
226.991592 168.0
227.024582 104.0
227.051575 104.0
227.993866 152.0
228.022141 132.0
228.045364 84.0
228.300919 76.0
228.683014 124.0
229.024261 480.0
229.140747 240.0
229.424042 148.0
229.982498 184.0
230.021408 412.0
230.278015 132.0
230.565033 148.0
230.821991 56.0
230.86528 192.0
230.994766 1108.0
231.042816 472.0
231.112381 124.0
231.175934 32.0
231.49379 180.0
231.717941 160.0
231.965302 148.0
232.001068 932.0
232.024826 840.0
232.139267 128.0
232.257553 88.0
232.315201 52.0
232.489807 44.0
232.618668 188.0
232.71582 176.0
232.828171 72.0
232.976501 712.0
233.007172 1156.0
233.034531 228.0
233.10463 212.0
233.128937 76.0
233.195801 80.0
233.390366 140.0
233.779739 56.0
233.957275 316.0
233.988342 484.0
234.018524 356.0
234.309555 92.0
234.41925 84.0
234.5625 92.0
234.583832 208.0
234.855225 96.0
234.93454 108.0
234.989731 112.0
235.053726 128.0
235.322144 148.0
235.606186 132.0
235.80481 112.0
235.878159 228.0
236.031036 152.0
236.272659 48.0
236.486877 104.0
236.551147 48.0
236.581772 108.0
236.963989 180.0
237.068787 44.0
238.188675 204.0
238.431396 148.0
238.680405 140.0
239.714722 96.0
240.115494 216.0
240.470306 236.0
241.183807 196.0
241.567261 208.0
242.186356 72.0
243.007874 108.0
243.045105 160.0
243.336884 176.0
243.905396 136.0
243.959946 160.0
243.972229 88.0
243.981491 116.0
244.235001 204.0
244.574158 48.0
244.636414 124.0
244.989624 284.0
245.04129 68.0
245.306198 44.0
245.599319 144.0
245.898849 92.0
245.985916 252.0
246.033081 176.0
246.242294 76.0
246.975815 264.0
246.997391 584.0
247.023575 924.0
247.052383 200.0
247.183304 40.0
247.671707 92.0
247.756287 56.0
247.989517 312.0
248.028564 1372.0
248.89769 176.0
248.90715 160.0
248.977753 2080.0
249.021103 576.0
249.259216 168.0
249.581787 148.0
249.774826 40.0
249.84404 88.0
249.981262 244.0
250.020477 220.0
250.218552 72.0
250.451599 68.0
250.883316 60.0
250.979721 604.0
251.094574 40.0
251.732071 164.0
251.779449 156.0
251.956345 100.0
251.99527 208.0
252.180695 160.0
252.250244 172.0
252.405167 64.0
252.493713 120.0
252.636047 128.0
253.189987 204.0
253.316681 268.0
254.671158 104.0
257.224915 88.0
257.525085 92.0
258.442566 144.0
258.964386 132.0
258.997925 120.0
259.01886 172.0
259.634247 148.0
259.849182 128.0
260.102692 128.0
260.867249 200.0
260.973572 532.0
261.027435 116.0
261.076233 52.0
261.288544 120.0
261.401154 112.0
261.903412 76.0
261.979462 1236.0
262.014343 188.0
262.049255 156.0
262.631866 36.0
262.689941 128.0
262.735107 40.0
262.989288 1860.0
263.051361 176.0
263.115936 48.0
263.144989 32.0
263.174042 116.0
263.283844 104.0
263.329071 88.0
263.380737 80.0
263.487335 64.0
263.526123 128.0
264.015411 2076.0
264.218018 80.0
264.353912 88.0
264.930267 124.0
265.003998 784.0
265.059845 144.0
265.283508 88.0
265.721313 112.0
265.9935 276.0
265.998962 124.0
266.256927 224.0
266.575317 92.0
266.969757 180.0
267.004425 204.0
267.049957 176.0
267.362305 148.0
267.391602 96.0
267.554352 124.0
268.033142 48.0
268.267822 128.0
268.430847 136.0
268.998566 332.0
269.812012 148.0
269.988586 168.0
270.119415 52.0
270.377899 36.0
272.706573 152.0
272.759155 52.0
273.966888 148.0
273.999847 216.0
274.438202 220.0
274.929718 136.0
274.986389 136.0
275.131073 52.0
275.857849 120.0
275.999237 132.0
276.19516 144.0
277.004578 344.0
277.652496 208.0
277.732117 172.0
277.974304 660.0
278.009918 448.0
278.914215 108.0
278.985382 1344.0
279.339844 192.0
279.612701 184.0
279.892334 100.0
279.945618 200.0
279.990173 644.0
280.019501 456.0
280.185455 52.0
280.702087 240.0
280.912201 176.0
280.978485 548.0
281.050262 372.0
281.272614 68.0
282.001434 160.0
282.047119 176.0
282.76001 72.0
282.860413 136.0
282.975769 160.0
283.033997 104.0
285.006866 44.0
285.618744 156.0
286.096588 148.0
286.645599 176.0
287.323334 80.0
287.903931 112.0
287.995117 124.0
289.354553 152.0
290.740967 140.0
290.832611 116.0
290.934448 76.0
290.968384 196.0
291.019318 140.0
291.043091 88.0
291.420105 208.0
292.045654 184.0
292.164703 136.0
292.321228 168.0
292.505005 96.0
292.938995 188.0
292.996002 788.0
293.043091 104.0
293.09079 40.0
293.475983 44.0
293.952698 292.0
293.995911 684.0
294.042267 268.0
294.243652 36.0
294.701324 136.0
294.773102 124.0
294.96109 740.0
295.0 236.0
295.012817 240.0
295.063629 208.0
295.350891 56.0
295.446686 92.0
295.549316 72.0
295.908722 124.0
295.955841 164.0
295.968048 160.0
295.98822 324.0
296.292297 200.0
296.926453 96.0
296.95047 144.0
296.997437 592.0
297.753601 92.0
297.880676 44.0
297.908173 72.0
297.994354 368.0
298.609406 108.0
298.990875 164.0
299.118652 80.0
300.001831 116.0
301.166901 72.0
301.21524 88.0
301.277435 176.0
301.540039 248.0
303.308777 172.0
304.144745 164.0
304.485016 144.0
305.63916 172.0
305.792297 136.0
306.168304 148.0
307.845764 108.0
307.960999 32.0
308.016052 100.0
308.04483 152.0
308.149658 144.0
308.974487 240.0
309.001221 136.0
309.025726 356.0
309.53479 128.0
309.622345 80.0
309.836029 64.0
309.899078 136.0
309.923615 164.0
309.983795 1624.0
310.037262 352.0
310.081299 68.0
310.298645 168.0
310.652863 56.0
310.761627 80.0
310.912506 44.0
310.951355 136.0
310.981689 512.0
310.994995 400.0
311.005035 236.0
311.231964 136.0
311.290863 6768.0
311.34787 80.0
311.456726 68.0
311.651978 96.0
311.889923 100.0
311.941681 92.0
311.982361 300.0
312.020844 680.0
312.149109 148.0
312.198334 44.0
312.297546 1144.0
312.336426 200.0
312.398834 40.0
312.472717 76.0
312.539551 56.0
312.588837 68.0
312.655701 48.0
312.930267 216.0
312.961945 100.0
313.006226 708.0
313.092255 56.0
313.290466 72.0
313.317688 36.0
313.529114 48.0
313.765289 44.0
313.969788 104.0
314.000885 304.0
314.010345 160.0
314.074768 204.0
314.12146 36.0
314.287292 180.0
314.368439 76.0
314.689667 56.0
314.774414 100.0
314.837982 68.0
315.027588 272.0
315.03421 300.0
315.131165 36.0
315.855896 72.0
315.979736 36.0
316.028473 200.0
317.013672 164.0
318.624603 168.0
318.663696 68.0
318.827148 44.0
321.141388 44.0
321.458923 196.0
322.966614 164.0
323.567841 44.0
323.94928 140.0
324.002563 296.0
324.177917 148.0
324.216187 160.0
324.67865 184.0
324.944702 48.0
325.010834 876.0
325.532776 60.0
325.877625 44.0
325.965118 632.0
326.020294 768.0
326.197479 148.0
326.301727 180.0
326.413208 52.0
326.477936 144.0
326.959229 148.0
326.988312 472.0
327.024445 156.0
327.143585 80.0
327.373718 48.0
327.945374 264.0
327.995941 548.0
328.032501 96.0
328.045715 164.0
328.317322 632.0
328.397583 92.0
328.596008 196.0
328.99762 204.0
329.198792 84.0
329.314362 312.0
329.341034 240.0
329.985779 132.0
330.312012 124.0
330.503754 68.0
331.017792 176.0
331.079346 100.0
332.235626 156.0
332.464233 72.0
334.776367 92.0
337.0271 180.0
337.293884 44.0
337.769257 48.0
338.965057 228.0
339.022369 140.0
339.146057 32.0
339.179047 204.0
339.600739 56.0
339.91626 216.0
339.971283 88.0
340.000641 116.0
340.039276 180.0
340.709351 156.0
340.86734 112.0
340.896729 212.0
340.926147 76.0
341.003937 8896.0
341.106232 56.0
341.154022 116.0
341.184204 164.0
341.216522 96.0
341.29007 44.0
341.334198 68.0
341.423248 56.0
341.455536 48.0
341.576935 44.0
341.628418 28.0
341.705688 56.0
341.948853 160.0
342.011719 3308.0
342.292297 108.0
342.417328 76.0
342.456665 120.0
342.536316 124.0
342.76474 128.0
343.007294 1304.0
343.086792 48.0
343.190033 52.0
343.249023 76.0
343.37442 60.0
343.437134 96.0
343.625275 100.0
343.702759 68.0
343.84668 160.0
343.890961 136.0
343.963928 172.0
344.008118 488.0
344.071838 224.0
344.18631 52.0
344.965881 116.0
345.017853 144.0
345.110077 60.0
345.150726 28.0
345.431824 76.0
345.662994 108.0
346.000092 144.0
346.149841 112.0
347.551025 140.0
348.531311 120.0
348.894196 184.0
349.096344 80.0
351.029083 72.0
351.230469 68.0
351.670776 148.0
352.320526 72.0
353.543243 120.0
354.32959 160.0
354.929291 84.0
354.95929 128.0
355.017059 200.0
355.210602 128.0
355.967865 152.0
356.029388 1052.0
356.152771 52.0
356.24292 56.0
356.366913 52.0
356.925934 284.0
356.979431 1108.0
357.035858 1844.0
357.126312 48.0
357.981964 920.0
358.037109 416.0
358.248047 76.0
358.988953 172.0
359.039124 120.0
359.122589 76.0
359.62442 64.0
359.703705 100.0
359.971771 116.0
360.323029 64.0
360.984528 76.0
361.343872 160.0
361.461151 156.0
362.938477 36.0
365.182892 52.0
365.616638 56.0
366.004913 92.0
368.224426 160.0
368.350006 4616.0
368.434509 104.0
368.611603 80.0
368.763153 124.0
368.908386 56.0
369.275482 84.0
369.306091 128.0
369.352173 1240.0
369.489716 56.0
369.585358 60.0
370.079132 60.0
370.262939 76.0
370.353485 320.0
370.995667 228.0
371.366089 156.0
371.381165 128.0
371.58316 128.0
371.838715 56.0
371.967865 184.0
371.982635 136.0
371.995331 124.0
372.954254 148.0
373.007294 308.0
374.476257 84.0
374.510925 100.0
374.595673 172.0
374.97406 120.0
375.131317 128.0
375.759949 36.0
376.319611 96.0
376.949219 216.0
378.221649 68.0
378.895477 72.0
379.178345 52.0
379.748291 192.0
385.397064 72.0
386.871552 64.0
386.966766 316.0
387.173065 172.0
387.917542 184.0
387.971344 968.0
388.035156 212.0
388.917816 140.0
388.964447 164.0
389.964172 232.0
390.505219 72.0
390.960327 100.0
391.138702 128.0
391.524567 88.0
391.780609 220.0
393.255402 116.0
394.368164 176.0
395.364655 124.0
395.788635 160.0
397.490051 48.0
399.150513 112.0
400.969818 152.0
401.559906 144.0
401.759338 80.0
401.982788 144.0
402.943726 116.0
402.980957 408.0
403.966888 352.0
404.988983 192.0
405.992523 200.0
406.484741 40.0
406.994507 104.0
410.688995 40.0
412.142365 164.0
412.324188 124.0
412.371948 152.0
412.413544 196.0
412.930664 80.0
413.37973 204.0
416.046783 156.0
418.738708 148.0
418.990326 2892.0
419.117554 176.0
419.504761 64.0
419.94632 428.0
419.99295 780.0
420.279663 40.0
420.981628 552.0
421.149231 48.0
421.827576 112.0
421.978607 292.0
422.528595 96.0
422.813324 52.0
422.932007 140.0
423.398773 40.0
423.665009 152.0
423.985931 152.0
425.022156 72.0
426.081451 116.0
432.187805 152.0
434.006195 192.0
434.134766 112.0
434.65329 140.0
434.966675 672.0
435.051758 112.0
435.1763 136.0
435.903229 88.0
435.97229 316.0
436.244049 124.0
436.302246 84.0
436.505981 64.0
436.797119 40.0
437.002472 352.0
437.987396 292.0
438.013611 104.0
439.313263 172.0
439.551086 56.0
439.584442 116.0
439.73053 88.0
441.163269 84.0
441.209259 88.0
445.744446 80.0
446.31192 28.0
447.287964 68.0
449.129395 88.0
449.943848 80.0
451.410065 72.0
460.970734 104.0
465.932556 180.0
465.963715 112.0
466.014191 80.0
466.968567 52.0
467.325623 176.0
467.893738 72.0
468.441711 720.0
469.350067 100.0
469.442322 564.0
469.522552 48.0
470.34668 104.0
470.447906 112.0
470.586578 64.0
470.648895 84.0
471.365936 156.0
471.547455 44.0
471.638214 76.0
473.109009 68.0
473.191284 112.0
476.922089 88.0
481.160767 44.0
486.142029 116.0
488.022125 48.0
488.756683 48.0
493.471863 116.0
495.685059 180.0
496.984314 36.0
497.78775 68.0
500.077362 92.0
505.33429 100.0
510.025208 88.0
514.299866 48.0
521.433655 36.0
537.910095 108.0
548.775635 124.0
549.680542 68.0
553.752502 64.0
560.42334 72.0
562.01239 124.0
563.391052 68.0
571.760254 68.0
572.155334 72.0
573.679871 140.0
574.772095 112.0
577.79657 60.0
593.872131 148.0
604.444153 112.0
612.94928 92.0
619.535461 48.0
639.545593 100.0
645.109619 40.0
657.840454 40.0
667.112854 64.0
674.903259 32.0
676.589966 80.0
677.366821 76.0
682.80127 100.0
691.085327 120.0
694.023804 92.0
709.795654 80.0
733.745239 100.0
754.28833 68.0
755.546143 76.0
756.076904 36.0
773.132446 48.0
782.062744 40.0
783.421448 88.0
787.996277 184.0
793.784058 136.0
837.890381 36.0
838.2995 88.0
839.066101 60.0
865.609192 104.0
872.656433 92.0
885.142212 96.0
907.595459 140.0
913.583557 196.0
949.508545 60.0
954.618164 140.0
969.136841 68.0
972.827087 184.0
975.019714 100.0
976.505676 152.0
978.347595 164.0
979.680298 152.0
981.456604 244.0
986.263794 92.0
988.358887 104.0
992.938293 136.0
995.957336 160.0
996.648438 204.0
1006.102356 208.0
1009.261414 140.0
1009.691467 104.0
1026.157593 108.0
1030.478516 136.0
1035.212036 180.0
1043.013916 136.0
1047.022461 124.0
1056.672852 84.0
1062.562256 116.0
1073.855347 64.0
1077.837646 180.0
1094.551758 152.0
1106.430176 136.0
1108.629272 164.0
1112.702026 80.0
1113.691528 148.0
1128.426025 152.0
1137.09436 180.0
1143.647583 176.0
1145.05481 180.0
1146.294434 160.0
1147.851685 156.0
1148.391113 52.0
1148.526123 64.0
1164.371216 112.0
1171.288574 92.0
1171.377197 208.0
1180.413818 76.0
1181.85022 192.0
1189.395874 152.0
1189.533203 256.0
1190.865234 48.0
1192.390625 152.0
1194.425781 64.0
1196.338867 64.0
1197.578369 180.0
1197.826416 108.0
1198.411987 156.0
1203.833862 100.0
1206.120728 124.0
1219.915649 132.0
1221.744751 48.0
1221.848999 184.0
1222.426636 116.0
1224.515137 104.0
1228.216309 144.0
1230.323853 148.0
1235.061768 96.0
1236.132202 52.0
1242.424316 212.0
1243.540039 140.0
1245.730835 240.0
1254.302002 180.0
1255.211548 100.0
1255.296143 152.0
1255.430054 152.0
1256.220093 152.0
1258.34436 192.0
1259.763916 184.0
1264.204346 196.0
1264.848389 244.0
1265.676758 176.0
1266.363647 132.0
1269.049561 180.0
1272.064819 188.0
1283.220093 168.0
1286.787598 164.0
1294.825195 80.0
1297.304443 188.0
1302.255737 116.0
1304.03772 144.0
1304.404297 192.0
1304.497681 152.0
1307.504395 64.0
1308.072998 136.0
1310.896362 192.0
1310.975586 236.0
1317.187866 144.0
1320.505615 172.0
1324.798096 116.0
1324.928589 268.0
1326.79834 204.0
1326.979614 228.0
1327.944092 128.0
1330.120972 148.0
1332.001709 160.0
1333.069702 120.0
1333.389526 212.0
1335.789062 148.0
1336.298218 200.0
1339.457886 140.0
1343.503784 120.0
1344.481567 216.0
1344.897583 152.0
1345.744507 196.0
1346.438232 144.0
1350.107056 144.0
1351.204224 220.0
1352.221436 208.0
1353.099854 116.0
1358.493774 116.0
1358.677246 124.0
1362.002686 132.0
1362.156982 220.0
1363.369263 84.0
1366.465088 76.0
1366.936035 204.0
1369.181396 80.0
1369.39502 224.0
1377.767456 156.0
1378.986816 124.0
1380.162231 184.0
1382.433228 212.0
1383.432495 172.0
1384.869019 224.0
1388.612061 136.0
1392.330444 132.0
1395.667725 144.0
1397.876343 108.0
1397.980591 152.0
1398.575928 92.0
1399.275757 144.0
1400.564087 228.0
1400.891846 212.0
1402.106445 164.0
1403.463135 176.0
1404.231323 176.0
1405.536865 208.0
1406.275635 284.0
1407.765503 252.0
1413.861816 204.0
1419.4729 136.0
1421.018066 160.0
1421.318237 192.0
1422.014282 196.0
1423.17981 96.0
1424.847168 140.0
1425.04248 212.0
1425.688721 160.0
1426.846313 164.0
1427.651001 208.0
1429.283325 92.0
1431.714844 88.0
1436.848145 168.0
1437.632935 128.0
1439.550415 140.0
1448.869263 192.0
1449.1875 144.0
1451.393188 148.0
1452.371582 172.0
1453.501953 92.0
1454.313965 128.0
1458.544922 212.0
1459.571289 48.0
1461.914307 204.0
1465.409424 184.0
1468.046875 164.0
1468.710449 224.0
1475.721191 204.0
1478.245483 120.0
1486.022949 196.0
1487.734497 168.0
1488.402466 104.0
1494.167114 188.0
1496.037354 88.0
1498.224487 148.0
1498.278442 140.0
1499.264771 144.0
1503.413818 192.0
1504.772461 232.0
