>compound MLS001049075-01![(6aR,9R)-7-methyl-6,6a,8,9-tetrahydro-4H-indolo[4,3-fg]quinoline-9-yl]methanol
>formula C16H18N2O
>ionization [M+H]+
>parentmass 255.148834
#inchi InChI=1S/C16H18N2O/c1-18-8-10(9-19)5-13-12-3-2-4-14-16(12)11(7-17-14)6-15(13)18/h2-5,7,10,15,17,19H,6,8-9H2,1H3/t10-,15-/m1/s1
#inchikey BIXJFIJYBLJTMK
#Ion_Source LC-ESI
#Instrument qTof
#Compound_Source NIH Natural Product Library
#PI Dorrestein
#Data_Collector VVP/LMS
#Scan -1
#Precursor_MZ 255.15
#ExactMass 254.142
#Charge 1
#CAS_Number N/A
#Pubmed_ID N/A
#Smiles CN1C[C@H](CO)C=C2[C@H]1Cc3c[nH]c4cccc2c34
#INCHI_AUX N/A
#Library_Class 1
#SpectrumID CCMSLIB00000079444
#IonMode Positive
#UpdateWorkflowName UPDATE-SINGLE-ANNOTATED-GOLD
#LibraryQualityString Gold
#TaskID b1d8e8f6646f4e71acdff9ca3d919d08
##Scan# 1327
#SpectrumFile p1-D06_GD6_01_17914.mzXML
#LibraryName NIH_Natural_Products_Library.mgf
#MQScore -1
#Organism NIH_Natural_Products_Library
#TIC_Query 0
#RT_Query -1
#MZErrorPPM -1
#SharedPeaks 0
#MassDiff 0
#LibMZ -1
#SpecMZ 255.15
#SpecCharge 0
#internalFilename spec-00000.mgf

>collision 10
94.945404 208.0
95.01329 104.0
95.925323 176.0
96.077431 132.0
96.194519 124.0
96.512962 152.0
96.85347 96.0
97.304497 52.0
97.577576 52.0
97.634598 128.0
97.701477 44.0
98.130806 156.0
98.237297 148.0
98.671761 128.0
98.828003 168.0
98.915077 104.0
98.946754 240.0
99.006149 200.0
99.212219 120.0
99.418495 124.0
100.181618 108.0
100.375305 172.0
100.467056 84.0
100.508949 144.0
100.568817 108.0
100.686615 176.0
100.944397 192.0
100.990395 180.0
101.08242 148.0
101.27861 232.0
101.302895 164.0
101.376785 172.0
101.400833 196.0
101.432899 140.0
101.491035 228.0
101.685616 152.0
101.757881 104.0
101.87838 240.0
102.049202 164.0
102.596802 72.0
102.673424 148.0
103.040787 176.0
103.056229 288.0
103.119591 56.0
103.311684 132.0
103.603195 172.0
103.820068 184.0
103.935692 168.0
103.998596 108.0
104.022957 172.0
104.368324 152.0
104.382561 128.0
104.626709 88.0
105.0261 116.0
106.645668 152.0
106.806046 180.0
107.353867 148.0
107.620049 180.0
107.762558 156.0
107.969269 204.0
108.114075 180.0
108.190659 156.0
108.253372 180.0
108.359848 132.0
108.433006 144.0
108.659019 84.0
108.81675 164.0
109.076424 228.0
109.257339 160.0
109.70507 140.0
109.834351 224.0
109.855209 236.0
110.182961 72.0
110.362701 120.0
110.379425 152.0
110.772881 176.0
111.076828 156.0
111.664925 188.0
111.814301 156.0
112.193436 180.0
112.284103 112.0
112.519623 188.0
112.638687 128.0
112.776031 204.0
112.989601 92.0
113.057312 72.0
113.334122 160.0
113.60183 76.0
113.811935 220.0
114.239105 132.0
114.867508 120.0
115.012604 264.0
115.053818 152.0
115.155655 52.0
115.209053 80.0
115.499763 128.0
115.97081 236.0
115.999886 128.0
116.223862 132.0
116.316139 116.0
116.782394 124.0
117.066696 152.0
117.085854 228.0
117.100929 124.0
117.121552 184.0
117.206482 212.0
117.616234 128.0
117.87323 160.0
117.892677 144.0
118.468201 208.0
118.523819 196.0
118.936569 180.0
119.047295 176.0
119.158073 184.0
119.292809 104.0
119.477646 180.0
119.673523 172.0
119.71489 200.0
119.78894 128.0
120.100639 192.0
120.220634 116.0
121.114815 172.0
121.209023 68.0
121.276955 44.0
121.318604 184.0
121.439201 168.0
121.500618 176.0
121.735474 180.0
121.757431 200.0
122.584572 176.0
122.732254 156.0
122.966087 128.0
123.350403 164.0
123.547211 156.0
124.054329 152.0
124.380402 144.0
124.751358 192.0
124.940384 164.0
125.07811 164.0
125.782715 172.0
125.840752 196.0
126.044006 116.0
126.652512 112.0
126.876587 156.0
126.937126 192.0
127.031326 208.0
127.053177 164.0
127.251251 116.0
127.669182 144.0
127.822151 160.0
127.934685 220.0
127.984215 172.0
128.061432 608.0
128.471008 224.0
128.820908 144.0
128.863831 136.0
128.911285 136.0
129.070328 1336.0
129.119263 72.0
129.293457 104.0
129.361359 80.0
129.547043 40.0
129.692062 68.0
129.719269 144.0
129.832626 124.0
130.065796 296.0
130.345657 172.0
130.377472 120.0
131.007721 148.0
131.069931 132.0
131.282898 76.0
131.358765 192.0
131.72171 152.0
131.813095 196.0
131.950226 172.0
132.041687 136.0
132.059982 116.0
132.080566 180.0
132.284225 52.0
132.366638 140.0
132.747025 176.0
132.781418 140.0
133.389862 124.0
133.456528 172.0
134.080353 140.0
134.467789 152.0
134.486252 188.0
134.978333 200.0
135.091644 84.0
135.777237 124.0
135.891586 232.0
136.871735 212.0
136.915985 140.0
137.468475 152.0
137.578171 128.0
137.82106 144.0
137.98233 176.0
138.279388 220.0
138.401123 124.0
139.057892 140.0
139.315781 96.0
139.616638 204.0
139.698944 156.0
139.828369 184.0
139.866013 160.0
139.898972 184.0
140.059586 136.0
140.332458 80.0
140.499908 128.0
140.65329 172.0
140.776047 168.0
140.809113 108.0
140.927231 48.0
141.069412 160.0
141.326797 196.0
141.876251 136.0
141.980576 100.0
142.039871 124.0
142.064697 576.0
142.327026 204.0
142.428619 160.0
142.754745 164.0
142.911728 208.0
142.937897 168.0
143.072617 332.0
143.275986 180.0
143.445175 212.0
143.936646 56.0
144.080399 480.0
144.742447 96.0
144.998764 76.0
145.058685 132.0
145.099442 184.0
145.336884 152.0
145.487564 92.0
145.656174 212.0
145.682602 132.0
145.944565 176.0
145.985443 136.0
146.057587 164.0
146.331924 88.0
146.457138 120.0
146.563141 112.0
146.608917 224.0
146.719788 192.0
146.924774 164.0
147.014053 172.0
147.259598 208.0
147.29895 192.0
147.550262 156.0
147.734055 116.0
148.03418 220.0
148.181931 176.0
148.751816 160.0
149.575836 124.0
149.743835 152.0
149.926559 108.0
150.250854 92.0
150.314285 184.0
150.428986 116.0
150.704956 128.0
150.88092 160.0
150.944489 196.0
151.025192 180.0
151.054031 268.0
151.240509 112.0
151.331085 156.0
151.48291 168.0
151.703461 144.0
151.725525 160.0
151.987946 112.0
152.063065 1136.0
152.120468 40.0
152.294815 68.0
152.513489 144.0
153.03244 192.0
153.066727 2292.0
153.133499 108.0
153.22464 188.0
153.786865 132.0
153.804138 208.0
153.828827 152.0
153.915237 128.0
153.999191 160.0
154.065781 5184.0
154.137543 28.0
154.204254 68.0
154.233917 100.0
154.251221 204.0
154.268524 80.0
154.300659 64.0
154.335281 116.0
154.379791 76.0
154.431717 184.0
155.069885 928.0
155.179565 144.0
155.239075 84.0
155.345718 152.0
155.368042 84.0
155.519409 60.0
155.54422 44.0
155.727966 152.0
155.772675 96.0
155.817383 128.0
156.079712 1080.0
156.463989 96.0
156.605927 52.0
156.88501 80.0
157.087112 180.0
157.359009 192.0
157.528824 224.0
158.06134 144.0
158.096375 140.0
158.17897 244.0
158.47197 156.0
158.657425 72.0
159.057846 212.0
159.106476 140.0
159.350098 128.0
159.54361 160.0
160.049301 124.0
160.07196 120.0
160.150024 240.0
160.331421 52.0
160.490234 52.0
160.533096 184.0
160.608749 160.0
160.866135 80.0
161.042877 176.0
161.09845 172.0
161.242477 108.0
161.366333 176.0
161.442184 56.0
161.859711 132.0
162.168777 180.0
162.278107 152.0
162.341156 128.0
162.402023 64.0
162.45784 152.0
162.787781 152.0
163.053558 296.0
163.34436 100.0
163.581009 232.0
163.601379 84.0
163.891708 108.0
164.062988 184.0
164.506348 72.0
164.70311 192.0
165.070206 3368.0
165.146835 36.0
165.184814 132.0
165.221878 68.0
165.552048 168.0
165.726227 52.0
165.88768 136.0
166.072922 1188.0
166.10051 216.0
166.257019 36.0
166.321182 132.0
166.850357 120.0
166.981491 192.0
167.009781 180.0
167.073395 4368.0
167.140976 44.0
167.164139 64.0
167.264511 96.0
167.287674 40.0
167.496246 80.0
167.599304 224.0
167.625061 120.0
167.661148 32.0
167.79776 176.0
168.016968 124.0
168.079941 5376.0
168.223419 48.0
168.37059 80.0
168.543655 48.0
168.753021 148.0
169.055222 124.0
169.061737 136.0
169.082825 1396.0
169.125519 64.0
169.174698 132.0
169.191406 68.0
169.519165 64.0
169.586548 60.0
169.713577 56.0
169.747284 72.0
169.985931 152.0
170.065506 120.0
170.09697 580.0
170.297455 92.0
170.354599 184.0
170.752274 88.0
170.799088 136.0
170.936981 32.0
171.074646 196.0
171.103546 136.0
171.58812 116.0
172.138657 92.0
172.52533 132.0
172.695297 80.0
173.079987 148.0
173.499176 192.0
173.766678 164.0
174.433594 92.0
175.090164 216.0
175.246887 148.0
175.539459 120.0
175.753113 108.0
176.064163 144.0
176.42659 48.0
177.071121 200.0
177.525711 64.0
178.078033 832.0
178.319138 96.0
178.502579 156.0
178.922958 188.0
179.086227 1164.0
179.402283 56.0
179.466461 160.0
179.533112 56.0
179.93602 156.0
180.018799 124.0
180.055817 184.0
180.080643 5180.0
180.114944 152.0
180.133636 128.0
180.43222 120.0
180.547913 68.0
180.630814 40.0
181.021561 208.0
181.079041 1400.0
181.126007 176.0
181.17691 168.0
181.211731 44.0
181.23317 64.0
181.493164 128.0
181.68895 240.0
181.833832 92.0
181.886139 156.0
182.083633 7508.0
182.178513 108.0
182.215134 152.0
182.277863 116.0
182.333359 60.0
182.400558 132.0
182.508087 272.0
182.558868 176.0
182.596832 64.0
182.814743 132.0
183.032776 60.0
183.090027 1084.0
183.221298 68.0
183.318298 32.0
183.36142 76.0
183.720032 168.0
183.773987 60.0
183.919708 116.0
183.954803 200.0
184.104111 344.0
184.543732 212.0
184.705994 164.0
184.757385 136.0
185.014481 172.0
185.046722 852.0
185.113998 148.0
185.578003 68.0
186.041916 44.0
186.226547 196.0
186.83815 136.0
187.020477 160.0
187.44577 120.0
187.521606 92.0
188.293701 236.0
188.35379 140.0
188.42482 180.0
188.990753 180.0
189.070114 104.0
189.105698 176.0
189.628799 172.0
189.74942 96.0
189.796021 136.0
189.820694 116.0
190.026413 132.0
190.265182 144.0
190.303619 144.0
190.33107 244.0
190.435425 184.0
190.528824 144.0
190.586517 184.0
191.071701 1748.0
191.278793 164.0
191.585205 36.0
191.612747 180.0
191.858017 100.0
191.960037 236.0
191.97934 48.0
192.080475 12400.0
192.136551 156.0
192.238647 28.0
192.293839 56.0
192.434616 80.0
192.506409 52.0
192.7108 68.0
192.915314 100.0
192.962311 136.0
193.086655 4144.0
193.162552 88.0
193.191849 56.0
193.29422 68.0
193.402145 44.0
193.625214 112.0
193.690109 224.0
193.775986 280.0
193.990753 56.0
194.095535 4680.0
194.1474 44.0
194.229691 48.0
194.24794 80.0
194.305511 172.0
194.344345 116.0
194.459854 96.0
194.509415 92.0
194.535568 40.0
194.863541 140.0
194.997787 64.0
195.05806 48.0
195.09787 1364.0
195.429169 108.0
195.486374 76.0
195.569855 124.0
195.68956 52.0
196.101715 948.0
196.136032 204.0
196.302551 44.0
196.402954 192.0
196.489426 76.0
196.508957 104.0
196.587082 160.0
196.886765 124.0
196.952805 172.0
196.972656 192.0
197.003082 156.0
197.107635 10824.0
197.181915 40.0
197.221039 120.0
197.240601 108.0
197.296509 32.0
197.458694 140.0
197.564972 40.0
197.70488 156.0
198.04364 44.0
198.068848 240.0
198.11084 1064.0
198.175293 52.0
198.747269 40.0
198.920837 184.0
198.963379 120.0
199.123108 176.0
199.47464 100.0
199.598343 160.0
199.800842 64.0
200.121689 132.0
200.583694 196.0
200.981323 180.0
201.283356 156.0
201.82869 48.0
202.16246 104.0
202.802505 196.0
203.213684 80.0
204.081573 772.0
204.159561 40.0
204.219284 120.0
204.335922 56.0
204.483887 260.0
204.686005 88.0
204.762894 44.0
204.99649 224.0
205.08606 460.0
205.224518 144.0
205.444122 264.0
205.501175 44.0
206.09314 1624.0
206.129333 120.0
206.240799 84.0
207.092361 1688.0
207.248108 124.0
207.393188 128.0
207.463058 36.0
207.497467 184.0
207.577744 136.0
208.099991 1920.0
208.160248 52.0
208.349808 120.0
208.683182 144.0
208.893127 68.0
208.962158 148.0
209.057114 152.0
209.10788 2412.0
209.281631 260.0
209.379532 36.0
209.399704 68.0
210.109634 504.0
210.665939 52.0
211.09079 108.0
211.126297 164.0
211.475555 120.0
211.657928 68.0
211.704269 68.0
212.004883 88.0
212.105438 316.0
212.646454 44.0
213.035538 128.0
213.076218 148.0
213.115173 228.0
214.065125 72.0
214.630417 192.0
215.637527 140.0
216.058594 180.0
216.770065 148.0
216.931259 132.0
217.368256 36.0
217.9702 120.0
218.031921 72.0
218.258255 128.0
218.970398 152.0
219.088211 128.0
219.23848 160.0
219.276794 52.0
219.548019 40.0
219.851868 96.0
219.925659 36.0
220.103806 184.0
220.495667 128.0
220.516357 40.0
221.107285 1920.0
221.238083 44.0
221.315063 136.0
221.637909 176.0
221.999542 160.0
222.114014 908.0
222.177505 156.0
222.403015 124.0
222.836578 48.0
222.934631 132.0
222.960815 192.0
223.122864 6720.0
223.208099 120.0
223.258652 92.0
223.333008 68.0
223.444778 92.0
223.49176 120.0
223.54126 148.0
223.812119 48.0
223.94017 100.0
224.060455 116.0
224.10881 5044.0
224.208298 140.0
224.366272 108.0
224.575012 56.0
224.631683 100.0
224.792786 160.0
224.903214 56.0
225.013657 80.0
225.108902 844.0
225.13562 148.0
225.397614 116.0
225.443771 80.0
225.605499 108.0
225.733734 92.0
225.934128 76.0
226.13414 232.0
226.293259 80.0
226.505875 144.0
226.670654 68.0
226.733582 80.0
226.784531 92.0
227.15033 164.0
227.324341 80.0
227.636536 64.0
228.036087 128.0
228.135269 148.0
229.09523 152.0
229.137405 192.0
230.374283 48.0
232.542267 76.0
234.363785 180.0
234.949158 128.0
235.124878 284.0
235.813293 36.0
235.953903 100.0
236.124451 160.0
236.532059 196.0
236.945465 188.0
237.137115 856.0
237.227402 84.0
237.294846 196.0
237.463501 44.0
238.061935 112.0
238.141907 188.0
238.249283 92.0
238.897919 200.0
239.076385 64.0
239.117462 3076.0
239.171783 68.0
239.224121 40.0
239.273376 44.0
239.482758 112.0
239.608719 252.0
239.766205 80.0
239.827179 72.0
240.079742 96.0
240.126282 7108.0
240.308899 40.0
240.353409 92.0
240.37532 84.0
240.546524 44.0
240.571228 56.0
240.685455 120.0
241.127838 1748.0
241.331207 76.0
241.495102 76.0
241.563156 144.0
241.711655 40.0
241.795212 44.0
242.130829 196.0
242.361893 64.0
242.476547 52.0
242.585022 48.0
242.857895 68.0
243.664978 88.0
245.357971 112.0
247.069351 36.0
251.096191 96.0
252.194901 68.0
252.94136 112.0
253.090164 196.0
253.134491 316.0
254.143845 136.0
254.202728 152.0
254.510635 136.0
254.952164 196.0
255.082474 84.0
255.148834 4056.0
255.203278 216.0
255.250549 152.0
255.379929 80.0
255.429062 40.0
255.562683 124.0
255.649124 72.0
255.944626 72.0
255.970093 48.0
256.151947 956.0
256.518066 56.0
256.540405 56.0
256.585022 40.0
257.146423 156.0
257.778748 52.0
257.967316 128.0
258.367035 60.0
260.546997 136.0
261.115936 60.0
261.489136 48.0
265.761108 116.0
266.027222 80.0
268.255524 60.0
276.466766 88.0
289.343994 48.0
309.592804 80.0
321.592346 104.0
340.221283 92.0
360.360107 88.0
361.664764 56.0
378.061279 76.0
401.672546 76.0
414.181641 120.0
414.647583 68.0
429.80304 48.0
442.668274 92.0
489.289703 144.0
497.286072 36.0
513.292908 44.0
518.559448 64.0
521.173279 92.0
541.986755 124.0
544.259521 112.0
560.523438 76.0
572.617737 44.0
581.078491 32.0
622.846924 48.0
624.676147 112.0
628.951416 60.0
633.276306 116.0
686.19043 92.0
701.477234 64.0
706.737244 68.0
727.243652 20.0
747.716736 144.0
816.182739 164.0
836.245117 96.0
838.814026 60.0
881.467896 76.0
895.634949 124.0
913.262024 112.0
919.938354 40.0
975.4422 216.0
1018.975403 144.0
1019.915894 132.0
1044.302124 112.0
1066.674072 180.0
1069.093506 148.0
1071.834961 76.0
1082.80957 164.0
1084.145996 112.0
1084.853882 132.0
1105.998535 56.0
1113.052246 184.0
1151.620239 164.0
1151.735107 204.0
1178.535156 248.0
1191.394653 96.0
1200.693604 124.0
1203.115479 164.0
1208.852173 76.0
1210.229614 52.0
1210.818115 56.0
1212.404663 100.0
1214.810547 136.0
1218.969238 200.0
1221.061646 136.0
1240.317993 160.0
1250.319336 136.0
1268.861084 60.0
1279.873535 68.0
1282.573486 96.0
1285.240601 224.0
1285.804443 212.0
1288.724976 36.0
1291.177612 176.0
1295.256348 196.0
1297.083496 184.0
1309.614502 48.0
1316.891846 176.0
1326.98645 240.0
1329.808228 128.0
1332.640259 148.0
1339.908325 120.0
1346.838257 188.0
1347.298462 116.0
1349.066895 144.0
1351.926636 204.0
1356.027832 100.0
1361.008789 120.0
1366.182739 196.0
1368.110718 180.0
1380.409912 172.0
1384.909546 104.0
1385.835449 172.0
1387.910767 228.0
1388.021973 116.0
1389.772461 160.0
1389.876343 228.0
1390.180664 212.0
1394.687744 164.0
1396.004517 152.0
1397.44751 136.0
1403.629517 176.0
1409.361938 192.0
1409.548828 136.0
1412.741211 144.0
1416.206909 188.0
1419.879272 180.0
1421.544678 208.0
1422.753052 212.0
1427.020264 96.0
1427.118042 136.0
1427.208252 196.0
1427.33606 32.0
1432.544067 196.0
1435.137451 180.0
1439.490356 128.0
1440.585449 144.0
1440.812012 180.0
1442.504761 76.0
1444.53894 212.0
1447.513184 104.0
1452.084106 160.0
1454.867554 68.0
1456.606445 136.0
1459.615967 132.0
1461.053467 176.0
1462.072998 172.0
1466.360718 232.0
1470.295898 132.0
1478.564819 168.0
1485.399048 64.0
1487.839355 60.0
1489.528809 192.0
1491.403564 348.0
1491.741821 104.0
1494.041016 80.0
1496.080322 56.0
1501.119141 168.0
1503.772949 180.0
