>compound ARTESUNATE
>formula C19H28O8
>ionization [M+Na]+
>parentmass 407.16803
#inchi InChI=1S/C19H28O8/c1-10-4-5-13-11(2)16(23-15(22)7-6-14(20)21)24-17-19(13)12(10)8-9-18(3,25-17)26-27-19/h10-13,16-17H,4-9H2,1-3H3,(H,20,21)/t10-,11-,12+,13+,16+,17-,18-,19-/m1/s1
#inchikey FIHJKUPKCHIPAT
#Ion_Source LC-ESI
#Instrument qTof
#Compound_Source Commercial
#PI Dorrestein
#Data_Collector Garg_Neha
#Scan -1
#Precursor_MZ 407.168
#ExactMass 384.178
#Charge 1
#CAS_Number N/A
#Pubmed_ID N/A
#Smiles C[C@@H]1CC[C@H]2[C@@H](C)[C@@H](OC(=O)CCC(=O)O)O[C@@H]3O[C@@]4(C)CC[C@@H]1[C@@]23OO4
#INCHI_AUX N/A
#Library_Class 1
#SpectrumID CCMSLIB00000079008
#IonMode Positive
#UpdateWorkflowName UPDATE-SINGLE-ANNOTATED-GOLD
#LibraryQualityString Gold
#TaskID 278b19f5865741e282cec7349aa7e7a1
##Scan# 1714
#SpectrumFile NCP003352_E2_F11_BC6_01_15720.mzXML
#LibraryName NIHcollectionI_05062014.mgf
#MQScore -1
#Organism NIHcollectionI_05062014
#TIC_Query 0
#RT_Query -1
#MZErrorPPM -1
#SharedPeaks 0
#MassDiff 0
#LibMZ -1
#SpecMZ 407.168
#SpecCharge 0
#internalFilename spec-00000.mgf

>collision 10
45.352673 160.0
45.380825 176.0
46.929005 160.0
48.089581 200.0
48.220787 168.0
48.287151 148.0
49.689922 212.0
49.958256 140.0
51.911293 188.0
53.553108 200.0
55.329979 216.0
58.230255 168.0
58.43243 148.0
59.851288 184.0
60.201324 180.0
60.921551 196.0
61.808685 216.0
63.150623 180.0
63.738773 204.0
63.996452 144.0
64.023521 152.0
65.981155 208.0
68.966263 208.0
69.939911 144.0
69.953224 192.0
72.411491 140.0
72.718369 240.0
73.940376 144.0
74.633408 248.0
75.85746 140.0
78.367157 152.0
81.030518 140.0
82.042328 148.0
82.937119 180.0
85.969566 196.0
86.239204 152.0
88.917526 148.0
90.770065 152.0
92.521057 140.0
93.073227 168.0
94.153534 220.0
95.049225 308.0
95.168228 152.0
95.218712 224.0
96.845337 152.0
97.060913 148.0
98.252808 148.0
99.043526 304.0
99.059372 204.0
101.334488 148.0
102.786194 176.0
105.070541 620.0
105.377068 148.0
105.925331 200.0
106.070816 144.0
106.87587 160.0
107.049721 244.0
107.086349 536.0
107.104385 160.0
108.087723 284.0
108.420479 176.0
108.509613 216.0
109.049324 168.0
109.105446 164.0
111.07888 148.0
113.877777 168.0
114.479637 176.0
115.053581 180.0
116.058754 156.0
116.346245 188.0
117.071266 220.0
118.076515 168.0
119.088387 456.0
121.068474 164.0
121.105507 144.0
123.00489 360.0
123.078712 152.0
123.116264 140.0
124.5849 176.0
125.096275 148.0
126.102341 216.0
127.222321 184.0
128.063416 384.0
128.945465 148.0
129.072693 116.0
129.814789 200.0
130.075699 156.0
130.116562 140.0
130.21875 228.0
131.087585 552.0
131.153885 152.0
132.088989 104.0
132.723511 180.0
133.013519 148.0
133.043365 160.0
133.064621 452.0
133.101395 612.0
133.210999 140.0
133.594894 272.0
134.071228 156.0
135.059341 612.0
135.080093 368.0
135.11618 1076.0
135.147583 176.0
136.065063 148.0
136.115707 196.0
136.46965 176.0
137.184372 156.0
139.104904 200.0
139.405548 156.0
141.016098 4344.0
141.071594 156.0
141.117935 160.0
141.294189 160.0
142.021286 332.0
142.078354 188.0
143.087051 188.0
143.317047 148.0
144.097244 156.0
144.178482 152.0
144.771774 144.0
145.102386 1800.0
145.323074 196.0
146.104599 704.0
147.043808 376.0
147.083282 540.0
147.121475 180.0
147.140198 204.0
147.541229 148.0
148.298889 180.0
149.097656 680.0
149.172714 196.0
151.076447 260.0
151.110687 532.0
151.138428 204.0
151.441986 152.0
151.758102 204.0
152.072098 148.0
152.121201 160.0
155.086319 272.0
155.182816 164.0
156.094864 364.0
157.097778 176.0
157.667068 164.0
157.914581 160.0
158.072144 276.0
159.027008 156.0
159.109848 144.0
160.521362 168.0
160.945282 180.0
161.094666 576.0
161.13295 620.0
161.458252 204.0
161.673294 204.0
161.888474 220.0
162.09845 156.0
162.133926 412.0
162.80394 188.0
163.112473 9144.0
163.23848 152.0
163.538681 152.0
163.84935 252.0
164.115952 1280.0
164.634964 224.0
164.658859 168.0
165.069382 172.0
165.092392 304.0
165.126328 388.0
165.596558 140.0
166.128052 184.0
167.039078 208.0
167.100311 416.0
167.788467 140.0
168.108292 188.0
168.689423 144.0
169.006851 184.0
169.100677 140.0
169.647217 208.0
171.117645 464.0
173.09671 940.0
173.366638 236.0
174.069656 192.0
174.097717 304.0
174.122177 144.0
175.071899 308.0
175.112869 192.0
175.142181 212.0
176.084259 176.0
176.139725 140.0
176.93306 164.0
177.094589 268.0
177.131668 148.0
179.10611 452.0
179.145218 908.0
181.04393 152.0
181.121201 156.0
182.122406 164.0
182.176132 152.0
183.028595 500.0
185.133545 472.0
186.747055 156.0
187.250565 152.0
189.086578 140.0
189.128967 516.0
189.953781 152.0
190.131012 160.0
191.10939 392.0
192.030457 180.0
193.12973 168.0
193.156357 292.0
194.423569 176.0
194.554031 172.0
197.208649 156.0
197.521805 160.0
197.55011 172.0
198.10405 236.0
198.945343 176.0
200.475418 168.0
200.844757 204.0
201.067581 180.0
203.143066 932.0
203.397018 156.0
203.487854 252.0
204.146881 300.0
205.15213 156.0
205.799759 168.0
206.131088 228.0
207.068863 156.0
207.138687 1572.0
207.966827 140.0
208.141129 168.0
209.11937 144.0
209.963516 184.0
211.387711 172.0
213.12825 312.0
213.171082 152.0
214.964874 224.0
217.120667 152.0
218.131485 180.0
218.683884 212.0
219.078445 168.0
219.11351 120.0
221.1548 5492.0
222.158691 500.0
223.156677 260.0
225.145111 280.0
225.978165 140.0
226.078156 156.0
226.978561 160.0
227.299515 152.0
229.070328 168.0
229.120224 880.0
229.727493 144.0
229.866272 160.0
231.112717 196.0
231.133774 316.0
234.080353 224.0
237.076523 152.0
239.041855 160.0
239.163773 196.0
240.175598 224.0
240.814514 152.0
241.012222 140.0
241.191467 260.0
242.590607 140.0
243.037201 316.0
243.090759 124.0
243.13562 9708.0
243.755493 124.0
244.136566 1844.0
245.11116 180.0
245.14212 180.0
245.40416 160.0
247.130081 1604.0
247.751251 252.0
248.134094 420.0
249.147934 336.0
249.496109 176.0
250.07489 184.0
250.160065 144.0
251.029465 168.0
251.209244 148.0
251.613174 200.0
251.775665 200.0
252.39357 148.0
253.039032 160.0
259.460083 128.0
259.926971 200.0
260.023224 176.0
260.068848 152.0
260.143127 200.0
260.19162 148.0
260.283264 196.0
260.31424 124.0
260.736206 156.0
260.882446 184.0
260.929077 168.0
260.961212 144.0
261.067322 148.0
261.106659 388.0
261.147522 75408.0
261.338165 180.0
261.438232 112.0
261.538818 148.0
261.583557 176.0
261.677948 328.0
261.88324 132.0
261.95755 116.0
261.998596 192.0
262.150482 9492.0
263.153503 804.0
263.550751 104.0
263.626923 172.0
263.865662 136.0
264.064758 132.0
264.163635 180.0
266.049561 108.0
266.061401 104.0
267.157166 196.0
268.688965 140.0
274.128601 144.0
275.715912 188.0
277.11026 248.0
278.114716 228.0
279.154907 132.0
282.659515 168.0
283.916138 156.0
284.169403 304.0
287.073975 132.0
287.974548 228.0
288.951477 184.0
289.142609 14896.0
289.204041 212.0
289.971191 148.0
290.146576 1544.0
291.148804 356.0
291.88678 132.0
292.138184 124.0
293.806274 160.0
300.320435 208.0
307.061768 204.0
307.142731 228.0
307.98053 296.0
320.113373 168.0
323.117004 368.0
324.122864 152.0
326.003479 260.0
326.102173 144.0
330.172546 148.0
331.164185 160.0
334.927124 140.0
339.096008 172.0
341.13028 164.0
341.239746 140.0
345.114777 140.0
347.177307 140.0
361.162323 4944.0
362.164154 856.0
363.163757 464.0
364.289886 144.0
368.828217 172.0
379.135559 164.0
380.570648 212.0
390.064056 204.0
392.151184 528.0
393.149506 144.0
395.13855 224.0
406.503357 176.0
406.679962 172.0
406.904877 128.0
406.95694 220.0
406.997101 276.0
407.049286 200.0
407.16803 20248.0
407.249634 424.0
407.305817 124.0
407.92514 144.0
408.172546 4416.0
408.436523 188.0
409.061523 112.0
409.173065 752.0
410.174561 132.0
410.536957 120.0
477.678558 180.0
1248.22168 172.0
1536.725342 148.0
1660.90564 168.0
1675.399414 196.0
1815.319824 148.0
1853.371582 148.0
1933.95752 212.0
1962.587646 172.0
1969.541748 176.0
