>compound MLS001139433-01!(2R)-1-[2-(3,4,8-trimethyl-2-oxochromen-7-yl)oxyacetyl]pyrrolidine-2-carboxylic acid
>formula C19H21NO6
>ionization [M+H]+
>parentmass 360.145
#inchi InChI=1S/C19H21NO6/c1-10-11(2)19(24)26-17-12(3)15(7-6-13(10)17)25-9-16(21)20-8-4-5-14(20)18(22)23/h6-7,14H,4-5,8-9H2,1-3H3,(H,22,23)/t14-/m1/s1
#inchikey CILMVYLOUANTLX
#Ion_Source LC-ESI
#Instrument qTof
#Compound_Source NIH Natural Product Library
#PI Dorrestein
#Data_Collector VVP/LMS
#Scan -1
#Precursor_MZ 360.145
#ExactMass 359.137
#Charge 1
#CAS_Number N/A
#Pubmed_ID N/A
#Smiles Cc1c(C)c2ccc(OCC(=O)N3CCC[C@@H]3C(=O)O)c(C)c2oc1=O
#INCHI_AUX N/A
#Library_Class 1
#SpectrumID CCMSLIB00000079489
#IonMode Positive
#UpdateWorkflowName UPDATE-SINGLE-ANNOTATED-GOLD
#LibraryQualityString Gold
#TaskID b1d8e8f6646f4e71acdff9ca3d919d08
##Scan# 1811
#SpectrumFile p1-A07_GA7_01_17880.mzXML
#LibraryName NIH_Natural_Products_Library.mgf
#MQScore -1
#Organism NIH_Natural_Products_Library
#TIC_Query 0
#RT_Query -1
#MZErrorPPM -1
#SharedPeaks 0
#MassDiff 0
#LibMZ -1
#SpecMZ 360.145
#SpecCharge 0
#internalFilename spec-00000.mgf

>collision 10
95.044418 192.0
95.219124 240.0
96.514999 108.0
97.485283 160.0
97.725174 156.0
97.794044 128.0
97.937775 124.0
98.060547 748.0
98.107239 56.0
98.272896 152.0
99.002281 148.0
99.412628 160.0
99.650902 176.0
100.076088 1808.0
100.142235 44.0
100.479111 68.0
101.080513 212.0
101.729866 168.0
101.838295 224.0
101.952812 220.0
104.116447 152.0
104.785652 80.0
105.070404 472.0
105.377312 104.0
105.489708 160.0
107.088364 132.0
109.028717 124.0
109.066132 148.0
109.342743 120.0
109.438499 172.0
111.066994 196.0
112.075546 1540.0
112.105019 224.0
113.077362 168.0
113.083366 228.0
113.106087 144.0
114.054436 156.0
114.107361 48.0
114.203049 164.0
114.30304 188.0
114.562782 96.0
115.056976 352.0
116.06205 444.0
116.256149 88.0
116.78035 68.0
116.946014 172.0
117.068222 204.0
118.414154 180.0
118.463974 48.0
119.08432 164.0
119.123421 84.0
120.179085 196.0
120.364815 152.0
121.064583 636.0
121.099594 160.0
122.666229 104.0
123.664597 172.0
124.40715 188.0
126.703842 128.0
127.053871 208.0
127.817764 228.0
128.070435 1000.0
128.870728 76.0
129.070511 744.0
129.155563 28.0
129.43071 48.0
129.608337 76.0
130.068695 316.0
130.148163 156.0
131.051117 308.0
131.084473 1888.0
132.086319 168.0
132.302658 88.0
132.411469 200.0
132.744843 140.0
132.841171 164.0
133.063782 220.0
133.100647 476.0
133.14415 108.0
133.518738 120.0
134.135788 188.0
135.040894 184.0
135.084839 124.0
135.675339 196.0
136.762451 124.0
137.405594 124.0
139.064316 508.0
140.960434 204.0
141.00296 144.0
141.064423 116.0
141.828979 172.0
142.123032 224.0
142.301041 128.0
142.995148 132.0
143.061798 172.0
143.085999 168.0
143.769684 168.0
144.006027 132.0
144.050842 184.0
144.060287 140.0
144.598953 172.0
145.068405 172.0
146.070724 332.0
146.377487 152.0
147.045563 184.0
147.075256 132.0
147.780151 172.0
149.095215 1076.0
149.11467 192.0
149.46402 32.0
150.871277 104.0
152.000351 240.0
153.611816 176.0
154.20192 176.0
155.264008 140.0
156.066742 336.0
156.506454 212.0
157.075836 464.0
157.64389 192.0
158.07196 172.0
158.381927 84.0
158.477127 180.0
158.57486 180.0
158.816452 176.0
159.018768 144.0
159.041367 64.0
159.080109 6344.0
159.259171 64.0
159.297485 184.0
159.448227 88.0
159.50856 200.0
159.526154 64.0
159.664429 52.0
159.734863 72.0
160.080856 340.0
160.147659 216.0
160.170319 56.0
161.059326 528.0
161.095428 1048.0
161.169327 164.0
161.328552 108.0
162.067734 684.0
162.098053 168.0
162.416306 140.0
163.069656 192.0
163.319077 48.0
164.971405 168.0
165.140167 144.0
169.801895 244.0
172.073532 140.0
172.258942 192.0
172.580399 200.0
173.053955 144.0
173.103714 168.0
173.169174 204.0
173.328979 132.0
174.072037 300.0
174.221008 232.0
174.952087 172.0
175.025803 120.0
175.077927 708.0
175.784943 132.0
176.084 1324.0
176.376526 152.0
177.084305 164.0
177.613052 92.0
177.758972 48.0
178.484116 188.0
179.530609 144.0
181.110107 112.0
181.4263 168.0
187.075409 456.0
188.087952 208.0
189.090393 1528.0
189.231781 100.0
189.489227 36.0
190.095779 216.0
190.125366 176.0
190.199463 56.0
191.10083 108.0
192.401657 64.0
197.752625 132.0
199.157303 20.0
200.705093 172.0
201.413437 44.0
202.060791 168.0
202.131516 120.0
202.638336 64.0
202.972794 148.0
203.067688 308.0
203.520401 36.0
203.58287 36.0
203.832855 68.0
204.079453 1304.0
204.23938 156.0
204.95108 48.0
205.086761 2788.0
205.118027 144.0
205.315948 172.0
205.388062 112.0
205.689713 68.0
205.823883 72.0
205.898132 52.0
205.93811 68.0
206.089874 396.0
206.466843 40.0
207.093613 136.0
207.620941 40.0
207.684036 108.0
208.105881 176.0
208.154694 232.0
209.636124 44.0
213.146133 172.0
215.07663 252.0
216.07341 172.0
216.336792 88.0
216.95491 52.0
216.975433 224.0
216.995956 196.0
217.048721 56.0
217.085953 10444.0
217.12233 228.0
217.177765 28.0
217.347916 36.0
217.405975 76.0
217.684341 104.0
217.961594 32.0
218.088058 1356.0
218.958817 68.0
219.05127 92.0
219.094315 176.0
219.172623 96.0
219.380157 56.0
219.689789 124.0
219.796005 112.0
220.856567 104.0
223.116135 188.0
227.063568 300.0
228.072357 156.0
229.710388 136.0
231.06073 124.0
233.022263 140.0
235.095825 160.0
236.951813 160.0
239.285278 100.0
241.087509 224.0
245.083145 252.0
246.463043 196.0
251.090103 88.0
263.088074 304.0
264.300079 68.0
266.764526 196.0
267.991791 248.0
268.536163 208.0
271.446686 124.0
275.534576 124.0
284.127319 56.0
286.08316 40.0
286.142303 1480.0
286.213348 132.0
286.581604 52.0
287.144714 288.0
288.008575 92.0
314.134094 164.0
315.129639 120.0
329.633545 112.0
341.242889 136.0
352.25708 20.0
359.299561 32.0
360.132477 164.0
360.254669 76.0
362.244415 168.0
460.788574 104.0
494.05188 40.0
529.36145 104.0
534.157471 144.0
546.942444 80.0
555.001038 72.0
594.240662 20.0
621.0755 160.0
659.900574 120.0
717.764709 60.0
825.163452 160.0
866.681946 204.0
878.493042 80.0
903.856873 196.0
904.20343 72.0
1002.833862 180.0
1008.691223 204.0
1076.539062 144.0
1087.760864 216.0
1103.670898 256.0
1111.725586 184.0
1113.816895 124.0
1116.967651 200.0
1119.17041 224.0
1154.453003 148.0
1155.704346 72.0
1166.466919 184.0
1169.568604 124.0
1183.159546 148.0
1201.287842 216.0
1219.943359 76.0
1222.447144 184.0
1241.265625 240.0
1242.991089 176.0
1251.467896 200.0
1251.939575 144.0
1264.010498 212.0
1267.80603 180.0
1272.409424 192.0
1275.641724 164.0
1277.554565 220.0
1277.967163 192.0
1279.340698 208.0
1286.383667 212.0
1306.908936 80.0
1318.807617 144.0
1324.429565 104.0
1339.333984 176.0
1352.879395 164.0
1364.117554 232.0
1367.361206 212.0
1386.800049 120.0
1405.644775 164.0
1407.05542 184.0
1418.523438 124.0
1424.331299 96.0
1430.53479 192.0
1430.587524 60.0
1441.515991 120.0
1443.11084 116.0
1454.041504 128.0
1458.659424 96.0
1461.914551 216.0
1467.017456 144.0
1478.6427 200.0
1480.962524 136.0
1486.497559 196.0
1491.766235 228.0
