>compound MLS002153205-01!
>formula C14H16ClN3O4S2
>ionization [M+H]+
>parentmass 390.0343521240905
#inchi InChI=1S/C14H16ClN3O4S2/c15-10-5-11-13(6-12(10)23(16,19)20)24(21,22)18-14(17-11)9-4-7-1-2-8(9)3-7/h1-2,5-9,14,17-18H,3-4H2,(H2,16,19,20)/t7-,8+,9?,14?/m0/s1
#inchikey BOCUKUHCLICSIY
#Ion_Source LC-ESI
#Instrument qTof
#Compound_Source NIH Pharmacologically Active Library
#PI Dorrestein
#Data_Collector VP/LMS
#Scan -1
#Precursor_MZ 390.037
#ExactMass 389.027
#Charge 1
#CAS_Number N/A
#Pubmed_ID N/A
#Smiles NS(=O)(=O)c1cc2c(NC(NS2(=O)=O)C3C[C@@H]4C[C@H]3C=C4)cc1Cl
#INCHI_AUX N/A
#Library_Class 3
#SpectrumID CCMSLIB00000085855
#IonMode Positive
#UpdateWorkflowName UPDATE-SINGLE-ANNOTATED-BRONZE
#LibraryQualityString Bronze
#TaskID d252d724072548979f1f6f1ced849daf
##Scan# 1919
#SpectrumFile p4-G03_GG3_01_18399.mzXML
#LibraryName Pharm_Active_Library.mgf
#MQScore -1
#Organism Pharm_Active_Library
#TIC_Query 0
#RT_Query -1
#MZErrorPPM -1
#SharedPeaks 0
#MassDiff 0
#LibMZ -1
#SpecMZ 390.037
#SpecCharge 0
#internalFilename spec-00000.mgf

>collision 10
45.921661 200.0
52.305496 116.0
53.984261 164.0
55.243355 236.0
55.410648 140.0
56.297211 164.0
57.353489 224.0
60.961376 140.0
62.834194 104.0
64.10273 144.0
65.664284 108.0
65.963005 124.0
66.194374 168.0
66.345062 140.0
70.029633 168.0
72.135605 36.0
75.096695 188.0
75.319366 156.0
75.35392 52.0
77.056664 180.0
77.518616 164.0
81.457832 160.0
82.113037 200.0
83.771637 92.0
86.121536 112.0
89.027138 168.0
89.354218 156.0
89.589554 200.0
89.940308 56.0
91.76918 172.0
92.271332 216.0
93.054108 152.0
94.76001 136.0
95.120735 168.0
99.151779 112.0
99.78701 192.0
99.84269 180.0
102.848206 156.0
103.056221 164.0
104.057129 220.0
105.041817 128.0
105.069862 728.0
105.315346 60.0
106.041718 160.0
106.064926 404.0
106.717117 60.0
108.084702 172.0
108.725052 116.0
109.078156 140.0
112.9599 152.0
112.978935 188.0
114.017967 184.0
116.04818 180.0
117.056908 640.0
118.035599 140.0
118.059387 164.0
118.730759 152.0
119.069336 144.0
120.079048 536.0
121.086891 572.0
122.030426 100.0
122.098854 376.0
123.107971 228.0
124.008438 124.0
126.982841 156.0
127.627373 152.0
128.00766 112.0
128.050781 196.0
129.020782 180.0
131.517395 160.0
136.006119 168.0
137.089951 172.0
138.252975 140.0
139.519638 104.0
139.992584 112.0
142.006241 164.0
142.849503 40.0
142.987503 148.0
143.058029 216.0
143.964996 192.0
144.041428 176.0
144.067337 180.0
144.840393 28.0
145.070435 144.0
145.990067 172.0
146.346207 108.0
148.065613 140.0
149.130768 160.0
151.018768 324.0
152.026077 340.0
153.008209 160.0
154.073654 236.0
155.14032 228.0
155.978943 240.0
155.98584 196.0
155.996246 160.0
156.603973 128.0
156.785858 168.0
157.017715 216.0
157.212311 208.0
157.995926 180.0
158.314819 72.0
158.986694 144.0
159.010864 184.0
159.977051 164.0
159.997192 132.0
160.962891 104.0
162.016525 180.0
163.016327 340.0
163.192764 40.0
164.025757 340.0
165.01535 152.0
166.019577 204.0
166.0504 160.0
169.834305 92.0
172.945526 188.0
174.277786 204.0
175.001114 120.0
176.048004 172.0
179.008469 416.0
179.036301 668.0
179.737991 56.0
180.01889 164.0
181.010406 176.0
181.032974 364.0
181.074692 84.0
181.297058 64.0
182.024307 132.0
185.000763 164.0
186.373154 116.0
186.975708 328.0
187.756073 180.0
187.953354 292.0
188.26915 40.0
188.602493 128.0
189.960709 168.0
190.383408 192.0
191.213715 56.0
191.759048 60.0
192.00444 128.0
194.005707 204.0
194.016693 152.0
194.900131 56.0
195.004822 444.0
195.039459 208.0
196.016403 160.0
197.00354 200.0
198.669434 180.0
202.469177 216.0
204.570404 196.0
204.984863 888.0
205.217133 40.0
205.334061 176.0
205.981644 164.0
206.979156 332.0
207.243698 40.0
207.975006 156.0
209.614349 148.0
209.9776 96.0
210.996948 136.0
211.966614 180.0
212.005493 200.0
213.054688 216.0
217.091583 48.0
217.50235 72.0
217.96933 156.0
218.975479 80.0
220.80835 56.0
220.976837 656.0
221.966003 124.0
222.974701 172.0
224.508942 48.0
225.969666 152.0
226.967102 128.0
227.054062 204.0
228.053894 156.0
229.073975 144.0
232.897583 88.0
234.031967 148.0
234.114182 184.0
234.214691 196.0
237.755356 152.0
242.994644 100.0
243.003326 220.0
245.009827 224.0
245.561584 164.0
245.998444 164.0
250.930374 160.0
252.935547 164.0
253.075775 152.0
258.122559 148.0
258.996674 728.0
259.989471 164.0
260.990021 504.0
261.346344 60.0
262.960907 76.0
264.315002 256.0
268.010315 160.0
268.46994 160.0
268.935486 360.0
269.919891 152.0
270.338623 84.0
270.948822 172.0
271.082031 48.0
275.253296 124.0
278.970825 112.0
284.392456 52.0
286.946167 148.0
288.938507 116.0
306.200104 104.0
306.377747 112.0
306.726227 216.0
306.957306 2156.0
307.532013 56.0
307.963959 452.0
308.307373 208.0
308.952423 1032.0
309.104706 92.0
309.959137 36.0
310.00119 84.0
310.239532 64.0
310.969177 176.0
311.309723 64.0
311.523987 52.0
314.870331 80.0
321.145599 60.0
323.995941 228.0
324.984253 132.0
325.987335 164.0
329.09845 144.0
346.169342 172.0
367.275269 192.0
389.253082 104.0
390.266907 116.0
393.193878 176.0
443.027924 128.0
573.98938 72.0
728.279297 108.0
758.439453 136.0
864.547119 32.0
1051.373779 40.0
1084.087158 208.0
1137.625244 120.0
1230.479248 164.0
1304.16272 156.0
1342.281738 280.0
1372.737305 232.0
1387.748291 188.0
1401.559082 72.0
1404.235474 220.0
1404.921753 192.0
1406.802368 152.0
1416.104736 212.0
1417.400757 136.0
1459.37854 148.0
1464.028076 68.0
1470.645996 160.0
1493.387939 140.0
1497.829346 212.0
1499.177734 104.0
