>compound MLS001158993-01!(2R)-2-[[2-[(3-oxo-2,4-dihydroquinoxaline-1-carbonyl)amino]acetyl]amino]-3-phenylpropanoic acid
>formula C20H20N4O5
>ionization [M+H]+
>parentmass 397.151
#inchi InChI=1S/C20H20N4O5/c25-17(23-15(19(27)28)10-13-6-2-1-3-7-13)11-21-20(29)24-12-18(26)22-14-8-4-5-9-16(14)24/h1-9,15H,10-12H2,(H,21,29)(H,22,26)(H,23,25)(H,27,28)/t15-/m1/s1
#inchikey IBTJOOKSKXYREZ
#Ion_Source LC-ESI
#Instrument qTof
#Compound_Source NIH Natural Product Library
#PI Dorrestein
#Data_Collector VVP/LMS
#Scan -1
#Precursor_MZ 397.151
#ExactMass 396.143
#Charge 1
#CAS_Number N/A
#Pubmed_ID N/A
#Smiles OC(=O)[C@@H](Cc1ccccc1)NC(=O)CNC(=O)N2CC(=O)Nc3ccccc23
#INCHI_AUX N/A
#Library_Class 1
#SpectrumID CCMSLIB00000079904
#IonMode Positive
#UpdateWorkflowName UPDATE-SINGLE-ANNOTATED-GOLD
#LibraryQualityString Gold
#TaskID b1d8e8f6646f4e71acdff9ca3d919d08
##Scan# 1627
#SpectrumFile p1-F12_GF12_01_17944.mzXML
#LibraryName NIH_Natural_Products_Library.mgf
#MQScore -1
#Organism NIH_Natural_Products_Library
#TIC_Query 0
#RT_Query -1
#MZErrorPPM -1
#SharedPeaks 0
#MassDiff 0
#LibMZ -1
#SpecMZ 397.151
#SpecCharge 0
#internalFilename spec-00000.mgf

>collision 10
95.052689 184.0
95.229347 172.0
95.406174 172.0
95.692162 136.0
95.955185 60.0
96.36895 156.0
96.411942 180.0
96.480354 136.0
96.554657 52.0
96.738579 196.0
96.756203 144.0
96.861946 168.0
96.879578 152.0
97.193268 148.0
97.259995 168.0
97.428871 228.0
97.442627 124.0
97.458344 64.0
97.790688 164.0
98.011246 136.0
98.277435 144.0
98.62896 144.0
98.76432 152.0
98.875008 168.0
98.925674 128.0
99.290253 128.0
99.478745 204.0
99.580009 172.0
99.655502 160.0
99.681328 196.0
99.713127 148.0
99.752876 180.0
99.913963 88.0
100.366074 116.0
100.931152 240.0
101.033157 184.0
101.057167 248.0
101.520844 124.0
101.674347 212.0
101.778732 212.0
102.283348 224.0
102.504883 196.0
102.873978 64.0
103.00119 120.0
103.054077 1336.0
103.144661 136.0
103.387367 40.0
103.401527 44.0
103.435936 152.0
103.525024 132.0
103.591858 124.0
103.656693 196.0
103.707359 180.0
103.764122 132.0
103.800613 156.0
103.995377 168.0
104.049713 172.0
104.202507 148.0
104.481033 244.0
104.694756 84.0
104.896461 128.0
105.004532 192.0
105.037163 128.0
105.064903 240.0
105.084084 184.0
105.114693 188.0
105.190201 176.0
105.284126 84.0
105.801437 228.0
106.069115 200.0
106.537666 112.0
106.990097 216.0
107.050468 320.0
107.130135 152.0
107.437302 256.0
107.666412 152.0
107.711853 184.0
107.736641 172.0
108.032265 112.0
108.112953 152.0
108.274437 100.0
108.547981 204.0
109.412323 56.0
109.56852 132.0
109.662285 176.0
110.010635 160.0
110.450729 92.0
111.348618 160.0
111.380272 268.0
111.44735 160.0
111.613403 60.0
111.966934 124.0
112.337898 220.0
112.399086 224.0
112.65033 172.0
113.030884 132.0
113.200233 92.0
113.29554 220.0
113.3358 160.0
113.380295 136.0
113.467209 160.0
113.891617 88.0
113.959602 84.0
113.982971 140.0
114.036102 116.0
114.059479 144.0
114.597893 116.0
114.904915 188.0
115.047234 244.0
115.308495 160.0
115.426071 136.0
115.533012 136.0
115.71492 212.0
116.029861 148.0
116.216454 140.0
116.508446 184.0
117.061211 256.0
117.14521 192.0
117.250786 84.0
117.352104 160.0
117.397385 180.0
117.464249 140.0
117.602341 84.0
117.690849 80.0
117.718925 124.0
117.861488 196.0
117.932808 184.0
117.963066 168.0
118.038734 180.0
118.065697 476.0
118.307022 152.0
118.486771 176.0
118.522675 204.0
118.679665 220.0
118.73822 208.0
118.953026 152.0
119.06076 6928.0
119.128922 60.0
119.207138 132.0
119.259293 132.0
119.383217 132.0
119.485451 60.0
119.681328 36.0
119.955833 136.0
120.008156 100.0
120.080948 10672.0
120.130936 176.0
120.156471 28.0
120.187012 104.0
120.21756 136.0
120.251534 156.0
120.405312 128.0
120.45118 52.0
120.468651 60.0
120.527641 188.0
120.593201 60.0
120.660965 28.0
120.890633 120.0
120.949722 104.0
120.993507 44.0
121.03511 184.0
121.077225 2796.0
121.11277 164.0
121.507523 104.0
121.532669 104.0
121.563385 88.0
121.776337 80.0
121.903763 108.0
122.053268 176.0
122.081902 172.0
122.235809 36.0
122.255615 164.0
122.39209 52.0
122.797577 32.0
122.852722 92.0
123.216988 176.0
123.776573 144.0
123.911957 140.0
124.219826 184.0
124.346306 136.0
124.48616 168.0
124.617218 148.0
124.648323 104.0
124.997437 200.0
125.360405 52.0
126.081223 192.0
126.191162 216.0
126.362968 84.0
126.490532 48.0
126.537544 108.0
126.5868 80.0
126.606956 120.0
126.723434 108.0
126.841705 232.0
127.187645 184.0
127.270714 156.0
127.322357 184.0
127.439163 168.0
127.571762 92.0
127.654953 104.0
127.756165 136.0
128.019501 132.0
128.049805 484.0
128.265091 64.0
128.348495 164.0
128.436462 140.0
128.720825 136.0
128.813416 132.0
129.052979 148.0
129.123077 200.0
129.181885 156.0
129.956696 184.0
130.066483 344.0
130.233643 88.0
130.267715 148.0
130.904556 132.0
131.059906 888.0
131.146042 156.0
131.162003 220.0
131.241791 176.0
131.958725 164.0
132.044769 424.0
132.069443 1532.0
132.134827 32.0
132.196609 136.0
132.21492 132.0
132.256119 44.0
132.301895 172.0
132.728043 148.0
132.902374 192.0
133.078384 952.0
133.147995 112.0
133.426025 56.0
133.453613 160.0
133.86319 112.0
134.078537 152.0
134.194992 88.0
134.441818 104.0
134.744293 68.0
134.855209 164.0
135.197495 48.0
135.725662 212.0
136.633789 148.0
137.484283 180.0
137.95842 132.0
138.037918 132.0
138.157211 168.0
138.349106 124.0
138.402954 192.0
138.84584 208.0
138.878677 172.0
138.951401 128.0
139.167328 52.0
139.42337 132.0
139.533844 168.0
139.7267 160.0
139.856125 196.0
140.028 124.0
140.442825 184.0
140.796844 112.0
141.376038 184.0
141.461258 148.0
141.631744 120.0
141.721771 128.0
142.06488 780.0
142.566528 88.0
142.789993 256.0
142.942245 120.0
143.0065 52.0
143.049347 360.0
143.06488 184.0
143.218414 68.0
143.454315 160.0
143.845474 192.0
144.177521 144.0
144.304214 196.0
144.550583 172.0
144.739685 104.0
144.847458 144.0
144.940887 148.0
145.031967 56.0
145.118256 76.0
145.735107 64.0
145.831223 204.0
145.864883 208.0
145.968262 160.0
146.011551 116.0
146.060211 1588.0
146.095734 184.0
146.264175 28.0
146.300293 52.0
146.437531 176.0
146.531479 180.0
146.584488 80.0
146.617813 184.0
146.635712 204.0
146.714645 32.0
146.758041 176.0
146.78215 152.0
146.839951 120.0
146.891647 180.0
146.911301 168.0
146.951691 180.0
147.004074 144.0
147.055481 37212.0
147.118378 180.0
147.138565 64.0
147.166046 40.0
147.197189 52.0
147.240662 240.0
147.288971 52.0
147.368698 48.0
147.390442 52.0
147.410934 68.0
147.451614 76.0
147.474258 88.0
147.495193 92.0
147.513702 48.0
147.566879 48.0
147.610397 44.0
147.703674 128.0
147.791824 68.0
147.927765 208.0
148.059219 2972.0
148.186478 120.0
148.208282 80.0
148.402191 40.0
148.537994 52.0
148.59761 48.0
148.627762 96.0
148.644745 116.0
148.719986 92.0
148.744247 60.0
148.797653 44.0
148.834076 172.0
148.889938 160.0
148.94252 240.0
148.96933 96.0
148.987213 144.0
149.069519 6220.0
149.114502 156.0
149.181503 80.0
149.23381 124.0
149.260468 92.0
149.295776 92.0
149.339554 68.0
149.484253 76.0
149.651047 120.0
149.743576 108.0
149.867813 32.0
150.074234 820.0
150.455597 128.0
150.694946 144.0
151.076324 168.0
151.228043 84.0
151.514542 88.0
152.228302 72.0
152.383041 116.0
153.364929 144.0
153.919998 104.0
154.213989 80.0
154.416733 200.0
154.763168 168.0
154.842422 128.0
155.65831 156.0
155.807327 32.0
156.431534 108.0
156.523651 216.0
157.074432 168.0
157.371414 152.0
158.0634 160.0
158.374207 256.0
158.499481 140.0
158.735107 68.0
158.820374 168.0
158.898132 204.0
158.918213 68.0
159.059937 176.0
159.088867 324.0
159.764877 96.0
160.085602 404.0
160.150009 180.0
160.808075 164.0
161.069046 984.0
162.039566 108.0
162.076813 324.0
162.12825 168.0
162.539062 192.0
162.952606 188.0
163.400391 184.0
163.690552 196.0
164.621323 176.0
164.999481 80.0
165.480469 164.0
165.84166 172.0
166.08548 436.0
167.087097 144.0
167.681915 56.0
168.231339 156.0
168.3423 192.0
168.970459 148.0
169.726746 124.0
169.988373 168.0
170.610245 220.0
170.713501 160.0
171.588379 188.0
172.483795 188.0
172.999115 148.0
173.111694 120.0
173.394638 52.0
173.509964 148.0
174.050461 200.0
174.071457 128.0
174.239563 232.0
174.609406 228.0
174.844345 68.0
174.873291 124.0
174.92067 192.0
174.970688 80.0
175.004349 148.0
175.050049 17068.0
175.122864 152.0
175.169662 40.0
175.194534 76.0
175.257767 32.0
175.31311 84.0
175.35791 40.0
175.543289 164.0
175.85376 68.0
175.88176 144.0
175.948776 88.0
175.985748 116.0
176.05101 1620.0
176.080139 1108.0
176.359406 108.0
176.897842 76.0
177.051117 132.0
177.11264 132.0
177.133514 172.0
177.162659 84.0
177.271286 96.0
177.371994 148.0
177.50029 144.0
177.533722 76.0
177.560242 80.0
177.687576 116.0
177.788406 108.0
178.085754 124.0
178.532242 168.0
178.561493 144.0
178.867477 132.0
179.394913 88.0
180.72493 232.0
181.115784 80.0
183.337708 36.0
183.836609 168.0
184.644363 128.0
185.067657 192.0
185.378006 148.0
185.59758 164.0
186.055603 200.0
186.066925 172.0
186.102249 168.0
186.175568 104.0
186.197296 92.0
186.672867 112.0
187.02655 92.0
187.045609 168.0
187.238922 132.0
187.462311 152.0
188.234283 172.0
188.97229 168.0
189.016068 92.0
189.380173 156.0
189.692184 180.0
189.802216 76.0
190.114929 236.0
190.208252 148.0
193.059097 276.0
194.076126 168.0
194.153763 196.0
196.295059 116.0
198.156601 124.0
199.680847 48.0
199.796173 208.0
200.046646 120.0
200.849731 180.0
202.681686 168.0
202.76387 160.0
202.914108 228.0
202.987823 160.0
203.01619 120.0
203.08226 5812.0
203.226089 96.0
203.312073 80.0
203.35379 132.0
203.595108 112.0
203.691681 160.0
204.076294 13012.0
204.146423 40.0
204.194778 60.0
204.228897 60.0
204.265884 36.0
204.374725 124.0
204.412598 80.0
204.462204 48.0
204.547592 64.0
204.590286 72.0
205.079895 1116.0
205.137238 144.0
205.314026 72.0
205.419556 92.0
205.522263 76.0
205.576477 52.0
205.605011 116.0
205.627853 100.0
205.710617 120.0
206.084824 168.0
206.330536 108.0
206.599365 44.0
206.698669 124.0
206.917038 40.0
206.954254 88.0
207.555969 76.0
207.685013 104.0
207.705093 116.0
207.750992 48.0
210.101364 92.0
213.068802 140.0
218.606812 36.0
218.795197 128.0
222.968887 116.0
227.116028 224.0
227.554169 200.0
231.035095 96.0
231.086517 136.0
232.070084 1152.0
232.119385 36.0
233.076614 344.0
235.155502 156.0
237.925751 96.0
242.02948 112.0
243.042068 200.0
247.06221 128.0
248.036087 112.0
248.597488 80.0
249.08226 300.0
254.014816 96.0
255.040436 152.0
255.501526 148.0
260.588165 104.0
263.316589 52.0
263.558868 76.0
263.633209 104.0
265.053802 100.0
266.725159 80.0
268.868286 80.0
283.077911 84.0
288.985321 136.0
292.930237 36.0
309.145294 36.0
309.778992 64.0
326.052216 80.0
330.874908 96.0
355.24939 36.0
372.995636 60.0
380.80069 108.0
380.921082 52.0
391.107452 164.0
418.38382 72.0
452.02597 72.0
461.892212 44.0
511.645477 64.0
512.244385 100.0
525.851929 72.0
545.54425 72.0
623.273682 100.0
627.993042 72.0
661.312256 88.0
704.845825 280.0
738.982727 72.0
767.384949 84.0
773.439636 144.0
781.202759 68.0
815.465088 88.0
817.392944 164.0
834.259705 116.0
838.795837 44.0
847.053284 264.0
879.530884 160.0
885.703979 204.0
895.700928 176.0
895.897522 64.0
897.077454 72.0
899.624695 136.0
908.409485 160.0
911.922119 200.0
920.235229 176.0
939.303284 108.0
951.917236 152.0
969.758972 92.0
972.754883 192.0
983.998047 180.0
987.878967 160.0
991.729919 136.0
1001.594727 112.0
1010.42627 80.0
1016.578796 144.0
1046.204468 220.0
1049.722412 232.0
1050.186768 188.0
1052.025757 76.0
1061.634033 140.0
1061.705322 148.0
1067.10791 192.0
1069.345581 116.0
1069.866333 176.0
1070.387207 156.0
1071.435913 148.0
1073.065186 136.0
1082.683716 168.0
1085.89502 120.0
1089.853516 84.0
1090.155762 168.0
1100.37854 92.0
1102.227905 164.0
1105.117432 148.0
1105.454956 184.0
1106.652954 112.0
1107.772217 148.0
1108.447998 76.0
1122.567139 128.0
1135.31311 208.0
1136.654785 180.0
1140.738159 116.0
1141.760254 168.0
1143.516113 204.0
1149.797485 132.0
1155.162354 228.0
1156.806641 160.0
1160.972412 188.0
1163.986572 36.0
1166.748901 164.0
1167.153076 184.0
1174.208008 192.0
1187.983887 48.0
1188.189697 208.0
1191.966064 136.0
1192.302734 112.0
1192.481445 32.0
1194.489136 164.0
1199.371216 136.0
1201.226074 180.0
1202.723389 196.0
1204.746704 184.0
1208.279419 168.0
1209.227417 128.0
1210.362671 128.0
1217.039917 124.0
1221.418213 204.0
1226.15979 136.0
1235.964233 148.0
1236.230103 140.0
1237.553101 200.0
1239.044922 152.0
1240.796997 192.0
1240.874146 68.0
1241.498169 212.0
1242.655518 132.0
1243.469604 180.0
1243.79248 152.0
1247.536499 220.0
1255.859619 112.0
1260.907715 260.0
1264.967651 136.0
1268.708008 200.0
1280.24707 204.0
1280.610352 172.0
1282.812134 32.0
1282.919067 120.0
1285.615112 180.0
1287.321289 140.0
1287.878296 156.0
1288.306885 200.0
1291.330566 192.0
1299.970459 156.0
1302.590942 148.0
1307.314697 208.0
1308.718384 124.0
1309.258423 176.0
1309.431274 204.0
1310.338867 188.0
1310.908081 140.0
1312.760742 152.0
1313.150146 252.0
1316.715454 56.0
1316.975464 124.0
1317.206665 64.0
1320.784668 160.0
1323.303101 132.0
1325.758545 228.0
1328.114868 116.0
1329.616699 120.0
1331.003296 248.0
1341.057129 152.0
1347.581055 48.0
1348.143677 156.0
1352.070801 160.0
1353.498291 76.0
1357.645874 228.0
1358.019897 192.0
1359.281738 156.0
1360.485474 116.0
1361.564819 252.0
1364.099731 224.0
1369.537476 148.0
1372.190308 168.0
1374.588135 220.0
1379.255005 204.0
1379.868652 144.0
1382.020874 120.0
1383.841675 200.0
1384.804321 152.0
1385.663574 152.0
1386.04895 148.0
1386.537964 228.0
1388.880859 212.0
1389.845337 108.0
1391.812256 112.0
1393.788086 100.0
1393.862427 124.0
1395.562256 236.0
1396.025635 216.0
1399.44104 312.0
1401.481812 196.0
1401.928955 148.0
1403.883057 132.0
1408.031372 144.0
1409.241577 164.0
1410.018677 40.0
1410.613525 176.0
1411.682251 188.0
1412.261597 168.0
1413.443726 180.0
1413.750488 208.0
1413.960083 204.0
1414.207031 200.0
1414.304321 224.0
1415.56958 172.0
1420.748657 156.0
1421.138794 132.0
1421.326416 124.0
1422.707397 28.0
1423.721069 124.0
1424.351929 152.0
1426.035034 120.0
1426.230469 116.0
1426.561157 228.0
1426.884399 48.0
1427.222778 232.0
1429.629883 48.0
1429.885742 176.0
1435.596191 212.0
1436.101562 108.0
1437.829224 120.0
1437.965088 64.0
1440.834595 228.0
1441.469238 48.0
1442.300537 180.0
1443.661377 204.0
1445.015381 184.0
1446.71814 280.0
1449.255371 212.0
1449.482666 180.0
1453.182861 116.0
1454.632324 176.0
1456.044556 192.0
1457.525879 224.0
1457.746338 80.0
1460.726685 184.0
1462.476685 164.0
1462.910645 228.0
1463.595825 152.0
1466.101929 220.0
1467.108154 48.0
1467.321533 32.0
1468.38916 232.0
1470.143799 188.0
1470.594116 164.0
1471.441406 196.0
1472.059814 160.0
1473.419434 152.0
1474.122437 148.0
1474.924805 208.0
1474.978394 152.0
1478.167603 172.0
1479.767334 164.0
1482.862061 200.0
1483.33728 104.0
1483.536499 132.0
1484.947388 152.0
1489.929199 140.0
1490.45166 160.0
1493.46521 212.0
1498.068359 72.0
1498.3302 208.0
1501.729736 132.0
