>compound MLS001048987-01!5-[(6,7-dimethoxy-3,4-dihydro-1H-isoquinolin-2-yl)methyl]-2-methoxyphenol
>formula C19H23NO4
>ionization [M+H]+
>parentmass 330.171
#inchi InChI=1S/C19H23NO4/c1-22-17-5-4-13(8-16(17)21)11-20-7-6-14-9-18(23-2)19(24-3)10-15(14)12-20/h4-5,8-10,21H,6-7,11-12H2,1-3H3
#inchikey PLFGRBPWZRSCHW
#Ion_Source LC-ESI
#Instrument qTof
#Compound_Source NIH Natural Product Library
#PI Dorrestein
#Data_Collector VVP/LMS
#Scan -1
#Precursor_MZ 330.171
#ExactMass 329.163
#Charge 1
#CAS_Number N/A
#Pubmed_ID N/A
#Smiles COc1ccc(CN2CCc3cc(OC)c(OC)cc3C2)cc1O
#INCHI_AUX N/A
#Library_Class 1
#SpectrumID CCMSLIB00000080296
#IonMode Positive
#UpdateWorkflowName UPDATE-SINGLE-ANNOTATED-GOLD
#LibraryQualityString Gold
#TaskID b1d8e8f6646f4e71acdff9ca3d919d08
##Scan# 1397
#SpectrumFile p2-H06_GH6_01_18066.mzXML
#LibraryName NIH_Natural_Products_Library.mgf
#MQScore -1
#Organism NIH_Natural_Products_Library
#TIC_Query 0
#RT_Query -1
#MZErrorPPM -1
#SharedPeaks 0
#MassDiff 0
#LibMZ -1
#SpecMZ 330.171
#SpecCharge 0
#internalFilename spec-00000.mgf

>collision 10
94.96862 156.0
94.999657 148.0
95.043068 1572.0
95.080261 172.0
95.102509 108.0
95.12616 152.0
95.168175 140.0
95.201523 116.0
95.27681 184.0
95.312248 140.0
95.47554 164.0
95.530006 100.0
95.561134 108.0
95.576698 224.0
95.592529 176.0
95.62146 100.0
95.644386 180.0
95.660393 196.0
95.712959 140.0
95.738274 36.0
95.761642 292.0
95.788918 112.0
95.83567 148.0
95.862953 176.0
95.935066 128.0
95.991615 172.0
96.050552 236.0
96.06768 164.0
96.114502 152.0
96.193733 216.0
96.216003 116.0
96.264816 116.0
96.340988 132.0
96.395699 140.0
96.419151 216.0
96.489517 88.0
96.503204 140.0
96.541168 136.0
96.561874 60.0
96.580879 152.0
96.64991 272.0
96.85939 160.0
96.886818 136.0
96.963234 204.0
97.002441 124.0
97.025963 148.0
97.086746 136.0
97.23996 172.0
97.399887 180.0
97.461693 144.0
97.508507 180.0
97.573677 176.0
97.656319 212.0
97.715332 152.0
97.748779 44.0
97.873474 232.0
97.916115 92.0
98.010674 188.0
98.036293 152.0
98.08754 132.0
98.105278 204.0
98.152603 128.0
98.261086 156.0
98.280815 52.0
98.312157 240.0
98.347916 128.0
98.391342 120.0
98.430832 176.0
98.509834 184.0
98.642235 208.0
98.834076 156.0
98.865738 256.0
98.899391 180.0
98.968681 156.0
99.026108 104.0
99.041954 112.0
99.071671 84.0
99.094475 180.0
99.170746 60.0
99.279793 108.0
99.299622 268.0
99.33136 152.0
99.376686 232.0
99.446449 184.0
99.502029 168.0
99.51593 156.0
99.567558 52.0
99.644836 160.0
99.675308 168.0
99.688744 196.0
99.748375 164.0
99.815971 176.0
99.905472 176.0
99.969147 88.0
99.983078 156.0
100.062698 212.0
100.078629 160.0
100.106506 104.0
100.174225 164.0
100.235992 152.0
100.253922 168.0
100.285812 176.0
100.427383 216.0
100.475258 200.0
100.550102 156.0
100.61097 40.0
100.656891 180.0
100.675613 220.0
100.734787 196.0
100.749535 272.0
100.792725 116.0
100.852676 52.0
100.906029 228.0
100.954643 80.0
101.020653 164.0
101.082672 196.0
101.150726 204.0
101.164734 152.0
101.216797 160.0
101.282883 192.0
101.296677 140.0
101.310677 156.0
101.346992 224.0
101.399094 188.0
101.465248 136.0
101.493317 140.0
101.569527 128.0
101.584351 208.0
101.633728 44.0
101.688217 220.0
101.778252 184.0
101.804077 264.0
101.872643 112.0
101.981155 96.0
102.02739 200.0
102.127937 152.0
102.218468 180.0
102.296967 164.0
102.333206 212.0
102.347878 180.0
102.39045 196.0
102.427856 260.0
102.466133 136.0
102.48024 140.0
102.504417 172.0
102.520592 160.0
102.647545 144.0
102.706032 176.0
102.724182 176.0
102.813614 188.0
103.006798 156.0
103.121971 104.0
103.138145 152.0
103.352516 176.0
103.39299 184.0
103.459785 140.0
103.49218 140.0
103.538757 184.0
103.619781 164.0
103.646126 124.0
103.66436 152.0
103.725166 168.0
103.818604 232.0
103.866753 200.0
103.950294 132.0
103.981934 156.0
104.021332 140.0
104.058624 152.0
104.141136 172.0
104.171799 212.0
104.193954 168.0
104.240685 216.0
104.281334 140.0
104.35849 180.0
104.401283 180.0
104.437889 152.0
104.489731 164.0
104.508942 160.0
104.555901 208.0
104.572182 64.0
104.651573 156.0
104.737564 180.0
104.822678 160.0
104.838982 168.0
104.869553 216.0
104.989845 152.0
105.030838 836.0
105.048164 176.0
105.081017 136.0
105.11837 152.0
105.161835 148.0
105.189804 52.0
105.22451 192.0
105.275513 176.0
105.312317 224.0
105.335709 124.0
105.402206 84.0
105.423775 152.0
105.449211 176.0
105.508492 220.0
105.52668 152.0
105.717125 184.0
105.801048 128.0
105.824806 252.0
105.854286 144.0
105.985382 144.0
106.09684 168.0
106.134094 196.0
106.196541 84.0
106.292412 164.0
106.315536 128.0
106.33271 256.0
106.395592 176.0
106.464058 128.0
106.498695 172.0
106.527023 192.0
106.633873 208.0
106.738724 176.0
106.925926 100.0
106.989738 92.0
107.01033 152.0
107.048035 1640.0
107.109177 160.0
107.197777 76.0
107.259918 472.0
107.309082 164.0
107.335884 128.0
107.371658 116.0
107.428703 176.0
107.476151 160.0
107.509171 160.0
107.533936 136.0
107.573158 156.0
107.59436 148.0
107.614449 168.0
107.707382 116.0
107.756958 76.0
108.050652 240.0
108.075378 228.0
108.100204 204.0
108.131248 204.0
108.151947 124.0
108.19503 148.0
108.216125 248.0
108.33625 164.0
108.367165 156.0
108.514481 164.0
108.578766 188.0
108.603653 108.0
108.686378 160.0
108.786263 92.0
108.859627 180.0
108.875549 164.0
108.942017 200.0
109.062393 520.0
109.118668 148.0
109.157829 144.0
109.366226 156.0
109.405777 124.0
109.423988 156.0
109.503647 192.0
109.546211 196.0
109.807945 164.0
109.83297 148.0
109.887215 140.0
109.989471 68.0
110.066719 156.0
110.196068 220.0
110.300713 136.0
110.359253 100.0
110.484741 112.0
110.631233 168.0
110.658455 52.0
110.691956 116.0
110.708862 160.0
110.775734 136.0
110.951767 132.0
111.046646 180.0
111.051941 224.0
111.096474 292.0
111.125847 204.0
111.211891 156.0
111.272766 172.0
111.301773 192.0
111.344162 156.0
111.378555 204.0
111.423988 128.0
111.474419 152.0
111.526024 216.0
111.569 52.0
111.587921 156.0
111.632019 148.0
111.820023 180.0
111.852997 124.0
111.882469 72.0
111.911087 216.0
111.999641 164.0
112.048851 80.0
112.11628 180.0
112.140121 140.0
112.341888 212.0
112.381973 204.0
112.438957 168.0
112.528488 232.0
112.537376 96.0
112.545578 196.0
112.707146 160.0
112.810715 108.0
112.831856 44.0
113.007401 236.0
113.161911 180.0
113.20002 228.0
113.263557 148.0
113.312286 176.0
113.339828 196.0
113.437584 196.0
113.513649 116.0
113.585762 180.0
113.60408 208.0
113.637138 204.0
113.644203 44.0
113.651123 228.0
113.674873 84.0
113.723557 172.0
113.780998 152.0
113.876556 168.0
113.959412 168.0
113.997658 260.0
114.027412 132.0
114.061417 124.0
114.106064 228.0
114.2826 44.0
114.310036 152.0
114.350693 96.0
114.378365 148.0
114.410301 192.0
114.451271 164.0
114.529549 152.0
114.565765 172.0
114.70002 144.0
114.740524 168.0
114.808754 88.0
114.909012 180.0
114.985832 120.0
115.002907 172.0
115.062477 168.0
115.090439 160.0
115.10952 124.0
115.224998 152.0
115.242088 140.0
115.298759 100.0
115.385292 320.0
115.464561 112.0
115.479378 176.0
115.541412 160.0
115.641991 140.0
115.656975 148.0
115.764023 292.0
115.858269 132.0
115.896835 172.0
115.932907 144.0
115.991135 164.0
116.05928 224.0
116.110054 180.0
116.267822 100.0
116.35154 108.0
116.392334 176.0
116.409508 144.0
116.441727 200.0
116.473946 120.0
116.501869 128.0
116.615761 188.0
116.682671 156.0
116.7211 184.0
116.85231 212.0
116.893188 100.0
116.976349 132.0
117.018036 104.0
117.054642 152.0
117.127869 216.0
117.188187 156.0
117.242058 44.0
117.285164 136.0
117.343369 260.0
117.53318 220.0
117.651894 224.0
117.684273 392.0
117.746902 224.0
117.774979 200.0
117.854912 184.0
117.887329 148.0
117.98243 144.0
117.999725 128.0
118.021965 168.0
118.063026 372.0
118.086227 144.0
118.187904 124.0
118.263649 156.0
118.306808 196.0
118.391388 124.0
118.426041 168.0
118.440567 48.0
118.521362 44.0
118.569038 124.0
118.686096 184.0
118.837936 176.0
118.86586 244.0
118.933418 252.0
119.028946 116.0
119.047897 352.0
119.08107 308.0
119.096275 196.0
119.151848 220.0
119.235329 204.0
119.263626 200.0
119.361412 144.0
119.444061 112.0
119.481041 132.0
119.52021 208.0
119.609436 84.0
119.755325 156.0
119.827217 192.0
119.92746 84.0
119.990677 168.0
120.07354 160.0
120.165161 152.0
120.197891 200.0
120.230621 180.0
120.278641 152.0
120.307022 204.0
120.355049 144.0
120.518875 172.0
120.538536 204.0
120.585014 196.0
120.615036 92.0
120.682808 104.0
120.805283 72.0
120.857788 272.0
120.905937 156.0
120.995682 112.0
121.035095 132.0
121.059181 256.0
121.075806 244.0
121.28923 168.0
121.374733 144.0
121.519073 184.0
121.551125 224.0
121.668747 140.0
121.749527 260.0
121.788025 164.0
121.823601 140.0
121.877396 128.0
121.908958 144.0
121.942429 88.0
121.96032 192.0
121.978493 224.0
122.005295 360.0
122.03672 56612.0
122.085472 140.0
122.112625 84.0
122.14138 164.0
122.163216 200.0
122.179573 136.0
122.237549 92.0
122.256996 228.0
122.323051 76.0
122.338173 96.0
122.361214 116.0
122.39817 448.0
122.416885 80.0
122.430901 52.0
122.444962 204.0
122.480209 96.0
122.500031 40.0
122.518417 104.0
122.539688 156.0
122.570534 108.0
122.642426 332.0
122.685913 208.0
122.705849 72.0
122.731148 148.0
122.762321 44.0
122.779961 36.0
122.799812 76.0
122.819664 168.0
122.864975 192.0
122.885841 140.0
122.918945 68.0
122.94912 196.0
122.971725 48.0
123.039642 6636.0
123.106583 52.0
123.150757 56.0
123.186096 72.0
123.276688 60.0
123.298782 44.0
123.323097 48.0
123.371727 172.0
123.409317 184.0
123.460175 64.0
123.522102 120.0
123.590691 240.0
123.619453 76.0
123.63559 136.0
123.668144 132.0
123.712418 176.0
123.787827 276.0
123.81649 124.0
123.832809 152.0
123.859901 120.0
123.873161 164.0
123.881493 92.0
123.902061 124.0
123.917892 72.0
123.955666 92.0
123.965698 160.0
123.989838 148.0
124.039406 380.0
124.073524 112.0
124.106789 172.0
124.130066 224.0
124.157791 40.0
124.175529 124.0
124.296181 96.0
124.314796 176.0
124.379662 160.0
124.577301 164.0
124.668404 148.0
124.71376 224.0
124.737305 160.0
124.841805 140.0
124.914604 164.0
124.953018 120.0
124.970818 68.0
125.037582 148.0
125.095451 120.0
125.177834 40.0
125.213463 164.0
125.255783 128.0
125.29171 188.0
125.342674 136.0
125.373871 208.0
125.402847 124.0
125.471954 208.0
125.61245 160.0
125.665993 156.0
125.907074 140.0
126.005363 120.0
126.117096 100.0
126.213226 184.0
126.282555 144.0
126.425743 204.0
126.454842 140.0
126.540947 172.0
126.617905 144.0
126.698921 252.0
126.728043 72.0
126.766136 28.0
126.862518 108.0
126.885651 188.0
126.985847 196.0
127.003792 208.0
127.097038 156.0
127.144363 184.0
127.16983 188.0
127.277588 96.0
127.316734 164.0
127.405617 104.0
127.425835 132.0
127.511223 104.0
127.529205 180.0
127.56292 60.0
127.598892 172.0
127.671059 172.0
127.835075 204.0
127.9161 148.0
127.956619 232.0
128.028076 208.0
128.053741 188.0
128.091751 204.0
128.17511 104.0
128.292313 100.0
128.326126 160.0
128.468216 136.0
128.514893 160.0
128.696167 144.0
128.748093 144.0
128.772949 232.0
128.872345 224.0
128.946915 160.0
128.969513 116.0
129.068985 156.0
129.182083 140.0
129.259003 128.0
129.344818 192.0
129.392548 112.0
129.408401 124.0
129.487656 188.0
129.512573 164.0
129.664368 128.0
129.696106 176.0
129.752777 224.0
129.798416 128.0
129.861633 172.0
129.922882 196.0
129.954758 228.0
130.070374 168.0
130.088547 220.0
130.11351 48.0
130.188446 36.0
130.231308 184.0
130.324738 148.0
130.349731 176.0
130.374741 148.0
130.47702 240.0
130.522491 148.0
130.554733 160.0
130.597549 168.0
130.767166 168.0
130.934402 160.0
131.073792 740.0
131.289932 40.0
131.378891 44.0
131.441208 240.0
131.460663 200.0
131.52037 124.0
131.570587 244.0
131.709885 160.0
131.817276 164.0
131.981857 60.0
132.002426 156.0
132.050858 160.0
132.222046 148.0
132.279282 120.0
132.37085 192.0
132.483093 132.0
132.558701 136.0
132.577026 168.0
132.693939 192.0
132.884308 208.0
132.927902 44.0
133.000656 176.0
133.042664 168.0
133.061035 148.0
133.129913 108.0
133.203629 216.0
133.304504 164.0
133.355072 132.0
133.380356 148.0
133.398743 160.0
133.550507 88.0
133.606583 96.0
133.628372 232.0
133.679352 136.0
133.757111 188.0
133.780624 164.0
133.806763 204.0
133.847382 220.0
133.872726 164.0
133.914169 156.0
134.060928 252.0
134.086975 144.0
134.203751 208.0
134.257584 172.0
134.464142 172.0
134.482407 208.0
134.543701 40.0
134.582947 104.0
134.610657 168.0
134.640686 108.0
134.694168 208.0
134.746185 156.0
134.800079 256.0
134.883286 172.0
134.908722 156.0
135.022018 144.0
135.044968 920.0
135.207108 200.0
135.232559 64.0
135.295059 64.0
135.456787 216.0
135.56839 204.0
135.644684 204.0
135.67038 128.0
135.777039 88.0
135.802551 116.0
135.932465 100.0
136.049103 296.0
136.139069 180.0
136.155334 120.0
136.226913 108.0
136.230927 256.0
136.261551 132.0
136.297043 148.0
136.346558 144.0
136.391388 168.0
136.43541 148.0
136.473236 60.0
136.479431 360.0
136.504715 164.0
136.554199 104.0
136.603683 220.0
136.640213 300.0
136.655304 152.0
136.677811 152.0
136.720093 236.0
136.757217 156.0
136.767593 192.0
136.799942 156.0
136.828018 232.0
136.845764 392.0
136.898209 384.0
136.950714 184.0
136.992279 432.0
136.99939 224.0
137.019897 764.0
137.060806 190364.0
137.12851 256.0
137.150833 120.0
137.177383 44.0
137.204178 300.0
137.224396 124.0
137.265579 120.0
137.270889 116.0
137.296722 180.0
137.32283 160.0
137.352966 160.0
137.377731 24.0
137.417755 288.0
137.443619 3520.0
137.474884 80.0
137.530441 112.0
137.534027 196.0
137.555069 104.0
137.597977 56.0
137.641693 92.0
137.677216 132.0
137.699127 160.0
137.737976 76.0
137.768555 56.0
137.810623 124.0
137.842758 148.0
137.862366 188.0
137.896088 132.0
137.915497 84.0
137.955093 92.0
137.986893 76.0
138.0186 88.0
138.063446 24528.0
138.117859 44.0
138.154892 100.0
138.185928 92.0
138.226593 84.0
138.249985 76.0
138.278305 84.0
138.31543 204.0
138.3526 116.0
138.384064 64.0
138.41185 84.0
138.418137 120.0
138.442307 64.0
138.498032 212.0
138.53093 104.0
138.571945 88.0
138.597794 88.0
138.623581 52.0
138.647003 100.0
138.670441 72.0
138.7267 152.0
138.792343 76.0
138.869812 276.0
138.891724 120.0
138.915985 108.0
138.94104 156.0
138.968338 144.0
138.991577 120.0
139.008987 192.0
139.038696 224.0
139.066345 1672.0
139.115143 204.0
139.152481 204.0
139.175568 112.0
139.216507 128.0
139.241638 132.0
139.266418 108.0
139.28331 124.0
139.335709 104.0
139.376831 68.0
139.42868 60.0
139.468491 52.0
139.506088 52.0
139.607208 176.0
139.629639 104.0
139.668564 88.0
139.691879 64.0
139.724808 68.0
139.743637 48.0
139.863647 36.0
139.884842 140.0
139.954254 128.0
139.971954 116.0
140.007278 128.0
140.069168 160.0
140.108566 88.0
140.176331 84.0
140.198105 52.0
140.234955 120.0
140.339539 100.0
140.467728 68.0
140.499924 132.0
140.906006 40.0
141.03833 96.0
141.468857 40.0
141.580154 108.0
141.717545 92.0
141.752365 92.0
142.54805 40.0
142.635986 76.0
143.109421 108.0
143.126083 92.0
143.578873 88.0
143.817459 48.0
143.881912 148.0
144.577499 36.0
144.783386 100.0
144.919922 116.0
145.061325 164.0
145.174026 44.0
145.219589 124.0
145.43074 68.0
145.517151 48.0
145.577179 104.0
145.656448 88.0
145.77417 72.0
145.884735 112.0
145.997742 96.0
146.058929 368.0
146.326263 152.0
146.561035 112.0
146.636795 92.0
146.92511 80.0
147.071503 216.0
147.115768 156.0
147.218781 96.0
147.611069 180.0
147.635254 104.0
147.666702 92.0
147.693298 196.0
147.71991 64.0
148.046677 48.0
148.074905 1040.0
148.431976 60.0
148.752243 80.0
148.941635 96.0
149.060532 360.0
149.081421 384.0
149.40596 52.0
149.693161 44.0
150.070282 136.0
150.100113 224.0
150.200104 44.0
150.925461 92.0
151.065353 140.0
151.525116 116.0
151.706482 36.0
152.966705 92.0
153.782303 168.0
154.632828 52.0
155.145584 212.0
155.217484 80.0
156.00206 168.0
156.390121 112.0
156.656555 124.0
156.696426 64.0
157.33989 52.0
157.717102 96.0
158.059723 136.0
159.047165 220.0
159.064545 200.0
159.230453 136.0
159.33847 92.0
159.383698 48.0
159.491776 212.0
159.911819 40.0
160.074615 1004.0
160.256821 132.0
161.082382 1088.0
161.210663 72.0
161.294067 80.0
161.886108 120.0
162.059036 104.0
162.088043 280.0
162.182007 96.0
162.684799 48.0
163.062653 528.0
163.086151 40.0
163.149704 32.0
163.383682 104.0
164.080994 504.0
164.765488 160.0
165.090424 148.0
165.517456 48.0
166.738571 68.0
173.477249 84.0
174.060623 140.0
175.053726 40.0
175.111664 164.0
175.26445 84.0
175.733795 152.0
176.07048 2020.0
176.944305 92.0
177.077011 1768.0
178.079285 344.0
178.12709 36.0
178.408783 28.0
178.90361 48.0
179.107819 296.0
179.396454 84.0
179.561768 64.0
180.119614 132.0
181.106644 44.0
181.562286 100.0
181.658844 132.0
182.408066 80.0
183.080719 152.0
183.266586 108.0
184.337845 92.0
184.827286 92.0
185.00322 184.0
185.729446 72.0
186.041519 176.0
186.799713 60.0
190.089249 328.0
190.602814 44.0
190.918945 116.0
191.039978 96.0
191.086746 92.0
192.101685 4948.0
192.216461 88.0
192.313049 72.0
192.426224 52.0
193.10701 804.0
193.764862 108.0
193.983795 72.0
194.108566 200.0
194.299942 128.0
194.521957 128.0
194.67189 104.0
195.071991 140.0
195.127594 136.0
197.05748 144.0
198.436127 88.0
199.441132 36.0
200.136017 64.0
200.626251 112.0
203.534836 68.0
204.74057 68.0
205.310562 64.0
206.12001 196.0
208.514236 120.0
208.870773 164.0
209.997009 120.0
211.574768 112.0
214.94931 112.0
215.346344 100.0
216.097641 96.0
217.067184 148.0
219.042236 32.0
222.787399 64.0
222.94191 100.0
223.114304 52.0
225.089752 128.0
227.088882 56.0
228.415451 56.0
229.473602 84.0
229.745026 76.0
230.774918 36.0
232.562286 68.0
234.460159 48.0
244.348221 80.0
245.036285 152.0
247.647858 92.0
251.108383 36.0
253.077148 56.0
253.118317 48.0
255.082214 100.0
255.906204 40.0
256.106842 160.0
257.532593 48.0
258.523712 60.0
259.952972 136.0
260.097412 108.0
261.447327 84.0
263.659698 76.0
266.608887 100.0
266.703125 56.0
267.099823 144.0
267.587982 88.0
268.115692 108.0
271.919342 92.0
272.927856 68.0
284.98761 68.0
287.118469 172.0
289.034454 120.0
297.469421 64.0
300.23233 68.0
301.160767 120.0
309.094421 172.0
319.478455 104.0
320.318573 48.0
325.993134 104.0
327.284515 72.0
328.329559 72.0
333.405304 96.0
334.929779 72.0
334.958923 48.0
340.889771 32.0
345.920624 64.0
349.710907 108.0
358.218079 92.0
359.341553 116.0
360.70108 76.0
366.206848 76.0
367.907532 56.0
379.007751 60.0
381.207947 60.0
381.515015 60.0
385.326569 76.0
414.379303 108.0
415.57132 36.0
417.350372 96.0
418.37973 72.0
424.988586 36.0
446.1427 48.0
450.276337 108.0
456.463654 48.0
462.920135 96.0
474.823456 88.0
479.680267 32.0
489.754272 148.0
492.807068 76.0
511.885681 76.0
521.308594 36.0
525.31073 140.0
528.582031 80.0
550.855103 100.0
555.225891 64.0
558.833557 124.0
569.318115 148.0
579.406555 40.0
585.651428 72.0
620.715698 72.0
630.722778 72.0
636.233154 168.0
654.490723 64.0
656.376038 68.0
675.021729 100.0
717.973328 52.0
724.724792 60.0
732.644104 108.0
734.849182 140.0
737.895325 180.0
739.983765 40.0
761.491394 160.0
766.200073 184.0
767.357483 104.0
768.879944 168.0
770.646973 164.0
773.107666 168.0
780.05188 180.0
787.038208 180.0
791.61792 80.0
793.035339 164.0
795.638123 92.0
808.846375 168.0
808.902954 208.0
809.361572 160.0
811.327576 204.0
814.130554 80.0
815.619141 200.0
820.651672 156.0
827.181641 236.0
830.786133 108.0
832.100342 192.0
835.899719 160.0
840.469177 196.0
840.601868 156.0
841.052063 148.0
845.056885 188.0
845.13208 92.0
845.815002 172.0
851.317139 152.0
855.165833 148.0
857.489746 184.0
857.67041 100.0
858.51355 236.0
861.995056 104.0
862.836731 48.0
864.84906 88.0
866.547302 184.0
871.223145 212.0
871.370056 168.0
872.898254 116.0
873.021729 72.0
873.298157 188.0
875.95874 164.0
881.108826 144.0
881.351074 212.0
887.10968 148.0
887.708496 136.0
889.996643 152.0
890.901733 164.0
893.434265 124.0
895.053162 216.0
896.447083 60.0
899.948486 220.0
901.854187 124.0
902.422119 196.0
903.079895 132.0
903.22345 184.0
904.39624 84.0
904.701538 176.0
906.881958 128.0
907.601318 180.0
908.638977 196.0
909.197021 124.0
910.529785 136.0
914.197021 172.0
919.657288 160.0
919.802185 160.0
920.001404 168.0
920.846741 180.0
921.112549 196.0
921.396423 196.0
921.807312 144.0
923.651306 140.0
924.877686 160.0
925.29126 220.0
926.502563 212.0
927.599426 136.0
928.988098 164.0
929.625122 244.0
930.541687 188.0
930.869568 156.0
930.936401 168.0
932.911072 176.0
934.565308 164.0
935.703491 192.0
936.251526 160.0
940.629211 168.0
941.123718 196.0
941.343567 172.0
942.06427 184.0
942.718018 156.0
943.567688 168.0
944.05072 120.0
945.280273 184.0
946.17395 160.0
946.994507 92.0
947.662231 160.0
949.114868 56.0
949.918274 228.0
952.189331 212.0
952.471863 144.0
952.969482 144.0
955.760986 176.0
955.982483 168.0
964.116638 172.0
965.359253 32.0
967.568176 140.0
970.89563 168.0
970.976196 172.0
971.373169 84.0
975.191895 140.0
976.89563 212.0
977.685852 192.0
979.865234 152.0
983.113892 172.0
986.605469 232.0
987.480835 192.0
989.214111 72.0
989.633545 200.0
990.228455 272.0
990.284851 156.0
990.610535 180.0
992.910889 116.0
993.556946 128.0
995.025513 132.0
995.923523 96.0
997.771606 176.0
999.456604 172.0
1001.074341 208.0
1001.282166 80.0
1002.441345 200.0
1003.657959 164.0
1004.887878 284.0
1006.617371 136.0
1007.223633 192.0
1007.482666 196.0
1008.101868 240.0
1010.435059 164.0
1011.251343 76.0
1011.795776 56.0
1012.074341 104.0
1016.428955 224.0
1021.098206 164.0
1023.783875 200.0
1024.057739 136.0
1024.605591 132.0
1024.815796 132.0
1025.382935 60.0
1026.064941 132.0
1028.776367 152.0
1030.066284 188.0
1030.769043 160.0
1033.608154 156.0
1033.883301 196.0
1037.989624 112.0
1038.95813 236.0
1039.105713 220.0
1039.978394 132.0
1040.594604 152.0
1040.915649 160.0
1041.204712 152.0
1043.550171 160.0
1043.903809 144.0
1045.222534 120.0
1046.342407 172.0
1046.496948 144.0
1047.102295 108.0
1047.276123 152.0
1048.680786 132.0
1049.609131 156.0
1049.821899 44.0
1052.71936 200.0
1053.455688 188.0
1053.927368 136.0
1054.689941 56.0
1054.838623 172.0
1055.03894 156.0
1055.401001 156.0
1056.054199 160.0
1056.474609 156.0
1056.662231 200.0
1057.678223 160.0
1058.707764 112.0
1059.925537 228.0
1060.768066 132.0
1062.596924 32.0
1063.946777 152.0
1065.03125 212.0
1065.940796 152.0
1066.363281 152.0
1066.954712 160.0
1067.188843 160.0
1067.618042 140.0
1070.748291 172.0
1070.833008 140.0
1073.048584 192.0
1073.420166 56.0
1073.544067 104.0
1073.589722 176.0
1073.948486 160.0
1074.046265 144.0
1074.229004 136.0
1076.755005 224.0
1077.584595 140.0
1079.414795 220.0
1080.690186 84.0
1081.861694 56.0
1082.909424 144.0
1082.994507 116.0
1083.551392 236.0
1085.104614 196.0
1086.10144 124.0
1086.311401 152.0
1088.386108 212.0
1088.641357 52.0
1088.98291 156.0
1091.355225 200.0
1091.467041 140.0
1093.141602 172.0
1094.467407 212.0
1095.178711 204.0
1098.395386 140.0
1099.021362 172.0
1099.959229 76.0
1100.064819 116.0
1100.652466 168.0
1100.824097 40.0
1103.64563 144.0
1106.239136 216.0
1106.536987 52.0
1107.51709 164.0
1109.599243 204.0
1111.202881 124.0
1111.733765 80.0
1116.803833 156.0
1117.115601 216.0
1117.84082 168.0
1119.118774 196.0
1119.697998 140.0
1120.404175 208.0
1120.624023 112.0
1121.677002 140.0
1123.937866 208.0
1125.039185 112.0
1127.430298 148.0
1129.683594 120.0
1129.890991 108.0
1131.336548 100.0
1131.785156 168.0
1131.992676 116.0
1132.381104 116.0
1132.789673 188.0
1134.27063 140.0
1134.941772 172.0
1135.04834 52.0
1135.269653 200.0
1135.323242 188.0
1137.02063 244.0
1137.450195 196.0
1137.73877 152.0
1137.973755 120.0
1140.237549 120.0
1140.69458 164.0
1140.781982 188.0
1141.514893 152.0
1142.826538 168.0
1143.263916 132.0
1143.337891 48.0
1145.000854 148.0
1145.445312 64.0
1146.247192 212.0
1147.285034 196.0
1147.473877 164.0
1147.716553 152.0
1147.885132 176.0
1147.979492 216.0
1148.45166 152.0
1148.83606 168.0
1150.037231 152.0
1150.286987 232.0
1150.563721 156.0
1153.022461 48.0
1153.363525 148.0
1153.495605 144.0
1153.840332 200.0
1154.137817 104.0
1154.293457 184.0
1154.97644 124.0
1155.592041 36.0
1155.746704 184.0
1156.07251 168.0
1156.498901 168.0
1157.013306 172.0
1158.333862 184.0
1159.479004 192.0
1159.526367 64.0
1160.461792 48.0
1161.482788 240.0
1161.601196 52.0
1162.238892 184.0
1163.046509 232.0
1163.521729 188.0
1163.976562 140.0
1164.825562 140.0
1167.068237 136.0
1168.170044 124.0
1169.462891 224.0
1169.721558 180.0
1170.688354 188.0
1170.988037 216.0
1171.505615 164.0
1171.737305 180.0
1172.739014 72.0
1173.127563 160.0
1173.734375 156.0
1174.102539 132.0
1174.273071 80.0
1174.484497 52.0
1175.541992 216.0
1175.678467 136.0
1176.081177 208.0
1176.217651 180.0
1176.374634 244.0
1177.754028 156.0
1178.424194 188.0
1178.812988 200.0
1179.728882 84.0
1180.932373 140.0
1181.082764 208.0
1181.534302 136.0
1182.21167 196.0
1182.300659 168.0
1183.806763 240.0
1184.162842 156.0
1184.532715 204.0
1184.93689 88.0
1186.616089 232.0
1187.267456 208.0
1187.843628 48.0
1188.021973 160.0
1188.13855 168.0
1188.399292 156.0
1188.783569 52.0
1189.83374 136.0
1190.170166 164.0
1190.286865 64.0
1191.619385 228.0
1192.00415 88.0
1192.285889 160.0
1192.511841 156.0
1193.138306 304.0
1193.440796 180.0
1194.149048 216.0
1194.953979 200.0
1195.167236 184.0
1197.562866 156.0
1198.10022 160.0
1198.51355 148.0
1198.851196 132.0
1199.113159 216.0
1199.168213 188.0
1200.188477 176.0
1200.484985 84.0
1200.533325 148.0
1200.974731 72.0
1202.547852 248.0
1202.886108 216.0
1203.535034 184.0
1204.09436 152.0
1204.28772 156.0
1205.697144 136.0
1206.056641 204.0
1206.291626 56.0
1206.637207 152.0
1208.241821 176.0
1208.466064 188.0
1209.23938 184.0
1209.369751 200.0
1209.432007 188.0
1210.068848 176.0
1210.754395 136.0
1210.851318 152.0
1211.06604 92.0
1212.31311 104.0
1212.722046 156.0
1213.969971 176.0
1216.141479 132.0
1217.238403 112.0
1217.405029 88.0
1217.759277 188.0
1218.008301 172.0
1218.053467 232.0
1218.210693 184.0
1218.690063 220.0
1219.475342 132.0
1221.601562 228.0
1223.064331 156.0
1223.463623 56.0
1224.387207 112.0
1224.839966 180.0
1226.540161 108.0
1226.630737 168.0
1226.74231 132.0
1227.558105 120.0
1227.871948 156.0
1228.185791 44.0
1228.381104 148.0
1229.811523 176.0
1230.166748 188.0
1230.767944 148.0
1230.844727 156.0
1231.546631 180.0
1231.675781 128.0
1232.248657 140.0
1232.381348 156.0
1232.94043 168.0
1233.436646 176.0
1235.471558 156.0
1236.339233 132.0
1236.710205 136.0
1237.221191 156.0
1237.487183 188.0
1237.571167 136.0
1239.896851 192.0
1240.611206 184.0
1241.35498 72.0
1241.663574 192.0
1241.838989 112.0
1243.228027 144.0
1244.042236 200.0
1244.38623 136.0
1244.817505 224.0
1245.081421 256.0
1245.270996 204.0
1245.755737 204.0
1246.268555 196.0
1246.451294 228.0
1247.189209 152.0
1248.025757 108.0
1250.304932 212.0
1251.311523 128.0
1251.60022 72.0
1252.107178 112.0
1252.554688 92.0
1252.860962 172.0
1252.952515 208.0
1253.368164 160.0
1253.452759 196.0
1253.57251 180.0
1253.748779 248.0
1253.910767 68.0
1254.129272 196.0
1254.390137 204.0
1254.855347 216.0
1255.624023 208.0
1255.786255 132.0
1256.604492 148.0
1256.759766 148.0
1257.296021 52.0
1257.472534 196.0
1257.839478 172.0
1258.023071 152.0
1259.18811 164.0
1259.343506 160.0
1259.682495 164.0
1260.205322 52.0
1260.290161 200.0
1260.480957 124.0
1261.017944 144.0
1261.951172 248.0
1262.043335 184.0
1262.11377 160.0
1262.226929 252.0
1262.630005 224.0
1263.266602 148.0
1263.47168 140.0
1264.943604 152.0
1265.141846 236.0
1265.233887 128.0
1266.041138 140.0
1266.2323 204.0
1266.380981 112.0
1266.961914 200.0
1267.068115 184.0
1270.97876 152.0
1272.152954 120.0
1272.273682 248.0
1272.472412 48.0
1272.536377 96.0
1272.656982 252.0
1273.502075 240.0
1273.750732 196.0
1274.333252 92.0
1275.498779 204.0
1275.832886 124.0
1277.127075 140.0
1278.450317 152.0
1279.4646 156.0
1279.73877 180.0
1280.158813 44.0
1280.237183 184.0
1280.365356 180.0
1281.070557 144.0
1281.156006 176.0
1281.234375 120.0
1281.334106 112.0
1281.569214 172.0
1281.725952 152.0
1281.790161 232.0
1282.196289 232.0
1282.388794 148.0
1282.552734 132.0
1283.657715 208.0
1283.800415 180.0
1284.427979 80.0
1284.706177 140.0
1284.820312 176.0
1285.341187 156.0
1285.526733 104.0
1285.805054 120.0
1286.111938 76.0
1286.59021 128.0
1286.647339 148.0
1286.911499 84.0
1287.254272 136.0
1287.525635 164.0
1287.633423 168.0
1287.88269 208.0
1288.189819 108.0
1289.790527 164.0
1289.869141 120.0
1290.491089 164.0
1290.805664 316.0
1290.855713 116.0
1290.991577 120.0
1291.238281 152.0
1292.443726 112.0
1293.431396 168.0
1294.412231 188.0
1295.121216 80.0
1295.293091 208.0
1295.400513 232.0
1295.859009 168.0
1296.203003 64.0
1296.597168 112.0
1296.754761 136.0
1297.622192 164.0
1297.735352 228.0
1300.807373 160.0
1300.857666 132.0
1301.094604 128.0
1301.374634 172.0
1301.747925 232.0
1301.884399 172.0
1302.200439 192.0
1302.458984 196.0
1302.810913 168.0
1303.443237 96.0
1303.859985 132.0
1304.025391 132.0
1304.305664 160.0
1304.485352 232.0
1304.722534 116.0
1305.930664 188.0
1306.247192 228.0
1306.304688 156.0
1307.031372 32.0
1307.103271 156.0
1307.258545 160.0
1308.139648 52.0
1308.42041 76.0
1309.219727 164.0
1309.572632 176.0
1309.723877 192.0
1309.963867 176.0
1310.163208 212.0
1310.530762 84.0
1310.631592 176.0
1310.775635 100.0
1312.15564 372.0
1312.505615 184.0
1312.73645 136.0
1313.572998 164.0
1313.825562 100.0
1314.078003 260.0
1314.88623 176.0
1314.936768 220.0
1315.449219 176.0
1315.580444 152.0
1316.22168 164.0
1317.11731 132.0
1318.063721 268.0
1318.166626 224.0
1318.273193 184.0
1318.533447 108.0
1318.605713 184.0
1319.451416 196.0
1320.470947 240.0
1320.521606 176.0
1320.760254 112.0
1320.919434 76.0
1321.541626 88.0
1321.954102 172.0
1322.019165 84.0
1322.380981 172.0
1322.74292 64.0
1323.336548 128.0
1323.546509 100.0
1323.604492 144.0
1324.104126 228.0
1324.176636 164.0
1324.893677 44.0
1325.567505 112.0
1326.099243 172.0
1326.123779 64.0
1326.144287 156.0
1327.241943 212.0
1327.539307 48.0
1327.590088 176.0
1327.858398 204.0
1329.084351 236.0
1329.505249 148.0
1329.759277 204.0
1330.261719 144.0
1330.354492 148.0
1330.874634 148.0
1330.986084 160.0
1331.262085 128.0
1331.559814 128.0
1332.569458 156.0
1332.66394 228.0
1332.852905 172.0
1333.02002 180.0
1333.630493 220.0
1333.746826 132.0
1334.510132 148.0
1334.604614 180.0
1334.82666 264.0
1335.200928 108.0
1336.314819 152.0
1336.641235 220.0
1337.041504 108.0
1337.529175 272.0
1337.856689 60.0
1337.907715 200.0
1338.053345 156.0
1338.111572 160.0
1338.289917 88.0
1338.46106 172.0
1338.592163 176.0
1338.803345 212.0
1339.320435 152.0
1339.371338 212.0
1339.648193 184.0
1339.866699 144.0
1339.974487 204.0
1340.223755 112.0
1340.391357 124.0
1341.156616 208.0
1341.346069 76.0
1341.717896 156.0
1343.402466 204.0
1343.511841 168.0
1343.657837 124.0
1344.051758 204.0
1344.206055 192.0
1344.496948 48.0
1344.562622 140.0
1345.124634 104.0
1345.197632 188.0
1345.474976 212.0
1346.212524 188.0
1346.373169 208.0
1346.482666 64.0
1346.599609 208.0
1347.695312 196.0
1348.32373 200.0
1348.65271 124.0
1348.871948 160.0
1349.719971 148.0
1350.114868 180.0
1350.473267 188.0
1350.802368 96.0
1351.534058 148.0
1351.738892 152.0
1352.068237 172.0
1352.273193 176.0
1352.873413 164.0
1353.305298 152.0
1353.422485 128.0
1353.817871 192.0
1354.638184 128.0
1354.762695 132.0
1354.814087 192.0
1355.605347 120.0
1356.690063 176.0
1357.342651 44.0
1357.467285 168.0
1357.614014 56.0
1357.855957 108.0
1357.907349 180.0
1358.083374 212.0
1358.208252 108.0
1358.303345 172.0
1359.07373 192.0
1359.213135 196.0
1360.247925 152.0
1360.424072 140.0
1360.960083 80.0
1361.033447 180.0
1361.099609 204.0
1361.283203 128.0
1361.56958 132.0
1362.046997 212.0
1362.237915 152.0
1362.473022 100.0
1362.855103 148.0
1362.97998 32.0
1363.060791 52.0
1363.398804 148.0
1364.405884 44.0
1365.27356 160.0
1365.361816 132.0
1365.810425 48.0
1366.016357 168.0
1366.179199 172.0
1366.40625 196.0
1366.833008 164.0
1367.016968 128.0
1367.900146 184.0
1368.076904 100.0
1368.305054 120.0
1368.702637 224.0
1368.886719 108.0
1369.115112 288.0
1369.365479 168.0
1369.66748 204.0
1369.748413 236.0
1369.976807 140.0
1370.580933 72.0
1370.727905 152.0
1370.924072 224.0
1371.258911 60.0
1371.575928 176.0
1371.782227 208.0
1371.885498 236.0
1372.003418 232.0
1372.355591 200.0
1372.460571 176.0
1372.666992 132.0
1372.843994 168.0
1373.684814 156.0
1373.839722 180.0
1374.356812 172.0
1375.721558 148.0
1375.810181 204.0
1376.03894 212.0
1376.090698 320.0
1377.094971 180.0
1377.599121 156.0
1378.136597 104.0
1378.313965 160.0
1379.052979 152.0
1379.289429 188.0
1379.518555 104.0
1379.792114 184.0
1379.888184 124.0
1380.620239 156.0
1380.738647 140.0
1381.359863 92.0
1382.21814 196.0
1382.51416 164.0
1382.79541 132.0
1383.083984 148.0
1383.187622 104.0
1383.320923 196.0
1383.542969 156.0
1383.683594 124.0
1383.979736 164.0
1384.431519 212.0
1384.624023 224.0
1385.290649 124.0
1385.626221 68.0
1385.778687 200.0
1386.839355 148.0
1387.054321 164.0
1387.180298 156.0
1387.239624 212.0
1387.728882 72.0
1387.803101 200.0
1387.877197 172.0
1388.055176 152.0
1388.314697 48.0
1388.833862 208.0
1388.959961 184.0
1389.672119 144.0
1390.076782 184.0
1390.51062 168.0
1390.614624 232.0
1390.800171 164.0
1391.13501 176.0
1391.299438 180.0
1391.438599 180.0
1391.587036 64.0
1391.85437 180.0
1392.255371 184.0
1392.314697 208.0
1392.745483 180.0
1392.812378 164.0
1393.12439 164.0
1393.483032 192.0
1393.711304 168.0
1393.807861 172.0
1393.934204 152.0
1394.001099 76.0
1394.164551 192.0
1394.228149 152.0
1394.7146 172.0
1394.840942 184.0
1395.264648 44.0
1395.581665 180.0
1396.387451 100.0
1396.551147 128.0
1397.893433 212.0
1398.664307 144.0
1398.775879 136.0
1399.118408 168.0
1399.862915 152.0
1400.078857 140.0
1400.704468 160.0
1400.846069 104.0
1401.250732 180.0
1401.382446 148.0
1401.509155 168.0
1401.717773 164.0
1402.34375 108.0
1402.430908 120.0
1402.589722 180.0
1403.066772 196.0
1403.126465 172.0
1403.469482 88.0
1403.566406 116.0
1403.961548 208.0
1404.505981 108.0
1405.296753 128.0
1405.856445 192.0
1406.557983 276.0
1406.774536 208.0
1407.767578 144.0
1408.148438 140.0
1408.619019 172.0
1409.014893 200.0
1409.313721 68.0
1409.515503 372.0
1410.300171 140.0
1410.367432 172.0
1410.472168 196.0
1411.354248 192.0
1411.421631 72.0
1411.505737 152.0
1412.004883 136.0
1412.266602 164.0
1412.408813 156.0
1412.588257 196.0
1412.708008 224.0
1413.067017 228.0
1413.49353 304.0
1413.568359 192.0
1413.68811 184.0
1414.436523 180.0
1414.530884 264.0
1414.706055 196.0
1415.067261 128.0
1415.185181 36.0
1415.286377 180.0
1416.270996 144.0
1416.405884 160.0
1416.772949 120.0
1416.892822 56.0
1417.192505 132.0
1417.702026 212.0
1418.106689 164.0
1418.249146 188.0
1418.339111 108.0
1418.414062 160.0
1418.713867 208.0
1419.036255 56.0
1419.328735 32.0
1419.894165 248.0
1420.123657 240.0
1420.176147 84.0
1420.273315 204.0
1420.603638 180.0
1420.671265 200.0
1420.84375 116.0
1421.038818 152.0
1421.188843 180.0
1421.481567 220.0
1422.344604 88.0
1422.434692 160.0
1422.817505 204.0
1423.132812 92.0
1423.508301 152.0
1423.756104 100.0
1424.161743 160.0
1424.882812 48.0
1425.15332 140.0
1425.38623 156.0
1425.489868 220.0
1425.611694 128.0
1425.852173 192.0
1426.310669 220.0
1426.686523 108.0
1426.739136 72.0
1426.942993 184.0
1427.047363 228.0
1427.212769 164.0
1427.299561 196.0
1427.532959 200.0
1428.491333 156.0
1428.777222 188.0
1429.40918 56.0
1429.966064 192.0
1430.101562 216.0
1430.161743 112.0
1430.651123 136.0
1431.050049 196.0
1431.516968 160.0
1432.014038 232.0
1432.54126 72.0
1432.616577 144.0
1432.8125 156.0
1433.317261 228.0
1434.14624 104.0
1434.817139 228.0
1434.975464 188.0
1435.367554 124.0
1436.348022 180.0
1436.559448 212.0
1436.755371 204.0
1436.94397 220.0
1437.449463 128.0
1438.128662 136.0
1438.438232 124.0
1438.491089 184.0
1438.845825 168.0
1439.094971 156.0
1439.162964 208.0
1439.298828 188.0
1439.357422 200.0
1439.749023 228.0
1440.477051 212.0
1441.238159 160.0
1441.40625 64.0
1441.519653 112.0
1441.640503 132.0
1441.78418 144.0
1442.026001 216.0
1442.204834 308.0
1442.547485 184.0
1442.804565 144.0
1443.583374 132.0
1443.764893 212.0
1443.870728 160.0
1444.106689 180.0
1444.490967 120.0
1444.831421 232.0
1445.035645 136.0
1445.224854 132.0
1445.32312 184.0
1445.442139 192.0
1445.822144 144.0
1446.072388 152.0
1446.254028 132.0
1446.307007 176.0
1447.018555 124.0
1447.397095 220.0
1447.851562 44.0
1448.109009 56.0
1448.25293 84.0
1448.805908 116.0
1449.108887 124.0
1449.271118 272.0
1449.465088 184.0
1449.635498 160.0
1449.768188 48.0
1450.078857 164.0
1450.147095 164.0
1450.276001 164.0
1450.395508 200.0
1450.723145 208.0
1450.859619 72.0
1451.329712 152.0
1451.45105 176.0
1451.906006 168.0
1452.209351 128.0
1453.559814 156.0
1454.106201 200.0
1454.235229 196.0
1455.077759 84.0
1455.267578 176.0
1456.023193 188.0
1457.845703 208.0
1458.291016 156.0
1458.54187 188.0
1458.671021 108.0
1459.16687 208.0
1459.226074 164.0
1459.324829 220.0
1459.492188 112.0
1459.629028 256.0
1459.743042 168.0
1460.065796 272.0
1460.413208 180.0
1460.488403 128.0
1461.043701 212.0
1461.363281 196.0
1462.504761 112.0
1463.44873 144.0
1464.385376 188.0
1464.461548 148.0
1465.01001 136.0
1465.162354 184.0
1465.238525 208.0
1465.848022 112.0
1466.031006 124.0
1466.297729 240.0
1466.823608 68.0
1467.288696 132.0
1467.614868 204.0
1467.705688 200.0
1468.684082 124.0
1468.783325 180.0
1468.998779 212.0
1469.170044 216.0
1469.485107 144.0
1469.538574 152.0
1469.622437 132.0
1470.50769 152.0
1470.866455 92.0
1470.973267 168.0
1471.301514 204.0
1471.6604 212.0
1471.721436 212.0
1471.782593 184.0
1472.446899 120.0
1472.744751 188.0
1473.027466 132.0
1473.10376 164.0
1473.653809 156.0
1474.82312 132.0
1475.121216 160.0
1475.839844 52.0
1476.462158 180.0
1476.642822 176.0
1476.956421 128.0
1477.361816 172.0
1477.476562 32.0
1477.595337 152.0
1478.18042 188.0
1478.495728 176.0
1478.89978 200.0
1479.15332 180.0
1479.27832 204.0
1479.450928 176.0
1479.772583 132.0
1479.925659 52.0
1480.147705 28.0
1480.262573 248.0
1481.319214 176.0
1481.772095 196.0
1481.869385 128.0
1482.076172 156.0
1482.46875 184.0
1482.62207 64.0
1482.72937 136.0
1482.882568 112.0
1483.189209 180.0
1483.281128 236.0
1483.342529 128.0
1483.618896 232.0
1483.894409 200.0
1484.070801 200.0
1484.262451 204.0
1484.477173 240.0
1484.906616 172.0
1485.328491 108.0
1485.405273 196.0
1485.658325 124.0
1486.28125 260.0
1486.37561 124.0
1487.216064 128.0
1487.684326 136.0
1487.999146 108.0
1488.083496 184.0
1488.15918 188.0
1488.336914 184.0
1488.436768 156.0
1488.766968 92.0
1489.212402 156.0
1489.42749 188.0
1489.565674 172.0
1489.876221 188.0
1490.026611 188.0
1490.126465 192.0
1491.37146 156.0
1492.439941 100.0
1492.801392 112.0
1493.016724 180.0
1493.763428 192.0
1493.862793 80.0
1496.032593 168.0
1496.217651 168.0
1496.302368 92.0
1496.448608 196.0
1496.510254 144.0
1496.695068 204.0
1497.11084 140.0
1497.218628 132.0
1497.726929 172.0
1497.85791 32.0
1498.358643 120.0
1498.412598 148.0
1498.643677 172.0
1498.797852 128.0
1499.152344 120.0
1499.505981 144.0
1500.108032 96.0
1501.064087 180.0
1501.557617 144.0
1501.692017 200.0
1502.328979 84.0
1502.537231 160.0
1502.722412 164.0
1502.814941 136.0
1503.92627 168.0
1504.010254 172.0
