>compound MLS001139413-01!(2R)-1-[2-(4-ethyl-8-methyl-2-oxochromen-7-yl)oxyacetyl]pyrrolidine-2-carboxylic acid
>formula C19H21NO6
>ionization [M+H]+
>parentmass 360.145
#inchi InChI=1S/C19H21NO6/c1-3-12-9-17(22)26-18-11(2)15(7-6-13(12)18)25-10-16(21)20-8-4-5-14(20)19(23)24/h6-7,9,14H,3-5,8,10H2,1-2H3,(H,23,24)/t14-/m1/s1
#inchikey OPILUJXCVXAIRR
#Ion_Source LC-ESI
#Instrument qTof
#Compound_Source NIH Natural Product Library
#PI Dorrestein
#Data_Collector VVP/LMS
#Scan -1
#Precursor_MZ 360.145
#ExactMass 359.137
#Charge 1
#CAS_Number N/A
#Pubmed_ID N/A
#Smiles CCc1cc(=O)oc2c(C)c(OCC(=O)N3CCC[C@@H]3C(=O)O)ccc12
#INCHI_AUX N/A
#Library_Class 1
#SpectrumID CCMSLIB00000080081
#IonMode Positive
#UpdateWorkflowName UPDATE-SINGLE-ANNOTATED-GOLD
#LibraryQualityString Gold
#TaskID b1d8e8f6646f4e71acdff9ca3d919d08
##Scan# 1798
#SpectrumFile p2-H03_GH3_01_18063.mzXML
#LibraryName NIH_Natural_Products_Library.mgf
#MQScore -1
#Organism NIH_Natural_Products_Library
#TIC_Query 0
#RT_Query -1
#MZErrorPPM -1
#SharedPeaks 0
#MassDiff 0
#LibMZ -1
#SpecMZ 360.145
#SpecCharge 0
#internalFilename spec-00000.mgf

>collision 10
95.199318 184.0
95.278961 32.0
95.376122 132.0
95.640663 160.0
95.738014 196.0
96.131805 172.0
96.354401 152.0
97.051186 124.0
97.429985 160.0
98.059135 1068.0
98.247009 132.0
98.827873 140.0
98.895157 36.0
98.980286 168.0
99.067436 180.0
99.282082 224.0
99.485878 156.0
99.531548 32.0
100.076378 2732.0
100.171959 132.0
100.195869 108.0
100.241692 116.0
100.335373 116.0
100.834419 196.0
100.880394 212.0
100.992371 84.0
101.084038 176.0
101.559219 76.0
101.645493 92.0
101.775963 244.0
101.828178 76.0
102.167892 44.0
102.33091 120.0
102.467873 196.0
102.639198 152.0
102.760216 164.0
102.786453 128.0
102.958038 216.0
102.984299 164.0
103.053902 208.0
103.285469 180.0
103.332001 136.0
103.506073 168.0
104.144913 120.0
104.209923 144.0
104.999756 200.0
105.034119 184.0
105.069214 1132.0
105.095634 84.0
105.214012 112.0
105.465279 124.0
105.575684 232.0
105.778244 188.0
106.046577 136.0
106.069122 320.0
106.401459 188.0
106.652084 192.0
107.444908 176.0
107.872398 168.0
107.888939 168.0
107.955101 144.0
108.085312 172.0
108.280022 244.0
108.520409 48.0
108.933411 136.0
109.022751 168.0
109.043533 132.0
109.1558 168.0
109.403397 92.0
109.928642 124.0
110.191742 88.0
110.442604 132.0
110.865524 144.0
110.907448 188.0
111.065918 192.0
112.075562 1800.0
112.179207 152.0
112.227699 152.0
112.39222 76.0
112.711067 60.0
113.019783 48.0
113.076668 364.0
113.428535 216.0
113.568481 140.0
114.055786 300.0
114.222717 224.0
114.40786 88.0
115.051582 828.0
115.143509 72.0
115.207588 140.0
115.620277 76.0
116.061287 948.0
116.203133 176.0
116.297554 68.0
117.068459 220.0
117.951843 52.0
118.072334 176.0
118.577385 148.0
119.050179 1104.0
119.128532 172.0
119.237175 204.0
119.609116 124.0
119.715797 156.0
119.787674 48.0
120.047043 136.0
120.330704 180.0
120.691223 152.0
120.896851 140.0
120.91655 80.0
121.064552 804.0
121.7826 44.0
122.008942 28.0
122.062828 284.0
122.090302 144.0
122.550369 148.0
122.603256 148.0
122.78183 152.0
122.848007 200.0
123.073128 192.0
123.408981 148.0
123.561592 168.0
123.85199 272.0
123.906967 212.0
124.133057 124.0
124.161888 152.0
124.739189 200.0
124.919312 128.0
125.284401 152.0
125.337875 180.0
126.344849 120.0
126.467926 172.0
126.656013 112.0
126.839752 188.0
126.987747 148.0
127.117867 228.0
127.344612 136.0
127.697487 136.0
127.866234 192.0
128.017075 172.0
128.06958 2648.0
128.136459 40.0
128.19278 116.0
128.244614 248.0
128.553604 52.0
128.702591 108.0
128.971603 232.0
129.070694 1308.0
129.777359 88.0
129.804581 176.0
130.074768 356.0
130.353928 80.0
130.551697 252.0
130.642685 228.0
130.69751 212.0
130.71936 212.0
130.806534 200.0
130.97049 104.0
131.00238 120.0
131.050949 656.0
131.086014 3568.0
131.145935 36.0
131.275879 28.0
131.31694 68.0
131.428726 200.0
131.730087 48.0
132.047806 144.0
132.090103 488.0
132.153046 56.0
132.379654 88.0
133.065994 316.0
133.099365 464.0
133.347809 128.0
133.720413 256.0
134.072784 152.0
134.107361 176.0
134.771988 48.0
135.040161 176.0
135.078171 332.0
135.711731 108.0
135.81842 56.0
136.027252 156.0
136.085938 116.0
136.312927 164.0
137.057465 304.0
138.012238 196.0
139.062103 304.0
139.233154 148.0
140.013962 168.0
140.067459 208.0
140.12175 164.0
140.480667 140.0
140.648209 44.0
140.683624 120.0
140.742645 220.0
140.917435 136.0
141.067856 868.0
141.231842 196.0
141.307541 40.0
141.807205 148.0
142.032471 164.0
142.072784 356.0
143.049515 104.0
143.085907 132.0
143.886292 112.0
144.058716 876.0
144.094086 164.0
144.718338 104.0
144.890778 56.0
145.062805 172.0
145.756958 56.0
145.814636 48.0
145.877121 108.0
146.07341 1132.0
147.041092 176.0
147.059845 80.0
147.078964 624.0
149.065018 220.0
149.097733 476.0
149.140488 180.0
149.527206 84.0
149.641632 48.0
149.678146 56.0
149.734161 128.0
150.095917 176.0
151.042435 188.0
151.713425 164.0
151.801682 68.0
152.061737 124.0
152.083832 156.0
152.516129 196.0
153.146042 192.0
153.922897 256.0
154.479004 164.0
154.642319 136.0
155.055923 64.0
155.246826 160.0
155.328674 148.0
155.524704 120.0
155.765564 132.0
155.912155 160.0
156.066727 504.0
156.892883 152.0
157.070953 644.0
157.277039 28.0
157.369415 172.0
157.411865 124.0
158.011749 200.0
158.041779 340.0
158.067093 136.0
158.655396 184.0
158.768234 92.0
159.047791 412.0
159.080353 8408.0
159.124695 144.0
159.149673 36.0
159.235046 92.0
159.468719 100.0
159.581833 80.0
159.629608 60.0
159.662308 72.0
159.682419 40.0
159.710098 88.0
159.939072 176.0
160.083954 644.0
160.130432 136.0
160.624466 200.0
160.657257 92.0
160.823807 96.0
160.884384 144.0
160.937408 112.0
160.992966 144.0
161.010635 120.0
161.060013 980.0
161.093307 2716.0
161.144516 44.0
161.204361 188.0
161.255707 52.0
161.323959 48.0
161.35936 92.0
161.485794 72.0
161.873001 136.0
161.900482 136.0
161.918594 64.0
161.966461 176.0
162.066895 372.0
162.099731 444.0
162.643738 76.0
162.976425 144.0
163.032333 76.0
163.073013 352.0
163.113663 156.0
163.187393 48.0
164.009674 232.0
164.072815 120.0
164.389694 88.0
164.650085 184.0
165.365967 192.0
165.801361 56.0
166.068008 164.0
167.899246 48.0
170.612915 140.0
171.078598 88.0
171.479736 220.0
171.803085 144.0
171.881363 120.0
172.077118 108.0
172.118896 260.0
172.455902 120.0
172.688614 120.0
173.660339 160.0
173.912216 80.0
174.064362 816.0
174.170364 256.0
174.298279 140.0
174.316681 68.0
174.358719 48.0
175.074844 280.0
175.103287 216.0
175.864761 104.0
176.082443 924.0
176.713562 56.0
176.742661 112.0
177.089996 1252.0
177.656738 172.0
177.919464 80.0
178.052231 212.0
178.093201 280.0
178.971344 236.0
179.094849 160.0
182.808319 112.0
182.932129 240.0
186.345184 128.0
186.532715 136.0
187.044113 184.0
187.077057 492.0
187.763428 36.0
188.052628 144.0
188.087021 188.0
188.358459 168.0
188.601639 44.0
188.809433 96.0
189.047272 188.0
189.090622 8048.0
189.151459 40.0
189.190796 76.0
189.222641 44.0
189.282867 76.0
189.433502 60.0
189.597916 76.0
189.710297 40.0
189.784317 136.0
189.995499 60.0
190.060776 940.0
190.0952 928.0
190.212296 48.0
190.598114 176.0
190.638016 52.0
191.065567 260.0
191.095123 136.0
191.36972 124.0
192.08902 88.0
192.113846 36.0
192.461609 156.0
192.558258 108.0
192.701904 88.0
200.094131 176.0
200.67363 120.0
201.367828 176.0
202.066055 80.0
202.111328 136.0
202.136795 200.0
202.791367 152.0
203.064255 160.0
203.085876 200.0
203.125595 52.0
203.832535 204.0
203.926315 52.0
203.988861 80.0
204.077057 960.0
204.310211 152.0
204.368683 116.0
204.554947 168.0
204.688766 88.0
204.708694 56.0
204.834015 64.0
204.905228 72.0
205.085892 10092.0
205.278625 96.0
205.369904 100.0
205.392715 56.0
205.469742 48.0
205.498276 80.0
205.646667 48.0
205.680923 56.0
205.88649 76.0
205.980743 56.0
206.089554 1564.0
206.226486 148.0
206.297943 148.0
206.626831 164.0
206.684052 132.0
206.981567 64.0
207.084824 312.0
207.142136 112.0
207.463089 48.0
207.615067 76.0
207.635132 84.0
207.953613 120.0
208.384354 184.0
208.594147 192.0
208.786789 64.0
209.002548 192.0
210.429291 128.0
210.625671 156.0
210.663223 96.0
210.900177 176.0
212.730896 136.0
212.925446 160.0
213.541595 216.0
214.327621 92.0
214.899109 116.0
215.077332 304.0
215.135513 88.0
215.816254 208.0
215.906906 120.0
216.059021 156.0
216.357529 92.0
216.603516 84.0
216.720703 168.0
216.917068 172.0
216.940521 132.0
217.039993 176.0
217.0867 14444.0
217.139908 48.0
217.160431 52.0
217.180969 68.0
217.224976 100.0
217.254303 40.0
217.342331 160.0
217.383408 68.0
217.477325 120.0
217.501999 88.0
217.565384 88.0
217.613464 160.0
217.769592 96.0
217.837524 40.0
217.900192 36.0
218.090393 2692.0
218.258774 60.0
218.505844 108.0
218.602951 68.0
218.62355 44.0
218.80899 68.0
218.994507 84.0
219.063278 140.0
219.1035 160.0
219.194839 64.0
219.460129 88.0
219.480774 96.0
219.504364 120.0
219.778687 92.0
219.908539 104.0
220.070038 204.0
220.159485 72.0
220.224472 44.0
220.774185 40.0
225.26236 100.0
227.51738 124.0
229.078171 120.0
229.56041 52.0
232.018661 76.0
232.482742 44.0
233.445755 40.0
236.867188 176.0
240.50795 60.0
241.394638 56.0
243.179123 252.0
243.679092 28.0
245.082352 460.0
245.852585 144.0
250.042786 152.0
257.115601 196.0
258.113556 120.0
259.487152 108.0
263.093048 376.0
264.092224 148.0
265.193085 64.0
266.052704 48.0
266.163116 140.0
267.291046 64.0
269.12619 148.0
271.124908 148.0
272.128693 168.0
275.712677 112.0
280.235626 92.0
284.040131 56.0
284.100494 160.0
284.144104 76.0
285.521332 96.0
285.565063 136.0
286.143311 2720.0
286.258331 168.0
286.561493 44.0
286.770416 52.0
287.043518 64.0
287.145905 600.0
287.784454 28.0
287.826355 84.0
288.157928 144.0
288.684692 40.0
289.927124 132.0
291.651276 56.0
292.035492 96.0
302.04483 136.0
303.156219 108.0
304.044006 92.0
310.954468 44.0
311.616882 132.0
314.142792 380.0
315.137878 108.0
316.085663 140.0
318.237213 68.0
318.681183 80.0
319.858337 68.0
328.674988 104.0
332.155396 144.0
343.905121 112.0
350.983643 44.0
351.125336 96.0
355.108551 124.0
360.148499 464.0
391.094086 56.0
398.111877 144.0
411.09079 116.0
420.661499 44.0
460.523895 76.0
486.608673 56.0
506.472443 112.0
520.389648 80.0
583.546875 60.0
630.256287 36.0
639.654846 100.0
657.695618 52.0
665.220337 164.0
702.34613 112.0
709.776611 64.0
768.717834 88.0
787.862671 156.0
830.646179 20.0
865.724854 76.0
960.070435 212.0
970.942566 40.0
975.437866 136.0
975.506226 216.0
977.670715 108.0
991.416077 40.0
991.466248 124.0
995.443481 192.0
1003.812866 68.0
1006.500977 76.0
1015.132141 184.0
1032.940063 176.0
1045.271118 184.0
1062.522583 184.0
1078.509644 112.0
1092.858398 132.0
1097.732788 80.0
1105.805786 220.0
1112.898926 152.0
1115.303833 72.0
1125.777222 32.0
1129.123047 228.0
1151.114258 156.0
1151.999023 152.0
1158.777832 120.0
1160.302734 84.0
1165.304688 176.0
1166.106567 160.0
1169.289551 196.0
1178.63208 204.0
1182.961304 116.0
1186.48938 228.0
1187.737427 148.0
1195.859009 212.0
1200.495605 172.0
1203.07605 180.0
1205.500366 176.0
1211.873291 184.0
1213.079224 144.0
1215.430298 136.0
1220.813843 176.0
1222.880127 188.0
1228.426514 48.0
1228.559082 160.0
1231.064819 100.0
1232.329102 212.0
1233.111816 108.0
1233.328491 32.0
1235.874023 164.0
1241.323608 132.0
1241.961792 188.0
1243.982666 160.0
1246.110596 172.0
1247.804443 240.0
1249.759644 48.0
1251.272949 128.0
1255.874512 172.0
1258.238525 176.0
1262.315308 156.0
1265.428711 124.0
1265.825195 200.0
1266.214722 132.0
1266.894653 176.0
1267.596069 56.0
1269.432129 120.0
1270.730103 184.0
1271.872681 152.0
1273.292725 208.0
1275.289185 60.0
1276.831909 108.0
1278.582031 44.0
1284.724121 148.0
1287.172241 208.0
1292.146851 168.0
1297.776367 184.0
1303.540283 168.0
1307.653809 200.0
1309.929199 116.0
1310.267822 176.0
1319.194824 120.0
1321.646484 92.0
1322.609009 196.0
1322.805298 192.0
1335.880981 52.0
1337.26355 176.0
1340.686523 116.0
1341.408081 148.0
1346.273926 212.0
1350.052734 216.0
1352.657349 144.0
1353.089355 96.0
1355.814209 140.0
1362.182861 160.0
1364.953613 200.0
1366.829346 128.0
1367.167847 176.0
1371.144653 220.0
1372.139771 232.0
1379.256104 124.0
1381.89624 188.0
1387.229858 164.0
1388.273804 180.0
1389.497681 140.0
1391.234375 192.0
1391.746582 144.0
1394.948608 156.0
1395.9375 144.0
1406.024292 44.0
1407.300781 220.0
1407.965332 136.0
1410.415894 188.0
1413.841431 276.0
1415.241211 152.0
1415.982544 84.0
1425.863281 232.0
1430.045044 184.0
1434.768066 164.0
1435.310913 204.0
1438.238037 136.0
1438.532349 160.0
1442.377319 100.0
1442.823364 208.0
1443.261841 96.0
1445.016602 164.0
1448.779175 180.0
1449.014038 136.0
1453.555786 168.0
1455.058594 256.0
1457.071289 228.0
1462.622559 156.0
1469.145508 172.0
1470.0 212.0
1470.595215 192.0
1471.549438 116.0
1471.801392 272.0
1473.764404 152.0
1476.042236 144.0
1476.21814 216.0
1478.26062 148.0
1479.592407 80.0
1482.434082 152.0
1482.932251 80.0
1501.221924 140.0
