>compound MLS002153479-01!N6-(2-Phenylethyl)adenosine
>formula C18H21N5O4
>ionization [M+H]+
>parentmass 372.167419
#inchi InChI=1S/C18H21N5O4/c24-8-12-14(25)15(26)18(27-12)23-10-22-13-16(20-9-21-17(13)23)19-7-6-11-4-2-1-3-5-11/h1-5,9-10,12,14-15,18,24-26H,6-8H2,(H,19,20,21)
#inchikey LGZYEDZSPHLISU
#Ion_Source LC-ESI
#Instrument qTof
#Compound_Source NIH Pharmacologically Active Library
#PI Dorrestein
#Data_Collector VP/LMS
#Scan -1
#Precursor_MZ 372.175
#ExactMass 371.159
#Charge 1
#CAS_Number N/A
#Pubmed_ID N/A
#Smiles OCC1OC(C(O)C1O)n2cnc3c(NCCc4ccccc4)ncnc23
#INCHI_AUX N/A
#Library_Class 1
#SpectrumID CCMSLIB00000085562
#IonMode Positive
#UpdateWorkflowName UPDATE-SINGLE-ANNOTATED-GOLD
#LibraryQualityString Gold
#TaskID d252d724072548979f1f6f1ced849daf
##Scan# 1454
#SpectrumFile p4-C08_GC8_01_18356.mzXML
#LibraryName Pharm_Active_Library.mgf
#MQScore -1
#Organism Pharm_Active_Library
#TIC_Query 0
#RT_Query -1
#MZErrorPPM -1
#SharedPeaks 0
#MassDiff 0
#LibMZ -1
#SpecMZ 372.175
#SpecCharge 0
#internalFilename spec-00000.mgf

>collision 10
44.944172 208.0
44.974865 96.0
44.994888 128.0
45.04697 208.0
45.103092 84.0
45.128494 188.0
45.175301 144.0
45.206074 168.0
45.226151 156.0
45.238197 232.0
45.283722 188.0
45.417896 192.0
45.459347 80.0
45.612453 56.0
45.65279 156.0
45.697502 232.0
45.769447 184.0
45.796791 80.0
45.811611 160.0
45.843945 96.0
45.941025 156.0
45.961262 196.0
46.081299 208.0
46.111156 164.0
46.190384 224.0
46.232872 196.0
46.303272 92.0
46.323589 232.0
46.334427 192.0
46.419819 156.0
46.453724 192.0
46.493073 120.0
46.528187 124.0
46.531128 108.0
46.57589 156.0
46.631599 52.0
46.729507 124.0
46.739029 116.0
46.762165 120.0
46.82888 120.0
46.862934 236.0
46.931084 92.0
46.976089 176.0
46.985638 168.0
47.003376 160.0
47.02729 160.0
47.103039 156.0
47.182297 204.0
47.271786 188.0
47.308159 240.0
47.32048 200.0
47.3643 144.0
47.374733 192.0
47.430073 232.0
47.452003 196.0
47.462933 136.0
47.528812 148.0
47.569984 176.0
47.659256 176.0
47.686741 88.0
47.74173 176.0
47.799507 108.0
47.85181 180.0
47.924809 96.0
48.028202 244.0
48.105476 160.0
48.123421 108.0
48.23394 212.0
48.247356 176.0
48.269886 180.0
48.314144 56.0
48.32798 216.0
48.34597 176.0
48.384724 40.0
48.444275 160.0
48.470596 192.0
48.499702 168.0
48.677544 232.0
48.698112 200.0
48.849621 52.0
48.895538 192.0
48.984646 240.0
49.044563 196.0
49.061291 176.0
49.084148 224.0
49.128231 44.0
49.172882 172.0
49.202194 184.0
49.277611 76.0
49.348156 160.0
49.399239 240.0
49.479004 152.0
49.500008 232.0
49.517651 200.0
49.618721 220.0
49.700451 140.0
49.725712 156.0
49.784676 52.0
49.804337 248.0
49.829147 236.0
50.008213 172.0
50.037773 212.0
50.049038 196.0
50.115234 144.0
50.151875 100.0
50.163151 216.0
50.196957 164.0
50.250587 144.0
50.339512 112.0
50.414383 128.0
50.42569 188.0
50.485771 192.0
50.555798 144.0
50.588352 60.0
50.632332 192.0
50.745605 176.0
50.810844 164.0
50.867611 112.0
50.886326 196.0
50.908783 112.0
50.924408 220.0
50.984077 208.0
50.998287 68.0
51.032406 224.0
51.08218 204.0
51.107788 136.0
51.123444 80.0
51.141945 108.0
51.19035 144.0
51.200317 188.0
51.227379 208.0
51.257298 136.0
51.291504 164.0
51.328571 172.0
51.434872 180.0
51.454922 180.0
51.502678 76.0
51.586987 156.0
51.735764 180.0
51.773418 120.0
51.940678 100.0
52.037544 120.0
52.058365 48.0
52.077038 124.0
52.265358 236.0
52.325809 168.0
52.369915 204.0
52.390617 36.0
52.53241 144.0
52.670464 180.0
52.744999 192.0
52.896038 200.0
52.945267 136.0
53.033646 128.0
53.053936 72.0
53.082935 136.0
53.143856 176.0
53.22514 168.0
53.273067 256.0
53.403889 80.0
53.43298 196.0
53.456261 56.0
53.582935 180.0
53.628109 200.0
53.645603 200.0
53.743317 180.0
53.882019 204.0
53.892246 172.0
53.906857 168.0
53.922932 152.0
53.934624 128.0
53.979946 184.0
54.001884 140.0
54.082355 48.0
54.105778 60.0
54.195118 108.0
54.221729 224.0
54.30653 212.0
54.470924 208.0
54.511326 168.0
54.573795 180.0
54.622326 196.0
54.637039 104.0
54.716511 136.0
54.840248 172.0
54.912491 108.0
54.937569 132.0
54.953796 204.0
54.964123 284.0
54.984783 152.0
55.003971 180.0
55.021687 156.0
55.054943 244.0
55.080753 160.0
55.172661 268.0
55.271469 140.0
55.361767 184.0
55.38398 136.0
55.541351 188.0
55.568741 208.0
55.649429 144.0
55.661308 240.0
55.673187 96.0
55.711803 204.0
55.778675 224.0
55.881287 176.0
55.891705 160.0
55.958244 164.0
55.995907 184.0
56.075665 188.0
56.165821 76.0
56.243412 212.0
56.258339 144.0
56.298653 36.0
56.419682 152.0
56.449585 136.0
56.477997 180.0
56.524376 160.0
56.661739 172.0
56.71907 356.0
56.789303 176.0
56.882568 108.0
56.93512 56.0
56.97868 160.0
57.03278 108.0
57.046307 128.0
57.058334 156.0
57.081081 192.0
57.151581 164.0
57.174152 168.0
57.190708 180.0
57.204258 92.0
57.222321 160.0
57.241894 108.0
57.284065 156.0
57.312691 200.0
57.356396 156.0
57.388054 112.0
57.443851 196.0
57.504208 176.0
57.646168 180.0
57.724773 156.0
57.761177 168.0
57.851864 160.0
57.866318 256.0
57.889713 192.0
57.925365 256.0
57.946598 188.0
58.032146 196.0
58.161095 128.0
58.180828 156.0
58.434631 232.0
58.675262 164.0
58.708809 192.0
58.728634 184.0
58.746941 204.0
58.861408 272.0
58.873623 200.0
58.902641 96.0
58.940838 204.0
59.03867 168.0
59.050903 136.0
59.070789 180.0
59.096794 188.0
59.18557 36.0
59.203945 156.0
59.25296 208.0
59.283607 52.0
59.308128 164.0
59.412399 76.0
59.426208 164.0
59.452293 156.0
59.479919 152.0
59.509087 136.0
59.570518 60.0
59.601246 76.0
59.638126 132.0
59.668873 120.0
59.692074 176.0
59.801163 176.0
60.104839 144.0
60.140247 192.0
60.152596 128.0
60.249882 132.0
60.277695 176.0
60.302372 132.0
60.419941 208.0
60.548412 160.0
60.587135 176.0
60.604179 176.0
60.657345 172.0
60.708164 192.0
60.770081 164.0
60.861656 152.0
60.897373 204.0
60.931545 224.0
61.009346 128.0
61.059006 208.0
61.079227 156.0
61.144573 136.0
61.16325 144.0
61.255123 108.0
61.306187 196.0
61.343945 176.0
61.504608 188.0
61.542076 144.0
61.815617 180.0
61.852226 204.0
61.947132 140.0
62.016075 172.0
62.052132 128.0
62.097607 148.0
62.11734 212.0
62.147804 172.0
62.161392 200.0
62.353516 144.0
62.381809 100.0
62.394382 152.0
62.447849 152.0
62.47459 172.0
62.491894 188.0
62.537529 48.0
62.587769 136.0
62.755264 220.0
62.782471 136.0
62.806381 196.0
62.85429 176.0
62.874805 140.0
62.898479 76.0
62.909531 48.0
62.977428 192.0
63.103848 144.0
63.138638 164.0
63.206657 136.0
63.225647 92.0
63.349148 184.0
63.384003 160.0
63.456913 172.0
63.542557 168.0
63.583813 184.0
63.679073 168.0
63.720371 280.0
63.758507 116.0
63.798244 216.0
63.855488 176.0
63.880936 156.0
63.914349 56.0
63.933441 156.0
63.998707 132.0
64.022591 140.0
64.105431 160.0
64.121368 164.0
64.134117 184.0
64.200935 184.0
64.229782 152.0
64.307564 188.0
64.36544 132.0
64.427727 148.0
64.440506 160.0
64.453293 104.0
64.469269 116.0
64.536407 156.0
64.613174 136.0
64.664383 164.0
64.7108 212.0
64.738022 168.0
64.778069 160.0
64.803696 184.0
64.838951 164.0
64.85498 220.0
64.866196 32.0
64.968826 128.0
64.980057 140.0
65.00396 116.0
65.01857 192.0
65.050674 152.0
65.105263 112.0
65.150665 180.0
65.232193 148.0
65.383377 88.0
65.418793 100.0
65.436501 204.0
65.45723 168.0
65.515411 212.0
65.592766 172.0
65.694351 180.0
65.791176 160.0
65.804092 184.0
65.844467 180.0
65.930084 140.0
66.053627 208.0
66.071655 244.0
66.224541 192.0
66.252075 124.0
66.265038 132.0
66.318512 92.0
66.396332 172.0
66.446617 172.0
66.462845 60.0
66.532631 116.0
66.584595 152.0
66.716202 172.0
66.830048 176.0
66.854462 96.0
66.935852 168.0
67.054771 152.0
67.105309 176.0
67.167274 64.0
67.271706 140.0
67.297829 80.0
67.435051 128.0
67.496208 128.0
67.508636 176.0
67.53315 164.0
67.583862 100.0
67.637871 204.0
67.745941 176.0
67.760689 172.0
67.775436 196.0
67.818039 212.0
67.860664 176.0
67.983688 176.0
68.046059 156.0
68.057549 176.0
68.08403 196.0
68.108459 68.0
68.123245 204.0
68.141319 48.0
68.154457 124.0
68.207047 216.0
68.239929 136.0
68.299126 140.0
68.374809 192.0
68.412872 128.0
68.475571 220.0
68.513123 80.0
68.608521 176.0
68.663124 156.0
68.705566 224.0
68.743958 208.0
68.81163 64.0
68.864471 224.0
68.965263 124.0
68.978485 136.0
69.014854 140.0
69.042969 208.0
69.064468 208.0
69.079353 136.0
69.124023 124.0
69.25647 164.0
69.268059 164.0
69.292908 172.0
69.321075 148.0
69.401543 184.0
69.520073 164.0
69.54673 132.0
69.624657 92.0
69.815773 144.0
69.967186 184.0
70.097099 88.0
70.125435 188.0
70.202118 128.0
70.262856 224.0
70.372322 100.0
70.407387 48.0
70.59288 124.0
70.64473 164.0
70.684883 176.0
70.704964 88.0
70.721703 100.0
70.748482 80.0
70.837234 152.0
70.952866 152.0
70.969635 268.0
71.082016 48.0
71.113899 160.0
71.170982 164.0
71.191132 176.0
71.218124 108.0
71.285202 188.0
71.350754 168.0
71.402878 208.0
71.473534 100.0
71.537483 164.0
71.587997 140.0
71.601471 136.0
71.643578 180.0
71.677277 172.0
71.729523 128.0
71.758179 188.0
71.773354 348.0
71.795273 172.0
71.850937 132.0
72.203918 156.0
72.403389 124.0
72.503616 156.0
72.58329 176.0
72.594948 156.0
72.609467 184.0
72.696945 112.0
72.737244 172.0
72.763138 200.0
72.783516 160.0
72.810684 184.0
72.832764 100.0
72.919418 88.0
73.162659 144.0
73.225662 184.0
73.24099 224.0
73.286987 376.0
73.298912 76.0
73.361969 160.0
73.396072 128.0
73.47422 180.0
73.485046 168.0
73.508652 60.0
73.582047 148.0
73.735779 76.0
73.925606 68.0
73.958122 72.0
73.980377 168.0
74.055717 180.0
74.088264 56.0
74.278542 160.0
74.29055 176.0
74.312172 172.0
74.384071 108.0
74.469063 124.0
74.499985 160.0
74.522316 36.0
74.589783 124.0
74.606529 128.0
74.702835 144.0
74.720924 248.0
74.745842 60.0
74.809525 204.0
74.905548 192.0
74.935242 136.0
74.994789 280.0
75.012413 164.0
75.047272 124.0
75.085213 32.0
75.147308 68.0
75.165329 108.0
75.181816 220.0
75.235329 268.0
75.247017 204.0
75.287125 108.0
75.416702 140.0
75.428802 152.0
75.461647 144.0
75.546387 188.0
75.574066 212.0
75.632904 188.0
75.648483 204.0
75.672211 148.0
75.693504 48.0
75.731598 212.0
75.748924 80.0
75.823425 136.0
75.925713 140.0
76.061043 168.0
76.080643 180.0
76.121811 140.0
76.172173 212.0
76.208656 112.0
76.332069 164.0
76.372063 188.0
76.474892 204.0
76.549583 104.0
76.577736 200.0
76.736015 168.0
76.804031 156.0
76.943634 160.0
77.104332 40.0
77.165512 112.0
77.221466 148.0
77.303696 96.0
77.333443 196.0
77.370201 220.0
77.385963 172.0
77.424484 140.0
77.445503 112.0
77.548874 124.0
77.569908 168.0
77.659332 172.0
77.671608 88.0
77.690903 172.0
77.736526 124.0
77.761093 188.0
77.804977 88.0
77.89196 176.0
77.987663 132.0
78.004532 228.0
78.068535 104.0
78.149452 152.0
78.224831 192.0
78.283226 156.0
78.33078 144.0
78.404778 136.0
78.432304 228.0
78.477051 212.0
78.508789 160.0
78.559937 144.0
78.595222 108.0
78.763824 216.0
78.824776 152.0
78.884865 172.0
78.962662 164.0
79.006882 332.0
79.160866 200.0
79.416069 208.0
79.515427 232.0
79.600639 180.0
79.700111 152.0
79.792526 180.0
79.81031 164.0
79.89212 192.0
80.027382 156.0
80.087929 200.0
80.139587 180.0
80.253128 216.0
80.335693 92.0
80.385651 136.0
80.417778 120.0
80.551689 112.0
80.594925 160.0
80.71254 96.0
80.753746 180.0
80.800179 148.0
80.84491 164.0
80.862808 116.0
80.886078 232.0
80.937996 184.0
80.984558 96.0
81.095642 148.0
81.133286 148.0
81.167351 224.0
81.235504 228.0
81.25058 188.0
81.263435 112.0
81.321632 108.0
81.377281 152.0
81.450905 172.0
81.494019 188.0
81.605568 132.0
81.702576 188.0
81.765549 264.0
81.826752 208.0
81.936615 116.0
82.036713 220.0
82.154747 132.0
82.25219 156.0
82.394852 160.0
82.425568 164.0
82.510513 196.0
82.705383 188.0
82.710091 136.0
82.734451 144.0
82.892891 108.0
82.968544 176.0
83.068283 92.0
83.115456 148.0
83.159554 200.0
83.191681 116.0
83.280655 156.0
83.327888 52.0
83.40239 36.0
83.451477 124.0
83.553322 172.0
83.647949 140.0
83.686607 224.0
83.733528 180.0
83.77906 308.0
83.865807 352.0
83.901161 132.0
84.211365 208.0
84.404594 240.0
84.4636 148.0
84.507507 168.0
84.542274 116.0
84.577148 148.0
84.652107 292.0
84.765686 108.0
84.833496 208.0
84.871994 144.0
84.903168 100.0
85.023743 188.0
85.046272 212.0
85.068802 176.0
85.222572 148.0
85.251968 128.0
85.272186 160.0
85.338364 200.0
85.373299 104.0
85.391037 204.0
85.42112 48.0
85.45607 152.0
85.560974 144.0
85.706474 124.0
85.735962 152.0
85.789413 176.0
85.837349 112.0
85.855789 92.0
85.898209 188.0
85.983086 76.0
86.025024 172.0
86.138176 192.0
86.184486 300.0
86.211082 148.0
86.239807 160.0
86.258286 48.0
86.282318 152.0
86.38958 224.0
86.54319 32.0
86.61171 436.0
86.656166 172.0
86.674698 168.0
86.687668 204.0
86.830414 132.0
86.873077 132.0
86.908325 84.0
86.980705 304.0
87.062393 188.0
87.186867 68.0
87.298477 192.0
87.437927 132.0
87.532867 40.0
87.57943 376.0
87.666992 164.0
87.750397 232.0
87.965408 160.0
87.985939 128.0
88.0569 148.0
88.101646 272.0
88.172516 140.0
88.179848 124.0
88.221329 96.0
88.473877 76.0
88.541283 168.0
88.613441 164.0
88.702415 56.0
88.747414 152.0
88.895592 112.0
88.951897 156.0
88.981934 132.0
88.996956 36.0
89.053291 148.0
89.080566 100.0
89.181053 156.0
89.203613 156.0
89.389809 216.0
89.406746 52.0
89.570541 84.0
89.608223 144.0
89.632713 68.0
89.681221 184.0
89.695488 196.0
89.796722 212.0
89.93634 156.0
90.004303 192.0
90.066628 128.0
90.094017 192.0
90.134636 144.0
90.261147 164.0
90.342613 36.0
90.382339 160.0
90.425865 224.0
90.439117 204.0
90.482651 188.0
90.683441 136.0
90.710732 152.0
90.770645 116.0
90.796333 176.0
90.810471 208.0
90.838928 128.0
90.8853 156.0
90.922409 144.0
90.973656 60.0
90.995728 204.0
91.028717 144.0
91.205399 132.0
91.353722 136.0
91.422218 72.0
91.488831 156.0
91.576424 136.0
91.618332 76.0
91.704079 128.0
91.959648 216.0
92.003555 152.0
92.055107 184.0
92.072151 164.0
92.129593 108.0
92.272926 144.0
92.330292 148.0
92.456558 152.0
92.617378 212.0
92.64415 156.0
92.726593 220.0
92.750923 236.0
92.803268 200.0
92.845451 128.0
92.899155 156.0
92.939445 176.0
92.960182 164.0
93.045006 212.0
93.130302 140.0
93.193108 180.0
93.227478 164.0
93.273865 60.0
93.285751 148.0
93.319748 172.0
93.342819 76.0
93.385124 140.0
93.452454 156.0
93.625694 140.0
93.675667 160.0
93.74321 208.0
93.851151 224.0
93.866577 136.0
93.889717 176.0
93.963013 60.0
94.040375 196.0
94.140144 208.0
94.181152 192.0
94.223648 108.0
94.295143 216.0
94.351196 100.0
94.378265 168.0
94.393738 156.0
94.500122 44.0
94.5214 180.0
94.552368 176.0
94.6782 132.0
94.78862 208.0
94.873901 148.0
94.956451 248.0
95.034874 160.0
95.060097 80.0
95.24453 236.0
95.263908 160.0
95.339737 140.0
95.403877 108.0
95.4786 176.0
95.524445 124.0
95.559456 180.0
95.582809 148.0
95.633408 112.0
95.722961 132.0
95.779434 160.0
95.858559 412.0
95.876854 220.0
95.892448 128.0
95.927528 144.0
95.976273 144.0
96.025673 352.0
96.071831 180.0
96.157692 136.0
96.287636 184.0
96.33342 152.0
96.466301 192.0
96.575798 120.0
96.614166 124.0
96.689278 116.0
96.736252 196.0
96.749954 172.0
96.785194 144.0
96.814568 144.0
96.890961 180.0
96.93602 156.0
96.993088 188.0
97.030663 196.0
97.200745 180.0
97.263542 192.0
97.28656 160.0
97.377838 188.0
97.436356 192.0
97.489403 180.0
97.518883 200.0
97.536575 132.0
97.569992 188.0
97.646683 104.0
97.723396 48.0
97.934029 152.0
98.036476 208.0
98.064644 156.0
98.103493 96.0
98.15081 160.0
98.172501 160.0
98.253372 132.0
98.2948 164.0
98.361908 68.0
98.510002 128.0
98.556526 212.0
98.650307 140.0
98.846107 224.0
98.871834 92.0
98.939133 140.0
99.127289 124.0
99.296021 180.0
99.313652 168.0
99.333481 244.0
99.36721 28.0
99.436661 212.0
99.462463 44.0
99.558411 184.0
99.613373 208.0
99.692848 148.0
99.802177 164.0
99.903603 176.0
99.935432 200.0
99.956657 132.0
100.017029 128.0
100.032951 52.0
100.203262 152.0
100.297874 160.0
100.311829 196.0
100.437454 152.0
100.453407 40.0
100.559341 132.0
100.587105 44.0
100.61306 68.0
100.652992 220.0
100.718895 156.0
100.772827 140.0
100.852768 156.0
100.998726 180.0
101.044739 76.0
101.122368 156.0
101.18483 156.0
101.234886 208.0
101.29097 208.0
101.310997 184.0
101.37912 184.0
101.431229 68.0
101.463303 240.0
101.490715 256.0
101.615723 68.0
101.633781 176.0
101.671913 140.0
101.687965 212.0
101.718071 160.0
101.804405 120.0
101.882736 84.0
101.949043 108.0
101.997276 144.0
102.04892 524.0
102.150101 120.0
102.286934 164.0
102.305054 140.0
102.321159 168.0
102.344643 240.0
102.496384 208.0
102.519585 156.0
102.540718 120.0
102.575447 192.0
102.593124 268.0
102.635468 164.0
102.85334 152.0
102.893715 128.0
102.94841 140.0
102.964394 116.0
103.022964 184.0
103.055191 13616.0
103.23317 204.0
103.247322 188.0
103.279686 52.0
103.330574 172.0
103.354538 52.0
103.374771 40.0
103.441559 116.0
103.526161 224.0
103.552925 176.0
103.575203 132.0
103.603561 88.0
103.688667 208.0
103.712982 116.0
103.731232 128.0
103.761475 148.0
103.779884 192.0
103.831528 128.0
103.893456 212.0
103.974617 56.0
104.058174 1932.0
104.102516 236.0
104.155319 108.0
104.224388 60.0
104.267067 132.0
104.289421 44.0
104.330078 112.0
104.354103 176.0
104.482597 300.0
104.508835 192.0
104.558647 160.0
104.654686 188.0
104.70549 144.0
104.726875 60.0
104.76123 368.0
104.800209 156.0
104.828949 116.0
104.851151 108.0
104.877647 216.0
104.894356 188.0
104.914337 72.0
104.928612 232.0
104.969666 356.0
105.013527 236.0
105.019287 224.0
105.026962 360.0
105.042961 324.0
105.07119 107352.0
105.112656 124.0
105.143394 252.0
105.174797 40.0
105.195229 52.0
105.199486 36.0
105.222397 208.0
105.256813 56.0
105.282707 200.0
105.297791 52.0
105.327705 84.0
105.363991 120.0
105.386986 176.0
105.406662 1180.0
105.435364 168.0
105.455887 268.0
105.508408 48.0
105.52388 120.0
105.561508 140.0
105.614746 52.0
105.646339 108.0
105.681419 236.0
105.719765 180.0
105.74469 136.0
105.790718 164.0
105.828445 56.0
105.837593 76.0
105.843796 124.0
105.87262 364.0
105.897194 72.0
105.928841 80.0
105.944305 140.0
105.960136 44.0
105.986084 128.0
105.998352 80.0
106.017021 148.0
106.035156 256.0
106.073921 11732.0
106.106209 108.0
106.151314 144.0
106.168747 40.0
106.22348 64.0
106.23951 228.0
106.267555 172.0
106.30722 220.0
106.335953 80.0
106.370842 80.0
106.391373 72.0
106.415443 88.0
106.432434 152.0
106.477715 156.0
106.508415 92.0
106.533798 180.0
106.559776 60.0
106.579231 188.0
106.611923 148.0
106.656654 80.0
106.668373 52.0
106.692772 280.0
106.713921 132.0
106.748871 112.0
106.765129 116.0
106.783836 144.0
106.808197 104.0
106.845337 120.0
106.865372 100.0
106.880524 164.0
106.907272 148.0
107.019112 152.0
107.077171 852.0
107.119339 100.0
107.187325 144.0
107.30481 148.0
107.391418 40.0
107.405853 44.0
107.440926 80.0
107.478966 64.0
107.575058 152.0
107.616348 40.0
107.670036 52.0
107.801933 128.0
107.83532 140.0
107.863129 88.0
107.903534 156.0
107.921608 108.0
108.267708 72.0
108.630424 84.0
108.673988 68.0
108.705116 128.0
108.870201 160.0
108.908569 168.0
109.05085 500.0
109.110138 64.0
109.205788 64.0
109.24115 120.0
109.351433 220.0
109.390976 112.0
109.668007 40.0
109.801445 172.0
109.824387 112.0
109.861931 164.0
110.28791 188.0
110.308342 124.0
110.375717 128.0
110.434273 104.0
110.532593 96.0
110.856468 120.0
110.966164 112.0
111.006004 220.0
111.250366 204.0
111.36277 164.0
111.432091 92.0
111.4468 136.0
111.493027 96.0
111.549774 92.0
111.566589 136.0
111.748184 232.0
111.856216 188.0
111.93689 56.0
112.012711 228.0
112.046417 176.0
112.073807 116.0
112.092773 84.0
112.193939 32.0
112.276169 84.0
112.428062 108.0
112.594841 240.0
112.647644 204.0
112.679337 112.0
112.770195 36.0
112.825157 132.0
112.844185 120.0
112.992226 40.0
113.049355 96.0
113.066292 64.0
113.186951 80.0
113.242012 168.0
113.26107 168.0
113.291786 176.0
113.337341 52.0
113.377602 44.0
113.411514 180.0
113.43483 44.0
113.466629 156.0
113.564171 40.0
113.638412 184.0
113.764435 148.0
113.861298 88.0
113.910149 116.0
114.012138 128.0
114.029137 64.0
114.39711 92.0
114.480148 184.0
114.654839 160.0
114.780609 128.0
114.810463 144.0
114.836052 96.0
115.035454 292.0
115.11776 112.0
115.15406 196.0
115.198921 96.0
115.226692 132.0
115.438293 40.0
115.573051 56.0
115.731445 80.0
115.746429 208.0
115.913506 176.0
116.044258 176.0
116.213692 120.0
116.250168 132.0
116.267342 180.0
116.320999 160.0
116.381111 64.0
116.411171 168.0
116.621712 196.0
116.755005 200.0
116.836746 172.0
117.041206 148.0
117.442047 116.0
117.558548 128.0
117.735565 88.0
117.843567 148.0
117.875977 168.0
117.985596 156.0
118.068375 136.0
118.083511 280.0
118.102974 168.0
118.161385 164.0
118.176529 172.0
118.377831 192.0
118.399483 128.0
118.768486 188.0
118.809151 196.0
118.83075 92.0
118.924156 136.0
119.035141 1316.0
119.061424 176.0
119.315155 108.0
119.408653 292.0
119.449982 96.0
119.50872 208.0
119.587059 244.0
119.640877 172.0
119.861458 180.0
119.914108 176.0
119.946449 44.0
120.024376 156.0
120.042839 600.0
120.109993 144.0
120.21035 168.0
120.269272 136.0
120.388351 148.0
120.577232 84.0
120.596901 100.0
120.629684 116.0
120.688713 196.0
120.817513 180.0
120.905273 172.0
121.052818 552.0
121.111076 128.0
121.231575 136.0
121.288559 452.0
121.62635 180.0
122.054741 152.0
122.098724 116.0
122.270325 196.0
122.367172 68.0
122.51693 164.0
122.563202 128.0
122.655762 180.0
122.79908 196.0
122.86525 120.0
122.986618 132.0
123.12571 176.0
123.271515 156.0
123.366554 180.0
123.479317 240.0
123.625328 92.0
123.667381 224.0
123.691727 160.0
123.811287 220.0
123.913177 152.0
123.97522 68.0
124.006248 212.0
124.035057 120.0
124.079399 216.0
124.103783 112.0
124.270134 140.0
124.33226 180.0
124.605377 120.0
124.747612 124.0
124.863228 124.0
124.909935 184.0
124.949982 96.0
125.010056 184.0
125.107986 120.0
125.165871 64.0
125.212639 132.0
125.310646 112.0
125.357445 64.0
125.397552 144.0
125.593758 104.0
125.633911 164.0
125.651756 152.0
125.780785 176.0
125.819138 124.0
126.040253 112.0
126.158707 228.0
126.502655 244.0
126.51075 184.0
126.545746 192.0
126.64875 48.0
126.722679 120.0
126.841454 68.0
127.014107 148.0
127.283417 116.0
127.469856 172.0
127.485588 160.0
127.575493 188.0
127.638443 164.0
127.838646 48.0
127.967247 180.0
128.025482 128.0
128.059265 112.0
128.122345 60.0
128.196701 176.0
128.340958 96.0
128.372528 156.0
128.406357 152.0
128.480789 104.0
128.681656 160.0
128.740356 184.0
128.907516 172.0
129.142639 152.0
129.400604 92.0
129.450729 180.0
129.633911 36.0
129.824326 76.0
129.94455 188.0
129.967239 156.0
129.999008 216.0
130.121582 160.0
130.337341 84.0
130.694321 148.0
130.908295 172.0
131.238693 56.0
131.259216 92.0
131.688248 148.0
132.01506 136.0
132.152298 144.0
132.298767 136.0
132.367462 52.0
132.40181 144.0
132.417847 132.0
132.534668 180.0
132.564453 196.0
132.637802 84.0
132.871704 196.0
132.97496 72.0
133.050705 80.0
133.098923 72.0
133.15863 156.0
133.484955 152.0
133.521759 188.0
133.709793 136.0
133.832413 156.0
133.899185 140.0
133.965988 120.0
134.056717 188.0
134.097321 152.0
134.148026 220.0
134.251785 132.0
134.376343 260.0
134.722641 228.0
134.842789 136.0
134.949127 148.0
135.02774 304.0
135.053833 128.0
135.071686 168.0
135.124893 156.0
135.222092 180.0
135.245224 144.0
135.298477 180.0
135.342453 112.0
135.425827 252.0
135.553345 176.0
135.638992 132.0
135.701584 112.0
135.772705 192.0
135.779831 124.0
135.875534 132.0
135.898727 84.0
135.96138 140.0
135.97995 184.0
135.99852 136.0
136.028702 48.0
136.062531 23536.0
136.196625 100.0
136.221436 100.0
136.253952 56.0
136.2724 64.0
136.291122 88.0
136.344574 64.0
136.404999 72.0
136.443649 44.0
136.507294 44.0
136.588699 232.0
136.656158 60.0
136.732956 84.0
136.75856 68.0
136.792252 176.0
136.860321 196.0
136.954132 212.0
136.995483 144.0
137.0634 1124.0
137.236115 140.0
137.306061 112.0
137.385376 104.0
137.401703 68.0
137.422699 80.0
137.443695 80.0
137.824295 60.0
137.868698 92.0
137.901413 120.0
137.936478 184.0
137.983231 164.0
138.013626 48.0
138.05571 160.0
138.079102 132.0
138.266266 192.0
138.498047 104.0
138.664398 220.0
139.037292 232.0
139.208664 236.0
139.26268 140.0
139.309662 144.0
139.367096 128.0
139.438889 72.0
139.739883 124.0
140.21553 224.0
140.387634 108.0
140.446594 136.0
140.819504 144.0
140.86203 136.0
141.147995 40.0
141.427155 232.0
141.630783 188.0
141.758713 96.0
141.787155 68.0
141.896179 248.0
141.981552 188.0
142.007629 144.0
142.045593 220.0
142.183197 152.0
142.34938 172.0
142.387375 156.0
142.586929 128.0
142.791397 196.0
142.8461 112.0
142.929367 80.0
143.136459 180.0
143.174561 132.0
143.357986 212.0
143.534378 124.0
144.134476 228.0
144.384506 184.0
144.48497 120.0
144.535217 108.0
144.760223 132.0
145.181046 112.0
145.198776 188.0
145.220352 132.0
145.258743 100.0
145.465103 120.0
145.52272 148.0
145.565933 204.0
145.772522 184.0
146.147629 148.0
146.399673 152.0
146.49913 176.0
146.547318 136.0
146.593094 96.0
146.860703 156.0
147.290344 160.0
147.319321 176.0
147.41597 132.0
147.614182 176.0
147.648041 164.0
147.698837 172.0
147.856094 176.0
147.892395 172.0
147.948074 132.0
147.977127 220.0
148.062225 7560.0
148.12001 28.0
148.136963 248.0
148.17572 40.0
148.243576 52.0
148.316269 184.0
148.372025 40.0
148.435074 44.0
148.45932 80.0
148.505402 132.0
148.5345 84.0
148.612137 176.0
148.62912 60.0
148.650192 164.0
148.911774 92.0
148.929657 180.0
148.952011 164.0
148.978729 96.0
149.022461 144.0
149.068497 3884.0
149.105072 36.0
149.145767 136.0
149.255219 152.0
149.292267 184.0
149.518509 64.0
149.550156 156.0
149.62561 240.0
149.667007 120.0
149.692017 80.0
150.068008 352.0
150.142181 36.0
150.239746 176.0
150.290985 136.0
150.489548 136.0
150.66452 100.0
150.718277 128.0
150.811142 52.0
150.867371 60.0
151.251419 36.0
151.567337 172.0
151.667816 160.0
151.68869 120.0
151.733994 84.0
151.962082 60.0
152.035843 336.0
152.136337 148.0
152.237 136.0
152.52446 200.0
152.745758 136.0
152.78511 108.0
152.942596 112.0
152.969681 124.0
153.353928 100.0
153.635025 144.0
153.783081 32.0
153.983063 124.0
154.104111 76.0
154.235077 124.0
154.583801 84.0
154.671036 112.0
154.757065 124.0
154.81897 136.0
154.836304 220.0
154.8685 104.0
154.994843 128.0
155.04689 132.0
155.086533 108.0
155.150986 196.0
155.195618 188.0
155.222885 88.0
155.262573 184.0
155.32457 28.0
155.865784 136.0
156.241211 168.0
156.62207 180.0
156.766571 204.0
156.888702 140.0
156.928604 44.0
157.072327 180.0
157.252884 124.0
157.31778 204.0
157.500076 108.0
157.545029 96.0
157.877457 152.0
157.909973 108.0
157.964996 152.0
158.000015 184.0
158.100113 200.0
158.473206 164.0
158.641113 204.0
158.85257 148.0
158.984741 160.0
159.291046 144.0
159.592621 228.0
159.637878 52.0
159.776215 44.0
159.902039 120.0
160.032928 40.0
160.219299 144.0
160.320084 140.0
160.3535 184.0
160.410828 200.0
160.46376 100.0
160.666611 204.0
160.688217 140.0
160.761398 212.0
160.935562 148.0
161.038666 164.0
161.423233 196.0
161.555298 148.0
161.742004 248.0
161.860992 232.0
162.025635 176.0
162.075958 428.0
162.263855 160.0
162.319641 84.0
162.723068 180.0
162.875427 136.0
163.002457 128.0
163.030411 60.0
163.065994 132.0
163.091415 164.0
163.1931 192.0
163.243942 240.0
163.307526 184.0
163.719818 68.0
163.760574 236.0
163.791138 144.0
164.079086 100.0
164.423447 188.0
164.658325 104.0
164.906143 72.0
164.944489 160.0
165.371628 72.0
165.445862 172.0
165.525238 220.0
165.543152 88.0
165.62767 164.0
165.694275 236.0
165.814713 140.0
165.86084 136.0
165.883911 120.0
166.656403 128.0
166.795166 116.0
166.94429 152.0
167.193817 156.0
167.464066 120.0
167.53627 32.0
168.015778 40.0
168.356491 160.0
168.419693 168.0
168.707886 168.0
168.82164 140.0
169.113983 84.0
169.277084 164.0
169.313339 204.0
169.554276 164.0
170.022339 116.0
170.220978 44.0
170.563904 92.0
171.016479 132.0
171.118011 128.0
171.222168 160.0
171.490509 128.0
171.600006 136.0
171.759079 112.0
172.103561 116.0
172.23674 80.0
172.270706 204.0
172.3125 196.0
172.3517 148.0
172.380432 156.0
172.581711 96.0
172.688919 104.0
172.861588 240.0
173.162643 72.0
173.749802 176.0
173.969513 216.0
174.403656 160.0
174.445724 144.0
174.553513 160.0
174.640289 80.0
174.756042 160.0
174.99292 160.0
175.061386 136.0
175.240494 180.0
175.725616 132.0
176.118942 136.0
176.451904 140.0
176.61586 160.0
176.784088 244.0
176.988998 144.0
177.044617 124.0
177.389053 128.0
177.450027 212.0
177.476532 220.0
177.927567 124.0
178.070969 124.0
178.256927 120.0
178.427032 140.0
178.513443 112.0
178.602539 164.0
179.081635 144.0
179.211731 172.0
179.569366 160.0
179.631882 148.0
179.654724 188.0
179.71875 196.0
179.785461 208.0
179.843079 396.0
179.918915 168.0
180.095154 240.0
180.127213 88.0
180.218048 104.0
180.351669 160.0
180.463943 148.0
180.632416 56.0
180.942841 84.0
181.054626 532.0
181.238388 220.0
181.40094 232.0
181.655685 112.0
181.674469 120.0
181.725433 164.0
181.824722 196.0
182.018005 100.0
182.069031 168.0
182.238251 152.0
182.262436 148.0
182.525848 76.0
182.571564 68.0
182.719513 128.0
182.950943 140.0
182.996902 172.0
183.301086 132.0
183.403488 104.0
183.902466 132.0
184.059052 132.0
184.156265 184.0
184.185974 124.0
184.364304 156.0
184.704956 120.0
184.794235 148.0
184.999908 200.0
185.175919 148.0
185.209045 156.0
185.389938 92.0
185.433304 140.0
185.454971 104.0
185.671875 64.0
185.72612 140.0
186.532562 188.0
186.875229 136.0
187.545135 160.0
187.564209 188.0
187.665085 108.0
187.869629 208.0
188.249008 120.0
188.369171 196.0
188.396805 172.0
188.612366 228.0
188.836563 152.0
189.01712 140.0
189.38504 284.0
189.726486 52.0
189.816971 172.0
189.874557 196.0
190.066238 196.0
190.073349 172.0
190.140671 184.0
190.251785 168.0
190.390503 124.0
190.596527 132.0
190.91539 120.0
191.044662 104.0
191.082321 268.0
191.33638 80.0
191.694443 152.0
191.730255 92.0
191.801926 176.0
192.028015 204.0
192.06662 112.0
192.146622 52.0
192.383957 144.0
192.803787 76.0
192.906067 112.0
193.024948 296.0
193.1577 196.0
193.251755 204.0
193.481461 140.0
193.520218 208.0
193.75563 180.0
193.991196 220.0
194.032776 60.0
194.224121 140.0
194.24353 180.0
194.401672 136.0
194.440521 108.0
194.490479 160.0
194.517914 132.0
194.61264 56.0
194.782043 176.0
194.920944 156.0
195.10994 172.0
195.240631 96.0
195.304596 132.0
195.429779 204.0
195.570572 256.0
195.866852 136.0
196.08139 208.0
196.337875 152.0
196.466187 160.0
196.524765 216.0
196.594528 152.0
196.675461 136.0
196.734085 152.0
196.756424 52.0
196.840179 100.0
196.879272 56.0
197.301193 160.0
197.345917 72.0
197.765533 176.0
198.208008 156.0
198.252838 172.0
198.331314 140.0
198.362152 144.0
198.488312 136.0
198.665009 152.0
198.788452 52.0
198.965286 156.0
198.99617 152.0
199.15062 160.0
199.215225 108.0
199.25174 104.0
199.302307 124.0
199.605881 76.0
199.756546 164.0
200.016632 124.0
200.210907 200.0
200.396805 188.0
200.698395 108.0
200.740692 116.0
200.82811 140.0
200.921204 116.0
200.971985 168.0
201.124237 84.0
201.206238 152.0
201.305069 84.0
201.434982 156.0
201.51973 200.0
201.867401 256.0
201.909821 252.0
202.115189 368.0
202.920319 144.0
202.957565 144.0
203.175949 40.0
203.255402 156.0
203.304398 164.0
203.436111 172.0
203.462585 112.0
203.522202 104.0
203.54776 136.0
203.573318 120.0
203.644318 132.0
203.792038 188.0
204.002335 140.0
204.118912 144.0
204.16156 120.0
204.309464 244.0
204.448883 28.0
204.485886 132.0
204.656693 144.0
204.756348 140.0
204.836105 64.0
204.927261 68.0
204.975708 176.0
205.195175 160.0
205.280716 188.0
205.914261 84.0
205.937103 120.0
206.005661 172.0
206.154221 48.0
206.199951 180.0
206.265686 152.0
206.291412 124.0
206.528748 216.0
206.580231 228.0
206.758255 204.0
206.946564 168.0
206.966599 64.0
207.141296 148.0
207.270218 192.0
207.602737 216.0
207.665833 212.0
207.837952 176.0
207.958481 204.0
207.978577 144.0
208.076569 148.0
208.173798 176.0
208.265701 32.0
208.371979 132.0
208.573151 108.0
208.834793 144.0
208.906708 48.0
208.978622 108.0
209.081146 140.0
209.312515 124.0
209.380737 156.0
209.689896 156.0
209.750412 168.0
210.053192 40.0
210.131073 176.0
210.219116 156.0
210.258041 40.0
210.292679 124.0
210.4832 228.0
210.754715 96.0
210.809616 132.0
210.847183 148.0
211.096695 116.0
211.269333 124.0
211.350342 232.0
211.619522 232.0
211.785065 196.0
211.862793 188.0
212.045349 88.0
212.083023 180.0
212.123611 64.0
212.425186 132.0
212.474503 80.0
212.53833 92.0
212.57605 148.0
212.712463 88.0
212.927307 140.0
212.979599 28.0
213.066742 144.0
213.111755 288.0
213.351547 160.0
214.291565 236.0
214.31488 136.0
214.728821 172.0
214.854248 160.0
215.084778 176.0
215.108124 68.0
215.175278 120.0
215.414734 136.0
215.60466 124.0
215.829742 92.0
215.864838 148.0
215.923325 172.0
216.06958 176.0
216.131012 152.0
216.56427 192.0
216.953995 204.0
217.118195 168.0
217.332336 52.0
217.352875 144.0
217.417435 128.0
217.652267 212.0
217.813797 144.0
217.978317 220.0
218.154663 136.0
218.44873 244.0
218.707672 148.0
218.901978 120.0
219.007996 168.0
219.161179 280.0
219.190643 184.0
219.246628 152.0
219.329163 352.0
219.880692 132.0
219.927994 168.0
220.02829 128.0
220.49144 100.0
220.628006 132.0
220.687134 136.0
220.820206 204.0
220.938522 176.0
221.055588 180.0
221.579895 204.0
221.903992 180.0
222.340454 200.0
222.381577 132.0
222.939911 72.0
223.096649 980.0
223.406723 128.0
223.45134 128.0
223.490021 88.0
224.052536 192.0
224.183823 44.0
225.1026 44.0
225.156357 136.0
225.252182 196.0
225.278824 160.0
225.338562 160.0
225.541779 216.0
226.514252 120.0
226.646072 44.0
226.72998 108.0
226.78392 164.0
226.864853 192.0
227.044754 200.0
227.182724 192.0
227.224731 192.0
227.434784 116.0
227.485809 172.0
227.892838 128.0
228.221863 120.0
228.441406 212.0
228.524231 244.0
228.709213 160.0
229.028381 204.0
229.166946 192.0
229.188049 184.0
229.296524 176.0
229.332687 128.0
229.570862 240.0
229.628159 180.0
229.791061 136.0
229.851395 172.0
230.077759 36.0
230.246857 84.0
230.684967 88.0
231.126526 156.0
231.835098 124.0
232.059402 184.0
232.183731 208.0
232.447647 160.0
232.766373 108.0
232.966827 100.0
233.228149 108.0
233.291977 116.0
233.739059 92.0
233.903412 116.0
233.942978 112.0
234.028229 180.0
234.643661 128.0
234.704636 148.0
234.866272 136.0
235.018814 204.0
235.286819 128.0
235.39119 148.0
235.479752 108.0
235.58667 132.0
235.635544 224.0
235.659988 180.0
235.849457 188.0
235.892242 68.0
236.017593 124.0
236.295929 196.0
236.442795 160.0
236.464218 76.0
236.70607 160.0
236.765274 192.0
236.810181 204.0
236.874512 192.0
237.010666 192.0
237.073654 168.0
237.263702 56.0
237.509018 160.0
237.536621 96.0
237.772873 164.0
237.907928 108.0
237.978546 204.0
238.112289 404.0
238.144363 116.0
238.362488 88.0
238.38707 212.0
238.531525 100.0
238.580704 88.0
238.628983 176.0
238.894379 112.0
238.998978 180.0
239.040909 200.0
239.117584 204.0
239.153473 124.0
239.188995 128.0
239.209641 160.0
239.263657 56.0
239.307571 92.0
239.351715 80.0
239.408371 52.0
239.449539 180.0
239.471664 392.0
239.491776 176.0
239.523468 216.0
239.563324 300.0
239.594269 204.0
239.66713 172.0
239.701324 124.0
239.729706 156.0
239.76265 140.0
239.81076 112.0
239.851074 128.0
239.881638 252.0
239.921692 148.0
239.969315 172.0
239.995483 196.0
240.024445 136.0
240.051102 480.0
240.062744 384.0
240.085541 360.0
240.125809 163784.0
240.215179 224.0
240.24295 152.0
240.281296 92.0
240.32991 180.0
240.372482 116.0
240.407349 96.0
240.446594 52.0
240.474976 112.0
240.519653 124.0
240.555679 96.0
240.583771 320.0
240.633728 1052.0
240.665222 216.0
240.702881 184.0
240.717148 68.0
240.729187 64.0
240.753479 152.0
240.780823 256.0
240.800995 164.0
240.833313 160.0
240.871643 156.0
240.89711 144.0
240.938721 80.0
240.977615 152.0
240.998062 236.0
241.062073 112.0
241.127548 25056.0
241.182907 196.0
241.282333 56.0
241.316849 40.0
241.358597 144.0
241.384842 288.0
241.409775 164.0
241.522064 84.0
241.559052 44.0
241.589783 48.0
241.622269 128.0
241.664688 56.0
241.69574 68.0
241.782043 72.0
241.805511 76.0
241.842743 104.0
241.893814 132.0
241.932587 76.0
242.019501 92.0
242.052734 84.0
242.08577 84.0
242.130035 2124.0
242.168396 100.0
242.215851 88.0
242.264801 180.0
242.306976 48.0
242.344849 132.0
242.386246 128.0
242.432632 132.0
242.478989 112.0
242.519348 156.0
242.55864 116.0
242.583038 136.0
242.640808 60.0
242.715897 88.0
242.742142 232.0
242.776108 240.0
242.805695 104.0
242.843079 44.0
242.851822 44.0
242.865829 172.0
242.921402 116.0
242.947922 116.0
242.975342 108.0
243.024979 112.0
243.055313 72.0
243.137863 168.0
243.189453 120.0
243.230103 40.0
243.497543 68.0
243.520798 252.0
243.618607 132.0
243.723587 108.0
243.76088 56.0
243.819031 148.0
243.894516 112.0
244.001404 108.0
244.102798 96.0
244.140121 88.0
244.286301 56.0
244.527786 72.0
244.537201 44.0
244.569458 84.0
244.647278 60.0
244.852783 152.0
244.968033 92.0
245.108231 40.0
245.158081 140.0
245.186142 96.0
245.259064 120.0
245.522827 56.0
245.588318 96.0
245.856628 40.0
245.997757 56.0
246.121964 56.0
246.493668 196.0
246.731216 64.0
247.147186 84.0
247.175339 80.0
247.26297 36.0
247.297394 48.0
247.453903 40.0
248.127502 72.0
248.187073 52.0
248.237244 88.0
248.444244 80.0
248.632507 136.0
249.386261 96.0
249.763565 88.0
250.62616 160.0
250.771118 176.0
250.909393 120.0
251.65123 32.0
251.742798 52.0
251.935471 52.0
252.134521 124.0
252.204056 100.0
252.49176 96.0
253.146835 104.0
253.40657 72.0
253.653763 72.0
254.475403 56.0
254.697708 92.0
254.92009 40.0
255.222061 88.0
255.581482 76.0
255.699234 92.0
256.332947 92.0
256.399872 76.0
256.674011 100.0
257.021698 84.0
257.251495 60.0
257.38559 116.0
258.002197 68.0
258.149292 76.0
258.491577 40.0
260.386169 48.0
260.408661 36.0
261.044952 148.0
264.131439 84.0
264.425873 52.0
265.764191 36.0
265.806366 72.0
267.333649 52.0
268.00119 100.0
272.194519 80.0
272.841766 108.0
274.033142 72.0
274.74527 76.0
279.892456 128.0
282.13269 564.0
283.141602 172.0
285.006775 192.0
294.113464 108.0
295.723328 84.0
297.238037 108.0
297.341003 60.0
297.886932 84.0
299.730988 40.0
308.417664 48.0
312.132996 176.0
313.161407 148.0
318.111694 44.0
320.947174 84.0
325.818298 64.0
328.637329 116.0
332.128326 56.0
336.148407 128.0
337.708374 64.0
342.568268 120.0
342.800385 52.0
346.332275 112.0
346.832489 128.0
350.828491 212.0
351.268524 48.0
352.433319 32.0
354.884888 160.0
356.803406 100.0
357.604645 64.0
360.996216 44.0
365.765228 124.0
366.298309 56.0
369.206665 64.0
370.285889 116.0
371.194122 76.0
371.347504 76.0
372.167419 472.0
372.391449 68.0
373.00238 52.0
373.152313 168.0
373.179962 124.0
374.171844 68.0
376.51239 116.0
376.678467 40.0
383.831207 56.0
388.030457 72.0
390.319489 92.0
399.726013 76.0
400.948578 108.0
401.586456 88.0
402.767914 76.0
406.972839 56.0
407.699921 56.0
408.500031 104.0
413.819061 80.0
416.284332 72.0
416.609283 92.0
417.121277 84.0
422.815125 96.0
431.924469 88.0
437.747284 56.0
442.582642 60.0
452.875031 64.0
458.133728 40.0
460.074097 72.0
462.181122 68.0
467.992737 112.0
468.363098 148.0
468.479401 176.0
471.893097 48.0
484.440094 108.0
487.691559 48.0
488.540222 84.0
488.579803 56.0
501.193756 64.0
504.563446 64.0
507.365967 56.0
509.893066 68.0
519.392761 132.0
523.223511 28.0
523.53772 72.0
527.612305 92.0
532.781677 104.0
533.388245 52.0
553.762878 124.0
554.090759 72.0
555.811462 60.0
559.331482 80.0
562.938171 40.0
579.376404 68.0
586.975159 60.0
588.765503 48.0
595.201172 76.0
605.926575 76.0
609.734314 168.0
616.258545 72.0
626.887146 48.0
642.218445 136.0
642.823853 88.0
656.515564 40.0
656.775635 104.0
658.21991 100.0
662.106384 124.0
663.269409 68.0
688.278809 56.0
703.203613 108.0
707.00354 144.0
711.816895 112.0
713.113098 68.0
723.407715 112.0
744.288879 72.0
766.519226 88.0
766.712097 136.0
770.41449 68.0
779.723267 96.0
782.704956 108.0
796.906433 96.0
808.896057 80.0
810.532776 60.0
811.62677 132.0
819.424805 152.0
820.718628 144.0
826.704956 140.0
829.310791 148.0
837.671204 100.0
842.106812 168.0
842.643982 208.0
846.768372 72.0
850.235291 152.0
851.617065 124.0
852.325806 188.0
856.811646 84.0
858.548584 60.0
859.16687 192.0
866.509766 136.0
879.808167 248.0
886.798706 40.0
891.7724 152.0
891.867493 100.0
894.621643 128.0
896.176025 140.0
896.70636 168.0
903.316162 136.0
903.75885 176.0
903.896484 176.0
906.513245 176.0
906.734985 112.0
907.424316 172.0
911.986572 36.0
912.233032 148.0
914.446533 152.0
915.199036 160.0
918.441223 172.0
918.585999 168.0
924.507019 176.0
924.652283 68.0
924.7854 92.0
925.947876 176.0
926.802002 188.0
927.044373 76.0
929.257568 120.0
929.427429 160.0
931.370117 156.0
931.497681 164.0
932.263245 124.0
933.229736 188.0
934.403503 56.0
936.004272 48.0
936.467102 212.0
938.081848 164.0
938.136719 88.0
938.685425 176.0
939.38678 232.0
943.777893 52.0
948.927063 92.0
949.319458 148.0
950.503357 120.0
952.406494 132.0
954.194763 164.0
958.996216 184.0
960.839966 100.0
962.83374 204.0
963.235168 92.0
971.282104 164.0
971.775085 96.0
972.13208 48.0
972.758911 120.0
973.820679 40.0
975.523193 184.0
977.438782 216.0
978.384827 124.0
978.664978 152.0
980.303223 168.0
981.144653 176.0
981.855469 116.0
981.955261 48.0
982.965881 208.0
986.35083 140.0
986.963501 156.0
989.434875 164.0
994.550049 220.0
994.995728 184.0
995.039246 168.0
995.447815 196.0
995.523132 200.0
996.257996 228.0
996.314575 152.0
997.049744 60.0
997.125122 180.0
997.659424 176.0
997.848022 232.0
999.590271 128.0
1000.225952 56.0
1001.541931 72.0
1002.865112 184.0
1004.220642 180.0
1004.920898 188.0
1008.090637 148.0
1009.03241 168.0
1009.139893 224.0
1010.487061 192.0
1010.866699 112.0
1010.923645 164.0
1013.247375 76.0
1015.42157 80.0
1017.293396 124.0
1018.588806 184.0
1019.560913 108.0
1020.037598 124.0
1021.322021 200.0
1022.168152 156.0
1022.263611 72.0
1023.269287 152.0
1024.517578 180.0
1027.335205 156.0
1027.520264 200.0
1028.298706 208.0
1029.256348 124.0
1029.741577 200.0
1030.412354 156.0
1031.102417 136.0
1031.377319 204.0
1031.961304 148.0
1032.163574 176.0
1032.304321 68.0
1032.470581 224.0
1032.72644 176.0
1034.428467 164.0
1034.620483 224.0
1035.190308 152.0
1035.97168 216.0
1036.900757 120.0
1039.023193 108.0
1039.703369 196.0
1039.850952 140.0
1040.184814 180.0
1040.762573 128.0
1041.764404 136.0
1042.053589 132.0
1044.251953 188.0
1044.464233 132.0
1044.740845 184.0
1050.515137 184.0
1051.216064 180.0
1052.92688 144.0
1053.049561 180.0
1054.690674 196.0
1055.970825 124.0
1056.365479 196.0
1056.811768 172.0
1057.439575 172.0
1057.491333 188.0
1057.666016 140.0
1059.945679 156.0
1060.496582 48.0
1062.415894 204.0
1065.869995 148.0
1067.813721 136.0
1068.516235 188.0
1070.436157 188.0
1071.543579 136.0
1071.817261 212.0
1071.901978 48.0
1072.397217 68.0
1072.468872 208.0
1075.195068 76.0
1075.338745 116.0
1076.102417 236.0
1076.89917 168.0
1077.251831 188.0
1077.598145 64.0
1077.781006 52.0
1078.356079 260.0
1078.604492 144.0
1080.193481 220.0
1080.330811 172.0
1081.014771 156.0
1081.057129 200.0
1082.66748 152.0
1083.106323 120.0
1084.161133 100.0
1084.298706 180.0
1084.685425 176.0
1086.160767 176.0
1086.64624 148.0
1086.718384 164.0
1087.958862 152.0
1088.162354 184.0
1088.786133 88.0
1089.042236 144.0
1089.272217 76.0
1093.5 216.0
1094.572998 144.0
1094.849609 100.0
1095.389648 172.0
1095.738892 132.0
1096.055054 224.0
1096.180298 144.0
1097.300781 60.0
1097.670044 224.0
1098.059082 80.0
1099.154175 220.0
1100.05835 144.0
1100.751587 172.0
1101.352661 188.0
1102.806152 140.0
1103.533325 184.0
1103.930054 136.0
1104.472412 168.0
1104.631226 152.0
1105.656738 152.0
1105.709717 196.0
1105.769287 192.0
1108.014038 176.0
1108.192871 148.0
1108.391602 136.0
1108.795898 84.0
1108.96814 176.0
1109.047729 148.0
1109.180298 240.0
1109.67749 176.0
1110.088623 200.0
1110.340576 148.0
1110.871216 132.0
1110.964111 212.0
1112.543457 168.0
1113.041504 228.0
1114.987793 236.0
1115.094116 64.0
1118.699341 144.0
1119.738037 28.0
1122.016846 108.0
1122.236938 168.0
1124.511597 172.0
1124.738525 208.0
1125.372803 92.0
1125.59314 172.0
1126.067261 64.0
1127.122803 176.0
1127.17627 236.0
1127.710815 208.0
1128.593262 148.0
1129.175049 148.0
1129.328857 160.0
1130.124878 160.0
1130.359131 124.0
1132.508179 152.0
1134.974243 84.0
1137.469971 108.0
1137.671387 184.0
1138.537476 192.0
1138.604614 140.0
1138.927002 168.0
1139.793701 164.0
1139.914673 184.0
1140.230469 144.0
1141.272461 224.0
1141.319458 184.0
1141.601929 220.0
1141.709473 56.0
1142.893433 128.0
1143.902954 180.0
1144.25293 156.0
1144.515503 100.0
1145.02063 160.0
1145.862549 204.0
1146.14563 152.0
1146.812744 168.0
1148.430908 96.0
1148.768188 180.0
1149.16626 176.0
1149.281738 212.0
1149.375366 144.0
1149.550781 60.0
1149.868042 180.0
1150.678101 152.0
1151.022339 184.0
1151.08313 148.0
1151.940918 200.0
1152.244873 136.0
1152.413818 192.0
1152.700317 160.0
1152.8125 184.0
1152.940918 92.0
1153.3396 196.0
1153.461304 196.0
1153.887207 188.0
1153.975098 144.0
1154.171143 176.0
1154.556641 164.0
1155.571289 156.0
1155.65918 156.0
1155.841919 160.0
1155.963623 164.0
1156.024536 88.0
1156.126099 148.0
1156.390015 160.0
1156.599854 164.0
1156.769043 156.0
1157.818481 132.0
1158.265503 84.0
1158.362793 340.0
1159.349609 144.0
1159.99353 200.0
1160.406982 160.0
1160.922363 144.0
1161.295288 160.0
1162.009399 176.0
1162.136475 112.0
1163.575317 100.0
1163.94873 164.0
1164.437744 172.0
1164.811279 164.0
1165.184937 72.0
1165.463501 176.0
1165.782837 44.0
1166.442139 184.0
1166.931641 164.0
1167.604736 136.0
1167.76123 124.0
1168.069214 124.0
1168.434692 208.0
1170.837402 192.0
1171.157471 164.0
1172.786011 80.0
1174.906738 120.0
1175.090942 192.0
1175.138672 76.0
1175.377441 128.0
1175.438843 148.0
1175.98999 196.0
1176.175903 152.0
1177.623413 28.0
1178.395386 196.0
1178.716431 156.0
1179.741699 172.0
1180.336548 180.0
1181.827637 164.0
1183.14856 156.0
1183.319702 184.0
1183.614136 104.0
1183.881104 164.0
1184.963379 244.0
1185.30603 180.0
1185.367676 172.0
1185.723999 168.0
1185.79248 92.0
1186.114624 32.0
1188.027832 124.0
1188.432617 188.0
1189.55127 48.0
1189.805298 200.0
1191.080811 64.0
1191.39856 180.0
1191.446655 160.0
1191.687134 116.0
1191.831421 152.0
1192.161255 172.0
1192.223022 116.0
1192.786621 236.0
1192.848511 180.0
1193.344849 232.0
1193.886719 184.0
1194.361328 208.0
1194.718994 200.0
1196.27417 204.0
1196.322388 100.0
1197.148682 72.0
1197.217529 176.0
1197.754761 180.0
1197.982056 228.0
1198.595215 184.0
1199.029297 128.0
1199.13269 196.0
1200.22876 204.0
1200.739136 200.0
1202.822754 176.0
1203.071289 204.0
1204.114014 172.0
1206.027832 164.0
1206.373413 116.0
1207.46582 148.0
1207.576538 188.0
1207.763306 96.0
1207.929321 196.0
1208.441162 152.0
1209.112427 208.0
1209.167847 148.0
1209.223145 124.0
1210.351562 192.0
1210.988647 132.0
1211.106445 168.0
1211.553833 148.0
1211.594238 152.0
1213.407104 168.0
1214.273804 160.0
1214.634521 104.0
1214.690063 132.0
1215.21875 180.0
1216.105469 168.0
1216.556641 208.0
1216.785767 184.0
1217.105103 148.0
1217.176392 108.0
1217.362061 184.0
1217.806519 72.0
1217.959351 96.0
1218.348389 120.0
1218.737427 204.0
1219.286377 144.0
1220.009277 208.0
1220.329102 184.0
1220.419434 124.0
1221.093994 132.0
1221.253906 152.0
1221.365234 212.0
1222.269653 168.0
1222.541016 128.0
1222.993408 28.0
1223.912354 196.0
1225.604858 164.0
1226.719971 124.0
1227.36145 140.0
1227.458984 188.0
1227.640381 156.0
1228.526123 212.0
1228.990479 224.0
1229.056396 112.0
1229.58667 192.0
1230.005493 168.0
1230.103271 60.0
1230.31958 148.0
1230.672241 140.0
1231.43457 204.0
1231.548584 304.0
1231.639404 140.0
1231.800049 168.0
1232.505737 164.0
1232.77124 168.0
1233.218506 68.0
1233.644897 172.0
1233.87561 212.0
1234.560791 148.0
1235.156128 204.0
1236.253784 152.0
1237.359619 216.0
1238.739258 168.0
1239.208618 188.0
1240.161621 160.0
1240.596191 180.0
1241.500732 144.0
1241.900513 140.0
1242.033813 160.0
1242.559937 140.0
1242.863281 160.0
1243.427124 212.0
1244.124878 132.0
1244.377686 124.0
1244.855103 116.0
1245.121948 196.0
1245.255371 200.0
1245.42395 172.0
1245.529297 164.0
1245.67688 88.0
1248.389771 184.0
1248.664062 60.0
1249.064941 180.0
1249.796631 128.0
1250.155518 140.0
1251.26062 76.0
1251.450684 60.0
1251.563354 196.0
1252.344971 148.0
1252.873291 160.0
1253.44397 132.0
1253.965454 128.0
1254.571655 364.0
1255.086304 200.0
1255.60144 184.0
1257.153198 196.0
1258.60022 172.0
1259.23584 224.0
1260.189453 188.0
1260.655762 180.0
1260.867798 168.0
1260.987915 140.0
1261.122192 164.0
1262.104858 72.0
1262.401855 160.0
1262.762573 220.0
1262.967651 128.0
1264.934692 236.0
1265.401978 192.0
1265.840942 148.0
1266.095947 212.0
1266.400391 160.0
1266.520874 216.0
1266.704956 168.0
1267.016724 172.0
1268.256836 176.0
1268.483643 116.0
1269.32019 248.0
1269.972656 112.0
1271.916748 188.0
1272.463379 168.0
1273.187744 40.0
1273.30127 180.0
1275.276489 188.0
1275.80249 156.0
1276.207642 216.0
1276.620117 236.0
1277.10376 192.0
1277.182007 172.0
1277.829346 152.0
1278.569336 140.0
1278.828735 192.0
1279.864868 112.0
1280.441772 144.0
1281.139771 164.0
1281.339233 72.0
1282.165771 208.0
1283.056763 180.0
1283.598633 72.0
1284.390259 112.0
1285.075195 132.0
1285.980591 148.0
1286.117065 180.0
1286.69519 224.0
1286.880859 184.0
1287.202148 176.0
1287.416382 184.0
1288.480713 180.0
1289.102295 144.0
1289.345215 100.0
1290.138672 196.0
1290.24585 148.0
1290.345947 92.0
1291.0896 156.0
1291.668945 192.0
1292.319946 192.0
1292.491699 152.0
1293.300415 140.0
1293.794312 160.0
1294.094971 208.0
1294.367065 52.0
1294.48877 184.0
1295.21936 208.0
1295.391235 112.0
1295.914185 208.0
1296.114868 192.0
1297.985718 192.0
1298.30835 148.0
1298.466187 224.0
1298.717163 156.0
1299.292969 216.0
1299.362793 164.0
1299.836304 164.0
1300.123413 140.0
1300.546753 152.0
1300.632935 144.0
1300.719116 44.0
1300.991821 232.0
1301.171387 96.0
1301.365234 116.0
1301.75293 144.0
1302.219727 224.0
1303.131958 224.0
1304.310425 180.0
1304.673462 168.0
1304.986328 172.0
1305.079834 208.0
1305.777344 152.0
1305.834839 132.0
1306.352783 140.0
1306.726807 168.0
1307.043457 56.0
1307.548828 236.0
1308.454102 176.0
1308.511719 172.0
1308.871704 184.0
1309.195801 196.0
1309.339844 224.0
1309.447876 116.0
1310.290649 112.0
1310.593262 56.0
1311.263428 68.0
1311.883301 184.0
1311.933716 144.0
1312.13562 184.0
1312.315796 248.0
1312.488892 136.0
1312.625854 52.0
1313.484131 148.0
1313.866455 212.0
1314.580811 120.0
1316.522583 148.0
1316.732056 172.0
1317.338745 124.0
1317.75061 100.0
1317.902344 144.0
1318.386475 124.0
1319.138184 48.0
1319.23938 100.0
1319.535767 168.0
1320.410645 184.0
1321.191895 112.0
1321.560913 40.0
1321.966064 204.0
1322.089111 52.0
1322.212158 176.0
1323.030029 52.0
1323.449951 96.0
1323.529663 48.0
1323.812012 236.0
1324.108887 36.0
1324.232056 236.0
1325.021606 48.0
1325.478027 200.0
1325.782471 240.0
1325.857666 192.0
1326.050537 244.0
1326.391235 172.0
1326.949463 168.0
1327.25647 196.0
1327.308838 156.0
1327.674561 120.0
1328.631958 192.0
1328.907715 92.0
1329.089111 124.0
1329.945435 144.0
1330.30835 160.0
1330.410034 136.0
1331.608032 64.0
1331.658936 100.0
1332.632324 140.0
1332.77771 164.0
1333.090088 72.0
1333.242676 184.0
1333.493652 168.0
1334.107666 132.0
1334.347534 184.0
1334.485718 164.0
1334.726929 160.0
1335.241943 64.0
1335.678345 176.0
1336.165771 152.0
1336.427612 232.0
1337.606689 136.0
1337.788574 172.0
1338.298218 164.0
1338.465698 88.0
1338.837036 176.0
1339.077393 64.0
1339.281372 156.0
1339.514404 100.0
1340.009888 180.0
1340.913452 180.0
1342.021484 184.0
1344.12207 164.0
1344.691284 144.0
1347.268921 192.0
1347.984863 112.0
1349.030029 168.0
1349.41748 136.0
1350.324219 168.0
1350.953247 96.0
1352.746216 88.0
1352.848633 200.0
1353.009766 76.0
1353.309937 108.0
1353.976196 164.0
1354.525513 116.0
1355.258179 192.0
1355.63916 196.0
1355.939819 152.0
1356.306152 132.0
1356.401367 172.0
1356.474731 168.0
1356.643311 156.0
1356.863281 148.0
1357.464478 160.0
1358.034058 192.0
1358.131836 208.0
1358.667358 180.0
1358.762695 152.0
1358.865479 84.0
1358.924194 156.0
1359.195679 188.0
1359.371704 104.0
1359.723999 148.0
1361.713623 184.0
1361.897217 192.0
1362.007446 196.0
1362.44812 120.0
1362.528931 136.0
1363.616455 168.0
1363.82959 176.0
1364.4104 184.0
1364.579468 124.0
1364.866211 148.0
1365.314819 160.0
1365.895752 188.0
1366.528442 152.0
1367.227539 176.0
1368.177002 128.0
1369.509888 232.0
1370.644409 116.0
1370.828613 220.0
1371.782349 228.0
1371.904663 48.0
1371.978394 152.0
1372.140503 172.0
1372.464966 192.0
1372.634521 176.0
1373.593384 72.0
1373.785156 124.0
1373.903198 52.0
1373.954834 152.0
1374.432617 168.0
1374.618896 36.0
1374.958252 176.0
1375.203857 212.0
1375.519287 144.0
1376.043335 140.0
1376.575073 68.0
1376.774414 152.0
1377.069824 160.0
1377.133789 208.0
1377.424316 200.0
1378.118774 272.0
1378.421753 184.0
1379.759521 192.0
1380.188354 176.0
1380.306641 196.0
1380.365845 144.0
1380.935303 160.0
1381.075806 32.0
1381.48999 48.0
1381.623169 116.0
1381.756348 240.0
1382.681274 176.0
1383.576904 120.0
1384.139648 112.0
1384.198853 104.0
1384.561768 40.0
1385.146851 148.0
1385.272827 152.0
1385.369141 164.0
1385.487671 136.0
1385.687622 176.0
1386.376709 212.0
1386.621338 108.0
1388.000122 112.0
1388.793701 208.0
1388.986572 184.0
1389.283203 80.0
1389.372314 136.0
1389.528076 132.0
1390.307129 120.0
1390.678223 236.0
1390.878662 72.0
1391.138062 164.0
1391.286987 80.0
1391.524536 156.0
1391.739868 136.0
1392.437866 152.0
1393.032104 128.0
1393.106323 128.0
1393.195557 204.0
1393.277222 144.0
1393.804688 112.0
1394.233643 204.0
1394.592529 136.0
1394.707642 144.0
1395.261475 160.0
1395.387817 132.0
1395.447388 140.0
1396.079346 148.0
1396.421997 192.0
1396.689209 244.0
1397.656372 116.0
1397.738281 192.0
1399.137451 168.0
1399.189575 128.0
1399.427856 136.0
1399.487427 204.0
1400.060791 176.0
1400.425659 208.0
1401.051392 128.0
1401.625122 152.0
1401.870972 108.0
1401.975342 100.0
1402.094604 148.0
1402.18396 216.0
1403.428955 388.0
1403.809204 188.0
1403.995605 188.0
1404.159668 168.0
1405.136841 156.0
1405.233887 240.0
1406.058228 152.0
1406.345703 156.0
1406.703979 220.0
1407.36853 144.0
1407.652222 124.0
1407.816528 168.0
1409.183472 100.0
1409.280518 168.0
1409.773682 136.0
1410.219238 188.0
1410.633301 40.0
1410.745361 192.0
1411.014526 208.0
1411.44812 120.0
1411.582764 196.0
1411.679932 180.0
1411.97168 212.0
1412.143677 264.0
1412.32312 184.0
1412.667236 68.0
1412.734619 256.0
1413.467773 96.0
1413.737183 136.0
1414.305908 160.0
1414.889893 184.0
1414.994629 184.0
1416.425049 124.0
1416.866943 204.0
1418.242065 136.0
1418.628052 180.0
1420.201294 160.0
1420.337769 220.0
1420.570312 148.0
1421.06543 168.0
1421.553101 64.0
1421.739258 200.0
1421.91333 172.0
1422.271606 132.0
1422.408691 168.0
1422.83667 152.0
1424.098145 184.0
1424.479614 220.0
1424.556396 180.0
1424.909424 192.0
1425.270142 148.0
1425.427856 44.0
1426.074219 220.0
1426.126831 156.0
1427.021362 164.0
1427.164185 272.0
1428.427734 104.0
1428.90918 176.0
1429.714233 144.0
1429.909912 180.0
1430.052979 204.0
1430.120728 172.0
1430.369019 176.0
1430.429321 148.0
1430.903564 156.0
1430.956299 100.0
1431.024048 180.0
1431.295044 144.0
1431.415527 188.0
1432.447388 164.0
1432.583008 112.0
1432.71106 196.0
1433.102783 156.0
1433.426758 120.0
1434.346191 144.0
1434.730713 208.0
1435.205688 204.0
1435.386597 144.0
1435.944702 180.0
1436.057861 144.0
1436.246338 180.0
1436.706543 192.0
1437.053589 172.0
1437.370483 184.0
1437.483643 236.0
1437.544067 36.0
1437.710083 72.0
1438.532715 156.0
1439.438721 88.0
1439.71814 112.0
1440.095825 132.0
1440.216675 116.0
1440.979614 164.0
1441.810791 140.0
1442.332275 96.0
1442.81604 196.0
1443.224365 404.0
1443.640259 124.0
1444.547852 140.0
1444.994141 84.0
1445.622192 80.0
1445.788696 76.0
1446.515259 196.0
1446.742432 32.0
1447.317749 100.0
1447.37085 32.0
1448.09021 148.0
1448.83252 88.0
1448.961304 172.0
1449.039429 160.0
1449.476562 200.0
1449.788818 188.0
1449.976685 196.0
1450.984863 160.0
1452.061646 120.0
1452.744263 160.0
1453.374023 148.0
1453.525757 100.0
1453.776123 144.0
1453.905151 200.0
1454.019043 180.0
1454.383301 140.0
1455.484131 184.0
1456.159912 164.0
1456.327026 96.0
1457.139893 180.0
1458.089722 132.0
1458.538086 156.0
1458.690186 152.0
1459.077881 80.0
1459.207153 144.0
1459.617676 88.0
1459.746948 120.0
1459.876221 196.0
1460.667236 200.0
1461.26062 132.0
1461.747559 196.0
1461.930176 188.0
1462.835938 156.0
1462.896851 276.0
1463.490601 176.0
1464.884277 92.0
1464.998535 40.0
1465.646118 136.0
1465.768066 176.0
1466.705444 152.0
1467.025635 180.0
1467.749878 112.0
1468.230347 196.0
1468.88623 216.0
1469.519409 108.0
1469.717896 160.0
1469.878052 152.0
1470.007812 192.0
1470.061279 92.0
1470.57251 72.0
1470.839722 148.0
1470.908325 68.0
1471.671753 112.0
1472.168091 100.0
1472.67981 148.0
1472.893677 176.0
1473.573608 136.0
1473.730957 188.0
1474.36853 144.0
1475.369629 96.0
1476.019409 204.0
1476.807129 172.0
1476.875977 184.0
1477.442017 224.0
1478.574463 116.0
1478.917603 148.0
1479.370483 164.0
1479.806885 212.0
1480.09021 244.0
1480.235718 68.0
1480.434814 180.0
1480.541992 164.0
1480.840698 220.0
1480.986206 124.0
1481.530029 136.0
1481.660278 248.0
1482.242554 156.0
1482.518433 80.0
1483.077881 140.0
1483.813843 192.0
1484.243164 172.0
1484.672607 164.0
1484.764648 188.0
1485.194214 220.0
1485.577759 200.0
1485.838501 168.0
1486.022705 200.0
1486.383301 260.0
1486.759277 156.0
1487.293945 180.0
1487.480713 136.0
1488.041138 144.0
1488.985718 200.0
1489.047119 172.0
1489.492554 188.0
1489.677002 184.0
1490.260864 100.0
1490.345337 192.0
1490.952393 100.0
1491.298218 88.0
1491.413574 160.0
1491.728638 144.0
1492.143799 188.0
1493.220337 128.0
1493.612671 164.0
1493.889526 192.0
1493.95105 68.0
1494.328003 192.0
1494.966675 164.0
1495.91333 152.0
1496.875732 64.0
1497.091431 160.0
1497.330078 176.0
1497.753784 84.0
1497.915527 188.0
1498.138916 100.0
1498.562622 176.0
1498.762939 180.0
1499.194458 144.0
1499.256104 100.0
1499.531006 228.0
1499.772461 140.0
1499.949829 172.0
1500.242676 192.0
1500.674438 208.0
1502.162842 152.0
1502.810913 140.0
1502.926636 204.0
1503.181274 184.0
1503.613403 112.0
