>compound MLS001142950-01!
>formula C20H23N3O2
>ionization [M+H]+
>parentmass 338.184662
#inchi InChI=1S/C20H23N3O2/c21-17(10-14-5-2-1-3-6-14)20(25)22-11-15-9-16(13-22)18-7-4-8-19(24)23(18)12-15/h1-8,15-17H,9-13,21H2/t15-,16+,17+/m1/s1
#inchikey QVOWRQXALDMGET
#Ion_Source LC-ESI
#Instrument qTof
#Compound_Source NIH Natural Product Library
#PI Dorrestein
#Data_Collector VVP/LMS
#Scan -1
#Precursor_MZ 338.187
#ExactMass 337.179
#Charge 1
#CAS_Number N/A
#Pubmed_ID N/A
#Smiles N[C@@H](Cc1ccccc1)C(=O)N2C[C@H]3C[C@@H](C2)c4cccc(=O)n4C3
#INCHI_AUX N/A
#Library_Class 1
#SpectrumID CCMSLIB00000079820
#IonMode Positive
#UpdateWorkflowName UPDATE-SINGLE-ANNOTATED-GOLD
#LibraryQualityString Gold
#TaskID b1d8e8f6646f4e71acdff9ca3d919d08
##Scan# 1310
#SpectrumFile p1-E11_GE11_01_17931.mzXML
#LibraryName NIH_Natural_Products_Library.mgf
#MQScore -1
#Organism NIH_Natural_Products_Library
#TIC_Query 0
#RT_Query -1
#MZErrorPPM -1
#SharedPeaks 0
#MassDiff 0
#LibMZ -1
#SpecMZ 338.187
#SpecCharge 0
#internalFilename spec-00000.mgf

>collision 10
95.297493 76.0
95.94558 184.0
96.162102 176.0
96.271431 144.0
96.382774 172.0
96.578262 164.0
96.985527 188.0
97.244431 64.0
97.491882 168.0
97.513504 156.0
97.542984 260.0
97.979851 128.0
98.031082 128.0
98.573746 184.0
98.609314 216.0
98.72596 44.0
100.003616 156.0
100.019539 236.0
100.083244 28.0
100.192787 168.0
100.238609 124.0
100.356209 160.0
100.501816 56.0
100.531746 132.0
100.657509 180.0
100.751381 224.0
101.564095 196.0
101.825012 20.0
101.881256 160.0
101.895317 140.0
101.948357 172.0
102.046051 72.0
102.247208 176.0
102.878098 176.0
103.053848 2588.0
103.233696 52.0
103.2519 184.0
103.478531 56.0
103.535225 40.0
104.05838 108.0
104.951576 144.0
105.057625 188.0
105.529396 44.0
106.032959 156.0
106.498688 140.0
106.806999 216.0
107.286797 248.0
108.02816 168.0
108.131622 116.0
108.39048 168.0
108.832283 148.0
108.87381 192.0
109.052483 176.0
110.261299 216.0
110.595932 168.0
110.755066 176.0
111.79612 196.0
111.817459 52.0
111.941666 152.0
112.321022 180.0
114.499886 184.0
114.845154 204.0
114.949692 204.0
115.088432 76.0
115.445282 228.0
116.046974 52.0
116.308693 232.0
116.3731 164.0
117.074089 176.0
117.097778 132.0
117.602287 156.0
117.703751 144.0
117.988953 140.0
118.055977 56.0
119.070992 176.0
119.194031 40.0
119.215759 180.0
119.241837 196.0
119.995003 140.0
120.034248 32.0
120.058235 196.0
120.081223 14884.0
120.130211 128.0
120.147667 172.0
120.165115 56.0
120.181671 68.0
120.212105 60.0
120.225296 180.0
120.278595 44.0
120.341904 56.0
120.363739 60.0
120.51445 48.0
120.558151 52.0
120.661285 108.0
120.681564 156.0
120.717735 80.0
120.949638 40.0
121.037209 248.0
121.082657 784.0
121.332993 184.0
121.883888 80.0
121.993782 180.0
122.057541 136.0
122.123512 120.0
122.394196 64.0
122.894531 84.0
123.117477 88.0
123.159439 92.0
125.204338 148.0
127.171783 40.0
127.295265 64.0
128.465622 76.0
129.439728 256.0
130.024597 116.0
130.060913 192.0
130.883881 180.0
131.047195 312.0
131.072937 360.0
131.095718 164.0
131.250732 168.0
131.446899 172.0
132.05249 196.0
132.084503 136.0
132.672821 76.0
132.734726 72.0
133.053513 348.0
133.145493 104.0
133.451111 152.0
134.057938 316.0
134.096771 260.0
134.245514 84.0
134.982147 144.0
135.465851 176.0
135.829788 216.0
136.703354 144.0
137.519028 200.0
140.624222 180.0
140.938293 20.0
142.039139 88.0
142.895706 184.0
143.537445 148.0
143.792709 40.0
144.526321 44.0
145.946274 160.0
146.0578 160.0
146.096817 168.0
146.552826 164.0
146.772156 84.0
146.844513 48.0
147.060471 72.0
147.131653 160.0
147.353836 120.0
148.075333 8420.0
148.120712 132.0
148.237 44.0
148.807007 80.0
148.963287 56.0
149.07872 1148.0
149.429184 152.0
149.485153 84.0
149.514359 52.0
150.088074 260.0
150.179474 100.0
150.743423 224.0
151.061264 160.0
151.859772 128.0
152.299118 76.0
152.854721 180.0
153.125519 64.0
154.070236 184.0
156.080276 368.0
156.906891 136.0
156.926422 96.0
158.063309 172.0
158.849991 188.0
159.673828 68.0
160.046265 160.0
160.073502 684.0
160.512421 204.0
160.883301 232.0
161.072693 164.0
161.355713 128.0
162.092239 480.0
162.500473 136.0
163.08963 120.0
163.435486 48.0
163.621277 148.0
164.368057 180.0
164.477798 200.0
166.130859 160.0
166.269424 152.0
166.289948 56.0
166.708557 192.0
167.519012 56.0
167.609192 212.0
167.704544 136.0
168.220428 152.0
168.48642 160.0
168.814667 132.0
169.29895 140.0
169.365921 96.0
170.021866 176.0
174.089355 132.0
175.093796 152.0
176.746307 108.0
178.483688 148.0
179.117828 316.0
180.112015 156.0
180.130707 128.0
182.505188 120.0
184.019394 144.0
185.046783 172.0
189.102997 136.0
189.34375 124.0
189.752029 196.0
189.845261 220.0
190.114105 148.0
190.425659 128.0
190.638611 212.0
190.897018 168.0
190.919006 168.0
191.022827 204.0
191.027008 152.0
191.068588 200.0
191.11763 19548.0
191.232162 56.0
191.273926 72.0
191.331314 76.0
191.385742 140.0
191.491562 92.0
191.540878 76.0
191.58786 56.0
191.618164 40.0
191.803925 68.0
191.976486 48.0
192.122101 1928.0
192.233032 68.0
192.308472 60.0
192.351715 64.0
192.415207 40.0
192.638901 128.0
192.901413 84.0
192.932968 48.0
193.12886 156.0
193.213898 96.0
193.457428 60.0
193.895065 76.0
194.122391 144.0
194.424759 48.0
196.785233 96.0
197.226608 48.0
199.907776 92.0
201.283386 60.0
202.338013 36.0
205.090637 44.0
213.111282 176.0
217.097137 176.0
218.947128 164.0
219.113327 1644.0
219.324249 48.0
219.392059 184.0
219.648605 140.0
220.113464 180.0
220.454605 72.0
220.578751 108.0
222.759689 44.0
224.909561 148.0
225.001633 128.0
230.377777 44.0
232.630798 72.0
233.852722 68.0
239.883942 104.0
246.6698 104.0
247.536423 144.0
251.920792 192.0
254.870392 132.0
254.927582 148.0
262.969421 160.0
268.074066 208.0
276.898315 124.0
280.02356 156.0
281.905151 56.0
293.163239 104.0
308.919037 52.0
309.153473 124.0
321.156342 344.0
322.165619 116.0
328.931061 64.0
337.424622 200.0
338.184662 832.0
339.182007 216.0
359.622589 44.0
364.166046 108.0
368.019836 40.0
470.180145 96.0
484.691772 128.0
651.428162 96.0
715.482605 36.0
785.527466 44.0
831.641968 20.0
843.004761 112.0
847.193726 112.0
901.023132 32.0
952.439758 136.0
966.3349 208.0
969.23877 112.0
983.180542 192.0
984.285461 152.0
986.440857 136.0
993.03418 124.0
994.031677 180.0
1002.042114 176.0
1022.196106 112.0
1033.778076 168.0
1036.537964 108.0
1043.952148 168.0
1057.118408 200.0
1060.926758 108.0
1061.640015 88.0
1065.515015 172.0
1068.082764 164.0
1068.258423 36.0
1074.323242 180.0
1075.902466 156.0
1104.011841 184.0
1118.46875 228.0
1146.350098 120.0
1161.026367 140.0
1162.247437 60.0
1166.607544 160.0
1168.409668 116.0
1176.185059 72.0
1193.414551 180.0
1201.010376 68.0
1205.228394 128.0
1207.281372 152.0
1209.523071 252.0
1210.29834 192.0
1218.864746 172.0
1224.791992 180.0
1236.297852 60.0
1248.525513 176.0
1251.304932 120.0
1256.880127 144.0
1259.838257 144.0
1260.226929 84.0
1284.164062 80.0
1294.140015 180.0
1294.727173 204.0
1303.708862 184.0
1315.629272 148.0
1320.289673 216.0
1327.031128 168.0
1341.819214 192.0
1342.694214 192.0
1344.474243 180.0
1344.707764 160.0
1346.109497 208.0
1349.880005 196.0
1354.783813 100.0
1363.383179 164.0
1365.485718 152.0
1371.346313 160.0
1386.556396 164.0
1387.801758 152.0
1389.500122 128.0
1398.238525 152.0
1405.116211 52.0
1407.631592 48.0
1408.169189 92.0
1408.23645 176.0
1409.820312 244.0
1411.419922 208.0
1411.935913 136.0
1414.981323 236.0
1424.933594 184.0
1429.302002 160.0
1437.289062 148.0
1450.417847 92.0
1464.200317 208.0
1467.46167 148.0
1483.424316 148.0
1487.328735 216.0
1493.529419 196.0
