>compound MLS001159059-01!1-[2-(2-oxo-4-propylchromen-7-yl)oxyacetyl]piperidine-4-carboxamide
>formula C20H24N2O5
>ionization [M+H]+
>parentmass 373.175232
#inchi InChI=1S/C20H24N2O5/c1-2-3-14-10-19(24)27-17-11-15(4-5-16(14)17)26-12-18(23)22-8-6-13(7-9-22)20(21)25/h4-5,10-11,13H,2-3,6-9,12H2,1H3,(H2,21,25)
#inchikey WFWJVGVEGTZWKB
#Ion_Source LC-ESI
#Instrument qTof
#Compound_Source NIH Natural Product Library
#PI Dorrestein
#Data_Collector VVP/LMS
#Scan -1
#Precursor_MZ 373.176
#ExactMass 372.169
#Charge 1
#CAS_Number N/A
#Pubmed_ID N/A
#Smiles CCCc1cc(=O)oc2cc(OCC(=O)N3CCC(CC3)C(=O)N)ccc12
#INCHI_AUX N/A
#Library_Class 1
#SpectrumID CCMSLIB00000079759
#IonMode Positive
#UpdateWorkflowName UPDATE-SINGLE-ANNOTATED-GOLD
#LibraryQualityString Gold
#TaskID b1d8e8f6646f4e71acdff9ca3d919d08
##Scan# 1767
#SpectrumFile p1-F10_GF10_01_17942.mzXML
#LibraryName NIH_Natural_Products_Library.mgf
#MQScore -1
#Organism NIH_Natural_Products_Library
#TIC_Query 0
#RT_Query -1
#MZErrorPPM -1
#SharedPeaks 0
#MassDiff 0
#LibMZ -1
#SpecMZ 373.176
#SpecCharge 0
#internalFilename spec-00000.mgf

>collision 10
94.960991 148.0
95.050232 172.0
95.077583 168.0
95.164749 76.0
95.256027 196.0
95.331764 200.0
95.613785 192.0
95.800705 216.0
96.044373 172.0
96.079559 1644.0
96.356712 224.0
96.473969 48.0
96.505249 96.0
96.536537 140.0
96.649986 40.0
97.0877 408.0
97.622932 52.0
97.705544 92.0
97.780319 128.0
97.977226 192.0
98.0186 172.0
98.05954 192.0
98.399269 112.0
98.800461 148.0
99.071678 152.0
99.746376 128.0
99.772224 132.0
99.905464 164.0
100.054718 124.0
100.351578 48.0
100.453285 128.0
100.640884 68.0
101.792236 116.0
102.047424 160.0
103.008713 196.0
103.059219 388.0
103.212837 48.0
103.475868 64.0
103.516365 104.0
103.538643 92.0
104.05571 156.0
104.468262 68.0
104.547615 160.0
104.842903 60.0
105.029808 184.0
105.063477 380.0
105.203926 172.0
105.250885 116.0
105.496056 112.0
105.530807 168.0
105.569656 196.0
105.813148 184.0
105.962662 140.0
106.030281 92.0
106.058083 184.0
106.099968 136.0
106.184044 48.0
106.625443 48.0
106.674774 168.0
107.001877 176.0
107.048759 208.0
107.447037 32.0
107.649315 56.0
107.963425 128.0
108.031677 152.0
108.066849 48.0
108.083405 364.0
108.220009 68.0
108.300774 180.0
108.796371 192.0
108.831665 164.0
109.024849 236.0
109.077126 184.0
109.103836 124.0
109.243164 180.0
110.058456 404.0
110.223068 176.0
110.570206 132.0
110.729324 248.0
110.930473 176.0
111.063614 360.0
111.087746 132.0
111.512917 148.0
111.547623 96.0
111.640137 144.0
112.074936 2160.0
112.337296 172.0
113.053551 128.0
113.082657 192.0
113.33519 108.0
113.674454 76.0
113.699921 108.0
113.880386 112.0
115.050583 476.0
115.085709 164.0
115.124146 40.0
115.877068 184.0
116.060478 156.0
116.587311 180.0
116.965851 60.0
117.030434 188.0
117.047661 80.0
117.068413 176.0
117.114426 144.0
117.153198 184.0
117.534805 116.0
117.759323 76.0
118.16571 96.0
118.813499 28.0
119.047279 164.0
119.083069 696.0
119.173897 132.0
119.630608 112.0
119.854935 144.0
119.87455 84.0
120.088196 184.0
120.195091 136.0
120.780586 160.0
120.806839 36.0
120.905296 216.0
120.951263 264.0
121.065109 128.0
121.097961 176.0
121.325851 212.0
121.501297 140.0
121.551758 136.0
121.662483 188.0
121.834991 84.0
121.944862 140.0
122.666824 72.0
122.856468 144.0
123.092628 144.0
123.200851 300.0
123.382072 124.0
123.499268 144.0
123.992996 164.0
124.075035 2836.0
124.123795 204.0
124.161491 40.0
124.803246 36.0
124.996765 176.0
125.082222 1276.0
125.596054 144.0
125.732544 92.0
125.886192 176.0
126.04702 152.0
126.088097 560.0
126.48761 140.0
126.964844 52.0
127.085831 3056.0
127.119629 204.0
127.144318 152.0
127.236732 232.0
127.335144 56.0
127.775726 44.0
127.928757 120.0
128.056915 188.0
128.091522 460.0
128.201294 168.0
128.735931 96.0
129.067947 332.0
129.100952 328.0
129.371277 180.0
129.600021 196.0
129.615875 212.0
130.105789 168.0
130.755875 92.0
130.85376 80.0
130.892456 128.0
130.983566 52.0
131.048416 464.0
131.084656 4008.0
131.143066 28.0
131.279846 100.0
131.628983 148.0
131.750046 80.0
131.779739 100.0
131.980881 132.0
132.050568 236.0
132.089417 1020.0
132.360703 32.0
132.844299 104.0
132.988861 140.0
133.064682 260.0
133.096756 164.0
133.216187 60.0
133.28511 136.0
133.489685 72.0
134.108978 224.0
134.28421 240.0
134.988571 132.0
135.076462 168.0
135.108841 120.0
135.956894 180.0
135.994034 104.0
136.084564 128.0
136.268051 84.0
136.442352 44.0
136.891418 84.0
137.063797 156.0
137.271255 176.0
137.343552 40.0
138.090958 144.0
138.163483 172.0
138.330185 64.0
139.175964 156.0
139.326279 168.0
139.798889 64.0
140.647339 172.0
140.696915 112.0
141.068588 1072.0
141.100174 3396.0
141.134003 260.0
141.168686 200.0
141.19075 112.0
141.28064 212.0
141.6073 52.0
141.839493 68.0
142.102158 364.0
142.204773 56.0
142.798737 112.0
143.086273 964.0
143.189056 164.0
143.296249 136.0
144.051697 488.0
145.047958 100.0
145.455734 172.0
145.609406 68.0
145.979492 48.0
146.068863 488.0
147.042435 1296.0
147.079041 336.0
147.167419 144.0
147.551575 76.0
147.885406 52.0
148.050842 356.0
148.081512 196.0
148.648804 136.0
149.059174 156.0
149.099442 616.0
150.032745 132.0
150.064438 136.0
150.092896 148.0
150.106537 136.0
151.036377 124.0
152.067841 176.0
152.810013 224.0
153.08078 116.0
153.154663 52.0
154.299667 144.0
154.378799 256.0
154.504944 152.0
155.082733 180.0
156.263947 140.0
156.831711 148.0
157.380539 148.0
158.030396 172.0
158.493607 68.0
158.796936 64.0
158.897278 100.0
158.942444 172.0
159.043045 140.0
159.079651 1756.0
159.118134 164.0
159.452225 68.0
159.482376 72.0
159.60556 136.0
160.051315 180.0
160.092102 216.0
160.423798 76.0
160.711304 184.0
161.059479 436.0
161.095093 1448.0
162.060989 408.0
162.1008 328.0
162.456985 80.0
163.040985 380.0
163.073883 504.0
164.013229 120.0
164.07756 200.0
165.03183 144.0
165.052277 152.0
165.305511 200.0
165.984329 176.0
166.289612 60.0
166.412827 96.0
167.063049 168.0
167.250885 200.0
167.268906 108.0
167.789276 168.0
168.837616 60.0
169.066605 284.0
169.094604 208.0
169.194702 72.0
169.45369 120.0
169.909973 148.0
170.105972 216.0
170.177307 224.0
171.079361 132.0
171.467545 96.0
171.660461 160.0
172.052429 456.0
172.095657 132.0
172.174561 84.0
173.05954 196.0
173.087204 188.0
173.181473 164.0
173.375351 172.0
173.77655 116.0
173.860519 48.0
174.072464 116.0
174.46463 44.0
174.993439 44.0
175.035721 360.0
175.06427 152.0
175.329025 60.0
175.425491 80.0
175.850174 172.0
176.048172 168.0
176.082504 184.0
176.172302 228.0
176.20929 100.0
176.603165 144.0
176.640198 88.0
176.708984 188.0
177.076935 112.0
177.116669 108.0
177.196136 60.0
177.323334 132.0
178.220276 156.0
178.268097 132.0
178.369095 84.0
178.528625 176.0
178.802643 120.0
178.837234 212.0
179.226044 172.0
179.407516 232.0
180.643692 200.0
180.683823 100.0
180.996979 36.0
181.128204 64.0
183.609009 52.0
184.000259 208.0
186.046951 116.0
186.190857 56.0
186.628357 68.0
186.946609 100.0
187.073959 9348.0
187.183441 88.0
187.243347 92.0
187.270584 116.0
187.320358 88.0
187.521255 64.0
187.553955 100.0
187.589386 64.0
187.807541 100.0
187.998505 48.0
188.072433 740.0
188.900146 72.0
189.020523 68.0
189.089539 3652.0
189.123947 172.0
189.203903 120.0
189.430832 148.0
189.61203 140.0
189.941055 64.0
190.064514 136.0
190.091812 564.0
190.341751 68.0
191.108627 260.0
191.460968 112.0
191.499527 112.0
191.846191 104.0
191.888077 48.0
193.2995 28.0
193.559692 176.0
195.141251 88.0
195.703278 156.0
196.380447 176.0
197.025269 172.0
197.542435 148.0
198.054688 176.0
199.069931 120.0
201.046143 92.0
201.095032 336.0
201.128525 148.0
201.37645 136.0
202.09166 136.0
202.363373 44.0
202.499298 60.0
202.748611 172.0
202.995239 156.0
203.064774 196.0
203.951996 112.0
204.069336 144.0
204.358658 72.0
205.002182 180.0
205.083817 792.0
205.549683 88.0
205.747818 172.0
205.786591 184.0
206.092209 136.0
207.010406 104.0
208.097137 184.0
210.059845 120.0
210.460999 76.0
210.507202 108.0
211.018631 104.0
211.07402 128.0
211.554657 212.0
212.875961 144.0
213.041504 116.0
213.247818 64.0
214.088608 220.0
214.761841 68.0
215.076889 644.0
215.193726 32.0
215.614365 136.0
216.017868 152.0
216.058823 112.0
216.08313 156.0
216.351471 108.0
216.386597 100.0
216.407104 228.0
216.661896 64.0
216.75061 172.0
216.937363 80.0
216.963745 104.0
217.084488 11188.0
217.150085 176.0
217.171951 244.0
217.215942 84.0
217.335373 124.0
217.374374 32.0
217.498474 240.0
217.562225 36.0
217.607666 92.0
217.629745 104.0
217.838257 152.0
217.914642 68.0
217.958725 112.0
218.020432 144.0
218.088989 2356.0
218.179153 48.0
218.26442 48.0
218.383057 108.0
218.420288 80.0
218.523254 68.0
218.624191 52.0
218.961853 136.0
219.088699 180.0
219.338989 120.0
219.760696 116.0
219.987946 152.0
220.077408 172.0
220.212357 80.0
220.265518 36.0
220.750229 92.0
221.034195 100.0
222.418213 64.0
223.398819 112.0
224.065674 72.0
224.593307 148.0
227.066818 92.0
227.591965 136.0
228.08049 236.0
228.156799 52.0
229.059586 72.0
229.085083 132.0
229.123199 172.0
229.535767 64.0
230.48056 80.0
230.628647 160.0
230.686081 224.0
231.101105 324.0
232.102982 192.0
233.104675 180.0
233.594177 196.0
234.592987 156.0
235.089539 160.0
235.529785 72.0
235.743652 160.0
236.199203 92.0
237.007431 140.0
237.547012 124.0
238.415924 212.0
240.032059 160.0
240.207855 148.0
241.081619 176.0
241.106339 88.0
241.529907 152.0
241.823853 164.0
242.083908 200.0
243.091385 172.0
243.119308 136.0
243.141037 192.0
243.187592 68.0
244.108322 260.0
244.216019 112.0
244.427567 116.0
244.991104 160.0
245.080338 1880.0
245.358841 36.0
245.5112 176.0
245.701904 56.0
246.08252 776.0
246.366608 224.0
247.085892 140.0
248.819016 80.0
250.479416 208.0
250.684204 32.0
251.068802 116.0
251.258057 136.0
252.129547 156.0
252.635452 84.0
253.823151 220.0
254.076889 140.0
254.118134 140.0
254.740372 120.0
255.080383 192.0
255.128067 216.0
255.156677 40.0
255.420624 120.0
257.119324 472.0
258.11319 1144.0
258.240265 104.0
258.297821 52.0
258.374603 64.0
258.691406 56.0
259.114899 156.0
259.351288 232.0
259.408966 60.0
260.239899 84.0
260.901733 48.0
261.056061 188.0
261.255463 176.0
261.693176 84.0
261.796204 224.0
261.892822 40.0
262.103882 684.0
262.234344 36.0
262.363281 64.0
263.092133 164.0
263.104279 152.0
264.084412 136.0
264.391754 76.0
265.156067 52.0
267.839813 164.0
268.475372 232.0
268.684113 104.0
269.111389 196.0
270.605835 144.0
270.87439 136.0
271.090607 92.0
271.126434 180.0
272.098785 240.0
272.159973 140.0
272.212494 184.0
273.106415 132.0
274.107269 916.0
274.295105 60.0
274.393982 64.0
274.65451 128.0
274.690796 180.0
274.892059 64.0
275.070282 48.0
275.11087 200.0
276.915283 104.0
277.710724 88.0
278.371155 52.0
282.11615 100.0
282.145416 256.0
283.10318 132.0
283.135406 168.0
284.689392 120.0
284.894257 92.0
285.114594 176.0
285.210144 48.0
286.104248 1684.0
287.103821 192.0
287.113312 264.0
288.118408 200.0
288.922882 52.0
289.007446 112.0
289.244354 144.0
289.576172 44.0
291.051331 144.0
291.911011 140.0
292.128693 96.0
293.508026 256.0
294.245026 160.0
294.395264 200.0
295.821014 196.0
296.125763 148.0
296.890015 144.0
297.250214 192.0
299.123291 100.0
299.260986 96.0
299.347076 124.0
299.481384 64.0
299.912079 92.0
300.157532 3728.0
300.215485 104.0
300.36377 184.0
300.418976 44.0
300.512115 68.0
300.57077 32.0
300.636353 108.0
300.722626 68.0
301.016083 168.0
301.160492 892.0
301.89035 68.0
302.042511 36.0
302.168823 180.0
302.724335 92.0
303.164276 88.0
304.128448 196.0
304.437439 124.0
305.083679 96.0
306.974274 60.0
308.566467 52.0
309.465637 128.0
309.616211 60.0
310.146423 300.0
311.120453 116.0
311.728088 152.0
312.163971 180.0
313.075409 112.0
313.843597 228.0
316.090088 144.0
318.000244 144.0
319.09433 44.0
320.127777 216.0
321.96991 112.0
323.754456 128.0
324.528442 240.0
325.15979 156.0
325.19928 72.0
326.737244 128.0
327.1073 120.0
327.169769 228.0
327.57962 76.0
327.867065 108.0
328.03006 112.0
328.098572 104.0
328.152466 6816.0
328.307678 60.0
328.340149 80.0
328.500824 76.0
328.643158 140.0
328.675629 152.0
328.794708 48.0
328.906616 80.0
329.097931 132.0
329.156403 1316.0
329.357971 84.0
329.508728 60.0
329.598999 184.0
329.719269 52.0
330.160522 380.0
330.229034 64.0
330.717468 80.0
330.797119 72.0
330.9021 36.0
331.075897 52.0
331.104889 60.0
331.238892 40.0
332.007263 76.0
333.008942 40.0
333.143341 68.0
333.957581 36.0
335.793213 60.0
336.862701 132.0
337.052673 120.0
337.538818 60.0
338.146088 176.0
338.69165 92.0
340.731262 100.0
341.514221 140.0
355.166626 284.0
355.893005 116.0
356.146362 1916.0
356.294861 36.0
356.50528 40.0
357.141449 608.0
357.182037 48.0
358.149384 268.0
359.997406 48.0
360.730377 88.0
360.88916 56.0
368.475464 112.0
371.231354 196.0
373.175232 368.0
374.158112 128.0
374.191925 96.0
375.168549 160.0
387.500366 40.0
409.139008 124.0
415.204071 60.0
419.151337 92.0
430.981201 140.0
454.434479 48.0
465.511261 92.0
478.095612 84.0
489.032745 140.0
497.99054 44.0
512.284424 20.0
536.569336 60.0
683.141174 64.0
683.557373 40.0
686.245056 68.0
797.773865 108.0
801.246094 60.0
819.905579 64.0
820.612427 44.0
823.225769 76.0
827.382568 64.0
848.514832 20.0
953.478577 92.0
962.602112 164.0
970.020264 32.0
970.466614 136.0
984.785767 116.0
1004.299683 160.0
1015.095276 52.0
1016.630371 56.0
1022.642578 76.0
1028.366089 148.0
1028.781006 64.0
1033.683105 192.0
1033.740723 172.0
1054.687866 212.0
1056.809082 152.0
1073.352783 140.0
1085.18103 148.0
1087.897095 188.0
1094.405762 204.0
1097.654175 84.0
1099.745483 48.0
1101.95105 144.0
1116.195068 112.0
1123.141235 184.0
1131.708618 140.0
1133.744995 232.0
1148.826416 108.0
1153.046509 132.0
1153.553467 172.0
1158.026001 208.0
1165.787231 160.0
1165.855103 144.0
1170.739624 148.0
1173.915283 116.0
1176.828857 96.0
1179.28125 144.0
1198.634155 76.0
1200.267822 144.0
1201.695557 216.0
1204.933594 184.0
1207.77478 108.0
1210.882446 160.0
1220.194702 196.0
1221.286499 96.0
1221.509033 32.0
1222.441284 124.0
1223.986694 212.0
1225.505127 208.0
1241.112793 196.0
1244.747559 188.0
1246.988525 208.0
1251.279419 192.0
1260.42041 76.0
1263.057373 188.0
1264.139893 168.0
1266.008789 192.0
1270.254272 168.0
1276.084717 216.0
1286.428955 160.0
1290.372437 200.0
1291.094727 160.0
1312.551758 120.0
1313.669678 196.0
1313.994263 192.0
1322.499634 228.0
1323.057007 132.0
1323.889648 220.0
1324.056274 128.0
1325.186279 200.0
1325.794922 180.0
1329.769165 220.0
1330.981567 208.0
1339.869385 60.0
1340.474121 168.0
1346.032593 176.0
1348.713745 168.0
1352.861328 204.0
1360.111084 136.0
1364.724609 132.0
1372.264038 136.0
1375.199951 140.0
1375.613281 56.0
1375.990845 180.0
1379.18103 200.0
1387.909302 148.0
1389.251709 152.0
1391.426147 148.0
1391.663696 188.0
1395.490112 236.0
1403.576172 84.0
1405.172363 104.0
1410.00354 212.0
1418.79126 184.0
1421.979126 112.0
1423.330444 204.0
1424.171509 228.0
1426.234375 248.0
1428.230347 188.0
1429.870483 132.0
1436.644409 224.0
1440.720947 72.0
1441.249878 48.0
1442.632935 180.0
1444.28894 168.0
1447.581055 160.0
1450.975586 52.0
1456.294922 108.0
1456.765869 184.0
1459.578003 148.0
1460.079834 160.0
1463.230103 228.0
1468.587158 104.0
1469.204956 180.0
1470.013794 160.0
1471.463989 168.0
1473.992188 160.0
1474.33606 208.0
1477.203247 184.0
1479.996704 152.0
1486.466064 204.0
1492.372803 148.0
1498.222046 168.0
1500.819336 152.0
