>compound Chlorpromazine
>formula C17H19ClN2S 
>ionization [M+H]+
>parentmass 319.104
#inchi InChI=1S/C17H19ClN2S/c1-19(2)10-5-11-20-14-6-3-4-7-16(14)21-17-9-8-13(18)12-15(17)20/h3-4,6-9,12H,5,10-11H2,1-2H3
#inchikey ZPEIMTDSQAKGNT
#Ion_Source LC-ESI
#Instrument qTof
#Compound_Source Isolated
#PI Sirenas
#Data_Collector Ed Esquenazi 
#Scan -1
#Precursor_MZ 319.104
#ExactMass 0.0
#Charge 1
#CAS_Number N/A
#Pubmed_ID N/A
#Smiles N/A
#INCHI_AUX N/A
#Library_Class 3
#SpectrumID CCMSLIB00000006519
#IonMode Positive
#UpdateWorkflowName UPDATE-SINGLE-ANNOTATED-BRONZE
#LibraryQualityString Bronze
#TaskID d19310cd93df49b68e9fcbec27720eb5
##Scan# 3
#SpectrumFile Chlorpromazine.mgf
#LibraryName fda_library.mgf
#MQScore -1
#Organism fda_library
#TIC_Query 0
#RT_Query -1
#MZErrorPPM -1
#SharedPeaks 0
#MassDiff 0
#LibMZ -1
#SpecMZ 319.104
#SpecCharge 0
#internalFilename spec-00000.mgf

>collision 10
100.412994 3.675
102.947205 6.502976
104.245377 4.255482
105.067978 61.896858
105.342896 4.060185
105.720192 3.046875
105.759834 0.860119
106.064423 431.112091
106.099968 3.000833
106.108261 4.221154
106.185989 1.002976
106.243309 2.720395
106.298729 5.23279
106.337364 5.372024
106.368896 3.835417
106.671219 2.711051
106.799881 4.167175
108.0009 78.013702
108.054688 1.008333
108.170311 4.333333
109.010498 183.951996
109.182274 1.667892
110.509438 0.8375
114.000877 34.045681
114.011383 28.787621
114.040756 1.0
115.05497 95.749077
115.087097 1.177083
116.061089 54.049438
116.505905 4.500425
116.671181 4.504808
116.911812 5.320076
116.959969 1.891204
117.069672 546.435974
117.116585 3.1875
117.14077 3.166667
117.183052 16.57522
117.246857 1.380682
117.265656 2.027412
117.295692 4.374167
117.329704 6.412783
117.372696 5.323253
117.415497 11.40725
117.45401 8.041667
118.663689 4.337694
118.735703 2.185185
121.00679 9.815705
121.492348 2.913691
122.558151 5.020833
123.025711 20.41358
123.47068 7.004167
124.020981 19.7677
125.014267 19.40099
125.027901 12.4225
126.106056 1.458333
127.052284 8.402244
127.112274 1.729167
128.049393 62.535641
129.543625 4.66875
129.797165 3.002976
130.064682 356.382294
130.111664 1.633333
130.22168 2.5125
130.495773 3.125
131.725555 5.053571
133.79892 3.407738
134.243271 7.093508
136.017334 27.67613
136.038696 2.708333
136.187729 8.666667
139.054062 42.97287
140.019684 8.494103
140.410156 4.080357
141.860413 10.08437
142.970276 65.883331
143.501785 0.836309
144.884537 2.844445
146.400055 5.738691
147.022659 49.689091
148.313187 1.517045
150.043533 33.18235
151.027222 54.8941
151.053497 167.462601
151.107635 1.125
151.122604 1.333333
151.263992 3.893939
151.289078 4.710938
151.298004 3.00463
151.670044 8.882936
152.063553 334.901398
152.116425 1.166667
153.342896 4.153846
153.397751 5.4375
154.282394 3.463735
154.295273 2.220395
154.355774 4.168403
154.620636 3.547348
154.662811 4.558624
155.511978 6.020833
156.985794 7.245614
157.007919 1.341667
157.605698 1.843202
157.97998 103.465202
157.992096 19.627119
158.01651 4.844445
158.208984 3.176471
158.423477 1.540064
159.460205 5.323253
159.633881 12.91361
162.012482 48.83894
162.158417 5.333333
162.974564 8.167075
163.456421 3.878788
164.025391 24.2964
165.032867 8.333333
165.065338 20.296301
166.063705 170.523697
166.11618 2.170833
166.143082 9.833333
166.32251 5.480072
166.355423 0.860119
166.463089 7.093508
166.529236 4.360887
166.59938 8.935606
166.614258 4.029167
167.072876 434.741791
167.158051 4.166667
167.234924 2.722222
167.302094 3.877778
167.54509 6.893383
167.703003 2.449074
169.981491 49.687012
170.035461 1.6875
171.026062 45.37355
171.36734 11.85049
171.43689 7.935
171.558548 2.0
173.030869 9.014423
176.048309 36.41188
176.26442 2.360119
176.834106 2.509868
177.054337 166.647598
177.102524 7.366072
177.301666 4.172024
177.334091 6.354167
177.36438 1.0375
177.398956 5.835145
177.669724 12.00278
177.700272 3.539216
178.064621 160.069107
178.240692 5.752604
178.276398 2.296875
178.340012 4.226716
178.4198 3.86218
178.484695 3.797068
178.917374 5.741578
179.072601 354.084595
179.136154 1.5
179.168747 1.944445
179.275024 5.220395
179.403488 3.12963
179.891251 2.00463
180.470306 4.839506
180.489136 1.547348
180.990067 42.953339
181.088409 27.696251
181.984436 14.83537
182.4198 4.253592
182.987778 35.04026
183.022614 49.68457
183.22879 2.844445
183.374802 2.666667
184.032578 176.973907
184.124435 1.502976
184.256821 0.833333
184.398499 1.2
184.932724 3.666667
185.014633 56.791519
185.037323 89.677567
186.024429 44.981491
187.019638 21.253111
188.392181 2.395833
191.072556 131.330093
191.110046 4.020833
191.129272 2.900833
191.32193 4.011111
191.457138 10.8734
192.541077 4.261824
193.087875 9.791667
195.995895 71.583687
196.021057 23.160919
196.047028 2.834559
196.256531 4.833333
196.656372 5.857073
196.670929 7.928572
196.949203 0.84375
197.031494 65.198593
197.057053 37.039959
197.107574 17.027281
197.154312 5.320076
197.222794 3.463735
197.247101 2.838542
197.374176 3.0
197.95285 3.453373
198.009888 4.171297
198.036835 1571.94397
198.099274 6.923077
198.117783 1.183712
198.170853 9.075604
198.206085 4.093364
198.220825 11.55235
198.242157 4.713362
198.436188 3.711111
198.470505 5.005952
198.484329 6.870833
198.504959 14.05734
198.568527 1.895833
198.800873 28.60713
198.96048 6.354167
199.122665 6.793651
199.245621 3.500772
199.275085 6.336742
199.540024 10.38333
200.045837 17.168751
200.069244 22.79635
200.209259 1.540064
200.963104 2.673132
201.034073 548.1604
201.175247 3.260031
201.244308 4.34375
201.470779 2.861111
201.662384 5.148284
203.075165 2.481618
204.080566 238.244598
204.137024 1.745192
204.390427 3.773809
204.44487 3.291667
204.504761 11.84961
204.828262 8.000302
204.909607 7.781147
204.929642 9.43962
204.989075 35.504139
205.053787 1.354167
205.090637 185.386398
205.132095 1.667763
205.192368 1.408333
205.236755 4.8
205.540878 13.38196
205.690292 2.220238
205.77536 5.893333
205.875183 3.003472
205.909897 5.933929
206.096634 1561.625977
206.159805 3.505357
206.240768 3.223214
206.291428 5.691469
206.320679 3.348611
206.394089 4.514286
206.412308 7.440834
206.515198 10.26068
206.57959 8.500393
206.634293 7.048214
206.694641 4.120098
206.762146 1.875
206.824677 3.537809
206.856522 5.600595
207.063934 20.36585
207.154938 7.214015
207.190582 18.61046
207.215103 11.86085
207.280228 3.940025
207.470596 1.0
207.646011 5.708333
207.746338 14.32587
207.763153 8.714015
207.906433 2.373398
208.002914 4.017045
208.297974 3.948718
208.742233 5.697601
208.81572 4.106692
208.896133 5.73852
208.945999 9.51875
209.026215 83.136292
209.053513 25.28756
209.268753 12.97068
209.353943 1.834559
209.409286 25.548031
209.736679 9.339608
209.841034 28.711281
209.865524 18.59314
209.897934 3.905357
209.921814 19.4123
209.987167 4.185185
210.014496 4.880128
210.03772 819.972412
210.093201 8.706298
210.119766 2.375
210.144974 39.468719
210.281158 1.671875
210.446381 8.670834
210.472916 8.609649
210.488174 3.185185
210.613281 1.908333
210.659698 5.784722
210.676712 2.514423
210.72641 4.040064
210.740555 7.880051
210.764511 6.874608
210.794205 6.5
210.939316 23.831711
211.006088 48.128948
211.044922 5414.801758
211.104691 46.490311
211.161682 6.72807
211.177322 29.28491
211.212418 14.21127
211.244904 9.636071
211.282043 0.870833
211.296692 10.4375
211.315369 4.561237
211.339523 9.421393
211.374069 61.025169
211.390335 8.513888
211.465668 12.73953
211.483536 7.504902
211.504532 23.29682
211.545166 11.37973
211.584579 5.148148
211.633408 13.42415
211.698013 40.849731
211.716843 16.063511
211.731506 3.011111
211.767532 31.81591
211.847946 6.040064
211.863129 8.366936
211.883743 10.64005
211.964325 7.00926
211.984711 5.732941
212.026993 2564.480957
212.08815 5.673391
212.322464 7.034822
212.592941 5.226667
212.653824 5.022685
212.667603 5.650144
212.731827 2.506944
212.786499 4.222994
212.810944 6.878941
212.84494 9.506107
212.852661 12.36786
212.874557 3.5625
212.890686 38.583302
212.913208 3.375
212.94838 52.011551
212.976105 11.71275
212.987869 14.48269
213.001816 8.170834
213.09343 9.227553
213.116272 9.993205
213.15062 42.648571
213.176407 26.222851
213.206085 64.854263
213.227463 6.337906
213.273193 1.833333
213.291336 23.507851
213.338409 6.621408
213.350891 32.79314
213.403366 26.17485
213.547623 5.514423
213.569626 18.811449
213.595901 6.657143
213.624359 23.953489
213.686218 10.92198
213.802231 14.77057
213.817047 8.207826
213.837646 9.190476
213.868301 8.804762
213.926819 6.012955
213.999359 89.492592
214.04213 16433.869141
214.106293 135.825607
214.127396 46.72945
214.227325 54.198681
214.263885 28.12788
214.284607 78.297653
214.304321 25.520691
214.328262 6.882349
214.36438 12.26039
214.375916 20.45476
214.389008 43.42857
214.409164 27.984489
214.421463 7.806363
214.448227 45.89679
214.473358 25.01873
214.48703 11.02333
214.528061 4.421886
214.549515 33.400761
214.570618 40.954102
214.642807 31.420641
214.676239 20.54653
214.709869 7.34127
214.739807 14.66331
214.757263 32.263
214.829651 9.523809
214.85907 15.43675
214.932526 31.64887
214.965759 24.14369
215.011642 15.46559
215.160599 6.352273
215.50354 4.541667
215.517303 5.940834
215.580887 2.381944
215.883102 6.740942
215.9944 5.677296
216.061295 3.836309
216.240311 3.179487
216.503387 23.664379
217.469833 5.366421
217.70752 9.175804
217.993484 42.51667
218.075562 1.366667
218.244949 4.895833
218.317062 3.834559
219.573456 7.840015
219.598953 3.16723
220.001038 20.181601
220.033997 22.6535
220.641617 2.240741
221.040497 23.67557
222.179062 10.0302
222.802628 7.111111
223.045883 135.274094
223.412949 4.880952
223.679291 2.026786
224.052841 960.429504
224.112396 10.11261
224.135864 1.0
224.171661 7.195631
224.206665 3.701389
224.254272 15.59497
224.301117 11.91027
224.346619 1.833333
224.402405 3.020833
224.433304 7.944545
224.780518 7.521025
224.826309 9.33871
227.008865 8.027778
227.045517 15.88032
227.092499 13.90829
228.056427 38.432739
230.637543 6.960318
231.266968 3.360119
231.512085 8.494103
231.558044 3.940025
231.637451 4.339015
231.660217 17.895361
231.743134 8.650615
231.775162 3.440476
231.913391 2.449074
231.998718 208.961594
232.039993 1.706731
232.124832 5.033333
232.342209 4.106692
232.617523 6.601042
232.824997 1.52381
233.005707 2029.438965
233.072495 10.15181
233.088913 8.940025
233.140335 10.02306
233.159531 7.351894
233.212234 17.930149
233.227676 4.125
233.244553 10.29157
233.260483 7.377558
233.334457 9.534439
233.35704 6.740036
233.382706 6.000672
233.408737 2.765931
233.44841 12.21622
233.473053 3.836111
233.576111 11.74668
233.637878 7.3875
233.675186 9.436358
233.787521 2.481618
234.010483 18.975901
234.138138 9.452381
234.281738 6.507617
234.478806 1.52381
234.995819 5.666667
236.054108 22.561991
236.409348 3.982143
236.65799 3.185606
236.684128 7.761905
236.898209 1.845833
237.057907 89.877441
237.326813 3.884615
237.503647 4.52172
237.63446 3.958333
237.718155 0.833333
237.806274 6.713362
237.840271 12.17724
237.901596 3.0375
237.94574 3.963497
238.06926 848.788818
238.133682 33.42168
238.168015 38.082291
238.237534 7.137978
238.297806 7.632609
238.351501 4.867772
238.389099 45.316921
238.518875 26.522921
238.598495 6.741667
238.784698 6.765972
238.819 3.541667
238.913925 7.227904
239.076126 4546.76709
239.187225 9.881249
239.211594 3.511128
239.248062 10.18841
239.279572 21.74074
239.310944 6.012963
239.330017 4.009259
239.354568 29.565969
239.394806 8.886905
239.421432 17.533819
239.443161 12.05298
239.46347 13.7489
239.487564 25.170601
239.534576 3.836538
239.547287 7.685248
239.579483 19.320259
239.605911 3.428571
239.673019 29.226851
239.706055 12.88726
239.798279 7.181548
239.815491 4.104167
240.059052 780.424072
240.124191 2.979167
240.216385 11.08234
240.293396 6.42307
240.316818 19.58379
240.339325 11.03266
240.389633 8.611465
240.423798 1.168561
240.438904 5.333965
240.514526 9.088644
240.56163 6.705781
240.64502 1.5125
240.801544 4.669271
240.92572 4.061275
241.131989 16.880079
241.252945 7.89552
241.282288 14.11389
241.596466 3.185606
241.769714 6.925975
241.893692 4.561237
242.000076 8.170643
242.153061 5.391958
242.440704 8.515705
242.672379 5.027412
242.923111 5.667201
243.421951 4.023809
244.198288 1.020833
244.502823 6.893383
244.517807 8.33585
244.530075 3.621408
244.553864 16.403
244.584427 1.173611
244.608917 0.875
244.641556 7.25
244.667572 2.854167
244.691513 43.174431
244.734604 3.027244
244.755005 1.907738
244.818436 4.942345
244.839661 6.59375
244.872711 8.670414
244.905533 5.507576
244.927307 7.727543
244.965424 2.673611
245.006073 86.201874
245.030228 22.28183
245.19838 3.693453
245.229095 6.207738
245.423004 5.500484
245.466614 5.707825
245.717392 1.501225
245.739212 5.500508
245.781647 5.1875
245.810043 2.335227
245.957581 4.869933
246.014236 6131.580078
246.082367 48.752209
246.102829 16.012899
246.121109 4.003472
246.146698 30.27816
246.184937 18.37401
246.200989 15.59574
246.239517 29.8825
246.281815 20.467939
246.316162 4.540441
246.328812 12.06148
246.364883 31.81163
246.389999 3.629808
246.403931 3.354167
246.425797 39.90271
246.449539 6.868535
246.464539 6.921568
246.478928 37.239368
246.537735 24.810921
246.552002 30.63143
246.60347 11.66898
246.618973 10.54023
246.631866 7.490278
246.662613 1.901389
246.707367 14.5384
246.722488 6.093364
246.769257 6.266837
246.85379 6.505225
246.901917 12.30659
247.175644 18.5961
247.508789 7.653409
247.603516 7.711436
247.689667 6.037281
247.804977 3.420259
248.161102 10.01667
248.391296 6.320988
248.654877 9.387769
249.139038 7.190217
249.182129 3.889661
250.247986 3.891523
257.005127 25.53163
258.011017 36.612789
259.022095 68.88488
259.544983 14.85259
271.708038 14.4518
271.999115 5.502976
272.027527 77.524307
272.561432 1.520833
273.034668 88.631653
274.046539 179.054001
274.099976 1.168269
274.679626 1.7
275.793243 5.833333
334.672241 2.340278
354.76355 3.5625
433.441925 5.183435
450.548248 2.844445
460.923218 2.548611
493.853882 3.000906
510.977203 2.685957
536.210022 3.333333
547.755005 2.520833
552.121765 4.537138
610.871582 3.053571
675.051697 4.620192
709.706116 12.05961
788.137146 2.00463
877.752319 6.157051
901.035156 1.533333
923.542358 8.369919
931.871277 23.5
1019.574341 5.3075
1059.25708 6.306159
1071.28064 3.506048
1087.704712 5.902778
1152.870117 0.9375
1156.179932 4.898551
1167.370361 8.166667
1228.889893 3.697601
1279.842529 2.820076
1456.668945 4.0
1620.357422 4.177083
1640.651123 0.833333
