>compound FLUBENDAZOLE
>formula C16H12FN3O3
>ionization [M+H]+
>parentmass 314.095459
#inchi InChI=1S/C16H12FN3O3/c1-23-16(22)20-15-18-12-7-4-10(8-13(12)19-15)14(21)9-2-5-11(17)6-3-9/h2-8H,1H3,(H2,18,19,20,22)
#inchikey CPEUVMUXAHMANV
#Ion_Source LC-ESI
#Instrument qTof
#Compound_Source Commercial
#PI Dorrestein
#Data_Collector Garg_Neha
#Scan -1
#Precursor_MZ 314.094
#ExactMass 313.086
#Charge 1
#CAS_Number N/A
#Pubmed_ID N/A
#Smiles COC(=O)Nc1nc2cc(ccc2[nH]1)C(=O)c3ccc(F)cc3
#INCHI_AUX N/A
#Library_Class 1
#SpectrumID CCMSLIB00000078974
#IonMode Positive
#UpdateWorkflowName UPDATE-SINGLE-ANNOTATED-GOLD
#LibraryQualityString Gold
#TaskID 278b19f5865741e282cec7349aa7e7a1
##Scan# 1246
#SpectrumFile NCP003352_A2_B11_BC4_01_15718.mzXML
#LibraryName NIHcollectionI_05062014.mgf
#MQScore -1
#Organism NIHcollectionI_05062014
#TIC_Query 0
#RT_Query -1
#MZErrorPPM -1
#SharedPeaks 0
#MassDiff 0
#LibMZ -1
#SpecMZ 314.094
#SpecCharge 0
#internalFilename spec-00000.mgf

>collision 10
105.927528 224.0
113.040535 164.0
115.014931 172.0
123.026909 528.0
132.065094 140.0
136.228134 208.0
137.8591 216.0
138.624313 200.0
140.00676 192.0
140.788559 152.0
155.059097 144.0
155.401291 140.0
159.969833 196.0
165.013367 200.0
166.006836 152.0
167.018738 280.0
168.019226 236.0
168.720673 168.0
172.093933 168.0
173.983261 160.0
174.953323 180.0
191.069183 108.0
192.070389 128.0
202.376724 148.0
204.074341 112.0
205.079056 400.0
206.079803 472.0
207.086899 144.0
208.040283 148.0
209.05722 160.0
210.047455 144.0
214.154709 224.0
216.062302 124.0
216.400345 148.0
217.066635 140.0
217.097733 224.0
220.096436 152.0
220.835068 140.0
227.023788 316.0
229.042282 124.0
230.04982 420.0
231.093353 164.0
232.023148 144.0
232.098938 192.0
232.157684 172.0
233.084183 272.0
233.75441 140.0
234.097504 144.0
235.134903 264.0
237.082993 152.0
239.140686 200.0
241.041824 172.0
242.044601 304.0
243.046646 504.0
244.053864 804.0
245.064774 156.0
246.059692 156.0
246.109329 272.0
247.105637 256.0
253.041382 140.0
254.035522 736.0
255.046402 312.0
257.082855 160.0
258.06778 308.0
258.815063 256.0
262.071991 232.0
266.004608 188.0
267.06781 156.0
270.107269 144.0
270.706055 188.0
273.045898 208.0
274.121582 268.0
275.119598 1080.0
275.729523 160.0
276.129608 192.0
276.314789 208.0
282.06662 4372.0
283.069916 1016.0
284.022522 144.0
284.072052 2156.0
285.079865 352.0
285.218811 228.0
290.564514 204.0
295.272064 212.0
297.691528 172.0
298.138092 148.0
299.032288 144.0
310.094757 128.0
310.811584 112.0
311.088226 988.0
312.021698 160.0
312.090668 9464.0
312.316406 204.0
312.626678 188.0
313.092926 792.0
314.014343 140.0
314.095459 6292.0
314.338837 184.0
315.093811 1068.0
315.225037 120.0
315.301056 128.0
316.093506 264.0
316.233521 156.0
317.25531 144.0
591.919678 148.0
1916.337769 156.0
1959.44397 180.0
