>compound Dolastatin 10
>formula C42H68N6O6S 
>ionization [M+H]+
>parentmass 785.500061
#inchi InChI=1S/C42H68N6O6S/c1-13-28(6)37(47(10)42(52)35(26(2)3)45-40(51)36(27(4)5)46(8)9)33(53-11)25-34(49)48-22-17-20-32(48)38(54-12)29(7)39(50)44-31(41-43-21-23-55-41)24-30-18-15-14-16-19-30/h14-16,18-19,21,23,26-29,31-33,35-38H,13,17,20,22,24-25H2,1-12H3,(H,44,50)(H,45,51)
#inchikey OFDNQWIFNXBECV
#Ion_Source LC-ESI
#Instrument qToF
#Compound_Source Isolated
#PI Dorrestein/Gerwick
#Data_Collector Luzzatto/Garg
#Scan -1
#Precursor_MZ 785.513
#ExactMass 784.492
#Charge 1
#CAS_Number N/A
#Pubmed_ID 2353935
#Smiles N/A
#INCHI_AUX N/A
#Library_Class 2
#SpectrumID CCMSLIB00000070272
#IonMode Positive
#UpdateWorkflowName UPDATE-SINGLE-ANNOTATED-SILVER
#LibraryQualityString Silver
#TaskID 6c7cf0ddbcd944488b3f58728dc48405
##Scan# 973
#SpectrumFile 2C10_Dolastatin10_MH_785.mzXML
#LibraryName gnps_library.mgf
#MQScore -1
#Organism Dorrestein_TLK_Lib
#TIC_Query 0
#RT_Query -1
#MZErrorPPM -1
#SharedPeaks 0
#MassDiff 0
#LibMZ -1
#SpecMZ 785.513
#SpecCharge 0
#internalFilename spec-00000.mgf

>collision 10
96.486343 252.0
96.711212 180.0
98.105324 196.0
100.071846 188.0
100.112526 3280.0
101.115402 468.0
101.982635 164.0
110.069817 220.0
112.110085 176.0
114.115959 240.0
120.078094 176.0
121.06633 180.0
123.079788 180.0
123.833588 264.0
126.88298 176.0
127.048874 220.0
129.853821 152.0
134.093323 212.0
134.822311 216.0
135.305557 176.0
135.650589 220.0
136.995529 220.0
138.093063 328.0
138.557785 188.0
138.73349 156.0
139.341064 236.0
141.538422 176.0
143.035858 176.0
144.137253 208.0
149.546921 172.0
151.514297 176.0
153.496994 168.0
154.122543 1528.0
155.123856 216.0
155.822693 176.0
156.125824 204.0
159.565109 184.0
161.124512 156.0
161.764053 160.0
162.861557 164.0
162.899643 212.0
165.855896 140.0
166.756439 252.0
168.107941 168.0
169.177551 280.0
169.345795 264.0
170.117218 980.0
171.120514 340.0
172.307465 172.0
175.094696 188.0
176.107056 224.0
177.668182 184.0
177.872437 168.0
182.121643 168.0
186.038635 128.0
186.092484 272.0
186.149353 464.0
186.80423 152.0
187.155167 152.0
188.052994 7940.0
188.330048 180.0
188.586777 156.0
188.950333 176.0
189.054199 800.0
190.004669 140.0
190.047318 248.0
190.230408 192.0
191.060287 232.0
192.35936 176.0
193.694412 160.0
197.662903 220.0
199.178986 516.0
199.825317 148.0
200.182648 164.0
200.717819 148.0
204.143494 184.0
204.967987 172.0
205.079437 7176.0
205.145706 156.0
205.942261 172.0
206.082626 800.0
206.117447 152.0
207.074158 760.0
207.69902 180.0
208.135071 156.0
209.133179 400.0
214.14888 176.0
216.177795 160.0
218.156036 164.0
221.074829 228.0
223.998138 200.0
227.17569 696.0
228.178787 408.0
229.6008 160.0
231.063004 276.0
232.173492 200.0
233.17482 192.0
234.183823 244.0
236.164566 164.0
241.072403 268.0
242.164047 312.0
247.584091 184.0
248.160431 148.0
258.217194 160.0
260.162201 868.0
261.167419 196.0
266.216156 252.0
276.184204 220.0
277.195312 180.0
292.190552 1232.0
293.195038 528.0
309.218994 216.0
313.153168 216.0
313.403168 176.0
323.231506 172.0
324.151398 320.0
325.129974 184.0
327.158508 344.0
329.152954 196.0
340.140015 152.0
344.167175 188.0
347.888885 172.0
356.178619 408.0
357.182098 240.0
358.183319 224.0
367.284485 176.0
367.978729 232.0
368.100861 148.0
368.139038 200.0
370.311066 228.0
374.18808 1040.0
375.182922 144.0
375.87088 256.0
376.190247 180.0
376.623383 184.0
377.403717 200.0
379.187531 156.0
401.399841 164.0
412.316254 372.0
412.678375 216.0
414.223694 172.0
417.213226 168.0
431.139954 160.0
433.174774 220.0
442.060211 160.0
446.219421 176.0
447.22583 248.0
449.001617 176.0
452.49472 220.0
459.683624 148.0
464.237061 1672.0
465.238922 824.0
466.234406 232.0
467.230133 200.0
467.651642 164.0
468.056152 180.0
477.277588 176.0
489.960846 184.0
494.83902 192.0
495.300659 212.0
495.65329 136.0
496.262512 4056.0
496.32373 188.0
497.267334 1908.0
498.264801 384.0
499.594635 156.0
527.305603 116.0
528.287903 228.0
529.284973 184.0
530.284607 188.0
531.06958 148.0
531.555664 148.0
531.922668 232.0
533.384705 184.0
541.320862 144.0
547.09314 156.0
555.298462 300.0
557.24231 208.0
557.308044 200.0
557.909363 168.0
559.141235 220.0
559.331299 4248.0
559.414124 328.0
559.461182 156.0
560.256714 176.0
560.334106 2856.0
561.339661 480.0
562.319153 304.0
562.67511 164.0
563.147095 164.0
581.460693 140.0
582.502197 184.0
585.0354 148.0
593.341431 148.0
596.106934 140.0
599.692139 164.0
600.793762 164.0
602.443115 256.0
605.905334 180.0
616.534241 208.0
620.874146 172.0
623.280701 172.0
624.360596 160.0
625.353638 140.0
625.677063 172.0
627.509705 164.0
629.634521 196.0
632.418213 156.0
635.694519 152.0
643.397278 152.0
645.060486 220.0
647.663513 148.0
652.345154 172.0
652.391235 172.0
654.351807 124.0
656.227966 164.0
658.411072 152.0
659.228088 144.0
659.391724 120.0
667.066589 192.0
667.806763 168.0
669.19043 152.0
669.607361 188.0
670.09137 144.0
676.109741 176.0
677.165466 180.0
680.415405 140.0
680.680054 164.0
681.422119 200.0
689.584778 192.0
690.363464 176.0
692.039856 152.0
696.198975 176.0
696.409119 112.0
696.802795 252.0
700.231018 148.0
702.428101 172.0
704.318604 212.0
707.335022 192.0
708.402039 220.0
709.755188 140.0
710.847412 196.0
711.648621 140.0
715.097229 144.0
717.253479 284.0
717.786377 188.0
719.711853 192.0
721.383423 164.0
721.442749 276.0
722.444031 212.0
722.884155 152.0
723.73645 144.0
724.769775 232.0
726.672424 192.0
728.384216 156.0
729.415466 148.0
733.822693 164.0
734.280884 168.0
736.35791 196.0
736.76825 168.0
737.962158 160.0
738.264832 188.0
740.564026 256.0
741.522644 164.0
743.159607 208.0
745.069946 192.0
748.48584 256.0
749.502319 152.0
749.818298 144.0
750.292297 260.0
751.906189 216.0
752.01532 148.0
752.284485 248.0
752.888489 144.0
753.473022 5732.0
754.476074 3044.0
754.57605 156.0
755.46991 1240.0
756.038635 148.0
756.471436 596.0
756.867798 176.0
756.949951 140.0
758.054932 104.0
758.6203 164.0
759.935974 140.0
760.138611 144.0
764.566345 184.0
765.820435 168.0
771.436035 140.0
772.09375 224.0
773.149963 140.0
773.957825 336.0
774.289978 144.0
774.37854 208.0
775.297852 164.0
776.32251 144.0
776.437744 160.0
778.936035 228.0
779.786682 148.0
780.371643 156.0
780.744507 116.0
781.24762 156.0
781.636902 180.0
782.471436 236.0
782.803955 96.0
782.929932 128.0
783.258545 200.0
783.318787 128.0
783.578552 304.0
783.696228 228.0
783.974365 100.0
784.056396 116.0
784.093384 120.0
784.159973 212.0
784.323303 212.0
784.767944 136.0
784.877441 172.0
784.921997 204.0
785.007996 284.0
785.103882 372.0
785.258911 196.0
785.305969 500.0
785.346619 208.0
785.384827 424.0
785.500061 57460.0
785.787781 224.0
785.875183 176.0
785.913147 140.0
785.971985 104.0
786.087402 136.0
786.158875 308.0
786.239746 164.0
786.340576 284.0
786.504761 22848.0
786.692383 316.0
786.754456 308.0
786.822876 176.0
786.977661 192.0
787.021912 236.0
787.14386 160.0
787.192871 160.0
787.252075 164.0
787.356018 104.0
787.402649 168.0
787.502869 8332.0
787.631897 404.0
787.766846 144.0
787.928223 120.0
788.135376 104.0
788.18866 112.0
788.235046 188.0
788.335876 112.0
788.505493 1844.0
788.674133 108.0
788.756714 308.0
788.815247 116.0
789.36792 124.0
789.414062 124.0
789.503113 532.0
789.756042 196.0
790.03241 132.0
790.08905 280.0
790.146118 256.0
790.25 244.0
790.304016 104.0
790.384399 260.0
790.425232 152.0
790.504639 116.0
790.598877 372.0
790.784973 132.0
790.914124 140.0
790.99585 172.0
791.067627 264.0
791.85437 148.0
792.249817 100.0
793.425781 128.0
794.289917 140.0
797.33905 140.0
797.765076 116.0
800.428101 152.0
821.558533 152.0
827.940491 144.0
828.427124 192.0
844.653748 152.0
886.856506 140.0
894.373047 152.0
904.229065 148.0
914.662476 144.0
915.330444 156.0
940.638611 160.0
970.253967 172.0
990.368347 124.0
994.987061 144.0
1084.646118 168.0
1116.709351 196.0
1118.23645 208.0
1122.741455 168.0
1151.089722 160.0
1188.060669 188.0
1189.418823 164.0
1276.120361 168.0
1361.581177 172.0
1396.273315 144.0
1413.700806 152.0
1435.461914 204.0
1445.232178 152.0
1470.008911 144.0
1496.843018 236.0
1551.223633 240.0
1556.760498 196.0
1585.321899 152.0
1614.358765 224.0
1625.88208 204.0
1638.154907 220.0
1654.064331 240.0
1666.4104 196.0
1672.360596 256.0
1686.939209 224.0
1736.522339 192.0
1743.327148 144.0
1744.864258 160.0
1766.070068 236.0
1768.010254 216.0
1819.984253 224.0
1843.467896 180.0
1898.195435 160.0
1899.81665 208.0
1928.234863 140.0
1933.637573 284.0
1956.811279 172.0
1962.720947 196.0
1971.341675 192.0
1985.260986 212.0
1990.450073 184.0
1991.426514 324.0
