>compound TETRAETHYLTHIURAM DISULFIDE
>formula C10H20N2S4
>ionization [M+H]+
>parentmass 297.0582090920905
#inchi InChI=1S/C10H20N2S4/c1-5-11(6-2)9(13)15-16-10(14)12(7-3)8-4/h5-8H2,1-4H3
#inchikey AUZONCFQVSMFAP
#Ion_Source LC-ESI
#Instrument qTof
#Compound_Source Commercial
#PI Dorrestein
#Data_Collector Garg_Neha
#Scan -1
#Precursor_MZ 297.058
#ExactMass 296.051
#Charge 1
#CAS_Number N/A
#Pubmed_ID N/A
#Smiles CCN(CC)C(=S)SSC(=S)N(CC)CC
#INCHI_AUX N/A
#Library_Class 1
#SpectrumID CCMSLIB00000079187
#IonMode Positive
#UpdateWorkflowName UPDATE-SINGLE-ANNOTATED-GOLD
#LibraryQualityString Gold
#TaskID 278b19f5865741e282cec7349aa7e7a1
##Scan# 2471
#SpectrumFile NCP003592_E2_F11_BE2_01_15736.mzXML
#LibraryName NIHcollectionI_05062014.mgf
#MQScore -1
#Organism NIHcollectionI_05062014
#TIC_Query 0
#RT_Query -1
#MZErrorPPM -1
#SharedPeaks 0
#MassDiff 0
#LibMZ -1
#SpecMZ 297.058
#SpecCharge 0
#internalFilename spec-00000.mgf

>collision 10
45.086327 160.0
45.952442 196.0
50.053955 160.0
50.851288 144.0
51.450565 160.0
55.359589 156.0
56.112934 212.0
57.449196 144.0
63.986889 204.0
65.197769 216.0
67.217186 196.0
69.186264 168.0
70.595573 196.0
70.764572 148.0
71.848602 164.0
78.652832 184.0
81.068138 228.0
85.740883 164.0
87.591866 184.0
88.018562 140.0
90.417702 168.0
91.014832 140.0
91.970512 196.0
100.241508 168.0
104.051193 192.0
106.945824 156.0
111.488281 152.0
114.039383 116.0
114.588249 184.0
115.947266 148.0
116.010353 148.0
116.053902 17436.0
117.055534 1156.0
118.05069 788.0
131.071823 188.0
135.050507 184.0
140.158524 164.0
147.449356 144.0
147.899216 160.0
148.025009 16828.0
148.064209 256.0
148.086548 120.0
148.839859 156.0
149.025894 1172.0
150.021454 992.0
150.463837 148.0
151.023422 204.0
188.125793 164.0
190.025085 168.0
212.993835 164.0
222.191406 208.0
223.973175 324.0
242.023621 144.0
261.212036 172.0
295.151917 140.0
297.060852 252.0
298.058594 144.0
298.199493 188.0
299.062775 160.0
1478.858032 212.0
1595.655151 204.0
1611.068115 188.0
1612.834106 164.0
1613.801392 236.0
1642.447021 152.0
1658.22168 152.0
1699.567017 180.0
1727.454834 160.0
1754.485596 252.0
1762.021729 140.0
1770.997559 244.0
1773.578125 140.0
1815.701172 152.0
1817.966309 216.0
1870.375488 188.0
1874.044189 236.0
1879.890381 180.0
1890.796509 176.0
1894.779541 140.0
1966.380615 192.0
1982.848389 200.0
2000.461914 216.0
2000.942627 156.0
