>compound NCGC00095464-02!LEOIDIN
>formula C18H14Cl2O7
>ionization [M+H]+
>parentmass 413.019
#inchi InChI=1S/C18H14Cl2O7/c1-5-9-16(11(20)13(22)10(5)19)26-14-6(2)8(17(23)25-4)12(21)7(3)15(14)27-18(9)24/h21-22H,1-4H3
#inchikey RCLFRVZNHRFQGE
#Ion_Source LC-ESI
#Instrument qTOF
#Compound_Source Prestwick Phytochem Lib
#PI Dorrestein
#Data_Collector VVP/LMS
#Scan -1
#Precursor_MZ 413.019
#ExactMass 412.012
#Charge 1
#CAS_Number N/A
#Pubmed_ID N/A
#Smiles COC(=O)C1=C(O)C(=C2OC(=O)C3=C(C)C(=C(O)C(=C3OC2=C1C)Cl)Cl)C
#INCHI_AUX N/A
#Library_Class 1
#SpectrumID CCMSLIB00000078754
#IonMode Positive
#UpdateWorkflowName UPDATE-SINGLE-ANNOTATED-GOLD
#LibraryQualityString Gold
#TaskID 67c915c6594c435cadc1fe2b5358144d
##Scan# 2709
#SpectrumFile p1-D03_GD3_01_17911.mzXML
#LibraryName phytochem_lib.mgf
#MQScore -1
#Organism phytochem_lib
#TIC_Query 0
#RT_Query -1
#MZErrorPPM -1
#SharedPeaks 0
#MassDiff 0
#LibMZ -1
#SpecMZ 413.019
#SpecCharge 0
#internalFilename spec-00000.mgf

>collision 10
100.456894 152.0
101.110252 68.0
101.659348 120.0
103.370171 148.0
104.879105 52.0
109.373672 180.0
110.835533 88.0
111.742554 128.0
112.351395 172.0
112.560341 196.0
114.502831 148.0
114.927032 200.0
119.012337 128.0
123.21759 176.0
124.546707 168.0
124.788925 100.0
126.041542 168.0
128.148392 200.0
129.23439 196.0
130.693298 188.0
130.713776 192.0
131.055374 180.0
133.520676 56.0
133.87738 172.0
133.971817 156.0
135.079834 140.0
135.955627 120.0
138.0569 140.0
138.937576 140.0
140.138931 108.0
143.201889 116.0
145.999603 100.0
147.204483 32.0
148.455551 120.0
149.017029 508.0
149.994812 148.0
150.026215 148.0
150.677017 160.0
151.012573 164.0
152.061295 124.0
155.04657 196.0
156.051651 260.0
156.446289 152.0
157.970993 176.0
159.010818 156.0
159.151382 188.0
159.97348 116.0
162.510818 164.0
167.673721 80.0
170.016754 116.0
171.381912 176.0
178.02121 164.0
178.435776 144.0
179.0121 236.0
180.010452 144.0
180.039825 176.0
181.064087 120.0
182.897842 176.0
182.981277 164.0
184.343384 164.0
184.991684 440.0
186.990753 136.0
187.082733 156.0
187.990341 140.0
189.020508 160.0
190.720825 96.0
190.800537 92.0
191.004028 176.0
192.025879 116.0
195.252335 92.0
196.991562 96.0
197.967651 208.0
198.068481 140.0
198.968628 112.0
198.996704 192.0
199.960861 184.0
200.163559 44.0
200.972504 176.0
202.009323 176.0
205.010361 32.0
205.737671 88.0
206.011017 296.0
206.057526 140.0
206.921234 132.0
207.084457 172.0
208.022873 284.0
208.605194 156.0
209.059616 164.0
210.076675 252.0
211.078842 148.0
211.2061 188.0
211.602539 144.0
212.158768 132.0
212.985992 644.0
213.096161 92.0
213.421677 68.0
213.523453 44.0
213.989029 124.0
214.984085 580.0
215.070526 104.0
215.201889 120.0
215.546555 68.0
215.993851 136.0
216.034805 140.0
216.828278 140.0
216.966049 128.0
218.013885 120.0
218.952332 140.0
219.01123 140.0
219.040695 148.0
219.768845 220.0
222.966904 60.0
226.060257 176.0
226.373688 116.0
228.507767 56.0
228.980362 196.0
231.028229 176.0
231.202316 216.0
232.997314 112.0
233.857864 112.0
234.012421 232.0
236.005447 92.0
236.045197 144.0
239.966125 76.0
240.979752 1168.0
241.247299 168.0
241.982071 388.0
242.655884 92.0
242.979691 252.0
243.018768 156.0
243.667633 88.0
243.95665 92.0
243.990845 132.0
244.028961 224.0
244.395157 28.0
244.54454 144.0
245.030396 152.0
246.041046 216.0
247.006332 100.0
248.045914 124.0
250.056076 56.0
251.297623 160.0
252.004837 100.0
253.010544 112.0
256.975647 184.0
258.979095 180.0
259.015533 180.0
260.283173 52.0
262.92923 120.0
263.042206 56.0
264.985748 148.0
265.845001 80.0
267.258484 52.0
267.609985 176.0
267.69278 112.0
268.303925 148.0
268.532166 80.0
268.603943 112.0
268.977295 876.0
269.09671 88.0
269.132599 112.0
269.220764 40.0
269.570312 76.0
269.857941 72.0
269.952759 192.0
269.977386 160.0
270.741425 120.0
270.976227 412.0
271.928192 120.0
271.972626 88.0
272.013062 140.0
272.351746 60.0
272.953125 140.0
272.993317 148.0
273.035339 180.0
274.006348 124.0
274.035004 284.0
275.395081 100.0
275.907257 236.0
276.034943 176.0
279.429321 116.0
279.492523 168.0
279.592346 116.0
279.991852 128.0
281.019318 116.0
281.799774 136.0
281.993561 196.0
283.023895 144.0
283.975616 164.0
285.275055 88.0
285.372528 68.0
286.931335 132.0
286.971771 120.0
289.031219 232.0
290.031128 56.0
290.641571 176.0
291.025085 116.0
292.010559 164.0
296.972351 1552.0
297.003143 308.0
297.9729 184.0
298.009827 160.0
298.119781 116.0
298.96759 652.0
299.020782 152.0
299.099945 44.0
299.78186 40.0
299.995544 124.0
300.96994 128.0
300.999542 112.0
301.030609 152.0
301.925629 108.0
301.991333 36.0
302.029388 188.0
302.922424 56.0
304.931396 136.0
305.098236 144.0
306.038757 144.0
306.985626 152.0
307.997437 152.0
308.479645 60.0
309.000702 200.0
309.543213 212.0
309.648285 84.0
309.972656 168.0
310.990417 124.0
312.403625 32.0
312.975647 144.0
313.202667 148.0
313.491547 224.0
314.990997 92.0
315.241821 188.0
316.363007 232.0
317.01825 152.0
318.018341 192.0
319.969849 168.0
320.978149 100.0
322.24881 120.0
322.363159 88.0
322.992371 112.0
323.978638 120.0
324.292084 100.0
324.582458 188.0
324.880127 124.0
324.964355 4828.0
325.045166 48.0
325.116943 68.0
325.260498 72.0
325.361023 28.0
325.468719 72.0
325.74884 72.0
325.827881 156.0
325.90332 216.0
325.934692 44.0
325.970673 1340.0
326.097382 48.0
326.338226 116.0
326.615112 96.0
326.744629 180.0
326.798584 44.0
326.874146 156.0
326.902924 56.0
326.961243 2916.0
327.090088 92.0
327.151276 56.0
327.205292 104.0
327.237671 108.0
327.525757 84.0
327.720306 96.0
327.96405 572.0
328.961243 232.0
329.390594 68.0
329.860352 92.0
330.160431 40.0
330.359344 108.0
332.1633 60.0
334.703613 168.0
336.994171 144.0
337.81308 144.0
337.981354 160.0
338.01062 100.0
338.96933 144.0
339.046936 48.0
342.976837 308.0
343.385071 36.0
343.979126 204.0
344.966583 140.0
345.024536 160.0
346.023773 168.0
347.557831 64.0
350.976044 192.0
351.707245 64.0
352.999115 608.0
353.993713 476.0
354.995422 144.0
355.9953 184.0
356.02771 100.0
370.000641 180.0
371.134705 96.0
371.173035 104.0
372.151154 152.0
380.991699 132.0
381.979187 168.0
382.992004 176.0
385.089569 20.0
395.010406 124.0
415.30246 96.0
416.306946 108.0
431.222809 88.0
890.512329 92.0
955.619995 88.0
1137.518677 108.0
1199.188477 220.0
1204.508179 192.0
1279.529419 56.0
1309.388794 224.0
1330.938232 20.0
1352.231567 196.0
1359.002563 88.0
1481.9198 20.0
1488.251221 220.0
1488.450928 136.0
