>compound MLS001158390-01!2-[2-(4,8-dimethyl-2-oxochromen-7-yl)oxypropanoylamino]-3-(5-hydroxy-1H-indol-3-yl)propanoic acid
>formula C25H24N2O7
>ionization [M+H]+
>parentmass 465.166
#inchi InChI=1S/C25H24N2O7/c1-12-8-22(29)34-23-13(2)21(7-5-17(12)23)33-14(3)24(30)27-20(25(31)32)9-15-11-26-19-6-4-16(28)10-18(15)19/h4-8,10-11,14,20,26,28H,9H2,1-3H3,(H,27,30)(H,31,32)
#inchikey XSOZSNCTPXARBQ
#Ion_Source LC-ESI
#Instrument qTof
#Compound_Source NIH Natural Product Library
#PI Dorrestein
#Data_Collector VVP/LMS
#Scan -1
#Precursor_MZ 465.166
#ExactMass 464.158
#Charge 1
#CAS_Number N/A
#Pubmed_ID N/A
#Smiles CC(Oc1ccc2c(C)cc(=O)oc2c1C)C(=O)NC(Cc3c[nH]c4ccc(O)cc34)C(=O)O
#INCHI_AUX N/A
#Library_Class 3
#SpectrumID CCMSLIB00000080087
#IonMode Positive
#UpdateWorkflowName UPDATE-SINGLE-ANNOTATED-BRONZE
#LibraryQualityString Bronze
#TaskID b1d8e8f6646f4e71acdff9ca3d919d08
##Scan# 1723
#SpectrumFile p2-H03_GH3_01_18063.mzXML
#LibraryName NIH_Natural_Products_Library.mgf
#MQScore -1
#Organism NIH_Natural_Products_Library
#TIC_Query 0
#RT_Query -1
#MZErrorPPM -1
#SharedPeaks 0
#MassDiff 0
#LibMZ -1
#SpecMZ 465.166
#SpecCharge 0
#internalFilename spec-00000.mgf

>collision 10
95.144844 124.0
95.519905 104.0
96.221481 228.0
99.545326 132.0
100.844292 164.0
101.886314 196.0
102.24826 196.0
102.915512 160.0
103.052864 256.0
103.315697 140.0
103.761253 132.0
105.070122 368.0
105.50808 40.0
105.530571 180.0
105.60215 152.0
105.819061 168.0
106.0895 96.0
107.558289 252.0
108.862663 184.0
109.055878 220.0
109.792915 88.0
110.427834 176.0
112.848328 172.0
114.288536 168.0
114.97258 204.0
115.043015 124.0
117.058891 216.0
117.657906 180.0
118.066299 136.0
118.468903 200.0
122.839035 132.0
122.891983 116.0
123.079605 156.0
127.155869 164.0
127.9021 120.0
128.546677 132.0
128.71373 128.0
130.724442 124.0
130.801834 148.0
131.054626 200.0
132.051926 184.0
133.066254 208.0
133.104141 216.0
134.056656 176.0
135.063705 160.0
135.869293 140.0
136.084274 216.0
141.501465 208.0
141.584335 216.0
142.537994 212.0
143.056488 120.0
143.088501 216.0
145.063034 700.0
145.099121 220.0
145.51178 44.0
145.766403 200.0
146.00679 188.0
146.059998 1984.0
146.103012 164.0
146.17038 128.0
146.261841 188.0
146.485779 112.0
147.061172 268.0
147.25 176.0
147.26973 48.0
148.074341 152.0
149.067398 144.0
150.121475 172.0
151.477982 36.0
152.948868 160.0
154.503555 188.0
156.043716 140.0
157.08223 180.0
158.061249 204.0
158.091644 156.0
159.062668 372.0
160.075897 444.0
161.091019 184.0
162.054703 520.0
162.11348 64.0
162.217392 20.0
163.060104 172.0
163.093445 168.0
166.062683 144.0
166.869034 116.0
167.14357 76.0
169.090073 152.0
170.059921 228.0
170.729736 76.0
171.071976 164.0
172.082138 236.0
173.07338 196.0
173.626038 104.0
174.081299 852.0
174.232391 72.0
174.316467 64.0
174.382172 64.0
174.405823 112.0
175.061722 244.0
175.087311 988.0
176.092133 116.0
178.237976 56.0
180.321991 52.0
182.934601 44.0
183.067184 188.0
183.21199 92.0
184.07251 636.0
184.67778 188.0
184.761627 132.0
185.075516 160.0
186.053116 1228.0
186.090744 464.0
186.992172 84.0
187.058426 176.0
187.097 324.0
188.248978 112.0
189.052811 524.0
189.089233 400.0
190.061127 180.0
190.098312 136.0
191.070724 1628.0
192.069412 144.0
198.05423 176.0
199.072311 148.0
201.067291 328.0
201.101791 596.0
202.082794 140.0
202.1026 96.0
203.05925 156.0
203.119675 340.0
203.65332 108.0
203.974411 120.0
204.065201 1160.0
204.116562 128.0
204.375412 52.0
205.068787 324.0
206.069687 128.0
211.086182 148.0
213.038483 160.0
213.076141 328.0
213.207001 164.0
213.23317 44.0
214.081238 256.0
215.078705 376.0
215.482803 60.0
215.786774 116.0
216.085098 136.0
217.08522 1844.0
218.086761 324.0
219.091461 104.0
225.032135 112.0
225.253128 80.0
226.120255 40.0
226.293884 88.0
227.949631 32.0
229.096756 348.0
229.523956 140.0
230.103958 592.0
231.03569 180.0
231.106491 304.0
235.121048 132.0
241.020325 112.0
247.105316 152.0
250.952881 140.0
258.09726 144.0
260.928406 248.0
262.102814 156.0
264.638824 120.0
284.069977 148.0
307.154205 128.0
308.138672 128.0
320.107208 192.0
331.129242 180.0
335.07785 92.0
337.084686 136.0
338.361206 88.0
347.127106 180.0
348.118683 156.0
355.194397 144.0
362.451996 44.0
368.131378 160.0
374.135925 244.0
401.155212 128.0
405.331848 44.0
414.807281 140.0
417.792084 140.0
419.159515 384.0
420.167328 340.0
423.193176 160.0
424.154419 180.0
424.187195 144.0
445.985413 56.0
447.179932 112.0
451.17041 212.0
470.093079 92.0
482.214386 108.0
555.814819 124.0
687.058899 36.0
708.011169 60.0
783.660645 56.0
965.398743 152.0
1015.777893 196.0
1173.988892 128.0
1191.683472 220.0
1210.860474 168.0
1242.816284 160.0
1247.198364 212.0
1260.037964 132.0
1292.839478 120.0
1297.495239 120.0
1318.109131 144.0
1334.446777 232.0
1340.378784 92.0
1348.011597 160.0
1357.46936 208.0
1361.615723 160.0
1363.276001 44.0
1375.546387 240.0
1380.555786 188.0
1381.702271 136.0
1395.236938 196.0
1441.053101 228.0
1442.148926 192.0
1457.981323 156.0
1469.029297 156.0
1474.098999 172.0
1474.312866 36.0
1475.811157 132.0
1494.872559 128.0
1496.18103 224.0
