>compound MLS000876988-01!7-hydroxy-3-(3-hydroxy-4-methoxyphenyl)chromen-4-one
>formula C16H12O5
>ionization [M+H]+
>parentmass 285.07663
#inchi InChI=1S/C16H12O5/c1-20-14-5-2-9(6-13(14)18)12-8-21-15-7-10(17)3-4-11(15)16(12)19/h2-8,17-18H,1H3
#inchikey ZZAJQOPSWWVMBI
#Ion_Source LC-ESI
#Instrument qTof
#Compound_Source NIH Natural Product Library
#PI Dorrestein
#Data_Collector VVP/LMS
#Scan -1
#Precursor_MZ 285.076
#ExactMass 284.068
#Charge 1
#CAS_Number N/A
#Pubmed_ID N/A
#Smiles COc1ccc(cc1O)c2coc3cc(O)ccc3c2=O
#INCHI_AUX N/A
#Library_Class 1
#SpectrumID CCMSLIB00000080475
#IonMode Positive
#UpdateWorkflowName UPDATE-SINGLE-ANNOTATED-GOLD
#LibraryQualityString Gold
#TaskID b1d8e8f6646f4e71acdff9ca3d919d08
##Scan# 1715
#SpectrumFile p2-E09_GE9_01_18033.mzXML
#LibraryName NIH_Natural_Products_Library.mgf
#MQScore -1
#Organism NIH_Natural_Products_Library
#TIC_Query 0
#RT_Query -1
#MZErrorPPM -1
#SharedPeaks 0
#MassDiff 0
#LibMZ -1
#SpecMZ 285.076
#SpecCharge 0
#internalFilename spec-00000.mgf

>collision 10
95.28746 180.0
95.804962 136.0
95.945274 56.0
96.048386 160.0
96.632744 180.0
96.930367 144.0
97.146034 128.0
97.348198 292.0
97.707893 212.0
98.167931 136.0
98.285187 232.0
98.358208 200.0
98.650558 200.0
98.729652 140.0
99.056229 140.0
99.105759 184.0
99.161247 100.0
99.504417 200.0
100.222435 240.0
100.409821 188.0
100.601372 56.0
100.887047 64.0
101.255066 160.0
101.331337 192.0
101.37542 184.0
101.439102 88.0
101.656166 48.0
102.0177 180.0
102.530968 144.0
103.056328 376.0
103.10009 144.0
103.217331 112.0
103.709282 176.0
103.819954 212.0
103.908012 72.0
104.054146 216.0
104.354836 152.0
104.584717 148.0
104.739464 180.0
104.759834 180.0
104.808731 124.0
105.035255 392.0
105.61718 68.0
105.733803 60.0
105.82592 220.0
105.891449 72.0
106.044525 200.0
106.118912 176.0
106.315834 140.0
106.340462 188.0
106.408203 168.0
106.436943 60.0
106.473907 144.0
106.621826 112.0
106.650604 116.0
106.757515 140.0
106.934441 68.0
107.047668 148.0
107.528015 220.0
107.569298 48.0
107.678734 100.0
108.019051 428.0
108.249161 208.0
108.359291 108.0
108.390373 224.0
108.433891 36.0
108.481567 156.0
108.651619 196.0
108.749153 144.0
108.784439 160.0
108.929802 112.0
109.031609 148.0
109.526794 320.0
110.018799 192.0
110.114983 192.0
110.365746 164.0
110.618896 116.0
111.027473 56.0
111.04425 200.0
111.560799 168.0
112.829918 176.0
113.007576 132.0
113.507462 176.0
113.738708 156.0
114.819565 232.0
115.054115 984.0
115.408951 172.0
115.511604 68.0
115.552246 100.0
115.684937 160.0
115.817696 204.0
116.023415 296.0
116.064751 244.0
116.673912 200.0
116.845963 128.0
117.02774 180.0
117.051468 268.0
117.106438 104.0
117.125824 192.0
117.313293 104.0
117.632561 156.0
117.805321 160.0
117.872292 124.0
118.040169 236.0
118.099297 48.0
118.144722 204.0
118.387138 156.0
118.497612 100.0
119.587738 180.0
120.022423 196.0
120.189217 80.0
120.239403 144.0
120.28524 28.0
120.717842 220.0
120.781265 164.0
121.029251 548.0
121.06485 196.0
121.199409 56.0
121.238853 112.0
121.418625 208.0
121.45591 168.0
121.497009 196.0
122.055466 212.0
122.255646 152.0
122.652092 180.0
122.75351 108.0
123.042549 176.0
123.234703 108.0
123.315598 264.0
123.371727 128.0
123.690269 160.0
123.758904 124.0
123.969337 76.0
123.994965 160.0
124.071297 152.0
124.350792 140.0
124.472893 144.0
124.537292 196.0
124.71505 204.0
124.80397 68.0
124.906273 64.0
125.133263 80.0
126.121513 56.0
126.201996 144.0
126.383171 72.0
126.509102 164.0
126.539848 116.0
126.963348 260.0
127.03064 200.0
127.051926 504.0
127.865051 212.0
128.064835 128.0
128.224594 132.0
128.332794 44.0
128.659943 204.0
128.677994 168.0
128.698318 56.0
128.72316 128.0
129.069077 624.0
129.668793 188.0
129.770798 132.0
130.076965 336.0
131.048996 172.0
131.209976 160.0
131.308029 176.0
131.64122 132.0
131.764557 104.0
132.020401 176.0
132.139511 108.0
132.389008 200.0
132.567688 136.0
133.027618 160.0
133.048019 232.0
133.092987 168.0
133.299728 168.0
133.587128 148.0
133.923187 140.0
134.036057 7112.0
134.114441 56.0
134.172058 156.0
134.278137 40.0
134.423477 172.0
134.444244 56.0
134.501938 168.0
134.525024 152.0
134.649719 120.0
134.695084 212.0
134.887695 44.0
135.038437 988.0
135.160599 192.0
135.403671 88.0
135.558884 176.0
135.642334 44.0
135.876556 68.0
135.902069 196.0
135.946152 116.0
135.97168 104.0
136.015137 464.0
136.038666 280.0
136.117935 52.0
136.145813 192.0
136.375809 36.0
136.691086 228.0
137.023376 7936.0
137.106613 40.0
137.129242 68.0
137.221466 132.0
137.262802 40.0
137.304779 132.0
137.357071 124.0
137.559113 156.0
137.647827 96.0
137.724899 52.0
137.911819 136.0
138.026993 768.0
138.089523 172.0
138.353928 52.0
138.492096 128.0
138.552994 148.0
138.876495 104.0
139.005524 108.0
139.030167 200.0
139.05722 176.0
139.190964 128.0
139.226196 72.0
139.327194 148.0
139.353027 144.0
139.472885 128.0
139.592789 68.0
139.651581 56.0
140.032867 52.0
140.068207 56.0
140.150879 200.0
140.268494 168.0
140.292068 64.0
140.67659 92.0
140.773392 276.0
140.874954 120.0
140.89386 64.0
141.069321 2912.0
141.52771 200.0
141.778809 200.0
142.0746 352.0
142.367615 84.0
143.059052 184.0
143.797989 180.0
144.031967 124.0
144.056076 184.0
144.263763 104.0
144.38092 72.0
145.062653 324.0
145.315125 92.0
145.363113 204.0
145.562363 168.0
145.956436 68.0
146.035538 144.0
146.083908 180.0
146.490738 84.0
146.51001 152.0
146.534103 152.0
147.011536 160.0
147.03656 184.0
147.412399 140.0
147.929443 196.0
148.04863 120.0
148.242432 44.0
148.509109 176.0
148.591583 120.0
149.054352 128.0
149.079651 216.0
149.259537 172.0
149.456558 160.0
149.578247 160.0
149.924103 148.0
150.976288 192.0
151.039871 172.0
151.103485 68.0
151.380066 120.0
151.713287 196.0
152.059189 324.0
152.604492 244.0
152.747131 168.0
153.065399 272.0
153.695648 172.0
153.927673 204.0
154.027802 204.0
154.072159 120.0
154.17717 180.0
154.506042 96.0
155.048111 1420.0
155.278885 108.0
155.326004 88.0
155.420288 136.0
155.541885 80.0
156.059525 156.0
157.064224 944.0
157.186981 176.0
157.921463 168.0
158.006516 188.0
158.04155 180.0
158.072952 1476.0
158.111618 164.0
158.28685 172.0
158.324417 156.0
158.915985 140.0
159.06723 180.0
159.242325 124.0
159.322708 92.0
159.493591 172.0
160.019363 152.0
160.041626 176.0
160.077271 184.0
160.145279 116.0
160.916931 120.0
161.023865 164.0
161.432388 40.0
161.591751 172.0
161.682846 144.0
161.945038 136.0
162.034805 156.0
162.095627 192.0
162.212204 144.0
162.24263 96.0
162.455643 104.0
163.105728 256.0
164.036606 144.0
164.050674 128.0
164.10112 128.0
164.473572 216.0
165.375198 192.0
165.608841 136.0
165.729248 164.0
166.59642 148.0
167.31134 204.0
167.367996 172.0
167.700317 80.0
167.867889 104.0
167.950424 116.0
168.058823 1868.0
168.087158 144.0
168.283325 64.0
168.350464 28.0
168.376282 124.0
168.580368 132.0
168.70961 212.0
168.864761 84.0
169.064957 1912.0
169.156799 60.0
169.277054 192.0
169.49382 180.0
169.550842 88.0
169.848999 152.0
170.069519 292.0
170.16301 108.0
170.331818 108.0
170.438324 64.0
171.040985 584.0
171.07814 136.0
171.497513 96.0
171.820862 152.0
171.994492 240.0
172.053864 392.0
172.680267 164.0
173.015213 136.0
173.193283 84.0
174.035095 140.0
175.038712 288.0
175.387299 136.0
176.089142 128.0
176.5728 112.0
176.707703 60.0
177.078308 124.0
178.309357 76.0
178.86525 144.0
178.925919 352.0
179.057892 204.0
179.941971 176.0
180.33226 144.0
180.623703 168.0
181.065323 436.0
181.20195 136.0
181.2341 144.0
181.649643 216.0
181.692566 108.0
181.832108 64.0
182.678497 164.0
182.958374 52.0
183.043396 852.0
183.472931 176.0
183.613144 156.0
183.828964 112.0
184.050659 184.0
184.201553 188.0
184.352859 160.0
184.463669 88.0
184.65564 124.0
184.877487 184.0
185.059418 2232.0
185.400162 96.0
185.467911 148.0
185.673965 80.0
185.722794 160.0
185.964279 176.0
185.985992 136.0
186.065842 2924.0
186.192337 32.0
186.358032 228.0
186.624405 152.0
186.711411 172.0
187.036972 540.0
187.070602 316.0
187.435532 52.0
187.522736 152.0
187.590881 244.0
187.923599 100.0
188.043945 160.0
188.072983 168.0
188.688339 96.0
189.019287 172.0
189.331375 36.0
190.063568 120.0
190.387207 60.0
190.406433 108.0
190.604218 124.0
190.881851 108.0
191.481781 192.0
191.514832 192.0
191.625031 96.0
192.499405 140.0
193.140594 116.0
193.533569 196.0
193.669266 172.0
194.487228 64.0
194.720444 172.0
195.042755 104.0
195.418182 224.0
196.053329 1644.0
196.242615 44.0
196.312317 156.0
196.479675 36.0
196.630356 60.0
196.77272 180.0
196.850906 76.0
197.012894 164.0
197.059326 6380.0
197.269989 172.0
197.292358 56.0
197.709122 72.0
198.031082 64.0
198.066238 332.0
198.555191 196.0
198.678604 164.0
198.992935 164.0
199.038025 204.0
199.245712 128.0
199.330002 108.0
199.360245 184.0
199.433975 64.0
199.481766 100.0
199.599854 52.0
199.681396 152.0
199.777039 120.0
199.923355 172.0
200.050537 376.0
200.148544 196.0
200.359787 156.0
201.051453 592.0
201.431778 108.0
201.621078 40.0
201.654999 180.0
202.178207 76.0
202.54628 124.0
203.144394 144.0
203.876938 140.0
204.115723 72.0
204.867111 124.0
205.183441 136.0
206.499847 196.0
207.035019 152.0
207.310043 196.0
207.444748 44.0
207.487747 156.0
207.62825 96.0
209.056046 192.0
209.231628 256.0
209.3078 44.0
209.585892 140.0
209.675217 228.0
210.30397 168.0
210.488739 48.0
210.870071 160.0
211.050995 232.0
211.966873 144.0
212.059616 156.0
212.114685 244.0
212.204559 84.0
212.866119 68.0
212.967758 108.0
213.016205 248.0
213.055115 13556.0
213.099594 324.0
213.144974 84.0
213.206009 56.0
213.255417 68.0
213.304825 40.0
213.333893 76.0
213.403671 160.0
213.435654 64.0
213.53743 192.0
213.572342 88.0
213.813828 104.0
213.834198 104.0
213.864349 156.0
213.91861 36.0
213.944809 156.0
213.997208 204.0
214.061142 5112.0
214.123444 112.0
214.183594 44.0
214.206894 52.0
214.29187 120.0
214.418243 60.0
214.439072 100.0
214.512863 84.0
214.536194 48.0
214.71405 84.0
214.889084 72.0
214.931854 164.0
214.964935 40.0
215.005798 68.0
215.066818 1000.0
215.175095 40.0
215.326935 56.0
215.370758 104.0
215.414566 48.0
215.561691 124.0
215.806183 64.0
215.981644 72.0
216.040161 296.0
216.065796 172.0
216.411835 40.0
216.716461 64.0
216.754547 44.0
216.947983 36.0
217.033005 52.0
217.053528 220.0
217.147369 40.0
217.663879 116.0
218.016388 132.0
218.060471 164.0
218.148651 96.0
219.164017 144.0
220.335327 104.0
220.965057 72.0
221.640121 104.0
221.948395 112.0
222.46463 176.0
222.610107 120.0
224.047928 984.0
224.401382 88.0
224.535568 124.0
224.62207 52.0
224.693665 76.0
224.956284 200.0
225.054703 6988.0
225.183487 44.0
225.303925 144.0
225.359467 60.0
225.3983 144.0
225.480392 112.0
225.57164 92.0
225.730103 100.0
225.927505 68.0
226.014267 28.0
226.057434 1424.0
226.180862 60.0
226.580154 60.0
226.667038 108.0
226.722549 92.0
226.963791 44.0
227.0345 120.0
227.043411 168.0
227.070068 408.0
227.18573 72.0
227.548874 76.0
227.735046 72.0
227.828171 40.0
227.957367 212.0
227.984406 184.0
228.037064 556.0
228.793533 104.0
228.892883 64.0
229.047943 224.0
229.08812 1064.0
229.139862 112.0
229.194107 48.0
229.278473 104.0
229.531708 60.0
229.905762 64.0
230.09462 172.0
230.449295 52.0
232.096069 176.0
232.317261 204.0
232.939575 132.0
233.918732 168.0
235.041855 176.0
235.168457 132.0
237.518372 76.0
237.6595 100.0
237.776108 52.0
238.279694 88.0
240.972458 64.0
241.048279 864.0
241.080597 216.0
241.507248 100.0
241.971436 68.0
242.059479 1024.0
242.40506 132.0
242.522842 116.0
243.066895 268.0
244.177704 220.0
244.227463 52.0
244.628876 48.0
245.083572 104.0
246.041077 112.0
247.350906 32.0
247.723541 180.0
248.592041 252.0
249.767059 124.0
250.513092 64.0
250.721054 104.0
250.765167 228.0
251.020538 180.0
252.038727 248.0
252.14122 180.0
252.220245 144.0
252.685104 68.0
252.935104 176.0
252.969925 160.0
253.050888 6220.0
253.248581 96.0
253.758774 36.0
254.050735 1068.0
254.098129 156.0
255.049194 300.0
255.626465 120.0
255.721939 108.0
257.077301 164.0
257.542542 48.0
257.635162 68.0
258.015472 128.0
258.088989 156.0
259.395203 180.0
259.853821 124.0
261.010101 184.0
263.773071 36.0
263.857117 168.0
264.407013 140.0
265.845917 132.0
266.095825 104.0
266.121826 108.0
266.433594 112.0
266.839844 132.0
267.075562 216.0
267.337524 184.0
267.640259 68.0
268.06369 164.0
268.40271 164.0
268.435333 108.0
268.692993 100.0
268.846344 132.0
268.967102 100.0
269.045013 4040.0
269.274017 144.0
269.594208 36.0
269.744537 88.0
270.053345 12192.0
270.161621 48.0
270.224365 124.0
270.251465 52.0
270.274353 60.0
270.303802 140.0
270.434723 68.0
270.48053 56.0
270.595123 44.0
270.866913 76.0
270.906219 240.0
271.056854 2096.0
271.119202 48.0
271.184753 128.0
271.263428 220.0
271.309326 88.0
271.484619 100.0
271.591339 72.0
271.72583 40.0
271.781616 108.0
271.939117 56.0
271.968658 172.0
272.061951 964.0
272.132812 52.0
272.352814 64.0
272.56308 84.0
272.881897 84.0
272.970673 68.0
273.052887 112.0
273.161438 120.0
273.460876 112.0
273.546448 160.0
273.760468 68.0
274.104279 88.0
279.643585 68.0
279.66687 144.0
281.089935 176.0
282.165436 108.0
283.05545 200.0
283.732239 40.0
283.91333 204.0
284.06424 96.0
284.312531 88.0
284.59787 96.0
284.822876 32.0
284.913574 64.0
285.004272 124.0
285.07663 5228.0
285.179047 32.0
285.461426 80.0
285.595947 116.0
285.780975 84.0
286.078796 776.0
286.484619 104.0
287.081177 508.0
287.637909 68.0
288.174866 128.0
288.935577 64.0
289.392456 32.0
289.805695 76.0
291.539673 104.0
292.788177 48.0
301.291595 84.0
302.439636 52.0
305.789032 80.0
308.010071 184.0
323.18457 32.0
324.011627 156.0
326.024567 128.0
363.073456 96.0
366.818604 104.0
375.646118 76.0
391.581177 48.0
409.811066 92.0
414.24292 76.0
415.065643 40.0
419.89682 72.0
433.732758 108.0
443.570221 76.0
483.703583 60.0
522.026306 104.0
587.052185 132.0
606.485168 108.0
608.422791 56.0
621.020752 48.0
624.537292 140.0
634.630005 60.0
648.568115 76.0
650.613464 76.0
657.423767 52.0
688.649841 120.0
691.949463 108.0
720.750061 156.0
746.321472 44.0
805.560303 84.0
818.297668 208.0
842.326843 88.0
846.768921 84.0
853.529602 196.0
929.883118 228.0
937.448486 132.0
938.960327 52.0
995.215881 140.0
1000.610352 164.0
1006.675964 116.0
1025.658447 36.0
1034.9729 216.0
1035.357056 60.0
1037.369019 56.0
1049.397339 200.0
1050.835571 124.0
1071.029053 184.0
1073.662109 212.0
1075.286621 156.0
1084.744507 112.0
1102.667358 108.0
1109.995728 104.0
1112.198242 172.0
1115.233643 136.0
1128.158569 196.0
1144.939575 148.0
1178.09436 140.0
1189.955811 168.0
1194.353882 84.0
1208.150024 228.0
1211.680664 132.0
1222.797852 160.0
1223.716675 92.0
1232.483887 168.0
1237.064819 140.0
1239.64917 188.0
1242.313477 88.0
1253.182373 196.0
1256.185547 304.0
1257.568604 140.0
1259.369019 48.0
1260.725464 144.0
1260.796143 180.0
1263.907471 136.0
1271.33374 168.0
1278.561035 224.0
1279.942017 188.0
1287.186646 164.0
1291.024048 192.0
1295.454346 120.0
1297.597168 172.0
1305.128784 172.0
1316.268433 128.0
1322.666504 96.0
1328.760986 144.0
1330.328491 148.0
1333.153809 72.0
1350.402954 204.0
1356.516846 152.0
1357.513916 172.0
1360.045044 188.0
1364.209961 164.0
1369.780396 184.0
1378.441772 212.0
1379.616943 220.0
1386.137451 120.0
1387.553101 140.0
1388.487427 152.0
1389.637207 88.0
1393.386475 188.0
1398.971436 20.0
1402.360596 188.0
1405.141968 160.0
1405.970215 176.0
1408.732788 132.0
1408.987915 136.0
1412.522705 160.0
1423.397217 160.0
1423.547363 156.0
1428.237061 180.0
1441.959229 172.0
1445.528564 196.0
1445.581543 196.0
1452.028442 52.0
1453.029663 132.0
1459.135742 132.0
1462.7948 144.0
1467.571533 84.0
1479.964478 184.0
1480.209473 188.0
1488.007202 144.0
1492.078979 172.0
1492.340332 40.0
1496.202515 124.0
1496.964722 172.0
1497.596313 176.0
1498.451294 160.0
1501.056519 212.0
1502.290527 148.0
