>compound MLS001158643-01!2-(4,7-dimethyl-2-oxochromen-5-yl)oxy-N-[2-(1H-indol-3-yl)ethyl]acetamide
>formula C23H22N2O4
>ionization [M+H]+
>parentmass 391.166
#inchi InChI=1S/C23H22N2O4/c1-14-9-19(23-15(2)11-22(27)29-20(23)10-14)28-13-21(26)24-8-7-16-12-25-18-6-4-3-5-17(16)18/h3-6,9-12,25H,7-8,13H2,1-2H3,(H,24,26)
#inchikey ZDPKQLPBBMHHTO
#Ion_Source LC-ESI
#Instrument qTof
#Compound_Source NIH Natural Product Library
#PI Dorrestein
#Data_Collector VVP/LMS
#Scan -1
#Precursor_MZ 391.166
#ExactMass 390.158
#Charge 1
#CAS_Number N/A
#Pubmed_ID N/A
#Smiles Cc1cc(OCC(=O)NCCc2c[nH]c3ccccc23)c4c(C)cc(=O)oc4c1
#INCHI_AUX N/A
#Library_Class 1
#SpectrumID CCMSLIB00000079472
#IonMode Positive
#UpdateWorkflowName UPDATE-SINGLE-ANNOTATED-GOLD
#LibraryQualityString Gold
#TaskID b1d8e8f6646f4e71acdff9ca3d919d08
##Scan# 2173
#SpectrumFile p1-G06_GG6_01_17950.mzXML
#LibraryName NIH_Natural_Products_Library.mgf
#MQScore -1
#Organism NIH_Natural_Products_Library
#TIC_Query 0
#RT_Query -1
#MZErrorPPM -1
#SharedPeaks 0
#MassDiff 0
#LibMZ -1
#SpecMZ 391.166
#SpecCharge 0
#internalFilename spec-00000.mgf

>collision 10
94.983635 240.0
95.001091 180.0
95.033737 184.0
95.069 136.0
95.105881 132.0
95.245682 168.0
95.309143 168.0
95.335052 148.0
95.354492 132.0
95.43808 192.0
95.550056 168.0
95.745537 192.0
95.872169 120.0
95.965736 128.0
95.99498 144.0
96.014481 188.0
96.158798 144.0
96.297478 160.0
96.317009 168.0
96.469429 168.0
96.50853 236.0
96.5672 180.0
96.590668 152.0
96.768753 64.0
96.835335 172.0
96.911736 168.0
96.954842 176.0
97.009727 220.0
97.048935 220.0
97.092079 184.0
97.111687 60.0
97.129341 160.0
97.145035 112.0
97.24707 184.0
97.261864 164.0
97.35112 124.0
97.527939 112.0
97.581017 76.0
97.643944 132.0
97.711098 144.0
97.748207 104.0
97.775757 104.0
97.907661 132.0
97.945084 92.0
98.010094 140.0
98.120468 152.0
98.183571 128.0
98.459862 176.0
98.65638 120.0
98.677223 144.0
98.695023 244.0
98.768196 160.0
98.849312 172.0
98.916603 124.0
99.027481 172.0
99.05323 184.0
99.160225 160.0
99.429955 152.0
99.479576 92.0
99.501411 216.0
99.596733 192.0
99.6464 112.0
99.672226 48.0
99.713959 148.0
99.797562 140.0
99.813354 48.0
99.884956 156.0
99.974487 100.0
100.154022 68.0
100.217422 84.0
100.299126 124.0
100.420753 152.0
100.476608 128.0
100.556427 140.0
100.674217 168.0
100.766098 116.0
100.840034 120.0
100.854027 160.0
100.941994 68.0
101.050003 136.0
101.126045 192.0
101.194107 36.0
101.224144 180.0
101.310265 176.0
101.492653 216.0
101.623024 152.0
101.645981 156.0
101.723366 212.0
101.741432 176.0
101.779579 200.0
101.795647 100.0
101.89608 188.0
102.024986 196.0
102.046333 332.0
102.099098 140.0
102.147469 80.0
102.211746 188.0
102.326477 80.0
102.489616 140.0
102.525894 188.0
102.574303 232.0
102.673058 144.0
102.722755 188.0
102.806526 176.0
102.909157 140.0
102.94146 116.0
103.054031 2064.0
103.097015 184.0
103.31884 204.0
103.461098 156.0
103.509689 64.0
103.629196 44.0
103.828995 148.0
103.850159 128.0
103.878555 124.0
103.975945 48.0
104.053261 620.0
104.170868 72.0
104.20134 164.0
104.420883 164.0
104.563293 188.0
104.648796 164.0
104.740433 128.0
105.033958 172.0
105.069588 172.0
105.121689 144.0
105.178833 196.0
105.272751 248.0
105.370796 228.0
105.409615 76.0
105.648834 152.0
105.677475 40.0
105.795029 64.0
105.843269 68.0
105.917 128.0
105.950523 164.0
106.066582 112.0
106.093231 88.0
106.130135 184.0
106.290123 132.0
106.325012 176.0
106.69474 168.0
106.962173 212.0
107.011581 60.0
107.049904 532.0
107.067703 156.0
107.085449 344.0
107.217567 124.0
107.302086 40.0
107.528992 164.0
107.551689 72.0
107.655167 136.0
107.679703 72.0
107.731346 148.0
107.78093 248.0
107.80159 132.0
107.844994 132.0
107.923553 156.0
107.969048 100.0
108.033165 196.0
108.093163 156.0
108.304337 176.0
108.507416 96.0
108.650139 152.0
108.689148 220.0
108.720612 344.0
108.777107 100.0
108.974396 148.0
109.038818 200.0
109.128204 132.0
109.15728 224.0
109.571518 140.0
109.626732 168.0
109.696556 180.0
109.90094 120.0
109.982323 88.0
110.036606 128.0
110.126396 68.0
110.141014 68.0
110.168175 156.0
110.184883 132.0
110.245483 176.0
110.260109 156.0
110.29982 164.0
110.394974 220.0
110.439919 180.0
110.661743 196.0
110.7808 188.0
110.816734 84.0
110.904747 116.0
110.940384 140.0
110.957153 184.0
110.978119 108.0
111.003281 196.0
111.064102 208.0
111.082977 128.0
111.116547 204.0
111.19838 188.0
111.366348 124.0
111.38105 128.0
111.603821 168.0
111.723701 132.0
111.898376 216.0
111.929962 144.0
111.97419 152.0
111.99662 172.0
112.058449 88.0
112.32196 184.0
112.484444 228.0
112.939606 148.0
113.099556 40.0
113.116486 168.0
113.260475 48.0
113.349457 136.0
113.531761 176.0
113.55085 124.0
113.597519 36.0
113.639946 176.0
113.85434 176.0
113.874443 240.0
113.964798 160.0
114.102951 132.0
114.122917 184.0
114.270966 176.0
114.485954 152.0
114.554115 144.0
114.611633 68.0
114.692619 112.0
114.780029 160.0
114.854675 152.0
114.888802 32.0
115.016975 188.0
115.054611 5708.0
115.132133 160.0
115.155624 184.0
115.204758 68.0
115.236801 40.0
115.35434 140.0
115.474083 192.0
115.514725 64.0
115.649529 148.0
115.783829 148.0
115.897942 48.0
116.006706 224.0
116.058823 1696.0
116.086174 128.0
116.172371 200.0
116.219574 188.0
116.322815 188.0
116.374107 60.0
116.410614 192.0
116.582466 240.0
116.621155 48.0
116.642647 148.0
116.691956 188.0
116.868462 168.0
116.914444 120.0
116.965309 176.0
116.99807 164.0
117.032166 180.0
117.069328 12656.0
117.118027 160.0
117.141884 28.0
117.167732 64.0
117.194572 96.0
117.208008 144.0
117.266853 108.0
117.34446 28.0
117.389084 184.0
117.49202 228.0
117.510529 196.0
117.618431 36.0
117.888405 148.0
117.97702 148.0
117.992157 52.0
118.068474 1564.0
118.100533 136.0
118.147865 60.0
118.186813 152.0
118.292854 184.0
118.368637 204.0
118.401115 84.0
118.438965 192.0
118.505096 108.0
118.52243 108.0
118.555061 200.0
118.671173 32.0
118.719688 100.0
118.790955 112.0
118.847672 236.0
118.945335 148.0
119.006119 72.0
119.085228 1256.0
119.138603 96.0
119.390739 44.0
119.499496 116.0
119.582191 256.0
119.600189 148.0
119.720879 188.0
119.767265 40.0
119.784691 280.0
119.825607 128.0
119.867477 192.0
119.911064 152.0
119.952477 236.0
120.054955 140.0
120.087418 160.0
120.207657 228.0
120.47184 164.0
120.561424 104.0
120.622627 40.0
120.753815 116.0
120.828186 160.0
120.845688 108.0
120.972626 128.0
120.990135 124.0
121.024071 168.0
121.062523 176.0
121.121529 232.0
121.200401 228.0
121.268333 76.0
121.320549 180.0
121.500771 48.0
121.633888 248.0
121.714905 192.0
121.860832 136.0
121.95533 132.0
122.126831 128.0
122.162025 124.0
122.283043 164.0
122.353485 48.0
122.672913 188.0
122.717384 164.0
122.794189 112.0
122.842712 120.0
123.010422 104.0
123.096527 200.0
123.116402 188.0
123.181602 224.0
123.301979 64.0
123.562904 80.0
123.598305 204.0
123.64035 168.0
123.728897 96.0
124.358437 236.0
124.513855 148.0
124.549393 176.0
124.596039 112.0
124.720482 56.0
124.847214 124.0
124.931732 200.0
124.947304 216.0
124.980675 72.0
125.049667 84.0
125.111992 168.0
125.348083 116.0
125.535576 184.0
125.573608 112.0
125.634933 232.0
125.689247 240.0
125.84996 100.0
125.872292 156.0
125.928116 252.0
125.975029 116.0
126.010834 276.0
126.048256 444.0
126.153801 64.0
126.279022 112.0
126.361839 180.0
126.552078 184.0
126.621452 48.0
126.648438 236.0
126.791718 116.0
126.847755 140.0
126.867928 196.0
126.96434 156.0
126.997986 184.0
127.053841 3292.0
127.159531 188.0
127.193199 180.0
127.458206 140.0
127.575073 176.0
127.818642 212.0
127.847122 164.0
127.901253 220.0
128.02562 152.0
128.052963 1828.0
128.096054 196.0
128.168091 124.0
128.234604 120.0
128.329285 56.0
128.349579 176.0
128.527771 160.0
128.567413 184.0
128.60675 116.0
128.651978 128.0
128.733185 68.0
128.814499 172.0
128.931992 120.0
128.963623 40.0
129.068253 3320.0
129.144516 144.0
129.16713 288.0
129.20784 220.0
129.232742 192.0
129.459808 208.0
129.486267 60.0
129.556488 164.0
129.783127 248.0
129.860229 132.0
129.882919 84.0
129.921478 52.0
130.065109 4096.0
130.123993 136.0
130.157623 96.0
130.228317 256.0
130.296066 168.0
130.355148 136.0
130.475616 284.0
130.511993 192.0
130.552917 32.0
130.632324 132.0
130.635559 120.0
130.662094 172.0
130.707611 124.0
130.762634 112.0
130.797394 160.0
130.894257 160.0
130.985367 204.0
131.033203 52.0
131.071625 1856.0
131.185898 160.0
131.213699 144.0
131.245651 168.0
131.279373 148.0
131.425369 148.0
131.500671 200.0
131.532623 188.0
131.552368 216.0
131.827255 108.0
131.902679 220.0
131.918671 160.0
131.996414 60.0
132.055313 1900.0
132.07814 1172.0
132.099869 152.0
132.140991 168.0
132.155441 76.0
132.188553 204.0
132.209152 140.0
132.224716 120.0
132.29155 200.0
132.433517 204.0
132.46788 172.0
132.511414 152.0
132.587021 52.0
132.66304 72.0
132.729156 144.0
132.765839 132.0
132.887421 136.0
132.905777 192.0
133.027405 148.0
133.063492 384.0
133.176666 108.0
133.208817 116.0
133.243286 212.0
133.365082 188.0
133.401855 212.0
133.468521 136.0
133.572021 64.0
133.645645 128.0
133.726181 220.0
133.832077 76.0
133.967957 168.0
134.050903 240.0
134.069992 184.0
134.103912 160.0
134.177673 180.0
134.246841 184.0
134.429993 224.0
134.646088 268.0
134.846817 200.0
134.874832 44.0
134.911819 192.0
135.020493 152.0
135.036682 220.0
135.057495 176.0
135.079819 984.0
135.126892 176.0
135.191681 140.0
135.221771 136.0
135.278015 216.0
135.36792 132.0
135.418579 84.0
135.448685 172.0
135.464905 72.0
135.705917 96.0
135.726791 76.0
135.791718 164.0
135.812592 204.0
135.92395 168.0
136.044647 144.0
136.080429 164.0
136.13327 256.0
136.151459 168.0
136.290833 168.0
136.35791 152.0
136.437256 184.0
136.495377 204.0
136.527939 56.0
136.62796 220.0
136.695435 144.0
136.730331 208.0
136.786194 160.0
137.287125 56.0
137.359436 188.0
137.562454 168.0
137.849731 224.0
137.88945 100.0
138.024979 152.0
138.277695 172.0
138.296417 128.0
138.374588 132.0
138.589142 156.0
138.891571 160.0
138.964294 136.0
139.145004 212.0
139.173187 264.0
139.253021 172.0
139.347656 112.0
139.42923 148.0
139.535019 128.0
139.876129 172.0
139.939682 104.0
140.050369 140.0
140.118683 164.0
140.448715 76.0
140.50061 156.0
140.599716 252.0
140.618591 164.0
140.764954 108.0
140.94928 148.0
141.015381 48.0
141.043594 200.0
141.072113 180.0
141.106232 148.0
141.299133 180.0
141.355927 212.0
141.457703 120.0
141.856842 164.0
142.064514 3524.0
142.133148 168.0
142.159256 88.0
142.206726 68.0
142.228088 60.0
142.261322 112.0
142.308792 168.0
142.346786 80.0
142.37645 112.0
142.482178 160.0
142.52565 160.0
142.574844 104.0
142.660416 188.0
142.693695 84.0
142.710342 48.0
142.753143 180.0
142.785492 172.0
142.852295 240.0
142.972 140.0
143.004318 204.0
143.073105 27212.0
143.129105 176.0
143.162445 72.0
143.193405 72.0
143.221985 40.0
143.252121 148.0
143.310135 120.0
143.345276 144.0
143.384003 172.0
143.403076 104.0
143.437073 200.0
143.464691 108.0
143.48407 88.0
143.580322 196.0
143.620361 212.0
143.661758 132.0
143.683456 96.0
143.698776 156.0
143.717239 216.0
143.748871 136.0
143.795975 152.0
143.830017 140.0
143.853714 156.0
143.883331 448.0
143.902328 124.0
143.954376 136.0
143.975861 200.0
143.997452 396.0
144.024689 212.0
144.081451 130412.0
144.175842 116.0
144.196228 124.0
144.227951 124.0
144.254517 36.0
144.279251 228.0
144.302872 104.0
144.330704 112.0
144.353241 76.0
144.380753 256.0
144.411377 92.0
144.448639 104.0
144.473907 1276.0
144.504486 184.0
144.525787 200.0
144.567703 72.0
144.579788 48.0
144.601242 72.0
144.648178 132.0
144.68103 200.0
144.6978 48.0
144.719345 40.0
144.739655 140.0
144.773819 192.0
144.805557 60.0
144.830658 104.0
144.882812 132.0
144.91095 52.0
144.937302 176.0
144.973251 140.0
145.015732 68.0
145.02951 116.0
145.084259 17936.0
145.168381 88.0
145.187927 88.0
145.215393 60.0
145.23761 152.0
145.260773 100.0
145.287292 128.0
145.347641 32.0
145.395325 84.0
145.436127 92.0
145.457733 116.0
145.503342 48.0
145.587921 164.0
145.625809 144.0
145.655884 108.0
145.688263 72.0
145.717865 56.0
145.781677 32.0
145.846741 76.0
145.865372 80.0
145.9095 72.0
145.926498 128.0
145.957458 128.0
145.980927 116.0
146.00946 204.0
146.094376 1752.0
146.135742 232.0
146.175537 224.0
146.185593 148.0
146.195221 200.0
146.202744 116.0
146.234116 52.0
146.253357 76.0
146.270218 204.0
146.287064 104.0
146.307816 136.0
146.341064 148.0
146.385773 44.0
146.42012 92.0
146.470078 28.0
146.522568 76.0
146.544754 92.0
146.612228 64.0
146.718277 104.0
146.79303 52.0
146.823578 108.0
146.87262 48.0
146.936325 88.0
146.987457 140.0
147.043167 324.0
147.079697 1396.0
147.128403 160.0
147.148788 72.0
147.197311 52.0
147.304688 88.0
147.386841 36.0
147.507675 76.0
147.563278 112.0
147.604385 84.0
147.643066 136.0
147.882599 80.0
147.914062 152.0
148.049286 160.0
148.060638 96.0
148.067184 212.0
148.10051 156.0
148.122299 36.0
148.202255 160.0
148.421783 84.0
148.454346 116.0
148.585327 36.0
148.696945 96.0
148.71637 68.0
148.745499 44.0
149.027496 136.0
149.107391 76.0
149.20462 108.0
149.367554 136.0
149.706467 80.0
149.900742 248.0
150.08844 172.0
150.234772 80.0
150.576508 156.0
150.820831 56.0
151.004211 72.0
151.79277 96.0
152.480545 124.0
152.598145 52.0
152.632568 92.0
152.866684 276.0
152.900711 88.0
153.031174 76.0
153.0681 88.0
153.761154 152.0
154.067963 336.0
154.144669 164.0
154.395752 148.0
154.447693 104.0
154.554077 76.0
154.68277 156.0
154.774368 76.0
154.853622 108.0
154.960129 52.0
154.997299 104.0
155.060577 2344.0
155.294785 160.0
155.317108 48.0
155.339432 168.0
155.381607 56.0
155.90802 100.0
156.081436 3772.0
156.445282 96.0
156.597168 72.0
157.059631 180.0
157.084625 704.0
157.312805 100.0
157.352753 144.0
157.470108 56.0
157.607513 56.0
157.642487 148.0
157.997543 52.0
158.06131 184.0
158.084808 1992.0
158.150192 72.0
158.242813 104.0
158.272858 144.0
158.555923 136.0
158.573471 92.0
158.708847 116.0
158.954666 168.0
159.085617 536.0
159.368973 76.0
159.404144 84.0
160.078308 396.0
160.360474 80.0
160.47139 44.0
161.05864 1496.0
161.274155 124.0
161.704132 68.0
161.807907 124.0
161.916794 56.0
162.013046 44.0
162.069107 1212.0
162.142273 64.0
162.218307 92.0
162.494736 92.0
162.616547 52.0
162.936493 68.0
162.997482 108.0
163.069901 668.0
163.152512 144.0
163.1754 76.0
163.259308 124.0
163.292374 144.0
163.322891 76.0
163.878738 220.0
164.117447 32.0
164.28833 108.0
164.681427 168.0
164.778503 152.0
164.936951 220.0
165.00853 76.0
165.082672 196.0
165.34874 84.0
165.832794 40.0
166.060989 312.0
166.671967 128.0
166.947021 136.0
167.072159 184.0
168.077408 172.0
168.917542 136.0
169.078552 188.0
169.181488 204.0
169.349808 72.0
170.061295 176.0
170.093643 128.0
170.234177 124.0
170.535538 168.0
170.751328 132.0
171.034927 256.0
171.053162 112.0
171.094711 104.0
171.269272 68.0
171.87149 96.0
172.078156 592.0
172.097321 332.0
172.404205 112.0
172.589798 48.0
172.615952 168.0
173.066193 408.0
173.107986 1416.0
173.944275 124.0
174.068588 160.0
174.112305 156.0
174.548538 92.0
174.827377 144.0
174.95108 64.0
175.040604 164.0
175.073563 1408.0
175.367279 100.0
175.570282 68.0
175.68898 60.0
175.810364 44.0
176.081253 560.0
176.132462 92.0
176.206436 64.0
176.275131 48.0
176.613541 180.0
177.082016 100.0
177.904022 52.0
178.084579 184.0
179.404419 156.0
179.80719 52.0
179.881912 56.0
179.943314 148.0
180.881668 172.0
181.80098 132.0
182.087601 136.0
182.150009 44.0
183.03215 208.0
183.094772 328.0
183.220673 32.0
184.087555 204.0
184.232346 76.0
184.610748 76.0
185.051773 180.0
185.082169 912.0
185.219711 48.0
185.506943 172.0
185.883942 68.0
186.068512 108.0
186.089142 200.0
186.201355 256.0
186.253174 76.0
186.323807 136.0
186.397156 120.0
186.731537 200.0
187.006332 32.0
187.071396 192.0
187.387573 136.0
187.406647 136.0
189.061905 208.0
189.105225 160.0
189.343414 92.0
189.710571 216.0
189.936966 136.0
189.973846 192.0
190.031082 176.0
190.062393 5836.0
190.399292 132.0
190.429489 52.0
190.460693 92.0
190.520691 100.0
190.577835 72.0
190.816803 140.0
191.023209 80.0
191.06955 12884.0
191.169037 40.0
191.189499 64.0
191.243347 48.0
191.273621 68.0
191.350708 52.0
191.408524 48.0
191.458084 64.0
191.484894 60.0
191.526947 44.0
191.573776 44.0
191.609589 48.0
191.634384 32.0
191.777679 64.0
191.824539 80.0
191.890701 60.0
192.072876 1664.0
192.406631 100.0
192.518127 148.0
192.832016 44.0
192.961945 44.0
193.073822 488.0
193.219147 64.0
193.257889 140.0
193.310455 52.0
193.382416 60.0
193.626053 132.0
194.002884 120.0
194.457794 72.0
194.943802 148.0
199.055832 120.0
201.051727 160.0
201.097946 304.0
201.195679 28.0
201.243683 72.0
203.069839 3420.0
203.863846 52.0
203.883743 64.0
204.072678 388.0
204.116852 80.0
204.819809 112.0
204.856842 188.0
206.689789 68.0
207.004654 60.0
209.068695 156.0
209.322021 44.0
209.555328 52.0
210.920349 52.0
211.177689 68.0
212.675659 52.0
213.038635 52.0
213.288528 88.0
215.217133 104.0
216.067642 188.0
222.083023 100.0
223.092621 180.0
223.11937 128.0
223.250198 88.0
225.378571 72.0
227.078934 172.0
228.101517 160.0
229.285706 152.0
230.057877 88.0
230.09108 204.0
231.033997 112.0
231.064362 556.0
231.20343 88.0
231.285156 56.0
232.063721 148.0
233.117004 84.0
235.649109 112.0
238.059769 100.0
238.084335 156.0
239.496033 84.0
240.424042 100.0
241.106552 72.0
241.322937 184.0
241.895279 60.0
243.690903 72.0
244.067001 144.0
246.929764 84.0
247.937866 112.0
248.053833 128.0
248.093643 400.0
248.223145 56.0
248.511703 64.0
249.1082 132.0
254.219986 84.0
255.834641 52.0
258.15744 80.0
258.199036 76.0
260.103668 172.0
260.847443 60.0
261.095032 216.0
261.75473 48.0
264.033051 112.0
264.923157 156.0
266.220551 56.0
272.098053 136.0
273.636688 92.0
274.099976 356.0
275.896606 116.0
276.108246 132.0
281.21814 124.0
281.819244 92.0
282.130035 144.0
282.41095 52.0
282.534698 112.0
283.385101 68.0
285.294739 68.0
285.446045 48.0
291.221741 80.0
292.398102 108.0
295.092957 148.0
295.801117 64.0
297.123901 48.0
301.863373 84.0
304.049316 84.0
309.704529 88.0
311.230042 140.0
313.114929 52.0
315.126953 136.0
316.122742 156.0
328.092255 176.0
334.653595 84.0
338.868469 136.0
343.098663 116.0
344.109558 128.0
346.228363 48.0
356.126953 120.0
366.702271 40.0
374.141266 100.0
375.227692 188.0
378.899231 104.0
388.379883 40.0
391.160095 368.0
392.170868 124.0
398.362885 80.0
414.249146 100.0
415.092163 104.0
421.940735 56.0
445.22995 40.0
462.593567 64.0
463.76297 56.0
474.046112 64.0
476.836609 152.0
481.815033 20.0
483.723877 72.0
484.945953 60.0
495.756927 44.0
511.883881 44.0
554.122009 32.0
556.199463 92.0
567.981934 108.0
605.494629 68.0
633.171143 56.0
637.274475 164.0
642.137329 132.0
648.173401 160.0
697.820374 148.0
700.288391 80.0
700.45166 36.0
743.714355 100.0
745.463135 120.0
763.778748 192.0
770.250061 224.0
772.920349 196.0
786.592285 224.0
787.14502 76.0
787.949341 72.0
795.92511 44.0
796.840637 188.0
803.241455 164.0
811.91217 76.0
812.621216 176.0
816.825134 56.0
817.724182 48.0
819.631897 112.0
827.680176 152.0
828.22998 228.0
832.232849 96.0
834.680664 180.0
835.307556 156.0
836.867126 52.0
837.333557 164.0
838.514648 144.0
839.281372 224.0
841.508484 96.0
846.996582 88.0
848.190247 56.0
849.529785 128.0
852.403748 116.0
853.263977 112.0
853.438416 224.0
856.120972 216.0
869.784668 160.0
870.694763 208.0
874.916626 132.0
880.51239 144.0
880.878601 60.0
883.550659 68.0
883.615784 124.0
886.054993 224.0
886.327515 208.0
893.993713 160.0
896.095642 152.0
897.359192 204.0
897.82428 108.0
898.217896 124.0
903.678223 184.0
905.833435 88.0
911.088501 44.0
913.469055 212.0
916.913086 172.0
917.148193 112.0
919.548706 208.0
921.75293 128.0
923.602905 148.0
925.321533 104.0
930.541687 160.0
933.774475 132.0
935.599915 188.0
936.945862 196.0
938.384155 192.0
940.92218 192.0
943.402527 184.0
944.858032 224.0
951.341858 128.0
951.427795 172.0
955.18866 148.0
958.919983 200.0
973.222412 176.0
977.729187 136.0
979.098816 216.0
981.223633 104.0
984.468323 172.0
984.561951 180.0
987.774597 140.0
988.093628 48.0
988.96344 176.0
990.654114 196.0
995.653198 64.0
996.199646 188.0
998.462402 140.0
998.776855 248.0
999.355652 76.0
999.796143 180.0
1003.102844 140.0
1003.720703 48.0
1006.547607 160.0
1007.059143 132.0
1008.455444 128.0
1008.809448 104.0
1009.909668 164.0
1013.106323 224.0
1017.679016 180.0
1017.748901 200.0
1020.525513 140.0
1021.689392 204.0
1022.007507 136.0
1025.535522 136.0
1026.498169 160.0
1026.91272 152.0
1027.818604 120.0
1028.131348 76.0
1030.283081 76.0
1030.423584 32.0
1033.275024 180.0
1035.822998 180.0
1038.014893 200.0
1040.356689 164.0
1041.640991 108.0
1042.052124 204.0
1043.119019 160.0
1043.877686 260.0
1047.056763 144.0
1048.989746 112.0
1049.621582 144.0
1049.989136 152.0
1051.414917 128.0
1052.389648 180.0
1054.101318 100.0
1057.457764 176.0
1057.645386 140.0
1063.388062 132.0
1065.102173 172.0
1065.433472 160.0
1068.261353 152.0
1068.74939 56.0
1069.517212 180.0
1076.10144 188.0
1076.969971 212.0
1080.270996 128.0
1083.59021 136.0
1085.123779 156.0
1086.809448 92.0
1087.833252 156.0
1089.895508 240.0
1091.959595 160.0
1096.2323 112.0
1096.785889 224.0
1096.838623 60.0
1098.269409 72.0
1098.361816 140.0
1100.03125 108.0
1100.295288 160.0
1100.348145 144.0
1100.948975 156.0
1101.609497 148.0
1106.503296 204.0
1106.576172 80.0
1109.782959 76.0
1109.942017 160.0
1110.923706 208.0
1111.14917 156.0
1112.549561 148.0
1116.649292 208.0
1117.387695 192.0
1120.403564 196.0
1123.43689 164.0
1126.828369 116.0
1128.352173 68.0
1130.231567 220.0
1130.840576 192.0
1131.061401 200.0
1133.197754 204.0
1133.800781 60.0
1134.605103 204.0
1136.449585 220.0
1139.255859 48.0
1139.605225 200.0
1140.095825 140.0
1141.835815 164.0
1141.984985 160.0
1142.180054 44.0
1144.205566 148.0
1144.744263 144.0
1144.88562 228.0
1145.067505 40.0
1145.148315 128.0
1145.411011 60.0
1147.163086 148.0
1149.273926 136.0
1150.71167 220.0
1150.907471 44.0
1151.643555 228.0
1152.58252 156.0
1156.234253 100.0
1157.249634 148.0
1158.251953 188.0
1163.609253 112.0
1163.744995 156.0
1166.748047 92.0
1166.931641 68.0
1169.223145 164.0
1169.673218 128.0
1170.033936 156.0
1170.231445 168.0
1170.442505 160.0
1172.622437 220.0
1173.426758 244.0
1177.719116 204.0
1178.34082 184.0
1180.52124 72.0
1180.835815 172.0
1184.401855 148.0
1185.059448 244.0
1185.943481 152.0
1187.074707 188.0
1187.136475 212.0
1187.623413 72.0
1187.890869 152.0
1190.952271 192.0
1191.378174 176.0
1191.577393 180.0
1191.852295 112.0
1193.715088 144.0
1194.437256 236.0
1196.364014 132.0
1198.237305 184.0
1199.429443 248.0
1200.032227 204.0
1201.098145 212.0
1201.587891 92.0
1201.677612 56.0
1203.485962 140.0
1203.541138 104.0
1204.107422 164.0
1204.604736 180.0
1205.772461 120.0
1206.125 20.0
1208.220215 168.0
1209.223633 188.0
1211.868896 260.0
1213.879028 184.0
1217.779297 260.0
1218.807495 196.0
1219.96814 168.0
1221.025024 184.0
1222.472046 120.0
1223.000977 180.0
1223.536987 168.0
1224.400391 156.0
1224.894897 148.0
1225.382568 168.0
1225.487061 40.0
1225.870361 168.0
1226.023682 140.0
1226.943726 128.0
1228.003662 92.0
1228.701172 64.0
1230.494873 188.0
1230.976562 128.0
1231.35376 188.0
1233.561646 176.0
1233.932251 216.0
1234.890259 136.0
1238.677002 172.0
1239.377563 116.0
1239.805054 168.0
1240.351685 168.0
1241.038696 128.0
1241.887207 180.0
1242.048584 180.0
1243.227295 160.0
1244.378418 168.0
1244.561035 200.0
1244.961304 148.0
1246.858032 116.0
1247.125122 128.0
1248.376587 124.0
1250.976929 160.0
1251.44458 176.0
1252.708618 116.0
1253.289917 108.0
1253.769043 124.0
1254.11438 172.0
1254.262451 116.0
1254.896973 84.0
1255.623291 40.0
1255.926514 200.0
1256.427368 164.0
1257.528198 208.0
1257.994019 172.0
1258.050537 156.0
1258.256592 88.0
1258.594116 168.0
1258.911865 156.0
1259.314453 148.0
1259.80188 260.0
1261.957397 180.0
1262.148315 176.0
1262.367554 200.0
1262.876709 168.0
1263.478027 120.0
1264.150146 100.0
1264.256348 116.0
1264.327148 72.0
1265.169434 192.0
1266.713135 300.0
1267.272827 164.0
1267.659424 156.0
1269.016357 72.0
1269.534058 168.0
1270.229126 176.0
1272.762817 168.0
1273.266968 132.0
1273.700195 140.0
1274.090942 236.0
1274.609619 68.0
1274.787231 252.0
1274.986206 164.0
1276.728027 32.0
1276.813354 156.0
1277.453491 144.0
1277.823364 128.0
1278.371338 260.0
1280.314697 176.0
1280.404419 192.0
1280.592529 200.0
1281.72522 52.0
1283.307617 256.0
1285.012207 32.0
1285.618652 148.0
1286.275391 128.0
1287.13208 112.0
1287.39624 228.0
1289.00354 124.0
1290.754883 140.0
1292.042358 124.0
1292.464478 156.0
1292.74353 200.0
1293.223022 28.0
1294.046265 148.0
1294.125 148.0
1295.564575 212.0
1295.772339 132.0
1295.980103 148.0
1296.273926 164.0
1296.38855 204.0
1296.546143 56.0
1296.675171 132.0
1297.922485 208.0
1299.156128 164.0
1299.880859 184.0
1300.340088 216.0
1300.519531 192.0
1301.402466 108.0
1301.481445 228.0
1301.531738 120.0
1302.285767 160.0
1305.275391 52.0
1308.520508 196.0
1308.988525 256.0
1309.845581 208.0
1310.414673 192.0
1310.645264 152.0
1310.724487 152.0
1310.803711 180.0
1312.468872 136.0
1312.764526 120.0
1312.829346 180.0
1313.060181 120.0
1313.904053 184.0
1314.733887 168.0
1315.527832 164.0
1316.148804 140.0
1318.013672 148.0
1319.233765 64.0
1320.911377 164.0
1321.070557 52.0
1321.128418 168.0
1321.21521 212.0
1325.443604 156.0
1328.524902 136.0
1329.410156 224.0
1329.714966 180.0
1332.997437 100.0
1335.050659 180.0
1335.229248 180.0
1336.022095 128.0
1338.336548 200.0
1338.554932 100.0
1339.392456 116.0
1341.119385 52.0
1342.330566 144.0
1342.541016 136.0
1342.643188 176.0
1343.21936 128.0
1344.737061 160.0
1344.882935 136.0
1345.919678 112.0
1346.533081 156.0
1347.526489 192.0
1347.69458 160.0
1347.942993 188.0
1349.251343 164.0
1349.653442 112.0
1349.77771 160.0
1350.041016 116.0
1350.370117 128.0
1351.840576 168.0
1352.374878 240.0
1356.344849 168.0
1356.454834 224.0
1356.98999 156.0
1357.143921 156.0
1357.217285 180.0
1357.299194 112.0
1357.935913 156.0
1358.009277 204.0
1358.882202 212.0
1359.660034 196.0
1359.968262 196.0
1360.592285 208.0
1360.805176 100.0
1360.907959 200.0
1361.620239 132.0
1361.936035 188.0
1362.516357 168.0
1363.229126 212.0
1366.265747 172.0
1367.251709 140.0
1367.325317 96.0
1367.487305 184.0
1367.66394 156.0
1368.473633 136.0
1368.643066 140.0
1369.401489 160.0
1369.563599 176.0
1369.939209 120.0
1370.594971 152.0
1371.324585 164.0
1371.8479 140.0
1373.359497 176.0
1374.510376 48.0
1375.122925 232.0
1375.710571 252.0
1377.581787 108.0
1377.988037 132.0
1378.431396 152.0
1379.399658 192.0
1379.990967 48.0
1381.773438 168.0
1382.417236 192.0
1382.683594 124.0
1382.816895 140.0
1384.704834 136.0
1385.03418 120.0
1385.682617 168.0
1385.907959 184.0
1386.816406 160.0
1386.986816 196.0
1388.55127 144.0
1388.697754 204.0
1388.788696 200.0
1388.855347 164.0
1389.337524 148.0
1389.508179 148.0
1389.696411 152.0
1389.775269 140.0
1390.458008 164.0
1390.777222 188.0
1391.3479 164.0
1391.601196 164.0
1392.50708 84.0
1392.596313 176.0
1393.443115 168.0
1395.464722 176.0
1395.52417 168.0
1396.505737 140.0
1396.758667 172.0
1397.591919 112.0
1397.7854 56.0
1398.142578 120.0
1398.61145 48.0
1398.819824 184.0
1399.221924 72.0
1399.333496 172.0
1399.601562 68.0
1399.735596 128.0
1400.666626 184.0
1400.837891 212.0
1401.359375 212.0
1402.328125 160.0
1402.887207 128.0
1404.162231 152.0
1404.908203 64.0
1406.012451 120.0
1406.355835 172.0
1406.452881 184.0
1406.631958 148.0
1408.229858 168.0
1409.372803 132.0
1409.44751 108.0
1409.664307 200.0
1410.120117 184.0
1410.605957 204.0
1411.278809 128.0
1411.585449 104.0
1412.96167 120.0
1413.178589 52.0
1413.380615 172.0
1413.455444 176.0
1413.545288 232.0
1413.642578 220.0
1413.919434 112.0
1414.458374 212.0
1415.019775 92.0
1415.40918 128.0
1415.641235 176.0
1416.075684 148.0
1416.510132 188.0
1416.697388 212.0
1416.899658 140.0
1417.978638 176.0
1418.218506 228.0
1418.443359 28.0
1419.432983 196.0
1419.979492 224.0
1420.460449 140.0
1420.588013 168.0
1421.938599 140.0
1423.147217 160.0
1424.258667 124.0
1424.396973 228.0
1424.641724 40.0
1424.927246 132.0
1426.776123 72.0
1428.077026 124.0
1428.174805 148.0
1428.859253 216.0
1429.032349 192.0
1429.951538 180.0
1431.049438 152.0
1431.448486 140.0
1431.870239 124.0
1432.623535 136.0
1433.173462 136.0
1433.482422 116.0
1433.919556 160.0
1434.168213 184.0
1434.605469 152.0
1435.178467 196.0
1436.363159 156.0
1437.026367 160.0
1437.160522 200.0
1437.803589 164.0
1438.928223 184.0
1438.996216 404.0
1439.358643 156.0
1440.529297 120.0
1442.297485 188.0
1442.728394 136.0
1443.076172 148.0
1443.658325 232.0
1444.702148 96.0
1444.845825 196.0
1445.284668 196.0
1446.018799 196.0
1446.972534 172.0
1447.222412 52.0
1447.494995 96.0
1447.7146 120.0
1448.381104 176.0
1448.494751 152.0
1448.812866 220.0
1449.070435 108.0
1449.714478 128.0
1450.161621 160.0
1450.714966 160.0
1450.881836 180.0
1450.957642 152.0
1451.420044 120.0
1451.518677 180.0
1453.210083 220.0
1453.369019 140.0
1453.528809 152.0
1453.733643 216.0
1454.20874 156.0
1454.538208 196.0
1455.008911 168.0
1455.062012 152.0
1455.62854 132.0
1455.673828 188.0
1455.813721 264.0
1456.968262 156.0
1457.948486 148.0
1460.160767 192.0
1460.472534 252.0
1461.842041 136.0
1462.382324 64.0
1463.341553 192.0
1464.224854 164.0
1465.420776 232.0
1467.028809 200.0
1467.604858 172.0
1467.776001 48.0
1467.867554 96.0
1468.386108 244.0
1468.573853 156.0
1469.257812 196.0
1469.698242 180.0
1470.194214 228.0
1471.117798 208.0
1472.087402 144.0
1473.166992 196.0
1473.355347 176.0
1473.67627 160.0
1474.63855 128.0
1476.443359 160.0
1476.971069 96.0
1477.062866 244.0
1477.575439 192.0
1478.876953 228.0
1479.45813 144.0
1479.748169 196.0
1480.685791 152.0
1480.813354 216.0
1480.912964 176.0
1481.878174 152.0
1482.440918 168.0
1482.50647 76.0
1483.311279 84.0
1484.346313 200.0
1484.592041 200.0
1484.883179 168.0
1484.936768 116.0
1485.466064 200.0
1485.785278 168.0
1486.095093 132.0
1486.609253 204.0
1487.077393 132.0
1487.783569 56.0
1488.420898 140.0
1488.958374 192.0
1489.42688 140.0
1489.823486 256.0
1490.164429 168.0
1490.748413 188.0
1490.971191 180.0
1491.040405 168.0
1491.647583 212.0
1492.078125 232.0
1493.669922 168.0
1494.470093 104.0
1494.901001 152.0
1495.501221 160.0
1495.847656 112.0
1495.940063 56.0
1497.475098 232.0
1497.533936 208.0
1497.72644 164.0
1498.435181 116.0
1499.737549 68.0
1499.884033 140.0
1500.408203 52.0
1500.493042 164.0
1500.947876 176.0
1501.264038 152.0
1501.395142 104.0
1502.613892 72.0
1503.31604 144.0
1503.393188 168.0
