>compound Sulfameter (Bayrena)
>formula C11H12N4O3S
>ionization [M+H]+
>parentmass 281.07028769609053
#inchi InChI=1S/C11H12N4O3S/c1-18-9-6-13-11(14-7-9)15-19(16,17)10-4-2-8(12)3-5-10/h2-7H,12H2,1H3,(H,13,14,15)
#inchikey GPTONYMQFTZPKC
#Ion_Source LC-ESI
#Instrument qTof
#Compound_Source Commercial
#PI Dorrestein
#Data_Collector Garg_Neha
#Scan -1
#Precursor_MZ 281.07
#ExactMass 280.063
#Charge 1
#CAS_Number 651-06-9
#Pubmed_ID N/A
#Smiles C1(=CC=C(C=C1)S(NC2=NC=C(C=N2)OC)(=O)=O)N
#INCHI_AUX N/A
#Library_Class 1
#SpectrumID CCMSLIB00000078209
#IonMode Positive
#UpdateWorkflowName UPDATE-SINGLE-ANNOTATED-GOLD
#LibraryQualityString Gold
#TaskID 77f51c88eb8b467eb4a01dd2d0cb90d2
##Scan# 1081
#SpectrumFile Plate3_41_60_GG11_01_16500.mzXML
#LibraryName FDALibrary_2_04302014.mgf
#MQScore -1
#Organism FDALibrary_2_04302014
#TIC_Query 0
#RT_Query -1
#MZErrorPPM -1
#SharedPeaks 0
#MassDiff 0
#LibMZ -1
#SpecMZ 281.07
#SpecCharge 0
#internalFilename spec-00000.mgf

>collision 10
45.574425 140.0
45.873196 140.0
45.955463 216.0
46.002937 136.0
46.613529 144.0
47.042549 160.0
47.385815 144.0
47.91338 164.0
48.03883 204.0
48.11335 188.0
48.348328 168.0
49.460396 148.0
49.524803 208.0
49.778645 200.0
49.854504 196.0
50.162216 216.0
50.193756 144.0
50.306625 152.0
50.413971 172.0
50.69558 212.0
51.006401 176.0
51.09457 176.0
51.198479 156.0
51.535122 148.0
51.547981 188.0
51.743935 148.0
52.952091 204.0
53.175365 220.0
53.227627 160.0
53.422379 200.0
53.454388 184.0
54.03072 148.0
54.673405 168.0
54.761738 156.0
54.931248 148.0
55.111359 224.0
55.628223 200.0
55.719738 252.0
55.793121 244.0
55.929977 376.0
55.949329 176.0
56.574844 248.0
57.000797 224.0
57.071442 228.0
57.432873 164.0
57.641212 144.0
58.106045 152.0
58.128803 200.0
58.601688 156.0
58.674843 172.0
58.890003 196.0
58.935833 184.0
59.061188 156.0
59.3353 172.0
59.803818 140.0
59.840763 196.0
59.942425 232.0
60.213936 160.0
60.3391 164.0
60.427254 184.0
60.506184 316.0
60.976189 260.0
60.994839 164.0
61.234451 168.0
61.918518 192.0
62.600082 192.0
63.100266 156.0
63.125565 140.0
63.137417 184.0
63.383583 216.0
63.431129 200.0
63.577045 204.0
63.966446 176.0
64.440094 188.0
64.452873 200.0
64.731201 208.0
64.893036 156.0
65.053001 180.0
65.535942 172.0
66.167442 184.0
66.535461 176.0
67.372543 164.0
67.616173 152.0
68.494591 208.0
68.6017 228.0
69.092178 160.0
69.423447 176.0
69.463249 148.0
69.559494 164.0
69.665771 148.0
69.777115 196.0
70.231728 220.0
70.340187 168.0
71.011147 212.0
71.491631 164.0
71.686974 144.0
72.134239 160.0
72.247536 148.0
72.76104 248.0
72.77462 200.0
72.879929 148.0
73.810593 160.0
73.839668 276.0
73.879005 180.0
74.002228 248.0
74.19754 184.0
74.688667 180.0
74.82634 180.0
74.927948 172.0
75.153809 152.0
75.571938 140.0
75.7901 180.0
75.814362 140.0
75.986023 228.0
76.140511 140.0
76.512619 188.0
77.151131 192.0
77.217575 180.0
77.235069 172.0
77.402771 160.0
77.741394 140.0
78.580719 184.0
78.624832 204.0
78.865028 148.0
79.045418 140.0
79.057808 164.0
79.077271 212.0
79.264992 160.0
79.488419 148.0
80.026993 176.0
80.094666 160.0
80.290718 168.0
81.301506 152.0
81.463097 160.0
81.490051 200.0
81.977676 192.0
82.421577 228.0
82.473984 140.0
83.265747 220.0
84.117874 144.0
84.338898 208.0
84.40654 148.0
84.450432 188.0
84.463234 164.0
84.508965 216.0
84.756149 204.0
85.047745 236.0
85.069771 148.0
85.752182 252.0
85.88678 168.0
86.280106 148.0
86.744759 200.0
86.887558 236.0
87.232971 180.0
87.502724 180.0
88.095963 192.0
88.135002 176.0
88.400528 152.0
88.544678 300.0
88.792061 184.0
89.619179 196.0
90.324051 172.0
90.789268 152.0
91.300117 232.0
91.936409 164.0
92.008942 172.0
92.050461 876.0
92.125435 168.0
92.142632 188.0
92.242004 204.0
93.058655 652.0
93.638847 232.0
93.937607 180.0
94.039017 216.0
94.064148 708.0
94.124817 144.0
94.573326 164.0
95.019028 176.0
95.065338 152.0
95.376335 164.0
95.642815 180.0
95.855095 168.0
96.190552 144.0
96.227638 204.0
96.303802 212.0
96.395622 152.0
97.039062 224.0
97.155304 144.0
97.245567 196.0
97.379074 176.0
97.441933 180.0
97.483192 156.0
98.434647 168.0
98.731064 144.0
99.05764 152.0
99.656776 144.0
99.762108 208.0
100.942429 212.0
101.270638 156.0
101.438957 184.0
102.031166 156.0
102.069366 180.0
102.538414 176.0
102.766281 176.0
103.301651 196.0
104.224113 180.0
104.518944 188.0
104.679756 184.0
104.948723 244.0
104.975227 160.0
105.016022 164.0
105.424332 200.0
105.970673 160.0
106.102234 144.0
106.471184 204.0
106.497879 208.0
107.084061 220.0
107.706955 160.0
107.845886 236.0
107.882599 228.0
108.018127 204.0
108.045425 9324.0
108.125069 108.0
109.027725 200.0
109.048859 704.0
109.4813 96.0
109.844994 152.0
109.982201 180.0
110.03698 420.0
110.062042 344.0
110.105896 244.0
110.653748 164.0
110.806641 208.0
111.043221 464.0
111.234108 124.0
112.10939 172.0
113.341347 164.0
113.701851 204.0
113.750298 208.0
113.933296 140.0
114.31176 184.0
114.333038 164.0
115.401733 152.0
115.542885 156.0
115.765488 228.0
115.868301 240.0
115.9133 232.0
116.106232 144.0
116.387344 168.0
116.522652 172.0
117.270538 160.0
117.383614 204.0
117.564819 216.0
118.227623 176.0
118.646301 144.0
118.680992 140.0
119.039024 144.0
119.512886 180.0
119.667419 148.0
120.299652 184.0
120.328033 160.0
120.413193 188.0
120.585793 152.0
121.654709 208.0
121.951248 196.0
122.193138 180.0
122.338387 156.0
122.935692 176.0
122.98645 164.0
123.605255 160.0
123.658897 200.0
123.90416 188.0
124.051582 1296.0
124.110275 180.0
124.568565 216.0
124.791916 236.0
124.838615 164.0
124.883095 196.0
125.021027 144.0
125.05764 852.0
125.658302 196.0
125.731941 164.0
126.011063 144.0
126.066757 11744.0
126.098213 148.0
126.370438 168.0
126.467247 156.0
126.691833 152.0
127.068695 716.0
127.112686 140.0
127.597839 140.0
127.783813 108.0
127.912308 132.0
128.068481 244.0
128.153748 152.0
128.697327 200.0
129.450302 148.0
129.762985 152.0
129.808334 152.0
129.828751 152.0
130.178223 184.0
130.646439 212.0
131.211227 168.0
131.311554 192.0
131.685852 180.0
131.953217 172.0
132.028671 152.0
132.065536 172.0
132.181946 220.0
132.32843 232.0
132.410873 188.0
132.933548 168.0
133.041428 148.0
133.135574 160.0
133.356125 168.0
133.390594 164.0
133.523956 156.0
133.864548 180.0
134.868134 236.0
135.233582 156.0
135.873138 156.0
136.093628 172.0
136.877213 156.0
136.989014 152.0
137.233719 160.0
137.389969 152.0
138.858932 160.0
138.992645 164.0
139.019821 208.0
139.168686 196.0
140.019333 216.0
140.878525 188.0
140.942307 152.0
140.982483 188.0
141.02739 176.0
141.216537 156.0
141.525146 184.0
141.614166 168.0
141.642578 200.0
142.026581 268.0
142.463348 192.0
143.069763 160.0
143.229309 148.0
143.849289 192.0
144.049881 140.0
145.06929 148.0
145.606766 184.0
145.84462 144.0
146.053802 152.0
146.335373 224.0
146.381119 152.0
146.597916 236.0
146.634064 204.0
146.72084 148.0
146.778702 148.0
146.913773 200.0
147.345901 200.0
147.652893 144.0
148.447205 164.0
148.818466 172.0
149.131836 196.0
149.934998 156.0
149.952057 168.0
150.393509 216.0
151.049896 172.0
151.217194 172.0
151.300415 204.0
151.488617 160.0
151.622482 152.0
151.93515 220.0
152.239502 192.0
152.381973 184.0
153.275131 168.0
153.361374 244.0
153.763397 152.0
153.847321 140.0
154.007828 172.0
154.415634 152.0
155.027878 132.0
155.17337 256.0
155.475998 252.0
155.539215 220.0
155.587692 172.0
155.690247 196.0
155.754547 184.0
155.793808 152.0
155.855637 176.0
155.923019 228.0
155.973495 116.0
156.012161 31668.0
156.085114 168.0
156.220108 116.0
156.505112 148.0
156.598953 100.0
156.627884 108.0
156.973557 180.0
157.014008 1040.0
157.06311 152.0
157.897552 144.0
158.010956 920.0
158.078506 308.0
159.015503 276.0
160.093857 156.0
160.209335 176.0
160.393295 152.0
162.154984 152.0
162.378098 188.0
162.784134 144.0
163.07782 160.0
163.557022 164.0
163.656296 180.0
164.433792 168.0
165.443451 188.0
166.34581 184.0
167.177322 200.0
167.443726 180.0
167.52356 248.0
167.616318 156.0
167.660126 172.0
168.062393 160.0
168.261124 208.0
168.677048 232.0
168.855453 156.0
169.108994 176.0
170.039444 168.0
170.78772 160.0
171.060944 140.0
172.07457 2404.0
172.12204 152.0
173.072678 380.0
174.022537 400.0
174.737854 224.0
175.177505 180.0
176.468018 152.0
176.502396 168.0
176.743088 232.0
177.066055 172.0
177.105789 140.0
177.566956 140.0
177.890671 232.0
178.103088 240.0
178.156219 168.0
180.715637 152.0
182.824753 192.0
183.058731 148.0
183.854202 148.0
185.058243 604.0
185.086716 208.0
185.262909 184.0
185.598984 144.0
185.840393 140.0
185.97879 192.0
186.065475 260.0
186.473114 172.0
187.076965 192.0
187.102417 132.0
188.013168 6964.0
188.244888 120.0
189.016617 444.0
189.099579 188.0
189.677521 164.0
189.932526 232.0
190.011887 384.0
190.099884 204.0
190.467773 168.0
191.091812 168.0
191.887756 140.0
192.224274 180.0
192.381592 140.0
192.759964 144.0
193.969421 184.0
194.663025 148.0
194.699127 180.0
195.987076 188.0
196.168228 168.0
197.682007 148.0
197.723999 140.0
198.066223 208.0
198.20845 160.0
198.676682 164.0
199.064011 228.0
199.086472 152.0
199.305573 212.0
200.069702 1496.0
200.459259 156.0
200.870895 216.0
201.080078 116.0
201.155899 164.0
201.814148 212.0
202.043243 204.0
202.083328 188.0
202.360214 176.0
202.952377 204.0
203.63913 192.0
203.695938 168.0
203.914719 244.0
204.154495 164.0
205.198532 156.0
206.02388 3604.0
206.517822 164.0
206.685852 164.0
207.027603 328.0
207.127502 180.0
207.170471 140.0
207.457031 144.0
207.746674 140.0
207.835617 176.0
208.02597 320.0
208.294952 164.0
209.128815 172.0
209.422485 176.0
209.722137 164.0
209.857635 224.0
210.836182 184.0
211.174454 200.0
211.267014 164.0
212.596939 156.0
212.669495 140.0
213.142868 200.0
214.886932 152.0
214.945297 208.0
215.093002 12616.0
215.371536 140.0
215.897598 148.0
216.004791 192.0
216.097427 1560.0
216.600037 184.0
217.108093 2024.0
217.215607 148.0
217.262543 140.0
217.514908 172.0
217.958374 204.0
218.114136 240.0
218.487595 176.0
219.273804 224.0
219.530273 208.0
219.907913 152.0
220.735092 176.0
221.608276 160.0
221.824615 168.0
221.875015 144.0
221.937271 188.0
222.542557 180.0
222.80986 168.0
223.413345 164.0
225.093735 136.0
225.36615 224.0
225.434875 184.0
230.546677 192.0
230.985077 140.0
231.103073 160.0
231.829788 192.0
233.773315 164.0
233.822006 184.0
234.041183 176.0
235.260696 152.0
237.338089 156.0
237.764481 220.0
239.634079 200.0
240.013184 196.0
240.463577 144.0
240.488266 200.0
240.759964 140.0
241.557373 140.0
243.258896 172.0
244.975159 184.0
245.308578 180.0
245.838806 144.0
246.021332 192.0
246.063538 212.0
246.385223 172.0
247.946609 144.0
248.140961 152.0
248.319702 160.0
248.617737 156.0
249.217499 164.0
249.580582 232.0
249.764511 176.0
250.337311 180.0
250.995895 168.0
251.021118 192.0
251.295532 160.0
251.55748 140.0
251.958542 176.0
253.01799 144.0
253.499435 148.0
255.544296 152.0
256.923798 140.0
256.98761 172.0
257.396179 192.0
258.009613 200.0
258.326233 208.0
258.364594 140.0
258.71344 184.0
258.809479 208.0
259.838318 184.0
263.057465 784.0
263.615234 156.0
264.058105 304.0
264.210144 156.0
267.689606 188.0
270.000061 160.0
270.078552 164.0
272.277771 144.0
273.191528 216.0
273.675323 172.0
274.192505 184.0
275.066559 148.0
275.340607 148.0
276.031281 252.0
276.097412 188.0
276.861877 164.0
276.964539 192.0
277.236237 188.0
278.533478 148.0
278.582062 156.0
278.935547 180.0
279.21817 212.0
279.932709 148.0
279.993591 216.0
280.13681 152.0
280.188324 104.0
280.278595 112.0
280.35672 148.0
280.550049 316.0
280.651642 236.0
280.75177 352.0
280.802002 312.0
280.833496 348.0
280.86499 248.0
280.902618 160.0
280.998749 324.0
281.024475 288.0
281.072327 124756.0
281.201355 124.0
281.300903 120.0
281.420105 220.0
281.506989 116.0
281.55835 108.0
281.58493 228.0
281.618805 372.0
281.645416 236.0
281.701782 112.0
281.738098 208.0
281.960022 104.0
282.073883 12300.0
282.136841 212.0
282.228821 108.0
282.343567 168.0
282.69397 144.0
283.067535 5128.0
283.514465 100.0
283.638428 228.0
283.700256 144.0
283.885284 172.0
283.944672 156.0
283.984009 128.0
284.035553 124.0
284.069733 360.0
284.104156 168.0
284.235443 124.0
284.301575 132.0
285.018158 172.0
285.075287 168.0
288.530121 152.0
294.278717 140.0
296.481476 100.0
909.633728 140.0
980.735413 156.0
1050.54126 176.0
1105.533936 152.0
1163.503906 192.0
1232.097046 156.0
1236.565308 192.0
1244.353271 156.0
1260.03064 192.0
1266.064331 140.0
1274.640625 196.0
1288.084595 164.0
1344.148193 176.0
1372.874878 140.0
1386.692383 232.0
1404.611694 148.0
1410.136963 160.0
1440.259033 184.0
1444.166748 172.0
1448.557007 212.0
1452.134521 176.0
1471.577393 164.0
1489.320801 220.0
1498.883423 156.0
1502.769531 184.0
1513.242188 160.0
1520.614136 216.0
1551.958374 148.0
1553.974121 212.0
1560.296387 164.0
1572.363892 204.0
1579.308716 140.0
1601.246338 188.0
1602.162354 220.0
1603.309692 176.0
1609.404175 176.0
1650.358643 216.0
1666.292969 160.0
1681.153076 148.0
1687.957642 164.0
1713.088745 148.0
1719.536743 244.0
1723.260864 172.0
1730.166748 160.0
1732.891479 152.0
1739.144165 192.0
1740.912476 204.0
1750.925293 264.0
1753.341309 160.0
1755.550537 176.0
1775.848022 200.0
1784.026611 148.0
1786.246704 180.0
1789.124634 184.0
1794.828613 160.0
1796.262329 176.0
1797.645996 164.0
1803.008423 176.0
1803.743774 156.0
1804.597656 168.0
1810.664795 188.0
1816.759277 192.0
1818.982544 204.0
1820.519287 148.0
1823.747681 156.0
1825.779663 168.0
1832.325439 152.0
1849.566772 152.0
1872.396729 216.0
1879.154785 152.0
1883.08252 156.0
1883.514404 144.0
1887.524414 180.0
1899.025024 168.0
1899.831787 148.0
1907.099731 184.0
1909.864746 212.0
1911.065186 144.0
1912.657837 200.0
1915.740356 164.0
1916.428589 216.0
1924.444214 216.0
1924.950562 212.0
1925.780273 148.0
1927.387695 148.0
1929.057007 156.0
1930.884399 176.0
1931.662842 260.0
1944.736084 196.0
1947.528198 188.0
1956.136597 196.0
1959.342041 192.0
1973.012451 204.0
1973.392578 144.0
1974.002686 164.0
1975.674316 144.0
1975.895508 172.0
1977.205078 152.0
1987.830444 220.0
1992.856201 160.0
1998.208496 144.0
2000.112915 200.0
