>compound MLS001141236-01!1-[2-(6-oxobenzo[c]chromen-3-yl)oxyacetyl]piperidine-4-carboxylic acid
>formula C21H19NO6
>ionization [M+H]+
>parentmass 382.129
#inchi InChI=1S/C21H19NO6/c23-19(22-9-7-13(8-10-22)20(24)25)12-27-14-5-6-16-15-3-1-2-4-17(15)21(26)28-18(16)11-14/h1-6,11,13H,7-10,12H2,(H,24,25)
#inchikey KXWMOBMALJDRAG
#Ion_Source LC-ESI
#Instrument qTof
#Compound_Source NIH Natural Product Library
#PI Dorrestein
#Data_Collector VVP/LMS
#Scan -1
#Precursor_MZ 382.129
#ExactMass 381.121
#Charge 1
#CAS_Number N/A
#Pubmed_ID N/A
#Smiles OC(=O)C1CCN(CC1)C(=O)COc2ccc3c(c2)oc(=O)c4ccccc43
#INCHI_AUX N/A
#Library_Class 1
#SpectrumID CCMSLIB00000080546
#IonMode Positive
#UpdateWorkflowName UPDATE-SINGLE-ANNOTATED-GOLD
#LibraryQualityString Gold
#TaskID b1d8e8f6646f4e71acdff9ca3d919d08
##Scan# 1887
#SpectrumFile p2-D10_GD10_01_18022.mzXML
#LibraryName NIH_Natural_Products_Library.mgf
#MQScore -1
#Organism NIH_Natural_Products_Library
#TIC_Query 0
#RT_Query -1
#MZErrorPPM -1
#SharedPeaks 0
#MassDiff 0
#LibMZ -1
#SpecMZ 382.129
#SpecCharge 0
#internalFilename spec-00000.mgf

>collision 10
95.856964 156.0
96.083817 512.0
97.061073 148.0
97.377022 232.0
97.536171 56.0
97.955299 76.0
98.061935 204.0
98.329926 224.0
99.040695 208.0
99.065475 172.0
99.648743 76.0
99.738167 120.0
100.050476 88.0
100.128128 128.0
100.25563 72.0
101.045204 356.0
101.436859 72.0
101.842178 180.0
102.044304 164.0
102.970062 200.0
103.048843 164.0
103.631546 204.0
103.749092 108.0
104.482224 180.0
104.659286 216.0
104.997559 184.0
105.544838 52.0
105.839485 208.0
105.886581 84.0
106.816376 116.0
106.946007 168.0
107.34774 108.0
107.393112 108.0
107.985878 196.0
108.885361 172.0
109.086906 72.0
109.201263 128.0
109.265747 132.0
110.058563 688.0
110.718544 112.0
110.796043 192.0
111.052704 240.0
111.079048 180.0
111.688194 176.0
112.074562 1000.0
112.189369 152.0
112.434036 168.0
112.558586 100.0
112.59449 132.0
112.892464 176.0
113.081886 212.0
113.243774 80.0
113.782387 244.0
114.036003 192.0
114.054787 3692.0
114.092552 140.0
114.130829 40.0
114.145706 48.0
114.211639 36.0
114.445732 84.0
114.524521 40.0
114.99572 124.0
115.055298 212.0
115.465752 100.0
116.061066 176.0
116.580536 140.0
116.649307 148.0
116.801979 120.0
117.010719 56.0
117.040863 168.0
117.418686 156.0
117.446022 204.0
118.26059 180.0
118.587639 136.0
118.704704 148.0
119.203972 200.0
119.325691 84.0
119.604141 168.0
119.872017 260.0
120.04641 128.0
120.151108 168.0
120.21656 32.0
121.204948 160.0
121.881813 164.0
122.129189 184.0
122.377861 56.0
122.884789 120.0
123.330864 136.0
123.556419 220.0
123.766678 176.0
124.076065 156.0
124.525093 100.0
124.920746 96.0
125.083519 708.0
125.696991 240.0
125.847855 140.0
126.03994 156.0
126.090714 4644.0
126.144981 64.0
126.980156 52.0
127.093918 392.0
127.125977 112.0
127.164131 144.0
127.384178 76.0
127.41787 76.0
127.687035 168.0
127.705605 160.0
127.939285 132.0
127.9786 244.0
128.036499 180.0
128.071503 10432.0
128.110336 84.0
128.151321 72.0
128.355118 96.0
128.545914 92.0
128.579773 48.0
128.606857 48.0
128.651993 108.0
128.999878 128.0
129.039108 184.0
129.074722 1372.0
129.146866 60.0
129.241882 112.0
129.28714 28.0
129.3573 36.0
129.626816 56.0
130.086746 1460.0
130.193939 100.0
130.296158 84.0
130.432495 100.0
130.546173 124.0
130.944443 172.0
131.089767 140.0
131.185959 128.0
131.487045 148.0
132.449615 76.0
132.745255 176.0
133.30307 68.0
134.507599 152.0
135.27504 80.0
135.390808 164.0
135.462601 80.0
136.009842 208.0
136.690781 48.0
136.899124 160.0
137.940872 180.0
138.20047 208.0
139.054749 1172.0
139.116821 176.0
139.177872 52.0
140.057816 232.0
140.42981 144.0
140.972412 120.0
141.068726 1016.0
141.094482 176.0
141.166641 164.0
141.623413 44.0
141.760818 48.0
141.945709 156.0
141.983658 96.0
142.00737 100.0
142.035843 172.0
142.086441 3364.0
142.266006 60.0
142.318237 72.0
142.494003 180.0
143.046082 136.0
143.083252 244.0
143.488831 76.0
144.092636 60.0
144.149979 100.0
144.704895 48.0
145.045074 156.0
147.051056 124.0
147.785675 48.0
148.400879 168.0
149.08783 84.0
150.442062 52.0
151.05542 164.0
151.37114 196.0
151.706802 28.0
152.060745 148.0
152.310455 88.0
152.747986 204.0
152.939911 176.0
153.070404 680.0
153.415329 224.0
153.686615 148.0
154.076706 192.0
154.697418 100.0
155.051376 164.0
155.071442 224.0
155.128464 148.0
155.244995 192.0
155.607254 176.0
155.800964 84.0
156.06723 288.0
157.015656 216.0
157.062027 164.0
157.957275 156.0
163.215408 136.0
165.141174 236.0
165.466156 152.0
165.542969 148.0
166.065781 104.0
166.877243 144.0
166.900391 132.0
167.048904 3524.0
167.088135 188.0
167.147568 184.0
167.227097 64.0
167.270859 72.0
167.345505 64.0
167.489731 112.0
167.644302 68.0
168.050644 1180.0
168.136871 172.0
168.237534 48.0
169.066193 1912.0
169.217361 44.0
169.258789 240.0
170.034439 56.0
170.070618 288.0
171.044647 900.0
171.086716 484.0
171.662415 96.0
172.044754 140.0
172.966095 64.0
173.720779 164.0
178.740723 144.0
179.089462 160.0
180.041595 132.0
180.364883 172.0
181.061798 156.0
182.071564 160.0
182.136032 152.0
183.036957 128.0
183.112366 112.0
184.052094 1192.0
185.062042 192.0
185.587677 100.0
185.625641 32.0
185.86705 248.0
188.00592 148.0
189.342758 140.0
190.006104 124.0
190.967529 176.0
191.407837 128.0
191.644714 200.0
192.969528 136.0
193.700119 120.0
195.045395 1564.0
195.499237 48.0
195.97818 104.0
196.051895 464.0
196.505127 176.0
196.809357 96.0
196.901505 104.0
196.978668 160.0
197.061142 1648.0
197.200455 124.0
197.231201 96.0
197.410126 72.0
197.586334 84.0
197.748642 76.0
198.063889 180.0
198.561127 184.0
199.060638 212.0
199.501755 36.0
199.8927 68.0
200.030609 144.0
200.749054 176.0
201.367096 148.0
207.052429 156.0
209.064865 112.0
209.096527 196.0
209.156967 124.0
210.861557 56.0
211.03627 292.0
211.061035 176.0
211.922974 116.0
212.001801 164.0
212.046844 2964.0
212.104095 68.0
212.271393 64.0
212.393204 132.0
213.048874 892.0
213.084106 60.0
213.148026 64.0
213.174179 52.0
213.200333 112.0
214.052734 152.0
215.408829 228.0
218.092865 164.0
219.337936 144.0
220.489014 216.0
222.203491 160.0
223.050659 744.0
223.08551 184.0
223.326355 80.0
223.55246 212.0
223.695328 76.0
224.054153 324.0
224.478897 60.0
224.848022 152.0
224.902527 56.0
224.935364 148.0
225.055908 6144.0
225.092438 196.0
225.160355 68.0
225.627335 44.0
225.718109 108.0
226.059372 2056.0
226.190811 48.0
226.424347 36.0
226.666992 116.0
226.882797 128.0
226.981735 108.0
227.068695 332.0
227.275681 112.0
227.563828 76.0
227.725983 84.0
227.789062 72.0
228.038452 128.0
228.591797 116.0
228.679077 96.0
235.516373 120.0
235.7883 84.0
237.042984 140.0
237.067337 144.0
237.101212 148.0
239.029724 144.0
243.006332 132.0
243.065292 116.0
249.530853 184.0
252.090271 128.0
253.050354 128.0
255.047211 124.0
255.454224 72.0
265.050873 132.0
266.08432 192.0
270.085846 176.0
271.079224 104.0
277.075958 168.0
280.098938 180.0
282.074341 196.0
282.997681 188.0
289.947083 188.0
290.072479 88.0
290.102997 116.0
293.073334 132.0
293.332336 32.0
294.077057 320.0
294.1203 148.0
294.359283 84.0
295.073395 156.0
295.196472 136.0
295.71991 120.0
307.086792 160.0
307.125763 68.0
308.133423 500.0
309.137482 380.0
311.125427 92.0
312.014252 112.0
315.009674 116.0
330.12912 204.0
334.122589 156.0
336.12677 1504.0
336.265167 44.0
336.367371 40.0
336.451324 84.0
337.111298 144.0
337.132996 272.0
338.125427 116.0
346.284058 152.0
347.685455 68.0
364.113403 188.0
374.364258 44.0
382.135712 228.0
382.930847 40.0
383.129517 148.0
383.332123 36.0
387.689301 124.0
397.369659 72.0
404.306976 52.0
415.492615 124.0
429.602661 44.0
446.005524 96.0
558.126038 52.0
702.641724 80.0
710.635864 80.0
834.110657 204.0
834.254395 72.0
835.001831 32.0
838.813416 192.0
866.270508 92.0
885.561829 140.0
920.457092 88.0
955.221375 184.0
973.546814 152.0
976.349487 108.0
981.960693 44.0
991.018494 68.0
991.143799 168.0
991.231506 88.0
994.643188 184.0
1015.249023 72.0
1018.555664 152.0
1027.824951 264.0
1052.240356 100.0
1052.834473 116.0
1066.439575 44.0
1088.382935 216.0
1109.608154 196.0
1110.178345 184.0
1114.24707 100.0
1142.681152 96.0
1146.485474 156.0
1146.768555 132.0
1153.004517 120.0
1184.116211 216.0
1190.734375 152.0
1197.281494 120.0
1202.100098 60.0
1206.548096 140.0
1213.880249 184.0
1214.122925 96.0
1215.94751 184.0
1222.744385 172.0
1238.187134 136.0
1242.462769 156.0
1254.544312 132.0
1256.780029 228.0
1257.67627 172.0
1261.525879 176.0
1284.169434 144.0
1291.397217 160.0
1298.515259 136.0
1301.630737 164.0
1301.874878 168.0
1302.966675 168.0
1319.549683 208.0
1322.790649 80.0
1323.043945 216.0
1329.327881 128.0
1333.598022 156.0
1333.96875 72.0
1334.179565 116.0
1334.601196 196.0
1336.084839 116.0
1337.278198 120.0
1337.941406 208.0
1338.515747 172.0
1340.744751 128.0
1341.466431 104.0
1344.339966 188.0
1344.741333 148.0
1350.535156 152.0
1353.418457 188.0
1356.619995 116.0
1361.474854 204.0
1368.468262 72.0
1369.611328 136.0
1379.462036 192.0
1384.219116 188.0
1384.730103 160.0
1398.063354 116.0
1407.836426 80.0
1408.217285 192.0
1419.772461 136.0
1421.940552 124.0
1428.078613 156.0
1434.810425 84.0
1443.591431 156.0
1447.208252 184.0
1453.1427 172.0
1458.070679 72.0
1459.416138 200.0
1460.328735 228.0
1463.737915 184.0
1472.477051 112.0
1473.546509 188.0
1473.897949 100.0
1475.227783 152.0
1477.529541 192.0
1484.959595 184.0
1487.2229 120.0
1491.09375 184.0
1493.569458 152.0
1495.493042 100.0
1500.106812 120.0
1501.178467 120.0
1501.911133 36.0
