>compound MLS001140256-01!
>formula C18H17FN2O2
>ionization [M+H]+
>parentmass 313.133026
#inchi InChI=1S/C18H17FN2O2/c19-15-5-2-1-4-14(15)18(23)20-9-12-8-13(11-20)16-6-3-7-17(22)21(16)10-12/h1-7,12-13H,8-11H2/t12-,13+/m1/s1
#inchikey WUKSHEBWAYSRQU
#Ion_Source LC-ESI
#Instrument qTof
#Compound_Source NIH Natural Product Library
#PI Dorrestein
#Data_Collector VVP/LMS
#Scan -1
#Precursor_MZ 313.135
#ExactMass 312.127
#Charge 1
#CAS_Number N/A
#Pubmed_ID N/A
#Smiles Fc1ccccc1C(=O)N2C[C@H]3C[C@@H](C2)c4cccc(=O)n4C3
#INCHI_AUX N/A
#Library_Class 1
#SpectrumID CCMSLIB00000079778
#IonMode Positive
#UpdateWorkflowName UPDATE-SINGLE-ANNOTATED-GOLD
#LibraryQualityString Gold
#TaskID b1d8e8f6646f4e71acdff9ca3d919d08
##Scan# 1524
#SpectrumFile p1-H10_GH10_01_17966.mzXML
#LibraryName NIH_Natural_Products_Library.mgf
#MQScore -1
#Organism NIH_Natural_Products_Library
#TIC_Query 0
#RT_Query -1
#MZErrorPPM -1
#SharedPeaks 0
#MassDiff 0
#LibMZ -1
#SpecMZ 313.135
#SpecCharge 0
#internalFilename spec-00000.mgf

>collision 10
94.975471 184.0
95.028511 3140.0
95.060989 180.0
95.762672 212.0
95.82695 48.0
95.910751 84.0
95.992851 180.0
96.030472 184.0
96.697891 160.0
96.846695 112.0
97.276123 56.0
97.596359 116.0
97.755692 180.0
98.137833 68.0
98.214745 160.0
98.364708 192.0
98.520714 108.0
98.720345 96.0
98.753967 184.0
98.858826 156.0
98.985519 184.0
99.021164 152.0
99.068703 252.0
99.157867 44.0
99.266907 172.0
99.344261 204.0
99.461334 204.0
99.544952 172.0
99.600334 172.0
99.649994 180.0
99.7593 204.0
100.043777 180.0
100.238968 120.0
100.288795 176.0
100.362556 236.0
100.542091 96.0
100.717789 132.0
100.863655 136.0
101.270882 108.0
101.404083 248.0
101.737061 76.0
101.772438 244.0
101.847504 152.0
102.062538 120.0
102.175171 248.0
102.473145 108.0
102.664642 184.0
102.696907 152.0
102.813927 44.0
102.963326 152.0
102.989578 224.0
103.33139 192.0
103.426331 220.0
103.54174 220.0
103.628845 124.0
104.010101 184.0
104.117714 188.0
104.154274 176.0
104.805283 108.0
104.833817 172.0
105.100945 132.0
105.200951 96.0
105.386986 224.0
105.442543 244.0
105.521698 164.0
105.683281 64.0
106.647133 128.0
106.758156 184.0
106.821915 48.0
107.013313 68.0
107.528664 48.0
107.708298 204.0
107.855003 136.0
107.906685 212.0
107.960449 224.0
108.04319 132.0
108.163216 136.0
108.339233 140.0
108.353737 100.0
108.374451 152.0
108.554794 168.0
108.600418 200.0
108.745659 64.0
108.793396 172.0
109.088387 156.0
109.179878 212.0
109.3255 164.0
109.37545 244.0
109.450401 96.0
109.519127 168.0
109.854729 200.0
110.059265 180.0
110.594452 96.0
111.022362 148.0
111.103661 176.0
111.174995 84.0
111.20018 136.0
111.254761 168.0
111.294647 140.0
111.466896 184.0
111.620346 136.0
111.712883 152.0
112.02655 176.0
112.275269 96.0
112.697456 140.0
113.040115 344.0
113.116203 160.0
113.308914 192.0
113.414871 176.0
113.788231 156.0
113.947525 204.0
114.041023 176.0
114.219635 164.0
114.449478 200.0
114.6689 132.0
114.899193 192.0
114.993088 180.0
115.054916 336.0
115.140404 160.0
115.552956 140.0
115.636414 168.0
115.897675 204.0
116.054146 176.0
116.084167 140.0
116.176399 188.0
116.382431 184.0
116.4533 184.0
116.921997 152.0
116.960739 300.0
116.975807 84.0
117.057091 1156.0
117.33773 124.0
117.411049 136.0
117.473595 72.0
117.531853 160.0
117.553429 124.0
117.754204 148.0
117.860062 72.0
118.058929 156.0
118.331528 196.0
119.051476 120.0
119.105774 124.0
119.157913 168.0
119.214401 236.0
119.427467 124.0
119.462273 108.0
119.575417 100.0
119.60807 176.0
120.049263 120.0
120.292542 168.0
120.327469 100.0
120.412628 164.0
120.480347 132.0
120.495636 176.0
120.67923 172.0
120.889221 224.0
121.040794 216.0
121.250572 248.0
121.33606 148.0
121.724167 172.0
121.87159 52.0
122.029846 196.0
122.133202 172.0
122.203598 268.0
122.254211 184.0
122.353264 164.0
122.395096 136.0
122.529449 140.0
122.560295 120.0
122.577927 152.0
122.597755 84.0
122.637428 176.0
122.681511 44.0
122.712379 164.0
122.765297 196.0
122.782944 216.0
122.800591 160.0
122.825859 184.0
122.857086 296.0
122.919144 260.0
122.950615 156.0
122.996544 304.0
123.023964 88300.0
123.072853 160.0
123.08683 68.0
123.101837 144.0
123.110008 60.0
123.149139 196.0
123.180244 236.0
123.202332 88.0
123.219879 72.0
123.259392 92.0
123.294167 128.0
123.364304 116.0
123.386856 676.0
123.463158 136.0
123.48085 52.0
123.502968 116.0
123.538361 40.0
123.621262 172.0
123.688004 100.0
123.713188 112.0
123.744179 52.0
123.852692 136.0
123.885918 52.0
123.910286 108.0
123.928017 152.0
123.959038 92.0
123.976761 84.0
124.001144 84.0
124.026421 6444.0
124.078728 212.0
124.098679 44.0
124.136375 100.0
124.17408 64.0
124.191818 84.0
124.214005 76.0
124.26059 60.0
124.285934 104.0
124.398186 68.0
124.522011 172.0
124.551407 56.0
124.595833 108.0
124.670166 88.0
124.702499 96.0
124.76918 148.0
124.809204 104.0
124.853676 152.0
124.869247 160.0
124.916405 60.0
124.94043 156.0
124.978645 112.0
125.002808 116.0
125.028664 696.0
125.100662 40.0
125.127373 156.0
125.145187 72.0
125.263222 160.0
125.517296 64.0
125.631042 48.0
125.874321 88.0
125.930153 72.0
126.008339 104.0
126.218445 76.0
126.294479 84.0
126.339218 80.0
127.874062 188.0
128.027145 72.0
128.196106 88.0
129.112671 168.0
129.751221 28.0
129.959885 68.0
130.064056 168.0
130.266373 180.0
130.398163 160.0
131.033279 76.0
131.070465 644.0
131.70372 120.0
131.833954 72.0
132.04657 180.0
132.079681 416.0
132.204422 76.0
132.353226 80.0
132.781754 128.0
132.818451 76.0
133.080078 168.0
133.87738 76.0
133.972427 168.0
134.452042 56.0
135.041183 68.0
135.626984 60.0
136.116501 68.0
136.31163 192.0
136.93277 60.0
137.252045 140.0
138.692154 68.0
140.045563 136.0
140.212845 96.0
141.057846 360.0
141.228088 172.0
142.063934 612.0
142.192413 44.0
143.066986 492.0
144.056656 188.0
144.138046 64.0
144.295807 188.0
144.771973 116.0
145.052063 360.0
145.133804 40.0
145.998291 156.0
146.058365 1040.0
146.092102 76.0
146.169846 140.0
146.86293 128.0
147.026993 132.0
147.063248 508.0
147.338486 60.0
147.921295 180.0
149.029617 156.0
149.275116 144.0
151.106949 164.0
152.472794 168.0
152.607986 60.0
152.770309 80.0
153.516617 160.0
154.075745 212.0
154.949799 108.0
156.821457 188.0
157.07579 112.0
157.610062 136.0
158.062653 132.0
158.744003 140.0
158.98735 116.0
159.066772 536.0
160.074387 8048.0
160.138824 36.0
160.854919 132.0
161.07666 1096.0
161.218628 40.0
161.906754 80.0
162.068298 160.0
162.182922 44.0
162.317276 68.0
162.550659 36.0
162.972168 140.0
166.067245 228.0
166.333084 56.0
166.975449 160.0
167.866501 56.0
171.045517 60.0
171.081955 176.0
171.503952 40.0
172.639664 144.0
173.115952 136.0
174.08548 304.0
174.167648 68.0
175.457108 96.0
176.510605 120.0
178.305328 216.0
182.967789 124.0
185.049393 180.0
188.599533 172.0
189.045334 208.0
189.779449 136.0
194.424866 148.0
194.894165 44.0
203.077881 188.0
203.73645 92.0
206.882019 156.0
211.563065 152.0
212.417938 112.0
212.792313 156.0
217.088333 348.0
219.743668 200.0
220.478943 88.0
224.328674 116.0
226.635941 132.0
227.016632 76.0
227.11261 124.0
227.226593 144.0
228.064438 168.0
228.112534 40.0
230.179352 132.0
230.511627 160.0
234.944626 116.0
236.953232 196.0
237.784241 244.0
238.736633 144.0
241.036301 160.0
242.106644 124.0
242.537292 80.0
243.486725 160.0
244.643417 124.0
245.490906 120.0
250.190903 56.0
256.855316 164.0
258.545532 128.0
264.114929 156.0
266.117706 128.0
268.6008 176.0
269.433258 124.0
270.088837 556.0
276.645416 228.0
276.907013 168.0
280.115662 244.0
283.825409 72.0
284.865845 124.0
287.282898 72.0
291.36911 176.0
293.056671 144.0
297.348328 180.0
297.379211 36.0
307.032288 164.0
310.592834 92.0
311.663605 124.0
312.468781 160.0
312.69397 64.0
312.887573 260.0
312.930389 128.0
312.961517 56.0
313.031952 160.0
313.133026 14120.0
313.183899 188.0
313.217621 172.0
313.257355 92.0
313.299622 164.0
313.377136 80.0
313.417999 108.0
313.486359 52.0
313.549988 152.0
313.578003 112.0
313.62381 52.0
313.648499 92.0
313.736633 68.0
313.768341 44.0
313.858978 112.0
313.902344 64.0
313.948181 32.0
313.997559 28.0
314.082214 40.0
314.137085 1724.0
314.202148 96.0
314.297424 168.0
314.332703 108.0
314.615051 52.0
314.646851 56.0
314.929352 40.0
315.038849 52.0
315.140442 500.0
315.728088 28.0
315.837738 44.0
316.035858 132.0
316.152618 72.0
316.239014 128.0
316.460571 196.0
316.612854 52.0
317.020264 72.0
317.999084 88.0
318.126892 40.0
323.305908 72.0
326.375793 56.0
326.707458 88.0
328.800964 156.0
333.138794 64.0
333.396759 32.0
343.816132 76.0
351.076385 104.0
353.519592 64.0
365.299347 96.0
381.237396 76.0
385.067047 116.0
390.035339 168.0
391.022583 60.0
397.178467 92.0
422.888428 40.0
453.871246 72.0
473.967133 120.0
482.240143 132.0
532.485291 88.0
548.933228 112.0
567.265564 216.0
617.365112 60.0
621.049927 272.0
623.592102 64.0
631.404724 100.0
638.526428 168.0
641.04364 76.0
696.601868 192.0
733.94519 92.0
749.981567 224.0
788.314087 88.0
827.848206 144.0
833.262939 36.0
846.697571 216.0
849.079529 48.0
864.225403 200.0
868.009338 84.0
888.013611 192.0
892.889709 184.0
892.967041 64.0
900.470764 20.0
901.803162 100.0
950.798706 216.0
956.034729 148.0
959.595093 144.0
972.307007 44.0
976.892578 132.0
985.021362 188.0
989.574158 200.0
999.183044 128.0
1000.101807 148.0
1002.501404 204.0
1008.692993 224.0
1009.249329 116.0
1016.794067 20.0
1024.163086 196.0
1027.937378 188.0
1031.475586 184.0
1031.545898 172.0
1035.199219 212.0
1035.602661 252.0
1037.294312 168.0
1037.723877 104.0
1038.089355 136.0
1039.744507 140.0
1044.196777 228.0
1047.801514 184.0
1053.47229 124.0
1056.077271 148.0
1063.651978 68.0
1064.749268 128.0
1065.093506 128.0
1066.678955 172.0
1067.543701 164.0
1073.137085 148.0
1074.930908 156.0
1075.79895 168.0
1078.529419 32.0
1086.446411 196.0
1089.045898 216.0
1099.270264 92.0
1101.79248 92.0
1103.689331 224.0
1104.56897 112.0
1106.150513 180.0
1106.554321 116.0
1107.342285 44.0
1107.613892 160.0
1113.995361 124.0
1117.778442 60.0
1118.503784 36.0
1121.254639 172.0
1121.43457 156.0
1128.136353 60.0
1135.508667 208.0
1138.481689 196.0
1139.321289 224.0
1141.55957 208.0
1150.325195 84.0
1152.101196 100.0
1155.874023 156.0
1158.141968 208.0
1159.951172 72.0
1163.451538 136.0
1164.354614 224.0
1168.370972 144.0
1170.100586 128.0
1171.408081 172.0
1177.588013 252.0
1179.261841 216.0
1179.357544 152.0
1180.663452 224.0
1181.689575 52.0
1181.942627 204.0
1182.49353 40.0
1184.290894 84.0
1184.907349 200.0
1185.969604 184.0
1190.833374 156.0
1191.18457 156.0
1195.37854 176.0
1197.374878 180.0
1198.697632 212.0
1199.069702 164.0
1201.455566 180.0
1202.16626 144.0
1205.626099 120.0
1207.063965 60.0
1207.407959 76.0
1207.714111 188.0
1208.288208 216.0
1210.198486 176.0
1213.073608 208.0
1214.904419 180.0
1217.125366 112.0
1217.812866 224.0
1218.452026 228.0
1219.946167 152.0
1223.417603 128.0
1226.928711 208.0
1228.232788 36.0
1228.316406 212.0
1230.019043 216.0
1232.931641 148.0
1235.595703 188.0
1236.617432 188.0
1241.156982 168.0
1242.777222 184.0
1243.675537 144.0
1243.858032 116.0
1244.903564 216.0
1245.578369 136.0
1249.838867 180.0
1252.556396 116.0
1253.75415 148.0
1254.317993 240.0
1255.502563 248.0
1256.377197 184.0
1256.814575 100.0
1257.421509 80.0
1261.235474 132.0
1263.088135 152.0
1267.739746 152.0
1268.462646 188.0
1268.533569 248.0
1269.313477 84.0
1270.278076 252.0
1273.131348 136.0
1276.07312 192.0
1277.474121 156.0
1278.484497 192.0
1278.612549 220.0
1283.157227 140.0
1288.052734 176.0
1289.460327 152.0
1291.004639 124.0
1291.197632 200.0
1292.242065 120.0
1293.294067 188.0
1293.802246 116.0
1293.852417 156.0
1294.654297 168.0
1294.912231 164.0
1295.012451 132.0
1295.184326 140.0
1296.703369 156.0
1296.84668 176.0
1297.929199 40.0
1299.550293 128.0
1300.138672 116.0
1301.043091 104.0
1302.99646 188.0
1306.95813 32.0
1307.584229 112.0
1308.491211 148.0
1309.045654 168.0
1310.09729 172.0
1310.183716 116.0
1310.356567 240.0
1318.091431 176.0
1318.416626 176.0
1319.782837 132.0
1321.062988 160.0
1322.452271 180.0
1322.68396 128.0
1322.864868 212.0
1323.712036 204.0
1323.864136 244.0
1326.508667 164.0
1328.161987 216.0
1329.613037 92.0
1329.896118 204.0
1331.754883 116.0
1336.21106 132.0
1336.400146 192.0
1338.634888 184.0
1338.940674 280.0
1341.381592 188.0
1343.12439 152.0
1347.197632 256.0
1347.285278 96.0
1349.075806 172.0
1349.302368 152.0
1350.860107 156.0
1351.789307 164.0
1352.060059 236.0
1352.477295 216.0
1353.062866 160.0
1353.882935 124.0
1353.934204 96.0
1355.230835 168.0
1355.509277 60.0
1356.000244 148.0
1356.997192 204.0
1358.515381 96.0
1363.545166 156.0
1365.890625 160.0
1366.074463 144.0
1366.390869 152.0
1367.524048 200.0
1370.536133 204.0
1371.30249 148.0
1373.307983 40.0
1374.945923 196.0
1375.484741 180.0
1376.924438 156.0
1377.087036 164.0
1377.256836 176.0
1380.797241 140.0
1380.930298 168.0
1381.958618 96.0
1382.106567 148.0
1383.009399 168.0
1383.298096 156.0
1384.627197 20.0
1387.424438 212.0
1391.192383 224.0
1394.297852 148.0
1395.93335 168.0
1396.156494 172.0
1396.223389 168.0
1397.800537 132.0
1399.199829 196.0
1401.07666 136.0
1403.484009 172.0
1404.065674 164.0
1405.326294 60.0
1409.971069 156.0
1410.71106 168.0
1411.481079 152.0
1411.967163 120.0
1415.536865 176.0
1416.877563 212.0
1416.9375 76.0
1419.44104 172.0
1421.155884 204.0
1423.665894 208.0
1424.762451 168.0
1426.325562 192.0
1428.950073 172.0
1430.658569 196.0
1430.824097 168.0
1435.55603 148.0
1435.940674 200.0
1436.544067 164.0
1436.664795 44.0
1437.230591 148.0
1438.234375 204.0
1438.355103 140.0
1441.41394 140.0
1442.328369 208.0
1444.453125 152.0
1444.831421 104.0
1445.376221 148.0
1445.482178 76.0
1445.989136 176.0
1446.435791 164.0
1446.927856 124.0
1448.730225 192.0
1448.980225 216.0
1450.420044 132.0
1450.973511 32.0
1451.921387 164.0
1455.533569 168.0
1456.080322 36.0
1456.361328 160.0
1462.527832 136.0
1466.671509 132.0
1467.166992 172.0
1467.586304 128.0
1468.509033 216.0
1468.760742 168.0
1470.591919 104.0
1470.675903 188.0
1470.775146 156.0
1472.859741 64.0
1473.516724 136.0
1473.738281 152.0
1474.296143 288.0
1474.800537 176.0
1475.725464 244.0
1476.903198 204.0
1477.094482 188.0
1478.777832 148.0
1479.627441 116.0
1480.645874 144.0
1481.090088 188.0
1482.01709 128.0
1486.03479 160.0
1486.556519 208.0
1487.707886 224.0
1488.274536 160.0
1488.682983 216.0
1490.342163 200.0
1490.426758 192.0
1492.732788 164.0
1493.524902 260.0
1495.502319 140.0
1495.595947 132.0
1496.156738 144.0
1496.618652 128.0
1498.759277 224.0
1500.293701 236.0
1500.416992 140.0
1500.625244 120.0
1501.152588 172.0
1501.404053 124.0
1502.098145 112.0
1503.741699 148.0
1504.235718 152.0
