>compound MLS001162685-01!(2R)-3-benzylsulfanyl-2-[[2-(4-butyl-7-methyl-2-oxochromen-5-yl)oxyacetyl]amino]propanoic acid
>formula C26H29NO6S
>ionization [M+H]+
>parentmass 484.179
#inchi InChI=1S/C26H29NO6S/c1-3-4-10-19-13-24(29)33-22-12-17(2)11-21(25(19)22)32-14-23(28)27-20(26(30)31)16-34-15-18-8-6-5-7-9-18/h5-9,11-13,20H,3-4,10,14-16H2,1-2H3,(H,27,28)(H,30,31)/t20-/m0/s1
#inchikey RLHVBSSXNSZHIQ
#Ion_Source LC-ESI
#Instrument qTof
#Compound_Source NIH Natural Product Library
#PI Dorrestein
#Data_Collector VVP/LMS
#Scan -1
#Precursor_MZ 484.179
#ExactMass 483.172
#Charge 1
#CAS_Number N/A
#Pubmed_ID N/A
#Smiles CCCCc1cc(=O)oc2cc(C)cc(OCC(=O)N[C@@H](CSCc3ccccc3)C(=O)O)c12
#INCHI_AUX N/A
#Library_Class 3
#SpectrumID CCMSLIB00000080385
#IonMode Positive
#UpdateWorkflowName UPDATE-SINGLE-ANNOTATED-BRONZE
#LibraryQualityString Bronze
#TaskID b1d8e8f6646f4e71acdff9ca3d919d08
##Scan# 2411
#SpectrumFile p2-B08_GB8_01_17996.mzXML
#LibraryName NIH_Natural_Products_Library.mgf
#MQScore -1
#Organism NIH_Natural_Products_Library
#TIC_Query 0
#RT_Query -1
#MZErrorPPM -1
#SharedPeaks 0
#MassDiff 0
#LibMZ -1
#SpecMZ 484.179
#SpecCharge 0
#internalFilename spec-00000.mgf

>collision 10
95.070724 160.0
95.115364 44.0
95.163895 68.0
95.181374 96.0
95.276543 140.0
95.478691 72.0
95.700531 220.0
96.082527 176.0
96.414474 56.0
97.242912 240.0
97.42749 112.0
97.458931 136.0
99.051018 108.0
100.673973 200.0
100.8358 160.0
101.44429 128.0
103.052307 132.0
104.168587 52.0
104.758514 112.0
105.070076 544.0
105.849152 188.0
107.050438 188.0
107.120461 148.0
107.171967 152.0
108.074272 212.0
108.807976 148.0
109.031502 208.0
111.49633 248.0
111.776016 184.0
112.184608 160.0
113.029427 236.0
114.296204 148.0
114.71151 76.0
115.054489 1060.0
115.762695 168.0
116.016174 140.0
116.063675 292.0
117.066193 196.0
117.152344 216.0
117.700157 104.0
117.898895 80.0
118.467949 92.0
118.808304 216.0
119.083984 120.0
120.091705 184.0
120.460594 56.0
121.029221 204.0
121.066452 304.0
122.069321 128.0
122.119896 120.0
123.027565 192.0
123.118279 88.0
125.05822 208.0
125.51046 136.0
126.437515 176.0
127.00885 164.0
128.063004 400.0
128.371765 224.0
128.434906 208.0
128.545456 96.0
129.041382 444.0
129.071838 164.0
129.819046 96.0
130.338867 84.0
131.048782 200.0
131.504852 140.0
132.009644 164.0
132.037186 172.0
132.053207 160.0
132.087509 200.0
133.095901 152.0
133.295746 128.0
134.024521 228.0
134.147308 200.0
135.045532 212.0
135.077927 132.0
135.26767 184.0
135.483032 120.0
135.714798 96.0
137.057739 164.0
137.072708 188.0
138.069458 144.0
138.097122 204.0
139.075043 336.0
141.070847 328.0
141.194641 284.0
141.230118 132.0
141.807831 96.0
142.56015 56.0
143.082672 220.0
144.054047 156.0
144.618347 184.0
145.064819 392.0
146.071091 172.0
146.551529 64.0
147.036224 168.0
147.07901 540.0
147.123108 100.0
147.560394 48.0
148.051605 136.0
148.116989 196.0
148.813004 136.0
149.043335 560.0
149.061401 376.0
149.102066 124.0
150.046616 152.0
150.253815 124.0
151.038651 172.0
151.073486 376.0
151.468781 204.0
151.730988 160.0
152.769806 96.0
152.804245 120.0
153.077454 100.0
153.350922 140.0
154.076614 172.0
154.234543 172.0
157.065247 156.0
157.097672 144.0
158.068893 220.0
158.117126 180.0
158.269821 152.0
159.082123 448.0
160.053452 176.0
160.088974 188.0
160.546494 128.0
161.062103 624.0
161.101486 212.0
161.134613 224.0
162.066055 348.0
162.369888 112.0
163.074234 176.0
163.28418 152.0
164.767715 164.0
164.933823 216.0
165.05571 660.0
166.06929 288.0
167.188263 108.0
169.072174 172.0
171.081512 216.0
171.240021 80.0
172.092743 100.0
172.330414 152.0
173.060959 220.0
173.098068 300.0
173.322083 132.0
173.547485 144.0
174.064758 292.0
175.077774 1292.0
175.116165 128.0
176.081635 132.0
176.131821 140.0
177.055664 748.0
177.091949 200.0
178.067551 120.0
178.817734 128.0
179.222504 216.0
179.545059 88.0
179.603729 64.0
181.095184 120.0
183.837433 140.0
185.057785 156.0
185.098145 308.0
185.921219 152.0
186.066254 324.0
186.106064 276.0
187.067001 152.0
187.075989 84.0
187.085632 140.0
187.112946 440.0
187.62941 160.0
188.052216 172.0
188.082245 168.0
189.056152 496.0
189.086807 272.0
189.131851 132.0
189.981323 64.0
190.006012 52.0
190.062698 1272.0
190.134979 256.0
190.178894 32.0
190.36557 36.0
191.030701 140.0
191.071182 356.0
191.097992 176.0
191.416016 112.0
192.077347 184.0
192.149185 44.0
192.171265 72.0
193.074539 76.0
196.915436 88.0
197.021576 84.0
197.057907 96.0
197.099808 148.0
197.843781 160.0
197.986572 232.0
199.119598 236.0
200.047485 132.0
200.085022 60.0
201.057404 224.0
201.104507 104.0
201.570496 48.0
201.621353 40.0
202.048325 116.0
202.070953 176.0
202.104904 236.0
202.12471 116.0
202.229416 92.0
203.071655 3680.0
203.109039 332.0
203.218414 36.0
203.297867 88.0
203.564713 92.0
203.666962 40.0
203.732285 168.0
204.074631 880.0
205.077423 184.0
205.146637 64.0
205.717178 40.0
206.271347 108.0
206.382843 100.0
206.428589 172.0
207.038132 72.0
207.121201 204.0
211.929428 92.0
212.081985 208.0
212.1091 188.0
213.063843 120.0
213.088806 192.0
213.255615 116.0
215.071991 688.0
215.107559 224.0
215.625137 40.0
216.071365 196.0
216.101791 124.0
216.731293 44.0
216.836792 148.0
216.898346 36.0
217.055573 272.0
217.087082 1144.0
217.122452 1180.0
217.147568 128.0
217.247299 52.0
218.08876 136.0
218.13028 180.0
218.425247 88.0
219.058121 292.0
219.09642 168.0
219.137665 176.0
221.101334 176.0
222.079041 56.0
223.079712 160.0
224.073685 144.0
225.096741 148.0
227.068878 140.0
227.106689 172.0
227.867355 44.0
228.075745 196.0
228.107758 268.0
229.055634 168.0
229.080582 144.0
229.123215 156.0
230.085968 192.0
231.062134 116.0
231.102737 276.0
232.054138 188.0
232.092926 124.0
232.55101 80.0
232.924484 140.0
233.033844 96.0
233.117279 2144.0
233.228333 52.0
233.441147 148.0
233.501968 40.0
234.099808 144.0
234.120972 328.0
234.226364 196.0
235.055618 152.0
235.098343 140.0
235.126144 396.0
236.048386 104.0
236.069794 192.0
238.082748 172.0
240.071182 208.0
241.940506 144.0
243.057922 212.0
243.115189 228.0
244.230591 124.0
244.7939 148.0
245.118179 1344.0
246.124573 516.0
247.041122 224.0
247.238235 76.0
247.595123 120.0
247.660904 116.0
247.883331 68.0
248.162308 160.0
248.824295 92.0
250.119461 148.0
250.459534 128.0
250.623352 76.0
251.09935 128.0
252.093796 128.0
252.577515 176.0
255.120712 124.0
257.12088 272.0
259.138214 92.0
259.143219 152.0
261.067902 164.0
264.081909 188.0
264.866669 96.0
265.125854 160.0
267.135681 148.0
269.130219 172.0
272.096863 164.0
272.139221 200.0
273.109497 308.0
274.027557 124.0
274.118744 164.0
274.993286 84.0
275.036194 152.0
275.346558 76.0
277.146118 144.0
278.064667 224.0
278.121094 204.0
279.094482 136.0
283.085358 200.0
284.13446 216.0
286.15097 284.0
288.079987 168.0
288.137421 112.0
288.979279 148.0
290.144318 240.0
291.0672 196.0
291.125427 348.0
291.172455 188.0
292.069763 128.0
292.134918 176.0
293.394409 76.0
294.108337 208.0
297.128967 136.0
299.838562 132.0
300.404022 144.0
303.066101 144.0
304.072968 208.0
306.070618 140.0
307.102142 140.0
308.096985 160.0
309.107452 92.0
314.135986 176.0
315.141266 156.0
316.149963 500.0
317.13504 88.0
318.096405 420.0
319.103668 132.0
322.065094 128.0
323.16507 172.0
323.337921 40.0
324.118591 120.0
325.675537 48.0
334.298279 64.0
335.164917 124.0
338.04599 128.0
338.075256 100.0
339.064056 136.0
339.089691 148.0
340.06897 160.0
348.113525 108.0
348.14325 156.0
353.118561 180.0
356.015503 84.0
360.146515 772.0
361.152466 320.0
363.247131 104.0
364.105255 136.0
367.321106 76.0
375.109222 68.0
385.671295 112.0
392.041077 92.0
392.119965 196.0
392.328827 104.0
396.673279 56.0
406.119537 56.0
439.48291 72.0
463.634491 52.0
481.271149 136.0
482.267181 148.0
483.281738 116.0
484.171234 136.0
486.178192 120.0
521.737854 88.0
522.747559 96.0
555.714966 48.0
577.205505 96.0
643.113525 44.0
697.64856 220.0
702.419434 92.0
726.238892 104.0
795.531433 156.0
808.920349 196.0
810.806458 196.0
828.808044 200.0
830.963867 172.0
834.651245 80.0
840.001465 212.0
843.424194 224.0
847.592407 144.0
850.138062 72.0
867.284668 184.0
867.906067 56.0
871.063416 52.0
872.038757 96.0
873.373474 136.0
886.841431 124.0
890.882263 104.0
896.332092 156.0
899.379517 160.0
900.884277 84.0
906.742065 176.0
907.689209 140.0
910.130798 224.0
914.700378 136.0
917.959717 156.0
918.737793 152.0
922.209839 172.0
922.808289 20.0
925.597595 196.0
928.755005 244.0
934.270569 228.0
936.260925 140.0
944.451416 176.0
975.90918 152.0
982.854065 212.0
991.33313 248.0
1000.634766 164.0
1001.164368 196.0
1005.432251 40.0
1006.240234 156.0
1011.025146 96.0
1012.829529 144.0
1023.982605 136.0
1028.541382 184.0
1038.195801 84.0
1038.843506 192.0
1047.283325 172.0
1049.996704 252.0
1059.278076 128.0
1061.52063 140.0
1066.064575 56.0
1066.694946 140.0
1067.949951 168.0
1073.746338 96.0
1075.429688 228.0
1076.61792 264.0
1079.087769 216.0
1082.300293 168.0
1095.481323 180.0
1099.008423 160.0
1100.143555 160.0
1100.724487 180.0
1101.02832 204.0
1104.273193 160.0
1108.530029 192.0
1126.447021 200.0
1128.237915 256.0
1128.38501 36.0
1136.267578 232.0
1140.094849 156.0
1143.888184 240.0
1145.98938 208.0
1147.532837 128.0
1147.579956 140.0
1149.286377 96.0
1155.028687 192.0
1160.554688 204.0
1173.73877 208.0
1175.682861 164.0
1176.665771 192.0
1177.280273 232.0
1177.655884 124.0
1182.927734 176.0
1195.983276 212.0
1199.151489 144.0
1210.924194 132.0
1211.817871 136.0
1216.179688 124.0
1218.478149 184.0
1218.825562 160.0
1227.219604 148.0
1234.047974 148.0
1243.567749 192.0
1258.14563 200.0
1261.42334 192.0
1262.759644 172.0
1267.509766 176.0
1270.466187 76.0
1271.5802 56.0
1277.12915 160.0
1285.942505 176.0
1291.522583 160.0
1299.818604 144.0
1312.932373 108.0
1317.21228 184.0
1317.710815 224.0
1320.016479 72.0
1324.474487 140.0
1324.807739 172.0
1329.266602 228.0
1332.403198 100.0
1344.67981 132.0
1345.77478 196.0
1346.110718 200.0
1346.746094 152.0
1350.605225 192.0
1352.112427 120.0
1353.752197 228.0
1355.906006 188.0
1358.347534 124.0
1359.323364 244.0
1371.93689 176.0
1372.644653 136.0
1372.718384 164.0
1374.687988 252.0
1377.99585 148.0
1380.531128 192.0
1383.438843 140.0
1387.891479 192.0
1392.009644 180.0
1392.239746 208.0
1392.72998 244.0
1395.130127 212.0
1399.147217 88.0
1410.305542 148.0
1411.338135 184.0
1412.422485 232.0
1437.108154 132.0
1438.398682 172.0
1440.958618 112.0
1442.454956 76.0
1445.525513 104.0
1448.735596 188.0
1454.954102 204.0
1455.030029 152.0
1456.700684 172.0
1459.033691 228.0
1467.796875 124.0
1468.490845 216.0
1468.799805 20.0
1469.108765 172.0
1470.05481 176.0
1472.253296 156.0
1473.146973 200.0
1476.991821 260.0
1477.236572 172.0
1477.481445 108.0
1479.685425 196.0
1483.370239 76.0
1486.691162 160.0
1489.017334 148.0
1489.746948 160.0
1492.352295 172.0
1493.744141 204.0
1499.588257 72.0
1503.289917 172.0
