>compound MLS002693953-01!N-(8-hydroxy-6-methoxy-2-phenyl-4,4a,6,7,8,8a-hexahydropyrano[3,2-d][1,3]dioxin-7-yl)acetamide
>formula C16H21NO6
>ionization [M+H]+
>parentmass 324.145
#inchi InChI=1S/C16H21NO6/c1-9(18)17-12-13(19)14-11(22-16(12)20-2)8-21-15(23-14)10-6-4-3-5-7-10/h3-7,11-16,19H,8H2,1-2H3,(H,17,18)
#inchikey XCDVOAZVARITEI
#Ion_Source LC-ESI
#Instrument qTof
#Compound_Source NIH Natural Product Library
#PI Dorrestein
#Data_Collector VVP/LMS
#Scan -1
#Precursor_MZ 324.145
#ExactMass 323.137
#Charge 1
#CAS_Number N/A
#Pubmed_ID N/A
#Smiles COC1OC2COC(OC2C(O)C1NC(=O)C)c3ccccc3
#INCHI_AUX N/A
#Library_Class 1
#SpectrumID CCMSLIB00000080052
#IonMode Positive
#UpdateWorkflowName UPDATE-SINGLE-ANNOTATED-GOLD
#LibraryQualityString Gold
#TaskID b1d8e8f6646f4e71acdff9ca3d919d08
##Scan# 1637
#SpectrumFile p2-E03_GE3_01_18027.mzXML
#LibraryName NIH_Natural_Products_Library.mgf
#MQScore -1
#Organism NIH_Natural_Products_Library
#TIC_Query 0
#RT_Query -1
#MZErrorPPM -1
#SharedPeaks 0
#MassDiff 0
#LibMZ -1
#SpecMZ 324.145
#SpecCharge 0
#internalFilename spec-00000.mgf

>collision 10
96.043747 1172.0
96.539589 176.0
97.029099 120.0
97.050667 460.0
97.500198 164.0
97.795212 196.0
97.921219 136.0
98.059975 1856.0
98.281967 128.0
99.047058 216.0
99.061501 300.0
99.207565 52.0
100.041145 452.0
100.077774 260.0
100.318825 220.0
101.308022 128.0
102.04657 132.0
102.949287 236.0
103.046028 256.0
104.636322 164.0
105.031273 348.0
105.068382 172.0
106.067245 328.0
106.095016 240.0
106.850784 192.0
107.046867 696.0
107.518402 144.0
107.873985 156.0
107.890205 152.0
108.044876 820.0
108.109451 68.0
108.955429 92.0
109.027946 1072.0
109.053093 152.0
110.036667 244.0
110.057655 276.0
110.638435 116.0
110.791313 120.0
111.296768 68.0
112.07692 384.0
112.458824 132.0
112.866554 128.0
114.054543 368.0
114.308975 36.0
115.054688 364.0
115.148918 120.0
115.264275 140.0
116.068848 176.0
116.9198 204.0
117.154495 160.0
117.503746 200.0
118.069687 196.0
118.190826 236.0
118.749741 152.0
119.821404 152.0
120.076439 144.0
120.497734 64.0
120.545807 116.0
120.746933 52.0
121.062836 384.0
122.031937 172.0
122.06321 144.0
122.529335 64.0
122.776215 144.0
123.065285 156.0
123.959587 156.0
124.039589 432.0
124.16951 44.0
124.191689 176.0
124.466873 72.0
124.935837 164.0
125.349968 136.0
125.586281 48.0
125.976913 88.0
126.055756 7388.0
126.292091 80.0
126.323402 56.0
126.3592 80.0
126.860847 68.0
126.876541 48.0
127.054596 352.0
127.195084 84.0
127.698395 72.0
127.736633 120.0
127.761375 64.0
128.060532 144.0
128.270309 48.0
129.055954 88.0
129.123795 136.0
130.277527 28.0
132.077667 176.0
132.352982 136.0
132.591232 156.0
138.055084 2544.0
138.649658 72.0
139.056168 316.0
140.033463 180.0
140.073105 296.0
141.062225 164.0
141.189911 236.0
142.116104 92.0
142.170685 128.0
142.343979 48.0
144.065781 1188.0
145.066284 144.0
145.111832 152.0
146.06041 164.0
146.257721 132.0
146.544296 136.0
146.860092 124.0
149.002441 132.0
149.059387 1872.0
149.230896 188.0
149.264938 44.0
149.430328 44.0
149.469269 56.0
150.056656 340.0
150.571136 48.0
150.710373 84.0
150.989059 92.0
152.096497 84.0
154.019577 144.0
154.560989 56.0
156.066605 136.0
158.08136 468.0
159.076599 136.0
160.050064 160.0
160.919937 60.0
162.841949 160.0
163.073166 48.0
163.102493 96.0
163.930801 52.0
164.091385 144.0
166.393997 116.0
168.06575 452.0
168.710068 68.0
169.173126 60.0
170.854767 180.0
171.936111 132.0
172.077774 192.0
173.084167 188.0
176.090195 320.0
176.113327 120.0
182.074966 300.0
183.077225 144.0
184.078064 144.0
185.056503 180.0
185.961929 176.0
186.07695 872.0
187.081635 172.0
188.071609 164.0
191.085724 148.0
193.11879 164.0
196.619492 48.0
200.044662 148.0
200.089767 188.0
201.090408 204.0
202.085739 688.0
203.085663 160.0
204.105972 284.0
204.32077 92.0
206.105591 148.0
214.320724 68.0
217.931351 104.0
218.102432 168.0
219.1082 196.0
232.099365 524.0
263.01712 44.0
289.734253 60.0
354.054169 64.0
367.588165 76.0
430.198792 60.0
529.371216 124.0
543.416138 88.0
694.602844 100.0
716.328918 48.0
749.011292 108.0
805.92865 104.0
821.239136 104.0
841.351807 176.0
878.858032 140.0
906.322571 132.0
910.797974 108.0
969.887573 208.0
979.730469 172.0
985.907593 128.0
1002.720459 156.0
1007.926575 208.0
1020.514526 120.0
1023.505005 176.0
1024.25647 192.0
1045.680176 152.0
1048.036987 148.0
1054.334961 220.0
1057.866455 212.0
1069.817383 236.0
1077.917847 176.0
1079.388306 232.0
1083.394043 220.0
1088.62146 188.0
1094.532959 128.0
1095.85022 204.0
1098.586182 116.0
1123.456421 180.0
1127.181885 160.0
1134.443481 48.0
1150.548462 176.0
1155.921753 56.0
1167.317627 192.0
1172.416382 168.0
1175.648804 224.0
1182.695068 200.0
1192.564819 184.0
1192.647339 256.0
1205.562744 228.0
1206.924438 136.0
1207.270142 224.0
1209.324951 156.0
1211.014282 244.0
1214.193848 160.0
1214.250854 164.0
1216.422607 148.0
1228.614502 180.0
1238.050415 116.0
1255.013062 140.0
1261.515259 164.0
1277.548828 208.0
1280.189331 192.0
1297.394409 164.0
1299.187134 204.0
1305.932007 144.0
1306.039917 40.0
1308.213013 136.0
1313.220825 144.0
1316.302368 212.0
1318.216553 176.0
1320.421387 196.0
1326.815063 176.0
1332.22876 120.0
1333.013428 168.0
1336.532837 140.0
1339.277344 120.0
1342.14856 228.0
1345.628784 168.0
1346.548828 160.0
1353.679077 168.0
1355.561646 208.0
1356.477661 164.0
1362.796387 180.0
1368.547974 148.0
1369.9104 164.0
1374.296875 160.0
1375.189819 80.0
1383.86084 108.0
1384.36438 156.0
1395.033447 196.0
1400.428101 164.0
1403.56543 112.0
1404.005371 176.0
1411.285889 260.0
1416.569458 168.0
1418.307861 36.0
1422.103027 40.0
1424.84375 76.0
1445.669189 128.0
1447.327026 312.0
1449.084106 204.0
1450.804443 152.0
1456.419678 188.0
1464.725708 144.0
1466.173218 136.0
1469.139282 160.0
1469.932739 212.0
1470.161621 144.0
1471.474487 196.0
1473.032349 160.0
1474.453491 116.0
1475.859985 180.0
1477.856323 132.0
1477.971069 160.0
1481.324219 176.0
1483.569458 188.0
1488.072754 200.0
1490.768799 216.0
1496.93042 112.0
1497.792969 108.0
1498.725098 208.0
