>compound MLS001074061-01!DIRITHROMYCIN
>formula C42H78N2O14
>ionization [M+Na]+
>parentmass 857.53418
#inchi InChI=1S/C42H78N2O14/c1-15-29-42(10,49)37-24(4)32(43-30(56-37)21-52-17-16-50-13)22(2)19-40(8,48)36(58-39-33(45)28(44(11)12)18-23(3)53-39)25(5)34(26(6)38(47)55-29)57-31-20-41(9,51-14)35(46)27(7)54-31/h22-37,39,43,45-46,48-49H,15-21H2,1-14H3/t22-,23-,24+,25+,26-,27+,28+,29-,30-,31+,32+,33-,34+,35+,36-,37-,39+,40-,41-,42-/m1/s1
#inchikey WLOHNSSYAXHWNR
#Ion_Source LC-ESI
#Instrument qTof
#Compound_Source NIH Pharmacologically Active Library
#PI Dorrestein
#Data_Collector VP/LMS
#Scan -1
#Precursor_MZ 857.547
#ExactMass 834.545
#Charge 1
#CAS_Number N/A
#Pubmed_ID N/A
#Smiles CC[C@H]1OC(=O)[C@H](C)[C@@H](O[C@H]2C[C@@](C)(OC)[C@@H](O)[C@H](C)O2)[C@H](C)[C@@H](O[C@@H]3O[C@H](C)C[C@@H]([C@H]3O)N(C)C)[C@](C)(O)C[C@@H](C)[C@@H]4N[C@@H](COCCOC)O[C@H]([C@H]4C)[C@]1(C)O
#INCHI_AUX N/A
#Library_Class 1
#SpectrumID CCMSLIB00000085623
#IonMode Positive
#UpdateWorkflowName UPDATE-SINGLE-ANNOTATED-GOLD
#LibraryQualityString Gold
#TaskID d252d724072548979f1f6f1ced849daf
##Scan# 1511
#SpectrumFile p4-D06_GD6_01_18366.mzXML
#LibraryName Pharm_Active_Library.mgf
#MQScore -1
#Organism Pharm_Active_Library
#TIC_Query 0
#RT_Query -1
#MZErrorPPM -1
#SharedPeaks 0
#MassDiff 0
#LibMZ -1
#SpecMZ 857.547
#SpecCharge 0
#internalFilename spec-00000.mgf

>collision 10
55.797951 60.0
64.957672 168.0
66.177666 168.0
67.268547 172.0
72.275185 64.0
72.921295 84.0
82.066689 144.0
91.662605 156.0
93.593445 220.0
98.044914 84.0
105.99826 84.0
112.325462 48.0
116.068588 180.0
116.106453 176.0
120.67215 88.0
120.956543 164.0
122.749313 156.0
127.632736 140.0
131.299088 96.0
137.057846 196.0
140.068359 168.0
141.416595 132.0
142.089569 184.0
146.120117 132.0
146.592056 116.0
152.046982 212.0
156.004013 164.0
158.117126 208.0
159.119354 180.0
166.124115 156.0
168.058807 136.0
175.656281 172.0
178.128677 148.0
180.105148 132.0
182.100571 188.0
182.124741 156.0
182.977203 44.0
185.058823 40.0
185.793289 88.0
189.948013 224.0
191.143127 132.0
192.958023 100.0
195.991699 168.0
196.103165 192.0
197.110626 124.0
198.105911 212.0
198.45137 164.0
199.091156 108.0
200.224503 184.0
201.123917 148.0
203.155655 128.0
205.428604 196.0
207.487656 88.0
207.900696 84.0
208.093018 100.0
208.676254 124.0
209.487839 132.0
211.089676 148.0
219.116745 180.0
223.109146 44.0
224.130005 144.0
226.145798 128.0
227.098587 140.0
233.61731 172.0
235.128616 140.0
235.498047 168.0
235.846359 184.0
238.135147 120.0
240.160385 92.0
251.135864 220.0
252.118896 144.0
253.128036 108.0
255.562622 160.0
257.360291 144.0
259.154633 108.0
259.237946 156.0
263.13269 124.0
263.171936 44.0
263.246216 40.0
263.766388 80.0
263.995941 128.0
264.220337 32.0
266.141083 136.0
266.170288 104.0
266.290436 72.0
267.936401 56.0
268.151459 152.0
268.262299 96.0
272.198242 64.0
275.075745 108.0
277.159302 152.0
277.504028 44.0
278.260468 168.0
281.134766 500.0
281.951263 68.0
282.145111 160.0
283.678375 92.0
284.13446 160.0
286.218292 160.0
289.964691 224.0
290.70401 164.0
292.148041 104.0
293.977692 140.0
296.364471 136.0
298.052643 208.0
302.557068 92.0
303.721405 264.0
303.8255 32.0
306.001099 184.0
306.171722 108.0
308.92215 120.0
316.198761 164.0
316.269562 160.0
318.201355 136.0
319.203552 132.0
319.584137 240.0
320.203552 152.0
321.115936 132.0
322.206055 256.0
324.197662 120.0
324.947083 116.0
325.532166 136.0
328.241791 116.0
329.996613 76.0
330.607941 180.0
334.389587 132.0
336.216553 176.0
336.255615 156.0
336.638947 148.0
337.201538 128.0
338.233002 164.0
340.175781 136.0
344.192505 116.0
344.883362 48.0
348.775269 144.0
350.029022 176.0
350.189178 108.0
352.211395 164.0
353.208801 184.0
354.226959 84.0
354.654114 144.0
360.215576 96.0
361.243805 132.0
362.220428 124.0
362.72818 156.0
363.240112 140.0
364.200439 176.0
364.246033 108.0
365.268555 96.0
367.188202 52.0
368.19577 116.0
372.212891 116.0
373.500336 148.0
374.208435 160.0
380.040833 188.0
380.180145 160.0
380.215454 284.0
382.216766 148.0
383.224304 176.0
384.340363 112.0
386.465942 92.0
388.507141 196.0
389.025146 52.0
390.223694 160.0
391.407715 72.0
392.235046 100.0
393.2677 120.0
394.18866 108.0
394.261169 148.0
397.745178 144.0
398.213684 596.0
399.220032 192.0
400.217957 96.0
400.245819 144.0
400.560455 36.0
402.207275 144.0
402.970032 84.0
404.285034 144.0
405.246613 92.0
405.903961 96.0
407.224274 120.0
407.999817 108.0
408.233032 168.0
408.623199 60.0
408.768036 108.0
409.230927 124.0
409.379913 96.0
410.241028 228.0
410.496155 112.0
411.230408 152.0
412.389587 100.0
415.256134 184.0
415.479218 152.0
419.292053 308.0
420.076172 136.0
420.231201 124.0
420.300568 176.0
421.223236 168.0
422.212341 136.0
422.283691 344.0
423.190338 176.0
423.229462 148.0
424.251434 164.0
426.000824 180.0
427.200012 72.0
428.261993 44.0
432.254181 76.0
435.300934 156.0
436.277344 136.0
436.306427 152.0
436.368805 116.0
437.289612 192.0
438.129242 52.0
438.247864 432.0
439.025421 72.0
439.251495 164.0
440.227997 160.0
440.670044 84.0
442.414001 160.0
443.29776 180.0
444.052399 52.0
445.282104 104.0
445.496307 180.0
447.220367 56.0
448.271423 292.0
448.278259 168.0
449.280945 192.0
450.25415 156.0
450.927734 148.0
451.016479 156.0
451.295502 104.0
452.353149 184.0
453.276459 112.0
454.277039 140.0
454.616455 56.0
455.11734 176.0
455.282959 144.0
455.890442 136.0
456.247498 116.0
457.468414 156.0
459.650604 40.0
460.312897 156.0
460.957245 160.0
462.30957 188.0
463.280518 136.0
464.695282 184.0
465.266083 68.0
466.27359 176.0
466.675293 104.0
467.285828 160.0
468.284729 136.0
469.107727 100.0
469.293091 136.0
469.953003 152.0
470.734283 128.0
472.856934 40.0
474.286255 192.0
474.923645 72.0
478.52182 92.0
479.785248 56.0
479.959656 60.0
480.308533 112.0
481.293396 240.0
482.146667 128.0
482.776215 104.0
482.942383 68.0
483.222351 124.0
483.266937 172.0
484.295807 204.0
485.276489 132.0
485.973877 76.0
486.81665 128.0
487.427246 120.0
488.957611 96.0
489.503479 84.0
489.780945 132.0
490.91803 124.0
492.687988 196.0
493.332458 340.0
494.089417 152.0
494.332764 328.0
495.280212 224.0
495.346802 100.0
496.237427 132.0
496.488739 212.0
497.075745 176.0
497.281281 240.0
498.12796 64.0
498.203491 52.0
498.265686 136.0
502.325684 100.0
502.379242 92.0
502.513062 124.0
503.343872 148.0
505.569458 108.0
506.306976 156.0
506.321564 116.0
506.331665 156.0
508.289551 120.0
508.329926 100.0
508.572266 84.0
509.331116 120.0
510.247833 176.0
511.300415 120.0
512.309021 128.0
513.332153 132.0
515.923767 152.0
519.415222 100.0
519.610291 100.0
521.303894 92.0
523.363403 168.0
523.514771 184.0
524.321472 380.0
525.330078 208.0
525.744019 92.0
526.268921 72.0
526.331177 260.0
527.264771 112.0
529.314209 112.0
531.968811 128.0
533.35144 116.0
533.558289 128.0
535.329773 132.0
535.988525 52.0
537.307617 288.0
537.819397 48.0
538.013245 136.0
538.151733 176.0
538.294922 124.0
538.391846 68.0
538.604309 36.0
538.839905 116.0
539.329773 120.0
539.842957 32.0
540.305481 112.0
541.323792 132.0
541.657227 120.0
542.064941 96.0
542.333984 1148.0
542.393982 48.0
542.445007 152.0
543.332886 224.0
546.326172 112.0
548.837524 96.0
548.907471 140.0
549.317932 84.0
551.320923 208.0
551.359558 104.0
551.503174 140.0
552.371399 148.0
552.503906 172.0
553.875488 100.0
554.517395 140.0
555.183105 76.0
555.322998 708.0
556.248169 72.0
556.32196 304.0
556.689514 72.0
557.234375 60.0
557.347168 336.0
558.263794 80.0
559.345886 120.0
561.400085 120.0
561.692505 96.0
563.429749 48.0
564.346619 160.0
565.321045 132.0
565.784912 88.0
566.21582 88.0
566.327637 148.0
566.36261 44.0
567.352295 360.0
567.405151 80.0
567.94574 148.0
568.330017 132.0
574.295593 96.0
575.359741 172.0
576.773743 168.0
577.482056 140.0
577.553162 72.0
578.194275 124.0
579.399902 440.0
580.403564 104.0
581.371582 80.0
581.414795 152.0
582.230957 116.0
582.399048 156.0
583.018799 56.0
583.34314 160.0
584.330505 212.0
585.35675 92.0
586.021484 100.0
586.334656 120.0
586.956543 156.0
589.374817 164.0
589.959656 212.0
590.394775 128.0
591.09137 128.0
593.372742 84.0
595.362183 104.0
597.048523 84.0
598.255188 32.0
598.498657 200.0
598.971008 132.0
602.346558 132.0
603.441223 136.0
605.383789 112.0
605.7854 32.0
606.089172 60.0
607.025452 136.0
607.399719 224.0
608.379578 148.0
610.846497 36.0
611.535339 76.0
612.334412 152.0
612.751648 136.0
612.830505 168.0
613.347412 388.0
613.367493 132.0
614.348999 176.0
614.906555 148.0
619.42572 500.0
620.42395 296.0
620.600342 172.0
620.967346 172.0
621.379028 208.0
622.237671 116.0
622.428101 172.0
623.340332 200.0
623.412781 104.0
624.070984 60.0
624.380493 152.0
625.404114 236.0
626.359558 120.0
626.414612 156.0
626.983032 136.0
627.404602 152.0
627.511414 120.0
627.84552 104.0
627.895386 56.0
630.651367 64.0
631.166321 100.0
631.406372 72.0
632.28186 76.0
633.884338 120.0
634.270264 96.0
635.724731 76.0
635.825134 128.0
636.302002 160.0
637.438599 836.0
637.552734 128.0
638.201172 48.0
638.43335 512.0
638.608521 112.0
638.96228 124.0
639.207153 72.0
639.343018 176.0
639.383301 312.0
639.443665 80.0
639.962158 28.0
640.032654 176.0
640.138428 136.0
640.380188 128.0
640.463501 136.0
640.556458 52.0
641.394409 264.0
641.563843 44.0
642.023132 108.0
642.355164 96.0
642.395325 300.0
644.127808 108.0
646.337158 164.0
647.283752 136.0
647.628113 184.0
649.011597 92.0
649.397034 48.0
651.142944 144.0
653.893921 88.0
654.389954 96.0
654.539978 108.0
654.60614 72.0
655.380432 140.0
656.287659 36.0
657.261902 68.0
657.588501 124.0
659.422058 28.0
661.130249 180.0
662.179749 48.0
663.42511 108.0
664.453674 176.0
665.826233 132.0
667.434692 140.0
667.609558 124.0
669.72998 180.0
672.318115 144.0
673.577942 136.0
673.82074 124.0
679.988037 140.0
680.652527 156.0
681.432678 1060.0
681.545898 40.0
681.972046 136.0
682.231934 100.0
682.434082 492.0
683.413879 96.0
683.750793 32.0
684.2453 36.0
684.604614 68.0
685.443298 36.0
685.88623 96.0
688.369629 60.0
688.573303 104.0
691.092957 72.0
691.302246 188.0
692.076965 124.0
692.176453 180.0
692.684509 48.0
692.783997 104.0
693.96167 68.0
694.398438 80.0
694.975525 112.0
695.227356 100.0
696.828918 56.0
697.995789 120.0
698.164062 72.0
698.390198 104.0
698.569031 212.0
698.616394 92.0
698.695312 88.0
698.768921 72.0
698.811035 104.0
699.105713 48.0
699.200012 156.0
699.438965 3904.0
699.659363 64.0
699.898926 64.0
700.042725 52.0
700.132263 72.0
700.254333 84.0
700.312927 144.0
700.443726 2200.0
700.559814 48.0
700.616882 40.0
700.738037 64.0
700.848694 48.0
701.149048 40.0
701.21759 56.0
701.442688 896.0
701.503601 172.0
701.628723 124.0
701.807983 36.0
701.892334 96.0
701.939819 52.0
702.324768 64.0
702.412292 96.0
702.449463 156.0
702.715149 52.0
702.920959 40.0
703.124329 96.0
703.444885 116.0
703.554321 28.0
704.631653 28.0
704.81134 104.0
704.95929 104.0
705.257019 108.0
705.313416 40.0
707.794617 60.0
709.452942 56.0
709.839966 88.0
713.448486 88.0
714.415527 124.0
715.402039 132.0
715.796814 180.0
716.579773 156.0
716.851562 68.0
724.417053 80.0
725.156494 96.0
725.606812 136.0
726.480957 84.0
730.746643 148.0
732.264648 104.0
733.951416 60.0
734.922302 88.0
735.014038 116.0
735.456543 132.0
735.634705 64.0
738.368713 116.0
738.655396 96.0
739.315491 84.0
740.019165 128.0
740.858643 124.0
742.441345 116.0
744.813171 112.0
748.658386 100.0
748.80542 64.0
751.138245 124.0
751.411011 80.0
751.754761 108.0
752.235107 200.0
752.781067 152.0
754.125 100.0
754.524048 124.0
754.797424 108.0
756.301941 160.0
756.389526 136.0
758.821838 92.0
759.035706 44.0
763.219788 72.0
763.912781 132.0
764.88678 84.0
764.941772 176.0
766.880676 136.0
770.246521 104.0
771.462219 76.0
772.429932 92.0
772.512878 132.0
773.553223 144.0
773.647339 64.0
774.682922 32.0
775.270264 48.0
779.426575 96.0
779.515503 168.0
780.477112 104.0
781.472717 104.0
781.767639 140.0
782.17395 108.0
782.307556 32.0
782.541382 116.0
783.777893 104.0
784.69751 132.0
786.733887 64.0
789.074707 124.0
790.372314 140.0
790.467407 60.0
791.435791 64.0
792.4328 64.0
794.092041 116.0
794.294006 28.0
794.782104 120.0
798.461182 112.0
799.451721 204.0
799.498352 96.0
800.115906 156.0
800.495728 116.0
801.309875 156.0
801.608521 68.0
804.693848 116.0
804.772888 156.0
805.168213 68.0
806.625916 116.0
811.778076 40.0
812.447388 72.0
812.49884 108.0
812.679993 156.0
813.480225 76.0
814.059326 108.0
814.519348 60.0
815.547852 132.0
815.70697 128.0
816.639465 60.0
816.804443 100.0
819.218018 176.0
819.46875 48.0
821.526794 92.0
822.114502 164.0
822.770935 80.0
822.856567 140.0
824.490234 132.0
824.770264 116.0
825.078979 108.0
825.484924 112.0
825.896667 172.0
825.942444 144.0
826.56604 136.0
828.249207 152.0
829.314941 88.0
829.515564 64.0
830.765686 64.0
831.465759 68.0
833.671021 60.0
835.873413 168.0
836.748291 144.0
837.324158 152.0
837.479675 100.0
839.504639 260.0
839.606384 96.0
840.137024 68.0
840.350464 80.0
840.465881 60.0
840.521118 192.0
840.771729 156.0
840.910217 152.0
841.337402 72.0
841.520752 256.0
841.574097 172.0
842.740845 72.0
842.937317 40.0
843.075989 136.0
843.133789 48.0
843.555725 116.0
843.948853 92.0
844.347839 116.0
845.747986 88.0
846.08374 96.0
846.259583 140.0
846.332703 88.0
846.419556 80.0
846.552734 136.0
847.114563 180.0
847.630188 132.0
848.186584 112.0
848.801086 104.0
849.050476 184.0
849.149048 44.0
849.323059 88.0
849.42749 148.0
849.734924 156.0
849.926392 76.0
850.054077 144.0
850.872498 96.0
851.191833 56.0
851.714539 48.0
852.208313 208.0
852.400085 100.0
852.644104 72.0
852.934753 68.0
853.376587 80.0
853.551025 72.0
853.838562 40.0
853.975525 104.0
854.031555 132.0
854.237305 172.0
854.295471 60.0
854.469971 80.0
854.557251 76.0
854.763733 108.0
854.998169 88.0
855.214844 92.0
856.000793 60.0
856.260193 96.0
856.361877 132.0
856.449219 120.0
856.48999 164.0
856.542419 160.0
856.737061 136.0
856.810425 132.0
856.956909 140.0
857.039429 128.0
857.092957 140.0
857.189148 132.0
857.259033 216.0
857.331543 164.0
857.417297 176.0
857.53418 23860.0
857.715515 308.0
857.805298 88.0
857.898682 132.0
857.97467 124.0
858.013855 160.0
858.069702 296.0
858.15387 196.0
858.206238 100.0
858.294617 248.0
858.37323 112.0
858.534424 12724.0
858.696777 176.0
858.803284 64.0
858.889587 148.0
858.936462 128.0
858.987732 88.0
859.06897 228.0
859.116089 64.0
859.205261 56.0
859.301636 104.0
859.381531 36.0
859.53949 4544.0
859.692383 72.0
859.77478 104.0
859.835144 140.0
859.917847 84.0
860.03186 92.0
860.09375 96.0
860.109924 64.0
860.134216 148.0
860.304749 168.0
860.348022 60.0
860.42041 88.0
860.536133 800.0
860.668579 88.0
860.712341 52.0
860.764465 216.0
860.848999 180.0
861.010193 56.0
861.092834 52.0
861.147278 84.0
861.261353 36.0
861.395874 128.0
861.4599 48.0
861.552002 356.0
861.665405 68.0
861.724915 128.0
861.819092 84.0
861.892273 72.0
861.97406 96.0
862.021423 72.0
862.169678 76.0
862.252075 56.0
862.315125 88.0
862.410278 88.0
862.464966 116.0
862.552673 92.0
862.602783 188.0
862.768982 108.0
862.868347 96.0
862.9151 36.0
862.996948 84.0
863.113892 84.0
863.452148 120.0
863.651978 44.0
863.768921 80.0
864.424194 60.0
864.614807 56.0
864.722656 64.0
864.915833 68.0
865.040649 112.0
865.436829 44.0
865.571533 80.0
865.659363 80.0
865.799927 120.0
866.03418 40.0
866.180603 80.0
866.291931 48.0
867.323242 48.0
867.370117 52.0
867.716003 60.0
867.932922 40.0
868.085388 32.0
868.630859 48.0
869.46991 72.0
869.839661 68.0
870.009888 52.0
870.056885 52.0
870.943604 40.0
871.495789 52.0
872.982971 124.0
873.612305 64.0
873.659363 52.0
875.319153 80.0
877.007141 112.0
877.139648 40.0
877.735046 40.0
878.006348 96.0
878.071228 52.0
879.676147 84.0
882.689331 80.0
884.908142 32.0
885.601013 80.0
887.841309 44.0
891.973694 40.0
892.782288 92.0
898.918152 76.0
902.56189 84.0
903.662476 44.0
909.439331 68.0
963.241455 56.0
972.318481 108.0
975.069763 132.0
976.580566 108.0
989.942505 84.0
991.157715 132.0
999.112671 112.0
1005.653564 32.0
1009.570618 72.0
1012.792053 44.0
1020.71875 120.0
1029.621216 92.0
1040.42981 128.0
1040.770142 124.0
1047.709839 28.0
1050.946411 96.0
1061.651978 84.0
1106.936401 48.0
1110.163574 112.0
1115.488525 60.0
1129.097168 72.0
1142.990112 36.0
1150.147339 80.0
1151.680176 88.0
1161.00647 264.0
1175.394043 60.0
1186.04248 176.0
1209.441162 140.0
1214.4646 112.0
1225.817627 56.0
1229.381104 108.0
1231.671143 44.0
1245.589478 104.0
1253.427002 56.0
1253.603149 64.0
1264.691284 136.0
1267.687012 220.0
1294.529297 56.0
1295.811523 80.0
1318.471069 44.0
1330.75647 88.0
1339.148315 208.0
1352.480957 44.0
1362.336304 72.0
1365.805908 88.0
1381.828979 72.0
1389.155884 104.0
1394.182495 72.0
1399.091675 40.0
1408.883545 28.0
1439.234253 96.0
1447.249023 48.0
1448.3396 176.0
1451.151123 64.0
1452.463135 96.0
1456.569702 80.0
