>compound MLS001049111-01!ethyl 9H-carbazole-3-carboxylate
>formula C15H13NO2
>ionization [M+H]+
>parentmass 240.102
#inchi InChI=1S/C15H13NO2/c1-2-18-15(17)10-7-8-14-12(9-10)11-5-3-4-6-13(11)16-14/h3-9,16H,2H2,1H3
#inchikey NLLKBEGFXZYBFX
#Ion_Source LC-ESI
#Instrument qTof
#Compound_Source NIH Natural Product Library
#PI Dorrestein
#Data_Collector VVP/LMS
#Scan -1
#Precursor_MZ 240.102
#ExactMass 239.095
#Charge 1
#CAS_Number N/A
#Pubmed_ID N/A
#Smiles CCOC(=O)c1ccc2[nH]c3ccccc3c2c1
#INCHI_AUX N/A
#Library_Class 1
#SpectrumID CCMSLIB00000079889
#IonMode Positive
#UpdateWorkflowName UPDATE-SINGLE-ANNOTATED-GOLD
#LibraryQualityString Gold
#TaskID b1d8e8f6646f4e71acdff9ca3d919d08
##Scan# 2397
#SpectrumFile p1-E12_GE12_01_17932.mzXML
#LibraryName NIH_Natural_Products_Library.mgf
#MQScore -1
#Organism NIH_Natural_Products_Library
#TIC_Query 0
#RT_Query -1
#MZErrorPPM -1
#SharedPeaks 0
#MassDiff 0
#LibMZ -1
#SpecMZ 240.102
#SpecCharge 0
#internalFilename spec-00000.mgf

>collision 10
94.9907 192.0
95.049271 168.0
95.151772 188.0
95.169243 40.0
95.248871 104.0
95.293549 164.0
95.307152 124.0
95.408211 144.0
95.464867 144.0
95.649429 172.0
95.842232 156.0
96.011818 52.0
96.101547 120.0
96.140579 156.0
96.160095 124.0
96.357315 68.0
96.376854 100.0
96.402252 108.0
96.437263 184.0
96.490211 192.0
96.525406 140.0
96.62516 204.0
96.777817 112.0
97.054085 244.0
97.091347 184.0
97.193825 212.0
97.254181 152.0
97.534172 124.0
97.562584 84.0
97.582245 76.0
97.629433 68.0
97.696312 144.0
97.733688 180.0
98.078323 128.0
98.098038 224.0
98.19268 176.0
98.384079 200.0
98.528244 164.0
98.678444 204.0
98.698212 184.0
98.731834 140.0
98.755562 160.0
98.771385 104.0
98.84063 200.0
99.096046 172.0
99.171349 132.0
99.236771 132.0
99.449028 168.0
99.55822 104.0
99.681381 196.0
99.708412 240.0
99.796669 100.0
99.989624 148.0
100.310303 160.0
100.330231 108.0
100.3741 160.0
100.402016 144.0
100.533684 180.0
100.625496 176.0
100.735336 156.0
100.821251 156.0
100.867218 156.0
100.891205 124.0
101.023193 188.0
101.165276 168.0
101.243362 168.0
101.433701 176.0
101.473793 176.0
101.527931 200.0
101.556313 160.0
101.77877 64.0
101.889229 144.0
102.015839 204.0
102.218971 148.0
102.235069 196.0
102.305519 204.0
102.39814 200.0
102.448502 168.0
102.619804 188.0
102.652061 160.0
102.688362 152.0
102.752914 224.0
102.837662 140.0
102.861885 212.0
102.920433 176.0
102.999191 80.0
103.114365 124.0
103.25386 52.0
103.274086 36.0
103.316566 156.0
103.409645 64.0
103.425835 180.0
103.460251 132.0
103.510864 124.0
103.559471 164.0
103.636452 220.0
103.904076 172.0
104.013657 100.0
104.149696 148.0
104.176102 164.0
104.222832 108.0
104.300056 160.0
104.415947 176.0
104.684578 136.0
104.753822 372.0
104.841438 128.0
104.888313 164.0
104.953552 140.0
105.041245 156.0
105.092247 164.0
105.221016 220.0
105.267792 100.0
105.545685 204.0
105.776871 148.0
105.846474 36.0
105.924301 192.0
105.959129 156.0
106.205116 148.0
106.428802 200.0
106.763748 128.0
106.80867 176.0
106.874825 156.0
106.922157 128.0
107.165138 56.0
107.190834 196.0
107.297043 172.0
107.441628 184.0
107.462036 80.0
107.511559 212.0
107.526009 136.0
107.559029 212.0
107.651939 204.0
107.7015 36.0
107.776718 176.0
107.906082 160.0
107.951576 140.0
107.968117 96.0
107.984665 328.0
108.197792 120.0
108.342758 108.0
108.450508 228.0
108.506477 160.0
108.875824 132.0
109.272842 164.0
109.535141 208.0
109.570557 200.0
109.764397 52.0
109.814445 192.0
109.85199 240.0
109.989708 160.0
110.313484 216.0
110.330208 136.0
110.570755 160.0
110.7173 160.0
110.792709 100.0
110.887001 180.0
111.044243 76.0
111.323357 200.0
111.416878 244.0
111.657501 160.0
111.714287 160.0
111.876328 176.0
112.036377 144.0
112.095375 140.0
112.238708 144.0
112.422226 148.0
112.527763 160.0
112.548882 132.0
112.751671 136.0
112.912346 152.0
113.038933 200.0
113.126053 120.0
113.208626 188.0
113.32724 160.0
113.342072 208.0
113.467125 364.0
113.697342 120.0
113.728043 64.0
114.016884 156.0
114.045822 156.0
114.208237 208.0
114.227379 224.0
114.365685 364.0
114.491295 140.0
114.567978 140.0
114.593544 172.0
114.612717 180.0
114.680916 164.0
114.721413 136.0
114.755524 132.0
114.853622 52.0
114.889885 180.0
115.013649 136.0
115.054764 796.0
115.14389 196.0
115.220787 140.0
115.363968 184.0
115.468742 172.0
115.487991 80.0
115.535049 136.0
115.579979 216.0
115.712677 140.0
115.779053 244.0
115.813995 148.0
115.881874 92.0
115.991165 164.0
116.006172 152.0
116.046486 144.0
116.151985 184.0
116.413826 172.0
116.529816 188.0
116.714661 152.0
116.783478 128.0
116.990761 204.0
117.095551 144.0
117.226967 72.0
117.349823 116.0
117.645393 124.0
117.740395 104.0
117.761993 168.0
117.841919 60.0
117.941322 252.0
118.025635 44.0
118.042938 216.0
118.090515 108.0
118.159737 136.0
118.192184 180.0
118.404327 108.0
118.581985 128.0
118.766609 184.0
118.809662 208.0
119.050591 152.0
119.191788 152.0
119.217865 156.0
119.313499 148.0
119.367851 152.0
119.439621 172.0
119.454849 164.0
119.611519 208.0
119.877228 192.0
120.055984 156.0
120.213051 176.0
120.23278 196.0
120.300583 192.0
120.51458 128.0
120.546883 160.0
120.89048 128.0
120.998131 152.0
121.013054 212.0
121.083122 192.0
121.171417 156.0
121.337303 52.0
121.40377 180.0
121.425018 128.0
121.482048 116.0
121.813515 124.0
122.031082 144.0
122.050873 88.0
122.078445 208.0
122.219543 244.0
122.264244 156.0
122.687149 144.0
122.742271 152.0
122.788574 116.0
122.826073 164.0
123.07766 116.0
123.095322 168.0
123.230591 184.0
123.296349 180.0
123.444466 132.0
123.462158 144.0
123.479851 200.0
123.506386 208.0
123.535149 128.0
123.787453 144.0
123.809601 56.0
123.867188 112.0
123.88269 132.0
123.909279 60.0
123.935867 152.0
124.051109 116.0
124.334625 208.0
124.441559 108.0
124.745918 176.0
124.785934 72.0
124.881554 84.0
124.952736 84.0
125.088486 180.0
125.153046 148.0
125.188675 160.0
125.26886 156.0
125.404778 44.0
125.496178 88.0
125.625526 140.0
125.752708 64.0
125.882195 128.0
126.13018 144.0
126.174889 216.0
126.557472 152.0
126.597778 268.0
126.68737 184.0
126.729942 72.0
126.855438 76.0
126.880104 164.0
126.900276 176.0
126.969788 116.0
126.987732 148.0
127.034088 180.0
127.051384 192.0
127.102142 76.0
127.160492 200.0
127.185181 172.0
127.436691 152.0
127.461411 184.0
127.776184 184.0
127.920212 176.0
128.003738 184.0
128.049911 576.0
128.095856 180.0
128.118378 152.0
128.343765 220.0
128.442993 136.0
128.527267 200.0
128.670914 56.0
128.763489 120.0
128.892258 132.0
128.917114 128.0
128.935181 172.0
128.984909 156.0
129.053055 192.0
129.172592 132.0
129.238205 132.0
129.297028 140.0
129.564224 80.0
129.641266 248.0
129.761398 432.0
129.799942 36.0
129.890533 144.0
130.113037 132.0
130.269745 140.0
130.371979 176.0
130.644821 96.0
130.747223 168.0
130.845093 172.0
130.865585 156.0
130.922516 140.0
130.993118 128.0
131.079697 172.0
131.636276 136.0
131.725357 148.0
131.805313 180.0
131.828156 160.0
131.999603 180.0
132.104813 204.0
132.16658 216.0
132.233444 112.0
132.276443 168.0
132.297043 208.0
132.418396 184.0
132.448166 116.0
132.597092 120.0
132.775925 124.0
132.946655 152.0
132.955383 196.0
133.037491 112.0
133.159195 224.0
133.317703 160.0
133.33609 168.0
133.398148 144.0
133.451035 212.0
133.584412 144.0
133.607422 120.0
133.630432 184.0
133.713272 160.0
133.922775 136.0
133.961945 188.0
134.054092 140.0
134.157822 44.0
134.351532 208.0
134.489975 260.0
134.57077 208.0
134.623886 156.0
134.702408 176.0
134.737061 144.0
135.019058 224.0
135.324509 124.0
135.532959 184.0
135.565399 208.0
135.769043 76.0
135.799545 168.0
135.842041 100.0
136.054794 184.0
136.117493 280.0
136.159286 220.0
136.335846 120.0
136.714905 172.0
136.776138 104.0
136.808014 84.0
136.82663 176.0
136.889496 188.0
136.922104 176.0
137.015274 152.0
137.038574 176.0
137.101486 132.0
137.163437 56.0
137.201706 52.0
137.241348 152.0
137.304306 112.0
137.341629 148.0
137.591309 172.0
137.616989 132.0
137.733765 164.0
137.796829 164.0
137.958084 144.0
138.042252 216.0
138.065643 88.0
138.224716 180.0
138.259811 184.0
138.278534 168.0
138.463486 188.0
138.543137 152.0
138.779846 228.0
138.843155 116.0
138.89241 228.0
138.932281 176.0
138.969818 124.0
139.054214 9744.0
139.107117 96.0
139.12532 140.0
139.19046 148.0
139.250992 196.0
139.296143 200.0
139.394135 156.0
139.49823 52.0
139.561707 96.0
139.651062 156.0
139.867538 156.0
139.909912 176.0
140.013504 156.0
140.054779 2324.0
140.115234 120.0
140.192551 68.0
140.451889 232.0
140.531921 208.0
140.600525 120.0
140.872055 156.0
140.909851 56.0
140.985474 60.0
141.070496 1752.0
141.179321 96.0
141.229813 200.0
141.501114 80.0
141.572159 44.0
141.709534 172.0
141.887283 56.0
141.937073 112.0
142.01059 52.0
142.065826 2140.0
142.238373 176.0
142.283478 60.0
142.326218 240.0
142.399841 200.0
142.454468 216.0
142.485596 188.0
142.542374 136.0
142.635056 44.0
142.680222 100.0
142.854172 84.0
142.989456 160.0
143.070541 176.0
143.148956 144.0
143.246597 68.0
143.310928 124.0
143.334747 136.0
143.487289 80.0
143.585052 144.0
143.7258 160.0
143.752045 176.0
144.100662 172.0
144.138885 132.0
144.201019 56.0
144.299026 56.0
144.315765 140.0
144.387497 148.0
144.404236 148.0
144.581284 184.0
144.641113 112.0
144.657867 68.0
144.688995 176.0
144.827881 132.0
145.024353 152.0
145.048325 156.0
145.074692 28.0
145.216156 124.0
145.266525 168.0
145.314514 100.0
145.415298 120.0
145.809174 216.0
146.025543 52.0
146.049805 188.0
146.128983 140.0
146.234863 148.0
146.470825 216.0
146.51178 172.0
146.897995 172.0
146.989166 196.0
147.061569 160.0
147.148468 112.0
147.187103 148.0
147.334427 148.0
147.421402 160.0
147.709122 188.0
148.001953 160.0
148.261139 128.0
148.532684 164.0
148.59819 152.0
148.66127 40.0
148.709808 196.0
148.818787 144.0
148.865189 148.0
149.132431 132.0
149.297745 92.0
149.534195 104.0
149.716324 180.0
149.938019 176.0
149.955078 180.0
150.108658 140.0
150.223297 164.0
150.328201 144.0
150.582092 136.0
150.696899 172.0
150.76532 104.0
150.938889 176.0
151.026932 128.0
151.058731 188.0
151.163925 52.0
151.269165 184.0
151.362198 204.0
151.398926 156.0
151.744431 160.0
151.854782 184.0
152.068542 124.0
152.08786 240.0
152.127136 144.0
152.166412 60.0
152.254822 148.0
152.638168 140.0
152.704559 216.0
152.763596 128.0
152.795578 204.0
153.012161 84.0
153.058228 512.0
153.135269 188.0
153.172226 176.0
153.310196 152.0
153.618393 116.0
153.645523 192.0
153.925888 136.0
153.958115 200.0
154.064911 300.0
154.126968 148.0
154.188751 204.0
154.534943 96.0
154.886475 204.0
155.156586 240.0
155.201202 216.0
155.287994 164.0
155.38475 168.0
155.560944 120.0
155.600662 140.0
155.667709 60.0
155.729782 160.0
155.757111 140.0
155.873871 164.0
155.963348 112.0
156.076096 204.0
156.2742 156.0
156.338898 136.0
156.423508 132.0
156.545517 144.0
156.567917 40.0
156.587845 100.0
156.656296 192.0
156.994064 136.0
157.036469 76.0
157.128754 160.0
157.275986 144.0
157.535675 164.0
157.590637 344.0
157.850601 140.0
157.918121 240.0
157.958145 144.0
158.393677 172.0
158.498901 128.0
158.74707 156.0
158.784683 184.0
158.809769 164.0
158.839859 196.0
158.930176 132.0
159.30426 236.0
159.344452 132.0
159.379959 212.0
159.434906 80.0
159.470093 188.0
159.580704 100.0
159.781906 92.0
159.880035 184.0
160.003372 120.0
160.083939 240.0
160.24263 148.0
160.262787 156.0
160.295532 140.0
160.47197 164.0
160.6586 120.0
160.678787 168.0
160.703339 224.0
160.764572 200.0
161.029648 216.0
161.057434 136.0
161.178696 124.0
161.221664 116.0
161.274734 124.0
161.507355 144.0
161.57312 188.0
161.684448 160.0
162.066818 132.0
162.29747 100.0
162.3806 212.0
162.385681 204.0
162.61203 152.0
162.746582 180.0
162.779587 184.0
163.109863 156.0
163.147995 140.0
163.455734 192.0
163.493912 160.0
163.993088 176.0
164.133301 148.0
164.263367 200.0
164.62323 220.0
164.734024 196.0
164.991165 148.0
165.037811 148.0
165.058014 320.0
165.177841 152.0
165.300644 184.0
165.336472 152.0
165.356949 128.0
165.446533 180.0
165.529388 100.0
165.554077 100.0
165.588455 176.0
165.623215 200.0
165.67189 84.0
165.723129 252.0
165.786346 208.0
165.887375 140.0
165.920059 196.0
165.979675 152.0
166.00325 168.0
166.033295 184.0
166.065079 17248.0
166.109451 104.0
166.165039 212.0
166.192337 96.0
166.228256 96.0
166.297546 80.0
166.33606 32.0
166.374557 144.0
166.402802 144.0
166.439804 224.0
166.485336 84.0
166.513214 236.0
166.533768 92.0
166.612595 156.0
166.644226 144.0
166.712112 152.0
166.774323 108.0
166.810471 156.0
166.836975 156.0
166.879791 116.0
166.906387 236.0
166.951477 112.0
166.983353 148.0
167.026581 136.0
167.073257 86396.0
167.141586 92.0
167.170395 240.0
167.189514 336.0
167.227356 156.0
167.289474 120.0
167.298828 184.0
167.307556 272.0
167.364395 56.0
167.404465 72.0
167.427094 104.0
167.497208 360.0
167.524216 160.0
167.544678 72.0
167.576691 200.0
167.608383 232.0
167.631561 356.0
167.678665 140.0
167.726349 64.0
167.749619 144.0
167.788879 164.0
167.850037 168.0
167.886795 328.0
167.911652 124.0
167.930832 280.0
167.950165 184.0
167.994812 276.0
168.080353 85768.0
168.135452 204.0
168.171371 164.0
168.200562 104.0
168.221191 184.0
168.251297 56.0
168.293945 144.0
168.315201 156.0
168.364197 172.0
168.389877 48.0
168.437943 40.0
168.486588 88.0
168.506332 192.0
168.523712 148.0
168.613541 68.0
168.64653 48.0
168.674957 52.0
168.703857 72.0
168.747345 48.0
168.770615 60.0
168.827499 56.0
168.866287 36.0
168.886978 36.0
168.922516 196.0
168.941299 56.0
168.960556 172.0
169.010422 204.0
169.051041 68.0
169.083572 6976.0
169.161774 140.0
169.186844 136.0
169.19249 64.0
169.218842 148.0
169.264114 160.0
169.290802 232.0
169.328598 276.0
169.368469 296.0
169.402664 72.0
169.422058 68.0
169.440765 56.0
169.464172 264.0
169.491943 76.0
169.49617 180.0
169.574631 68.0
169.645676 36.0
169.673767 48.0
169.762344 68.0
169.800171 96.0
169.899826 44.0
169.930954 140.0
169.974213 184.0
170.004684 56.0
170.05983 4376.0
170.084991 892.0
170.113449 100.0
170.1427 136.0
170.200882 112.0
170.240067 88.0
170.260605 40.0
170.299561 96.0
170.339615 124.0
170.376617 176.0
170.412277 124.0
170.43132 140.0
170.466965 128.0
170.520416 112.0
170.541199 100.0
170.613983 64.0
170.666931 120.0
170.686783 92.0
170.712784 76.0
170.763733 88.0
170.801208 52.0
170.85585 128.0
170.946289 68.0
171.063278 668.0
171.170151 84.0
171.251511 116.0
171.319229 120.0
171.347885 176.0
171.392181 48.0
171.418243 60.0
171.475571 80.0
171.514664 64.0
171.611115 76.0
171.72847 60.0
171.817154 36.0
172.025925 72.0
172.062469 144.0
172.104248 112.0
172.152206 164.0
172.404648 48.0
172.540573 48.0
173.137146 152.0
173.21048 92.0
173.614105 180.0
174.049713 128.0
174.483215 144.0
174.848846 92.0
174.956772 56.0
175.233292 52.0
175.704849 116.0
175.961212 88.0
176.172485 60.0
176.420898 88.0
176.672119 116.0
176.775314 88.0
177.018356 88.0
177.279449 116.0
177.352646 64.0
177.389755 48.0
177.920319 68.0
177.938904 56.0
178.520798 80.0
178.603256 156.0
178.68837 92.0
178.741592 88.0
179.021088 60.0
179.069031 176.0
179.604767 124.0
179.868927 88.0
179.970367 40.0
180.081421 448.0
180.692001 48.0
180.935532 212.0
181.052475 1696.0
181.160492 84.0
181.26741 88.0
181.677872 100.0
181.720795 88.0
181.817398 112.0
181.943558 76.0
182.05806 832.0
182.12616 52.0
183.059372 108.0
183.482391 64.0
183.592941 112.0
183.687347 200.0
183.776367 116.0
183.914001 180.0
183.951797 208.0
184.043579 244.0
184.075211 5300.0
184.319092 60.0
184.348816 40.0
184.381241 64.0
184.484756 144.0
184.781448 144.0
184.973587 60.0
185.076782 704.0
185.127899 44.0
185.726852 80.0
185.827225 116.0
186.087784 128.0
186.682846 152.0
187.090973 192.0
187.559509 184.0
188.200607 72.0
188.255219 60.0
188.416367 52.0
188.689667 84.0
188.785355 120.0
192.023254 100.0
192.078033 128.0
193.08931 92.0
193.374283 132.0
193.961472 180.0
193.983643 116.0
194.060165 10588.0
194.119049 188.0
194.150009 68.0
194.291458 52.0
194.310883 128.0
194.485703 84.0
194.568985 52.0
194.788361 80.0
194.81337 44.0
194.912827 60.0
194.966187 80.0
195.027328 88.0
195.06282 1996.0
195.102386 76.0
195.430557 44.0
196.018082 40.0
196.129547 96.0
196.162994 88.0
196.224335 56.0
197.044861 172.0
197.114716 132.0
197.626404 156.0
198.054031 324.0
201.639206 84.0
203.576965 44.0
206.13504 56.0
207.13353 64.0
207.738358 60.0
209.103195 176.0
211.062515 748.0
211.883911 68.0
212.068481 436.0
213.07048 40.0
222.082794 100.0
222.118378 52.0
224.065521 144.0
233.551361 96.0
236.248459 108.0
238.013245 60.0
239.086075 168.0
240.090378 120.0
242.192017 120.0
248.576981 136.0
248.730774 80.0
248.834366 148.0
251.778519 116.0
255.821167 80.0
262.369293 92.0
274.126465 44.0
279.227966 72.0
290.266815 72.0
293.118744 128.0
296.071198 28.0
301.640656 116.0
307.817932 88.0
309.979706 112.0
315.896393 20.0
330.691132 44.0
337.512146 72.0
351.721344 120.0
354.848724 96.0
357.128143 96.0
369.743622 60.0
374.200165 32.0
376.143097 36.0
376.799591 96.0
382.492432 96.0
393.330811 120.0
402.58963 88.0
413.310974 172.0
414.02301 60.0
432.526001 28.0
435.282959 84.0
438.694611 64.0
444.529144 68.0
451.856445 40.0
459.252136 100.0
510.843506 100.0
550.724548 80.0
555.888367 60.0
557.442688 68.0
559.13562 88.0
566.013611 36.0
576.569519 124.0
588.405212 64.0
640.128906 100.0
652.184875 116.0
661.340332 80.0
683.943359 76.0
690.595886 96.0
706.095581 64.0
747.748291 40.0
751.944824 188.0
752.354187 208.0
757.795837 100.0
763.768616 172.0
763.994141 96.0
783.068909 188.0
796.464661 56.0
827.995056 164.0
837.068481 104.0
841.716125 132.0
852.461487 192.0
879.442993 48.0
890.782104 120.0
901.452759 40.0
911.520447 184.0
912.00061 96.0
912.875366 40.0
913.022644 124.0
918.50354 44.0
939.413147 40.0
939.596191 88.0
971.836121 248.0
973.791565 216.0
978.137756 216.0
996.724854 196.0
997.032776 176.0
1013.439331 124.0
1013.61676 152.0
1017.26355 236.0
1017.949219 144.0
1018.069885 120.0
1028.00708 144.0
1036.825806 188.0
1038.543945 200.0
1040.687378 160.0
1042.697998 172.0
1044.948608 152.0
1045.30249 188.0
1053.587524 212.0
1055.468262 112.0
1059.182983 128.0
1062.787476 184.0
1066.794678 196.0
1068.849854 72.0
1072.197021 208.0
1074.851074 220.0
1083.795898 212.0
1084.464355 152.0
1086.313477 104.0
1089.33313 168.0
1089.418457 188.0
1097.216919 36.0
1098.483032 176.0
1100.449707 188.0
1103.568115 156.0
1106.8302 184.0
1114.112427 136.0
1117.356689 92.0
1118.454712 132.0
1124.072876 156.0
1125.888672 104.0
1130.728882 132.0
1132.68396 92.0
1137.256836 88.0
1142.141602 112.0
1144.348877 72.0
1146.335938 204.0
1148.574219 156.0
1149.707642 120.0
1154.064575 168.0
1155.052002 56.0
1156.648804 128.0
1158.192627 184.0
1158.795532 116.0
1159.181763 180.0
1159.730713 180.0
1160.65271 124.0
1165.091431 172.0
1167.055542 140.0
1168.626709 132.0
1172.290039 160.0
1179.046143 100.0
1181.603394 184.0
1182.226074 176.0
1186.842896 148.0
1187.761963 116.0
1188.132324 148.0
1191.496338 232.0
1192.252075 188.0
1198.624268 200.0
1201.271729 200.0
1202.113525 208.0
1204.246704 140.0
1204.488403 72.0
1207.861572 208.0
1207.958496 172.0
1208.117554 88.0
1208.657227 184.0
1211.364258 160.0
1213.422485 56.0
1216.037598 104.0
1216.106934 144.0
1216.155518 204.0
1221.116333 52.0
1225.578491 140.0
1227.82312 80.0
1230.418823 216.0
1230.733032 44.0
1231.82251 196.0
1240.072021 176.0
1242.477173 180.0
1245.369141 152.0
1245.727417 144.0
1246.184082 132.0
1247.0625 196.0
1247.118652 180.0
1248.109863 152.0
1248.496704 176.0
1250.543945 112.0
1254.643555 204.0
1259.046509 140.0
1260.671265 92.0
1263.046753 196.0
1265.693604 108.0
1265.969727 148.0
1271.094849 72.0
1271.336182 172.0
1272.393799 44.0
1274.730591 160.0
1276.436523 148.0
1277.112183 196.0
1279.061768 176.0
1287.060669 188.0
1287.953369 172.0
1289.682495 116.0
1289.946899 152.0
1291.284058 164.0
1293.115601 164.0
1293.623779 184.0
1295.779297 216.0
1299.198975 212.0
1299.485962 164.0
1304.304565 184.0
1304.549072 204.0
1305.728271 128.0
1310.025269 96.0
1310.306274 204.0
1312.893921 144.0
1314.502563 196.0
1315.476929 180.0
1320.267212 96.0
1320.881958 144.0
1321.294312 60.0
1322.35083 104.0
1322.596924 228.0
1323.78418 228.0
1325.080811 196.0
1328.190674 160.0
1328.828979 256.0
1329.460327 124.0
1334.297852 112.0
1335.381226 156.0
1336.625244 144.0
1341.162354 84.0
1341.803833 80.0
1342.00061 212.0
1344.232666 36.0
1346.145142 152.0
1347.912964 212.0
1348.512207 140.0
1349.023804 208.0
1349.283569 216.0
1350.632568 108.0
1352.461792 152.0
1352.681396 140.0
1355.896729 116.0
1358.081543 248.0
1358.829834 160.0
1359.167358 156.0
1361.516357 80.0
1362.507935 196.0
1363.411743 160.0
1365.36731 148.0
1365.705566 160.0
1365.75708 128.0
1365.830688 160.0
1366.661987 112.0
1368.892212 148.0
1371.315918 28.0
1371.935181 72.0
1372.311157 60.0
1372.583984 176.0
1374.442749 216.0
1375.852417 208.0
1375.918823 140.0
1376.354492 148.0
1376.694214 168.0
1377.44751 132.0
1377.949829 132.0
1379.529053 176.0
1379.790039 96.0
1380.278076 76.0
1381.187744 208.0
1382.341797 172.0
1385.244141 120.0
1386.333252 156.0
1386.577759 184.0
1388.483154 140.0
1388.935547 120.0
1389.343506 156.0
1391.139404 160.0
1392.297729 144.0
1392.394287 176.0
1396.504272 128.0
1396.727417 156.0
1397.024902 156.0
1397.79126 172.0
1399.212891 128.0
1401.96875 64.0
1402.088013 164.0
1403.966675 148.0
1405.160156 148.0
1408.579224 200.0
1408.638916 100.0
1411.553711 192.0
1411.67334 28.0
1412.151978 168.0
1413.992432 92.0
1415.444702 152.0
1415.789185 72.0
1416.897827 196.0
1417.16748 188.0
1417.692017 88.0
1419.09375 56.0
1422.019287 176.0
1422.101807 116.0
1422.972656 232.0
1423.370483 224.0
1424.144043 196.0
1424.324341 152.0
1424.684937 204.0
1424.782593 172.0
1425.173218 168.0
1425.301025 164.0
1426.55603 168.0
1426.698853 160.0
1427.886963 192.0
1429.210938 176.0
1430.016113 184.0
1433.420044 144.0
1433.661133 164.0
1434.196289 188.0
1435.764526 160.0
1437.748535 156.0
1438.171265 232.0
1438.805298 88.0
1442.212158 40.0
1444.245972 88.0
1447.364014 176.0
1447.704712 172.0
1448.29541 188.0
1448.409058 164.0
1449.742554 168.0
1450.28064 116.0
1450.568604 164.0
1451.16748 116.0
1451.81958 224.0
1454.376465 212.0
1454.64209 156.0
1456.502441 176.0
1457.026611 108.0
1457.687622 148.0
1457.748413 164.0
1457.847168 96.0
1458.181519 172.0
1458.675659 188.0
1460.584229 172.0
1461.268799 192.0
1461.421021 160.0
1464.108032 132.0
1465.646851 180.0
1466.271729 152.0
1466.401245 152.0
1466.76709 212.0
1467.07959 64.0
1468.09375 176.0
1468.688599 184.0
1468.864014 176.0
1470.687622 112.0
1471.535034 160.0
1472.756836 136.0
1473.322144 200.0
1473.940918 128.0
1475.194336 172.0
1479.141479 164.0
1480.129028 160.0
1480.580811 208.0
1484.397095 208.0
1485.164062 148.0
1485.616577 168.0
1487.38916 208.0
1487.627197 112.0
1488.494751 220.0
1488.80188 184.0
1488.917114 176.0
1490.238281 140.0
1490.553345 116.0
1491.529419 192.0
1491.836792 104.0
1492.690308 108.0
1493.367065 204.0
1493.559326 100.0
1495.829224 164.0
1497.184326 188.0
1497.553955 220.0
1499.603394 180.0
1500.451416 140.0
1500.535034 184.0
1501.39978 128.0
1501.746826 204.0
1502.525879 40.0
1504.169678 148.0
1504.254517 116.0
