>compound MLS000862189-01!Linopirdine
>formula C26H21N3O
>ionization [M+H]+
>parentmass 392.17573874409055
#inchi InChI=1S/C26H21N3O/c30-25-26(18-20-10-14-27-15-11-20,19-21-12-16-28-17-13-21)23-8-4-5-9-24(23)29(25)22-6-2-1-3-7-22/h1-17H,18-19H2
#inchikey YEJCDKJIEMIWRQ
#Ion_Source LC-ESI
#Instrument qTof
#Compound_Source NIH Pharmacologically Active Library
#PI Dorrestein
#Data_Collector VP/LMS
#Scan -1
#Precursor_MZ 392.177
#ExactMass 391.168
#Charge 1
#CAS_Number N/A
#Pubmed_ID N/A
#Smiles O=C1N(c2ccccc2C1(Cc3ccncc3)Cc4ccncc4)c5ccccc5
#INCHI_AUX N/A
#Library_Class 1
#SpectrumID CCMSLIB00000084946
#IonMode Positive
#UpdateWorkflowName UPDATE-SINGLE-ANNOTATED-GOLD
#LibraryQualityString Gold
#TaskID d252d724072548979f1f6f1ced849daf
##Scan# 1235
#SpectrumFile p3-C11_GC11_01_18256.mzXML
#LibraryName Pharm_Active_Library.mgf
#MQScore -1
#Organism Pharm_Active_Library
#TIC_Query 0
#RT_Query -1
#MZErrorPPM -1
#SharedPeaks 0
#MassDiff 0
#LibMZ -1
#SpecMZ 392.177
#SpecCharge 0
#internalFilename spec-00000.mgf

>collision 10
45.414677 76.0
46.639416 156.0
48.559074 132.0
48.82296 120.0
51.761436 172.0
51.877491 164.0
53.533398 104.0
53.943802 72.0
55.190174 164.0
55.726746 180.0
56.140568 120.0
57.820255 172.0
58.223537 128.0
58.34206 156.0
59.666058 108.0
59.812202 136.0
60.761078 132.0
60.83247 216.0
60.961384 144.0
61.246105 80.0
61.526806 204.0
62.437222 196.0
62.605618 128.0
63.061577 96.0
63.164356 44.0
64.126602 152.0
64.546478 124.0
64.759331 108.0
65.284149 172.0
65.371017 112.0
65.954865 108.0
65.995285 180.0
66.786697 172.0
69.553955 108.0
70.59362 224.0
71.608986 148.0
72.360451 256.0
73.281021 180.0
74.646988 112.0
76.240913 160.0
78.483414 188.0
80.910522 80.0
81.452103 124.0
82.477409 208.0
83.529137 144.0
84.167023 40.0
84.283928 92.0
84.631462 144.0
85.295593 128.0
87.480324 36.0
87.599503 136.0
87.787758 180.0
88.351845 136.0
88.391136 124.0
88.428566 164.0
88.666428 224.0
91.034103 240.0
91.290657 132.0
91.970825 152.0
92.048996 536.0
92.242065 32.0
92.320457 52.0
93.057304 1964.0
93.074623 348.0
93.561928 64.0
93.943504 116.0
94.061897 204.0
94.372261 76.0
94.428345 180.0
94.617981 76.0
95.067673 196.0
95.454254 200.0
96.614784 196.0
96.788979 124.0
97.106453 92.0
98.348 116.0
99.434624 144.0
101.495392 120.0
103.097786 212.0
103.73333 156.0
104.908333 96.0
107.203995 80.0
107.401917 140.0
109.532829 100.0
112.318687 132.0
113.039131 148.0
114.346428 196.0
114.734108 76.0
117.009384 104.0
117.420967 148.0
118.568993 136.0
119.035408 144.0
120.058212 204.0
121.308891 116.0
121.558922 168.0
121.765289 156.0
121.859749 176.0
123.789818 116.0
123.891708 164.0
124.164345 148.0
125.362625 104.0
126.376396 156.0
126.553223 124.0
127.490875 92.0
127.526833 132.0
127.621254 200.0
128.048813 44.0
128.578644 116.0
128.711838 112.0
128.784103 184.0
128.928696 236.0
129.863434 148.0
131.362747 144.0
131.572708 176.0
131.609238 88.0
131.979401 100.0
132.753372 140.0
133.212418 180.0
134.668198 144.0
134.9039 164.0
135.533417 108.0
139.216843 212.0
140.447769 68.0
141.331329 184.0
142.122726 136.0
142.780746 192.0
143.609589 188.0
145.029861 160.0
146.079208 260.0
146.459534 36.0
147.990631 192.0
148.072968 152.0
149.022964 208.0
149.159988 40.0
149.264526 164.0
150.038803 136.0
150.74176 184.0
150.895752 96.0
151.018021 124.0
151.757584 168.0
152.086319 132.0
152.21579 76.0
152.548111 84.0
152.816177 200.0
153.710617 128.0
155.199707 120.0
156.422043 208.0
159.111969 200.0
159.226486 152.0
162.091675 356.0
162.212448 132.0
162.245407 68.0
162.600525 136.0
163.05513 188.0
164.055481 132.0
164.823715 152.0
165.053772 120.0
165.184204 96.0
165.916611 180.0
166.16539 112.0
167.07486 140.0
167.705414 148.0
167.909439 92.0
168.082275 92.0
170.703781 128.0
171.208633 120.0
173.914673 172.0
174.953003 116.0
175.203186 208.0
175.495743 232.0
175.767426 76.0
177.062775 200.0
177.256165 96.0
178.418701 152.0
179.074463 240.0
179.291779 68.0
180.078873 748.0
180.594666 80.0
181.084366 368.0
182.385803 184.0
183.675598 144.0
184.0737 148.0
184.139847 176.0
185.219055 144.0
185.517136 48.0
185.617447 52.0
186.388351 236.0
188.634109 168.0
189.811386 120.0
190.956573 108.0
191.454712 156.0
191.537338 196.0
191.978317 60.0
192.047272 152.0
192.080368 148.0
192.1521 156.0
193.080093 164.0
193.326447 160.0
193.58667 96.0
194.093185 432.0
194.787613 100.0
195.054367 176.0
195.092575 828.0
195.265686 56.0
195.78891 176.0
196.095688 152.0
196.265427 140.0
196.376984 96.0
196.404877 120.0
196.664368 188.0
197.449463 136.0
197.981201 112.0
198.407104 156.0
198.847504 156.0
200.132507 184.0
201.412552 132.0
201.955261 148.0
202.544006 176.0
204.079712 164.0
204.577209 124.0
204.759445 192.0
205.041504 128.0
205.075455 368.0
205.463516 192.0
205.891678 128.0
206.075546 164.0
206.755066 92.0
206.829483 168.0
207.872711 124.0
208.065018 160.0
208.349335 116.0
209.200577 148.0
210.547119 120.0
210.882263 48.0
211.747345 156.0
215.202042 224.0
215.435684 156.0
215.654846 120.0
216.459366 164.0
217.086472 260.0
217.890717 156.0
218.352219 116.0
219.076324 160.0
219.102829 188.0
219.724899 120.0
220.077042 188.0
221.081345 128.0
221.34166 68.0
222.089508 1464.0
222.833618 156.0
223.091202 264.0
223.687134 56.0
225.085403 200.0
225.243698 168.0
226.212555 64.0
228.072342 44.0
230.830933 176.0
230.936783 172.0
232.423538 136.0
233.432755 68.0
234.998398 112.0
235.282242 200.0
235.370773 160.0
235.434906 184.0
235.777069 280.0
237.552963 104.0
238.090103 100.0
238.292847 240.0
239.110809 108.0
239.48642 200.0
239.985657 164.0
240.621246 188.0
241.387527 76.0
241.579285 188.0
242.099274 164.0
243.78067 224.0
244.06665 144.0
244.106766 160.0
244.514618 236.0
245.648788 176.0
245.786072 112.0
246.120056 200.0
246.648026 152.0
246.757446 212.0
246.926315 228.0
247.126511 124.0
247.445755 144.0
247.473938 36.0
251.365341 72.0
252.233856 48.0
252.543732 168.0
254.56572 112.0
254.657822 96.0
254.708649 112.0
254.854782 164.0
255.087402 204.0
255.735672 56.0
256.100677 216.0
256.554321 224.0
256.704193 152.0
257.447723 132.0
258.118805 164.0
259.235992 28.0
259.300079 112.0
259.405884 168.0
260.48407 152.0
261.979919 148.0
263.098969 128.0
264.243073 112.0
265.668549 156.0
267.393951 188.0
267.826996 132.0
268.61908 60.0
269.105896 164.0
269.886261 140.0
270.048431 216.0
270.11322 160.0
270.481659 184.0
270.625732 92.0
270.67157 104.0
270.82547 120.0
270.920471 84.0
271.02533 172.0
271.078979 212.0
271.122437 13412.0
271.238342 56.0
271.311371 128.0
271.348175 64.0
271.382599 68.0
271.444885 32.0
271.497375 56.0
271.528351 116.0
271.631195 80.0
271.792603 44.0
271.825409 180.0
271.9534 60.0
271.997681 80.0
272.032196 132.0
272.127899 3484.0
272.201355 40.0
272.232452 44.0
272.304474 104.0
272.403259 44.0
272.478821 152.0
272.551086 32.0
272.842621 80.0
273.034332 60.0
273.130981 772.0
273.422546 48.0
273.705658 128.0
273.755035 80.0
273.837372 52.0
273.890076 68.0
273.919708 60.0
274.081146 100.0
274.123993 144.0
274.176727 48.0
274.232758 84.0
274.328339 76.0
274.397583 80.0
274.52948 128.0
274.625122 84.0
274.717468 48.0
274.743866 64.0
274.865936 56.0
275.252136 80.0
275.959259 76.0
276.918915 40.0
281.114532 120.0
282.116516 200.0
282.444244 116.0
282.775482 92.0
283.126801 316.0
283.40506 140.0
283.435211 140.0
284.102417 96.0
284.182922 112.0
284.340637 128.0
285.101135 152.0
288.260651 172.0
289.912048 152.0
291.595367 40.0
295.010803 212.0
295.51355 128.0
296.400391 184.0
297.103241 104.0
297.154694 92.0
298.793518 124.0
298.827942 196.0
298.865784 156.0
299.044739 136.0
299.117554 6704.0
299.20459 40.0
299.271942 76.0
299.316681 152.0
299.364899 140.0
299.513 36.0
299.537109 56.0
299.575012 120.0
299.809296 136.0
299.940277 60.0
300.012665 44.0
300.040253 116.0
300.124176 17060.0
300.191956 40.0
300.222992 56.0
300.250916 124.0
300.374756 112.0
300.467896 80.0
300.52655 48.0
300.566437 64.0
300.695648 48.0
300.809753 64.0
300.878601 140.0
301.051239 108.0
301.126587 2856.0
301.206665 112.0
301.389771 100.0
301.455414 56.0
301.864624 64.0
301.890991 48.0
302.025879 84.0
302.125275 300.0
302.219604 64.0
302.776917 48.0
302.860046 132.0
302.96051 80.0
303.085236 116.0
303.147614 52.0
303.244659 76.0
303.279297 56.0
303.324371 56.0
304.330444 32.0
304.389496 44.0
304.677765 152.0
305.126099 36.0
305.233887 64.0
306.675171 108.0
309.147858 112.0
309.865662 100.0
323.963135 172.0
338.11795 112.0
343.334808 132.0
348.565613 136.0
353.065155 112.0
364.009094 56.0
364.187592 136.0
383.570709 52.0
392.171906 1108.0
392.399323 112.0
393.181671 284.0
393.282959 40.0
395.191711 120.0
405.049072 40.0
413.411591 128.0
432.149628 112.0
447.3414 56.0
450.440826 68.0
454.013092 92.0
469.749359 88.0
479.793152 68.0
491.221619 80.0
506.822632 80.0
524.325134 92.0
552.583069 88.0
571.508484 124.0
588.17218 104.0
601.906982 128.0
630.131836 76.0
661.453064 80.0
680.891907 32.0
681.536072 40.0
692.77417 56.0
709.79303 36.0
742.876282 44.0
807.724487 208.0
807.882874 120.0
810.062317 168.0
816.004211 36.0
823.206543 148.0
833.046509 148.0
864.642761 96.0
865.860535 168.0
917.375916 60.0
921.081055 164.0
987.986572 36.0
996.714172 192.0
1009.409546 192.0
1010.927795 156.0
1017.850037 164.0
1030.85144 148.0
1036.719727 124.0
1062.278564 148.0
1105.590332 224.0
1111.83313 196.0
1164.112793 132.0
1173.032593 48.0
1204.592529 156.0
1210.568359 40.0
1219.233032 204.0
1219.30957 192.0
1224.074951 188.0
1237.859497 136.0
1241.643799 200.0
1243.5802 168.0
1250.735596 60.0
1266.474609 156.0
1287.641724 156.0
1316.397217 104.0
1333.408569 140.0
1344.06897 236.0
1353.571655 44.0
1354.267334 172.0
1357.242676 144.0
1364.945435 288.0
1384.382812 196.0
1399.06958 92.0
1404.502075 72.0
1405.133545 184.0
1410.445801 72.0
1410.984009 56.0
1436.548096 44.0
1449.120728 92.0
1453.556396 208.0
1455.082031 116.0
1461.276367 140.0
1467.178711 200.0
1477.022217 148.0
1486.722046 152.0
1492.975464 160.0
