>compound MLS001160273-01!N-(4-acetamidophenyl)-2-[(5-hydroxy-2,2-dimethyl-4-oxo-3H-chromen-7-yl)oxy]acetamide
>formula C21H22N2O6
>ionization [M+H]+
>parentmass 399.156
#inchi InChI=1S/C21H22N2O6/c1-12(24)22-13-4-6-14(7-5-13)23-19(27)11-28-15-8-16(25)20-17(26)10-21(2,3)29-18(20)9-15/h4-9,25H,10-11H2,1-3H3,(H,22,24)(H,23,27)
#inchikey UEHSUUVWQIHXEP
#Ion_Source LC-ESI
#Instrument qTof
#Compound_Source NIH Natural Product Library
#PI Dorrestein
#Data_Collector VVP/LMS
#Scan -1
#Precursor_MZ 399.156
#ExactMass 398.148
#Charge 1
#CAS_Number N/A
#Pubmed_ID N/A
#Smiles CC(=O)Nc1ccc(NC(=O)COc2cc(O)c3C(=O)CC(C)(C)Oc3c2)cc1
#INCHI_AUX N/A
#Library_Class 1
#SpectrumID CCMSLIB00000080165
#IonMode Positive
#UpdateWorkflowName UPDATE-SINGLE-ANNOTATED-GOLD
#LibraryQualityString Gold
#TaskID b1d8e8f6646f4e71acdff9ca3d919d08
##Scan# 1989
#SpectrumFile p2-A05_GA5_01_17982.mzXML
#LibraryName NIH_Natural_Products_Library.mgf
#MQScore -1
#Organism NIH_Natural_Products_Library
#TIC_Query 0
#RT_Query -1
#MZErrorPPM -1
#SharedPeaks 0
#MassDiff 0
#LibMZ -1
#SpecMZ 399.156
#SpecCharge 0
#internalFilename spec-00000.mgf

>collision 10
95.067543 176.0
95.086082 152.0
95.114944 224.0
95.348015 176.0
95.530792 200.0
96.509857 124.0
96.772049 228.0
96.895439 148.0
97.026749 172.0
97.060081 160.0
98.003578 160.0
98.177048 160.0
98.218468 132.0
98.872459 144.0
99.201263 192.0
99.401581 160.0
99.721329 124.0
100.045563 232.0
101.233589 160.0
101.895523 256.0
102.622101 216.0
102.936882 132.0
103.217766 148.0
103.367455 160.0
103.424118 192.0
103.908455 192.0
104.048309 132.0
104.080978 72.0
104.229263 68.0
104.341049 92.0
104.552597 184.0
104.752136 200.0
104.80307 132.0
105.039566 148.0
105.062004 176.0
105.568558 236.0
105.953369 120.0
106.064156 364.0
106.496979 84.0
107.046097 184.0
107.062469 572.0
107.085228 164.0
107.132599 220.0
107.29747 160.0
107.344894 180.0
107.379959 40.0
107.615211 132.0
107.747391 212.0
107.825912 180.0
108.051308 200.0
108.067261 328.0
108.92823 168.0
109.042511 128.0
109.07444 708.0
109.292061 40.0
109.385712 112.0
109.654411 96.0
109.931786 148.0
110.080002 204.0
110.598495 100.0
110.69899 188.0
111.007767 184.0
111.18116 156.0
111.340714 288.0
111.641243 116.0
111.691719 212.0
112.576927 156.0
112.794548 96.0
113.228302 164.0
114.577156 212.0
114.632561 40.0
114.963097 188.0
115.050613 144.0
115.123207 132.0
115.424515 32.0
115.59993 48.0
115.93615 148.0
116.054047 156.0
117.607292 112.0
117.810272 72.0
119.065941 240.0
119.233887 128.0
119.727737 108.0
120.045914 152.0
120.06633 200.0
120.240082 152.0
120.325211 52.0
120.427849 192.0
120.451874 68.0
120.692276 244.0
120.707588 68.0
120.727165 168.0
120.83445 208.0
120.895714 212.0
120.97451 168.0
121.03363 224.0
121.075874 7308.0
121.12999 36.0
121.173805 84.0
121.192139 76.0
121.23735 192.0
121.268036 88.0
121.414932 56.0
121.594833 76.0
121.730949 80.0
121.95504 68.0
122.060135 392.0
122.07888 1132.0
122.39283 124.0
123.07859 168.0
124.08976 180.0
124.107498 248.0
124.542473 188.0
124.606895 144.0
124.646889 144.0
125.020485 436.0
125.642159 92.0
126.307869 36.0
126.419739 168.0
127.039429 156.0
127.258087 84.0
128.583984 196.0
129.574432 236.0
130.027954 116.0
130.061996 160.0
131.058578 152.0
132.039734 304.0
132.070251 272.0
132.328033 196.0
132.396729 88.0
133.076248 304.0
133.666214 56.0
134.052765 168.0
135.011169 252.0
135.041199 172.0
135.064331 180.0
135.082565 168.0
135.471741 132.0
135.838013 176.0
135.93779 204.0
136.012054 152.0
136.0849 252.0
136.318619 184.0
136.572037 120.0
137.024841 228.0
137.576385 160.0
138.525833 204.0
139.037552 184.0
139.147308 52.0
139.462097 144.0
140.53125 56.0
140.597321 28.0
140.807449 156.0
141.135925 132.0
141.187943 48.0
141.464783 68.0
141.692139 204.0
141.922043 72.0
142.090439 196.0
142.58197 212.0
142.886337 112.0
143.055313 92.0
143.088638 164.0
143.980453 152.0
144.009125 120.0
144.181137 48.0
144.245682 172.0
144.875046 108.0
145.061966 148.0
145.080109 168.0
145.378571 152.0
145.589828 52.0
145.695526 184.0
146.068283 184.0
146.489395 172.0
146.619507 188.0
147.060883 132.0
147.094666 188.0
148.063629 312.0
148.547592 192.0
148.582993 216.0
149.019836 176.0
149.071487 8892.0
149.136658 96.0
149.163391 164.0
149.195572 136.0
149.277664 72.0
149.297119 60.0
149.396851 28.0
149.474701 132.0
149.581787 52.0
149.737747 76.0
149.754669 136.0
149.88623 80.0
149.981277 72.0
150.074539 1664.0
150.149506 200.0
150.437439 244.0
150.894287 80.0
150.91629 108.0
151.040894 160.0
151.085571 2620.0
151.158447 84.0
151.180481 144.0
151.204727 44.0
151.266144 108.0
151.327347 84.0
151.391006 40.0
151.898361 68.0
151.989136 76.0
152.089157 192.0
152.524536 200.0
152.603195 108.0
152.68927 144.0
152.984177 188.0
152.987427 160.0
153.01857 12260.0
153.053482 252.0
153.184006 64.0
153.285034 96.0
153.506882 96.0
153.686951 72.0
153.936264 32.0
154.02034 960.0
154.195663 152.0
154.31926 64.0
154.442917 136.0
154.774536 132.0
154.796829 48.0
154.982605 140.0
155.022263 388.0
155.109009 160.0
155.22731 128.0
155.260254 96.0
155.329697 156.0
157.565247 20.0
157.60022 228.0
158.212982 104.0
158.320663 192.0
160.04834 184.0
161.069214 328.0
161.476685 84.0
161.5298 60.0
162.079193 184.0
162.317474 160.0
162.368195 140.0
162.799622 144.0
163.038422 160.0
163.0858 2412.0
163.178238 48.0
163.229095 76.0
163.252899 88.0
163.96991 52.0
164.089569 428.0
164.268234 124.0
164.630661 196.0
164.926559 148.0
165.018951 2176.0
165.093216 124.0
165.190414 92.0
165.251816 88.0
165.384888 48.0
165.541061 76.0
165.599976 156.0
166.022705 148.0
166.20755 104.0
166.944794 20.0
167.033432 148.0
168.034378 140.0
168.266663 184.0
169.130096 188.0
169.894547 132.0
171.030121 676.0
171.454681 104.0
171.498978 100.0
172.080719 140.0
172.977432 140.0
173.070023 784.0
174.074615 140.0
174.664719 60.0
175.08139 168.0
176.045242 312.0
176.085403 200.0
176.944809 124.0
177.045425 48.0
178.457138 116.0
178.552872 116.0
179.031311 156.0
179.069763 796.0
179.109146 244.0
179.191727 64.0
179.676956 108.0
180.034637 156.0
180.064026 84.0
180.785858 160.0
183.030029 176.0
183.226654 40.0
183.253586 140.0
184.6465 180.0
185.312424 104.0
187.08046 176.0
187.887146 216.0
188.015396 288.0
188.110916 32.0
188.900665 264.0
189.059921 96.0
190.3423 44.0
190.911133 148.0
191.077972 2688.0
191.168076 100.0
191.709488 124.0
192.015503 56.0
192.080566 544.0
193.013412 1272.0
193.064468 132.0
193.344391 60.0
193.70433 132.0
193.812378 72.0
194.017838 172.0
194.053528 332.0
194.075714 52.0
195.506302 136.0
195.787476 136.0
197.722214 152.0
201.069489 84.0
201.877472 80.0
203.044266 128.0
203.884613 100.0
204.043793 184.0
204.072235 184.0
205.995956 140.0
207.059998 104.0
207.40094 160.0
207.421005 228.0
208.250259 56.0
208.396774 68.0
208.827972 168.0
209.014969 144.0
209.08017 6384.0
209.132965 44.0
209.169113 36.0
209.371933 172.0
209.435303 72.0
209.662903 168.0
209.732086 76.0
209.8647 112.0
209.919479 52.0
209.954086 112.0
210.087753 836.0
210.18486 84.0
210.291641 80.0
210.459076 52.0
210.912643 60.0
210.967575 168.0
211.085342 388.0
211.314621 128.0
211.369598 120.0
211.514313 116.0
211.974808 40.0
212.296585 60.0
213.065781 96.0
213.734512 192.0
215.063446 136.0
215.091248 156.0
216.343781 140.0
217.989243 184.0
221.080704 4244.0
221.121307 200.0
221.541687 64.0
221.701691 44.0
221.787643 104.0
222.030762 64.0
222.083344 644.0
222.422409 60.0
223.084854 232.0
223.566696 72.0
224.043106 104.0
224.603531 56.0
224.830292 120.0
225.427567 196.0
228.681564 112.0
232.088394 156.0
233.084869 128.0
235.088593 40.0
236.52507 44.0
237.064117 144.0
240.511856 132.0
243.062027 60.0
243.110001 224.0
248.284225 232.0
249.07457 564.0
250.077606 104.0
251.013885 80.0
251.591278 52.0
255.073044 184.0
256.055939 152.0
257.069733 132.0
257.099731 224.0
257.660461 40.0
258.616608 88.0
259.067871 176.0
261.06131 124.0
262.007629 104.0
265.064209 140.0
266.056702 140.0
268.660217 84.0
270.071411 180.0
273.088043 140.0
273.766968 164.0
274.541412 136.0
275.101074 356.0
275.915009 96.0
278.509735 56.0
283.065521 96.0
284.007263 152.0
284.084412 136.0
284.984161 88.0
287.109894 140.0
287.553589 236.0
290.992889 200.0
293.135803 184.0
294.111206 116.0
294.138519 124.0
298.455261 76.0
299.103149 292.0
299.27417 68.0
300.108002 180.0
300.176971 104.0
301.082794 2592.0
301.222748 36.0
301.550995 60.0
301.865601 84.0
302.087921 488.0
302.294556 44.0
302.540283 52.0
303.077118 152.0
303.194946 76.0
307.074951 140.0
307.692596 88.0
308.76535 124.0
309.293671 112.0
310.877869 116.0
315.099854 316.0
317.106567 312.0
317.128296 224.0
317.892853 96.0
318.117065 188.0
321.113129 136.0
325.085419 388.0
326.076843 124.0
326.467316 92.0
333.056091 124.0
339.119598 128.0
339.142731 180.0
341.157623 216.0
343.091431 2832.0
344.096008 420.0
345.091278 128.0
346.105225 168.0
353.162109 196.0
356.535645 76.0
356.648407 124.0
357.145111 1788.0
357.614624 152.0
357.82962 100.0
358.148865 140.0
358.59433 100.0
359.163666 116.0
363.03656 60.0
363.654968 60.0
364.233704 48.0
376.585297 88.0
381.121735 120.0
381.154755 152.0
424.675781 92.0
558.817383 92.0
562.219543 80.0
602.897339 68.0
636.034668 92.0
662.982971 84.0
831.269531 96.0
846.696411 200.0
869.914795 68.0
894.19104 156.0
894.369629 44.0
929.085999 160.0
931.805847 156.0
950.115356 196.0
956.124756 160.0
963.443848 132.0
972.583801 156.0
977.418884 144.0
997.576599 160.0
1004.736877 100.0
1006.769348 152.0
1044.135498 88.0
1053.610962 176.0
1068.561279 136.0
1115.047485 36.0
1116.210815 80.0
1131.50354 76.0
1148.667114 136.0
1154.854248 128.0
1158.157227 152.0
1173.338379 160.0
1175.698364 68.0
1178.272583 120.0
1183.525391 228.0
1197.947876 144.0
1200.201538 148.0
1212.513306 96.0
1213.407471 180.0
1222.304932 136.0
1234.645264 172.0
1244.813599 112.0
1254.727417 144.0
1255.34082 64.0
1261.117188 168.0
1269.079834 136.0
1274.445679 152.0
1281.347168 144.0
1281.475342 260.0
1293.702026 176.0
1299.657715 208.0
1307.123413 228.0
1308.829346 92.0
1312.482544 152.0
1317.939331 128.0
1319.963257 144.0
1328.603882 164.0
1333.163696 112.0
1333.737915 168.0
1335.199219 184.0
1335.264771 200.0
1341.417358 52.0
1342.168213 152.0
1356.593018 196.0
1365.462891 144.0
1372.274292 168.0
1375.667969 156.0
1376.494873 92.0
1377.883423 92.0
1378.319336 184.0
1398.297485 112.0
1403.720825 168.0
1405.563354 168.0
1407.093384 212.0
1410.253174 164.0
1414.876099 100.0
1418.179565 184.0
1419.648926 116.0
1429.564941 140.0
1433.533569 40.0
1434.890259 148.0
1436.406006 160.0
1438.398071 144.0
1443.792725 192.0
1446.796631 192.0
1454.179688 180.0
1455.287964 180.0
1455.819458 124.0
1461.741211 196.0
1465.937012 168.0
1466.348511 148.0
1475.042114 204.0
1476.510132 40.0
1483.999146 72.0
1487.343872 172.0
1494.629395 192.0
1494.914185 44.0
1494.991089 244.0
1498.556274 148.0
1501.578003 60.0
1504.263062 156.0
