>compound MLS000859915-01!4-(3-Butoxy-4-methoxybenzyl)imidazolidin-2-one
>formula C15H22N2O3
>ionization [M+H]+
>parentmass 279.171
#inchi InChI=1S/C15H22N2O3/c1-3-4-7-20-14-9-11(5-6-13(14)19-2)8-12-10-16-15(18)17-12/h5-6,9,12H,3-4,7-8,10H2,1-2H3,(H2,16,17,18)
#inchikey PDMUULPVBYQBBK
#Ion_Source LC-ESI
#Instrument qTof
#Compound_Source NIH Pharmacologically Active Library
#PI Dorrestein
#Data_Collector VP/LMS
#Scan -1
#Precursor_MZ 279.171
#ExactMass 278.163
#Charge 1
#CAS_Number N/A
#Pubmed_ID N/A
#Smiles CCCCOc1cc(CC2CNC(=O)N2)ccc1OC
#INCHI_AUX N/A
#Library_Class 1
#SpectrumID CCMSLIB00000085396
#IonMode Positive
#UpdateWorkflowName UPDATE-SINGLE-ANNOTATED-GOLD
#LibraryQualityString Gold
#TaskID d252d724072548979f1f6f1ced849daf
##Scan# 1795
#SpectrumFile p4-A04_GA4_01_18328.mzXML
#LibraryName Pharm_Active_Library.mgf
#MQScore -1
#Organism Pharm_Active_Library
#TIC_Query 0
#RT_Query -1
#MZErrorPPM -1
#SharedPeaks 0
#MassDiff 0
#LibMZ -1
#SpecMZ 279.171
#SpecCharge 0
#internalFilename spec-00000.mgf

>collision 10
44.990627 220.0
45.038593 204.0
45.180397 180.0
45.396042 236.0
45.433598 116.0
45.680782 204.0
45.795197 208.0
45.814053 56.0
45.857174 168.0
46.00555 160.0
46.025803 72.0
46.086586 80.0
46.133888 112.0
46.216389 52.0
46.235332 192.0
46.420929 88.0
46.496899 188.0
46.877682 200.0
46.929482 212.0
47.102798 180.0
47.220348 176.0
47.244968 208.0
47.620556 216.0
47.663143 148.0
47.702999 192.0
47.747002 104.0
47.800652 36.0
47.850204 176.0
47.910801 176.0
47.932846 136.0
47.957653 136.0
48.066601 96.0
48.110767 160.0
48.24477 124.0
48.265511 200.0
48.398346 144.0
48.473145 144.0
48.531361 172.0
48.653454 196.0
48.739567 172.0
48.784039 208.0
48.893925 180.0
48.907841 36.0
48.937077 144.0
48.992786 52.0
49.129406 180.0
49.231297 44.0
49.262024 176.0
49.299751 192.0
49.408813 196.0
49.617489 184.0
49.648335 164.0
49.697433 136.0
49.718479 140.0
50.036156 136.0
50.140392 156.0
50.169991 244.0
50.189732 256.0
50.202423 140.0
50.380264 168.0
50.510319 156.0
50.525879 200.0
50.568329 184.0
50.637707 88.0
50.668869 160.0
50.78511 232.0
50.802132 144.0
50.814899 172.0
51.118973 144.0
51.155979 32.0
51.271351 204.0
51.287029 132.0
51.475048 172.0
51.499626 68.0
51.804306 124.0
51.857327 128.0
51.941921 188.0
52.006493 164.0
52.063919 68.0
52.236397 176.0
52.257977 132.0
52.401955 104.0
52.718548 196.0
52.790241 180.0
52.815533 164.0
52.958118 160.0
53.190117 128.0
53.437168 184.0
53.571106 120.0
53.604618 108.0
53.662922 148.0
53.677505 168.0
53.726089 244.0
53.826878 208.0
54.066086 160.0
54.09536 100.0
54.211067 216.0
54.287296 140.0
54.37307 180.0
54.414951 168.0
54.598217 184.0
54.625107 164.0
55.087982 92.0
55.383823 180.0
55.475697 220.0
55.757717 148.0
55.78447 112.0
55.922806 188.0
56.012142 180.0
56.058331 164.0
56.119446 152.0
56.155235 184.0
56.205956 160.0
56.237293 48.0
56.359753 108.0
56.377682 228.0
56.461403 180.0
56.545185 108.0
56.661983 60.0
56.673969 44.0
56.763905 224.0
56.787899 156.0
56.8074 128.0
56.86742 176.0
56.930477 72.0
57.448246 192.0
57.529736 164.0
57.552383 160.0
57.584095 140.0
57.647545 108.0
57.774555 124.0
57.872929 204.0
58.209553 264.0
58.220181 108.0
58.261192 144.0
58.293098 136.0
58.603512 140.0
58.617226 140.0
58.735786 172.0
58.914745 144.0
59.011028 124.0
59.145653 92.0
59.278896 244.0
59.505905 156.0
59.616501 168.0
59.696438 212.0
59.782585 164.0
59.873417 100.0
59.888817 180.0
59.951984 116.0
60.00285 208.0
60.030605 252.0
60.089218 52.0
60.109276 68.0
60.192631 212.0
60.242058 200.0
60.297421 236.0
60.348694 100.0
60.419838 132.0
60.438404 120.0
60.554508 124.0
60.619576 120.0
60.869324 160.0
60.887959 176.0
61.301769 76.0
61.317356 180.0
61.859356 264.0
61.959579 184.0
61.981514 208.0
62.133602 168.0
62.234051 128.0
62.262314 128.0
62.319511 160.0
62.339291 180.0
62.5406 204.0
62.639801 124.0
62.821083 132.0
62.915771 88.0
63.013691 160.0
63.160709 116.0
63.647373 152.0
63.702835 64.0
63.882465 140.0
64.236107 148.0
64.357399 168.0
64.435661 188.0
64.637123 168.0
64.649925 212.0
64.702744 188.0
64.870956 200.0
64.959152 104.0
65.0121 124.0
65.123749 252.0
65.241791 40.0
65.312546 196.0
65.574989 172.0
65.624962 184.0
65.779839 168.0
65.925201 124.0
65.94136 132.0
66.01088 112.0
66.059395 208.0
66.271484 60.0
66.444962 180.0
66.52124 192.0
66.602425 96.0
66.669037 164.0
66.727554 220.0
66.743813 152.0
66.776337 168.0
66.994461 188.0
67.090607 196.0
67.270058 176.0
67.578934 216.0
67.611664 240.0
67.806557 180.0
67.852448 212.0
67.868843 192.0
68.059181 136.0
68.186378 236.0
68.333664 120.0
68.358345 188.0
68.490059 128.0
68.595512 164.0
68.681259 120.0
68.846306 144.0
68.869423 160.0
69.618019 232.0
69.674492 104.0
69.697754 168.0
69.752602 148.0
70.060455 104.0
70.215477 208.0
70.232262 184.0
70.258842 200.0
70.317245 88.0
70.379013 284.0
70.586212 120.0
70.877464 176.0
71.60318 176.0
71.768326 140.0
71.780128 112.0
71.845909 80.0
71.999512 268.0
72.018089 96.0
72.05706 168.0
72.271667 144.0
72.339363 160.0
72.568069 128.0
72.603683 192.0
72.62912 188.0
72.673233 144.0
72.848099 144.0
73.368843 172.0
73.431931 160.0
73.624786 136.0
73.705078 160.0
73.865784 88.0
73.918816 188.0
74.016388 164.0
74.090431 172.0
74.316345 124.0
74.579094 160.0
74.596283 200.0
74.807869 200.0
74.857803 104.0
75.040451 152.0
75.054245 188.0
75.169815 256.0
75.190521 184.0
75.598373 180.0
75.764595 132.0
75.792313 144.0
75.856438 140.0
75.927528 200.0
76.040298 172.0
76.281738 148.0
76.314766 44.0
76.326935 184.0
76.581017 160.0
76.802376 56.0
77.025803 144.0
77.193588 124.0
77.270546 120.0
77.377304 148.0
77.662949 172.0
77.699783 148.0
77.78051 172.0
77.80777 204.0
77.894646 148.0
78.043488 156.0
78.172432 84.0
78.381981 200.0
78.404892 192.0
78.434853 136.0
78.48069 172.0
78.508904 132.0
78.699478 152.0
78.771889 124.0
78.842567 124.0
78.884987 228.0
78.929184 192.0
78.943329 164.0
78.980469 180.0
79.182243 184.0
79.274368 112.0
79.364769 148.0
79.386047 144.0
79.451675 168.0
79.503128 180.0
79.737556 192.0
80.056007 216.0
80.186058 148.0
80.34832 180.0
80.537544 184.0
80.619728 192.0
80.784225 196.0
80.836105 184.0
80.866531 236.0
80.948883 196.0
81.020531 156.0
81.18364 96.0
81.226685 204.0
81.364861 52.0
81.490585 100.0
81.557076 144.0
81.695534 144.0
81.715324 236.0
81.753113 164.0
82.145889 120.0
82.207237 136.0
82.816505 128.0
82.943336 204.0
83.279015 164.0
83.333511 136.0
83.400749 148.0
83.637512 120.0
83.666336 204.0
83.713676 164.0
83.731888 188.0
83.808395 136.0
84.224342 176.0
84.302902 184.0
84.332146 212.0
84.434532 188.0
84.842857 64.0
84.947388 96.0
85.127251 116.0
85.222771 184.0
85.287094 148.0
85.303635 212.0
85.336723 228.0
85.537254 140.0
85.734329 124.0
85.749069 176.0
86.009132 152.0
86.034981 148.0
86.162407 188.0
86.24926 180.0
86.3787 144.0
86.511932 208.0
86.55452 232.0
86.619339 168.0
86.676773 140.0
86.856606 104.0
86.967934 108.0
87.029198 116.0
87.213112 148.0
87.280037 68.0
87.378616 116.0
87.441879 232.0
87.583389 164.0
87.624367 184.0
87.767883 132.0
88.101967 172.0
88.141205 132.0
88.374931 164.0
88.397385 32.0
88.49659 232.0
88.520935 164.0
88.993454 188.0
89.038521 144.0
89.08548 228.0
89.10051 60.0
89.316689 156.0
89.544434 132.0
89.634087 236.0
89.680092 176.0
89.844147 104.0
90.055557 236.0
90.163254 168.0
90.291809 212.0
90.382614 40.0
90.643921 164.0
90.695091 216.0
91.002411 164.0
91.052803 216.0
91.180977 84.0
91.264656 188.0
91.308357 48.0
91.32547 224.0
91.466278 84.0
91.576714 212.0
91.727242 120.0
91.986664 184.0
92.063034 172.0
92.160454 264.0
92.355453 220.0
92.539162 156.0
92.686646 68.0
92.809319 248.0
92.99157 80.0
93.312363 52.0
93.370049 116.0
93.456612 92.0
93.693428 188.0
93.720398 160.0
93.755089 172.0
93.863091 152.0
93.980698 192.0
94.042458 2092.0
94.096504 100.0
94.13205 156.0
94.154434 68.0
94.19886 160.0
94.272278 164.0
94.308998 72.0
94.384392 220.0
94.475296 196.0
94.585594 160.0
94.67466 72.0
94.761826 92.0
94.800575 144.0
94.932396 232.0
95.044319 196.0
95.101189 56.0
95.37117 104.0
95.4431 112.0
95.594826 240.0
95.630554 56.0
95.770042 124.0
95.996117 64.0
96.046822 168.0
96.310333 140.0
96.355263 196.0
96.382614 148.0
96.691589 48.0
96.705292 212.0
96.84626 128.0
96.875648 244.0
97.130478 208.0
97.633286 132.0
97.772964 168.0
97.857506 160.0
97.928497 128.0
98.307022 152.0
98.646736 140.0
98.676392 188.0
98.781204 48.0
98.917747 196.0
99.050415 40.0
99.078148 140.0
99.143539 184.0
99.314041 60.0
99.375542 176.0
99.395378 188.0
99.486679 140.0
100.124947 56.0
100.156815 100.0
100.284607 144.0
100.322205 132.0
100.403954 176.0
100.439857 136.0
100.739281 204.0
100.92115 172.0
101.057159 164.0
101.403595 132.0
101.455711 208.0
101.547951 140.0
101.576027 128.0
101.6623 28.0
101.695854 240.0
101.786758 156.0
101.80954 232.0
101.845001 148.0
101.871117 84.0
101.899239 120.0
101.91732 200.0
101.959526 68.0
102.049507 496.0
102.114326 132.0
102.22699 168.0
102.265228 100.0
102.444435 132.0
102.51899 152.0
102.539139 120.0
102.583488 148.0
102.635902 164.0
102.7771 108.0
102.829567 192.0
102.914352 76.0
102.930504 136.0
102.985031 92.0
103.021721 148.0
103.054909 9852.0
103.09211 200.0
103.108276 180.0
103.239685 136.0
103.259903 148.0
103.403557 52.0
103.419746 164.0
103.593887 192.0
103.733467 164.0
103.820892 64.0
103.869576 232.0
103.909065 180.0
103.926376 36.0
104.007553 44.0
104.058434 1096.0
104.094849 136.0
104.169998 156.0
104.39357 144.0
104.480492 196.0
104.552246 192.0
104.619415 128.0
104.692719 96.0
104.709007 148.0
104.729378 36.0
104.823929 136.0
104.887901 120.0
104.916847 128.0
105.035812 336.0
105.068871 172.0
105.11673 128.0
105.26371 40.0
105.412827 156.0
105.433258 184.0
105.519112 216.0
105.551826 196.0
105.627502 212.0
105.682739 140.0
105.705246 48.0
105.73185 156.0
105.764595 128.0
105.801445 132.0
105.848534 132.0
106.046944 132.0
106.12925 184.0
106.400078 116.0
106.607529 208.0
106.815186 172.0
106.893364 160.0
107.012749 216.0
107.050278 1520.0
107.365112 128.0
107.435242 188.0
107.455872 56.0
107.614799 72.0
107.695335 128.0
107.726318 152.0
107.782104 184.0
107.879242 168.0
107.949539 260.0
108.040543 252.0
108.054802 184.0
108.104683 132.0
108.121239 80.0
108.237167 152.0
108.253731 68.0
108.332436 60.0
108.359367 212.0
108.471275 224.0
108.805267 164.0
108.939056 132.0
109.065399 508.0
109.227127 28.0
109.566444 36.0
109.699814 208.0
109.897942 156.0
109.933418 88.0
110.07119 164.0
110.169357 232.0
110.361633 84.0
110.388107 248.0
110.568726 108.0
110.619484 160.0
110.882874 88.0
111.082062 84.0
111.121925 40.0
111.178581 128.0
111.253677 168.0
111.268837 28.0
111.459969 48.0
111.508301 172.0
111.55455 132.0
111.571365 172.0
111.748032 168.0
111.952209 176.0
112.036461 144.0
112.082809 104.0
112.200836 152.0
112.352684 144.0
112.548965 200.0
112.597534 244.0
112.644005 192.0
112.81517 176.0
112.865913 144.0
112.908211 76.0
112.999168 180.0
113.128258 68.0
113.168488 204.0
113.39727 176.0
113.55204 156.0
114.047638 152.0
114.123276 172.0
114.487144 60.0
114.82814 156.0
115.018028 76.0
115.039375 260.0
115.057281 176.0
115.109833 172.0
115.232491 184.0
115.26577 84.0
115.37114 160.0
115.511635 136.0
115.558701 40.0
115.734215 224.0
115.781319 172.0
115.942001 164.0
116.058823 520.0
116.141388 76.0
116.319489 180.0
116.549286 28.0
116.835236 172.0
116.917 104.0
117.000946 144.0
117.033455 612.0
117.056206 324.0
117.145233 32.0
117.319786 188.0
117.348213 236.0
117.375847 188.0
117.548409 228.0
117.572762 112.0
117.857193 220.0
118.038895 392.0
118.066757 1160.0
118.2854 204.0
118.530128 188.0
118.608154 104.0
118.684029 164.0
118.796806 128.0
118.916145 124.0
118.983131 84.0
119.04792 360.0
119.068375 140.0
119.1007 160.0
119.372368 224.0
119.396294 196.0
119.494179 172.0
119.546394 192.0
119.595711 200.0
120.056557 352.0
120.25251 128.0
120.322357 128.0
120.363846 112.0
120.394417 176.0
120.490524 132.0
120.853462 204.0
121.035133 128.0
121.066666 280.0
121.289268 100.0
121.34407 252.0
121.376961 156.0
121.572197 148.0
121.589752 52.0
121.881813 144.0
121.934555 96.0
122.03759 9456.0
122.10659 156.0
122.228516 208.0
122.311401 144.0
122.361298 92.0
122.418549 40.0
122.55291 204.0
122.74247 152.0
122.890259 104.0
123.042763 1548.0
123.080078 220.0
123.102158 72.0
123.150742 116.0
123.22364 256.0
123.318665 84.0
123.444679 204.0
123.632713 176.0
123.725677 136.0
123.769958 140.0
123.807602 116.0
123.854118 64.0
123.891777 88.0
123.920578 128.0
123.953812 80.0
123.995918 200.0
124.053505 208.0
124.102318 128.0
124.151108 148.0
124.210991 68.0
124.230949 48.0
124.301949 140.0
124.392944 192.0
124.463989 196.0
124.497299 188.0
124.570595 168.0
124.612808 208.0
124.681694 144.0
124.772827 56.0
124.808395 176.0
124.977448 184.0
125.058517 200.0
125.148827 132.0
125.253502 40.0
125.327019 144.0
125.342613 160.0
125.536552 164.0
125.694931 208.0
125.752953 196.0
126.163963 180.0
126.298134 140.0
126.51519 140.0
126.59803 48.0
126.676422 204.0
126.97229 176.0
127.010422 204.0
127.044067 196.0
127.257278 256.0
127.432465 208.0
127.493134 184.0
127.632507 52.0
127.866463 104.0
128.010544 116.0
128.050674 600.0
128.123154 76.0
128.25386 156.0
128.332764 56.0
128.425217 208.0
128.892532 144.0
128.926422 144.0
128.962585 100.0
128.994232 212.0
129.049057 204.0
129.195496 172.0
129.4366 136.0
129.834244 168.0
129.875061 172.0
130.004379 144.0
130.03389 140.0
130.065445 204.0
130.124695 100.0
130.19281 76.0
130.226883 208.0
130.426819 140.0
130.456589 88.0
130.50412 140.0
130.824905 188.0
130.886383 92.0
130.973038 80.0
131.049332 4332.0
131.121017 52.0
131.164322 148.0
131.187119 108.0
131.239548 40.0
131.358154 76.0
131.396927 208.0
131.442566 48.0
131.488205 68.0
131.73407 112.0
131.915329 92.0
132.05423 324.0
132.084549 284.0
132.12114 152.0
132.459946 160.0
132.666183 104.0
132.689117 36.0
132.707886 172.0
132.7556 124.0
132.801483 148.0
132.847351 176.0
133.031036 176.0
133.063705 408.0
133.118179 68.0
133.614655 156.0
133.642273 180.0
133.987625 168.0
134.03891 204.0
134.061859 352.0
134.626541 144.0
134.744339 120.0
134.765488 132.0
134.864502 212.0
134.98703 128.0
135.045303 3712.0
135.079315 748.0
135.227631 136.0
135.309402 160.0
135.612106 132.0
135.690598 112.0
135.80687 196.0
135.860229 160.0
135.899567 188.0
135.916 188.0
135.934464 132.0
136.047546 360.0
136.080048 128.0
136.2061 96.0
136.240952 68.0
136.334198 152.0
136.356766 128.0
136.399704 268.0
136.452438 108.0
136.494293 108.0
136.522202 204.0
136.578018 80.0
136.605927 188.0
136.729248 140.0
136.76416 140.0
136.786728 224.0
136.856552 128.0
136.889877 216.0
136.905838 184.0
136.960876 256.0
136.997604 204.0
137.015579 140.0
137.060883 68464.0
137.103424 200.0
137.140182 76.0
137.155472 112.0
137.185776 44.0
137.209091 80.0
137.227203 120.0
137.26738 212.0
137.295181 52.0
137.30722 148.0
137.335007 140.0
137.357071 96.0
137.380798 140.0
137.418518 300.0
137.449722 188.0
137.47348 68.0
137.502991 60.0
137.587021 48.0
137.608047 48.0
137.674454 108.0
137.709381 68.0
137.726303 156.0
137.752838 80.0
137.828354 96.0
137.867325 68.0
137.910614 208.0
138.023941 228.0
138.063187 6200.0
138.131989 148.0
138.180649 132.0
138.278931 48.0
138.316376 44.0
138.379593 80.0
138.438126 68.0
138.467361 108.0
138.531815 56.0
138.763824 48.0
138.813065 144.0
138.85527 104.0
138.892807 100.0
138.909225 132.0
138.925644 100.0
138.950439 140.0
138.959427 80.0
138.990173 68.0
139.067413 728.0
139.131332 148.0
139.160339 104.0
139.188507 224.0
139.209641 132.0
139.279282 68.0
139.378769 48.0
139.62561 68.0
139.693817 168.0
139.73851 36.0
139.825577 152.0
139.919739 160.0
140.063385 192.0
140.084579 212.0
140.1539 160.0
140.233032 120.0
140.494766 132.0
140.582077 216.0
140.631638 72.0
140.988266 160.0
141.016617 92.0
141.342972 84.0
141.565491 76.0
142.056107 212.0
142.317169 100.0
142.595093 52.0
142.647385 32.0
142.678299 132.0
142.811462 216.0
142.936081 220.0
143.066071 184.0
143.895721 176.0
144.060501 148.0
144.086792 172.0
144.354492 88.0
144.694244 164.0
145.031662 448.0
145.067368 248.0
145.267014 188.0
145.312592 36.0
145.684708 60.0
145.759186 144.0
145.852921 100.0
146.035736 840.0
146.061005 1356.0
146.095795 104.0
146.122253 40.0
146.196854 112.0
146.213699 64.0
146.285904 132.0
146.399063 72.0
146.599014 144.0
146.705063 164.0
146.849747 180.0
147.032608 216.0
147.065125 748.0
147.269714 48.0
147.320435 56.0
147.446075 124.0
147.551636 120.0
147.608047 128.0
147.716888 180.0
147.891098 200.0
147.96373 180.0
148.007309 100.0
148.051437 500.0
148.176849 112.0
148.552612 124.0
148.622971 92.0
148.739456 48.0
148.983536 176.0
149.059219 5428.0
149.090271 164.0
149.157257 84.0
149.597549 200.0
150.031174 124.0
150.067032 2396.0
150.0979 196.0
150.15065 136.0
150.209198 84.0
150.23114 36.0
150.279938 64.0
150.646149 88.0
150.675873 240.0
150.754837 132.0
150.85141 216.0
151.038315 120.0
151.045441 384.0
151.072922 648.0
151.100861 136.0
151.144897 44.0
151.43132 176.0
151.622421 80.0
151.813644 144.0
152.04425 120.0
152.079865 156.0
152.189072 84.0
152.375748 72.0
152.476486 68.0
152.530563 56.0
152.702682 76.0
153.505524 128.0
153.680649 180.0
154.065796 124.0
155.164612 128.0
155.410156 44.0
155.76268 88.0
156.044342 544.0
156.08577 92.0
157.027115 188.0
157.139359 48.0
157.901245 244.0
158.048843 168.0
158.068863 168.0
158.441925 120.0
158.843018 72.0
159.066895 376.0
160.041794 152.0
160.077545 164.0
160.608826 228.0
160.770294 204.0
160.992447 172.0
161.059662 1396.0
161.377548 80.0
161.768661 100.0
162.033722 208.0
162.053925 1300.0
162.135925 68.0
162.184082 68.0
162.201828 64.0
162.257599 156.0
162.490921 108.0
162.56958 108.0
162.841232 156.0
162.922516 200.0
163.035217 376.0
163.073639 5036.0
163.111542 200.0
163.237686 44.0
163.265656 148.0
163.362305 80.0
163.41983 92.0
163.49971 80.0
163.858673 168.0
164.046219 276.0
164.078278 892.0
164.192657 60.0
165.047791 348.0
165.075134 164.0
165.219498 56.0
166.077637 164.0
166.385574 52.0
166.485703 128.0
166.557617 72.0
167.749023 188.0
168.319199 156.0
170.567993 100.0
171.103882 176.0
171.982361 144.0
172.037186 148.0
172.125961 32.0
172.847397 72.0
173.046844 260.0
173.179886 188.0
174.055893 844.0
174.676041 180.0
174.799698 160.0
175.063705 328.0
176.048798 152.0
176.071625 464.0
176.112595 196.0
176.487854 164.0
177.054428 10672.0
177.18924 44.0
177.266083 56.0
177.295227 72.0
177.321732 36.0
177.350891 56.0
177.860153 68.0
177.937134 40.0
178.055298 1388.0
178.0867 772.0
178.332947 40.0
178.428192 24.0
178.466263 80.0
178.609467 76.0
178.758453 88.0
178.886215 56.0
178.994522 176.0
179.068985 964.0
179.20047 80.0
179.284653 128.0
179.350479 68.0
179.437668 160.0
179.69371 68.0
179.968613 116.0
180.000656 108.0
180.027359 44.0
180.06723 116.0
180.128845 252.0
180.249084 76.0
182.102921 80.0
182.731949 116.0
184.105026 364.0
185.668182 132.0
186.966782 92.0
186.991272 96.0
187.994171 136.0
188.07309 1128.0
188.625076 104.0
189.056717 440.0
189.955902 132.0
190.063446 304.0
190.41153 132.0
190.510422 104.0
191.059418 1280.0
191.104263 108.0
191.437317 68.0
191.533722 48.0
192.060959 164.0
192.109833 36.0
192.336121 48.0
193.059982 184.0
193.121841 2980.0
193.325562 128.0
193.375366 64.0
193.790756 84.0
193.882187 212.0
194.13028 500.0
194.345276 64.0
194.506241 52.0
194.772812 44.0
195.028442 192.0
195.122955 216.0
195.148666 176.0
195.378815 164.0
195.787979 52.0
196.066574 84.0
196.097229 112.0
196.345367 84.0
196.906326 60.0
197.018066 184.0
197.21843 68.0
199.683777 132.0
200.875229 184.0
203.024811 268.0
203.135864 392.0
204.068161 176.0
204.098206 200.0
204.906525 212.0
205.090057 592.0
205.11171 192.0
206.004868 108.0
206.081802 2876.0
206.115067 168.0
206.133682 180.0
206.189026 44.0
206.307785 32.0
206.419296 64.0
206.745407 80.0
206.877075 188.0
207.08078 252.0
207.139038 232.0
207.450012 56.0
208.080093 320.0
208.112732 228.0
208.727631 116.0
208.828293 36.0
209.908249 124.0
211.433533 52.0
211.456696 100.0
212.012741 68.0
215.110367 164.0
217.308197 80.0
218.121674 128.0
218.874817 56.0
219.075089 144.0
220.479584 72.0
223.107574 1912.0
223.189011 72.0
223.694778 56.0
223.983612 44.0
224.112061 196.0
224.302444 32.0
225.669739 80.0
226.915253 60.0
226.999207 116.0
231.059433 120.0
232.137726 112.0
232.954178 124.0
233.116577 420.0
234.103867 64.0
235.112549 132.0
237.975021 108.0
239.078552 160.0
241.113968 124.0
244.137054 184.0
245.142776 196.0
246.021698 132.0
252.298599 80.0
261.594971 44.0
262.148926 216.0
263.026184 136.0
263.146362 144.0
264.034241 156.0
273.578644 32.0
276.916962 104.0
277.62619 120.0
279.117188 88.0
279.855865 84.0
280.072327 148.0
280.178925 96.0
281.04245 172.0
281.065796 172.0
281.830444 176.0
298.003998 160.0
303.949829 140.0
315.197418 40.0
331.712006 44.0
345.126709 56.0
368.909607 80.0
382.823334 100.0
404.416931 44.0
413.865387 76.0
417.326416 132.0
420.47934 136.0
445.743408 44.0
449.862488 60.0
485.30191 112.0
497.820587 96.0
532.964417 76.0
534.969666 52.0
571.593323 40.0
593.997192 96.0
620.371155 108.0
625.816284 204.0
632.811279 60.0
633.512451 76.0
694.968994 140.0
705.52356 204.0
708.190491 120.0
715.832764 68.0
753.019958 272.0
757.970886 204.0
759.840576 128.0
777.969971 80.0
789.593262 132.0
796.06604 140.0
806.042297 92.0
809.198486 172.0
829.582886 136.0
844.253784 132.0
846.423828 148.0
852.601868 180.0
859.350769 168.0
866.384033 248.0
878.034241 52.0
891.603577 128.0
893.589661 64.0
896.346436 256.0
900.42688 144.0
901.511169 20.0
906.876587 180.0
907.206238 104.0
910.374268 44.0
914.083252 184.0
915.744812 128.0
915.949646 180.0
917.456116 116.0
919.006104 140.0
919.525085 256.0
922.412231 176.0
923.452271 196.0
930.99762 104.0
932.723145 192.0
933.507446 52.0
935.026123 144.0
935.210876 172.0
943.990051 172.0
952.582886 164.0
963.431213 100.0
965.569885 188.0
968.751404 176.0
969.705627 200.0
970.548706 188.0
984.831116 172.0
985.868225 200.0
991.607117 92.0
992.547485 152.0
993.325134 208.0
993.808228 184.0
997.519836 220.0
998.777466 164.0
999.777832 116.0
1006.232483 148.0
1008.936462 144.0
1022.689026 128.0
1022.867249 136.0
1029.025513 164.0
1032.437744 220.0
1038.02832 152.0
1038.265503 32.0
1038.541382 132.0
1041.28833 100.0
1041.834351 128.0
1042.039917 108.0
1049.447998 172.0
1051.441284 48.0
1053.119995 76.0
1054.40564 240.0
1055.491699 188.0
1056.015503 172.0
1056.09314 260.0
1057.044189 140.0
1057.128296 176.0
1059.232422 220.0
1063.1875 176.0
1064.648193 204.0
1064.826782 164.0
1066.025391 224.0
1066.616821 164.0
1067.624634 232.0
1071.6604 156.0
1071.738647 188.0
1075.634277 60.0
1075.788696 184.0
1076.284912 188.0
1081.973145 172.0
1082.32019 128.0
1084.829468 84.0
1086.258911 180.0
1087.085693 172.0
1088.168701 104.0
1094.62561 208.0
1095.521362 172.0
1098.573486 216.0
1099.272949 184.0
1103.817627 60.0
1104.703857 152.0
1106.312012 52.0
1106.649658 152.0
1107.888062 252.0
1109.472046 248.0
1109.750488 212.0
1109.922852 152.0
1111.096802 208.0
1111.163208 264.0
1113.439941 156.0
1115.207275 152.0
1117.980591 180.0
1120.071167 240.0
1120.764038 260.0
1121.530396 60.0
1122.130371 208.0
1123.424194 160.0
1130.995239 164.0
1131.129028 96.0
1131.678101 192.0
1135.296509 192.0
1143.008179 176.0
1143.230347 108.0
1144.147095 212.0
1146.146118 100.0
1149.956299 84.0
1152.083252 180.0
1153.847168 140.0
1154.246094 88.0
1159.580688 72.0
1161.587646 56.0
1162.293213 236.0
1163.671143 196.0
1165.08374 172.0
1167.82312 184.0
1174.982544 196.0
1178.170776 88.0
1178.634033 104.0
1180.864014 192.0
1183.587646 164.0
1184.498535 176.0
1184.971191 156.0
1185.491943 40.0
1186.149902 188.0
1186.451538 160.0
1189.775146 168.0
1190.067261 232.0
1190.280029 196.0
1191.818726 156.0
1192.670898 188.0
1192.828979 156.0
1193.262085 196.0
1198.648804 200.0
1201.471436 244.0
1201.8302 148.0
1202.064819 228.0
1202.113159 152.0
1202.568604 192.0
1203.037964 192.0
1203.196777 160.0
1204.716064 156.0
1210.532837 116.0
1212.722046 192.0
1216.821777 208.0
1217.224487 204.0
1218.509521 176.0
1219.343384 172.0
1219.496216 148.0
1221.74231 184.0
1223.962524 80.0
1224.143555 192.0
1224.749512 148.0
1224.90271 36.0
1225.01416 40.0
1225.906006 132.0
1228.269531 144.0
1233.499634 188.0
1233.842163 212.0
1238.628784 152.0
1238.803955 124.0
1239.483521 188.0
1240.275391 160.0
1242.25293 132.0
1242.428223 200.0
1244.049316 132.0
1245.369507 188.0
1246.402222 176.0
1247.36499 184.0
1248.553223 176.0
1249.094849 132.0
1251.445435 112.0
1251.966431 132.0
1252.177734 116.0
1252.966675 204.0
1253.896851 76.0
1255.391357 144.0
1255.581787 36.0
1258.94812 144.0
1261.838135 112.0
1262.842285 196.0
1262.920044 164.0
1265.021606 184.0
1266.04126 152.0
1267.075317 116.0
1267.869019 84.0
1267.946899 116.0
1268.428955 184.0
1268.641602 192.0
1268.847168 136.0
1269.038574 164.0
1269.953369 200.0
1270.890625 172.0
1271.166504 168.0
1273.828979 144.0
1274.241089 160.0
1275.569946 56.0
1276.352051 148.0
1276.798706 156.0
1277.618042 140.0
1277.795898 228.0
1281.220337 84.0
1281.612183 184.0
1281.733276 176.0
1281.797363 136.0
1283.679321 232.0
1284.356812 88.0
1287.547241 76.0
1287.954346 224.0
1288.697266 116.0
1290.033691 152.0
1292.758789 68.0
1296.805176 204.0
1297.013062 196.0
1297.428833 56.0
1303.522461 216.0
1305.067871 176.0
1305.513672 132.0
1307.312134 224.0
1308.485474 156.0
1309.507935 172.0
1310.048218 200.0
1310.761475 128.0
1312.772705 136.0
1315.76709 148.0
1316.12085 200.0
1318.779419 152.0
1322.395752 184.0
1322.699707 176.0
1325.393921 176.0
1325.61853 108.0
1326.618774 84.0
1326.843506 148.0
1326.981201 244.0
1327.92395 180.0
1329.12085 180.0
1329.68689 208.0
1330.681396 132.0
1330.746704 176.0
1331.756104 144.0
1333.245605 100.0
1333.899658 128.0
1333.972412 224.0
1334.204956 264.0
1336.539673 152.0
1338.497803 192.0
1339.036621 188.0
1339.335205 188.0
1339.612061 212.0
1339.910767 204.0
1340.32605 100.0
1340.449951 220.0
1343.767578 212.0
1344.643188 140.0
1345.176025 120.0
1345.533813 200.0
1345.85498 176.0
1346.782471 180.0
1347.951416 172.0
1348.594482 100.0
1348.777222 176.0
1351.819702 204.0
1352.079712 200.0
1354.924316 136.0
1355.693604 84.0
1358.252441 80.0
1358.809937 128.0
1359.947388 196.0
1360.923706 72.0
1363.72998 148.0
1364.068115 192.0
1365.266479 164.0
1365.876953 164.0
1366.833374 156.0
1369.152222 136.0
1369.417358 176.0
1370.161377 212.0
1370.854004 164.0
1371.001343 152.0
1373.050903 68.0
1373.139404 176.0
1373.404907 72.0
1374.393433 164.0
1374.65918 184.0
1375.493164 100.0
1377.974487 176.0
1378.469482 128.0
1380.177002 136.0
1380.494995 164.0
1380.820435 192.0
1382.270386 68.0
1382.973389 168.0
1384.009888 144.0
1384.735596 220.0
1385.928223 136.0
1387.506958 72.0
1388.240967 84.0
1390.414673 180.0
1391.052979 196.0
1391.461304 188.0
1391.973633 164.0
1392.463745 156.0
1393.451782 204.0
1394.774536 180.0
1398.017212 168.0
1399.066772 152.0
1399.193359 208.0
1399.572998 60.0
1400.287964 164.0
1402.128174 56.0
1403.253784 196.0
1404.088867 176.0
1404.252197 168.0
1404.57373 140.0
1405.536133 176.0
1406.21521 212.0
1406.722778 160.0
1407.043823 144.0
1408.567261 140.0
1415.605103 224.0
1416.346558 180.0
1416.427856 192.0
1416.548828 188.0
1417.515259 208.0
1417.635132 100.0
1418.759521 196.0
1419.464233 204.0
1419.884277 200.0
1420.124268 204.0
1420.559326 180.0
1421.182007 148.0
1422.014893 124.0
1424.012085 144.0
1424.357544 124.0
1425.198975 104.0
1426.814941 56.0
1431.660645 204.0
1431.788696 196.0
1434.177002 180.0
1434.644409 56.0
1436.90686 156.0
1437.072876 216.0
1437.46521 36.0
1438.853271 188.0
1439.14856 164.0
1441.78479 204.0
1442.427246 180.0
1443.168213 60.0
1444.022705 192.0
1444.09082 144.0
1444.226929 232.0
1444.945557 176.0
1445.588745 232.0
1446.02002 132.0
1446.701294 156.0
1448.442993 176.0
1449.117188 128.0
1449.821899 128.0
1451.565552 200.0
1451.747559 212.0
1453.788208 216.0
1453.939941 176.0
1455.283569 144.0
1456.088501 136.0
1456.544189 220.0
1457.387451 132.0
1457.744629 116.0
1457.987793 148.0
1458.641479 84.0
1459.143188 68.0
1460.443481 48.0
1461.143433 168.0
1461.265137 164.0
1465.704102 148.0
1465.955566 196.0
1466.016479 136.0
1466.565308 152.0
1466.633911 136.0
1467.640137 192.0
1468.326538 156.0
1469.028198 168.0
1469.522461 208.0
1469.551636 164.0
1469.61731 184.0
1470.546631 144.0
1470.783325 32.0
1471.997192 212.0
1472.822021 168.0
1473.318481 184.0
1473.37207 148.0
1473.761719 208.0
1474.778076 148.0
1475.940063 136.0
1476.299438 128.0
1477.38562 228.0
1478.204224 156.0
1479.574341 80.0
1482.569214 164.0
1483.075073 128.0
1484.731201 140.0
1484.79248 180.0
1485.099365 184.0
1486.311401 28.0
1486.695068 204.0
1487.347534 132.0
1488.959839 272.0
1489.290161 180.0
1490.177734 116.0
1490.995728 168.0
1491.380005 148.0
1491.733643 136.0
1492.018066 188.0
1493.763794 212.0
1495.079468 80.0
1495.218018 76.0
1495.54895 208.0
1499.993408 136.0
1500.540771 156.0
1502.098511 132.0
1503.147827 144.0
1503.973633 196.0
1504.96167 68.0
