>compound MLS001032114-01!
>formula C14H15N2O2P
>ionization [M+H]+
>parentmass 275.0943908020905
#inchi InChI=1S/C14H15N2O2P/c15-16-14(17)11-19(18,12-7-3-1-4-8-12)13-9-5-2-6-10-13/h1-10H,11,15H2,(H,16,17)
#inchikey PMHFLBQRALFMRT
#Ion_Source LC-ESI
#Instrument qTof
#Compound_Source NIH Pharmacologically Active Library
#PI Dorrestein
#Data_Collector VP/LMS
#Scan -1
#Precursor_MZ 275.098
#ExactMass 274.087
#Charge 1
#CAS_Number N/A
#Pubmed_ID N/A
#Smiles NNC(=O)CP(=O)(c1ccccc1)c2ccccc2
#INCHI_AUX N/A
#Library_Class 1
#SpectrumID CCMSLIB00000085447
#IonMode Positive
#UpdateWorkflowName UPDATE-SINGLE-ANNOTATED-GOLD
#LibraryQualityString Gold
#TaskID d252d724072548979f1f6f1ced849daf
##Scan# 1342
#SpectrumFile p4-B02_GB2_01_18338.mzXML
#LibraryName Pharm_Active_Library.mgf
#MQScore -1
#Organism Pharm_Active_Library
#TIC_Query 0
#RT_Query -1
#MZErrorPPM -1
#SharedPeaks 0
#MassDiff 0
#LibMZ -1
#SpecMZ 275.098
#SpecCharge 0
#internalFilename spec-00000.mgf

>collision 10
44.977097 192.0
45.49514 100.0
45.653687 172.0
45.846195 80.0
45.870457 188.0
45.87989 172.0
45.993202 52.0
46.243252 148.0
46.455986 192.0
46.666489 100.0
46.772598 168.0
46.825699 156.0
46.98518 248.0
47.000187 108.0
47.155869 176.0
47.172268 224.0
47.44606 68.0
47.898167 140.0
47.982227 124.0
48.169907 196.0
48.20583 164.0
48.241764 144.0
48.546368 196.0
48.596302 132.0
48.715694 220.0
49.134727 152.0
49.792618 152.0
49.86005 160.0
50.107704 248.0
50.157024 180.0
50.25433 220.0
50.374332 132.0
50.395523 160.0
50.789074 188.0
51.017693 172.0
51.284725 236.0
51.487896 116.0
51.657982 148.0
52.00761 140.0
52.162739 200.0
52.226009 152.0
52.381462 148.0
52.456394 144.0
52.511185 184.0
52.635292 184.0
52.901314 96.0
53.211552 124.0
53.416458 172.0
53.685902 128.0
53.807011 68.0
53.99258 116.0
54.037926 156.0
54.244415 180.0
54.281067 144.0
54.435146 144.0
54.677704 180.0
54.757206 128.0
54.788139 228.0
55.170357 96.0
55.518311 176.0
55.626617 136.0
55.770699 136.0
55.913479 160.0
56.156326 208.0
56.211525 60.0
56.274212 208.0
56.338432 196.0
56.588184 176.0
56.615139 172.0
57.041241 200.0
57.075306 176.0
57.095367 200.0
57.149521 184.0
57.169083 232.0
57.473465 164.0
57.493084 148.0
57.586685 64.0
57.89975 224.0
57.945194 72.0
57.975498 140.0
58.007328 172.0
58.128658 176.0
58.169636 240.0
58.199997 152.0
58.387535 200.0
58.408199 180.0
58.438625 248.0
58.479713 140.0
58.555679 228.0
58.782986 172.0
58.84251 124.0
58.996811 124.0
59.077862 188.0
59.100811 188.0
59.166622 180.0
59.325943 208.0
59.401085 180.0
59.425629 140.0
59.483944 144.0
59.609268 260.0
59.803658 180.0
59.897583 156.0
60.594292 176.0
61.561775 164.0
61.744617 176.0
61.991962 172.0
62.180153 196.0
62.220963 208.0
62.313625 212.0
62.454895 152.0
62.544792 144.0
62.571552 144.0
62.659748 184.0
62.871037 148.0
63.392895 184.0
63.499107 128.0
63.792854 148.0
63.969425 112.0
64.18132 148.0
64.283401 220.0
64.313728 136.0
64.396751 160.0
65.460014 160.0
65.966621 208.0
66.000572 152.0
66.138077 196.0
66.212555 132.0
66.483292 200.0
66.739944 204.0
66.969398 188.0
67.200882 164.0
67.328201 128.0
67.372299 160.0
67.447472 164.0
67.630661 108.0
67.822296 148.0
67.848526 128.0
68.16201 228.0
68.305046 168.0
68.393898 112.0
68.407066 160.0
68.418587 156.0
68.446579 228.0
68.550354 68.0
68.586609 164.0
68.669052 196.0
68.706985 88.0
68.726784 132.0
68.824173 104.0
68.870407 44.0
69.026649 160.0
69.05056 152.0
69.080338 196.0
69.298859 60.0
69.52935 148.0
69.622322 60.0
69.668823 60.0
69.705376 252.0
69.918236 224.0
70.004799 200.0
70.07476 148.0
70.331566 128.0
70.431755 136.0
71.400497 40.0
71.583931 164.0
71.754105 84.0
71.776024 196.0
71.900856 168.0
71.961624 156.0
72.140701 112.0
72.252312 68.0
72.277695 132.0
72.482574 152.0
73.119392 164.0
73.13353 168.0
73.448219 208.0
73.625725 172.0
73.687218 156.0
73.791344 164.0
73.842766 104.0
73.919754 156.0
74.000198 152.0
74.277817 204.0
74.559395 192.0
74.574867 64.0
74.602364 252.0
74.815681 152.0
74.874222 264.0
75.348572 240.0
75.559494 144.0
75.682373 112.0
76.141312 152.0
76.345238 188.0
76.536644 144.0
76.612999 200.0
76.860847 112.0
76.913208 168.0
76.96209 168.0
76.974312 72.0
76.995262 168.0
77.030197 228.0
77.054657 80.0
77.190987 108.0
77.252205 176.0
77.339691 176.0
77.58493 148.0
77.855141 204.0
77.884995 164.0
77.915237 184.0
77.971085 188.0
78.118782 48.0
78.560936 212.0
78.63681 96.0
78.937134 136.0
78.949516 212.0
78.979584 156.0
79.007881 56.0
79.277016 188.0
79.516426 68.0
79.891342 76.0
79.925148 92.0
80.131683 160.0
80.147713 112.0
80.466972 148.0
81.250854 36.0
81.599266 68.0
82.204468 196.0
82.249588 152.0
82.3218 108.0
82.535027 172.0
82.947792 248.0
83.379585 200.0
83.448845 112.0
83.50885 192.0
83.521584 116.0
83.607094 300.0
83.643494 140.0
83.752274 200.0
83.965988 140.0
84.239769 228.0
84.351242 96.0
84.763023 188.0
84.852837 44.0
85.010574 132.0
85.159279 200.0
85.252975 160.0
85.319145 216.0
86.102249 172.0
86.213089 32.0
86.394287 216.0
86.596046 132.0
86.627533 36.0
86.694237 132.0
86.859245 212.0
86.946449 180.0
86.959435 72.0
86.995811 208.0
87.107979 176.0
87.135841 148.0
87.303131 252.0
87.444519 132.0
87.647507 88.0
87.707138 116.0
87.802223 112.0
87.861916 92.0
87.942154 128.0
88.104607 108.0
88.134499 128.0
88.590996 116.0
88.637833 244.0
88.885345 176.0
88.952911 184.0
88.975441 56.0
89.120056 208.0
89.136963 56.0
89.761902 180.0
89.811668 172.0
90.029861 204.0
90.069527 196.0
90.264183 60.0
90.311462 144.0
90.72805 140.0
90.807526 180.0
90.85511 168.0
90.892029 172.0
91.07341 132.0
91.1437 148.0
91.442261 176.0
91.68222 76.0
92.174553 144.0
92.264381 224.0
92.361908 232.0
92.78511 136.0
92.856056 108.0
93.090179 128.0
93.128593 152.0
93.253479 160.0
93.674858 176.0
93.717247 124.0
93.886871 196.0
94.170578 40.0
94.32708 204.0
94.719887 184.0
95.00473 976.0
95.033943 260.0
95.453499 188.0
95.613411 156.0
95.762924 196.0
96.006531 188.0
96.258263 212.0
96.666809 132.0
96.682465 120.0
96.739227 152.0
97.169151 240.0
97.264557 156.0
97.545448 108.0
97.590668 120.0
97.889748 172.0
97.921257 140.0
97.94838 224.0
98.100563 220.0
98.252411 100.0
98.730408 192.0
98.748207 144.0
98.766014 148.0
98.906494 116.0
99.035194 180.0
99.899452 188.0
99.948387 220.0
100.085732 148.0
100.234268 208.0
100.398582 200.0
100.44046 52.0
100.45842 180.0
100.504303 180.0
100.560181 236.0
100.596107 72.0
100.64402 156.0
100.735168 176.0
100.835793 120.0
100.923752 160.0
100.969742 104.0
101.588654 224.0
102.033516 192.0
102.048553 148.0
102.507477 172.0
102.628418 180.0
102.733284 188.0
102.746483 132.0
102.78978 168.0
103.009842 112.0
103.055099 184.0
103.34948 108.0
103.462822 208.0
103.77887 136.0
103.983757 136.0
104.058861 128.0
104.444969 152.0
105.03521 452.0
105.067001 144.0
105.249954 56.0
105.376587 272.0
105.484894 196.0
105.511467 52.0
105.576904 148.0
105.597351 48.0
105.628029 208.0
106.494453 164.0
106.64093 252.0
106.943275 160.0
107.006142 192.0
107.013824 264.0
107.070923 220.0
107.126534 76.0
107.231621 100.0
107.254288 44.0
107.28521 164.0
107.326447 96.0
107.46257 236.0
107.507965 140.0
107.534798 156.0
108.041046 164.0
108.202469 212.0
108.793304 136.0
108.880508 216.0
109.020264 528.0
109.096603 248.0
109.115311 272.0
109.319145 168.0
109.464859 172.0
109.575256 144.0
109.876732 152.0
110.027817 128.0
110.128044 160.0
110.157288 232.0
110.194893 172.0
110.245041 156.0
110.282661 160.0
110.334915 164.0
110.380913 228.0
110.560814 192.0
110.657104 96.0
110.70945 120.0
110.805801 152.0
111.20002 128.0
111.464622 188.0
111.716919 112.0
112.180252 160.0
112.29406 132.0
112.532509 216.0
112.72049 172.0
112.77755 192.0
112.883255 204.0
113.003822 48.0
113.060951 124.0
113.215492 156.0
113.368019 144.0
113.480362 180.0
113.607605 112.0
113.902672 60.0
113.985527 208.0
114.302353 136.0
114.319374 56.0
114.483292 96.0
114.540794 184.0
114.628143 160.0
114.694214 40.0
115.053093 184.0
115.46711 116.0
115.55909 180.0
115.57621 204.0
115.666092 164.0
115.683212 56.0
115.856674 184.0
116.049759 212.0
116.075287 188.0
116.251183 36.0
116.28878 100.0
116.347771 136.0
116.379974 132.0
116.689362 156.0
117.119751 36.0
117.195145 132.0
117.365425 160.0
117.559555 92.0
117.918053 176.0
118.006676 216.0
118.114807 148.0
118.693039 152.0
118.766777 136.0
118.792809 136.0
118.831856 212.0
118.92823 136.0
118.964241 236.0
119.044571 92.0
119.516258 56.0
119.659912 176.0
119.790573 156.0
119.967079 140.0
120.017227 204.0
120.361977 164.0
120.436226 44.0
120.56076 160.0
120.635071 124.0
120.698471 140.0
121.838165 56.0
121.950233 116.0
122.020576 164.0
122.082138 148.0
122.317551 128.0
122.390205 120.0
122.963348 212.0
122.999649 1668.0
123.56881 280.0
123.657318 80.0
123.723724 212.0
123.779076 156.0
123.934128 160.0
123.951851 160.0
124.000938 160.0
124.034279 228.0
124.328835 120.0
124.402077 80.0
124.493111 128.0
124.686378 36.0
125.016106 1408.0
125.062248 176.0
125.38073 144.0
125.458748 96.0
125.685593 112.0
126.02018 220.0
126.095367 168.0
126.26033 144.0
126.513168 140.0
126.552391 220.0
126.712479 152.0
126.82901 172.0
126.89402 180.0
126.987556 168.0
127.033058 284.0
127.053246 144.0
127.235031 168.0
127.259727 180.0
127.605721 112.0
128.063156 2336.0
128.103073 84.0
128.321671 224.0
128.567535 144.0
128.723297 156.0
128.824936 264.0
129.069138 912.0
129.687042 160.0
129.748245 100.0
129.944336 216.0
130.074478 340.0
130.161179 56.0
130.420166 212.0
130.68396 60.0
130.754501 148.0
130.941177 96.0
131.125717 232.0
131.305832 156.0
131.410751 172.0
131.426727 104.0
131.5979 148.0
131.64357 120.0
132.064087 116.0
132.221954 156.0
132.73967 188.0
132.856644 212.0
132.920883 160.0
133.02066 628.0
133.131104 152.0
133.497452 100.0
133.552643 116.0
133.679184 132.0
133.725204 184.0
133.934738 124.0
134.023529 328.0
134.054535 180.0
134.07988 148.0
134.285065 56.0
134.628937 128.0
135.361984 168.0
135.412933 164.0
135.531067 160.0
135.589005 140.0
135.813889 152.0
135.941498 192.0
136.008804 132.0
136.034332 160.0
136.605972 80.0
136.766541 104.0
137.017883 444.0
137.190475 100.0
137.262756 204.0
137.281265 136.0
137.547379 96.0
137.722504 48.0
137.815948 216.0
137.932785 92.0
138.015015 184.0
138.058212 220.0
138.108154 216.0
138.497437 64.0
138.524811 184.0
138.850601 204.0
138.935043 104.0
139.012466 168.0
139.0289 184.0
139.047668 204.0
139.21904 112.0
139.402283 184.0
139.538605 48.0
139.62561 144.0
140.028625 292.0
140.065735 160.0
140.110489 136.0
140.207092 44.0
140.353256 156.0
140.671738 116.0
140.714233 156.0
140.761459 184.0
140.924438 160.0
141.008118 276.0
141.070129 548.0
141.171616 224.0
141.274338 160.0
141.345306 72.0
141.600967 100.0
141.712311 44.0
141.849762 132.0
142.04657 140.0
142.077408 184.0
142.177063 148.0
142.324249 248.0
142.530884 184.0
142.949387 40.0
143.035065 152.0
143.196976 280.0
143.420944 96.0
143.554443 128.0
143.716644 148.0
143.831192 60.0
144.010269 180.0
144.089096 112.0
144.349625 120.0
144.476395 148.0
144.780365 188.0
145.009262 192.0
145.027985 128.0
145.04631 208.0
145.187759 176.0
145.283707 148.0
145.350891 192.0
145.511703 72.0
146.278564 84.0
146.348389 240.0
146.7845 108.0
147.037506 440.0
147.170563 192.0
147.361374 160.0
147.636932 96.0
148.043488 160.0
148.079803 156.0
148.113724 164.0
148.336639 104.0
148.404526 140.0
148.453018 204.0
148.557312 184.0
148.61554 96.0
148.637375 124.0
148.710175 176.0
148.804855 172.0
149.16925 160.0
149.24913 140.0
149.27623 132.0
149.57547 200.0
149.612152 176.0
149.75322 208.0
149.818985 184.0
149.83847 240.0
149.940811 124.0
150.008713 140.0
150.02446 176.0
150.089508 140.0
150.296844 132.0
150.357849 80.0
150.413986 160.0
150.514084 148.0
150.711929 128.0
150.821899 72.0
150.907455 136.0
151.259735 200.0
151.752136 172.0
151.936081 48.0
152.062576 552.0
152.471359 132.0
152.567215 52.0
152.795929 172.0
152.899277 188.0
152.985413 128.0
153.070251 556.0
153.110992 100.0
153.26619 88.0
153.428848 84.0
153.500351 172.0
153.86058 144.0
153.966751 164.0
154.076492 1596.0
154.255829 60.0
154.372025 80.0
154.456116 160.0
154.513016 96.0
154.547653 140.0
154.805084 132.0
154.914062 64.0
154.95369 224.0
155.005722 348.0
155.041214 176.0
155.083664 612.0
155.127167 44.0
155.906509 188.0
156.088654 148.0
156.354156 136.0
156.745117 104.0
156.837326 92.0
156.857269 248.0
156.904633 140.0
157.017792 156.0
157.069214 144.0
157.094162 176.0
157.573471 120.0
157.660934 164.0
158.191177 148.0
158.551849 168.0
158.822617 164.0
159.017883 352.0
159.043427 148.0
159.116211 48.0
159.437729 104.0
159.480453 188.0
159.576935 168.0
159.749512 172.0
160.351288 200.0
160.570633 204.0
161.282623 124.0
161.318008 188.0
161.386261 176.0
161.454544 120.0
161.482361 100.0
161.606308 88.0
162.241989 100.0
162.485458 96.0
163.298309 104.0
164.187134 164.0
164.322327 160.0
164.449921 84.0
164.697586 176.0
164.720566 116.0
165.008331 1176.0
165.144867 172.0
165.221603 132.0
165.605576 120.0
165.941254 196.0
166.014587 208.0
166.073639 148.0
166.182343 132.0
166.267029 128.0
166.433884 92.0
166.554581 140.0
166.875809 164.0
166.981232 104.0
167.001816 156.0
167.027527 224.0
167.076263 216.0
167.691818 92.0
167.926437 184.0
168.080444 304.0
168.45816 60.0
168.755356 172.0
168.967438 88.0
169.130463 52.0
169.25473 196.0
169.29097 160.0
169.493027 148.0
169.531891 136.0
169.627792 108.0
169.692596 96.0
169.721115 32.0
169.83522 72.0
169.90007 228.0
169.941589 184.0
170.024887 212.0
170.29982 36.0
170.399216 168.0
170.892517 88.0
170.91333 136.0
171.035675 3484.0
171.073654 300.0
171.101913 240.0
171.301239 104.0
171.552444 80.0
171.981796 164.0
172.04071 1156.0
172.120163 204.0
172.258575 176.0
172.776062 200.0
172.880829 196.0
172.930557 28.0
173.052429 10752.0
173.100128 192.0
173.119049 196.0
173.172485 100.0
173.250015 72.0
173.308105 140.0
173.365295 52.0
173.501587 40.0
173.572388 200.0
173.693024 36.0
173.758606 56.0
173.871429 44.0
173.929169 132.0
173.947556 116.0
174.054276 1128.0
174.0867 96.0
174.131348 48.0
174.241669 108.0
174.270569 44.0
174.336258 44.0
174.425613 84.0
175.050385 204.0
175.162384 124.0
175.19136 92.0
175.386353 120.0
175.718628 112.0
175.942947 36.0
176.059814 200.0
176.09082 188.0
176.315384 164.0
176.38913 208.0
176.73848 164.0
177.061432 104.0
177.745361 240.0
178.013458 168.0
178.090469 88.0
178.372116 60.0
178.760422 84.0
178.872208 196.0
178.978683 116.0
179.861115 148.0
180.064026 136.0
180.815277 156.0
182.096786 88.0
182.12471 172.0
182.228424 112.0
182.28215 100.0
182.564407 124.0
182.607437 136.0
182.712341 80.0
182.736557 164.0
182.865723 140.0
183.036896 6632.0
183.105331 56.0
183.15921 52.0
183.294022 88.0
183.318161 104.0
183.339722 68.0
183.552673 116.0
183.74147 56.0
183.763062 96.0
183.806229 68.0
183.854797 60.0
183.905701 56.0
183.987061 204.0
184.039001 288.0
184.115311 368.0
184.408447 252.0
184.459793 104.0
184.527725 96.0
184.55983 48.0
184.784317 168.0
184.889847 84.0
185.049393 588.0
185.117584 336.0
185.141617 48.0
185.225571 168.0
185.314972 148.0
185.518219 52.0
185.691757 104.0
186.020218 156.0
186.051819 184.0
186.125946 112.0
186.378555 92.0
186.419327 220.0
186.749924 204.0
186.823425 204.0
187.077515 92.0
187.151016 64.0
188.050613 144.0
188.113388 164.0
188.132492 164.0
188.195282 132.0
188.815582 136.0
189.078217 88.0
189.878189 84.0
189.96048 144.0
190.19371 204.0
190.281555 176.0
190.319992 60.0
190.561691 148.0
190.622147 168.0
190.853027 160.0
190.97403 132.0
191.004288 152.0
191.059311 116.0
191.243668 56.0
191.587875 104.0
191.755951 60.0
192.141998 152.0
193.164108 156.0
193.21077 152.0
193.61525 152.0
193.673416 152.0
194.041977 168.0
194.202805 36.0
194.48027 80.0
195.400055 52.0
195.998672 248.0
196.079483 144.0
197.271317 28.0
197.693649 136.0
197.993179 52.0
198.122406 148.0
198.15564 168.0
198.290146 208.0
198.721985 40.0
199.031067 1020.0
199.126205 40.0
199.154297 160.0
199.530838 40.0
199.587067 48.0
199.643311 176.0
199.719238 56.0
199.837387 128.0
199.975281 128.0
200.034271 228.0
200.104767 100.0
200.127289 144.0
200.172348 132.0
200.265274 68.0
200.30925 124.0
200.428665 100.0
200.476578 88.0
200.547028 112.0
200.590256 260.0
200.648514 212.0
200.690796 144.0
200.720856 208.0
200.76384 124.0
200.807434 176.0
200.86705 160.0
200.891037 176.0
200.916428 100.0
200.964386 116.0
200.994385 204.0
201.047455 78184.0
201.124466 132.0
201.157196 68.0
201.202515 208.0
201.246628 76.0
201.265457 72.0
201.301682 236.0
201.337112 88.0
201.360931 84.0
201.392181 96.0
201.437256 96.0
201.475311 144.0
201.513489 396.0
201.546021 92.0
201.618317 96.0
201.642929 88.0
201.701462 76.0
201.755173 48.0
201.789093 168.0
201.830917 84.0
201.873535 204.0
201.929199 48.0
201.961136 76.0
201.984222 72.0
202.05069 7848.0
202.103043 32.0
202.165283 28.0
202.185104 92.0
202.216232 44.0
202.272461 148.0
202.308228 112.0
202.335114 56.0
202.403061 84.0
202.431381 60.0
202.54184 64.0
202.587158 80.0
202.643143 100.0
202.720322 48.0
202.765656 76.0
202.800278 56.0
202.852814 64.0
202.924408 72.0
202.961258 64.0
202.98111 164.0
203.012299 108.0
203.052292 560.0
203.086945 112.0
203.12207 180.0
203.185318 40.0
203.227875 92.0
203.27327 76.0
203.304489 104.0
203.335709 28.0
203.36409 88.0
203.404572 76.0
203.429382 176.0
203.475098 112.0
203.522171 128.0
203.526474 160.0
203.564178 92.0
203.583817 112.0
203.622086 92.0
203.654343 124.0
203.693237 100.0
203.762039 56.0
204.050659 180.0
204.327393 56.0
204.352997 132.0
204.42128 84.0
204.572739 132.0
204.717331 60.0
204.737274 52.0
204.965164 68.0
205.30722 100.0
205.392792 176.0
205.455551 60.0
205.586792 44.0
205.638168 76.0
205.798019 72.0
206.060791 40.0
206.332291 48.0
206.950272 100.0
208.824127 52.0
209.17804 48.0
209.961731 140.0
210.960754 56.0
212.296021 88.0
212.669754 200.0
212.983322 100.0
213.074387 164.0
213.779922 40.0
214.484726 128.0
214.939682 28.0
215.071014 92.0
215.149826 88.0
215.298737 116.0
216.066025 252.0
217.040817 168.0
217.579681 96.0
218.046722 68.0
218.437775 204.0
218.511322 200.0
218.649612 124.0
218.937317 196.0
218.960434 180.0
218.999969 108.0
219.057327 17712.0
219.106018 40.0
219.182617 80.0
219.238602 56.0
219.338806 136.0
219.42244 108.0
219.543716 48.0
219.686768 100.0
219.751678 100.0
219.88446 64.0
220.059982 2040.0
220.197403 36.0
220.481018 44.0
220.791428 44.0
220.878433 48.0
220.914017 72.0
220.995529 72.0
221.022171 72.0
221.060272 224.0
221.202698 52.0
221.486954 172.0
221.762512 72.0
221.783249 132.0
221.946304 48.0
224.139923 164.0
225.429001 56.0
225.853531 36.0
227.057541 72.0
227.168518 132.0
228.448212 40.0
228.944824 136.0
229.062286 112.0
230.066818 200.0
230.867142 52.0
232.266388 40.0
233.025314 160.0
233.073929 136.0
234.038116 132.0
234.181244 84.0
236.006119 152.0
238.301788 104.0
239.313675 84.0
240.055145 292.0
241.010056 140.0
241.056412 60.0
241.155304 88.0
241.418091 60.0
242.087143 200.0
242.538834 56.0
242.718643 132.0
243.056625 2432.0
243.264679 56.0
243.382645 44.0
244.060318 660.0
244.433258 44.0
244.993683 96.0
245.063492 276.0
245.854233 92.0
246.891403 112.0
256.166199 300.0
257.086212 60.0
257.986908 144.0
258.071228 180.0
259.892487 32.0
266.037476 108.0
273.167969 80.0
273.625397 36.0
273.994232 100.0
274.023895 388.0
274.180573 404.0
274.2117 52.0
274.596466 92.0
275.092377 112.0
275.183228 156.0
275.432495 68.0
276.02887 168.0
277.026886 60.0
277.885529 40.0
282.921265 100.0
287.010071 88.0
288.147491 92.0
294.36322 88.0
306.244446 80.0
321.29715 44.0
325.057526 40.0
325.599609 96.0
327.289703 60.0
339.345612 140.0
350.266113 116.0
358.169678 64.0
395.277893 120.0
398.092346 88.0
399.905182 84.0
409.86084 36.0
416.820526 160.0
428.316803 44.0
450.383575 60.0
450.565247 36.0
464.717407 72.0
477.769348 44.0
478.474335 36.0
490.825653 84.0
498.643463 64.0
502.945923 64.0
562.35675 140.0
563.834961 144.0
578.853516 52.0
612.518066 56.0
645.0802 96.0
662.268921 52.0
687.890991 48.0
694.368591 132.0
746.96637 116.0
781.7677 156.0
811.063293 64.0
812.872437 72.0
881.079895 212.0
883.62793 100.0
892.358704 216.0
912.031799 104.0
942.4729 156.0
963.139343 176.0
974.345398 172.0
984.354553 136.0
995.09906 140.0
1007.000549 116.0
1028.454712 152.0
1057.869385 100.0
1061.795898 120.0
1104.210327 48.0
1115.940796 144.0
1119.480713 28.0
1120.626343 52.0
1126.223267 188.0
1133.066528 92.0
1143.622559 132.0
1147.671143 128.0
1151.841919 172.0
1159.616211 236.0
1170.199585 128.0
1170.505981 164.0
1175.365967 80.0
1184.623047 64.0
1188.544556 228.0
1202.424561 156.0
1216.114502 64.0
1218.13501 136.0
1221.207275 176.0
1221.819458 164.0
1234.220093 184.0
1242.260132 212.0
1244.997437 204.0
1247.786987 164.0
1247.927612 72.0
1263.379761 96.0
1271.677246 128.0
1284.377808 268.0
1284.534668 60.0
1303.421143 216.0
1303.658203 104.0
1317.773926 164.0
1317.882202 140.0
1323.799072 216.0
1326.182617 48.0
1329.685669 72.0
1337.841064 164.0
1338.379883 44.0
1339.523193 168.0
1339.9021 52.0
1340.135254 152.0
1342.081299 172.0
1347.350708 184.0
1349.280029 224.0
1353.552979 160.0
1361.083496 40.0
1364.264771 196.0
1369.07666 168.0
1374.16272 212.0
1378.615234 56.0
1383.067505 216.0
1392.505981 180.0
1398.238037 140.0
1398.3125 76.0
1398.491089 92.0
1403.825317 152.0
1404.511475 192.0
1417.969604 192.0
1425.962646 212.0
1430.234741 76.0
1433.194336 112.0
1437.884766 156.0
1442.340942 200.0
1445.797363 80.0
1446.985718 180.0
1451.204712 152.0
1451.819946 132.0
1452.722534 152.0
1464.93103 164.0
1470.438477 224.0
1478.376465 208.0
1481.178589 148.0
1483.738037 168.0
1484.681152 148.0
1484.888184 176.0
1489.915894 32.0
1490.192505 68.0
1496.39917 136.0
1496.661011 120.0
1497.238525 200.0
