>compound MLS001201742-01!
>formula C15H12N2O2
>ionization [M+H]+
>parentmass 253.099
#inchi InChI=1S/C15H12N2O2/c16-15(19)17-12-7-3-1-5-10(12)9-14(18)11-6-2-4-8-13(11)17/h1-8H,9H2,(H2,16,19)
#inchikey CTRLABGOLIVAIY
#Ion_Source LC-ESI
#Instrument qTof
#Compound_Source NIH Pharmacologically Active Library
#PI Dorrestein
#Data_Collector VP/LMS
#Scan -1
#Precursor_MZ 253.099
#ExactMass 252.09
#Charge 1
#CAS_Number N/A
#Pubmed_ID N/A
#Smiles NC(=O)N1c2ccccc2CC(=O)c3ccccc13
#INCHI_AUX N/A
#Library_Class 1
#SpectrumID CCMSLIB00000085857
#IonMode Positive
#UpdateWorkflowName UPDATE-SINGLE-ANNOTATED-GOLD
#LibraryQualityString Gold
#TaskID d252d724072548979f1f6f1ced849daf
##Scan# 1619
#SpectrumFile p4-G04_GG4_01_18400.mzXML
#LibraryName Pharm_Active_Library.mgf
#MQScore -1
#Organism Pharm_Active_Library
#TIC_Query 0
#RT_Query -1
#MZErrorPPM -1
#SharedPeaks 0
#MassDiff 0
#LibMZ -1
#SpecMZ 253.099
#SpecCharge 0
#internalFilename spec-00000.mgf

>collision 10
44.90498 148.0
45.382404 256.0
45.96431 196.0
46.289291 64.0
46.639332 144.0
46.682838 48.0
47.067127 148.0
47.202412 152.0
47.373505 132.0
47.547646 152.0
47.591576 48.0
47.697365 200.0
48.011295 144.0
48.084419 204.0
48.258736 196.0
48.42178 128.0
48.44117 176.0
48.500755 184.0
48.825661 152.0
48.849384 216.0
48.871571 112.0
48.946735 88.0
48.975983 108.0
49.336021 164.0
49.456326 160.0
49.517933 212.0
49.679138 112.0
49.83498 184.0
50.010773 148.0
50.56831 160.0
50.77375 252.0
51.1987 168.0
51.361187 172.0
51.436817 192.0
51.501076 144.0
52.586601 236.0
52.749828 172.0
53.110397 208.0
53.619301 124.0
53.789959 136.0
53.84837 172.0
53.917038 148.0
54.419502 148.0
54.603195 248.0
54.871204 180.0
55.099972 184.0
55.29813 40.0
55.591579 192.0
56.15247 88.0
57.114376 172.0
57.410812 76.0
57.475677 124.0
57.785435 160.0
57.965626 80.0
58.174938 144.0
58.214417 236.0
58.331409 176.0
58.457653 200.0
59.204185 152.0
59.386574 144.0
59.632244 156.0
59.756805 136.0
60.361469 96.0
60.719215 188.0
61.412914 128.0
61.434753 152.0
61.537762 172.0
61.573681 220.0
61.631481 188.0
61.908367 124.0
61.928726 176.0
62.347645 128.0
62.547401 220.0
62.848423 176.0
63.432026 136.0
63.638275 176.0
63.741524 68.0
63.822594 168.0
63.860764 216.0
63.900532 196.0
64.039032 160.0
64.203194 148.0
64.487389 172.0
64.696945 76.0
64.900429 172.0
64.929298 164.0
64.945335 80.0
65.113869 128.0
65.181343 196.0
65.388802 184.0
65.559517 136.0
65.92263 164.0
65.963036 72.0
66.047127 132.0
66.635612 172.0
67.833527 168.0
67.858124 224.0
68.158501 180.0
68.413437 220.0
68.540268 148.0
68.578171 56.0
69.146355 180.0
69.361679 156.0
69.384888 144.0
69.735161 112.0
69.889824 176.0
69.926437 168.0
70.169647 204.0
70.299759 184.0
70.42498 184.0
70.786232 144.0
71.012482 196.0
71.909286 188.0
72.025795 192.0
72.093384 120.0
72.228645 204.0
72.701363 68.0
72.903465 156.0
73.247162 196.0
73.363037 216.0
73.506317 144.0
73.548981 172.0
74.055115 128.0
74.089378 208.0
74.370613 144.0
74.427269 284.0
74.6455 216.0
74.767647 184.0
74.993279 52.0
75.485321 180.0
76.470757 92.0
76.740784 128.0
76.862885 96.0
77.135345 144.0
77.455582 228.0
77.518654 176.0
77.618576 156.0
77.650139 216.0
77.722069 28.0
77.758926 148.0
78.004837 116.0
78.079643 176.0
78.575447 156.0
78.79084 152.0
78.886276 232.0
78.916328 164.0
79.458313 176.0
79.644714 264.0
79.728226 60.0
79.815331 184.0
79.973671 132.0
80.703339 116.0
81.172493 144.0
81.194008 136.0
81.707756 100.0
81.80854 164.0
81.867966 180.0
82.017509 168.0
82.430817 188.0
82.752792 60.0
82.810745 152.0
83.808113 128.0
83.977661 68.0
84.335541 76.0
84.383072 32.0
84.533066 204.0
84.710663 120.0
85.084793 232.0
85.104988 224.0
85.22438 216.0
85.268486 124.0
85.318115 188.0
85.63279 76.0
85.713852 236.0
85.759926 196.0
85.953575 160.0
85.997864 144.0
86.120415 196.0
86.249077 188.0
86.45253 200.0
86.958496 60.0
87.889008 152.0
88.116806 116.0
88.432846 112.0
89.079773 196.0
89.149292 80.0
89.241402 40.0
89.600899 196.0
89.729057 56.0
90.040421 192.0
90.165115 80.0
90.611702 164.0
91.038506 92.0
91.527229 120.0
91.651047 184.0
91.681534 120.0
91.904648 128.0
92.093651 176.0
92.170074 180.0
92.246521 144.0
92.476067 88.0
92.845848 124.0
93.031975 148.0
93.184341 192.0
93.687775 36.0
94.14299 60.0
94.168098 152.0
94.245369 60.0
94.523827 184.0
94.858894 196.0
94.930634 148.0
94.946152 192.0
95.369423 168.0
95.456909 184.0
95.742989 128.0
96.203163 196.0
96.554886 156.0
96.873947 208.0
97.718163 184.0
97.82444 228.0
98.074615 208.0
98.173195 176.0
98.611496 152.0
98.755836 212.0
98.854759 208.0
98.945808 132.0
99.042847 136.0
99.100296 220.0
99.205345 176.0
99.324326 204.0
99.445366 88.0
100.230934 144.0
100.390411 240.0
100.498131 144.0
100.54203 188.0
100.951584 108.0
101.03759 200.0
101.311874 124.0
101.349945 204.0
101.428101 188.0
101.656754 148.0
101.690872 200.0
102.189255 200.0
102.245598 96.0
102.338196 228.0
102.616249 148.0
102.634399 216.0
102.68885 212.0
102.844215 160.0
102.9795 116.0
103.191689 180.0
103.402077 204.0
104.048462 304.0
104.150269 136.0
104.440941 188.0
105.033745 188.0
105.055634 256.0
105.276588 188.0
105.460472 168.0
105.572922 164.0
105.66906 192.0
106.199646 120.0
106.250931 100.0
106.497276 176.0
106.599998 172.0
106.743896 128.0
106.824112 160.0
106.970222 208.0
107.295731 132.0
107.450417 172.0
107.481361 196.0
107.557724 144.0
107.741524 188.0
107.88826 144.0
107.958557 176.0
108.035095 100.0
108.115791 140.0
108.443031 192.0
108.855896 140.0
109.877914 164.0
110.18692 184.0
110.232887 236.0
110.333221 180.0
110.462883 168.0
110.707771 184.0
111.271835 256.0
112.321991 184.0
112.440147 140.0
113.308372 132.0
113.341049 152.0
113.529984 192.0
113.716423 208.0
113.792847 160.0
114.052025 164.0
114.317886 156.0
114.773758 104.0
114.901733 88.0
115.002029 136.0
115.066071 196.0
115.711769 144.0
115.831696 152.0
115.87883 128.0
116.063164 180.0
116.142517 216.0
116.731003 172.0
116.885887 220.0
117.056938 304.0
117.219666 208.0
117.2369 124.0
118.051392 172.0
118.249832 176.0
118.75901 136.0
119.115005 160.0
119.541153 108.0
120.186172 116.0
120.951683 136.0
121.494583 204.0
122.257057 132.0
122.276863 72.0
122.303276 128.0
122.510277 112.0
122.594009 180.0
122.964523 208.0
123.174294 132.0
124.392242 176.0
124.552132 164.0
125.096947 228.0
125.206055 156.0
125.292931 208.0
125.333038 76.0
125.674194 268.0
125.977837 136.0
126.165565 132.0
126.373566 288.0
126.429512 60.0
126.516808 196.0
126.599655 116.0
126.749748 152.0
126.895447 216.0
126.994118 140.0
127.053596 152.0
127.106293 220.0
127.223007 80.0
127.420647 188.0
127.489555 176.0
128.047974 612.0
128.334457 120.0
128.411133 236.0
128.487839 64.0
128.605179 140.0
128.69548 116.0
128.982407 172.0
129.147476 80.0
129.170105 172.0
129.323975 200.0
129.910873 224.0
130.016678 140.0
130.106049 116.0
130.167358 128.0
131.054489 184.0
131.227722 236.0
131.414749 168.0
131.958359 72.0
132.042252 568.0
132.642883 168.0
132.757523 128.0
132.92041 188.0
133.039764 80.0
133.212006 168.0
133.446426 68.0
133.715576 172.0
134.785645 160.0
135.338486 156.0
136.447571 224.0
136.552963 236.0
137.017776 180.0
137.15062 96.0
137.561172 136.0
137.654572 116.0
138.215591 180.0
138.555099 176.0
138.880951 156.0
139.056168 200.0
140.045029 152.0
141.063858 140.0
141.096954 96.0
141.11351 220.0
141.439987 212.0
141.605743 152.0
142.063232 84.0
142.212723 212.0
142.397934 164.0
142.559479 104.0
143.320969 304.0
143.418686 132.0
143.597519 160.0
143.826584 224.0
144.041489 184.0
144.065384 196.0
144.366547 156.0
144.426346 68.0
144.62735 56.0
145.135239 164.0
146.059891 280.0
146.317383 228.0
146.63295 192.0
146.898193 156.0
147.062286 76.0
148.411667 132.0
148.669373 196.0
149.026337 196.0
149.048203 48.0
149.089508 136.0
149.371567 188.0
149.919403 128.0
150.104675 200.0
150.351074 132.0
150.905594 160.0
151.048859 176.0
151.860672 208.0
151.890106 184.0
151.936935 176.0
152.000504 136.0
152.059891 832.0
152.091324 52.0
152.191971 116.0
152.260742 280.0
152.725281 208.0
152.914734 172.0
152.963974 156.0
152.988586 116.0
153.010742 160.0
153.067245 1072.0
153.16835 124.0
153.237335 108.0
153.555344 84.0
153.661423 112.0
153.95517 212.0
154.029266 148.0
154.06575 344.0
154.456909 36.0
154.511337 120.0
154.548447 84.0
154.990936 172.0
155.016464 104.0
155.070755 236.0
155.084244 316.0
155.284225 160.0
155.986938 152.0
156.0466 52.0
156.143585 180.0
156.208252 136.0
157.027771 156.0
157.332199 44.0
157.711914 140.0
158.04953 104.0
158.212219 124.0
158.347443 148.0
158.460175 196.0
158.903961 176.0
159.283051 240.0
159.662598 204.0
160.973068 200.0
160.993271 132.0
161.016006 160.0
161.139786 180.0
161.734085 104.0
161.959442 88.0
162.961548 288.0
163.885178 136.0
164.015152 136.0
164.052109 184.0
164.681137 96.0
164.708038 188.0
164.747543 64.0
164.765427 188.0
165.069061 2396.0
165.099869 264.0
165.653168 140.0
165.922256 200.0
166.032516 188.0
166.064468 908.0
166.199265 72.0
166.825958 44.0
167.036835 268.0
167.071381 6516.0
167.219528 48.0
167.258133 216.0
167.603241 116.0
168.074799 964.0
168.242889 148.0
168.268707 60.0
168.529587 68.0
168.956192 176.0
168.982071 164.0
169.059708 132.0
169.088165 132.0
169.258408 164.0
169.297882 148.0
169.354858 168.0
170.06572 180.0
170.374481 220.0
170.408112 60.0
171.764496 144.0
172.007187 188.0
172.344086 32.0
172.757187 160.0
173.073883 164.0
173.11055 116.0
173.15506 104.0
173.333206 48.0
173.500961 68.0
174.352722 180.0
174.477615 160.0
174.685379 132.0
175.267242 124.0
175.501831 168.0
175.979416 88.0
177.056656 300.0
177.198746 88.0
177.426682 140.0
177.80336 84.0
178.062851 1524.0
178.103394 128.0
178.19902 60.0
178.222946 132.0
178.241547 112.0
178.387726 140.0
178.597794 68.0
178.621735 228.0
178.898499 204.0
179.071899 2772.0
179.314041 152.0
179.387634 124.0
179.407349 52.0
179.476669 252.0
179.602005 200.0
179.868851 200.0
179.943604 44.0
180.026245 164.0
180.080582 43988.0
180.145126 244.0
180.164368 224.0
180.210815 124.0
180.250778 72.0
180.269485 188.0
180.317596 60.0
180.335175 60.0
180.389771 44.0
180.451248 64.0
180.472641 72.0
180.519592 40.0
180.547379 76.0
180.576935 52.0
180.598343 36.0
180.657196 124.0
180.686615 44.0
180.75351 88.0
180.777603 60.0
180.796326 56.0
180.820419 52.0
180.839157 32.0
180.865417 84.0
180.92749 52.0
180.948914 40.0
180.975693 44.0
181.026566 28.0
181.08345 6228.0
181.163162 88.0
181.246231 32.0
181.278381 32.0
181.353012 52.0
181.747665 48.0
181.769135 108.0
181.820114 164.0
181.855011 72.0
182.018768 144.0
182.063202 280.0
182.096634 3832.0
182.126846 116.0
182.222916 36.0
182.257843 60.0
182.326431 84.0
182.355072 136.0
182.393433 168.0
182.45137 100.0
182.520584 124.0
182.588913 160.0
182.620789 32.0
182.665359 56.0
182.819885 64.0
182.88179 84.0
183.024475 56.0
183.062576 160.0
183.099045 604.0
183.419418 128.0
183.449417 72.0
183.509476 84.0
183.800797 120.0
183.862869 56.0
183.88176 60.0
184.022141 124.0
184.079681 180.0
184.10585 32.0
184.249008 52.0
184.281433 40.0
184.362503 128.0
184.384125 64.0
184.427368 88.0
184.589584 64.0
184.995438 60.0
185.268967 40.0
186.096191 148.0
186.919815 80.0
188.876022 64.0
189.28656 36.0
189.35228 140.0
190.064926 212.0
190.886414 104.0
191.070358 588.0
192.078583 668.0
192.374268 80.0
192.642151 128.0
193.086166 852.0
193.17569 44.0
193.524414 68.0
194.069824 208.0
195.064636 976.0
195.534286 40.0
196.073212 432.0
197.102173 152.0
197.442642 60.0
200.029694 48.0
200.46344 124.0
201.795792 144.0
201.962646 160.0
202.486908 232.0
203.950363 212.0
206.05072 180.0
206.356476 32.0
207.066833 144.0
207.226593 60.0
207.559097 140.0
208.021027 200.0
208.074463 7816.0
208.184692 124.0
208.483475 56.0
208.71344 72.0
209.079895 1792.0
209.111588 220.0
209.205444 180.0
209.28894 80.0
209.882538 64.0
210.091949 2376.0
210.162323 168.0
210.370132 96.0
210.459641 36.0
210.890091 32.0
210.997055 52.0
211.065826 480.0
211.090012 160.0
211.338348 56.0
211.480148 56.0
211.546738 152.0
211.656754 88.0
214.361237 76.0
217.411453 72.0
218.063477 272.0
218.681137 64.0
219.066895 112.0
219.768585 44.0
225.189529 40.0
226.074417 156.0
226.550583 120.0
229.031921 140.0
236.07489 332.0
236.713135 68.0
237.057663 56.0
248.191803 112.0
250.87059 68.0
252.952423 60.0
254.185333 80.0
266.039459 160.0
268.864838 108.0
284.050323 188.0
290.025696 188.0
291.400116 80.0
292.702881 84.0
293.108246 120.0
293.909607 96.0
299.03653 68.0
305.392731 52.0
318.980743 88.0
325.346924 64.0
350.937073 108.0
354.30835 56.0
390.842468 72.0
398.111206 44.0
409.590607 80.0
472.307129 80.0
474.962463 36.0
476.886047 64.0
508.438812 28.0
552.928101 124.0
559.372803 72.0
564.454224 72.0
665.8396 44.0
669.130676 72.0
771.110657 120.0
791.702087 44.0
802.282776 88.0
883.157715 92.0
912.691895 48.0
938.182678 112.0
942.589539 136.0
980.97583 224.0
1069.177734 68.0
1113.586182 156.0
1120.411255 148.0
1135.632812 208.0
1138.512207 204.0
1144.375977 144.0
1150.41687 64.0
1155.363892 56.0
1167.329102 40.0
1174.780518 180.0
1191.128174 180.0
1207.955444 128.0
1216.756958 48.0
1217.472168 184.0
1223.285034 168.0
1225.074829 64.0
1266.317017 116.0
1267.443481 148.0
1273.516357 184.0
1290.556274 108.0
1294.320068 136.0
1296.290039 176.0
1296.870483 108.0
1301.742065 128.0
1315.530518 140.0
1324.526489 148.0
1326.388916 120.0
1353.316284 152.0
1358.688721 188.0
1360.193115 248.0
1368.530273 160.0
1372.516724 56.0
1372.929688 116.0
1373.423828 68.0
1374.877319 32.0
1381.978882 148.0
1391.703857 128.0
1396.60144 60.0
1399.35498 76.0
1399.548462 52.0
1405.049194 36.0
1407.572021 148.0
1410.986816 220.0
1415.611084 220.0
1419.380371 152.0
1419.567871 152.0
1421.750977 144.0
1426.099731 92.0
1432.036377 184.0
1437.321289 164.0
1442.124512 140.0
1453.469482 132.0
1453.826172 92.0
1457.304077 124.0
1466.215332 172.0
1468.411133 196.0
1472.09729 172.0
1474.465698 192.0
1478.679932 180.0
1479.238647 208.0
1486.566162 160.0
1488.569702 176.0
1493.273193 144.0
1496.028076 48.0
1500.828125 172.0
1501.46814 152.0
1502.787231 180.0
1504.191895 88.0
