>compound PrednisoloneAcetate
>formula C23H30O6 
>ionization [M+H]+
>parentmass 403.210388
#inchi InChI=1S/C23H30O6/c1-13(24)29-12-19(27)23(28)9-7-17-16-5-4-14-10-15(25)6-8-21(14,2)20(16)18(26)11-22(17,23)3/h6,8,10,16-18,20,26,28H,4-5,7,9,11-12H2,1-3H3/t16-,17-,18-,20+,21-,22-,23-/m0/s1
#inchikey LRJOMUJRLNCICJ
#Ion_Source LC-ESI
#Instrument qTof
#Compound_Source Isolated
#PI Sirenas
#Data_Collector Ed Esquenazi 
#Scan -1
#Precursor_MZ 403.212
#ExactMass 0.0
#Charge 1
#CAS_Number N/A
#Pubmed_ID N/A
#Smiles N/A
#INCHI_AUX N/A
#Library_Class 3
#SpectrumID CCMSLIB00000004749
#IonMode Positive
#UpdateWorkflowName UPDATE-SINGLE-ANNOTATED-BRONZE
#LibraryQualityString Bronze
#TaskID d19310cd93df49b68e9fcbec27720eb5
##Scan# 1
#SpectrumFile PrednisoloneAcetate.mgf
#LibraryName fda_library.mgf
#MQScore -1
#Organism fda_library
#TIC_Query 0
#RT_Query -1
#MZErrorPPM -1
#SharedPeaks 0
#MassDiff 0
#LibMZ -1
#SpecMZ 403.212
#SpecCharge 0
#internalFilename spec-00000.mgf

>collision 10
100.183083 34.302872
100.653679 6.25926
101.023094 603.245911
101.058434 44.147861
101.257011 7.334302
103.036095 18.779619
103.048492 40.68325
105.068169 30.222219
105.337219 4.763889
107.08329 160.025604
107.210495 39.370541
108.589554 5.686403
109.064972 5.801667
111.04155 53.5704
113.058174 21.25181
115.437126 3.080128
118.514862 10.125
119.085121 105.616096
121.063431 306.037292
121.102516 111.483498
121.150139 9.115741
121.265022 2.347222
121.37738 17.92754
123.078156 172.973007
123.126312 3.669872
125.057877 49.965691
125.087341 1.671296
125.348167 6.05
127.464172 5.005952
130.074615 41.34129
133.062836 96.459167
133.096069 27.485929
134.592972 3.741667
135.078568 354.169189
135.112762 9.078431
135.128937 2.695513
135.246246 5.033333
135.278732 15.84375
135.379395 14.22075
135.408127 5.017857
143.06813 145.543701
143.084366 88.516167
145.062805 89.256828
145.100754 29.73554
146.276855 6.454545
146.394592 5.011905
146.735794 1.720238
147.080109 1403.537964
147.133636 3.815476
147.225098 14.40076
147.241913 13.94015
147.31398 14.53452
147.330566 7.705246
147.415039 7.162634
147.461884 25.852369
147.516418 10.5455
147.538757 11.94707
147.579819 8.755555
148.10022 9.708333
149.096069 67.383812
150.262878 7.352941
151.113266 31.71011
151.457443 8.967105
153.090988 22.969139
155.081619 24.01965
158.851456 4.335526
159.078064 148.544495
159.111115 74.04776
161.095886 311.232086
161.811447 18.06061
163.074829 176.817902
163.109528 98.027977
165.089615 368.264099
165.141632 1.720238
165.728683 7.354167
171.079208 743.042603
171.445389 17.76333
172.044937 4.011905
172.24382 8.095239
172.338638 4.013889
173.094376 479.216003
173.329575 6.482143
173.480774 10.65476
173.861267 8.486112
174.467285 4.003205
175.073914 151.864899
175.116135 49.436329
175.419769 11.77778
177.092194 62.341049
179.10524 37.502319
181.083435 8.506945
181.105469 42.083328
181.779663 2.003788
183.076523 11.71646
185.093979 14.76587
185.436218 19.605619
187.070984 29.36548
187.107941 71.586678
187.147034 3.002451
187.186691 7.573412
189.087219 70.639252
191.101791 66.695511
192.090805 31.72331
195.08432 31.498131
195.402863 5.335145
197.093353 231.937302
197.133041 3.668651
197.709839 4.007576
198.149628 3.027778
198.282562 8.340278
198.556992 6.0
199.071396 23.78788
199.108749 69.427788
199.759827 7.673077
199.982635 4.763889
201.084671 17.523729
201.125244 77.618149
201.412491 7.933333
202.076691 32.260422
205.117233 28.975229
205.869675 14.38043
207.10054 77.12252
209.092712 88.663597
211.071701 43.44381
211.107346 108.483803
212.145157 17.00915
213.089859 85.447906
213.126801 124.668999
215.100418 41.354172
215.349243 2.003788
215.691422 7.2
217.118484 35.57341
217.566544 5.415
219.89389 4.963235
221.094208 248.529694
221.199203 4.297619
223.110397 696.16571
223.153305 7.464285
223.251938 11.88158
223.417114 17.32
223.451645 9.967105
223.673462 20.05538
223.885101 9.083333
223.969696 15.36937
224.969543 8.541667
225.00174 5.76923
225.095688 10.17754
225.126083 202.5298
225.361954 13.89943
225.445526 11.66752
227.109726 3.802778
227.136505 82.586853
228.053284 7.5
229.118683 49.285999
231.099335 42.822491
233.095078 10.97348
234.412903 9.690891
235.111862 65.134277
235.264389 5.708333
235.495392 11.19947
235.964676 17.26759
236.025436 4.669445
237.087692 37.548519
237.126846 459.139801
237.217575 4.002451
237.24437 5.009259
237.426636 15.27778
237.473969 8.74359
237.539169 11.03947
237.651321 8.787879
237.801971 8.035714
237.906601 4.916667
237.935776 14.63209
238.48378 6.125
239.10733 70.34375
239.14035 337.466187
239.204315 5.016304
239.252655 6.333333
239.769516 4.083333
239.839172 4.700758
240.459534 7.782407
241.114456 40.040989
243.13147 19.36742
243.317368 6.075
246.113586 12.06349
247.113037 52.22979
247.149155 18.395201
247.518204 9.666667
249.130142 182.743896
249.27739 13.03157
249.404572 3.002451
249.915695 12.88469
251.139694 71.671288
253.122452 55.809811
253.165588 2.669444
254.506241 7.016666
255.144012 55.4384
256.587708 3.555556
260.120667 10.34833
261.12323 101.889397
261.163452 64.376961
261.200775 2.854167
261.24942 8.146739
263.141968 352.950806
263.492523 6.351191
263.577271 7.921875
263.611755 10.73485
264.934509 4.388158
265.116852 85.82859
265.158539 658.745483
265.41037 4.358333
266.148071 30.034611
266.229126 8.002778
266.411652 5.416667
267.004669 4.008333
267.172821 184.419403
267.380859 8.333333
267.426178 10.10289
267.750549 5.013889
268.000549 7.774123
269.819641 17.11484
271.148468 29.70219
271.515076 8.109649
274.12381 8.166667
276.792877 20.111629
277.155609 22.1
277.82666 6.083333
277.929504 15.53192
278.321625 10.33578
279.136475 119.344902
279.173492 991.018982
279.227386 2.008333
279.245026 10.6875
279.26828 21.051979
279.344513 21.88068
279.369141 14.4951
279.442719 11.68182
279.687012 10.03157
279.910522 7.382936
280.290039 6.347222
280.653625 2.669872
281.151581 14.39919
283.169891 92.848152
283.72171 2.666667
283.891693 4.711957
285.112732 13.04167
285.182037 140.079605
285.394226 9.683333
285.994019 13.35041
286.583038 22.245001
287.360565 13.0744
287.385986 9.615
287.462067 24.310369
287.490326 9.537499
287.731323 4.708333
288.021454 5.813406
288.493958 6.0
288.723297 13.72817
289.158447 1536.791016
289.209564 3.005953
289.268555 12.3787
289.422394 2.367424
289.440155 11.67348
289.460388 14.14405
289.546692 5.694445
289.576294 2.00463
289.612854 9.680555
289.65918 4.363636
289.979034 10.32143
290.038239 13.00439
290.393829 7.375
290.743744 1.720238
294.093048 6.564103
295.17215 40.3867
296.167084 18.42782
297.153931 9.053572
297.182587 150.037399
297.533447 11.32003
305.166748 7.377451
305.276947 19.05336
305.312714 6.408333
305.420074 3.375
305.504425 23.013121
305.537994 19.70833
305.942627 12.22917
306.162445 28.22893
306.180847 7.458333
306.227203 8.401667
306.486938 12.55417
307.091125 22.77137
307.135101 82.632004
307.168884 4737.608887
307.216766 62.856918
307.241272 43.588242
307.278198 34.82766
307.323334 35.026741
307.38269 28.17314
307.425476 4.786765
307.458466 30.104549
307.523468 8.336538
307.559784 5.702587
307.578094 14.05921
307.59903 20.320181
307.689545 18.60614
307.889313 25.166229
308.000427 5.963235
308.03833 18.798229
308.338593 17.674999
308.524506 7.011364
308.652008 8.541667
308.706329 22.82469
308.792633 13.10256
309.423462 5.763889
310.618073 18.713961
312.640533 21.000641
323.185455 16.97364
323.237335 3.0
323.264191 8.20119
323.414307 6.001543
323.469513 8.668478
323.551971 11.36915
323.702179 1.671296
324.386658 9.8
324.641724 11.03571
324.930115 14.70379
325.178833 2894.802979
325.253723 12.5772
325.338104 31.65486
325.368347 33.8918
325.419922 19.49354
325.453918 21.619591
325.482025 11.81071
325.507294 6.422222
325.534698 30.30978
325.561829 14.05228
325.587524 2.075
325.609772 3.333333
325.676361 5.669872
325.714447 7.670635
325.773926 18.04748
325.816254 7.777778
325.933105 21.507851
325.955658 18.41333
325.990875 9.688597
326.148132 36.673199
326.222504 19.38851
327.632721 5.265351
327.720428 2.35
328.73584 6.001984
330.446838 3.683333
339.199707 14.1165
340.971405 4.297619
341.65799 11.82315
343.183594 148.451904
343.235016 1.6875
343.563232 6.510965
347.164886 8.001437
348.2612 11.70614
349.179962 367.893494
349.508636 10.17763
349.763062 17.03141
364.980255 7.347222
365.161591 12.41554
367.18924 1374.241943
367.336731 35.546391
367.363312 5.028846
367.45105 22.600559
367.483093 3.336111
367.556458 5.0625
367.60318 5.741667
367.669861 11.10727
367.723602 16.52688
367.769867 5.003205
368.079041 10.88021
368.11026 7.078432
370.787109 10.92045
382.662445 19.88319
382.777863 8.022223
382.845062 36.83334
382.885956 6.09375
382.913849 12.13564
382.972473 20.05797
382.988586 18.602909
383.035065 11.89744
383.07962 5.708333
383.138367 12.00269
383.219818 23.528431
383.371124 10.78333
383.458191 7.958333
383.505798 12.67083
383.75827 7.351191
383.793579 15.48016
384.185028 6.095238
384.562897 12.39844
384.626923 4.669445
384.849487 8.34543
385.200104 9570.101562
385.29834 21.004009
385.326538 42.712971
385.358826 64.286888
385.414551 14.72917
385.44046 37.041672
385.480133 26.290951
385.547363 43.9305
385.601746 55.450191
385.657104 21.65247
385.684174 41.913158
385.731964 27.213909
385.785614 38.763088
385.815735 56.50528
386.010742 28.24107
386.031067 7.768939
386.156494 35.710289
386.395386 11.79167
386.495941 28.372669
386.64032 16.497089
386.885437 13.7631
387.31665 18.448721
387.543121 2.0
387.607574 6.25926
387.769104 3.440476
387.913055 8.041667
387.98114 18.41346
388.019348 4.59375
388.811127 3.0
391.799408 2.761364
393.379364 8.049797
400.540588 13.55648
400.748199 15.68627
401.656525 20.75
403.12738 20.172371
403.210388 1248.58606
403.264435 12.77778
403.312622 11.96749
403.499573 6.25926
403.595978 24.31101
403.699493 1.666667
403.741425 3.003788
403.84964 6.399193
403.949036 5.852273
404.035065 9.355556
404.188934 15.66735
404.33316 4.933333
404.398773 6.334596
404.454742 7.102273
405.702118 15.08333
406.590088 11.9631
