>compound MLS000860042-01!Pirfenidone
>formula C12H11NO
>ionization [M+H]+
>parentmass 186.090347
#inchi InChI=1S/C12H11NO/c1-10-7-8-12(14)13(9-10)11-5-3-2-4-6-11/h2-9H,1H3
#inchikey ISWRGOKTTBVCFA
#Ion_Source LC-ESI
#Instrument qTof
#Compound_Source NIH Pharmacologically Active Library
#PI Dorrestein
#Data_Collector VP/LMS
#Scan -1
#Precursor_MZ 186.092
#ExactMass 185.084
#Charge 1
#CAS_Number N/A
#Pubmed_ID N/A
#Smiles Cc1ccc(=O)n(c1)c2ccccc2
#INCHI_AUX N/A
#Library_Class 1
#SpectrumID CCMSLIB00000085154
#IonMode Positive
#UpdateWorkflowName UPDATE-SINGLE-ANNOTATED-GOLD
#LibraryQualityString Gold
#TaskID d252d724072548979f1f6f1ced849daf
##Scan# 1575
#SpectrumFile p3-F06_GF6_01_18287.mzXML
#LibraryName Pharm_Active_Library.mgf
#MQScore -1
#Organism Pharm_Active_Library
#TIC_Query 0
#RT_Query -1
#MZErrorPPM -1
#SharedPeaks 0
#MassDiff 0
#LibMZ -1
#SpecMZ 186.092
#SpecCharge 0
#internalFilename spec-00000.mgf

>collision 10
44.932301 180.0
44.962994 88.0
45.048458 148.0
45.186165 180.0
45.410267 128.0
45.615341 200.0
45.643578 112.0
45.68124 180.0
45.817215 120.0
45.852253 36.0
45.946651 48.0
45.984436 192.0
46.197948 176.0
46.42009 224.0
46.429585 152.0
46.661797 68.0
46.849621 84.0
47.002335 188.0
47.063763 164.0
47.10474 160.0
47.122501 152.0
47.242817 232.0
47.493515 216.0
47.810913 232.0
47.831562 200.0
48.094856 136.0
48.254421 196.0
48.405945 116.0
48.417023 72.0
48.458584 176.0
48.515411 204.0
48.527889 36.0
48.598629 180.0
48.672199 152.0
48.769455 168.0
49.091084 136.0
49.28373 184.0
49.459953 164.0
49.541176 284.0
49.625271 108.0
49.771206 148.0
50.350021 68.0
50.487118 84.0
50.613068 248.0
50.638561 44.0
50.71933 164.0
50.756191 112.0
50.841312 220.0
50.905201 204.0
51.02314 224.0
51.068649 96.0
51.196747 136.0
51.278812 180.0
52.118046 228.0
52.130978 148.0
52.341011 144.0
52.410156 128.0
52.443306 148.0
52.612087 60.0
52.636635 352.0
52.759457 108.0
52.892551 128.0
52.902683 184.0
53.162148 84.0
53.188416 204.0
53.307377 80.0
53.647984 104.0
53.700481 68.0
53.891727 220.0
53.901958 140.0
54.00869 180.0
54.330982 232.0
54.596863 96.0
54.608627 160.0
54.621868 192.0
54.673367 152.0
55.137955 140.0
55.148304 40.0
55.392467 208.0
55.450256 164.0
55.678749 204.0
55.808041 160.0
55.837784 180.0
56.138634 168.0
56.852264 156.0
56.891293 148.0
57.28833 140.0
57.583996 104.0
57.597588 188.0
57.706406 224.0
57.726063 156.0
57.751774 184.0
57.871334 156.0
58.404037 164.0
58.553204 120.0
58.608047 140.0
58.632431 164.0
59.237537 148.0
59.718014 156.0
59.774937 148.0
59.890411 156.0
60.350323 168.0
60.922253 168.0
61.001816 184.0
61.52029 204.0
61.632751 140.0
61.704651 172.0
61.781288 192.0
61.818844 196.0
61.873631 112.0
62.471588 228.0
63.074005 116.0
63.232185 224.0
63.271759 128.0
63.295509 136.0
63.401653 160.0
63.857334 160.0
63.911423 48.0
64.292297 44.0
64.567101 192.0
64.860123 212.0
64.988426 228.0
65.007683 112.0
65.08313 188.0
65.113647 232.0
65.37571 152.0
65.420776 268.0
65.609276 164.0
65.723793 128.0
66.179634 72.0
66.369217 148.0
66.430855 184.0
66.476288 28.0
66.827286 204.0
66.859833 48.0
66.890762 172.0
67.188995 184.0
67.329384 116.0
67.411072 160.0
67.676079 148.0
67.913712 152.0
68.191208 140.0
68.372131 192.0
68.545052 152.0
68.723145 52.0
68.802368 188.0
68.903122 120.0
68.957649 128.0
69.773262 184.0
69.784904 168.0
70.134514 124.0
70.256256 184.0
70.490021 72.0
70.533478 216.0
70.81292 196.0
70.915123 160.0
71.106339 124.0
71.19532 180.0
71.853508 176.0
72.079773 140.0
72.552017 192.0
72.591019 112.0
72.663956 116.0
72.874504 124.0
72.922089 72.0
73.073441 172.0
73.17897 100.0
73.279465 180.0
73.424362 148.0
73.444832 152.0
73.641129 164.0
74.019096 128.0
74.036224 52.0
74.513107 148.0
74.544037 208.0
74.643745 160.0
74.991524 144.0
75.190086 164.0
75.224396 28.0
75.407501 196.0
75.552757 196.0
75.6064 152.0
75.698158 156.0
76.133453 204.0
76.338524 152.0
76.455086 196.0
76.812286 168.0
77.196548 216.0
77.371529 116.0
77.56073 192.0
77.681732 192.0
77.701027 208.0
77.960915 176.0
78.078712 136.0
78.152596 136.0
78.191315 220.0
78.441437 196.0
78.492569 168.0
78.573708 60.0
78.611572 176.0
78.646065 176.0
78.665482 172.0
79.408691 136.0
79.508049 200.0
79.70517 72.0
79.821381 260.0
80.462189 220.0
80.665855 136.0
80.717705 132.0
80.801781 216.0
80.925278 216.0
81.163597 220.0
81.40406 156.0
81.979752 148.0
82.004982 184.0
82.062668 116.0
82.216003 228.0
82.344193 220.0
82.499596 188.0
82.778244 80.0
82.805412 152.0
83.66938 232.0
84.03981 176.0
84.251602 212.0
84.536858 188.0
84.861092 60.0
85.334808 132.0
86.347237 188.0
86.817665 92.0
86.875168 116.0
87.055382 196.0
87.179688 176.0
87.453316 148.0
87.840683 116.0
88.188011 176.0
88.444275 132.0
88.744026 228.0
88.813416 176.0
88.999214 156.0
89.179573 192.0
89.469276 156.0
90.697212 224.0
90.712379 104.0
90.87738 120.0
90.966583 124.0
91.058006 220.0
91.455124 200.0
91.599846 192.0
91.767563 244.0
91.899178 148.0
91.969788 180.0
92.007965 180.0
92.048965 2732.0
92.075996 244.0
92.528008 244.0
92.844193 56.0
93.040672 204.0
93.052872 316.0
93.184792 204.0
93.455078 148.0
93.537834 76.0
93.653374 224.0
94.137482 148.0
94.483482 232.0
94.502831 184.0
94.646065 68.0
94.785538 144.0
94.917358 44.0
95.033745 176.0
95.113312 212.0
95.249245 176.0
96.199577 156.0
96.240578 176.0
96.334328 240.0
96.690689 196.0
96.717613 72.0
97.429482 72.0
97.569023 232.0
97.814934 100.0
97.855118 224.0
98.1203 116.0
98.161705 204.0
98.222847 176.0
98.376778 152.0
98.981804 124.0
99.029335 164.0
99.209663 136.0
99.419922 184.0
99.49337 164.0
99.769531 100.0
99.817245 152.0
100.075935 156.0
100.097839 104.0
100.434662 188.0
100.610275 108.0
101.037979 156.0
101.32428 104.0
101.462578 96.0
101.701302 108.0
101.731415 116.0
101.948341 288.0
102.046913 416.0
102.149414 236.0
102.261276 156.0
102.32048 144.0
102.568275 228.0
102.615654 168.0
102.630775 124.0
102.695312 196.0
102.806274 196.0
103.052322 512.0
103.317505 216.0
103.481445 108.0
103.86245 232.0
103.961868 128.0
104.048683 1548.0
104.40699 212.0
104.875092 60.0
105.050461 224.0
105.311752 148.0
105.354652 128.0
105.39756 144.0
105.647003 156.0
105.823021 232.0
105.855782 68.0
106.064766 160.0
106.13858 100.0
106.255493 52.0
106.315002 40.0
106.475143 148.0
106.847214 180.0
106.956284 188.0
107.137505 200.0
107.232292 136.0
107.715141 148.0
107.793655 136.0
107.861862 100.0
108.040642 216.0
108.312973 104.0
108.406212 148.0
108.563774 128.0
108.796173 68.0
109.018425 240.0
109.047409 148.0
109.2742 140.0
109.803329 236.0
109.949371 76.0
109.997383 200.0
110.024521 176.0
110.058891 4876.0
110.112228 144.0
110.149826 164.0
110.179649 188.0
110.23967 120.0
110.266838 48.0
110.423653 52.0
110.448753 52.0
110.54081 76.0
110.561737 32.0
110.815125 184.0
110.97023 156.0
110.995392 40.0
111.061317 336.0
111.453003 184.0
111.673744 156.0
111.865234 168.0
111.983162 196.0
112.040039 48.0
112.328857 216.0
112.685654 160.0
112.784981 236.0
112.899155 156.0
112.922424 76.0
113.192719 184.0
113.411537 116.0
113.443336 168.0
113.663925 60.0
113.7658 220.0
113.916588 96.0
113.986702 180.0
114.156769 172.0
114.362038 108.0
114.61232 104.0
114.633629 168.0
114.780724 104.0
115.052475 5260.0
115.188377 144.0
116.060127 1112.0
116.166702 96.0
116.233215 188.0
116.261116 192.0
116.327652 148.0
116.407097 200.0
116.611198 168.0
117.056129 872.0
117.722916 164.0
117.770432 116.0
117.934647 44.0
118.014641 148.0
118.061859 276.0
118.508148 180.0
118.649033 148.0
118.82254 132.0
119.631027 48.0
119.809608 44.0
120.051559 76.0
120.652046 212.0
120.857643 72.0
121.017433 148.0
121.429428 164.0
121.734489 36.0
122.290733 128.0
122.81736 48.0
123.062332 116.0
123.429138 144.0
123.506546 40.0
123.882874 140.0
124.29306 140.0
125.035324 180.0
125.211212 116.0
125.304771 228.0
125.985245 164.0
126.045723 168.0
126.398895 152.0
126.443649 204.0
126.537674 164.0
126.918587 160.0
127.05378 512.0
127.282104 192.0
127.497772 76.0
128.061584 1376.0
128.083298 140.0
128.193192 72.0
128.21347 176.0
128.782043 168.0
128.881454 48.0
128.928909 84.0
129.049683 300.0
129.066055 724.0
129.431122 160.0
129.619141 144.0
129.75061 32.0
129.850388 92.0
130.064148 896.0
130.336212 120.0
130.697769 188.0
130.725067 148.0
131.07225 1688.0
131.640778 144.0
131.719177 148.0
132.046036 140.0
132.07605 800.0
132.119247 64.0
133.049728 144.0
133.079575 80.0
133.150772 80.0
133.205902 136.0
133.668045 116.0
133.944321 200.0
133.97197 160.0
134.80957 172.0
135.08934 204.0
135.3694 176.0
135.475952 196.0
135.863129 196.0
136.269424 160.0
136.334488 156.0
136.450714 156.0
136.715469 196.0
136.855576 52.0
137.11882 204.0
137.433655 136.0
137.989563 132.0
138.069061 200.0
138.361572 156.0
138.434158 172.0
138.607513 156.0
138.684845 144.0
139.052155 588.0
139.12352 144.0
139.236237 176.0
140.050507 292.0
140.894592 140.0
141.031647 240.0
141.067505 3644.0
141.093811 172.0
141.642151 60.0
142.062927 3312.0
142.353699 96.0
142.439209 64.0
142.750565 160.0
142.909943 148.0
142.969437 208.0
143.012268 200.0
143.040833 212.0
143.071381 9500.0
143.240875 104.0
143.262314 160.0
143.29567 64.0
143.367157 212.0
143.393372 92.0
143.507797 72.0
143.715317 164.0
143.872849 136.0
143.899109 72.0
143.918213 32.0
143.980301 108.0
144.018509 72.0
144.05481 344.0
144.07637 1424.0
144.185776 28.0
144.220627 144.0
144.743179 32.0
144.872528 72.0
145.023483 108.0
145.070236 336.0
145.143356 68.0
145.229706 132.0
145.284882 176.0
145.85643 104.0
145.952591 76.0
146.089691 152.0
146.161865 144.0
146.720673 208.0
147.447266 160.0
148.105392 80.0
148.238647 108.0
148.97142 156.0
149.747391 100.0
150.043442 188.0
150.786789 48.0
151.028854 212.0
151.05069 536.0
151.528259 240.0
152.046585 364.0
152.06337 152.0
152.16597 120.0
152.428787 116.0
152.928055 56.0
153.056259 1784.0
153.874695 148.0
154.061401 828.0
154.366425 156.0
154.693024 108.0
154.764816 48.0
155.059326 176.0
155.3423 88.0
155.769287 124.0
155.876129 56.0
155.948196 216.0
156.079544 1080.0
156.1297 140.0
156.423309 192.0
156.709717 120.0
156.974152 188.0
157.033798 160.0
157.087326 2292.0
157.365707 72.0
157.428131 44.0
157.458939 40.0
158.067581 172.0
158.094727 7844.0
158.138184 300.0
158.233307 68.0
158.528885 48.0
158.641693 52.0
158.774582 108.0
159.073181 144.0
159.097549 796.0
159.31929 44.0
159.341904 164.0
159.457489 48.0
159.60582 76.0
159.849823 64.0
160.077454 124.0
160.1026 140.0
160.217453 72.0
160.364273 76.0
161.267227 156.0
161.307678 152.0
162.322968 104.0
162.680725 136.0
162.949936 208.0
163.40506 156.0
163.471222 280.0
163.593384 40.0
164.097839 172.0
165.055389 200.0
165.597946 136.0
165.946472 148.0
166.064285 888.0
166.246597 152.0
166.300491 84.0
166.564972 120.0
167.071228 3992.0
167.151184 108.0
167.488449 56.0
167.831223 152.0
168.079468 2140.0
168.176926 172.0
168.213074 136.0
168.280197 44.0
168.324097 40.0
168.422241 140.0
168.923721 120.0
169.065353 300.0
169.07373 144.0
169.080368 460.0
169.490738 100.0
169.954895 160.0
170.057434 1432.0
170.101395 36.0
170.523636 132.0
170.560028 36.0
170.786255 156.0
171.066055 1360.0
171.140198 208.0
171.215714 56.0
171.248505 68.0
171.353775 124.0
171.679611 56.0
172.240784 84.0
173.014862 164.0
173.407791 56.0
173.441864 76.0
173.567719 216.0
174.61557 92.0
174.710266 216.0
174.815521 180.0
175.257919 128.0
177.141693 136.0
177.30864 220.0
177.425262 180.0
177.555206 208.0
177.613556 156.0
178.545853 128.0
179.039597 208.0
179.365936 44.0
179.915497 80.0
179.94754 184.0
180.006287 196.0
180.059097 152.0
180.33757 64.0
182.299438 196.0
183.074234 160.0
183.233154 152.0
183.926239 104.0
183.94783 132.0
184.071426 664.0
185.004868 144.0
185.080872 164.0
185.356979 132.0
185.416595 204.0
185.525024 108.0
185.55484 204.0
185.642715 160.0
185.831497 140.0
185.850494 144.0
185.959488 100.0
186.01062 140.0
186.040451 180.0
186.090347 31972.0
186.164307 80.0
186.203415 100.0
186.233292 56.0
186.289856 132.0
186.312073 44.0
186.33606 152.0
186.363693 40.0
186.409882 68.0
186.453369 84.0
186.5186 104.0
186.546509 60.0
186.564819 104.0
186.59201 68.0
186.678558 72.0
186.733414 56.0
186.755173 52.0
186.774216 76.0
186.994614 60.0
187.019104 180.0
187.049057 68.0
187.09314 3504.0
187.215134 40.0
187.247818 144.0
187.62114 72.0
187.741119 60.0
187.847504 88.0
187.891144 84.0
188.093704 288.0
188.303345 80.0
188.327927 108.0
188.357864 96.0
188.401688 56.0
188.472733 72.0
188.494583 88.0
188.535583 152.0
188.658035 40.0
188.811707 112.0
189.337189 60.0
189.381012 52.0
191.058304 104.0
196.667313 84.0
197.044312 124.0
197.115341 48.0
198.435364 44.0
198.684982 88.0
200.287369 72.0
200.760895 48.0
202.278183 124.0
203.403595 56.0
207.847443 64.0
208.556824 40.0
208.919159 136.0
210.386078 40.0
215.039398 132.0
220.52916 48.0
244.641113 64.0
247.075409 76.0
249.308014 76.0
262.291992 56.0
288.703918 84.0
309.957977 104.0
322.99115 64.0
337.644623 68.0
365.418854 88.0
367.064392 92.0
373.995178 76.0
416.498413 84.0
428.827271 52.0
467.357391 88.0
482.976257 68.0
493.527008 56.0
505.11734 52.0
553.942993 68.0
586.926208 108.0
639.308594 68.0
649.951233 160.0
665.951477 44.0
728.439758 164.0
737.190002 124.0
740.002869 172.0
765.036438 48.0
836.188416 188.0
842.271606 196.0
844.479675 144.0
850.337524 128.0
850.639343 180.0
859.509399 188.0
915.393127 148.0
930.856262 176.0
936.609863 276.0
954.063171 192.0
955.028625 196.0
962.312988 128.0
962.664978 208.0
966.175903 160.0
969.123108 212.0
972.72644 144.0
972.782349 76.0
981.436707 212.0
985.837708 144.0
996.270508 192.0
1014.972351 168.0
1015.321106 148.0
1021.132568 176.0
1024.646484 172.0
1028.096191 148.0
1029.845703 64.0
1031.50061 136.0
1038.518799 232.0
1046.249512 160.0
1061.129028 40.0
1064.185059 168.0
1068.708984 156.0
1069.80896 180.0
1073.764282 220.0
1075.05603 228.0
1082.076538 212.0
1086.500488 152.0
1087.360107 100.0
1090.992798 128.0
1102.455444 160.0
1110.950806 44.0
1116.530518 132.0
1122.330933 116.0
1122.764404 124.0
1128.079468 252.0
1128.754761 132.0
1134.352173 144.0
1135.129883 184.0
1138.270508 144.0
1143.743286 208.0
1144.349121 176.0
1146.019531 224.0
1146.875488 204.0
1150.53186 128.0
1152.436523 72.0
1155.61438 224.0
1156.331787 156.0
1163.069214 172.0
1171.835449 152.0
1174.814941 204.0
1177.948364 164.0
1178.064453 84.0
1187.50415 88.0
1190.352295 212.0
1194.111694 236.0
1195.68042 104.0
1196.045166 84.0
1196.864502 208.0
1207.893433 100.0
1208.834473 192.0
1209.20813 176.0
1215.507812 168.0
1216.840576 56.0
1218.375488 128.0
1220.106079 172.0
1224.148804 60.0
1225.277222 92.0
1225.528076 244.0
1226.001953 144.0
1226.817505 148.0
1229.105225 188.0
1232.862305 184.0
1239.916992 244.0
1242.329102 124.0
1245.143921 148.0
1248.229126 144.0
1249.692261 204.0
1250.191895 236.0
1250.747925 60.0
1251.057617 180.0
1253.078979 164.0
1254.460327 164.0
1254.523804 176.0
1255.369873 88.0
1256.3927 112.0
1260.975586 128.0
1266.175903 96.0
1267.83374 212.0
1268.230713 88.0
1274.0 140.0
1275.926025 160.0
1276.672607 76.0
1285.392334 240.0
1285.570801 28.0
1288.405518 156.0
1295.710327 204.0
1298.305176 172.0
1301.039185 156.0
1301.599243 56.0
1302.310181 108.0
1302.640625 152.0
1305.868164 156.0
1306.918457 116.0
1309.351685 52.0
1310.230591 52.0
1319.071167 140.0
1319.439819 252.0
1320.300293 152.0
1322.934204 160.0
1324.498413 200.0
1326.324463 124.0
1327.187256 216.0
1331.87561 168.0
1332.151611 144.0
1341.583374 192.0
1341.65625 124.0
1344.997437 224.0
1345.245605 60.0
1345.435425 176.0
1347.202759 156.0
1347.889648 236.0
1348.035767 192.0
1351.062988 184.0
1352.707153 192.0
1353.815186 116.0
1356.189087 184.0
1357.076172 76.0
1357.970825 80.0
1359.291382 156.0
1361.368896 204.0
1368.34729 212.0
1370.306519 184.0
1370.608521 140.0
1373.941284 128.0
1374.531616 156.0
1378.002075 212.0
1380.212158 148.0
1386.260132 280.0
1388.73645 156.0
1389.901245 132.0
1390.175781 88.0
1391.801514 188.0
1393.955811 220.0
1394.758423 128.0
1396.781128 164.0
1398.336304 152.0
1403.431885 248.0
1405.132446 176.0
1405.490601 200.0
1405.86377 164.0
1410.315186 144.0
1410.666626 244.0
1414.279663 40.0
1416.046753 156.0
1417.245361 124.0
1418.092285 204.0
1418.654419 136.0
1425.913208 204.0
1432.820312 220.0
1433.424072 112.0
1440.811035 212.0
1446.35437 52.0
1451.104492 160.0
1451.347046 188.0
1453.275635 236.0
1453.364746 172.0
1453.911133 112.0
1457.298096 184.0
1460.460693 132.0
1461.335571 132.0
1461.594238 88.0
1462.512573 164.0
1462.563721 176.0
1463.88562 196.0
1466.437866 216.0
1466.971436 92.0
1467.489868 220.0
1468.077026 196.0
1469.175537 76.0
1469.228882 204.0
1469.595093 184.0
1469.862183 140.0
1470.862061 80.0
1471.136841 68.0
1471.694214 188.0
1472.511353 168.0
1473.810059 204.0
1474.024048 40.0
1475.728638 240.0
1476.500977 160.0
1484.872314 192.0
1484.987305 128.0
1487.10498 40.0
1489.231934 216.0
1489.900269 168.0
1490.069336 204.0
1494.475098 168.0
1495.598633 188.0
1495.883545 244.0
1498.116821 224.0
1500.282349 180.0
1500.398071 168.0
1500.752686 40.0
1500.853027 128.0
1503.576172 56.0
