>compound Azithromycin (Zithromax)
>formula C38H72N2O12
>ionization [M+H]+
>parentmass 749.515259
#inchi InChI=1S/C38H72N2O12/c1-15-27-38(10,46)31(42)24(6)40(13)19-20(2)17-36(8,45)33(52-35-29(41)26(39(11)12)16-21(3)48-35)22(4)30(23(5)34(44)50-27)51-28-18-37(9,47-14)32(43)25(7)49-28/h20-33,35,41-43,45-46H,15-19H2,1-14H3/t20-,21-,22+,23+,24-,25+,26+,27-,28+,29+,30+,31-,32+,33-,35+,36-,37-,38-/m1/s1
#inchikey MQTOSJVFKKJCRP
#Ion_Source LC-ESI
#Instrument qTof
#Compound_Source Commercial
#PI Dorrestein
#Data_Collector Garg_Neha
#Scan -1
#Precursor_MZ 749.516
#ExactMass 748.509
#Charge 1
#CAS_Number 83905-01-5
#Pubmed_ID N/A
#Smiles [C@@H]1([C@@]([C@H](OC([C@H]([C@H]([C@@H]([C@H]([C@](C[C@H](CN([C@@H]1C)C)C)(C)O)O[C@@H]2O[C@@H](C[C@@H]([C@@H]2O)N(C)C)C)C)O[C@H]3C[C@@]([C@H]([C@@H](O3)C)O)(C)OC)C)=O)CC)(O)C)O
#INCHI_AUX N/A
#Library_Class 1
#SpectrumID CCMSLIB00000078309
#IonMode Positive
#UpdateWorkflowName UPDATE-SINGLE-ANNOTATED-GOLD
#LibraryQualityString Gold
#TaskID 77f51c88eb8b467eb4a01dd2d0cb90d2
##Scan# 1057
#SpectrumFile Plate5_1_20_GH6_01_16508.mzXML
#LibraryName FDALibrary_2_04302014.mgf
#MQScore -1
#Organism FDALibrary_2_04302014
#TIC_Query 0
#RT_Query -1
#MZErrorPPM -1
#SharedPeaks 0
#MassDiff 0
#LibMZ -1
#SpecMZ 749.516
#SpecCharge 0
#internalFilename spec-00000.mgf

>collision 10
45.594082 160.0
45.799934 164.0
45.927982 224.0
46.345715 184.0
46.488094 196.0
46.971088 144.0
47.252502 208.0
47.828869 188.0
48.890434 148.0
49.359146 164.0
51.297684 140.0
52.165173 152.0
53.685467 156.0
55.050247 184.0
56.00536 224.0
56.919121 196.0
56.947655 160.0
57.027287 172.0
57.037807 156.0
59.587955 180.0
59.858665 196.0
60.482384 164.0
60.742706 216.0
60.977161 220.0
61.372559 152.0
62.239403 160.0
62.54911 148.0
62.698738 152.0
62.881683 192.0
63.505058 168.0
64.083694 144.0
65.856361 152.0
66.913658 192.0
69.099823 164.0
69.323357 196.0
69.57547 244.0
70.735725 156.0
71.956215 216.0
72.336586 208.0
72.434799 176.0
73.040787 148.0
73.827042 176.0
73.856117 168.0
74.217468 236.0
74.958313 140.0
75.407005 192.0
76.447556 156.0
76.823898 228.0
77.313133 232.0
77.398903 184.0
77.581116 152.0
77.807426 168.0
77.886444 140.0
78.749512 144.0
80.849213 196.0
81.527092 152.0
81.775276 140.0
82.86779 216.0
83.594093 180.0
84.574142 196.0
84.709641 208.0
85.212303 180.0
85.260078 212.0
86.09462 160.0
86.431053 176.0
86.87571 196.0
87.580208 192.0
87.951263 172.0
90.491035 236.0
91.025734 192.0
94.09124 256.0
96.316704 180.0
98.096367 740.0
98.151695 176.0
99.088234 196.0
100.073448 180.0
100.354607 184.0
101.061653 152.0
103.050163 200.0
104.339157 160.0
105.460312 188.0
105.969856 200.0
106.63472 184.0
106.84446 184.0
107.048225 180.0
107.530632 184.0
107.640045 180.0
109.067047 192.0
109.171432 220.0
109.508575 176.0
109.873367 288.0
110.521049 184.0
110.925247 148.0
111.355385 212.0
111.85791 180.0
113.059822 712.0
113.164696 164.0
113.334137 172.0
113.370163 200.0
114.059883 148.0
114.085449 192.0
115.074387 952.0
115.655434 180.0
115.708954 200.0
116.070442 1852.0
116.106842 6312.0
116.180046 200.0
116.300598 188.0
117.071968 224.0
117.106483 1064.0
118.112717 192.0
118.227386 184.0
118.309631 176.0
122.447578 196.0
123.983017 200.0
125.470047 148.0
126.001488 156.0
127.075661 980.0
127.181328 156.0
127.729591 156.0
129.440308 204.0
130.766083 188.0
134.227676 244.0
134.539154 180.0
136.466721 140.0
137.055588 220.0
139.15831 144.0
140.106903 344.0
140.898788 160.0
143.104462 308.0
144.495911 144.0
144.639496 164.0
144.934052 164.0
145.238525 212.0
145.581726 268.0
145.70903 156.0
145.742661 192.0
149.131744 164.0
152.142685 160.0
154.122864 196.0
156.137146 160.0
157.576508 152.0
158.041565 148.0
158.117096 27672.0
158.169189 164.0
158.218735 192.0
158.244888 100.0
158.30629 132.0
158.457184 140.0
159.119186 3300.0
160.118286 468.0
160.345047 136.0
160.669571 148.0
168.009644 144.0
168.13446 332.0
168.156723 164.0
173.99292 184.0
174.145966 312.0
174.331757 188.0
176.125717 260.0
176.443039 216.0
177.1203 184.0
181.274048 188.0
182.15564 168.0
185.730637 204.0
186.148132 1968.0
187.150223 184.0
188.157547 192.0
189.122955 160.0
195.140976 132.0
201.027557 156.0
202.138702 188.0
204.156204 400.0
205.16011 144.0
218.174438 140.0
225.307922 168.0
238.186646 156.0
242.165665 156.0
247.553406 168.0
251.997971 192.0
256.182556 148.0
256.209991 176.0
262.544983 176.0
273.528687 168.0
274.199341 216.0
276.730957 160.0
282.206177 104.0
282.48175 164.0
282.779541 216.0
283.21814 176.0
293.250031 168.0
294.280212 384.0
298.230042 144.0
300.208527 372.0
303.220795 196.0
305.721252 180.0
306.62323 172.0
308.3508 168.0
313.365265 164.0
314.225525 196.0
318.220764 124.0
326.209595 144.0
326.691467 188.0
330.5737 236.0
335.217072 144.0
337.229065 108.0
338.194641 152.0
340.23642 276.0
344.238708 188.0
344.748474 180.0
345.210571 140.0
352.052002 232.0
356.382202 156.0
358.254181 292.0
359.259644 364.0
362.885376 140.0
364.718933 184.0
372.214569 228.0
377.05304 168.0
379.957123 168.0
380.011444 168.0
380.271179 300.0
385.142273 148.0
387.234802 160.0
387.912659 140.0
388.355743 152.0
393.037201 212.0
396.283356 156.0
397.276947 180.0
398.289764 3068.0
399.161041 144.0
399.293427 408.0
400.300842 192.0
401.269409 184.0
403.015472 144.0
404.895569 164.0
407.249817 156.0
407.535034 152.0
413.306854 132.0
414.298004 112.0
414.3414 140.0
414.53186 140.0
416.300293 1656.0
416.844849 140.0
417.305634 368.0
418.302551 96.0
419.29245 132.0
424.597168 204.0
430.312775 140.0
432.306152 124.0
433.746368 156.0
434.310577 3604.0
435.312134 1108.0
435.655182 144.0
435.925262 176.0
436.314728 440.0
437.332886 172.0
440.338959 164.0
444.286896 96.0
444.439453 188.0
448.986755 208.0
450.083923 140.0
454.778778 140.0
455.896881 120.0
457.323761 860.0
458.331909 444.0
458.397919 148.0
459.101318 200.0
459.328979 292.0
459.698547 192.0
459.933258 224.0
463.587646 148.0
464.035736 244.0
465.301392 144.0
466.998749 152.0
469.048279 208.0
475.338074 256.0
476.335419 156.0
484.29126 160.0
484.545349 216.0
494.386536 184.0
495.33847 212.0
497.178467 224.0
498.207458 128.0
501.62619 160.0
503.093842 152.0
503.321533 152.0
504.581482 152.0
505.395508 140.0
507.38855 176.0
507.949097 140.0
513.70697 208.0
515.374817 156.0
516.327332 140.0
517.399048 164.0
518.744507 148.0
521.627014 216.0
522.049805 212.0
522.66394 180.0
528.440308 176.0
529.429688 176.0
530.019897 216.0
531.523926 152.0
531.647827 140.0
533.287354 164.0
534.93866 160.0
536.495728 156.0
540.023499 160.0
544.440247 172.0
546.251709 180.0
547.625977 204.0
555.402405 128.0
555.783569 156.0
556.400574 144.0
560.78717 144.0
561.055847 148.0
570.60968 184.0
571.18512 196.0
571.381592 132.0
572.777954 108.0
572.970215 200.0
573.239441 248.0
573.292542 172.0
573.411316 10444.0
573.516846 144.0
573.570679 168.0
573.654297 132.0
573.794739 144.0
574.018799 144.0
574.414551 3152.0
574.592529 112.0
574.944275 176.0
575.10022 112.0
575.418579 620.0
576.425415 568.0
577.419006 148.0
577.739441 240.0
578.519531 140.0
578.810059 96.0
579.070129 148.0
579.846313 176.0
582.006836 196.0
584.634338 148.0
585.317932 144.0
588.412537 96.0
588.635437 164.0
589.40741 200.0
589.598267 116.0
590.213135 312.0
590.39386 156.0
591.251831 120.0
591.419983 18656.0
591.5672 112.0
591.609802 280.0
591.654663 96.0
591.984436 148.0
592.198181 160.0
592.265381 104.0
592.423035 8028.0
592.515991 216.0
592.893127 140.0
593.01178 140.0
593.423706 1400.0
594.416382 680.0
594.45166 396.0
594.919678 96.0
595.428345 112.0
595.701477 96.0
596.46637 132.0
599.033875 168.0
600.442505 176.0
604.644043 180.0
605.182495 252.0
607.721375 144.0
613.012146 208.0
621.859619 168.0
622.212097 144.0
627.68512 156.0
631.245422 140.0
632.891663 176.0
633.425171 160.0
634.410828 216.0
634.870972 168.0
639.533325 152.0
639.729614 148.0
640.570557 144.0
643.828796 164.0
644.510742 164.0
647.095276 148.0
653.641418 180.0
654.039856 160.0
658.807678 168.0
666.158508 160.0
671.290161 168.0
671.883301 140.0
676.91748 196.0
677.699646 160.0
680.614624 144.0
682.183655 140.0
683.030151 100.0
684.319763 156.0
688.8172 140.0
692.064819 176.0
696.485718 144.0
697.610168 164.0
698.935547 152.0
703.816467 172.0
713.388611 140.0
717.494446 140.0
718.054321 164.0
718.618103 180.0
721.342468 120.0
724.613159 144.0
729.224426 128.0
729.469849 160.0
731.49469 204.0
732.860352 164.0
733.156738 188.0
734.448792 164.0
734.900574 152.0
735.848328 140.0
737.209473 168.0
737.414856 140.0
738.63678 176.0
738.681946 164.0
739.364929 132.0
739.599976 140.0
739.751526 144.0
740.360168 116.0
742.779358 144.0
743.32074 136.0
743.366577 164.0
743.90387 200.0
744.344604 112.0
744.954346 124.0
745.415771 148.0
745.478943 160.0
745.554504 124.0
745.755066 148.0
745.902893 144.0
746.325317 132.0
746.433899 160.0
746.553284 152.0
746.677246 132.0
746.734009 196.0
746.780518 148.0
747.049683 120.0
747.182861 296.0
747.304504 176.0
747.498718 112.0
747.632996 140.0
747.776245 120.0
747.843262 200.0
747.881592 216.0
747.982056 188.0
748.179932 104.0
748.44635 220.0
748.549072 144.0
748.626709 244.0
748.707703 288.0
748.744568 188.0
748.952881 160.0
749.041016 196.0
749.149536 192.0
749.191589 224.0
749.242188 244.0
749.298767 212.0
749.377625 280.0
749.515259 103676.0
749.67157 276.0
749.798523 148.0
749.872742 184.0
749.960205 144.0
750.134705 124.0
750.207703 500.0
750.276367 188.0
750.382324 132.0
750.417969 280.0
750.520386 42672.0
750.676697 268.0
750.731201 176.0
750.819885 176.0
750.914062 172.0
751.019287 248.0
751.08551 192.0
751.249146 228.0
751.334595 296.0
751.406372 308.0
751.519592 9016.0
751.652771 228.0
751.867188 176.0
751.987427 104.0
752.236755 160.0
752.526184 1788.0
752.802673 216.0
752.885437 140.0
753.133362 156.0
753.257996 116.0
753.405518 192.0
753.533813 404.0
753.81427 112.0
753.922668 136.0
753.982605 148.0
754.142273 172.0
754.164062 156.0
754.220825 216.0
754.263 144.0
754.339722 96.0
754.444397 96.0
754.528931 252.0
754.682678 148.0
754.768494 216.0
754.888367 172.0
755.120117 144.0
755.297791 104.0
755.654907 100.0
755.807251 172.0
755.927551 112.0
757.409729 100.0
763.971924 96.0
1124.077515 144.0
1204.555298 196.0
1215.646729 156.0
1220.481323 140.0
1299.935547 148.0
1309.619507 176.0
1338.959473 144.0
1344.872314 148.0
1366.394409 200.0
1378.457031 156.0
1392.443481 184.0
1440.025757 236.0
1471.44043 144.0
1514.783447 372.0
1526.401611 176.0
1538.228271 232.0
1540.422485 176.0
1569.88623 192.0
1580.020142 148.0
1604.082031 164.0
1610.209839 180.0
1617.581787 192.0
1633.848022 148.0
1649.354858 156.0
1658.590454 168.0
1666.315918 164.0
1671.836914 164.0
1676.609131 180.0
1693.758423 144.0
1699.119629 160.0
1716.169067 144.0
1725.29187 152.0
1728.244507 140.0
1741.234131 176.0
1752.055786 152.0
1752.78064 204.0
1767.685669 148.0
1775.350586 204.0
1786.142944 164.0
1791.370239 220.0
1793.156494 156.0
1801.957642 156.0
1812.127197 180.0
1812.466064 240.0
1814.55957 192.0
1820.550049 188.0
1821.042603 152.0
1821.841064 172.0
1824.93457 208.0
1826.023071 220.0
1826.448364 144.0
1867.822632 192.0
1873.667725 192.0
1880.005127 180.0
1904.158936 168.0
1916.467896 176.0
1918.367798 200.0
1921.297852 140.0
1930.049072 184.0
1932.944336 152.0
1943.976685 224.0
1945.661865 156.0
1959.1698 208.0
1960.703003 248.0
1965.491333 176.0
1970.515137 160.0
1978.695923 204.0
1978.926147 144.0
1980.396118 156.0
1988.801514 200.0
1992.264526 156.0
1994.628296 160.0
