>compound MLS001075746-01!
>formula C23H27NO6
>ionization [M+H]+
>parentmass 414.192
#inchi InChI=1S/C23H27NO6/c1-13(21(25)24-12-14-5-7-15(8-6-14)22(26)27)29-16-9-10-18-17-3-2-4-19(17)23(28)30-20(18)11-16/h9-11,13-15H,2-8,12H2,1H3,(H,24,25)(H,26,27)
#inchikey CIPDGAJKNINTBP
#Ion_Source LC-ESI
#Instrument qTof
#Compound_Source NIH Natural Product Library
#PI Dorrestein
#Data_Collector VVP/LMS
#Scan -1
#Precursor_MZ 414.192
#ExactMass 413.184
#Charge 1
#CAS_Number N/A
#Pubmed_ID N/A
#Smiles CC(Oc1ccc2c3CCCc3c(=O)oc2c1)C(=O)NCC4CCC(CC4)C(=O)O
#INCHI_AUX N/A
#Library_Class 1
#SpectrumID CCMSLIB00000079406
#IonMode Positive
#UpdateWorkflowName UPDATE-SINGLE-ANNOTATED-GOLD
#LibraryQualityString Gold
#TaskID b1d8e8f6646f4e71acdff9ca3d919d08
##Scan# 1918
#SpectrumFile p1-H05_GH5_01_17961.mzXML
#LibraryName NIH_Natural_Products_Library.mgf
#MQScore -1
#Organism NIH_Natural_Products_Library
#TIC_Query 0
#RT_Query -1
#MZErrorPPM -1
#SharedPeaks 0
#MassDiff 0
#LibMZ -1
#SpecMZ 414.192
#SpecCharge 0
#internalFilename spec-00000.mgf

>collision 10
94.959534 40.0
95.015785 200.0
95.086136 2496.0
95.130287 196.0
95.266228 180.0
95.295364 160.0
95.36338 184.0
95.390594 56.0
95.439201 64.0
95.5131 116.0
95.546173 160.0
95.571465 72.0
95.736923 112.0
95.855751 156.0
95.895508 132.0
95.957108 220.0
96.013657 116.0
96.083115 356.0
96.098541 148.0
96.200974 108.0
96.30426 192.0
96.329857 56.0
96.402153 208.0
96.470558 112.0
96.564415 76.0
96.705292 220.0
96.807487 160.0
97.032677 156.0
97.097313 180.0
97.134407 208.0
97.183449 136.0
97.208961 176.0
97.228584 72.0
97.409218 168.0
97.430832 32.0
97.446548 232.0
97.534981 52.0
97.80249 168.0
97.906036 304.0
98.05854 160.0
98.192612 136.0
98.285324 100.0
98.309006 108.0
98.383148 156.0
98.443245 184.0
98.474846 48.0
98.623032 164.0
98.656639 144.0
98.777267 152.0
98.840576 180.0
99.073212 208.0
99.201447 96.0
99.223373 148.0
99.399368 84.0
99.458908 212.0
99.66346 112.0
99.717033 148.0
99.854301 136.0
100.049309 172.0
100.192696 168.0
100.206642 172.0
100.312263 100.0
100.352135 140.0
100.56958 144.0
100.642487 216.0
100.769279 84.0
100.851212 140.0
100.95298 204.0
101.047188 176.0
101.137238 132.0
101.183281 240.0
101.349518 100.0
101.421669 80.0
101.451736 172.0
101.475792 216.0
101.507874 144.0
101.551994 140.0
101.568047 156.0
102.03997 112.0
102.279358 120.0
102.448509 124.0
102.561356 224.0
102.960846 60.0
103.052048 216.0
103.160881 168.0
103.288277 168.0
103.438019 140.0
103.624329 212.0
103.840652 140.0
103.999489 208.0
104.019791 144.0
104.180214 80.0
104.267586 40.0
104.340767 88.0
104.381432 144.0
104.959732 148.0
104.992363 180.0
105.006638 224.0
105.069832 676.0
105.095901 216.0
105.182106 116.0
105.821991 96.0
106.07534 192.0
106.19194 132.0
106.285217 104.0
106.326256 204.0
106.420685 192.0
107.014893 140.0
107.049423 160.0
107.084908 180.0
107.237373 156.0
107.328079 184.0
107.557083 64.0
107.695427 152.0
107.728477 224.0
107.802856 204.0
108.079903 176.0
108.108917 36.0
108.135826 256.0
108.231049 72.0
108.291107 156.0
108.334602 72.0
108.51284 180.0
108.558456 204.0
108.68914 156.0
108.880119 120.0
108.917511 204.0
109.029701 204.0
109.069199 148.0
109.100769 468.0
109.206429 140.0
109.231384 128.0
109.291718 136.0
109.468651 140.0
109.566551 200.0
109.68325 212.0
109.729111 48.0
110.059952 412.0
110.095253 712.0
110.207069 188.0
110.472588 204.0
110.503967 212.0
110.529076 172.0
110.556282 152.0
110.629539 108.0
110.688164 176.0
110.868324 96.0
110.950066 196.0
111.033943 260.0
111.065407 212.0
111.104782 1488.0
111.128342 168.0
111.388664 132.0
111.447487 124.0
112.030266 176.0
112.051331 52.0
112.075798 320.0
112.110283 2276.0
112.308517 188.0
112.3964 188.0
112.511093 108.0
112.599785 52.0
112.705406 132.0
112.760353 76.0
112.815308 220.0
112.870277 192.0
112.925262 68.0
112.943626 172.0
113.018341 32.0
113.056435 168.0
113.114655 404.0
113.179214 100.0
113.344429 148.0
113.369858 28.0
113.399529 108.0
113.446159 44.0
113.677353 112.0
113.919395 80.0
113.947014 100.0
114.025635 88.0
114.061768 120.0
114.085152 152.0
114.1213 148.0
114.178711 96.0
114.434067 176.0
114.723808 164.0
114.826157 120.0
114.994705 104.0
115.026726 152.0
115.054459 492.0
115.201836 168.0
115.295845 32.0
115.518211 140.0
115.642319 160.0
115.794334 156.0
115.912163 160.0
116.008606 72.0
116.064217 196.0
116.083649 40.0
116.381912 144.0
116.469963 160.0
116.530121 84.0
116.702065 132.0
116.964523 92.0
116.988205 124.0
117.01619 136.0
117.070541 116.0
117.149719 180.0
117.371712 68.0
117.883301 136.0
117.993538 132.0
118.090851 176.0
118.250954 208.0
118.432831 128.0
118.450157 208.0
118.833878 40.0
118.907661 164.0
118.922852 132.0
118.966263 212.0
119.040085 160.0
119.092209 156.0
119.148689 112.0
119.239952 184.0
119.311684 188.0
119.413887 48.0
119.434097 192.0
119.572708 184.0
119.618423 64.0
119.672844 124.0
119.899391 172.0
119.942986 172.0
120.034554 184.0
120.141426 176.0
120.191605 148.0
120.246162 196.0
120.700562 188.0
120.978424 120.0
121.102562 168.0
121.673378 160.0
121.778786 56.0
121.844688 140.0
121.897415 72.0
121.925987 148.0
121.943565 164.0
121.958954 176.0
121.978737 228.0
122.070869 168.0
122.094925 1108.0
122.288879 172.0
122.341705 192.0
122.502464 184.0
122.539917 88.0
122.583992 108.0
122.83313 104.0
122.927994 80.0
123.044151 320.0
123.078918 168.0
123.097565 280.0
123.120056 252.0
123.135521 108.0
123.237137 116.0
123.325531 160.0
123.554474 156.0
123.816704 124.0
124.078743 368.0
124.113647 164.0
124.235634 160.0
124.532722 124.0
124.684158 132.0
124.766403 120.0
124.804199 148.0
125.05851 140.0
125.083855 200.0
125.289398 52.0
125.313904 144.0
125.414185 172.0
125.50782 136.0
125.543495 128.0
125.719734 128.0
125.949699 132.0
125.969208 196.0
125.99884 44.0
126.053139 272.0
126.253662 84.0
126.318527 128.0
126.533363 124.0
126.862686 44.0
126.885109 172.0
126.916496 184.0
126.994987 92.0
127.019661 120.0
127.055641 232.0
127.306946 64.0
127.327156 108.0
127.360847 104.0
127.630531 180.0
127.657516 40.0
127.932014 156.0
128.004059 168.0
128.063904 352.0
128.159485 68.0
128.175262 112.0
128.484146 96.0
128.51799 160.0
128.919937 132.0
128.951584 140.0
128.978699 60.0
129.068909 1600.0
129.148285 152.0
129.17543 188.0
129.293091 196.0
129.317978 204.0
129.351929 144.0
129.76651 148.0
129.857224 200.0
129.893509 128.0
129.94342 84.0
130.045532 208.0
130.075958 312.0
130.243073 180.0
130.397583 140.0
130.420303 180.0
130.796921 148.0
131.047852 1604.0
131.086197 732.0
131.244431 132.0
131.326523 168.0
131.342499 112.0
131.548935 136.0
131.755676 156.0
131.851654 132.0
131.869934 224.0
131.896591 212.0
132.009384 180.0
132.050415 424.0
132.091934 172.0
132.386978 180.0
132.53685 76.0
133.06459 2640.0
133.102448 132.0
133.136887 40.0
133.194305 152.0
133.242554 224.0
133.302292 180.0
133.458603 184.0
133.55748 52.0
133.638 188.0
133.833649 156.0
134.034042 288.0
134.066788 652.0
134.1147 160.0
134.257645 48.0
134.411072 188.0
134.444519 72.0
134.564545 200.0
134.596863 216.0
134.934204 132.0
134.955017 100.0
135.084534 300.0
135.103027 56.0
135.311325 108.0
135.350632 180.0
135.397003 148.0
135.561478 148.0
135.82811 228.0
136.046234 264.0
136.234344 108.0
136.555115 132.0
136.655151 184.0
137.023834 288.0
137.09758 164.0
137.34938 112.0
137.603745 188.0
137.993927 160.0
138.026443 168.0
138.089783 1428.0
138.127563 2996.0
138.216125 48.0
138.237183 40.0
138.382309 108.0
138.644669 76.0
138.820496 68.0
138.860352 68.0
139.0504 180.0
139.09494 180.0
139.12912 1000.0
139.24057 144.0
139.308685 100.0
139.755386 140.0
139.801117 136.0
139.842453 200.0
139.863647 184.0
139.957809 140.0
140.000198 104.0
140.030807 136.0
140.080276 248.0
140.106903 16028.0
140.18013 84.0
140.240509 56.0
140.282944 140.0
140.523483 68.0
140.828018 44.0
140.844543 140.0
141.012299 72.0
141.070557 124.0
141.10849 1056.0
141.158875 56.0
141.26181 92.0
141.421478 140.0
141.594315 36.0
141.684326 88.0
141.854965 92.0
141.914169 144.0
141.95929 152.0
142.024109 156.0
142.07634 908.0
142.112411 180.0
142.227371 184.0
142.248734 60.0
142.287964 108.0
142.309372 84.0
142.495728 252.0
142.726273 104.0
142.81665 160.0
143.040314 132.0
143.082993 164.0
143.195084 92.0
143.397598 196.0
144.055252 716.0
144.082458 384.0
144.118286 152.0
144.203934 148.0
144.22583 116.0
144.366898 200.0
144.50563 156.0
144.687515 120.0
144.713852 156.0
144.967758 184.0
145.061188 512.0
145.100342 792.0
145.293854 132.0
145.461838 80.0
145.963974 148.0
145.980804 64.0
146.055359 144.0
146.074615 300.0
146.10437 192.0
146.161224 100.0
146.227234 196.0
146.479019 160.0
146.51033 136.0
146.640457 44.0
146.66214 148.0
146.874329 104.0
146.898453 180.0
146.978073 124.0
147.016678 148.0
147.042313 1452.0
147.080444 740.0
147.328156 172.0
147.480392 88.0
147.54808 148.0
147.838348 204.0
147.86496 56.0
148.047699 476.0
148.08287 176.0
148.110779 176.0
148.228226 108.0
148.456085 132.0
148.587067 96.0
148.693832 84.0
148.764236 120.0
148.839493 136.0
148.868637 128.0
148.931778 140.0
149.019241 184.0
149.048386 132.0
149.242844 184.0
149.310944 148.0
149.386337 184.0
149.500702 92.0
150.034119 144.0
150.065811 240.0
150.09996 108.0
150.402481 88.0
150.524536 132.0
150.790833 192.0
150.947281 188.0
150.964401 172.0
151.123322 116.0
151.238419 172.0
151.277588 168.0
151.495529 152.0
151.561691 232.0
151.642563 160.0
152.003067 228.0
152.061325 184.0
152.107056 436.0
152.204346 200.0
152.263275 124.0
152.359085 148.0
152.572891 196.0
152.880356 100.0
153.062515 112.0
153.207825 132.0
153.269424 112.0
153.303757 124.0
153.459213 136.0
153.520859 44.0
153.572647 236.0
153.917419 188.0
153.982361 116.0
154.076233 264.0
154.194839 140.0
154.283829 216.0
154.41983 200.0
154.729141 176.0
154.860382 128.0
154.969391 184.0
155.059921 152.0
155.084015 540.0
155.348709 148.0
155.547226 228.0
156.080856 196.0
156.362488 164.0
156.531769 96.0
156.636368 212.0
157.064056 1284.0
157.098251 508.0
157.314651 156.0
157.394547 120.0
157.866837 172.0
157.979385 96.0
158.071381 1048.0
158.096985 104.0
158.354843 52.0
158.522705 164.0
158.871216 60.0
159.039764 236.0
159.079575 748.0
159.808334 276.0
159.949265 176.0
159.966888 132.0
160.055481 540.0
160.088547 160.0
160.117966 188.0
160.213684 236.0
160.276672 36.0
160.453094 176.0
160.637192 208.0
160.856735 192.0
161.013824 184.0
161.053665 316.0
161.09761 632.0
161.321548 56.0
161.369583 76.0
161.544083 84.0
161.700958 28.0
161.792084 204.0
162.03775 100.0
162.057739 168.0
162.095093 216.0
162.237961 208.0
162.382492 160.0
162.491577 152.0
162.656525 88.0
162.885056 100.0
162.918091 196.0
163.001999 152.0
163.032776 184.0
163.068008 44.0
163.0858 84.0
163.204819 132.0
163.543625 56.0
163.569092 140.0
163.637344 148.0
163.64888 116.0
163.656616 188.0
163.751953 132.0
164.092194 224.0
164.519943 136.0
164.555679 156.0
164.854538 172.0
164.987442 64.0
165.010452 84.0
165.06926 408.0
165.780914 176.0
166.016769 192.0
166.087051 316.0
166.121719 1672.0
166.563446 116.0
166.804993 128.0
166.822998 152.0
166.848694 168.0
166.951553 140.0
167.015854 172.0
167.082596 388.0
167.129807 5412.0
167.219116 128.0
167.298904 52.0
167.373581 152.0
167.4328 116.0
167.474014 40.0
167.528107 92.0
167.672394 184.0
167.785812 104.0
167.837387 212.0
168.074692 108.0
168.132202 1124.0
168.353485 116.0
168.852264 36.0
168.922104 44.0
169.076187 404.0
169.147385 136.0
169.222305 112.0
169.525375 140.0
169.660156 188.0
169.927277 208.0
170.07576 204.0
170.129715 172.0
170.324478 152.0
171.031738 168.0
171.089005 124.0
171.112442 136.0
171.307755 68.0
171.367676 196.0
171.544891 128.0
171.59964 240.0
171.633545 124.0
171.680481 100.0
171.7509 188.0
172.053604 160.0
172.092758 196.0
172.129318 148.0
172.147598 160.0
172.370773 200.0
172.487244 172.0
172.526459 140.0
172.60228 152.0
172.719971 64.0
172.822006 160.0
172.950241 180.0
172.992111 92.0
173.058441 896.0
173.094803 2920.0
173.295914 68.0
173.356186 52.0
173.808426 172.0
173.857071 156.0
173.945877 220.0
174.065628 408.0
174.099411 704.0
174.131912 140.0
174.229919 208.0
174.453308 64.0
174.513779 164.0
174.666306 148.0
174.900497 152.0
174.937347 104.0
174.98999 120.0
175.03862 368.0
175.074966 1588.0
175.105865 176.0
175.187515 192.0
175.216492 56.0
175.23494 112.0
175.313995 176.0
175.390427 168.0
175.49324 104.0
175.749084 148.0
175.788666 188.0
175.833527 192.0
176.036804 144.0
176.072449 140.0
176.684387 120.0
176.96228 56.0
177.089172 148.0
177.531982 80.0
177.638077 140.0
178.176987 124.0
178.243408 180.0
178.764618 184.0
178.804535 268.0
179.129379 196.0
179.203964 172.0
179.363861 148.0
179.545166 44.0
179.614517 148.0
179.723892 180.0
179.85466 104.0
180.102997 184.0
180.148407 192.0
180.298035 136.0
180.402267 180.0
180.519913 180.0
180.723206 132.0
181.17836 116.0
181.462448 144.0
181.502502 192.0
181.604568 184.0
181.6931 196.0
181.730652 176.0
181.894363 88.0
181.934631 120.0
182.050079 196.0
182.146774 116.0
182.33754 104.0
182.557983 96.0
182.805481 168.0
182.837769 188.0
183.053146 136.0
183.079605 452.0
183.171646 216.0
183.249771 44.0
183.557053 160.0
183.778229 88.0
183.894272 156.0
183.913162 36.0
184.040054 44.0
184.060196 148.0
184.090897 156.0
184.131409 1780.0
184.21019 116.0
184.269623 60.0
184.318268 144.0
184.680527 160.0
184.723801 152.0
184.826614 40.0
184.924042 152.0
185.060242 1000.0
185.098175 272.0
185.127853 184.0
185.316956 84.0
185.427811 160.0
185.709778 96.0
185.856277 72.0
186.063232 728.0
186.114136 156.0
186.25264 48.0
186.412933 104.0
186.459137 168.0
186.535233 152.0
186.616791 152.0
186.771805 40.0
186.801727 228.0
186.864304 188.0
186.918716 100.0
186.984039 152.0
187.066681 144.0
187.695053 164.0
188.254456 176.0
188.653366 192.0
188.677979 68.0
189.104706 152.0
189.238846 68.0
189.271698 112.0
189.340164 96.0
189.466156 168.0
189.731995 136.0
189.869095 164.0
190.094055 192.0
190.398773 104.0
190.450958 156.0
190.55809 116.0
190.596558 188.0
190.676254 204.0
190.907181 116.0
191.325409 132.0
192.069458 184.0
192.776245 128.0
193.060989 56.0
193.135666 60.0
193.404053 140.0
193.473511 180.0
193.545242 144.0
193.694794 104.0
194.043976 140.0
194.116165 5380.0
194.213379 92.0
194.28804 96.0
194.440643 156.0
194.523911 172.0
194.646072 244.0
194.726608 76.0
194.757172 68.0
194.893295 68.0
195.065598 72.0
195.118546 696.0
195.35202 64.0
195.51619 172.0
195.578094 148.0
196.081543 168.0
196.120102 312.0
196.190262 152.0
196.223709 76.0
196.349197 236.0
196.505402 120.0
196.555634 92.0
196.64772 80.0
196.667267 140.0
196.93251 220.0
197.072189 96.0
197.253845 176.0
197.295776 176.0
197.54747 104.0
197.75174 152.0
197.944901 88.0
198.303497 176.0
198.342743 180.0
198.373566 200.0
198.665222 44.0
198.979538 140.0
199.08905 76.0
199.122757 128.0
199.482407 96.0
199.608932 148.0
199.738297 208.0
200.021347 176.0
200.315369 76.0
200.35199 164.0
200.430878 132.0
200.492874 84.0
200.602798 140.0
200.642258 200.0
200.774796 164.0
200.839661 108.0
201.014572 228.0
201.052628 1196.0
201.090103 12028.0
201.189575 176.0
201.294037 64.0
201.378769 184.0
201.414597 152.0
201.55957 164.0
201.592331 64.0
201.616089 92.0
201.649994 40.0
201.878998 92.0
201.898788 56.0
202.014755 236.0
202.059998 1068.0
202.094101 1220.0
202.150574 124.0
202.173203 108.0
202.209991 164.0
202.314102 156.0
202.587082 232.0
202.648926 52.0
202.680099 44.0
202.716934 128.0
202.779282 116.0
202.835968 60.0
202.855804 120.0
202.889313 232.0
202.952209 224.0
202.989059 188.0
203.018539 224.0
203.070236 72012.0
203.152405 252.0
203.179596 68.0
203.24408 116.0
203.290955 172.0
203.345062 140.0
203.375214 36.0
203.428833 144.0
203.453049 76.0
203.487656 128.0
203.522263 168.0
203.538422 124.0
203.593521 48.0
203.613403 136.0
203.647476 84.0
203.712814 124.0
203.747513 112.0
203.776443 60.0
203.809402 160.0
203.894653 168.0
203.947174 152.0
203.968567 92.0
203.988464 176.0
204.007584 188.0
204.072968 8020.0
204.161896 32.0
204.352081 112.0
204.443542 80.0
204.472 68.0
204.580154 68.0
204.601761 116.0
204.722519 108.0
204.76239 64.0
204.839828 152.0
205.027802 128.0
205.076279 1492.0
205.135666 44.0
205.208221 112.0
205.244003 36.0
205.271805 64.0
205.326706 48.0
205.383743 368.0
205.415237 124.0
205.465179 88.0
205.535538 116.0
205.627548 152.0
205.682678 204.0
205.757568 112.0
205.877502 60.0
205.949371 72.0
205.994598 48.0
206.057449 144.0
206.075653 108.0
206.208908 32.0
206.312561 168.0
206.386139 68.0
206.509109 60.0
206.549164 120.0
206.709381 104.0
206.749435 188.0
207.14743 64.0
207.345139 48.0
207.608887 28.0
207.666245 108.0
208.513214 40.0
208.861115 208.0
209.148865 204.0
210.004623 156.0
211.076096 180.0
211.414505 196.0
211.553436 136.0
211.689514 220.0
211.787994 52.0
212.060349 148.0
212.124115 108.0
213.06543 220.0
213.096848 180.0
213.137009 152.0
213.23291 48.0
213.666168 48.0
213.910629 156.0
213.963028 52.0
214.062485 176.0
214.656479 72.0
215.06955 96.0
215.210892 184.0
215.391953 184.0
215.821564 52.0
216.067245 144.0
216.629333 168.0
216.652771 56.0
218.04361 44.0
219.542114 112.0
220.333176 160.0
221.294388 64.0
221.86026 68.0
222.973373 232.0
223.053619 108.0
223.508652 104.0
224.357498 100.0
224.951965 160.0
226.233597 188.0
227.624786 160.0
227.708878 68.0
227.871094 148.0
227.913147 172.0
227.985275 80.0
228.123535 132.0
228.258835 68.0
228.321976 136.0
228.589722 140.0
228.70108 68.0
228.728165 100.0
228.757782 100.0
228.791382 200.0
228.845581 184.0
228.917313 124.0
228.960007 112.0
229.019577 164.0
229.085373 34712.0
229.155807 188.0
229.176895 52.0
229.198425 136.0
229.246597 120.0
229.281311 148.0
229.32724 144.0
229.363922 72.0
229.39238 104.0
229.449051 76.0
229.472275 84.0
229.532578 84.0
229.567154 60.0
229.586319 156.0
229.618378 80.0
229.659149 88.0
229.689651 196.0
229.725342 48.0
229.752747 32.0
229.865616 148.0
229.938202 96.0
229.979065 80.0
230.013977 64.0
230.088913 5332.0
230.20871 64.0
230.244766 68.0
230.274963 68.0
230.342529 76.0
230.367279 64.0
230.401642 64.0
230.435059 136.0
230.466217 168.0
230.677444 140.0
230.726273 96.0
230.840103 80.0
230.864288 104.0
231.091553 476.0
231.163773 44.0
231.221283 56.0
231.272736 116.0
231.305084 128.0
231.368408 172.0
231.478607 204.0
231.620941 72.0
231.657303 44.0
231.708801 128.0
231.759094 120.0
231.787048 136.0
231.823944 152.0
231.861389 112.0
232.080688 200.0
232.092514 140.0
232.390976 44.0
232.412216 80.0
232.530563 200.0
232.639832 68.0
232.694489 60.0
232.764328 60.0
235.013748 108.0
235.673264 132.0
236.431625 148.0
236.456116 140.0
237.080872 160.0
238.572601 120.0
239.683685 168.0
239.896347 124.0
240.106018 68.0
240.797348 96.0
241.016678 52.0
241.740265 68.0
241.761932 104.0
242.666412 176.0
243.209305 68.0
244.900787 116.0
246.60437 204.0
247.896896 132.0
249.390793 144.0
249.69577 152.0
252.961517 32.0
254.419769 104.0
254.858063 116.0
256.082825 208.0
257.078308 2140.0
257.20517 80.0
257.482971 68.0
257.50531 72.0
257.527679 144.0
258.082581 808.0
258.112335 276.0
258.230835 168.0
258.438782 124.0
259.090515 176.0
259.146362 72.0
260.789429 176.0
262.17337 124.0
262.553772 128.0
265.503235 48.0
265.70108 132.0
266.542023 156.0
266.818298 84.0
268.110535 156.0
269.082611 152.0
272.209595 56.0
274.058197 108.0
274.106201 6920.0
274.152191 244.0
274.21637 44.0
274.341644 76.0
274.410858 40.0
275.108643 944.0
275.1763 40.0
275.344727 108.0
275.410767 224.0
275.571411 116.0
275.720093 52.0
276.108002 352.0
277.118713 116.0
277.158417 60.0
278.139221 72.0
278.198975 72.0
280.141052 88.0
281.849274 100.0
283.194122 84.0
283.522461 128.0
284.555603 156.0
285.287994 124.0
286.103912 388.0
286.240173 112.0
286.812897 124.0
287.106232 168.0
287.150055 152.0
287.379456 28.0
288.118835 128.0
289.759705 120.0
295.140869 156.0
297.144531 156.0
303.667786 80.0
303.761414 56.0
304.035522 156.0
304.479919 104.0
304.73349 60.0
305.237488 56.0
307.292542 144.0
311.303925 52.0
312.238739 64.0
312.312592 148.0
314.059662 132.0
321.32843 128.0
325.767731 68.0
326.461395 112.0
329.391632 80.0
334.064301 44.0
334.27533 128.0
339.172943 220.0
340.185394 168.0
342.244232 40.0
343.855194 96.0
344.893066 136.0
348.513794 68.0
349.491669 44.0
350.743011 108.0
353.36084 152.0
354.806488 180.0
356.112366 140.0
356.446716 116.0
361.972992 196.0
364.818573 108.0
366.062378 196.0
366.801422 68.0
367.553192 140.0
367.850891 168.0
367.919617 48.0
368.185181 8176.0
368.370239 52.0
368.469543 48.0
368.511597 56.0
368.63385 52.0
368.729401 32.0
368.763794 64.0
368.900391 76.0
368.9664 40.0
369.188416 2276.0
369.268494 36.0
369.306732 80.0
369.563049 60.0
369.647217 56.0
369.742889 68.0
370.045288 76.0
370.186401 372.0
370.531708 44.0
371.152618 124.0
371.192932 156.0
371.302185 164.0
372.088806 48.0
372.242401 120.0
372.784027 92.0
372.876282 64.0
373.05307 36.0
373.195343 72.0
373.22995 144.0
374.939117 56.0
375.532867 132.0
379.151672 148.0
379.492798 92.0
379.826324 40.0
380.579193 92.0
380.812225 68.0
387.949158 60.0
396.181732 128.0
396.851532 80.0
411.617004 52.0
414.27832 132.0
415.993683 52.0
417.224609 56.0
419.936584 48.0
423.623596 136.0
440.059479 76.0
452.11969 152.0
456.808197 164.0
467.45755 64.0
473.930359 60.0
476.959564 140.0
477.276917 40.0
477.964172 40.0
502.352112 52.0
506.20929 76.0
510.877167 40.0
518.784668 64.0
519.555603 72.0
523.072937 180.0
527.077271 76.0
528.599976 44.0
547.053162 44.0
587.212402 76.0
616.8927 92.0
623.301086 108.0
638.679504 124.0
651.692261 56.0
658.758606 32.0
669.735962 132.0
677.619141 104.0
709.5177 124.0
709.560059 68.0
713.8078 32.0
724.032654 80.0
735.420044 164.0
736.327148 56.0
738.75946 64.0
743.497803 108.0
761.979126 52.0
797.114075 100.0
811.439697 96.0
820.18866 68.0
830.991394 228.0
834.190247 164.0
844.627502 76.0
850.549438 72.0
857.50592 160.0
866.294067 156.0
868.157959 144.0
886.041687 124.0
889.493042 136.0
894.158936 196.0
903.132446 156.0
908.235779 64.0
912.078674 204.0
920.809265 180.0
921.059937 20.0
931.664001 60.0
932.10144 72.0
935.25177 48.0
939.59668 196.0
952.98053 168.0
957.021545 116.0
968.155212 228.0
969.629639 132.0
976.558533 124.0
980.886047 160.0
990.302429 132.0
993.204468 188.0
993.493042 72.0
997.298401 40.0
1003.045227 100.0
1003.719849 176.0
1016.0979 192.0
1016.84668 104.0
1025.949097 180.0
1027.415894 100.0
1028.079468 180.0
1036.46936 144.0
1048.383301 172.0
1055.057373 200.0
1055.69104 216.0
1062.148315 188.0
1069.93335 224.0
1072.350098 192.0
1081.808472 124.0
1082.349365 52.0
1085.615234 164.0
1090.696899 100.0
1095.111938 200.0
1097.814087 180.0
1104.960938 160.0
1111.202026 176.0
1113.392578 148.0
1114.827515 220.0
1115.432373 60.0
1115.844482 56.0
1118.512207 112.0
1138.322266 80.0
1144.441162 164.0
1147.506836 132.0
1147.641724 188.0
1147.972046 92.0
1148.322754 172.0
1150.421265 56.0
1150.927612 112.0
1157.655884 160.0
1164.057495 52.0
1164.78418 152.0
1174.484009 132.0
1175.575562 108.0
1177.17981 220.0
1178.839722 228.0
1180.521484 172.0
1181.04126 52.0
1181.116455 112.0
1182.437012 168.0
1191.934937 184.0
1202.036743 208.0
1209.639282 180.0
1212.562256 176.0
1214.18457 212.0
1215.273682 160.0
1223.69751 92.0
1224.602783 144.0
1224.91626 140.0
1228.185425 148.0
1228.869141 208.0
1229.099365 120.0
1229.434326 176.0
1236.471924 96.0
1242.336792 144.0
1245.348145 184.0
1248.25061 188.0
1249.418213 112.0
1249.805176 216.0
1256.152832 148.0
1256.921875 192.0
1257.514648 136.0
1258.100586 112.0
1258.52417 228.0
1258.827759 188.0
1263.761719 224.0
1264.504639 136.0
1267.549927 124.0
1268.761841 172.0
1269.782959 92.0
1270.549072 200.0
1270.776123 212.0
1273.452393 148.0
1278.037598 36.0
1278.493042 160.0
1280.635986 144.0
1283.828857 156.0
1285.648071 156.0
1293.216675 100.0
1294.118652 216.0
1294.30481 144.0
1294.755981 100.0
1299.235962 48.0
1300.376831 48.0
1300.65686 216.0
1304.147705 192.0
1305.190063 184.0
1306.750854 44.0
1313.219849 156.0
1314.908081 140.0
1315.369995 180.0
1317.623169 140.0
1321.08606 156.0
1321.332031 156.0
1321.512939 156.0
1322.359619 128.0
1322.598389 200.0
1323.065063 72.0
1324.604248 196.0
1325.69104 212.0
1327.314819 136.0
1335.717651 236.0
1336.776855 180.0
1338.170166 188.0
1340.522949 164.0
1343.512329 168.0
1345.336792 108.0
1346.096069 52.0
1348.404663 160.0
1349.735107 164.0
1357.299194 248.0
1357.555786 72.0
1359.272339 120.0
1359.551147 184.0
1366.039062 128.0
1366.848267 108.0
1368.143677 112.0
1368.54126 72.0
1368.607544 164.0
1370.279419 200.0
1372.114624 124.0
1374.076416 156.0
1375.530273 196.0
1377.841675 172.0
1378.459961 184.0
1379.622803 76.0
1379.776001 72.0
1380.258667 164.0
1380.983398 148.0
1383.158691 184.0
1384.958008 124.0
1385.380249 144.0
1386.01001 116.0
1389.709961 40.0
1392.984009 156.0
1395.562866 120.0
1395.942017 180.0
1397.675293 204.0
1398.508789 184.0
1401.770752 228.0
1402.538452 148.0
1404.387573 164.0
1405.648315 192.0
1411.310303 176.0
1414.474976 124.0
1415.126221 128.0
1417.156006 220.0
1419.389648 168.0
1422.705933 140.0
1423.621948 72.0
1425.109253 172.0
1426.198975 184.0
1431.668579 180.0
1431.969849 136.0
1439.84375 236.0
1441.309204 180.0
1442.427734 180.0
1442.586548 136.0
1448.610107 208.0
1450.224121 104.0
1450.611572 172.0
1452.863037 120.0
1455.542236 160.0
1458.962158 176.0
1466.2229 112.0
1468.536499 168.0
1470.692261 176.0
1472.066528 144.0
1472.593506 172.0
1473.349731 172.0
1473.594116 120.0
1474.098511 160.0
1475.390137 172.0
1478.602783 148.0
1480.14917 224.0
1480.639282 108.0
1481.635132 180.0
1482.539185 76.0
1484.087646 168.0
1488.062134 52.0
1488.507446 112.0
1490.504639 120.0
1491.311523 132.0
1492.626099 208.0
1493.249023 148.0
1493.949097 132.0
1495.241699 188.0
1495.464966 60.0
1496.696655 96.0
1497.813354 184.0
1499.469971 236.0
1500.394897 172.0
1503.673218 132.0
