>compound L-THYROXINE
>formula C15H11I4NO4 
>ionization [M+H]+
>parentmass 777.695862
#inchi InChI=1S/C15H11I4NO4/c16-8-4-7(5-9(17)13(8)21)24-14-10(18)1-6(2-11(14)19)3-12(20)15(22)23/h1-2,4-5,12,21H,3,20H2,(H,22,23)/t12-/m0/s1
#inchikey XUIIKFGFIJCVMT
#Ion_Source LC-ESI
#Instrument qTof
#Compound_Source Commercial
#PI Dorrestein
#Data_Collector Garg_Neha
#Scan -1
#Precursor_MZ 777.698
#ExactMass 776.687
#Charge 1
#CAS_Number N/A
#Pubmed_ID N/A
#Smiles N/A
#INCHI_AUX N/A
#Library_Class 1
#SpectrumID CCMSLIB00000077006
#IonMode Positive
#UpdateWorkflowName UPDATE-SINGLE-ANNOTATED-GOLD
#LibraryQualityString Gold
#TaskID 48f7f52fc6d249b5abbcc6e7b3df5969
##Scan# 1247
#SpectrumFile NCP002928_G2_H11_BA5_01_15699.mzXML
#LibraryName NIH_Clinical_Collection_2.mgf
#MQScore -1
#Organism NIHcollection2_04212014_2_mgf
#TIC_Query 0
#RT_Query -1
#MZErrorPPM -1
#SharedPeaks 0
#MassDiff 0
#LibMZ -1
#SpecMZ 777.698
#SpecCharge 0
#internalFilename spec-00000.mgf

>collision 10
46.122585 208.0
47.631069 168.0
52.69585 176.0
53.877037 144.0
60.215424 164.0
66.22094 248.0
70.644455 160.0
75.648315 276.0
78.443443 216.0
78.637466 204.0
82.257576 172.0
87.885246 148.0
88.683777 220.0
93.268044 156.0
97.556526 240.0
97.709923 144.0
104.052185 164.0
106.938644 148.0
108.695274 188.0
111.447395 280.0
111.962776 148.0
114.64698 156.0
117.05706 396.0
117.740623 168.0
118.063728 148.0
119.683632 152.0
125.630371 144.0
130.165741 232.0
131.039169 248.0
132.043564 188.0
132.900314 180.0
138.878983 184.0
140.063644 196.0
142.892624 148.0
145.051483 168.0
154.006882 164.0
154.830475 180.0
155.658752 172.0
157.177185 176.0
159.838318 168.0
160.011993 224.0
160.649597 148.0
161.018112 176.0
169.064163 168.0
170.776489 160.0
172.100342 160.0
172.157791 240.0
172.738022 152.0
173.018036 152.0
177.077179 148.0
181.062592 132.0
185.251373 148.0
186.04866 152.0
187.040878 232.0
190.302338 148.0
191.225983 176.0
192.038773 192.0
194.099091 168.0
195.061172 172.0
196.050537 452.0
196.073456 256.0
197.059372 908.0
197.231125 152.0
202.028519 152.0
202.240753 216.0
203.919846 144.0
203.939743 176.0
206.568787 144.0
207.042603 276.0
208.052505 460.0
211.039474 132.0
215.920547 212.0
216.055099 140.0
216.950439 1044.0
216.998138 196.0
218.929428 156.0
219.662582 152.0
219.833694 188.0
223.023407 184.0
223.061523 1992.0
224.070343 1208.0
225.079208 336.0
225.432587 112.0
226.976135 168.0
229.646652 192.0
230.960876 220.0
232.247864 228.0
232.946518 1260.0
233.942047 156.0
236.051743 164.0
237.865494 164.0
238.049713 144.0
239.054932 268.0
240.062271 140.0
242.954788 304.0
243.218033 176.0
243.966736 248.0
244.473648 200.0
244.96405 428.0
245.918091 140.0
253.050507 464.0
254.056259 128.0
255.570007 168.0
258.926544 172.0
258.957367 252.0
259.957825 864.0
260.963806 120.0
262.807922 204.0
270.998474 188.0
271.647583 164.0
272.809906 132.0
272.94162 172.0
276.955505 248.0
284.044678 184.0
287.473083 144.0
287.925476 200.0
288.922424 136.0
294.962189 204.0
295.961334 180.0
300.240509 108.0
300.594757 196.0
306.964905 176.0
307.005554 232.0
307.973755 124.0
308.943665 140.0
309.9487 1656.0
310.954803 216.0
313.543884 184.0
315.167145 204.0
320.12262 180.0
322.788269 168.0
322.955536 1856.0
323.237152 156.0
323.964508 7892.0
324.968903 1648.0
325.974792 176.0
327.061157 260.0
332.3302 180.0
333.977173 212.0
334.532593 156.0
334.952606 260.0
335.961212 896.0
336.934326 492.0
337.944 1748.0
338.949097 364.0
344.834229 228.0
345.834106 1012.0
345.939728 132.0
346.083099 176.0
346.82962 152.0
348.326813 160.0
348.880524 144.0
349.685303 168.0
349.967682 2904.0
350.38031 144.0
350.561646 192.0
350.604553 108.0
350.975403 12916.0
351.063843 124.0
351.519836 128.0
351.755371 132.0
351.970764 1928.0
352.98172 352.0
353.947052 128.0
354.140503 132.0
358.45108 200.0
358.844788 560.0
359.84201 116.0
360.819275 840.0
360.942444 176.0
361.819305 116.0
361.941376 368.0
362.955383 280.0
363.947235 152.0
365.609161 120.0
370.07074 144.0
370.300507 176.0
370.863129 788.0
371.867615 232.0
372.823517 152.0
376.886475 196.0
378.375549 188.0
378.944 264.0
379.954254 7192.0
380.587494 104.0
380.957214 828.0
381.962341 308.0
383.312286 220.0
385.794586 160.0
385.854462 152.0
386.834106 120.0
390.260132 140.0
395.855408 152.0
413.628754 168.0
414.827728 284.0
415.602417 188.0
422.65567 232.0
422.847992 196.0
431.870972 144.0
432.7276 148.0
432.858856 240.0
433.856415 196.0
435.842682 100.0
436.844482 148.0
448.112152 128.0
448.854523 2064.0
449.856873 920.0
449.924042 144.0
450.866364 3748.0
450.937836 220.0
451.869171 708.0
452.868011 152.0
454.527893 144.0
460.851959 308.0
461.859802 408.0
462.864258 300.0
463.837097 156.0
464.844269 920.0
465.847321 140.0
476.864807 1408.0
477.692383 140.0
477.792419 152.0
477.879059 2284.0
478.864166 1288.0
479.871185 352.0
481.322845 212.0
483.674927 164.0
488.849915 856.0
488.994659 148.0
489.852692 248.0
495.889496 320.0
497.539215 152.0
501.270935 176.0
505.854431 132.0
506.227234 164.0
506.855438 1072.0
507.853851 272.0
507.895782 168.0
510.829895 160.0
513.022949 164.0
525.992432 164.0
528.821777 140.0
540.138306 176.0
543.509094 184.0
551.173523 148.0
552.556885 156.0
557.551331 168.0
557.967346 120.0
563.759766 1536.0
564.750244 236.0
572.082092 212.0
574.746277 308.0
576.762024 3128.0
576.876343 212.0
577.770874 2648.0
578.779663 620.0
579.775696 96.0
584.325806 164.0
585.609436 164.0
586.763062 132.0
586.828613 164.0
587.756897 1112.0
587.981506 152.0
588.764465 436.0
589.5849 140.0
589.768127 360.0
590.164978 160.0
590.761536 216.0
591.751404 2456.0
592.753479 312.0
593.759644 248.0
596.45282 220.0
596.95282 132.0
602.424255 112.0
602.778809 156.0
603.463135 140.0
603.776245 700.0
603.932617 188.0
604.706482 228.0
604.784424 17064.0
605.071472 180.0
605.784729 3256.0
605.974365 172.0
606.789734 436.0
609.217773 100.0
609.261047 148.0
609.503662 116.0
615.751221 384.0
617.791504 140.0
619.733582 100.0
620.027771 184.0
623.596191 188.0
625.944336 172.0
629.115356 164.0
630.029236 140.0
630.418945 148.0
632.765137 196.0
633.216431 124.0
633.762451 9268.0
633.853271 184.0
634.346863 116.0
634.636047 96.0
634.766846 1416.0
635.75592 304.0
636.77417 132.0
637.559692 120.0
638.555664 208.0
642.908508 180.0
650.793274 308.0
651.799072 140.0
651.837891 132.0
653.641541 220.0
654.111389 124.0
656.152588 176.0
661.296631 140.0
666.152466 148.0
670.21167 188.0
671.51593 144.0
688.058411 128.0
690.691406 156.0
692.31073 160.0
694.207153 140.0
696.994507 188.0
698.976868 172.0
702.459412 152.0
702.672852 256.0
703.377563 192.0
703.741882 172.0
710.12915 144.0
712.990784 148.0
713.750977 200.0
714.54187 160.0
714.673706 128.0
714.793579 144.0
715.675049 160.0
716.257629 148.0
716.673157 148.0
717.241272 152.0
717.664551 148.0
717.749878 236.0
718.000549 160.0
718.443237 152.0
718.656006 3904.0
718.777283 132.0
719.659485 680.0
723.247192 168.0
723.429199 196.0
723.943237 152.0
724.505615 140.0
725.191528 216.0
728.864685 124.0
729.844116 156.0
730.199158 128.0
730.475159 204.0
730.536133 136.0
730.584717 104.0
730.666565 252.0
730.82959 140.0
730.934387 248.0
731.123108 112.0
731.206909 164.0
731.281372 168.0
731.319153 112.0
731.420959 188.0
731.517456 224.0
731.572449 128.0
731.689453 103820.0
731.833313 516.0
731.961853 304.0
732.039307 180.0
732.183594 132.0
732.276245 104.0
732.333557 328.0
732.449402 136.0
732.598938 132.0
732.691833 12136.0
732.865479 168.0
733.022034 192.0
733.066528 160.0
733.477478 100.0
733.692749 1624.0
733.953613 100.0
734.411377 100.0
734.688049 140.0
735.003784 140.0
735.694397 152.0
735.991272 140.0
736.127502 120.0
736.19165 160.0
736.54425 248.0
736.60199 104.0
736.65448 276.0
736.826538 100.0
736.885864 96.0
737.271667 96.0
742.65332 232.0
749.662781 212.0
749.700256 380.0
751.108521 152.0
751.332153 156.0
755.175903 120.0
757.78894 144.0
759.693176 96.0
760.518921 112.0
760.666809 7684.0
761.671082 960.0
762.668457 436.0
763.070618 168.0
763.66394 108.0
765.814819 152.0
766.793884 120.0
767.054565 148.0
768.723145 240.0
769.923645 144.0
772.703857 216.0
773.726624 120.0
774.641663 208.0
774.744568 100.0
775.346558 144.0
775.740173 156.0
775.827576 172.0
775.972717 144.0
776.207458 232.0
776.337463 116.0
776.44458 136.0
776.731873 268.0
776.823486 168.0
776.975037 184.0
777.070679 188.0
777.150085 128.0
777.249023 140.0
777.333374 188.0
777.396484 164.0
777.444458 284.0
777.546814 412.0
777.695862 137868.0
777.877075 252.0
778.041077 144.0
778.134949 228.0
778.214539 240.0
778.362793 108.0
778.461853 128.0
778.611633 236.0
778.697388 21684.0
778.848877 300.0
778.966553 124.0
779.16803 208.0
779.351624 132.0
779.453735 132.0
779.700073 2608.0
779.819885 140.0
779.919739 156.0
780.035278 96.0
780.132385 108.0
780.288452 188.0
780.706055 192.0
780.87915 96.0
781.760559 112.0
781.851929 272.0
782.049622 308.0
782.110229 156.0
782.202698 100.0
782.307129 120.0
782.349609 148.0
782.495361 300.0
782.589294 156.0
782.744873 204.0
782.848389 280.0
782.953125 164.0
782.992859 112.0
783.14386 116.0
783.207153 168.0
783.503052 132.0
783.873901 140.0
784.018738 168.0
785.229797 120.0
795.706177 1256.0
796.714722 216.0
798.684082 152.0
818.723389 468.0
818.798401 360.0
818.936462 152.0
819.726929 96.0
916.003052 144.0
1177.118652 184.0
1262.714844 160.0
1318.36377 184.0
1425.60498 140.0
2001.294556 212.0
