>compound IRBESARTAN
>formula C25H28N6O
>ionization [M+H]+
>parentmass 429.240265
#inchi InChI=1S/C25H28N6O/c1-2-3-10-22-26-25(15-6-7-16-25)24(32)31(22)17-18-11-13-19(14-12-18)20-8-4-5-9-21(20)23-27-29-30-28-23/h4-5,8-9,11-14H,2-3,6-7,10,15-17H2,1H3,(H,27,28,29,30)
#inchikey YOSHYTLCDANDAN
#Ion_Source LC-ESI
#Instrument qTof
#Compound_Source Commercial
#PI Dorrestein
#Data_Collector Garg_Neha
#Scan -1
#Precursor_MZ 429.24
#ExactMass 428.232
#Charge 1
#CAS_Number N/A
#Pubmed_ID N/A
#Smiles CCCCC1=NC2(CCCC2)C(=O)N1Cc3ccc(cc3)c4ccccc4c5nn[nH]n5
#INCHI_AUX N/A
#Library_Class 1
#SpectrumID CCMSLIB00000079128
#IonMode Positive
#UpdateWorkflowName UPDATE-SINGLE-ANNOTATED-GOLD
#LibraryQualityString Gold
#TaskID 278b19f5865741e282cec7349aa7e7a1
##Scan# 1275
#SpectrumFile NCP003512_E2_F11_BD6_01_15730.mzXML
#LibraryName NIHcollectionI_05062014.mgf
#MQScore -1
#Organism NIHcollectionI_05062014
#TIC_Query 0
#RT_Query -1
#MZErrorPPM -1
#SharedPeaks 0
#MassDiff 0
#LibMZ -1
#SpecMZ 429.24
#SpecCharge 0
#internalFilename spec-00000.mgf

>collision 10
51.488647 140.0
63.661934 180.0
63.873318 156.0
83.763107 260.0
96.595856 164.0
98.058655 172.0
105.869049 160.0
113.08165 172.0
139.721664 152.0
151.428329 160.0
153.071823 192.0
167.158707 164.0
168.155777 148.0
178.065262 208.0
179.072433 156.0
180.079971 604.0
181.08847 156.0
183.06633 296.0
190.064316 540.0
191.07016 220.0
191.191162 180.0
192.075989 540.0
192.605545 148.0
193.073135 132.0
195.147781 800.0
196.087631 176.0
196.149918 264.0
205.074966 300.0
205.210098 212.0
206.083267 792.0
207.091415 5816.0
208.095428 732.0
208.140015 168.0
209.099167 116.0
217.148193 196.0
227.045425 172.0
235.096939 160.0
241.068695 140.0
242.160767 152.0
247.088394 168.0
257.143616 192.0
268.069031 768.0
269.069305 212.0
294.254059 152.0
313.063385 160.0
339.565826 228.0
343.095764 152.0
370.822723 152.0
385.088226 144.0
386.221191 364.0
387.237793 272.0
388.219086 140.0
389.357147 188.0
389.526031 144.0
394.831207 196.0
401.235901 464.0
402.239075 112.0
403.219788 168.0
409.381836 156.0
410.131439 160.0
418.712524 168.0
428.141418 1292.0
429.145172 136.0
429.240265 7224.0
430.10437 176.0
430.240692 2064.0
430.317261 236.0
431.237946 124.0
432.082001 296.0
432.246338 232.0
432.996765 144.0
433.222748 116.0
470.066254 188.0
1006.010376 200.0
1892.224731 148.0
