>compound MLS001401401-01!Galanthamine
>formula C17H21NO3
>ionization [M+H]+
>parentmass 288.1594199840905
#inchi InChI=1S/C17H21NO3/c1-18-8-7-17-6-5-12(19)9-14(17)21-16-13(20-2)4-3-11(10-18)15(16)17/h3-6,12,14,19H,7-10H2,1-2H3/t12-,14-,17-/m0/s1
#inchikey ASUTZQLVASHGKV
#origInchi InChI=1S/C17H21NO3.BrH/c1-18-8-7-17-6-5-12(19)9-14(17)21-16-13(20-2)4-3-11(10-18)15(16)17;/h3-6,12,14,19H,7-10H2,1-2H3;1H/t12-,14-,17-;/m0./s1
#Ion_Source LC-ESI
#Instrument qTof
#Compound_Source NIH Pharmacologically Active Library
#PI Dorrestein
#Data_Collector VP/LMS
#Scan -1
#Precursor_MZ 288.156
#ExactMass 287.152
#Charge 1
#CAS_Number N/A
#Pubmed_ID N/A
#Smiles COc1ccc2CN(C)CC[C@]34C=C[C@H](O)C[C@@H]4Oc1c23.Br
#INCHI_AUX N/A
#Library_Class 1
#SpectrumID CCMSLIB00000085961
#IonMode Positive
#UpdateWorkflowName UPDATE-SINGLE-ANNOTATED-GOLD
#LibraryQualityString Gold
#TaskID d252d724072548979f1f6f1ced849daf
##Scan# 904
#SpectrumFile p4-H07_GH7_01_18415.mzXML
#LibraryName Pharm_Active_Library.mgf
#MQScore -1
#Organism Pharm_Active_Library
#TIC_Query 0
#RT_Query -1
#MZErrorPPM -1
#SharedPeaks 0
#MassDiff 0
#LibMZ -1
#SpecMZ 288.156
#SpecCharge 0
#internalFilename spec-00000.mgf

>collision 10
46.484257 192.0
46.927696 220.0
48.212589 56.0
48.765587 152.0
48.919991 48.0
49.175079 160.0
50.32201 136.0
50.654362 124.0
51.432194 128.0
51.665123 160.0
51.844109 160.0
52.059299 128.0
53.678684 84.0
53.824612 172.0
54.187359 128.0
54.50576 140.0
54.613083 96.0
54.788258 144.0
55.885372 116.0
56.766697 188.0
56.925766 160.0
57.733528 160.0
57.850037 100.0
57.895462 236.0
60.693863 168.0
60.878529 80.0
61.23312 152.0
61.526279 192.0
62.191582 88.0
62.985191 136.0
66.299049 132.0
66.350922 192.0
66.709702 208.0
68.175873 224.0
68.412735 252.0
68.533127 204.0
68.711029 196.0
69.041397 100.0
69.177078 140.0
69.334435 140.0
69.60318 72.0
69.664635 168.0
70.681686 156.0
71.997986 112.0
72.182182 212.0
72.997856 160.0
74.157082 188.0
74.902817 176.0
75.384193 128.0
76.240295 136.0
77.307594 104.0
77.405624 168.0
78.019737 172.0
78.343552 180.0
78.410515 140.0
79.060432 112.0
79.430748 188.0
79.450256 176.0
79.814369 140.0
81.144592 144.0
81.345528 236.0
81.45327 184.0
81.85614 192.0
81.870552 188.0
82.601547 180.0
82.706497 436.0
83.677734 220.0
83.743294 176.0
83.839851 76.0
85.46048 168.0
87.502029 96.0
87.567207 204.0
87.874794 168.0
87.941971 200.0
88.828918 152.0
88.881454 172.0
89.009094 68.0
89.607239 132.0
90.124222 172.0
90.145004 168.0
90.898689 160.0
91.086655 176.0
93.401573 124.0
94.423843 148.0
94.508965 80.0
94.762611 156.0
94.896347 180.0
95.111687 52.0
95.140808 124.0
97.956955 132.0
98.972107 52.0
99.382408 180.0
100.315178 124.0
101.906258 88.0
102.221954 72.0
103.054924 180.0
105.068848 124.0
105.913132 180.0
107.050507 164.0
107.424026 160.0
109.061989 160.0
109.307396 176.0
110.091225 152.0
110.266716 116.0
110.574165 156.0
110.930252 196.0
111.001534 228.0
111.100113 180.0
111.623108 136.0
113.063972 116.0
115.05571 160.0
115.577225 248.0
116.649582 212.0
116.830223 160.0
116.95504 144.0
117.05838 168.0
117.084221 256.0
117.10791 148.0
118.477463 172.0
119.410866 168.0
121.060799 168.0
121.24044 132.0
121.354424 176.0
121.374161 200.0
122.032883 280.0
122.098854 132.0
124.108421 212.0
124.143906 168.0
125.46022 148.0
126.051704 164.0
127.057045 144.0
127.236588 104.0
127.256798 104.0
128.061462 296.0
128.30751 172.0
128.987015 36.0
129.073074 344.0
129.204117 108.0
129.337631 144.0
129.765793 172.0
129.920013 124.0
130.072067 140.0
130.099304 84.0
130.428696 172.0
130.990753 164.0
131.043152 164.0
131.08873 196.0
132.054443 124.0
132.082214 376.0
132.899765 32.0
132.996155 196.0
133.035187 160.0
133.06044 124.0
133.097168 196.0
134.06459 180.0
134.102127 164.0
134.406937 160.0
135.081451 328.0
135.192627 276.0
135.669785 184.0
136.082748 200.0
136.617294 168.0
137.058197 252.0
138.086853 184.0
141.070038 716.0
141.430389 156.0
141.750122 104.0
141.942123 188.0
142.077469 312.0
142.935059 120.0
143.054962 168.0
143.082626 296.0
144.06282 96.0
144.103424 168.0
144.794754 188.0
145.06601 316.0
145.51207 176.0
145.884125 100.0
146.040436 164.0
146.071701 164.0
146.79425 168.0
146.929337 48.0
147.006546 60.0
147.042297 172.0
147.075546 180.0
150.089752 148.0
151.049576 108.0
151.074036 124.0
151.098511 132.0
151.482864 148.0
152.061356 340.0
152.675751 148.0
153.06929 600.0
153.296127 156.0
153.574722 248.0
153.693146 232.0
153.83876 124.0
154.070831 152.0
154.996262 208.0
155.046509 276.0
155.085648 160.0
155.450058 120.0
156.054977 204.0
156.085922 136.0
157.066574 432.0
157.091339 220.0
157.149582 72.0
157.961533 188.0
158.066116 220.0
158.785614 152.0
159.080704 392.0
159.792938 72.0
160.049591 140.0
160.087433 164.0
161.053299 204.0
161.062317 196.0
161.096558 332.0
161.285873 108.0
161.708282 116.0
162.066101 864.0
162.103363 224.0
162.164185 60.0
162.326431 184.0
162.696884 172.0
163.166885 140.0
163.711411 152.0
163.981476 48.0
164.254303 220.0
164.792984 88.0
165.070328 572.0
166.07811 148.0
167.083542 288.0
168.058594 496.0
168.914169 64.0
169.064468 1092.0
169.100464 136.0
169.851883 144.0
170.030914 196.0
170.072861 1472.0
170.21524 128.0
170.924896 124.0
170.969131 128.0
170.995148 64.0
171.047211 140.0
171.083023 300.0
171.772263 100.0
172.032593 64.0
172.081848 176.0
172.440079 60.0
173.057281 184.0
173.833359 84.0
174.061737 116.0
174.10112 188.0
175.077545 364.0
175.106064 500.0
175.983932 216.0
176.08049 144.0
177.123779 160.0
178.079071 228.0
179.087234 300.0
180.081619 216.0
180.827576 132.0
180.889145 112.0
181.06485 908.0
181.111328 160.0
181.164978 96.0
181.320389 56.0
181.891693 72.0
181.961502 224.0
181.999084 48.0
182.071396 2164.0
182.102051 328.0
182.299942 80.0
183.004715 68.0
183.044357 2704.0
183.075455 764.0
183.1259 152.0
183.147446 60.0
183.228256 56.0
183.624512 40.0
184.046738 328.0
184.086014 164.0
185.056076 144.0
185.061264 144.0
185.102051 604.0
185.289688 160.0
186.099045 272.0
186.510864 96.0
187.072617 160.0
188.057999 148.0
188.081024 632.0
188.896881 160.0
189.07373 300.0
189.091553 416.0
190.084366 296.0
190.190262 116.0
190.258881 164.0
191.084702 224.0
191.512833 164.0
191.702942 124.0
192.088943 116.0
192.160675 108.0
193.088837 156.0
194.077301 340.0
194.268829 72.0
195.0784 384.0
195.207626 172.0
195.519211 260.0
196.380127 120.0
196.765213 76.0
196.804306 196.0
197.03334 136.0
197.059006 932.0
197.09111 328.0
197.112366 168.0
197.192612 72.0
197.475006 128.0
197.603683 112.0
197.827576 36.0
197.849976 240.0
197.914383 136.0
197.967575 152.0
198.02359 216.0
198.06694 7248.0
198.104828 68.0
198.520386 92.0
198.889999 68.0
198.991058 184.0
199.04039 184.0
199.071075 1780.0
199.283173 124.0
199.344986 64.0
200.075607 316.0
200.332581 52.0
200.651031 148.0
200.91333 52.0
200.97258 40.0
201.045944 84.0
201.082565 164.0
201.089691 160.0
201.780365 120.0
201.947205 228.0
202.131104 144.0
203.105637 400.0
204.10199 180.0
206.071136 352.0
207.078812 176.0
208.084167 348.0
208.166046 68.0
208.683273 60.0
209.093536 1192.0
210.039703 132.0
210.065231 328.0
210.096832 140.0
210.129135 64.0
210.793243 72.0
211.068558 168.0
211.403427 144.0
212.083221 332.0
212.139114 176.0
212.638031 152.0
212.858658 84.0
213.090622 8224.0
213.143341 44.0
213.163681 64.0
213.365204 96.0
213.463089 100.0
213.643433 48.0
213.713257 56.0
213.908249 104.0
214.018875 88.0
214.057358 148.0
214.09317 836.0
214.234406 88.0
214.467529 120.0
214.522903 104.0
214.64537 72.0
215.053802 148.0
215.097824 304.0
215.193924 52.0
215.398361 108.0
215.450943 88.0
215.705185 40.0
216.073441 156.0
216.185501 92.0
216.290222 52.0
216.316574 92.0
216.442459 60.0
216.940552 168.0
217.527252 36.0
218.111816 196.0
218.138275 112.0
218.985718 84.0
221.075989 64.0
221.114471 88.0
223.081055 132.0
223.315964 216.0
224.08168 268.0
224.200211 128.0
224.736984 140.0
225.091614 560.0
225.486526 160.0
226.092361 176.0
226.123581 204.0
227.066452 408.0
227.103256 284.0
228.071167 172.0
228.103256 124.0
228.172409 120.0
229.08429 168.0
229.669083 156.0
230.088776 156.0
231.100067 540.0
231.131317 180.0
231.179733 140.0
232.102219 176.0
232.573898 88.0
236.108246 116.0
236.904083 132.0
238.097275 204.0
239.096832 272.0
240.106995 132.0
241.109589 156.0
242.156128 100.0
243.027237 100.0
246.14621 112.0
254.122116 284.0
255.12529 364.0
256.126984 164.0
261.28598 92.0
269.12326 136.0
270.149414 512.0
271.144928 32.0
272.132812 116.0
288.154236 168.0
288.857666 56.0
289.166351 240.0
293.882416 204.0
297.510345 92.0
299.935577 136.0
305.963348 64.0
327.014435 96.0
327.950897 48.0
328.841797 52.0
353.05722 76.0
359.107788 96.0
385.84671 88.0
428.352295 68.0
480.178619 128.0
507.447906 64.0
709.04126 84.0
803.030518 20.0
808.994812 160.0
850.773438 100.0
1072.651611 160.0
1096.695435 136.0
1115.754028 156.0
1134.33313 76.0
1151.531982 124.0
1151.667114 60.0
1165.480713 80.0
1175.013062 184.0
1191.47876 208.0
1195.645874 152.0
1216.978882 96.0
1255.008911 148.0
1260.246216 80.0
1272.598999 104.0
1305.390991 148.0
1306.110229 220.0
1319.625 52.0
1326.133057 152.0
1339.12439 44.0
1351.286255 228.0
1374.24707 176.0
1378.847656 132.0
1382.390137 188.0
1391.633667 132.0
1410.998047 228.0
1415.547363 104.0
1446.719482 200.0
1456.19043 144.0
1458.013916 156.0
1458.46228 88.0
1471.863403 184.0
1478.154541 184.0
1494.406494 232.0
