>compound MLS000860015-01!YS-035 hydrochloride
>formula C21H29NO4
>ionization [M+H]+
>parentmass 360.215851
#inchi InChI=1S/C21H29NO4/c1-22(12-10-16-6-8-18(23-2)20(14-16)25-4)13-11-17-7-9-19(24-3)21(15-17)26-5/h6-9,14-15H,10-13H2,1-5H3
#inchikey OXZMQFKVNVQMLI
#origInchi InChI=1S/C21H29NO4.ClH/c1-22(12-10-16-6-8-18(23-2)20(14-16)25-4)13-11-17-7-9-19(24-3)21(15-17)26-5;/h6-9,14-15H,10-13H2,1-5H3;1H
#Ion_Source LC-ESI
#Instrument qTof
#Compound_Source NIH Pharmacologically Active Library
#PI Dorrestein
#Data_Collector VP/LMS
#Scan -1
#Precursor_MZ 360.222
#ExactMass 359.21
#Charge 1
#CAS_Number N/A
#Pubmed_ID N/A
#Smiles COc1ccc(CCN(C)CCc2ccc(OC)c(OC)c2)cc1OC.Cl
#INCHI_AUX N/A
#Library_Class 1
#SpectrumID CCMSLIB00000085699
#IonMode Positive
#UpdateWorkflowName UPDATE-SINGLE-ANNOTATED-GOLD
#LibraryQualityString Gold
#TaskID d252d724072548979f1f6f1ced849daf
##Scan# 1484
#SpectrumFile p4-E05_GE5_01_18377.mzXML
#LibraryName Pharm_Active_Library.mgf
#MQScore -1
#Organism Pharm_Active_Library
#TIC_Query 0
#RT_Query -1
#MZErrorPPM -1
#SharedPeaks 0
#MassDiff 0
#LibMZ -1
#SpecMZ 360.222
#SpecCharge 0
#internalFilename spec-00000.mgf

>collision 10
44.894886 164.0
44.917885 180.0
45.000427 212.0
45.019432 220.0
45.035706 188.0
45.040257 96.0
45.044998 180.0
45.063076 100.0
45.11573 192.0
45.153976 140.0
45.195263 232.0
45.228168 116.0
45.254341 172.0
45.266396 168.0
45.286484 128.0
45.297199 216.0
45.317295 160.0
45.331558 304.0
45.339157 152.0
45.369034 316.0
45.395702 148.0
45.444023 248.0
45.457481 176.0
45.462677 96.0
45.478222 216.0
45.491646 176.0
45.501041 52.0
45.521183 132.0
45.5373 228.0
45.551731 140.0
45.580288 96.0
45.593727 188.0
45.605289 208.0
45.657234 168.0
45.687855 324.0
45.704124 172.0
45.756092 216.0
45.798237 200.0
45.817097 180.0
45.844044 172.0
45.875046 160.0
45.931683 236.0
45.95192 100.0
45.973576 164.0
45.984268 136.0
46.016705 104.0
46.047295 288.0
46.064335 164.0
46.093796 160.0
46.129246 200.0
46.149136 156.0
46.189804 172.0
46.205032 164.0
46.223484 200.0
46.253899 160.0
46.265755 248.0
46.283073 268.0
46.3251 132.0
46.346737 48.0
46.376549 180.0
46.389526 300.0
46.421291 192.0
46.430634 180.0
46.439957 168.0
46.483692 192.0
46.505726 204.0
46.52441 112.0
46.548851 164.0
46.581024 128.0
46.629005 152.0
46.643559 220.0
46.669605 208.0
46.71656 168.0
46.739159 108.0
46.75351 176.0
46.764622 236.0
46.80722 204.0
46.823067 176.0
46.840744 104.0
46.869099 168.0
46.880806 204.0
46.895771 120.0
46.910702 168.0
46.931217 148.0
46.954399 200.0
46.969402 196.0
46.985367 416.0
47.009941 212.0
47.040363 116.0
47.055378 144.0
47.080185 192.0
47.111641 204.0
47.166351 172.0
47.232765 80.0
47.24535 208.0
47.338425 152.0
47.35656 200.0
47.374241 80.0
47.391922 216.0
47.398537 136.0
47.403412 200.0
47.416882 120.0
47.435703 152.0
47.455627 232.0
47.467999 208.0
47.480953 160.0
47.493298 132.0
47.516617 132.0
47.53857 144.0
47.550262 208.0
47.570141 156.0
47.597599 172.0
47.607212 200.0
47.616825 228.0
47.643452 192.0
47.662159 40.0
47.675217 224.0
47.688728 180.0
47.730888 372.0
47.750141 160.0
47.761147 156.0
47.791412 324.0
47.823063 112.0
47.860233 128.0
47.882568 160.0
47.911194 148.0
47.920841 148.0
47.963604 136.0
47.995201 236.0
47.998867 224.0
48.013199 44.0
48.033253 104.0
48.0877 216.0
48.129539 208.0
48.151211 224.0
48.17025 220.0
48.186729 320.0
48.202534 296.0
48.206852 160.0
48.232391 244.0
48.258999 112.0
48.275593 192.0
48.28804 108.0
48.297722 164.0
48.320354 212.0
48.34882 176.0
48.375214 80.0
48.389057 168.0
48.402905 112.0
48.422295 196.0
48.437016 196.0
48.471371 188.0
48.487411 180.0
48.50127 160.0
48.516521 124.0
48.528999 144.0
48.54269 176.0
48.585861 164.0
48.648312 184.0
48.67886 236.0
48.699692 140.0
48.713581 132.0
48.758739 140.0
48.774723 208.0
48.796967 176.0
48.84008 160.0
48.887383 196.0
48.912315 168.0
48.933632 212.0
48.947243 240.0
48.959774 44.0
48.982784 120.0
49.003822 232.0
49.029434 112.0
49.04285 128.0
49.054523 112.0
49.072647 172.0
49.087986 124.0
49.12648 220.0
49.171692 104.0
49.182858 176.0
49.193356 148.0
49.218559 156.0
49.234516 416.0
49.282013 196.0
49.295986 128.0
49.305767 168.0
49.332462 204.0
49.355751 164.0
49.365883 52.0
49.38966 40.0
49.400848 180.0
49.431629 148.0
49.508625 116.0
49.529331 148.0
49.547306 156.0
49.560455 156.0
49.570267 212.0
49.589615 144.0
49.606705 160.0
49.623596 168.0
49.630119 120.0
49.665047 304.0
49.676552 208.0
49.717514 360.0
49.730145 152.0
49.754818 340.0
49.784111 144.0
49.8032 132.0
49.823837 172.0
49.836342 116.0
49.852333 148.0
49.87608 152.0
49.919811 144.0
49.931061 176.0
49.947941 204.0
49.957787 188.0
49.991066 164.0
50.010212 156.0
50.022522 184.0
50.033783 92.0
50.050678 144.0
50.071804 148.0
50.083069 136.0
50.098026 240.0
50.140839 76.0
50.150703 152.0
50.164799 204.0
50.176079 148.0
50.202869 148.0
50.238049 200.0
50.259296 168.0
50.271694 132.0
50.286182 168.0
50.300224 136.0
50.310677 208.0
50.328461 116.0
50.370903 148.0
50.386368 212.0
50.396259 40.0
50.407562 312.0
50.416481 168.0
50.450089 136.0
50.459862 164.0
50.488144 144.0
50.502014 208.0
50.505116 168.0
50.509632 208.0
50.526333 56.0
50.543312 52.0
50.590382 204.0
50.606655 48.0
50.629402 192.0
50.634823 156.0
50.666496 184.0
50.687748 176.0
50.711842 112.0
50.730267 160.0
50.745117 380.0
50.788914 108.0
50.804012 236.0
50.817924 104.0
50.846409 164.0
50.865032 260.0
50.88065 128.0
50.893425 68.0
50.92149 200.0
50.943134 168.0
50.954548 120.0
50.97155 152.0
50.982597 176.0
51.008503 196.0
51.034763 136.0
51.047531 116.0
51.099522 136.0
51.11834 160.0
51.142216 108.0
51.162964 132.0
51.19062 128.0
51.226051 160.0
51.231884 140.0
51.235527 296.0
51.250957 112.0
51.276943 196.0
51.288925 156.0
51.309341 112.0
51.325993 160.0
51.367023 316.0
51.381622 404.0
51.393036 184.0
51.425858 172.0
51.440132 184.0
51.460835 184.0
51.483315 164.0
51.516914 172.0
51.539532 160.0
51.549561 328.0
51.563831 272.0
51.578693 96.0
51.594418 140.0
51.629189 176.0
51.671387 196.0
51.691681 196.0
51.720104 312.0
51.741383 240.0
51.781876 192.0
51.79483 172.0
51.827717 152.0
51.837746 120.0
51.860676 176.0
51.870174 140.0
51.889858 80.0
51.907185 188.0
51.926632 128.0
51.937798 112.0
51.962494 132.0
51.982357 152.0
52.009853 44.0
52.029461 212.0
52.054359 132.0
52.064911 92.0
52.081646 204.0
52.092522 140.0
52.111084 128.0
52.12706 188.0
52.155045 148.0
52.182243 136.0
52.196373 140.0
52.223946 148.0
52.236893 196.0
52.252777 196.0
52.268543 176.0
52.280056 216.0
52.295887 180.0
52.307934 196.0
52.333946 312.0
52.344837 220.0
52.362255 168.0
52.382286 84.0
52.436272 60.0
52.446362 188.0
52.465996 148.0
52.48317 168.0
52.509129 28.0
52.519222 56.0
52.535091 80.0
52.575439 172.0
52.607246 304.0
52.618797 160.0
52.630348 132.0
52.660023 136.0
52.678383 460.0
52.701126 192.0
52.711239 128.0
52.72858 180.0
52.753155 164.0
52.767357 340.0
52.777733 120.0
52.802441 160.0
52.818226 180.0
52.836891 176.0
52.859783 188.0
52.887684 232.0
52.903606 132.0
52.939804 180.0
52.954288 180.0
52.971668 196.0
52.984707 80.0
52.9963 236.0
53.012238 188.0
53.022381 224.0
53.038101 156.0
53.07457 144.0
53.08617 128.0
53.15435 132.0
53.180809 224.0
53.212177 148.0
53.23502 168.0
53.257431 56.0
53.286484 240.0
53.302971 428.0
53.323177 180.0
53.340256 48.0
53.355736 216.0
53.370785 44.0
53.403786 52.0
53.469254 192.0
53.499985 160.0
53.554745 168.0
53.584095 152.0
53.594181 160.0
53.606602 160.0
53.62207 312.0
53.64304 144.0
53.667755 168.0
53.705742 196.0
53.720329 176.0
53.769939 168.0
53.784534 68.0
53.799717 248.0
53.823269 172.0
53.840019 100.0
53.867161 48.0
53.876537 124.0
53.889442 168.0
53.92844 160.0
53.962765 248.0
53.984699 148.0
54.018337 112.0
54.042011 156.0
54.107609 48.0
54.126644 196.0
54.142754 152.0
54.170582 176.0
54.194023 204.0
54.230309 216.0
54.255581 204.0
54.276108 164.0
54.292637 132.0
54.304443 176.0
54.336243 144.0
54.360424 184.0
54.389511 228.0
54.40971 140.0
54.427246 168.0
54.478649 136.0
54.50069 112.0
54.510975 192.0
54.594769 128.0
54.612347 168.0
54.617382 160.0
54.630375 96.0
54.653133 160.0
54.67857 308.0
54.718372 132.0
54.739323 276.0
54.750767 164.0
54.769917 132.0
54.792011 100.0
54.814358 216.0
54.834747 124.0
54.848873 212.0
54.879128 112.0
54.918789 96.0
54.935013 140.0
54.945343 132.0
54.968948 176.0
54.980755 172.0
55.017658 128.0
55.038326 272.0
55.056049 76.0
55.078201 128.0
55.097408 180.0
55.122524 144.0
55.138783 264.0
55.16391 156.0
55.177216 204.0
55.206787 136.0
55.2201 156.0
55.229858 196.0
55.24358 160.0
55.263042 140.0
55.282532 196.0
55.313316 164.0
55.354774 172.0
55.371727 196.0
55.387875 200.0
55.419949 172.0
55.435863 200.0
55.479916 168.0
55.505589 160.0
55.531132 244.0
55.556351 160.0
55.569702 216.0
55.592865 184.0
55.615707 144.0
55.644974 140.0
55.671806 224.0
55.704803 200.0
55.759781 180.0
55.779102 168.0
55.802887 156.0
55.857292 172.0
55.889027 184.0
55.899574 188.0
55.926361 164.0
55.936783 160.0
55.951668 136.0
55.99192 128.0
56.02803 176.0
56.101116 216.0
56.140411 156.0
56.152836 128.0
56.170937 148.0
56.181179 192.0
56.219173 144.0
56.250999 392.0
56.261768 180.0
56.293125 128.0
56.311047 176.0
56.345505 164.0
56.360809 128.0
56.393223 148.0
56.450031 240.0
56.464989 132.0
56.490417 116.0
56.50388 32.0
56.52483 164.0
56.540287 196.0
56.575497 136.0
56.606014 196.0
56.619141 172.0
56.635616 188.0
56.686554 100.0
56.698544 116.0
56.711487 140.0
56.733021 344.0
56.802162 188.0
56.838009 104.0
56.871548 196.0
56.890541 164.0
56.929966 140.0
56.944298 276.0
56.965626 100.0
56.982155 196.0
56.99868 176.0
57.039261 172.0
57.073837 104.0
57.094856 164.0
57.121967 116.0
57.143028 120.0
57.186668 140.0
57.215542 156.0
57.262634 172.0
57.274754 152.0
57.295311 164.0
57.310158 216.0
57.339302 224.0
57.406631 144.0
57.421711 172.0
57.450069 200.0
57.494129 184.0
57.562965 328.0
57.577164 152.0
57.602654 176.0
57.628525 140.0
57.640614 180.0
57.706757 416.0
57.726986 176.0
57.751648 180.0
57.778042 220.0
57.795433 176.0
57.816032 420.0
57.846657 224.0
57.873558 36.0
57.891727 92.0
57.911621 148.0
57.934139 100.0
57.956562 180.0
57.973534 68.0
57.98822 232.0
58.00312 156.0
58.014458 160.0
58.034168 176.0
58.058105 168.0
58.092678 204.0
58.134594 144.0
58.154015 172.0
58.201077 100.0
58.228413 112.0
58.249676 352.0
58.284618 164.0
58.310738 172.0
58.324253 152.0
58.362141 104.0
58.429951 144.0
58.444279 160.0
58.482517 188.0
58.53273 148.0
58.547794 180.0
58.567593 176.0
58.595711 236.0
58.616344 212.0
58.654743 124.0
58.683533 188.0
58.704762 352.0
58.718914 100.0
58.725552 184.0
58.745209 232.0
58.769302 180.0
58.790192 32.0
58.805454 196.0
58.840565 172.0
58.890846 164.0
58.926094 144.0
58.950542 268.0
58.97971 316.0
58.99115 148.0
59.011684 88.0
59.025375 172.0
59.066738 140.0
59.078979 148.0
59.100399 192.0
59.150059 196.0
59.18148 152.0
59.221001 200.0
59.226917 156.0
59.257317 148.0
59.268829 84.0
59.291512 140.0
59.313274 144.0
59.327091 188.0
59.34087 132.0
59.366936 68.0
59.409431 176.0
59.42646 212.0
59.460522 164.0
59.474335 48.0
59.520554 152.0
59.536606 172.0
59.551109 244.0
59.561859 156.0
59.581829 88.0
59.603683 180.0
59.61871 132.0
59.63715 132.0
59.667896 152.0
59.695107 224.0
59.706337 124.0
59.727871 136.0
59.749409 196.0
59.764793 132.0
59.80019 112.0
59.816063 128.0
59.840214 116.0
59.871616 376.0
59.895657 68.0
59.93417 68.0
59.989655 260.0
60.001015 184.0
60.028442 128.0
60.059048 172.0
60.072643 172.0
60.084499 204.0
60.113045 232.0
60.13002 148.0
60.163441 264.0
60.18679 176.0
60.227604 100.0
60.282913 220.0
60.295277 180.0
60.309189 172.0
60.321079 144.0
60.373035 176.0
60.383812 136.0
60.403782 436.0
60.448692 216.0
60.483974 144.0
60.511841 136.0
60.562946 204.0
60.589279 172.0
60.608456 128.0
60.642788 400.0
60.666767 116.0
60.686405 180.0
60.725693 172.0
60.73745 200.0
60.755165 60.0
60.779991 132.0
60.808701 48.0
60.837875 176.0
60.859154 144.0
60.876236 200.0
60.894333 208.0
60.95134 196.0
60.967892 236.0
61.011192 168.0
61.032333 144.0
61.042511 148.0
61.072166 120.0
61.083656 176.0
61.102318 160.0
61.107582 72.0
61.112 220.0
61.135281 120.0
61.156082 272.0
61.189659 232.0
61.193066 132.0
61.198647 200.0
61.219917 172.0
61.274433 148.0
61.291573 128.0
61.316994 192.0
61.32851 200.0
61.347683 176.0
61.36795 240.0
61.397579 48.0
61.425655 152.0
61.44548 340.0
61.46373 188.0
61.480263 136.0
61.49725 204.0
61.516163 192.0
61.528652 140.0
61.572765 144.0
61.597366 92.0
61.615879 188.0
61.636425 312.0
61.669243 152.0
61.68874 180.0
61.708324 144.0
61.731781 128.0
61.781834 160.0
61.806866 136.0
61.825645 152.0
61.901154 136.0
61.91478 124.0
61.931221 136.0
61.952721 152.0
61.975975 144.0
62.03553 64.0
62.085041 208.0
62.104298 144.0
62.120144 200.0
62.163372 268.0
62.181408 208.0
62.198673 172.0
62.212803 136.0
62.2285 152.0
62.242527 176.0
62.274998 112.0
62.304783 176.0
62.330601 176.0
62.373035 148.0
62.418896 260.0
62.436348 164.0
62.477177 160.0
62.483349 188.0
62.535046 148.0
62.568104 168.0
62.584625 184.0
62.605766 204.0
62.624794 176.0
62.640545 152.0
62.687813 152.0
62.712231 148.0
62.755592 308.0
62.780033 288.0
62.807636 180.0
62.837608 108.0
62.869976 164.0
62.884949 164.0
62.920799 152.0
62.94968 184.0
62.970802 96.0
63.001804 376.0
63.022343 168.0
63.060268 128.0
63.08556 100.0
63.106499 136.0
63.153736 140.0
63.178867 124.0
63.235031 164.0
63.272503 248.0
63.316578 196.0
63.353008 216.0
63.378357 240.0
63.400784 172.0
63.417011 212.0
63.460781 136.0
63.489323 172.0
63.513115 120.0
63.539726 124.0
63.570232 124.0
63.617115 208.0
63.64484 172.0
63.666546 252.0
63.686131 140.0
63.701244 132.0
63.734585 240.0
63.771931 328.0
63.787827 192.0
63.798595 180.0
63.803192 132.0
63.827034 224.0
63.841686 192.0
63.858185 192.0
63.886421 160.0
63.902119 180.0
63.935169 132.0
63.97554 224.0
63.991463 132.0
64.004005 256.0
64.024902 168.0
64.040825 200.0
64.051979 140.0
64.063126 144.0
64.087029 132.0
64.099777 168.0
64.110931 188.0
64.122871 128.0
64.142807 188.0
64.158752 48.0
64.182312 180.0
64.225723 172.0
64.244865 152.0
64.269394 64.0
64.318329 136.0
64.338509 300.0
64.368423 196.0
64.41568 120.0
64.43325 144.0
64.449234 152.0
64.478355 196.0
64.49398 112.0
64.534271 108.0
64.565926 204.0
64.576218 120.0
64.637367 164.0
64.661919 252.0
64.675697 136.0
64.698395 132.0
64.711548 292.0
64.73494 176.0
64.765991 148.0
64.792564 204.0
64.819191 176.0
64.83329 108.0
64.863777 160.0
64.876015 176.0
64.892593 100.0
64.935898 52.0
64.971184 80.0
64.992577 228.0
65.025742 128.0
65.045006 176.0
65.088348 148.0
65.112442 156.0
65.14064 176.0
65.163841 104.0
65.209236 184.0
65.232948 132.0
65.244202 224.0
65.263496 152.0
65.27636 68.0
65.323006 196.0
65.350693 152.0
65.366447 140.0
65.387367 168.0
65.417946 184.0
65.451759 48.0
65.49202 124.0
65.504906 196.0
65.556465 136.0
65.58548 136.0
65.60685 156.0
65.623398 400.0
65.649246 160.0
65.663101 236.0
65.683838 176.0
65.695129 168.0
65.711166 132.0
65.746765 80.0
65.76432 164.0
65.779045 152.0
65.807343 224.0
65.822639 132.0
65.838783 36.0
65.888863 136.0
65.906883 204.0
65.921173 160.0
65.950409 136.0
65.997154 124.0
66.025131 172.0
66.038437 212.0
66.079643 184.0
66.107147 108.0
66.142578 184.0
66.149147 164.0
66.155777 176.0
66.196106 164.0
66.215614 80.0
66.238205 148.0
66.273933 176.0
66.292725 228.0
66.313377 248.0
66.362541 84.0
66.389137 152.0
66.428818 204.0
66.440125 160.0
66.462029 212.0
66.483124 72.0
66.504219 236.0
66.534775 180.0
66.552605 184.0
66.585403 188.0
66.612747 312.0
66.667534 224.0
66.679634 108.0
66.704018 108.0
66.735985 228.0
66.748634 400.0
66.801582 132.0
66.816223 208.0
66.835754 208.0
66.856903 152.0
66.875488 192.0
66.888824 144.0
66.956215 168.0
67.014862 116.0
67.08168 232.0
67.119766 176.0
67.156075 340.0
67.166656 176.0
67.185509 204.0
67.209442 272.0
67.272545 172.0
67.313538 112.0
67.362671 152.0
67.390137 80.0
67.442429 108.0
67.475121 224.0
67.491478 176.0
67.516006 140.0
67.556892 92.0
67.569984 52.0
67.594879 184.0
67.623985 200.0
67.659149 256.0
67.688652 36.0
67.704208 92.0
67.757614 192.0
67.777924 132.0
67.797592 168.0
67.815544 184.0
67.842148 172.0
67.854965 36.0
67.876877 208.0
67.889236 124.0
67.924316 128.0
67.936966 112.0
67.958687 140.0
67.976479 96.0
68.014091 112.0
68.040352 128.0
68.075432 356.0
68.10836 160.0
68.148758 72.0
68.189316 268.0
68.210258 188.0
68.2509 196.0
68.278893 168.0
68.306778 188.0
68.346069 136.0
68.369804 188.0
68.451416 224.0
68.499176 60.0
68.521591 200.0
68.542015 120.0
68.568382 184.0
68.587944 152.0
68.639275 56.0
68.659058 268.0
68.691193 164.0
68.738243 148.0
68.759697 148.0
68.774765 156.0
68.799316 108.0
68.814171 196.0
68.851822 120.0
68.896751 228.0
68.908318 132.0
68.944069 164.0
68.971115 180.0
69.004807 148.0
69.011971 56.0
69.020966 212.0
69.051735 216.0
69.066132 112.0
69.095146 104.0
69.11647 332.0
69.120567 120.0
69.146439 148.0
69.161339 112.0
69.18782 52.0
69.229546 164.0
69.244194 188.0
69.268967 48.0
69.282219 160.0
69.302101 140.0
69.339958 128.0
69.374451 232.0
69.38829 128.0
69.406532 144.0
69.434723 112.0
69.464577 140.0
69.510948 240.0
69.530548 148.0
69.543221 172.0
69.557503 148.0
69.58905 84.0
69.601654 128.0
69.630562 124.0
69.643852 128.0
69.66127 156.0
69.675148 148.0
69.687042 204.0
69.713989 144.0
69.764229 172.0
69.787231 172.0
69.82003 200.0
69.84436 152.0
69.919853 140.0
69.971451 168.0
69.983109 212.0
69.995758 216.0
70.013084 152.0
70.071381 116.0
70.103645 188.0
70.133041 288.0
70.165741 208.0
70.178055 216.0
70.198059 160.0
70.223076 64.0
70.240669 248.0
70.273804 148.0
70.296486 160.0
70.333099 192.0
70.361282 156.0
70.389969 132.0
70.445778 288.0
70.471817 164.0
70.493538 144.0
70.508575 212.0
70.53479 180.0
70.570427 152.0
70.583809 216.0
70.609863 172.0
70.64032 152.0
70.680428 136.0
70.693352 152.0
70.710945 112.0
70.726387 196.0
70.754471 176.0
70.786285 180.0
70.808052 132.0
70.840675 244.0
70.863335 188.0
70.893494 196.0
70.953842 136.0
70.999115 392.0
71.042725 128.0
71.061905 168.0
71.087051 308.0
71.10817 116.0
71.128311 136.0
71.165245 56.0
71.180351 132.0
71.222382 164.0
71.240822 144.0
71.2761 164.0
71.291229 124.0
71.339973 232.0
71.366585 140.0
71.404457 132.0
71.427917 280.0
71.491531 220.0
71.531746 184.0
71.56205 192.0
71.587303 100.0
71.612778 160.0
71.660843 152.0
71.675926 164.0
71.691757 144.0
71.708611 84.0
71.723869 148.0
71.769295 176.0
71.791214 112.0
71.80471 132.0
71.84182 124.0
71.854324 164.0
71.949165 172.0
71.971779 172.0
71.988663 136.0
72.002174 224.0
72.015945 184.0
72.056229 144.0
72.086647 76.0
72.111992 168.0
72.145798 60.0
72.162704 180.0
72.186996 260.0
72.223587 180.0
72.298561 236.0
72.322044 64.0
72.327454 84.0
72.334312 148.0
72.371552 192.0
72.409775 188.0
72.440262 212.0
72.466255 220.0
72.486008 136.0
72.501259 148.0
72.519905 284.0
72.543633 52.0
72.570763 216.0
72.589409 200.0
72.604584 148.0
72.626671 132.0
72.669456 188.0
72.725395 212.0
72.757393 32.0
72.775887 180.0
72.8032 184.0
72.866081 348.0
72.912483 184.0
72.942558 236.0
72.976837 184.0
73.008873 160.0
73.071808 160.0
73.092125 140.0
73.165413 168.0
73.177238 148.0
73.224731 196.0
73.253967 216.0
73.274414 184.0
73.377319 232.0
73.409584 148.0
73.432945 140.0
73.448296 108.0
73.477295 188.0
73.490952 152.0
73.574577 128.0
73.589943 196.0
73.602707 228.0
73.64801 160.0
73.685432 136.0
73.701859 148.0
73.719765 200.0
73.740273 296.0
73.752899 196.0
73.771446 220.0
73.788139 92.0
73.822334 228.0
73.836609 220.0
73.881424 176.0
73.916893 276.0
73.940376 196.0
73.993446 196.0
74.034538 136.0
74.058517 156.0
74.080788 112.0
74.097916 236.0
74.109909 164.0
74.123619 104.0
74.167717 148.0
74.205788 128.0
74.214928 164.0
74.22757 200.0
74.237305 188.0
74.254807 244.0
74.289467 192.0
74.310516 104.0
74.338776 160.0
74.380165 172.0
74.449562 164.0
74.472984 176.0
74.486435 332.0
74.511398 136.0
74.533737 128.0
74.550919 64.0
74.569824 88.0
74.632576 372.0
74.647186 104.0
74.695343 172.0
74.715988 228.0
74.740074 188.0
74.776093 112.0
74.798592 172.0
74.817528 116.0
74.834747 196.0
74.854248 140.0
74.867462 120.0
74.881241 268.0
74.92086 92.0
74.975807 216.0
74.996719 164.0
75.028854 348.0
75.042671 112.0
75.06337 164.0
75.120201 332.0
75.138084 52.0
75.155342 192.0
75.177773 212.0
75.209633 220.0
75.236458 160.0
75.251999 136.0
75.28653 220.0
75.312439 192.0
75.341339 164.0
75.357353 56.0
75.381546 152.0
75.407471 176.0
75.447227 80.0
75.462784 156.0
75.48278 192.0
75.500832 212.0
75.523315 164.0
75.559906 156.0
75.576942 132.0
75.623672 192.0
75.640976 136.0
75.660614 140.0
75.68174 288.0
75.708504 212.0
75.731018 120.0
75.745766 156.0
75.761833 168.0
75.781807 140.0
75.819382 140.0
75.892189 276.0
75.928604 176.0
75.947411 180.0
75.96067 180.0
75.972878 184.0
76.027496 144.0
76.063942 156.0
76.084778 188.0
76.096931 100.0
76.119499 164.0
76.164215 172.0
76.189217 172.0
76.206352 136.0
76.255005 188.0
76.30368 144.0
76.322807 184.0
76.340195 116.0
76.373146 200.0
76.398392 184.0
76.438225 408.0
76.456757 276.0
76.488083 392.0
76.536568 236.0
76.566803 136.0
76.616951 136.0
76.646568 140.0
76.709312 112.0
76.73629 196.0
76.752899 224.0
76.769356 256.0
76.808273 160.0
76.841858 116.0
76.865654 144.0
76.897697 72.0
76.916901 116.0
76.957291 180.0
77.013733 132.0
77.027306 160.0
77.047874 200.0
77.060104 104.0
77.138939 184.0
77.185951 144.0
77.203239 176.0
77.245415 120.0
77.280403 104.0
77.296211 124.0
77.311905 108.0
77.336456 144.0
77.359291 168.0
77.408188 200.0
77.455475 72.0
77.476929 196.0
77.49752 40.0
77.558235 268.0
77.583809 208.0
77.616821 184.0
77.63694 184.0
77.651787 136.0
77.687263 124.0
77.717392 200.0
77.758621 180.0
77.778572 124.0
77.799324 152.0
77.839569 204.0
77.877899 184.0
77.929153 188.0
77.951157 164.0
77.97934 216.0
78.013191 176.0
78.034607 148.0
78.065948 180.0
78.068336 220.0
78.103195 64.0
78.129578 132.0
78.143433 160.0
78.189407 124.0
78.212288 136.0
78.240158 188.0
78.267754 316.0
78.295967 152.0
78.309128 160.0
78.330513 116.0
78.371552 152.0
78.416611 124.0
78.443909 320.0
78.46949 56.0
78.494179 160.0
78.5103 112.0
78.545509 152.0
78.574112 164.0
78.621193 116.0
78.68235 148.0
78.689415 80.0
78.695923 120.0
78.718285 184.0
78.736 136.0
78.767845 132.0
78.799538 160.0
78.84874 180.0
78.910568 204.0
78.929703 200.0
78.975914 204.0
78.987656 216.0
79.014038 112.0
79.038239 156.0
79.055931 152.0
79.070091 160.0
79.100182 140.0
79.18103 188.0
79.213516 200.0
79.231232 164.0
79.279076 180.0
79.298569 156.0
79.326927 172.0
79.340034 184.0
79.373451 252.0
79.403175 120.0
79.436684 148.0
79.447876 236.0
79.47036 160.0
79.529663 412.0
79.555771 220.0
79.616776 124.0
79.636063 140.0
79.741058 220.0
79.761841 208.0
79.794823 152.0
79.819778 196.0
79.834732 152.0
79.857857 208.0
79.885391 216.0
79.899628 116.0
79.925461 204.0
79.941078 36.0
79.947571 168.0
79.96888 140.0
80.009186 180.0
80.041161 192.0
80.077164 368.0
80.093384 160.0
80.112404 112.0
80.138618 140.0
80.150078 192.0
80.186295 172.0
80.206062 228.0
80.237152 120.0
80.329346 184.0
80.392334 120.0
80.433388 164.0
80.448769 240.0
80.486946 140.0
80.504807 84.0
80.526199 188.0
80.53299 184.0
80.592331 272.0
80.663818 88.0
80.68885 116.0
80.713882 144.0
80.735344 176.0
80.762169 196.0
80.803314 200.0
80.848045 188.0
80.860573 216.0
80.925919 144.0
80.956337 172.0
80.99865 180.0
81.020081 104.0
81.041176 160.0
81.071648 168.0
81.097 164.0
81.145401 168.0
81.170502 132.0
81.195251 140.0
81.206726 404.0
81.236862 196.0
81.258392 92.0
81.286247 128.0
81.305321 132.0
81.325562 204.0
81.351715 164.0
81.406113 176.0
81.429573 200.0
81.446663 32.0
81.484612 116.0
81.507973 236.0
81.522346 156.0
81.552902 172.0
81.589905 192.0
81.633804 140.0
81.660782 248.0
81.692673 148.0
81.746468 176.0
81.770561 312.0
81.849747 128.0
81.865952 128.0
81.878555 212.0
81.909241 164.0
81.936203 160.0
81.9748 104.0
82.001076 220.0
82.03228 128.0
82.065804 308.0
82.087608 144.0
82.121735 212.0
82.148933 124.0
82.19043 176.0
82.210854 188.0
82.226517 128.0
82.248177 160.0
82.296921 144.0
82.370972 180.0
82.387634 196.0
82.410713 132.0
82.49144 168.0
82.498177 112.0
82.533623 188.0
82.592346 164.0
82.605972 140.0
82.638535 168.0
82.676941 160.0
82.683533 120.0
82.714546 108.0
82.736267 128.0
82.757996 116.0
82.773872 52.0
82.796021 148.0
82.808266 116.0
82.822212 184.0
82.83606 116.0
82.848549 176.0
82.872902 208.0
82.892036 204.0
82.932312 360.0
82.943527 136.0
82.980103 116.0
83.008049 140.0
83.034142 260.0
83.071175 164.0
83.096931 200.0
83.132118 220.0
83.180161 172.0
83.185173 148.0
83.222786 316.0
83.24691 236.0
83.280281 136.0
83.305984 160.0
83.325699 84.0
83.343864 180.0
83.362038 32.0
83.4002 92.0
83.459129 136.0
83.467339 56.0
83.473969 132.0
83.529541 188.0
83.60199 148.0
83.682175 160.0
83.705849 104.0
83.742531 168.0
83.769592 152.0
83.799583 156.0
83.841827 180.0
83.946968 264.0
83.97229 200.0
83.997391 176.0
84.033318 144.0
84.05584 320.0
84.077744 256.0
84.10434 168.0
84.147659 224.0
84.176262 120.0
84.179977 156.0
84.194588 176.0
84.216133 200.0
84.251205 136.0
84.271309 224.0
84.28376 132.0
84.324051 176.0
84.34903 196.0
84.368629 188.0
84.433998 96.0
84.448044 112.0
84.470581 104.0
84.487045 28.0
84.532784 164.0
84.549255 156.0
84.575363 148.0
84.619057 188.0
84.650391 180.0
84.671921 108.0
84.721718 172.0
84.767181 156.0
84.803841 124.0
84.819077 308.0
84.860664 116.0
84.946724 176.0
84.990898 108.0
85.019951 172.0
85.086334 164.0
85.110207 248.0
85.155022 148.0
85.158455 204.0
85.187347 132.0
85.279221 136.0
85.2976 144.0
85.323341 96.0
85.343559 140.0
85.372986 96.0
85.41362 128.0
85.446564 148.0
85.46833 168.0
85.498543 176.0
85.573555 176.0
85.59111 164.0
85.630646 64.0
85.673012 172.0
85.716362 136.0
85.743668 156.0
85.766548 328.0
85.805565 160.0
85.811401 264.0
85.886322 212.0
85.891602 152.0
85.923737 44.0
85.940346 152.0
85.953262 108.0
85.966179 52.0
86.004852 180.0
86.028297 128.0
86.121384 188.0
86.150818 108.0
86.187019 176.0
86.214287 148.0
86.24958 144.0
86.273224 188.0
86.287582 212.0
86.301468 164.0
86.337357 196.0
86.372345 148.0
86.429977 168.0
86.455025 264.0
86.49292 168.0
86.521484 372.0
86.544762 180.0
86.568832 120.0
86.594765 108.0
86.61557 172.0
86.644775 172.0
86.760048 220.0
86.842819 176.0
86.865387 160.0
86.926857 296.0
86.995285 168.0
87.013847 108.0
87.039848 156.0
87.057594 136.0
87.114532 144.0
87.142006 132.0
87.161827 144.0
87.19735 204.0
87.200279 112.0
87.260956 208.0
87.297096 192.0
87.329765 128.0
87.344055 204.0
87.375473 140.0
87.404724 176.0
87.41291 52.0
87.416595 160.0
87.435692 184.0
87.465378 140.0
87.496284 140.0
87.524124 356.0
87.55584 136.0
87.569481 196.0
87.572685 156.0
87.581413 120.0
87.60865 136.0
87.690659 72.0
87.711784 148.0
87.737572 124.0
87.750626 140.0
87.771706 184.0
87.79911 76.0
87.818161 280.0
87.847603 28.0
87.877457 108.0
87.89238 100.0
87.924477 160.0
87.953972 128.0
88.00251 60.0
88.068657 176.0
88.120178 40.0
88.150566 316.0
88.16378 180.0
88.181793 148.0
88.234184 40.0
88.255112 360.0
88.274055 160.0
88.321045 264.0
88.372589 180.0
88.405228 156.0
88.435692 208.0
88.470573 124.0
88.536835 124.0
88.563538 184.0
88.601006 156.0
88.64035 120.0
88.657532 156.0
88.672211 208.0
88.704742 160.0
88.756569 164.0
88.797829 184.0
88.842468 140.0
88.872475 172.0
88.887878 196.0
88.914154 132.0
88.958298 168.0
88.972984 152.0
88.99675 116.0
89.037598 388.0
89.074745 144.0
89.101242 176.0
89.133873 52.0
89.147026 72.0
89.173332 132.0
89.20153 132.0
89.216568 148.0
89.237251 168.0
89.254173 148.0
89.271095 140.0
89.30307 156.0
89.335045 200.0
89.359268 160.0
89.393654 160.0
89.439056 176.0
89.519501 200.0
89.568466 184.0
89.585426 160.0
89.601585 104.0
89.630638 224.0
89.664406 192.0
89.704147 152.0
89.764481 156.0
89.777679 180.0
89.795021 204.0
89.843697 136.0
89.873016 104.0
89.890869 132.0
89.915398 80.0
89.928612 180.0
89.95504 152.0
89.972031 204.0
89.985062 164.0
90.024231 136.0
90.045586 448.0
90.064339 252.0
90.106735 136.0
90.121193 192.0
90.164696 136.0
90.180946 196.0
90.194939 148.0
90.219513 224.0
90.238419 64.0
90.262962 148.0
90.291367 168.0
90.308388 44.0
90.340546 140.0
90.382172 160.0
90.44841 368.0
90.501472 152.0
90.522247 120.0
90.537399 148.0
90.574837 204.0
90.600395 232.0
90.62075 164.0
90.645279 148.0
90.670013 140.0
90.692184 172.0
90.713615 160.0
90.732567 132.0
90.750763 328.0
90.782936 108.0
90.851089 148.0
90.889214 144.0
90.931404 176.0
90.938126 144.0
90.945732 228.0
90.99054 144.0
90.99781 140.0
91.031563 236.0
91.054008 3680.0
91.08123 176.0
91.133041 112.0
91.149162 140.0
91.173851 312.0
91.21286 136.0
91.248978 96.0
91.296516 124.0
91.325851 228.0
91.342163 140.0
91.378311 176.0
91.44561 240.0
91.469658 200.0
91.486794 188.0
91.540108 180.0
91.562912 176.0
91.596375 348.0
91.624611 120.0
91.646774 128.0
91.676125 200.0
91.710983 116.0
91.732544 180.0
91.765884 204.0
91.815414 152.0
91.83551 128.0
91.848862 144.0
91.909019 292.0
91.9748 116.0
91.996262 136.0
92.021904 256.0
92.058434 808.0
92.072342 260.0
92.108467 140.0
92.149063 240.0
92.174858 164.0
92.219177 140.0
92.256218 204.0
92.276642 192.0
92.349304 248.0
92.395218 128.0
92.410522 80.0
92.444969 240.0
92.474106 176.0
92.563652 156.0
92.611534 200.0
92.672478 160.0
92.688164 168.0
92.716911 128.0
92.748909 212.0
92.776733 152.0
92.797997 204.0
92.821625 32.0
92.862617 148.0
92.87796 240.0
92.92453 160.0
92.947029 192.0
92.963463 220.0
92.996925 288.0
93.014206 172.0
93.039871 340.0
93.067543 480.0
93.085831 164.0
93.10408 128.0
93.127167 212.0
93.156303 204.0
93.28698 340.0
93.302361 184.0
93.327354 104.0
93.382347 220.0
93.401154 132.0
93.425446 140.0
93.450455 60.0
93.494713 144.0
93.523041 196.0
93.56208 56.0
93.609146 208.0
93.633331 164.0
93.646812 164.0
93.664459 148.0
93.694969 212.0
93.729652 140.0
93.764336 156.0
93.789398 144.0
93.815826 180.0
93.839516 340.0
93.870369 144.0
93.947517 360.0
93.988037 176.0
94.003471 120.0
94.041145 768.0
94.075165 308.0
94.09948 168.0
94.148911 196.0
94.169693 208.0
94.18882 128.0
94.217796 180.0
94.237122 128.0
94.277702 108.0
94.297028 308.0
94.333748 120.0
94.349068 156.0
94.371834 204.0
94.390068 156.0
94.409157 232.0
94.438171 48.0
94.461014 240.0
94.484596 176.0
94.503944 184.0
94.517487 88.0
94.594902 92.0
94.618134 140.0
94.645241 124.0
94.666542 152.0
94.691414 204.0
94.750366 452.0
94.813873 292.0
94.826401 132.0
94.850601 208.0
94.868668 164.0
94.881287 304.0
94.943672 140.0
94.957245 192.0
94.988281 92.0
95.023201 144.0
95.04818 404.0
95.116287 340.0
95.155182 132.0
95.22509 144.0
95.248398 192.0
95.311966 172.0
95.339714 84.0
95.382477 104.0
95.452919 172.0
95.487877 228.0
95.503952 124.0
95.537689 132.0
95.563339 224.0
95.621719 144.0
95.68985 164.0
95.718605 120.0
95.721642 184.0
95.729942 88.0
95.759956 132.0
95.814293 172.0
95.827751 164.0
95.845673 168.0
95.878212 80.0
95.898293 208.0
95.944283 128.0
95.982033 184.0
96.011909 336.0
96.05513 164.0
96.073792 128.0
96.10305 100.0
96.132324 164.0
96.18309 336.0
96.220284 184.0
96.250618 200.0
96.274834 100.0
96.331474 180.0
96.358826 120.0
96.41124 180.0
96.468269 60.0
96.493683 160.0
96.511284 256.0
96.524971 136.0
96.559532 172.0
96.57386 132.0
96.616165 160.0
96.622139 100.0
96.627106 128.0
96.659943 160.0
96.679512 112.0
96.723869 152.0
96.768776 180.0
96.782829 72.0
96.803406 208.0
96.818146 108.0
96.859009 108.0
96.877274 128.0
96.926254 156.0
96.949768 112.0
97.017754 152.0
97.047829 176.0
97.062668 152.0
97.080261 156.0
97.124268 132.0
97.138 124.0
97.170494 308.0
97.253769 152.0
97.302849 180.0
97.31855 196.0
97.340149 128.0
97.362122 64.0
97.393127 148.0
97.420563 136.0
97.44622 188.0
97.468025 164.0
97.495399 164.0
97.539116 208.0
97.56443 136.0
97.599533 208.0
97.626007 232.0
97.707634 100.0
97.713921 180.0
97.729858 172.0
97.761711 216.0
97.770134 292.0
97.80217 116.0
97.82579 184.0
97.853348 212.0
97.894699 172.0
97.910454 72.0
97.926155 128.0
97.941971 160.0
97.96167 144.0
98.000755 208.0
98.020775 136.0
98.083847 112.0
98.096901 152.0
98.134689 144.0
98.172569 176.0
98.192291 68.0
98.210037 240.0
98.262619 184.0
98.283035 120.0
98.326447 164.0
98.340263 296.0
98.384125 128.0
98.40316 164.0
98.410866 108.0
98.413887 260.0
98.446083 148.0
98.464653 132.0
98.501984 200.0
98.54512 136.0
98.569351 160.0
98.606316 216.0
98.644455 108.0
98.697838 72.0
98.749115 168.0
98.822449 136.0
98.879837 144.0
98.931442 176.0
98.95649 160.0
98.99202 168.0
98.998199 160.0
99.00605 144.0
99.015236 124.0
99.024162 192.0
99.031357 160.0
99.036888 212.0
99.069221 252.0
99.103561 160.0
99.127388 140.0
99.153152 140.0
99.16861 160.0
99.175385 128.0
99.183517 188.0
99.206764 172.0
99.238396 164.0
99.266632 100.0
99.28598 156.0
99.305817 60.0
99.339539 140.0
99.356667 208.0
99.390945 132.0
99.434784 168.0
99.448677 152.0
99.475983 180.0
99.502968 148.0
99.530067 200.0
99.567802 156.0
99.587662 356.0
99.654663 176.0
99.686707 192.0
99.746628 212.0
99.796326 172.0
99.832123 180.0
99.85701 184.0
99.89595 176.0
99.973366 60.0
99.989059 212.0
100.01516 304.0
100.036812 160.0
100.08313 168.0
100.128654 40.0
100.174461 168.0
100.195457 176.0
100.209778 132.0
100.23822 216.0
100.265816 156.0
100.305984 180.0
100.325516 196.0
100.371773 160.0
100.394547 124.0
100.409668 64.0
100.430237 128.0
100.449562 172.0
100.480507 208.0
100.553314 132.0
100.594551 188.0
100.609917 192.0
100.637161 136.0
100.72142 188.0
100.735672 180.0
100.756355 236.0
100.779121 328.0
100.798958 124.0
100.85891 188.0
100.882851 160.0
100.927856 160.0
100.949226 184.0
100.997276 264.0
101.010094 132.0
101.029907 220.0
101.048897 148.0
101.068901 116.0
101.094421 180.0
101.21302 56.0
101.231544 160.0
101.262421 204.0
101.270096 136.0
101.303146 160.0
101.323349 148.0
101.343216 160.0
101.365776 140.0
101.379829 268.0
101.39933 104.0
101.423378 44.0
101.442383 92.0
101.46949 40.0
101.485527 148.0
101.522537 176.0
101.557625 156.0
101.581795 104.0
101.60186 60.0
101.653564 140.0
101.688141 108.0
101.720261 184.0
101.740334 172.0
101.840019 168.0
101.845947 108.0
101.907028 212.0
101.94722 132.0
101.979378 116.0
101.993446 172.0
102.046211 1072.0
102.069717 196.0
102.110435 500.0
102.130768 176.0
102.172096 228.0
102.196754 172.0
102.21669 92.0
102.232788 108.0
102.263184 192.0
102.289734 164.0
102.305649 60.0
102.331131 232.0
102.367462 244.0
102.394814 108.0
102.44017 92.0
102.468307 112.0
102.475395 108.0
102.555649 156.0
102.574455 132.0
102.620155 196.0
102.645752 248.0
102.663902 88.0
102.692139 132.0
102.713181 212.0
102.734703 120.0
102.757545 208.0
102.790993 248.0
102.83741 164.0
102.868027 192.0
102.896004 196.0
102.91523 168.0
102.94239 224.0
102.956169 156.0
102.99086 220.0
103.011063 212.0
103.054153 18988.0
103.08889 152.0
103.111862 140.0
103.13932 264.0
103.181107 240.0
103.201042 152.0
103.248497 136.0
103.271385 148.0
103.29686 148.0
103.355934 180.0
103.409058 188.0
103.451912 144.0
103.508606 36.0
103.52475 152.0
103.53241 148.0
103.539467 116.0
103.574699 132.0
103.606804 224.0
103.635361 152.0
103.694397 176.0
103.723358 176.0
103.740295 68.0
103.75985 128.0
103.806801 164.0
103.830826 180.0
103.852966 144.0
103.894073 132.0
103.931313 152.0
103.966751 204.0
104.021584 268.0
104.060974 5540.0
104.157608 168.0
104.170822 128.0
104.198235 140.0
104.262871 168.0
104.271049 96.0
104.280106 152.0
104.299843 184.0
104.321259 112.0
104.386604 196.0
104.419807 176.0
104.444214 140.0
104.470657 52.0
104.496948 152.0
104.525894 164.0
104.568329 144.0
104.596825 212.0
104.634026 184.0
104.682335 108.0
104.71151 320.0
104.731606 272.0
104.755661 72.0
104.775215 140.0
104.803436 152.0
104.821579 68.0
104.843277 180.0
104.870697 132.0
104.895836 188.0
104.910492 168.0
104.933823 152.0
104.945282 192.0
104.983467 188.0
104.98671 228.0
105.007172 112.0
105.031113 1368.0
105.050606 424.0
105.069725 36992.0
105.115387 120.0
105.132721 160.0
105.170334 96.0
105.174408 124.0
105.184792 100.0
105.188507 208.0
105.239014 60.0
105.279907 148.0
105.329216 72.0
105.34317 120.0
105.367691 204.0
105.387947 96.0
105.404282 44.0
105.460838 48.0
105.490562 216.0
105.519608 288.0
105.574142 124.0
105.600029 212.0
105.638641 224.0
105.65596 84.0
105.684601 128.0
105.727966 292.0
105.770897 180.0
105.786934 132.0
105.809456 152.0
105.837433 228.0
105.88073 188.0
105.943596 104.0
105.965111 168.0
105.981743 268.0
105.998711 160.0
106.017395 116.0
106.038628 264.0
106.072395 3772.0
106.113594 116.0
106.142387 124.0
106.172142 204.0
106.204956 80.0
106.224319 72.0
106.243935 40.0
106.265945 148.0
106.297279 180.0
106.328545 136.0
106.364487 176.0
106.389641 104.0
106.429535 196.0
106.447136 60.0
106.486153 52.0
106.556 36.0
106.58065 140.0
106.59726 196.0
106.643356 204.0
106.660042 108.0
106.683418 180.0
106.718727 208.0
106.737717 136.0
106.802681 160.0
106.82531 88.0
106.853943 284.0
106.909721 156.0
106.933456 172.0
106.952522 112.0
106.968765 316.0
106.999901 192.0
107.017838 220.0
107.023918 120.0
107.048416 13448.0
107.084785 428.0
107.118614 100.0
107.146332 60.0
107.169128 32.0
107.183556 92.0
107.197983 44.0
107.222282 136.0
107.227135 108.0
107.236267 152.0
107.239662 196.0
107.26545 144.0
107.315475 92.0
107.350029 148.0
107.384407 112.0
107.410339 44.0
107.427933 144.0
107.4757 176.0
107.491287 204.0
107.520386 184.0
107.550652 128.0
107.579552 140.0
107.598137 120.0
107.624756 184.0
107.736046 304.0
107.814117 164.0
107.826607 172.0
107.836426 124.0
107.840706 216.0
107.917953 116.0
107.932854 188.0
107.962288 212.0
108.027061 240.0
108.053329 3380.0
108.087997 136.0
108.129387 168.0
108.145943 204.0
108.19976 172.0
108.214256 88.0
108.257973 144.0
108.27845 156.0
108.327553 136.0
108.334953 188.0
108.364464 176.0
108.401443 132.0
108.43647 164.0
108.471146 60.0
108.49395 280.0
108.53334 44.0
108.554688 164.0
108.581039 180.0
108.595558 144.0
108.610077 180.0
108.628746 124.0
108.647415 216.0
108.668167 104.0
108.684761 184.0
108.732491 196.0
108.747025 232.0
108.765701 360.0
108.784386 148.0
108.821754 120.0
108.836288 168.0
108.863258 172.0
108.899506 136.0
108.98584 160.0
109.033638 172.0
109.063416 1908.0
109.087685 100.0
109.108421 164.0
109.16877 152.0
109.193726 152.0
109.212555 152.0
109.240204 184.0
109.310226 144.0
109.345604 88.0
109.374748 32.0
109.412102 148.0
109.470306 196.0
109.490974 180.0
109.526245 132.0
109.576752 228.0
109.597588 160.0
109.643433 120.0
109.666359 216.0
109.687202 184.0
109.705872 88.0
109.728897 116.0
109.764343 140.0
109.793541 156.0
109.816483 168.0
109.862587 192.0
109.879517 200.0
109.910355 132.0
109.937485 232.0
109.968788 164.0
110.00219 72.0
110.03849 236.0
110.055489 128.0
110.07357 148.0
110.105545 312.0
110.137917 148.0
110.173431 124.0
110.213547 160.0
110.234024 32.0
110.263283 124.0
110.28347 160.0
110.298706 156.0
110.325989 176.0
110.346901 132.0
110.40374 216.0
110.452278 164.0
110.497482 124.0
110.535149 44.0
110.564758 164.0
110.630852 204.0
110.706055 156.0
110.769638 156.0
110.805252 136.0
110.836685 176.0
110.905838 72.0
110.989601 172.0
111.041 312.0
111.069397 104.0
111.111786 116.0
111.130234 40.0
111.149117 128.0
111.165909 80.0
111.208061 92.0
111.230972 232.0
111.32563 184.0
111.438431 204.0
111.45359 148.0
111.51358 212.0
111.544502 248.0
111.59021 92.0
111.69957 120.0
111.7164 100.0
111.735336 148.0
111.765579 160.0
111.782761 236.0
111.818985 196.0
111.847282 284.0
111.861977 356.0
111.912354 148.0
111.943718 156.0
112.015656 180.0
112.049034 124.0
112.067513 140.0
112.096069 160.0
112.148727 180.0
112.16494 156.0
112.181396 228.0
112.210785 192.0
112.245056 248.0
112.289337 176.0
112.318123 192.0
112.34034 224.0
112.369499 200.0
112.39904 64.0
112.481354 232.0
112.50457 72.0
112.548912 160.0
112.565804 184.0
112.580582 188.0
112.681976 180.0
112.698875 172.0
112.717896 168.0
112.746178 136.0
112.793983 120.0
112.874321 156.0
112.889122 100.0
112.931419 136.0
112.969437 148.0
113.013924 156.0
113.068039 128.0
113.096458 200.0
113.12603 220.0
113.173416 160.0
113.210518 212.0
113.218994 160.0
113.225838 200.0
113.257324 132.0
113.262352 128.0
113.295517 160.0
113.312462 52.0
113.356964 40.0
113.409386 272.0
113.417702 200.0
113.445984 116.0
113.462944 140.0
113.512894 152.0
113.573868 224.0
113.600792 160.0
113.640388 180.0
113.644859 140.0
113.653297 132.0
113.675049 60.0
113.711128 144.0
113.731476 176.0
113.757828 36.0
113.79026 144.0
113.808235 156.0
113.822792 160.0
113.852615 212.0
113.886169 380.0
113.900711 236.0
113.91922 240.0
113.946625 204.0
113.969551 208.0
114.031837 124.0
114.046715 120.0
114.087105 204.0
114.140259 124.0
114.163841 176.0
114.191574 336.0
114.376678 140.0
114.406212 80.0
114.459442 104.0
114.519073 144.0
114.538383 208.0
114.570114 296.0
114.588425 108.0
114.606842 220.0
114.638382 108.0
114.700188 60.0
114.725769 140.0
114.76841 144.0
114.813622 140.0
114.838783 108.0
114.862488 144.0
114.968933 208.0
115.032089 244.0
115.05201 864.0
115.086334 212.0
115.120499 56.0
115.154671 224.0
115.187637 240.0
115.225166 156.0
115.244919 196.0
115.274315 100.0
115.293541 184.0
115.308502 244.0
115.327744 44.0
115.344841 216.0
115.413254 92.0
115.430359 76.0
115.503075 120.0
115.526611 88.0
115.541588 136.0
115.571541 152.0
115.588654 56.0
115.605774 156.0
115.673409 180.0
115.694801 108.0
115.727791 204.0
115.79203 104.0
115.869148 176.0
115.888428 100.0
115.944145 184.0
115.994499 136.0
116.06292 188.0
116.089928 176.0
116.110619 136.0
116.145691 68.0
116.179558 312.0
116.225067 156.0
116.26799 104.0
116.309059 204.0
116.334526 156.0
116.354973 236.0
116.417191 152.0
116.444283 140.0
116.494972 320.0
116.534576 164.0
116.551453 152.0
116.648163 56.0
116.711746 200.0
116.746544 148.0
116.784958 208.0
116.816238 164.0
116.836487 84.0
116.884087 196.0
116.931068 128.0
116.953613 140.0
116.968681 56.0
117.003128 204.0
117.032356 132.0
117.045349 196.0
117.069672 548.0
117.115105 104.0
117.157082 172.0
117.208672 176.0
117.24395 204.0
117.278862 104.0
117.298256 172.0
117.317657 220.0
117.462143 192.0
117.490189 60.0
117.505295 160.0
117.531181 128.0
117.567871 116.0
117.620186 300.0
117.665001 196.0
117.682274 120.0
117.730583 312.0
117.820259 176.0
117.846428 300.0
117.860237 112.0
117.880524 144.0
117.914299 168.0
117.947998 176.0
117.986916 184.0
118.040421 12428.0
118.090706 36.0
118.127571 196.0
118.144791 116.0
118.163498 68.0
118.194145 140.0
118.22052 156.0
118.253639 156.0
118.286438 184.0
118.303223 248.0
118.346069 144.0
118.386009 176.0
118.43486 112.0
118.463715 212.0
118.49601 148.0
118.538849 44.0
118.589294 204.0
118.619179 192.0
118.654701 188.0
118.703598 184.0
118.720947 228.0
118.746857 148.0
118.777344 104.0
118.816391 96.0
118.854362 176.0
118.861755 88.0
118.871201 168.0
118.903183 68.0
118.92923 76.0
118.952209 184.0
118.974152 104.0
118.989235 172.0
119.015274 76.0
119.048401 9928.0
119.081123 532.0
119.146385 60.0
119.165459 216.0
119.170647 168.0
119.206337 176.0
119.239822 140.0
119.269341 248.0
119.335472 64.0
119.355042 116.0
119.374611 152.0
119.40506 56.0
119.435509 156.0
119.456223 192.0
119.485542 164.0
119.513939 80.0
119.546471 28.0
119.584419 200.0
119.652298 200.0
119.685783 136.0
119.704742 176.0
119.717125 204.0
119.74781 52.0
119.779434 152.0
119.845909 152.0
119.876808 52.0
119.903435 180.0
119.921066 192.0
119.953766 144.0
119.993004 232.0
120.056587 9280.0
120.089874 204.0
120.116737 172.0
120.145256 148.0
120.193672 312.0
120.246429 188.0
120.27224 112.0
120.298431 164.0
120.315895 168.0
120.334793 144.0
120.37249 180.0
120.377762 156.0
120.387398 344.0
120.446922 96.0
120.491966 168.0
120.542511 176.0
120.556366 132.0
120.580208 208.0
120.605148 200.0
120.626106 116.0
120.64711 112.0
120.70919 96.0
120.738823 148.0
120.761681 112.0
120.785736 96.0
120.807617 140.0
120.8256 420.0
120.878899 144.0
120.895973 356.0
120.920303 72.0
120.929695 96.0
120.938736 52.0
120.954689 156.0
121.025246 364.0
121.064362 22948.0
121.096893 180.0
121.123421 156.0
121.140366 176.0
121.169617 148.0
121.216095 196.0
121.239967 168.0
121.276558 52.0
121.309105 108.0
121.324448 196.0
121.346375 204.0
121.395378 172.0
121.440666 100.0
121.48056 176.0
121.497704 284.0
121.547333 84.0
121.59581 156.0
121.622787 40.0
121.638847 240.0
121.681168 208.0
121.701324 160.0
121.754036 112.0
121.796249 112.0
121.812813 304.0
121.840187 148.0
121.855568 32.0
121.884804 120.0
121.934677 196.0
121.996223 104.0
122.036125 644.0
122.071587 7320.0
122.107697 212.0
122.14576 92.0
122.175087 180.0
122.198555 168.0
122.227158 340.0
122.290977 144.0
122.306389 284.0
122.37104 196.0
122.397804 176.0
122.429688 56.0
122.445099 60.0
122.462723 100.0
122.50898 184.0
122.530815 156.0
122.59584 136.0
122.614746 224.0
122.647804 148.0
122.663239 144.0
122.685081 88.0
122.708725 348.0
122.755836 64.0
122.841858 100.0
122.859505 56.0
122.906387 180.0
122.932365 188.0
122.958801 240.0
122.979141 148.0
123.041756 556.0
123.075371 548.0
123.121315 300.0
123.142052 32.0
123.161934 224.0
123.232285 104.0
123.27903 124.0
123.314384 52.0
123.380707 116.0
123.399284 188.0
123.438194 156.0
123.462517 144.0
123.482681 172.0
123.503891 232.0
123.584183 116.0
123.616692 156.0
123.670097 180.0
123.684166 180.0
123.699265 300.0
123.745758 184.0
123.772568 184.0
123.818832 136.0
123.852058 120.0
123.885452 160.0
123.918518 60.0
123.943687 144.0
124.027107 140.0
124.051201 480.0
124.080116 500.0
124.105125 168.0
124.137428 192.0
124.168617 160.0
124.200058 180.0
124.231117 196.0
124.259956 200.0
124.302116 156.0
124.336594 204.0
124.384285 164.0
124.451927 120.0
124.470726 96.0
124.494064 240.0
124.534012 176.0
124.56443 188.0
124.591797 164.0
124.628151 164.0
124.658875 116.0
124.726311 112.0
124.768547 124.0
124.790924 128.0
124.830811 196.0
124.851547 160.0
124.878883 96.0
124.962837 112.0
125.019623 128.0
125.060265 176.0
125.100029 152.0
125.139565 252.0
125.203796 188.0
125.21804 224.0
125.236565 164.0
125.2715 96.0
125.29155 188.0
125.351707 196.0
125.373993 108.0
125.398712 168.0
125.423027 32.0
125.465385 176.0
125.503288 64.0
125.583572 212.0
125.608109 124.0
125.630417 44.0
125.666115 160.0
125.715622 148.0
125.77713 136.0
125.833504 104.0
125.8871 228.0
125.911659 48.0
125.978676 376.0
126.021118 84.0
126.054642 160.0
126.121689 112.0
126.145363 128.0
126.162689 192.0
126.180717 168.0
126.20076 216.0
126.254745 160.0
126.277847 236.0
126.316223 56.0
126.334122 164.0
126.374786 172.0
126.408844 152.0
126.427513 228.0
126.450829 204.0
126.497482 76.0
126.585609 144.0
126.609436 96.0
126.643036 284.0
126.683357 96.0
126.747017 180.0
126.790909 192.0
126.82811 100.0
126.871597 188.0
126.983719 92.0
127.024094 112.0
127.056557 180.0
127.074364 180.0
127.095886 164.0
127.123016 44.0
127.172188 272.0
127.259743 160.0
127.3517 156.0
127.374092 188.0
127.387756 244.0
127.425949 88.0
127.515831 60.0
127.59626 108.0
127.646225 52.0
127.662514 148.0
127.685532 184.0
127.725906 224.0
127.796928 44.0
127.812683 188.0
127.855438 140.0
127.886948 108.0
127.906433 320.0
127.958763 164.0
128.033936 184.0
128.112122 156.0
128.144608 264.0
128.170715 124.0
128.220093 144.0
128.272125 128.0
128.326233 108.0
128.375839 152.0
128.394745 156.0
128.411926 156.0
128.45253 356.0
128.468323 128.0
128.519028 168.0
128.548965 140.0
128.571548 192.0
128.596939 116.0
128.708725 200.0
128.768524 184.0
128.784348 124.0
128.808228 160.0
128.836304 148.0
128.895096 136.0
128.939987 180.0
128.948334 96.0
128.965485 168.0
129.008057 236.0
129.053268 188.0
129.068176 196.0
129.112686 132.0
129.170868 140.0
129.243271 100.0
129.263626 156.0
129.28894 88.0
129.320206 196.0
129.360962 176.0
129.417862 116.0
129.487762 224.0
129.517807 196.0
129.537582 196.0
129.569305 136.0
129.616882 48.0
129.653137 112.0
129.687134 228.0
129.705795 176.0
129.723404 60.0
129.75061 164.0
129.784622 40.0
129.827713 204.0
129.850388 136.0
129.870804 172.0
129.893478 116.0
129.9207 156.0
129.959274 132.0
130.001953 184.0
130.029617 196.0
130.056854 364.0
130.095444 176.0
130.115891 160.0
130.183014 216.0
130.213531 192.0
130.243698 112.0
130.278183 196.0
130.336197 312.0
130.358749 156.0
130.406647 68.0
130.438477 152.0
130.47612 116.0
130.524872 132.0
130.63858 240.0
130.659058 232.0
130.681808 116.0
130.709122 108.0
130.768295 164.0
130.791275 180.0
130.829742 164.0
130.859344 164.0
130.885422 196.0
130.941696 196.0
130.984604 140.0
131.021057 168.0
131.048599 5028.0
131.12587 220.0
131.148666 192.0
131.203369 192.0
131.230728 188.0
131.253754 204.0
131.280899 192.0
131.356171 228.0
131.376694 212.0
131.413193 100.0
131.454269 132.0
131.473694 160.0
131.534149 216.0
131.570679 224.0
131.614059 180.0
131.639175 104.0
131.683533 104.0
131.705414 188.0
131.735107 184.0
131.760239 132.0
131.796799 196.0
131.81279 144.0
131.834274 208.0
131.860779 200.0
131.912537 192.0
131.936218 120.0
131.970505 116.0
132.005966 156.0
132.055374 3672.0
132.092896 88.0
132.130615 164.0
132.152863 176.0
132.18782 128.0
132.215271 168.0
132.25647 84.0
132.298798 180.0
132.307983 164.0
132.351456 244.0
132.403 128.0
132.444229 44.0
132.470428 52.0
132.510666 116.0
132.547745 224.0
132.565659 92.0
132.647781 164.0
132.675217 136.0
132.708817 212.0
132.744461 204.0
132.814743 168.0
132.827698 152.0
132.857422 196.0
132.90274 96.0
132.974182 172.0
133.027618 1680.0
133.064331 40052.0
133.109009 212.0
133.123871 144.0
133.177872 124.0
133.201874 132.0
133.254044 188.0
133.281433 200.0
133.306213 68.0
133.338318 208.0
133.356583 148.0
133.384186 204.0
133.442535 244.0
133.478775 88.0
133.509689 364.0
133.531693 224.0
133.576782 156.0
133.599243 240.0
133.632553 180.0
133.665619 100.0
133.70787 112.0
133.715012 116.0
133.779282 200.0
133.817535 176.0
133.836823 192.0
133.859573 156.0
133.884338 320.0
133.924423 96.0
133.956802 148.0
133.995926 300.0
134.032516 308.0
134.07193 57272.0
134.116058 228.0
134.148209 216.0
134.215927 200.0
134.244751 192.0
134.276321 136.0
134.310715 32.0
134.376266 200.0
134.398376 220.0
134.418533 60.0
134.426315 36.0
134.431168 132.0
134.455719 52.0
134.487183 200.0
134.537125 136.0
134.56102 188.0
134.598892 124.0
134.614151 92.0
134.649521 136.0
134.68158 268.0
134.710464 160.0
134.741409 188.0
134.763199 180.0
134.812469 176.0
134.851318 304.0
134.883362 192.0
134.911102 72.0
134.939423 176.0
134.955811 184.0
134.972275 168.0
135.005478 172.0
135.043518 43648.0
135.079056 18128.0
135.14502 108.0
135.173203 192.0
135.197037 164.0
135.217361 100.0
135.252472 248.0
135.289185 112.0
135.321091 172.0
135.343246 220.0
135.360321 176.0
135.380981 132.0
135.407059 60.0
135.443344 52.0
135.475616 192.0
135.509308 220.0
135.525406 60.0
135.566467 200.0
135.605545 108.0
135.625778 60.0
135.654221 28.0
135.690033 116.0
135.724487 208.0
135.76088 80.0
135.804947 248.0
135.837418 128.0
135.855972 212.0
135.886307 120.0
135.907288 140.0
135.941055 96.0
135.988235 32.0
136.025269 308.0
136.046967 3768.0
136.082642 3068.0
136.146759 136.0
136.167343 228.0
136.194092 92.0
136.221466 100.0
136.262253 128.0
136.273438 108.0
136.305298 176.0
136.33197 108.0
136.366821 64.0
136.391357 276.0
136.422623 84.0
136.474609 88.0
136.514221 140.0
136.548172 144.0
136.582886 468.0
136.623978 164.0
136.655182 40.0
136.671478 164.0
136.693756 128.0
136.738678 132.0
136.756882 120.0
136.785507 88.0
136.814148 204.0
136.839828 96.0
136.906586 120.0
136.931152 204.0
136.961136 152.0
136.988113 164.0
137.005585 80.0
137.056732 936.0
137.094849 1432.0
137.119705 200.0
137.135803 156.0
137.171555 100.0
137.221161 180.0
137.246811 144.0
137.281784 140.0
137.302612 112.0
137.311325 72.0
137.320557 192.0
137.382965 148.0
137.417084 116.0
137.488083 192.0
137.532562 188.0
137.574448 176.0
137.603058 164.0
137.652832 176.0
137.701874 64.0
137.734573 124.0
137.750931 112.0
137.776627 144.0
137.795319 136.0
137.856888 204.0
137.884109 144.0
137.900467 56.0
137.933197 164.0
138.068054 940.0
138.104294 116.0
138.159729 192.0
138.200394 208.0
138.225021 176.0
138.255966 160.0
138.304657 208.0
138.357971 180.0
138.377686 136.0
138.396423 168.0
138.417496 56.0
138.473694 124.0
138.520004 156.0
138.528275 120.0
138.540329 72.0
138.55603 108.0
138.655624 196.0
138.710556 148.0
138.810074 188.0
138.839508 140.0
138.951904 204.0
138.971756 204.0
138.994141 136.0
139.024643 180.0
139.073547 636.0
139.096024 176.0
139.132614 168.0
139.149048 260.0
139.238922 160.0
139.301773 280.0
139.355637 188.0
139.41214 192.0
139.435638 116.0
139.474289 180.0
139.592331 196.0
139.657074 176.0
139.767212 168.0
139.783691 180.0
139.802521 204.0
139.847229 200.0
139.881897 116.0
139.901367 176.0
139.972 48.0
140.061508 56.0
140.082703 84.0
140.144196 116.0
140.179306 180.0
140.196304 188.0
140.261108 232.0
140.362381 216.0
140.422134 208.0
140.438644 156.0
140.511765 148.0
140.5448 332.0
140.56839 284.0
140.624939 184.0
140.648636 196.0
140.672241 156.0
140.764328 168.0
140.79245 132.0
140.795975 120.0
140.805267 180.0
140.841431 160.0
140.877701 132.0
140.940201 212.0
140.970825 188.0
140.991119 148.0
141.021835 136.0
141.076202 88.0
141.127747 160.0
141.161331 248.0
141.176331 104.0
141.193863 148.0
141.227539 56.0
141.260666 164.0
141.289047 180.0
141.352936 76.0
141.376602 144.0
141.4263 140.0
141.476013 128.0
141.535202 196.0
141.565994 72.0
141.607178 164.0
141.622498 408.0
141.677307 172.0
141.707428 124.0
141.743652 152.0
141.767258 176.0
141.807632 180.0
141.876389 152.0
141.896835 160.0
141.904175 100.0
141.91037 132.0
141.942764 148.0
142.033966 168.0
142.073227 144.0
142.09256 160.0
142.182938 184.0
142.253586 160.0
142.298691 172.0
142.324799 92.0
142.381088 120.0
142.38855 152.0
142.448303 172.0
142.529083 56.0
142.609879 72.0
142.659805 136.0
142.707352 176.0
142.744324 200.0
142.772751 140.0
142.795334 160.0
142.87146 168.0
142.900009 52.0
142.978531 156.0
143.082458 188.0
143.116608 28.0
143.145172 140.0
143.180893 108.0
143.26152 132.0
143.335739 44.0
143.368958 212.0
143.385391 216.0
143.401566 400.0
143.425934 156.0
143.457306 104.0
143.480026 152.0
143.500214 192.0
143.539185 116.0
143.55983 68.0
143.595596 112.0
143.617065 136.0
143.643311 144.0
143.723846 200.0
143.750671 120.0
143.783661 160.0
143.84375 172.0
143.880341 184.0
143.936859 132.0
143.953583 176.0
143.976349 152.0
144.05867 40.0
144.075394 108.0
144.142288 80.0
144.162689 144.0
144.192474 176.0
144.249847 156.0
144.271759 200.0
144.340698 88.0
144.397476 156.0
144.412186 108.0
144.415726 172.0
144.448318 36.0
144.522491 148.0
144.623001 164.0
144.661301 124.0
144.696426 172.0
144.771439 56.0
144.788208 80.0
144.809769 164.0
144.891327 76.0
144.909119 168.0
144.939133 116.0
144.965775 136.0
145.040741 180.0
145.047409 220.0
145.087479 616.0
145.152466 168.0
145.184845 388.0
145.211945 160.0
145.229996 220.0
145.260391 176.0
145.293182 264.0
145.345459 88.0
145.392365 120.0
145.413956 184.0
145.437958 264.0
145.481171 80.0
145.526016 188.0
145.554642 200.0
145.584412 144.0
145.621765 176.0
145.639664 72.0
145.846298 32.0
145.879959 152.0
145.908798 128.0
145.968063 168.0
146.068924 700.0
146.093536 128.0
146.115631 132.0
146.149323 140.0
146.169739 124.0
146.188828 48.0
146.216705 184.0
146.310577 184.0
146.377029 300.0
146.465775 232.0
146.505646 52.0
146.534561 340.0
146.589981 224.0
146.606842 132.0
146.657074 212.0
146.688797 124.0
146.753891 168.0
146.778549 124.0
146.814178 144.0
146.855179 124.0
146.884125 88.0
146.938492 160.0
147.016815 176.0
147.042206 276.0
147.077759 456.0
147.113373 56.0
147.164078 172.0
147.267914 64.0
147.313812 116.0
147.381561 172.0
147.409729 200.0
147.434311 92.0
147.472458 164.0
147.548233 144.0
147.588562 316.0
147.607727 132.0
147.634781 156.0
147.712494 184.0
147.735077 216.0
147.836075 152.0
147.862686 164.0
147.884476 144.0
147.916885 72.0
147.954727 204.0
147.983719 80.0
148.015198 140.0
148.083206 132.0
148.138718 208.0
148.184753 348.0
148.233353 212.0
148.252609 112.0
148.284103 52.0
148.302872 140.0
148.357971 144.0
148.381073 88.0
148.451385 96.0
148.473221 204.0
148.543564 176.0
148.602066 204.0
148.625305 156.0
148.674576 204.0
148.715836 244.0
148.780457 148.0
148.792908 180.0
148.802444 172.0
148.843826 212.0
148.868637 184.0
148.901352 128.0
148.927078 152.0
148.968369 148.0
148.995789 156.0
149.058762 9344.0
149.09668 380.0
149.127594 176.0
149.162781 140.0
149.228424 160.0
149.255325 160.0
149.269653 100.0
149.291641 104.0
149.33316 168.0
149.362167 156.0
149.405487 188.0
149.440018 160.0
149.46431 192.0
149.515457 56.0
149.542618 204.0
149.574677 220.0
149.600281 212.0
149.625 84.0
149.643494 168.0
149.659271 208.0
149.684814 204.0
149.6987 104.0
149.725983 152.0
149.780258 364.0
149.827728 128.0
149.845932 512.0
149.874039 96.0
149.900558 180.0
149.918213 392.0
149.952301 164.0
149.979263 188.0
149.998962 500.0
150.026428 372.0
150.037872 348.0
150.067337 185688.0
150.12793 32.0
150.135696 148.0
150.143173 240.0
150.160278 48.0
150.173035 128.0
150.177414 116.0
150.198853 92.0
150.233597 136.0
150.249161 236.0
150.277863 92.0
150.303894 88.0
150.313156 120.0
150.322708 176.0
150.358185 160.0
150.406311 208.0
150.437546 68.0
150.468643 2004.0
150.520264 268.0
150.546692 128.0
150.564102 64.0
150.585037 40.0
150.592361 240.0
150.602722 88.0
150.611496 96.0
150.619003 84.0
150.686096 156.0
150.713638 256.0
150.751755 64.0
150.826385 288.0
150.868912 148.0
150.889999 280.0
150.909988 244.0
150.948883 172.0
150.976807 56.0
151.010849 192.0
151.037979 536.0
151.070465 22628.0
151.146088 184.0
151.172379 108.0
151.217117 36.0
151.247147 192.0
151.311981 148.0
151.340149 192.0
151.374313 156.0
151.397751 168.0
151.463867 128.0
151.490173 152.0
151.533768 196.0
151.574127 76.0
151.596176 200.0
151.639313 100.0
151.656219 64.0
151.708466 172.0
151.723633 224.0
151.75351 128.0
151.781723 180.0
151.815704 44.0
151.844589 172.0
151.855072 100.0
151.866302 232.0
151.91713 120.0
151.93808 116.0
151.96521 132.0
151.991776 436.0
152.035706 144.0
152.075195 1756.0
152.121063 160.0
152.156204 416.0
152.188904 128.0
152.217468 180.0
152.246552 36.0
152.269806 172.0
152.291153 112.0
152.309708 92.0
152.333237 204.0
152.352768 180.0
152.386642 56.0
152.410049 108.0
152.448837 68.0
152.465652 148.0
152.491501 172.0
152.54213 64.0
152.614883 292.0
152.651764 64.0
152.671326 176.0
152.713242 124.0
152.735382 28.0
152.764908 56.0
152.786255 236.0
152.841171 36.0
152.872803 192.0
152.907623 40.0
152.947006 72.0
153.006088 160.0
153.070572 176.0
153.089615 208.0
153.129242 144.0
153.188324 108.0
153.212952 132.0
153.281265 160.0
153.318909 136.0
153.380585 160.0
153.432297 156.0
153.486542 128.0
153.513672 224.0
153.548187 72.0
153.623978 188.0
153.661667 64.0
153.723358 136.0
153.739456 84.0
153.794922 240.0
153.856644 68.0
153.938751 156.0
153.97023 160.0
154.018814 388.0
154.046967 176.0
154.086319 196.0
154.16539 60.0
154.238937 196.0
154.29393 120.0
154.400253 140.0
154.47847 160.0
154.528885 144.0
154.593735 172.0
154.62291 164.0
154.662277 168.0
154.684677 172.0
154.749161 120.0
154.806122 176.0
154.841705 108.0
154.942352 216.0
155.009247 44.0
155.043945 168.0
155.078644 172.0
155.098465 48.0
155.142197 232.0
155.24971 64.0
155.276993 176.0
155.324051 152.0
155.376205 76.0
155.485397 60.0
155.538589 120.0
155.597092 148.0
155.622894 184.0
155.644272 156.0
155.694611 192.0
155.718781 164.0
155.743607 148.0
155.828079 136.0
155.920013 216.0
155.980652 212.0
156.007782 208.0
156.089066 36.0
156.116425 164.0
156.183563 160.0
156.243271 164.0
156.295517 120.0
156.350266 116.0
156.372665 36.0
156.472244 212.0
156.549438 124.0
156.581802 64.0
156.645569 148.0
156.70137 184.0
156.721313 188.0
156.905746 140.0
156.923203 184.0
156.980545 104.0
157.057861 144.0
157.10527 104.0
157.163895 160.0
157.215057 92.0
157.232513 180.0
157.252487 124.0
157.28244 100.0
157.322372 104.0
157.397278 104.0
157.430161 244.0
157.470749 152.0
157.524658 32.0
157.544647 124.0
157.732056 120.0
157.759567 196.0
157.789566 128.0
157.876801 184.0
157.928772 180.0
158.152298 208.0
158.260254 196.0
158.330063 172.0
158.421829 212.0
158.472031 208.0
158.494873 192.0
158.598145 224.0
158.655792 172.0
158.688385 64.0
158.756088 108.0
158.860382 200.0
158.900497 148.0
158.941727 136.0
158.999451 164.0
159.024536 112.0
159.069733 124.0
159.15007 212.0
159.199066 128.0
159.246185 188.0
159.285675 100.0
159.391205 168.0
159.408798 152.0
159.451523 140.0
159.471619 232.0
159.587265 212.0
159.670242 188.0
159.765823 136.0
159.816147 160.0
159.853897 132.0
159.931915 148.0
159.952057 228.0
159.989807 172.0
160.077515 268.0
160.096725 148.0
160.139526 88.0
160.163574 152.0
160.188751 176.0
160.20639 56.0
160.244186 196.0
160.264343 136.0
160.2845 124.0
160.30864 104.0
160.362625 40.0
160.391327 164.0
160.463455 56.0
160.522949 168.0
160.55423 52.0
160.571884 92.0
160.68541 152.0
160.71315 132.0
160.738388 144.0
160.783813 136.0
160.801483 68.0
160.859543 140.0
160.915771 204.0
160.963058 112.0
161.033768 100.0
161.059021 180.0
161.082855 1084.0
161.132431 140.0
161.175674 136.0
161.213913 192.0
161.238419 160.0
161.320389 104.0
161.344574 96.0
161.366699 128.0
161.422958 160.0
161.483658 52.0
161.503891 240.0
161.567139 68.0
161.665817 168.0
161.767059 136.0
161.825287 132.0
161.906311 172.0
161.951904 124.0
161.979767 48.0
162.010162 60.0
162.090012 288.0
162.174103 156.0
162.217972 180.0
162.250931 152.0
162.314316 108.0
162.377716 188.0
162.413223 160.0
162.453812 188.0
162.484253 140.0
162.507996 100.0
162.596054 136.0
162.636307 48.0
162.68808 228.0
162.743134 164.0
162.763458 132.0
162.800217 176.0
162.9133 132.0
162.95903 140.0
163.002228 144.0
163.053055 188.0
163.074234 660.0
163.09845 196.0
163.159821 132.0
163.182022 144.0
163.205582 44.0
163.24118 116.0
163.289505 36.0
163.332153 52.0
163.349945 168.0
163.373444 76.0
163.448883 196.0
163.535278 140.0
163.617752 184.0
163.701782 168.0
163.770889 304.0
163.798569 160.0
163.832794 188.0
163.849777 116.0
163.892014 148.0
163.930222 160.0
163.973022 120.0
164.004959 164.0
164.048294 72.0
164.082016 2140.0
164.125244 156.0
164.167343 128.0
164.195221 188.0
164.238724 148.0
164.273163 276.0
164.303604 148.0
164.341537 92.0
164.392624 44.0
164.41304 124.0
164.442001 128.0
164.468246 140.0
164.498306 148.0
164.536179 152.0
164.567978 196.0
164.594376 116.0
164.60759 136.0
164.636734 212.0
164.66301 188.0
164.697433 420.0
164.742798 288.0
164.761841 172.0
164.784805 176.0
164.863922 444.0
164.904587 152.0
164.930801 248.0
164.947433 252.0
164.978348 760.0
165.010773 324.0
165.048492 1100.0
165.091156 343660.0
165.15712 172.0
165.178711 140.0
165.214905 48.0
165.232437 108.0
165.266754 176.0
165.319229 364.0
165.362259 368.0
165.369461 140.0
165.397293 208.0
165.440445 192.0
165.482956 352.0
165.511719 5768.0
165.539551 132.0
165.578384 220.0
165.62088 268.0
165.644241 156.0
165.651962 160.0
165.683456 224.0
165.706024 188.0
165.758987 152.0
165.765137 188.0
165.798309 72.0
165.829941 128.0
165.854767 204.0
165.874741 132.0
165.885773 108.0
165.912689 140.0
165.930649 272.0
165.949783 112.0
165.97493 180.0
165.993927 228.0
166.021378 148.0
166.047714 352.0
166.056427 244.0
166.093903 50844.0
166.134308 92.0
166.151077 88.0
166.168152 36.0
166.175156 92.0
166.207718 148.0
166.233368 52.0
166.258835 48.0
166.288956 112.0
166.321182 108.0
166.356476 120.0
166.378601 36.0
166.396729 128.0
166.4245 84.0
166.45816 160.0
166.506241 72.0
166.532089 120.0
166.547485 160.0
166.573288 112.0
166.609711 204.0
166.663757 92.0
166.689835 156.0
166.719208 160.0
166.756958 352.0
166.778778 104.0
166.811615 100.0
166.835785 52.0
166.844131 72.0
166.893585 208.0
166.899597 48.0
166.911575 136.0
166.930313 112.0
166.940323 56.0
166.959183 84.0
166.984528 192.0
167.011398 140.0
167.041321 264.0
167.0952 4412.0
167.146423 108.0
167.152069 64.0
167.179077 448.0
167.201309 92.0
167.217377 148.0
167.223526 144.0
167.255051 272.0
167.285492 156.0
167.315933 92.0
167.323166 168.0
167.33551 312.0
167.346436 104.0
167.365097 268.0
167.374496 232.0
167.384644 368.0
167.403992 392.0
167.421082 176.0
167.443924 200.0
167.48764 128.0
167.517731 124.0
167.586609 112.0
167.614395 180.0
167.651642 140.0
167.657883 52.0
167.66922 76.0
167.674454 176.0
167.703674 72.0
167.743118 80.0
167.777985 68.0
167.831375 112.0
167.902206 56.0
167.947525 160.0
168.007965 140.0
168.031174 40.0
168.052979 80.0
168.096863 324.0
168.166275 80.0
168.211823 172.0
168.243958 100.0
168.275055 96.0
168.31839 44.0
168.349274 120.0
168.366165 160.0
168.392578 60.0
168.443756 144.0
168.475952 116.0
168.555328 68.0
168.648361 88.0
168.681976 88.0
168.720642 92.0
168.776184 164.0
168.819 136.0
168.895355 108.0
168.953506 36.0
168.981964 100.0
169.094864 68.0
169.126389 124.0
169.240799 68.0
169.313309 44.0
169.344376 64.0
169.401367 60.0
169.524963 80.0
169.632004 104.0
169.764236 80.0
169.797943 80.0
169.847229 128.0
169.899109 48.0
170.209244 180.0
170.301468 96.0
170.371613 44.0
170.413177 32.0
170.43396 228.0
170.453384 76.0
170.493134 176.0
170.686096 68.0
170.728363 140.0
171.019104 88.0
171.128433 264.0
171.274277 68.0
171.641754 60.0
171.725204 164.0
171.928696 100.0
172.142776 76.0
172.166275 60.0
172.208069 92.0
172.268143 60.0
172.322998 44.0
172.37265 48.0
172.417068 72.0
172.555618 96.0
173.276459 124.0
173.292984 192.0
173.432587 68.0
173.48764 84.0
173.508621 116.0
173.797119 108.0
173.849609 128.0
173.957214 128.0
174.091537 312.0
174.225082 76.0
174.293396 80.0
174.340698 84.0
174.448456 104.0
174.603592 220.0
174.645248 192.0
174.771957 56.0
174.793015 72.0
174.877655 72.0
174.935135 204.0
175.043076 124.0
175.094528 308.0
175.151062 84.0
175.317047 88.0
175.513977 108.0
175.543762 68.0
175.715927 104.0
175.786453 204.0
176.080109 328.0
176.105942 1908.0
176.25444 180.0
176.433578 48.0
176.510773 124.0
176.597534 108.0
176.700699 84.0
176.780075 40.0
176.859482 48.0
176.923004 132.0
176.994492 124.0
177.090866 1304.0
177.111618 1276.0
177.192337 72.0
177.2117 96.0
177.304443 128.0
177.357452 196.0
177.436981 64.0
177.524475 36.0
177.56691 72.0
177.594894 116.0
177.624054 136.0
177.678329 92.0
177.734039 92.0
177.850815 52.0
177.91983 72.0
177.951691 128.0
178.086639 816.0
178.112946 548.0
178.214645 76.0
178.241211 76.0
178.323593 72.0
178.421951 96.0
178.445877 40.0
178.483109 40.0
178.530975 52.0
178.560226 112.0
178.598404 136.0
178.781036 36.0
178.935425 40.0
178.993805 160.0
179.060577 72.0
179.105896 7712.0
179.159134 68.0
179.201767 60.0
179.279037 84.0
179.348343 56.0
179.398819 64.0
179.463638 112.0
179.55098 136.0
179.617661 116.0
179.682709 52.0
179.804428 200.0
180.074081 80.0
180.106949 656.0
180.508224 116.0
180.605972 100.0
180.632736 104.0
180.83609 152.0
180.97261 88.0
181.004745 40.0
181.122589 68.0
181.18956 160.0
181.235107 144.0
181.446854 92.0
181.545502 172.0
181.653351 88.0
181.672119 52.0
181.690903 48.0
181.82373 48.0
181.951935 136.0
182.805984 64.0
182.870041 120.0
182.97287 144.0
183.800339 132.0
183.91098 44.0
184.324188 100.0
184.472839 80.0
184.602615 48.0
184.881256 56.0
184.932678 40.0
185.095123 120.0
185.227829 84.0
185.51236 88.0
185.577438 104.0
185.715744 72.0
186.117386 204.0
186.731552 92.0
187.169693 120.0
187.567459 152.0
188.006592 72.0
188.427094 92.0
188.845352 120.0
188.943817 144.0
189.228455 72.0
190.089142 192.0
190.338943 40.0
190.410339 152.0
190.429565 80.0
190.536697 56.0
190.605392 36.0
190.811539 80.0
191.099319 464.0
191.164444 80.0
191.692337 92.0
191.868744 108.0
192.03508 112.0
192.104752 332.0
192.183167 72.0
192.622131 88.0
192.682907 40.0
192.771332 40.0
193.108185 1068.0
193.16394 36.0
193.191605 160.0
193.352081 164.0
194.00856 148.0
194.112854 284.0
194.252594 44.0
194.446823 116.0
194.577286 192.0
194.932831 184.0
194.991196 92.0
195.180222 76.0
196.13237 164.0
196.921997 132.0
197.262894 172.0
197.447433 164.0
197.64325 64.0
197.774796 140.0
198.096817 160.0
198.220093 48.0
198.248108 104.0
198.814606 112.0
199.09816 28.0
199.182419 116.0
199.241409 72.0
199.499954 136.0
199.826202 32.0
200.200577 164.0
200.504837 224.0
201.105591 36.0
201.356873 88.0
201.811844 128.0
201.998489 108.0
202.916061 72.0
202.986954 36.0
203.50621 52.0
203.847076 36.0
203.94371 92.0
204.555283 60.0
204.680557 96.0
204.943619 212.0
206.116669 112.0
206.378326 76.0
206.730164 56.0
207.016434 144.0
207.148193 248.0
207.320099 60.0
207.403229 132.0
207.827667 104.0
207.899399 224.0
207.922363 124.0
207.960114 208.0
208.034302 68.0
208.091553 64.0
208.132492 30016.0
208.193619 148.0
208.21788 116.0
208.259369 32.0
208.304245 52.0
208.338715 80.0
208.376068 52.0
208.409454 132.0
208.476639 80.0
208.502502 76.0
208.525497 44.0
208.552475 104.0
208.600235 84.0
208.63472 28.0
208.672104 76.0
208.713791 96.0
208.779495 80.0
208.914307 52.0
208.953964 76.0
208.996857 44.0
209.13501 3156.0
209.193741 76.0
209.24176 72.0
209.319504 64.0
209.377106 40.0
209.397263 72.0
209.475037 96.0
209.777618 40.0
209.817978 60.0
209.875641 72.0
209.947739 88.0
210.023209 48.0
210.07753 80.0
210.137039 300.0
210.244888 116.0
210.432648 80.0
210.467163 64.0
210.585556 84.0
210.611557 32.0
210.646225 64.0
210.698227 44.0
210.727112 48.0
210.779129 64.0
211.007462 60.0
211.149155 172.0
211.175186 136.0
211.383484 48.0
211.695038 120.0
211.84964 140.0
212.090149 200.0
215.068695 80.0
215.290588 88.0
215.886765 128.0
218.003357 40.0
218.983047 100.0
219.304214 108.0
219.59021 68.0
220.348862 72.0
222.148605 200.0
222.175552 104.0
223.280533 64.0
223.994888 36.0
224.832718 40.0
225.044662 100.0
225.086456 164.0
225.397125 76.0
226.480133 100.0
227.652817 96.0
228.274872 88.0
232.954407 216.0
233.093445 196.0
233.135986 88.0
233.367004 80.0
233.750275 108.0
234.289185 28.0
234.718948 36.0
236.937958 64.0
237.370148 52.0
237.704498 64.0
237.756668 212.0
238.461807 108.0
239.586227 128.0
240.452698 52.0
241.113632 128.0
241.138351 196.0
241.561966 64.0
242.528076 76.0
243.666977 52.0
245.095123 52.0
246.077637 72.0
246.965149 136.0
247.01207 100.0
247.587982 32.0
248.644516 104.0
248.798325 60.0
248.983582 96.0
249.212906 100.0
250.269745 56.0
250.332733 96.0
251.11116 120.0
251.489777 88.0
251.537125 76.0
252.741257 184.0
252.807709 96.0
253.117935 120.0
253.149597 120.0
254.1259 148.0
254.88797 64.0
255.749832 76.0
255.937653 80.0
256.890594 80.0
257.663177 64.0
259.625366 96.0
260.411682 76.0
260.530518 68.0
261.08017 64.0
261.356812 140.0
261.968536 36.0
262.136078 80.0
262.874542 128.0
263.659302 68.0
264.053741 76.0
264.976288 72.0
265.507904 116.0
265.566284 132.0
267.044128 200.0
267.548492 68.0
267.620117 64.0
269.106934 76.0
269.498871 60.0
269.554413 52.0
269.786499 68.0
271.059692 44.0
271.535034 56.0
272.805786 60.0
273.003082 116.0
273.134644 168.0
274.152008 40.0
274.689423 80.0
274.745514 116.0
275.065613 92.0
275.171265 96.0
277.467377 68.0
278.134155 112.0
279.137512 80.0
280.442566 80.0
282.479431 72.0
284.483398 52.0
284.607635 84.0
285.00061 136.0
285.131683 84.0
285.915283 136.0
286.147552 48.0
286.191345 76.0
286.440552 100.0
287.600525 72.0
290.38855 76.0
290.639587 72.0
291.237091 112.0
291.328796 60.0
291.644836 72.0
291.853058 80.0
292.576904 120.0
293.322968 52.0
293.415009 68.0
293.486603 76.0
294.025574 148.0
295.204193 176.0
296.220734 56.0
296.330353 164.0
298.162781 88.0
300.321564 36.0
300.666565 64.0
300.787384 60.0
302.043701 112.0
303.205078 116.0
304.731934 36.0
304.794464 56.0
305.851715 92.0
306.412384 44.0
308.055573 128.0
308.170868 88.0
309.062469 76.0
310.000916 84.0
310.197205 112.0
311.091736 108.0
312.764984 60.0
313.405945 108.0
314.142792 84.0
314.171021 32.0
314.241577 164.0
314.937042 96.0
315.124268 104.0
316.326691 92.0
317.339935 124.0
317.801025 60.0
318.479095 80.0
319.542023 44.0
319.848053 72.0
322.298157 180.0
323.048981 76.0
323.106232 100.0
323.46051 128.0
324.488678 84.0
326.042969 76.0
326.118439 44.0
326.30896 112.0
326.611053 172.0
327.348846 112.0
327.784729 88.0
330.511017 76.0
330.634033 40.0
331.481445 72.0
332.319061 140.0
333.186798 60.0
335.745728 56.0
337.666779 96.0
337.969574 268.0
343.315277 48.0
343.835449 152.0
344.998993 60.0
345.154266 160.0
346.086731 68.0
347.517456 128.0
349.029205 128.0
349.174225 40.0
350.417542 64.0
350.585236 68.0
352.480957 240.0
353.584167 112.0
354.884033 52.0
356.486877 68.0
357.088379 44.0
359.141144 152.0
359.371246 132.0
360.215851 3612.0
360.568329 76.0
361.211395 876.0
361.638672 32.0
361.854462 52.0
362.218964 244.0
362.297577 180.0
363.085999 116.0
363.182709 64.0
363.226318 144.0
364.384216 96.0
364.543793 76.0
365.125458 104.0
365.342255 196.0
367.136292 68.0
368.277313 92.0
369.672943 80.0
370.404205 88.0
371.412354 88.0
371.654022 52.0
374.726166 88.0
375.655273 76.0
376.295929 84.0
376.848236 68.0
378.163055 100.0
378.770966 68.0
379.270813 48.0
380.197784 104.0
381.549561 112.0
382.958221 92.0
387.65036 104.0
391.811432 48.0
394.056335 56.0
394.90625 140.0
395.064484 36.0
395.163391 32.0
396.751556 72.0
398.525665 84.0
399.08609 44.0
402.217438 116.0
404.055725 60.0
404.163757 48.0
406.917358 48.0
408.496765 40.0
409.052094 88.0
414.172302 76.0
414.459961 40.0
415.733246 92.0
417.415039 80.0
417.785187 96.0
418.070007 92.0
418.26535 84.0
418.529999 100.0
419.320312 48.0
420.235779 40.0
422.873627 76.0
425.63266 56.0
426.425537 48.0
428.375916 104.0
431.351196 104.0
431.946655 76.0
435.062988 56.0
435.303802 60.0
436.00589 68.0
437.370117 44.0
437.657379 84.0
438.657257 44.0
445.743073 76.0
445.793518 72.0
448.419647 104.0
448.647278 72.0
450.491455 88.0
454.14032 96.0
456.625 52.0
458.741241 40.0
458.835022 68.0
463.25824 48.0
463.339661 60.0
465.673218 60.0
466.416565 112.0
467.59079 108.0
468.117126 92.0
469.909149 108.0
472.609589 88.0
474.285583 52.0
476.099182 108.0
476.255554 100.0
478.760712 100.0
479.634399 84.0
480.290558 44.0
485.582977 52.0
490.318085 84.0
494.279358 76.0
495.37738 72.0
496.445557 84.0
498.816498 80.0
499.381226 60.0
509.344543 92.0
510.868439 56.0
511.363403 132.0
512.764099 72.0
514.252502 48.0
519.038879 68.0
519.329163 68.0
521.544922 104.0
522.991394 64.0
524.079834 68.0
528.069702 96.0
534.860596 56.0
537.302979 68.0
541.014038 112.0
541.801392 60.0
555.230774 116.0
556.756042 44.0
557.968384 100.0
563.865417 48.0
573.081116 92.0
575.475464 96.0
579.301514 80.0
581.041809 64.0
582.448364 72.0
583.197937 64.0
584.279907 64.0
586.278198 72.0
589.777344 52.0
596.054382 112.0
600.893372 64.0
603.076233 76.0
608.265564 108.0
610.518799 80.0
614.873901 84.0
615.984863 76.0
616.51355 52.0
617.502319 72.0
619.348572 88.0
619.576416 84.0
625.490967 80.0
627.947388 48.0
628.890442 84.0
630.673584 48.0
631.033508 48.0
640.679749 112.0
648.552795 116.0
649.85614 44.0
652.954834 88.0
654.191345 80.0
656.698364 72.0
657.361572 88.0
662.561646 36.0
665.839417 68.0
674.526611 172.0
675.172913 92.0
676.145569 76.0
677.06189 92.0
677.662781 80.0
684.717224 208.0
686.405701 184.0
686.833374 100.0
689.360291 52.0
693.012695 40.0
699.361877 60.0
703.093445 108.0
706.07843 72.0
708.592834 128.0
716.056335 188.0
716.109558 176.0
716.850098 148.0
718.353638 64.0
719.431641 92.0
721.45636 92.0
721.675598 68.0
723.419739 108.0
730.874573 132.0
737.794495 192.0
741.003906 196.0
743.340881 188.0
745.159851 84.0
745.746765 232.0
746.170776 84.0
747.176941 36.0
756.20813 48.0
758.541504 176.0
761.911072 32.0
762.966248 84.0
764.253235 192.0
766.020508 68.0
771.10791 156.0
772.689453 100.0
774.981689 80.0
776.733521 164.0
778.842896 112.0
779.642944 216.0
781.544739 40.0
787.280823 172.0
788.839722 244.0
789.387634 68.0
794.793213 84.0
799.412292 132.0
799.468567 268.0
800.611389 52.0
804.24231 196.0
805.704895 48.0
811.817993 64.0
815.559448 160.0
819.383606 188.0
820.529175 52.0
821.681213 172.0
822.383118 60.0
823.176697 116.0
823.325195 184.0
825.165161 100.0
826.715332 168.0
831.563843 80.0
832.867249 212.0
833.160217 128.0
833.648621 204.0
836.167542 64.0
837.405457 208.0
839.128479 168.0
839.439819 160.0
840.812866 92.0
841.642151 176.0
845.471008 240.0
845.980347 160.0
848.054138 344.0
849.358765 188.0
851.37854 196.0
852.610168 48.0
853.412415 152.0
855.047058 156.0
855.378784 204.0
855.536011 220.0
856.059998 76.0
859.668518 152.0
860.200195 128.0
861.799866 152.0
862.489502 188.0
862.922119 68.0
864.518982 136.0
866.052917 188.0
867.764099 188.0
869.964172 160.0
870.527832 200.0
870.86261 92.0
871.432434 156.0
872.63147 76.0
872.884277 172.0
873.066589 184.0
873.972534 180.0
875.532471 192.0
876.174561 36.0
878.308533 60.0
878.97522 108.0
879.990479 148.0
881.183533 196.0
881.366699 100.0
882.14093 244.0
882.791321 156.0
883.542542 148.0
886.325317 220.0
886.917969 184.0
887.445557 48.0
888.068237 96.0
888.234375 220.0
889.195557 80.0
890.5849 52.0
890.709656 176.0
891.143372 48.0
892.349915 48.0
895.206055 148.0
895.873169 144.0
897.858032 164.0
898.174194 104.0
900.281067 172.0
900.496033 176.0
900.734985 224.0
901.135254 52.0
901.302551 136.0
901.47583 168.0
902.276794 184.0
902.611633 176.0
904.059265 132.0
904.232849 108.0
905.448181 88.0
905.927429 204.0
906.988037 148.0
907.425659 164.0
908.277283 160.0
909.861511 156.0
910.059692 136.0
910.131714 128.0
910.750305 136.0
911.729614 140.0
912.414856 140.0
912.500916 180.0
913.028198 200.0
913.130432 196.0
913.563538 68.0
913.914978 108.0
914.014771 140.0
914.47821 96.0
914.628662 132.0
914.749084 104.0
916.332947 164.0
916.567932 180.0
917.435852 176.0
917.77948 180.0
919.130676 176.0
919.752258 144.0
919.896423 168.0
922.671265 184.0
922.797058 164.0
923.214294 52.0
923.401733 140.0
926.648376 240.0
927.585754 72.0
927.694885 160.0
929.053345 160.0
929.205017 172.0
929.89679 40.0
930.752747 32.0
931.153564 104.0
931.262878 160.0
932.435547 136.0
932.91571 160.0
933.475098 116.0
933.852173 172.0
934.083313 156.0
934.444641 156.0
934.497009 164.0
934.801208 200.0
936.146606 96.0
936.426758 112.0
937.340576 160.0
937.943909 136.0
938.059753 152.0
939.151245 180.0
940.737793 168.0
940.988098 92.0
942.191284 140.0
943.450195 152.0
943.859863 120.0
944.061646 156.0
944.245117 160.0
944.96698 116.0
946.362488 152.0
947.177002 156.0
947.391418 120.0
947.446533 128.0
949.205627 168.0
949.309875 132.0
950.819092 160.0
951.641663 188.0
951.764465 160.0
952.833191 188.0
953.029785 144.0
953.668884 56.0
954.418945 220.0
955.187683 128.0
955.759827 152.0
956.695374 44.0
956.763062 104.0
958.75885 188.0
959.0177 176.0
959.369019 192.0
960.263123 176.0
960.855347 48.0
961.657532 128.0
962.281067 148.0
962.347412 160.0
963.492065 148.0
963.874634 160.0
964.34436 132.0
964.52356 208.0
965.1604 172.0
965.921082 244.0
965.964355 140.0
966.205627 176.0
967.07196 84.0
967.796326 156.0
970.466858 120.0
970.807861 120.0
971.577026 104.0
972.669189 160.0
973.457703 144.0
973.817932 136.0
973.96698 96.0
974.265198 156.0
974.513672 84.0
975.325623 216.0
976.807739 36.0
977.305481 208.0
977.541931 72.0
977.622803 208.0
978.021118 168.0
978.712158 132.0
979.104492 180.0
979.708679 164.0
979.95166 164.0
980.44397 196.0
980.512512 140.0
980.886475 160.0
981.18573 188.0
981.354065 124.0
981.453857 144.0
982.08374 168.0
982.657654 56.0
982.713806 76.0
983.571899 136.0
985.329834 288.0
985.436035 104.0
985.829712 224.0
986.017212 128.0
986.1297 120.0
986.623535 232.0
987.148743 196.0
987.336365 60.0
988.068237 196.0
988.299744 72.0
989.025696 144.0
989.845825 128.0
989.989868 100.0
990.140137 76.0
990.396973 232.0
990.923157 180.0
990.98584 160.0
991.568604 140.0
992.001099 84.0
992.371033 140.0
992.427429 96.0
992.577942 204.0
993.192566 88.0
993.791016 168.0
993.95166 180.0
995.634094 184.0
996.670593 136.0
996.87793 180.0
998.581726 52.0
999.097534 140.0
999.739319 164.0
1000.028809 180.0
1000.205078 128.0
1000.759094 72.0
1000.847229 128.0
1001.237671 104.0
1001.439209 188.0
1002.37793 192.0
1003.153137 184.0
1003.625977 160.0
1005.348083 176.0
1005.461731 28.0
1005.979309 140.0
1006.370728 120.0
1007.30542 204.0
1007.551819 240.0
1008.404846 120.0
1008.550232 112.0
1008.607117 156.0
1009.323486 264.0
1009.53656 168.0
1009.821167 156.0
1010.346191 176.0
1010.706848 168.0
1010.808044 68.0
1010.883972 116.0
1010.947266 160.0
1011.60553 96.0
1011.877747 64.0
1012.28302 96.0
1012.42865 116.0
1012.808716 184.0
1013.036743 140.0
1013.530945 184.0
1013.581604 60.0
1013.625977 72.0
1014.05365 232.0
1014.151978 200.0
1014.240723 108.0
1014.760559 112.0
1014.874695 236.0
1014.944458 156.0
1015.147339 196.0
1015.293213 108.0
1015.623047 124.0
1015.902161 108.0
1016.004333 144.0
1016.320862 148.0
1016.409729 340.0
1016.473145 128.0
1016.791321 204.0
1017.298279 132.0
1017.380798 156.0
1017.425232 128.0
1017.62915 172.0
1019.321045 208.0
1020.303223 192.0
1020.734619 136.0
1021.82959 76.0
1022.459534 168.0
1023.00061 204.0
1023.153381 128.0
1023.22345 176.0
1023.465393 92.0
1023.618225 204.0
1024.038574 188.0
1024.465332 124.0
1024.834839 156.0
1024.917603 36.0
1025.956543 104.0
1026.690063 128.0
1027.263916 188.0
1027.487183 76.0
1027.755127 120.0
1027.844482 88.0
1028.230347 256.0
1029.478638 172.0
1029.689453 160.0
1029.746948 204.0
1031.638306 176.0
1032.175415 84.0
1032.629395 200.0
1033.153931 200.0
1033.37146 200.0
1033.582642 88.0
1033.93457 176.0
1034.101074 184.0
1034.344238 160.0
1034.619507 176.0
1034.741211 96.0
1034.92041 176.0
1035.003662 144.0
1035.272583 128.0
1035.906738 92.0
1036.105347 132.0
1036.342407 156.0
1036.91272 240.0
1037.085815 88.0
1037.387085 128.0
1038.996704 104.0
1039.13147 156.0
1039.227661 152.0
1039.420166 144.0
1039.79248 156.0
1040.036377 92.0
1040.094116 224.0
1040.69751 164.0
1040.825928 192.0
1041.301147 152.0
1041.782959 76.0
1041.88269 168.0
1041.930786 92.0
1042.181274 84.0
1042.496216 164.0
1042.586182 176.0
1043.036011 192.0
1043.370361 164.0
1043.543945 128.0
1044.26416 260.0
1044.637207 140.0
1045.190552 128.0
1045.332153 196.0
1046.271851 212.0
1047.005981 192.0
1047.063843 200.0
1047.30896 168.0
1047.650024 132.0
1048.184814 88.0
1048.816406 176.0
1049.145142 152.0
1049.286987 48.0
1049.693237 144.0
1049.880249 144.0
1050.08667 172.0
1050.222046 168.0
1050.598267 176.0
1050.660767 36.0
1050.757568 208.0
1050.867188 64.0
1051.939209 156.0
1052.726196 176.0
1052.797241 116.0
1053.397949 192.0
1053.617554 120.0
1054.140991 208.0
1054.237915 160.0
1054.354248 136.0
1054.444702 136.0
1054.48999 168.0
1054.709717 124.0
1054.761475 152.0
1055.472534 56.0
1056.462158 220.0
1057.232178 136.0
1057.439209 72.0
1058.824707 168.0
1059.137939 244.0
1059.226318 136.0
1059.355957 176.0
1059.420654 92.0
1059.653931 120.0
1059.997314 116.0
1060.094482 48.0
1060.152832 260.0
1060.820435 136.0
1061.014038 200.0
1061.151123 128.0
1061.61792 128.0
1061.96167 160.0
1063.330688 56.0
1063.676147 176.0
1064.012329 88.0
1064.304443 180.0
1064.486328 160.0
1064.765503 56.0
1065.200684 60.0
1065.376099 64.0
1065.655518 160.0
1065.969849 136.0
1066.325684 156.0
1066.85791 136.0
1066.955322 52.0
1067.052856 180.0
1067.267456 132.0
1067.435303 188.0
1067.664185 116.0
1067.709595 40.0
1068.717896 68.0
1068.984741 104.0
1069.056274 136.0
1069.381714 152.0
1069.94812 196.0
1070.123901 176.0
1070.208496 148.0
1070.729492 148.0
1070.828125 160.0
1072.03894 200.0
1072.195312 232.0
1072.397339 156.0
1072.469116 132.0
1072.553833 32.0
1072.775513 184.0
1075.430298 144.0
1075.502197 28.0
1075.71106 184.0
1075.939575 92.0
1076.337769 160.0
1076.51416 200.0
1076.912476 144.0
1077.578857 144.0
1077.670288 196.0
1078.219238 148.0
1078.680298 160.0
1079.480957 160.0
1079.585571 188.0
1080.082642 196.0
1080.514404 148.0
1081.103271 88.0
1082.072144 244.0
1083.106812 136.0
1083.696411 180.0
1083.892944 76.0
1084.135498 192.0
1084.194458 220.0
1084.784302 176.0
1084.884644 80.0
1085.348145 192.0
1085.715454 104.0
1086.082764 192.0
1086.515625 188.0
1086.620605 104.0
1086.810913 180.0
1087.480347 188.0
1087.723145 168.0
1087.782227 48.0
1088.096802 192.0
1089.805054 112.0
1089.962769 48.0
1090.120483 204.0
1090.613403 52.0
1090.961792 128.0
1091.047241 164.0
1092.013916 128.0
1092.184937 148.0
1092.737427 132.0
1092.994629 196.0
1093.244141 76.0
1094.296509 200.0
1094.629272 128.0
1094.995361 112.0
1095.212769 100.0
1095.482788 140.0
1096.036255 192.0
1096.352539 144.0
1096.603027 136.0
1096.655762 236.0
1096.958984 244.0
1097.895264 88.0
1097.987549 176.0
1098.284302 252.0
1098.403076 240.0
1098.548218 128.0
1098.884644 80.0
1100.584839 148.0
1100.673462 104.0
1101.855713 120.0
1102.862183 200.0
1103.309692 216.0
1104.605835 168.0
1104.963135 228.0
1105.254272 164.0
1105.525513 160.0
1105.75061 68.0
1106.697266 192.0
1106.902466 100.0
1107.425659 140.0
1107.544922 120.0
1108.10144 204.0
1108.346558 184.0
1108.419434 72.0
1108.942993 148.0
1109.181641 52.0
1109.479858 140.0
1109.904297 116.0
1110.081055 244.0
1110.249146 148.0
1110.328613 100.0
1110.540894 124.0
1110.640381 96.0
1111.250732 132.0
1111.443115 112.0
1111.761719 140.0
1111.828003 76.0
1112.033813 80.0
1112.372314 164.0
1112.421021 100.0
1112.7146 184.0
1112.949951 156.0
1113.040894 212.0
1113.255371 116.0
1113.381592 104.0
1113.481201 180.0
1113.75354 112.0
1113.853149 156.0
1114.2052 132.0
1114.577271 168.0
1114.730103 148.0
1115.082397 116.0
1115.919922 184.0
1116.724609 224.0
1116.904175 152.0
1117.251709 184.0
1118.241577 64.0
1118.328125 172.0
1118.474609 44.0
1118.816406 136.0
1118.86731 232.0
1119.020508 120.0
1119.226929 84.0
1119.499878 168.0
1119.633057 172.0
1119.826294 184.0
1120.24585 96.0
1120.352417 208.0
1120.459106 232.0
1120.532349 92.0
1120.772217 124.0
1120.952148 204.0
1121.13208 140.0
1121.318726 160.0
1121.911987 168.0
1122.065308 192.0
1122.131958 92.0
1122.271973 156.0
1122.418701 44.0
1122.505371 112.0
1122.978882 160.0
1123.473022 148.0
1123.539185 100.0
1123.946167 76.0
1124.039551 208.0
1124.673584 128.0
1124.740356 44.0
1125.554932 236.0
1126.149292 216.0
1126.297852 200.0
1126.925537 132.0
1127.29834 228.0
1127.452026 160.0
1128.11377 100.0
1128.180664 188.0
1128.494873 60.0
1128.568481 196.0
1128.749023 84.0
1128.809204 100.0
1129.799072 104.0
1129.899414 148.0
1129.95813 156.0
1130.187256 156.0
1130.816772 128.0
1130.983521 204.0
1131.92749 204.0
1132.068115 188.0
1132.248901 64.0
1132.42981 184.0
1132.510132 132.0
1132.932129 108.0
1133.07959 176.0
1133.166626 172.0
1133.280518 240.0
1133.327515 120.0
1133.535156 104.0
1133.616699 96.0
1133.830078 56.0
1133.984253 96.0
1134.32605 136.0
1135.190918 176.0
1135.311646 156.0
1135.459229 168.0
1135.982422 148.0
1136.062866 168.0
1136.760742 204.0
1136.938599 216.0
1137.868286 176.0
1138.90918 208.0
1139.258423 120.0
1139.616333 152.0
1139.984131 140.0
1140.142334 132.0
1140.192383 160.0
1140.851196 120.0
1140.910034 164.0
1140.936157 124.0
1140.966309 120.0
1141.194092 208.0
1141.294922 112.0
1141.610962 152.0
1141.73877 140.0
1142.075073 116.0
1142.525757 196.0
1143.360107 48.0
1143.494751 72.0
1143.689941 188.0
1144.383301 168.0
1144.464111 116.0
1144.598755 300.0
1145.575317 220.0
1146.226074 216.0
1146.383911 192.0
1146.478271 76.0
1146.559082 68.0
1146.633301 96.0
1146.714111 136.0
1146.77478 76.0
1147.239868 136.0
1147.435425 84.0
1147.573608 164.0
1147.961426 128.0
1148.130005 168.0
1148.338989 272.0
1148.568359 160.0
1148.946167 76.0
1149.0271 136.0
1149.168823 152.0
1149.634399 172.0
1149.749146 128.0
1149.81665 228.0
1149.870605 140.0
1150.07312 48.0
1151.099243 164.0
1151.160034 68.0
1151.609009 244.0
1152.014771 224.0
1152.233398 160.0
1152.659668 128.0
1153.166626 180.0
1153.315308 200.0
1153.626221 188.0
1153.876709 156.0
1154.004883 72.0
1154.146851 208.0
1154.917847 168.0
1155.181641 124.0
1155.316895 164.0
1155.465698 224.0
1155.648438 184.0
1155.73645 244.0
1156.710938 116.0
1156.890991 180.0
1157.103638 156.0
1157.591187 160.0
1158.085571 144.0
1158.223267 196.0
1158.566528 160.0
1158.715576 116.0
1158.851074 112.0
1160.003174 128.0
1160.260742 152.0
1160.450562 176.0
1160.593506 152.0
1160.884521 208.0
1161.033813 216.0
1161.182983 160.0
1161.413574 184.0
1161.485229 148.0
1161.901978 148.0
1162.05127 116.0
1162.112305 156.0
1162.729858 136.0
1162.8927 128.0
1163.463013 180.0
1163.53479 160.0
1163.687012 64.0
1164.495117 184.0
1164.549438 92.0
1164.73291 236.0
1164.977417 92.0
1165.05896 156.0
1165.160889 144.0
1165.276001 196.0
1165.295532 188.0
1165.349854 204.0
1165.540039 88.0
1165.595703 116.0
1165.738403 200.0
1165.867554 152.0
1165.955811 116.0
1166.023804 104.0
1166.995972 40.0
1167.465088 120.0
1167.893555 64.0
1167.97522 168.0
1168.186157 172.0
1168.499023 156.0
1168.716797 120.0
1168.791626 164.0
1168.900513 144.0
1168.995728 124.0
1169.410889 236.0
1169.860229 160.0
1169.975952 128.0
1170.098511 124.0
1170.71814 276.0
1170.970093 100.0
1171.617188 168.0
1171.773926 312.0
1172.094116 156.0
1172.400757 232.0
1172.537109 72.0
1172.598389 224.0
1172.959717 168.0
1173.655151 156.0
1173.914185 156.0
1173.96875 128.0
1174.241577 92.0
1174.309814 36.0
1174.466675 160.0
1174.718994 120.0
1174.766846 144.0
1174.862305 140.0
1174.927734 208.0
1175.060181 148.0
1175.119751 76.0
1175.851685 88.0
1176.568481 84.0
1176.745972 100.0
1177.162476 164.0
1177.380981 144.0
1177.770386 140.0
1177.864624 160.0
1178.023071 136.0
1178.330566 120.0
1178.479736 180.0
1178.499512 152.0
1178.526733 140.0
1178.678955 144.0
1178.781494 168.0
1179.617798 244.0
1179.878906 308.0
1180.059692 156.0
1180.203247 184.0
1180.401611 48.0
1180.839233 100.0
1181.167603 120.0
1181.475464 152.0
1181.591797 228.0
1181.646484 200.0
1181.817505 140.0
1181.872314 76.0
1181.933838 204.0
1182.091187 104.0
1182.433472 176.0
1182.501831 152.0
1182.830444 200.0
1183.079468 220.0
1183.426025 160.0
1183.528687 128.0
1184.090332 172.0
1185.172607 132.0
1185.371338 124.0
1185.439941 156.0
1186.111572 208.0
1186.543457 120.0
1186.954834 160.0
1187.180054 192.0
1187.448608 160.0
1187.805298 120.0
1188.168945 168.0
1188.360962 140.0
1188.422729 208.0
1188.546265 44.0
1188.608032 136.0
1188.820801 148.0
1189.781738 152.0
1189.973877 108.0
1190.241699 176.0
1190.534302 140.0
1191.31311 236.0
1191.479004 168.0
1191.924683 180.0
1192.053711 160.0
1192.103271 156.0
1192.233887 180.0
1192.302124 180.0
1192.797485 204.0
1193.024292 220.0
1193.07251 180.0
1193.477905 176.0
1193.622559 108.0
1193.705078 144.0
1193.773804 144.0
1193.916626 208.0
1194.564819 116.0
1194.667969 152.0
1194.965942 236.0
1195.087646 100.0
1195.211548 40.0
1195.617554 168.0
1196.051147 152.0
1196.181885 104.0
1196.347168 164.0
1196.574341 160.0
1196.650024 124.0
1196.808472 176.0
1196.911743 140.0
1197.063232 180.0
1197.317993 200.0
1197.483276 172.0
1197.531494 136.0
1198.358154 136.0
1198.599365 176.0
1198.916382 104.0
1199.012817 72.0
1199.605591 124.0
1199.970947 208.0
1200.108887 136.0
1200.439941 108.0
1200.536377 228.0
1200.970947 52.0
1201.295166 164.0
1201.667725 176.0
1201.874634 144.0
1202.041504 180.0
1202.239746 204.0
1202.599365 112.0
1202.82019 120.0
1203.125977 160.0
1203.268921 60.0
1203.648682 176.0
1204.152832 208.0
1204.349609 152.0
1204.408325 248.0
1204.622559 124.0
1204.781372 156.0
1205.064697 152.0
1205.230469 116.0
1205.313354 132.0
1205.589844 144.0
1205.638184 152.0
1206.115112 204.0
1206.502197 144.0
1207.235107 156.0
1207.366577 112.0
1207.822998 168.0
1207.955811 172.0
1208.293457 108.0
1208.354126 116.0
1208.556396 144.0
1208.62561 168.0
1209.033813 116.0
1209.435303 224.0
1209.552979 168.0
1210.065308 172.0
1210.148315 136.0
1210.359985 176.0
1210.910156 160.0
1211.166504 168.0
1211.388062 192.0
1211.623535 84.0
1211.678955 120.0
1211.755249 136.0
1212.073975 208.0
1212.274902 60.0
1212.47583 172.0
1212.586792 164.0
1212.690796 196.0
1212.792969 244.0
1212.998657 120.0
1213.099731 152.0
1213.342407 184.0
1213.585083 108.0
1213.689087 188.0
1213.938721 120.0
1214.035767 152.0
1214.653076 32.0
1215.05542 56.0
1215.187256 128.0
1215.421997 188.0
1216.477783 76.0
1216.762695 108.0
1216.846069 164.0
1217.213989 104.0
1217.325195 148.0
1217.484863 60.0
1218.082031 180.0
1218.304565 32.0
1218.582397 140.0
1219.096558 156.0
1219.142212 188.0
1219.242554 108.0
1219.902832 128.0
1220.118408 108.0
1220.47998 156.0
1220.681641 116.0
1220.785889 120.0
1220.876343 136.0
1221.01062 240.0
1221.731812 128.0
1221.996216 80.0
1222.135376 100.0
1222.747803 108.0
1222.817383 240.0
1222.949585 268.0
1223.06897 216.0
1223.493774 124.0
1223.896362 128.0
1224.439575 168.0
1224.599731 40.0
1225.609985 152.0
1225.76355 92.0
1225.89563 156.0
1225.958374 236.0
1226.073608 148.0
1226.202271 140.0
1226.759888 160.0
1227.464111 92.0
1227.540283 148.0
1227.603638 188.0
1227.83374 68.0
1227.896484 128.0
1228.112183 192.0
1228.175537 144.0
1228.238281 192.0
1228.461426 104.0
1228.911621 144.0
1229.187134 172.0
1229.277832 56.0
1229.37854 188.0
1229.494141 140.0
1229.570923 92.0
1229.724487 88.0
1229.855957 148.0
1229.92688 208.0
1230.157227 176.0
1230.418945 184.0
1230.680908 160.0
1230.820557 244.0
1231.038208 184.0
1231.211548 148.0
1231.553833 52.0
1231.896118 148.0
1232.280396 156.0
1232.39209 124.0
1232.545898 176.0
1232.797485 172.0
1233.122192 224.0
1233.188843 156.0
1233.363525 116.0
1233.517334 124.0
1233.755005 124.0
1234.174561 188.0
1234.253662 196.0
1234.559082 140.0
1234.631592 192.0
1234.677979 188.0
1234.999756 136.0
1235.174561 112.0
1235.608398 204.0
1235.839233 188.0
1235.895264 128.0
1235.95813 208.0
1236.028198 60.0
1236.175171 140.0
1236.364014 68.0
1236.427002 108.0
1237.021973 80.0
1237.890259 176.0
1238.418823 164.0
1239.305176 128.0
1239.872803 216.0
1239.963867 124.0
1240.279297 188.0
1240.328369 136.0
1240.819092 124.0
1240.938232 48.0
1241.380005 128.0
1241.576416 172.0
1241.758789 132.0
1241.849976 200.0
1241.9552 156.0
1242.411133 192.0
1242.881226 172.0
1243.119751 144.0
1243.295166 176.0
1243.372437 176.0
1243.456665 44.0
1243.63208 92.0
1243.786377 148.0
1244.102417 212.0
1244.165649 128.0
1244.270874 76.0
1245.113525 140.0
1245.180054 132.0
1245.450684 240.0
1245.822998 64.0
1246.567749 160.0
1246.665039 228.0
1246.778564 180.0
1246.912109 188.0
1247.115967 200.0
1247.898682 132.0
1247.966553 152.0
1248.156494 336.0
1248.613525 132.0
1248.683228 180.0
1248.930054 184.0
1249.070801 208.0
1249.331055 196.0
1249.602905 204.0
1249.629883 132.0
1249.90979 160.0
1250.00647 72.0
1250.570801 160.0
1250.646973 196.0
1250.710327 168.0
1250.879272 172.0
1251.012939 144.0
1251.980225 180.0
1252.160767 176.0
1252.343872 132.0
1252.414307 176.0
1252.477661 104.0
1252.552002 204.0
1252.62561 168.0
1252.682007 212.0
1252.731323 144.0
1252.865112 332.0
1252.956665 172.0
1253.238525 188.0
1253.470459 180.0
1253.583862 188.0
1253.978516 152.0
1254.034668 108.0
1254.352051 120.0
1254.577637 156.0
1254.669312 156.0
1254.965454 148.0
1255.071167 128.0
1255.19104 160.0
1255.494263 132.0
1255.733276 148.0
1256.001221 200.0
1256.150269 160.0
1256.390137 92.0
1256.496582 200.0
1256.630005 176.0
1256.792236 96.0
1257.025146 160.0
1257.40625 220.0
1257.547363 188.0
1257.714111 252.0
1257.956787 88.0
1258.069702 208.0
1258.345093 144.0
1258.408569 144.0
1258.486328 140.0
1258.542725 84.0
1258.606323 136.0
1258.754639 100.0
1259.255981 120.0
1259.496216 252.0
1259.990723 184.0
1260.047241 116.0
1260.209717 52.0
1260.315674 168.0
1260.393433 200.0
1260.548828 92.0
1260.888062 180.0
1260.97998 136.0
1261.064819 184.0
1261.135498 224.0
1261.227417 136.0
1261.305176 204.0
1261.517212 168.0
1261.616211 100.0
1261.729248 192.0
1262.0271 168.0
1262.146851 188.0
1262.323486 128.0
1262.450562 76.0
1262.51416 124.0
1262.853638 76.0
1263.157837 88.0
1263.270996 192.0
1263.398315 176.0
1263.716675 148.0
1263.766235 188.0
1264.240356 128.0
1264.495117 168.0
1264.60498 212.0
1264.96228 140.0
1265.082642 152.0
1265.37561 172.0
1265.479126 108.0
1265.549927 180.0
1265.65332 168.0
1266.003052 200.0
1266.385498 220.0
1266.477661 120.0
1266.576782 148.0
1266.661743 116.0
1266.888428 144.0
1266.966431 116.0
1267.242676 148.0
1267.39856 224.0
1267.511963 212.0
1267.951294 96.0
1268.050537 88.0
1268.537598 376.0
1268.681396 160.0
1268.731079 164.0
1268.823242 320.0
1268.96228 148.0
1269.025513 136.0
1269.078491 64.0
1269.305786 124.0
1269.503906 204.0
1269.553589 144.0
1269.894043 168.0
1269.985962 140.0
1270.044922 164.0
1270.09082 180.0
1270.213257 172.0
1270.454346 180.0
1270.504028 132.0
1270.97229 128.0
1271.107178 132.0
1271.22168 144.0
1271.291626 192.0
1271.852295 152.0
1272.036865 48.0
1272.09375 40.0
1272.917358 180.0
1273.457031 124.0
1273.726929 140.0
1273.847778 148.0
1274.416138 224.0
1274.700317 160.0
1274.840698 252.0
1275.126709 140.0
1275.53894 116.0
1275.602905 160.0
1275.873047 84.0
1276.072144 100.0
1276.185913 168.0
1276.803833 188.0
1276.893555 196.0
1277.145996 96.0
1277.316772 160.0
1277.428589 176.0
1277.594116 172.0
1277.771973 176.0
1277.907227 196.0
1277.992554 156.0
1278.113525 356.0
1278.183105 268.0
1278.262939 132.0
1278.312744 124.0
1278.47644 144.0
1278.768311 172.0
1279.010254 160.0
1279.285522 132.0
1279.558472 48.0
1279.665161 224.0
1279.779175 196.0
1279.878784 180.0
1279.942871 48.0
1280.252808 136.0
1280.498413 80.0
1280.583862 156.0
1280.804688 128.0
1281.075317 156.0
1281.424438 340.0
1281.620361 232.0
1281.816406 136.0
1282.385376 80.0
1282.58606 160.0
1282.892578 128.0
1283.163452 116.0
1283.277588 184.0
1283.391724 176.0
1283.470093 64.0
1283.855225 160.0
1284.033447 52.0
1284.147583 120.0
1284.297363 160.0
1284.718262 116.0
1284.891602 176.0
1285.01062 148.0
1285.085449 196.0
1285.924194 112.0
1286.036255 176.0
1286.152588 184.0
1286.223999 136.0
1286.359619 176.0
1286.835693 116.0
1287.040649 144.0
1287.180664 196.0
1287.294922 152.0
1287.473389 308.0
1287.735229 104.0
1288.080566 176.0
1288.40918 168.0
1288.623535 124.0
1288.930786 96.0
1289.19519 140.0
1289.280884 112.0
1289.495361 136.0
1289.735962 96.0
1289.824097 168.0
1290.424683 164.0
1290.481812 196.0
1290.917969 156.0
1291.285645 176.0
1291.486084 216.0
1291.633179 192.0
1292.048096 160.0
1292.262817 84.0
1292.355835 120.0
1292.457397 144.0
1292.54895 76.0
1293.11438 140.0
1293.415039 176.0
1293.636841 124.0
1293.72876 196.0
1293.843262 120.0
1293.977417 176.0
1294.066406 60.0
1294.410156 168.0
1294.574829 88.0
1294.675171 208.0
1294.753906 184.0
1294.975952 116.0
1295.112061 168.0
1295.283936 192.0
1295.649292 72.0
1295.778198 232.0
1296.15564 232.0
1296.358643 188.0
1296.501953 112.0
1296.795776 156.0
1296.974976 148.0
1297.039551 148.0
1297.197266 120.0
1297.476807 208.0
1297.539551 164.0
1297.764648 204.0
1298.058228 168.0
1298.122192 196.0
1298.263184 208.0
1298.387451 176.0
1298.545288 48.0
1298.602661 240.0
1299.103516 180.0
1299.334351 132.0
1299.524048 160.0
1299.664429 128.0
1299.793579 136.0
1299.886841 132.0
1299.980103 164.0
1300.089111 212.0
1300.805542 64.0
1300.862671 188.0
1301.135742 148.0
1301.193237 116.0
1301.427979 256.0
1301.796387 124.0
1301.875366 136.0
1302.098022 84.0
1302.248779 148.0
1302.392456 176.0
1302.586426 140.0
1302.658203 76.0
1302.888184 200.0
1302.945557 152.0
1303.003052 48.0
1303.391113 176.0
1303.462891 156.0
1303.735962 80.0
1304.109741 148.0
1304.390015 144.0
1304.738281 180.0
1304.799805 144.0
1305.004639 176.0
1305.020996 84.0
1305.055176 156.0
1305.180908 160.0
1305.842529 140.0
1306.016235 56.0
1306.115845 68.0
1306.417969 196.0
1306.49707 160.0
1306.680542 192.0
1306.860474 168.0
1307.137451 60.0
1307.302979 124.0
1307.475708 196.0
1307.662354 104.0
1307.943604 248.0
1308.353882 140.0
1308.706665 140.0
1308.800293 212.0
1308.85791 132.0
1309.066772 60.0
1309.585327 140.0
1309.678955 100.0
1310.082275 196.0
1310.269653 180.0
1310.485718 140.0
1310.58667 144.0
1310.770996 184.0
1310.846069 180.0
1311.033447 124.0
1311.710938 100.0
1311.797485 152.0
1312.035278 132.0
1312.201172 144.0
1312.460693 176.0
1312.612183 132.0
1312.713135 72.0
1312.79248 112.0
1312.943848 196.0
1313.030396 64.0
1313.307983 220.0
1313.422119 192.0
1313.492065 84.0
1313.593018 204.0
1313.650757 212.0
1314.155762 156.0
1314.422729 52.0
1314.538208 228.0
1314.776367 116.0
1314.857788 188.0
1314.902222 92.0
1314.956787 144.0
1315.115601 140.0
1315.388794 168.0
1315.561035 196.0
1315.64978 104.0
1315.70752 164.0
1316.55957 152.0
1316.624512 148.0
1316.963989 124.0
1317.043213 224.0
1317.16626 180.0
1317.390137 160.0
1317.585205 196.0
1317.671997 84.0
1317.946533 220.0
1318.040405 208.0
1318.187866 120.0
1318.315063 104.0
1318.372803 176.0
1318.502808 172.0
1318.511841 168.0
1318.540527 212.0
1318.763184 136.0
1318.95105 140.0
1319.435425 196.0
1319.486938 156.0
1319.738403 124.0
1319.963257 72.0
1320.013916 156.0
1320.117188 236.0
1320.172974 168.0
1320.317627 168.0
1320.411621 176.0
1320.476685 152.0
1320.81665 108.0
1321.098145 128.0
1321.294067 176.0
1321.474976 232.0
1322.068359 148.0
1322.309326 204.0
1322.531616 124.0
1322.719727 188.0
1322.821167 184.0
1322.944214 172.0
1323.131714 164.0
1323.248291 52.0
1323.313354 176.0
1323.47998 108.0
1323.574097 168.0
1323.782349 148.0
1323.954468 204.0
1324.0448 200.0
1324.175171 148.0
1324.22583 140.0
1324.573486 108.0
1324.761841 132.0
1324.88501 216.0
1324.973389 172.0
1325.167603 56.0
1325.261841 188.0
1325.355957 132.0
1325.41394 204.0
1325.628174 188.0
1325.841553 172.0
1325.899536 108.0
1326.000977 228.0
1326.055786 140.0
1326.13147 180.0
1326.530029 184.0
1326.820068 48.0
1327.178223 60.0
1327.429077 164.0
1327.504761 164.0
1327.784424 108.0
1327.922241 80.0
1328.045532 176.0
1328.103638 168.0
1328.505127 148.0
1328.640381 188.0
1328.969482 200.0
1329.286133 256.0
1329.402344 216.0
1329.612793 76.0
1329.728638 108.0
1329.794189 140.0
1330.131592 108.0
1330.235229 224.0
1330.345825 200.0
1330.570923 148.0
1331.013794 128.0
1331.071899 132.0
1331.159058 180.0
1331.376953 120.0
1331.456787 136.0
1331.50769 192.0
1331.580322 104.0
1331.856323 156.0
1332.067017 132.0
1332.197754 160.0
1332.335693 60.0
1332.590088 160.0
1332.692139 168.0
1332.90979 148.0
1333.084106 128.0
1333.200439 88.0
1333.280396 140.0
1333.365112 144.0
1333.607422 176.0
1333.889282 212.0
1333.964478 168.0
1334.352661 368.0
1334.426514 156.0
1334.479736 104.0
1334.777954 124.0
1335.01001 160.0
1335.221558 180.0
1335.454224 160.0
1335.621582 184.0
1335.730835 168.0
1335.985229 220.0
1336.069702 172.0
1336.401489 236.0
1336.531006 32.0
1336.581909 260.0
1336.829346 172.0
1336.916626 232.0
1337.120361 220.0
1337.22229 100.0
1337.324219 204.0
1337.513428 148.0
1337.567017 176.0
1337.782837 128.0
1338.205078 192.0
1338.255981 200.0
1338.467163 140.0
1338.634644 76.0
1339.033691 148.0
1339.264404 152.0
1339.530518 180.0
1339.945801 160.0
1340.044678 168.0
1340.20813 264.0
1340.324707 96.0
1340.448486 148.0
1340.659912 108.0
1340.710938 48.0
1340.885742 120.0
1341.067993 164.0
1341.282593 232.0
1341.537598 204.0
1341.726929 188.0
1341.892456 128.0
1342.015137 188.0
1342.161499 124.0
1342.256348 168.0
1342.322021 204.0
1342.550415 260.0
1342.668457 252.0
1342.778809 172.0
1342.93457 108.0
1343.401489 144.0
1343.487427 136.0
1343.587524 168.0
1343.963257 56.0
1344.116455 176.0
1344.225952 184.0
1344.3573 172.0
1344.408325 124.0
1344.758667 188.0
1344.846313 136.0
1344.928223 52.0
1345.138184 124.0
1345.189331 140.0
1345.276978 180.0
1345.620728 176.0
1345.893921 152.0
1345.945923 184.0
1346.06543 156.0
1346.145752 140.0
1346.572388 336.0
1346.64978 116.0
1347.49707 124.0
1347.843262 388.0
1347.913574 200.0
1348.088989 140.0
1348.558594 232.0
1348.637085 172.0
1348.783325 212.0
1348.88562 288.0
1348.995361 196.0
1349.163452 76.0
1349.280396 108.0
1349.687622 184.0
1349.916504 212.0
1349.996948 176.0
1350.105713 200.0
1350.25293 156.0
1350.318848 84.0
1350.489014 176.0
1350.582153 112.0
1350.678833 136.0
1350.801514 168.0
1351.072266 204.0
1351.284424 148.0
1351.443115 320.0
1351.598999 220.0
1351.694092 184.0
1352.030762 140.0
1352.405396 176.0
1352.704224 164.0
1352.797607 184.0
1352.916504 52.0
1353.203369 164.0
1353.289795 196.0
1353.363037 156.0
1353.604736 172.0
1353.868408 188.0
1354.227173 216.0
1354.322388 192.0
1354.498291 176.0
1354.827881 60.0
1354.87915 76.0
1355.282104 128.0
1355.391724 148.0
1355.893311 208.0
1356.000366 188.0
1356.256226 148.0
1356.578613 108.0
1356.945801 212.0
1357.397217 148.0
1357.82251 200.0
1358.021729 120.0
1358.111938 48.0
1358.207275 56.0
1358.339355 112.0
1358.493408 140.0
1358.581421 144.0
1358.823486 104.0
1358.940918 116.0
1359.021606 160.0
1359.19043 136.0
1359.327637 232.0
1359.439941 176.0
1359.660034 80.0
1359.731689 176.0
1359.930176 220.0
1360.019775 164.0
1360.144531 148.0
1360.29126 120.0
1360.357422 128.0
1360.416138 188.0
1360.533569 160.0
1360.594727 168.0
1360.827271 196.0
1360.930054 112.0
1361.047485 188.0
1361.106323 180.0
1361.310181 184.0
1361.842041 216.0
1362.049561 188.0
1362.457764 168.0
1362.580933 136.0
1362.668335 228.0
1363.008789 208.0
1363.143188 124.0
1363.365601 176.0
1363.48645 188.0
1363.639526 160.0
1363.728394 96.0
1363.754517 68.0
1363.776489 128.0
1363.846558 72.0
1363.949463 104.0
1364.721436 168.0
1364.875854 116.0
1365.096436 128.0
1365.170044 160.0
1365.221436 156.0
1365.426025 292.0
1365.515625 204.0
1365.622437 324.0
1366.273315 164.0
1366.427856 144.0
1366.725952 200.0
1366.891357 172.0
1367.141602 120.0
1367.220581 212.0
1367.296143 152.0
1367.39917 140.0
1367.767212 204.0
1367.848145 224.0
1368.135254 172.0
1368.444458 88.0
1368.5448 176.0
1368.641724 208.0
1368.783203 124.0
1368.834717 72.0
1368.959961 332.0
1369.283936 168.0
1369.46814 276.0
1369.748047 112.0
1369.954224 176.0
1370.012329 160.0
1370.094238 112.0
1370.978394 188.0
1371.074219 156.0
1371.17688 248.0
1371.631958 248.0
1371.973511 216.0
1372.084106 180.0
1372.179932 260.0
1372.378296 188.0
1372.570801 224.0
1372.784546 144.0
1373.026245 100.0
1373.05957 172.0
1373.123901 40.0
1373.245972 152.0
1373.330322 192.0
1373.463135 104.0
1373.637451 136.0
1373.758179 140.0
1374.046631 160.0
1374.112305 152.0
1374.289429 100.0
1374.540283 164.0
1374.687866 164.0
1374.857544 132.0
1374.931396 160.0
1375.115967 172.0
1375.588379 128.0
1375.721191 248.0
1375.770264 144.0
1376.059692 140.0
1376.208496 116.0
1376.555542 220.0
1376.629395 148.0
1376.725342 100.0
1376.806641 156.0
1376.895264 188.0
1377.214844 296.0
1377.877686 204.0
1378.032837 128.0
1378.090576 180.0
1378.202759 144.0
1378.396851 212.0
1378.45166 136.0
1378.971313 236.0
1379.178345 116.0
1379.3927 148.0
1379.452393 160.0
1379.510986 192.0
1379.660278 144.0
1379.784546 164.0
1379.858398 160.0
1380.014893 144.0
1380.213379 148.0
1380.279907 156.0
1380.40564 44.0
1380.553467 180.0
1380.654175 52.0
1380.87146 112.0
1381.013794 152.0
1381.336304 208.0
1381.445557 120.0
1381.581177 148.0
1381.633423 208.0
1381.803589 248.0
1381.924927 196.0
1382.0625 144.0
1382.232788 172.0
1382.314087 188.0
1382.476929 148.0
1382.810425 144.0
1383.061646 132.0
1383.498413 104.0
1383.639038 160.0
1383.757568 188.0
1383.951538 160.0
1384.046265 156.0
1384.157349 132.0
1384.30542 156.0
1384.484985 224.0
1384.623901 116.0
1384.683105 172.0
1384.806274 116.0
1384.97937 124.0
1385.186768 172.0
1385.262695 196.0
1385.735107 56.0
1385.890625 196.0
1386.053711 192.0
1386.146118 112.0
1386.209229 132.0
1386.509888 144.0
1386.876343 40.0
1387.039429 144.0
1387.209839 204.0
1387.343262 148.0
1387.44873 200.0
1387.662109 176.0
1387.914062 160.0
1388.032837 152.0
1388.099609 88.0
1388.425903 124.0
1388.663208 164.0
1388.722534 164.0
1388.989624 140.0
1389.081299 200.0
1389.39856 188.0
1390.161865 276.0
1390.24353 180.0
1390.523682 180.0
1391.067383 124.0
1391.193604 152.0
1391.356934 112.0
1391.408813 160.0
1391.497925 136.0
1391.624146 144.0
1391.69104 136.0
1391.765259 176.0
1392.158813 144.0
1392.621338 200.0
1392.849609 148.0
1392.990723 292.0
1393.116455 168.0
1393.391846 84.0
1393.562622 164.0
1393.659302 92.0
1393.956543 176.0
1394.023438 204.0
1394.097778 32.0
1394.246338 240.0
1394.365356 160.0
1394.61084 192.0
1394.863281 116.0
1395.011963 132.0
1395.172363 148.0
1395.420898 100.0
1395.66626 188.0
1395.792603 168.0
1395.874512 84.0
1396.073975 184.0
1396.246338 104.0
1396.707397 168.0
1396.78186 116.0
1396.9729 316.0
1397.084473 172.0
1397.156494 184.0
1397.250488 408.0
1397.421631 188.0
1397.60022 160.0
1397.749146 160.0
1397.91272 168.0
1398.203003 136.0
1398.359253 172.0
1398.70166 136.0
1398.80835 180.0
1399.171509 224.0
1399.220459 104.0
1399.268066 176.0
1399.31958 208.0
1399.455078 140.0
1399.550415 140.0
1399.654663 136.0
1400.309937 372.0
1400.421631 120.0
1400.558105 168.0
1400.591797 52.0
1400.620361 160.0
1400.759155 132.0
1400.883545 100.0
1400.935669 112.0
1401.002686 156.0
1401.240234 200.0
1401.516846 84.0
1401.56897 160.0
1401.762695 140.0
1401.900757 168.0
1401.971313 172.0
1402.135376 192.0
1402.399658 160.0
1402.657104 164.0
1402.739014 188.0
1402.974609 176.0
1403.164062 188.0
1403.641235 208.0
1403.738159 236.0
1403.847656 240.0
1403.875488 164.0
1403.895752 144.0
1403.926636 184.0
1403.953979 196.0
1404.036499 176.0
1404.430176 208.0
1404.588379 168.0
1404.707764 164.0
1404.821045 192.0
1405.150635 196.0
1405.208252 148.0
1405.383179 168.0
1405.518188 256.0
1405.876343 180.0
1406.028442 152.0
1406.20166 168.0
1406.446411 96.0
1407.054321 200.0
1407.394531 188.0
1407.491577 132.0
1407.88855 176.0
1408.06665 152.0
1408.171143 136.0
1408.238403 164.0
1408.343018 108.0
1408.694092 76.0
1408.798584 224.0
1409.067627 136.0
1409.142334 108.0
1409.299194 148.0
1409.485962 160.0
1409.545776 164.0
1409.650391 144.0
1409.725098 160.0
1410.008545 188.0
1410.091309 144.0
1410.210938 112.0
1410.487549 92.0
1410.607056 188.0
1410.771606 144.0
1411.157349 168.0
1411.212646 136.0
1411.317383 180.0
1411.399536 132.0
1411.463013 208.0
1411.691284 136.0
1411.997803 156.0
1412.177368 80.0
1412.319458 152.0
1412.438477 132.0
1412.589966 172.0
1412.77124 200.0
1412.961182 160.0
1413.194702 220.0
1413.476196 356.0
1414.145142 116.0
1414.205078 116.0
1414.272217 248.0
1414.684082 152.0
1414.744019 120.0
1415.058472 88.0
1415.320557 56.0
1415.522705 120.0
1415.687378 172.0
1415.83313 200.0
1416.016968 108.0
1416.144287 132.0
1416.286621 176.0
1416.533813 196.0
1416.679688 144.0
1416.833496 208.0
1417.047485 132.0
1417.178101 180.0
1417.275513 156.0
1417.417847 152.0
1418.1073 68.0
1418.647095 204.0
1418.751953 120.0
1418.924438 216.0
1419.15686 112.0
1419.389893 168.0
1419.636841 144.0
1419.980225 136.0
1420.071777 148.0
1420.161621 196.0
1420.2948 336.0
1420.536865 152.0
1420.596802 140.0
1420.829468 248.0
1421.001953 204.0
1421.249634 152.0
1421.338013 220.0
1421.677368 152.0
1421.774902 28.0
1421.880005 132.0
1422.067627 180.0
1422.135132 160.0
1422.396606 232.0
1422.593506 184.0
1423.171143 156.0
1423.223633 164.0
1423.651733 148.0
1423.704346 204.0
1423.839478 208.0
1423.899536 216.0
1424.20752 136.0
1424.317505 192.0
1424.49292 104.0
1424.72583 148.0
1425.04895 224.0
1425.168701 180.0
1425.432129 120.0
1425.492188 176.0
1425.762817 148.0
1425.905518 84.0
1426.694824 132.0
1426.973022 156.0
1427.040649 160.0
1427.206055 176.0
1427.28125 228.0
1427.439209 116.0
1427.517822 220.0
1427.606445 196.0
1427.777588 80.0
1427.95813 116.0
1428.243896 184.0
1428.386841 232.0
1428.552368 240.0
1428.672729 132.0
1428.988647 136.0
1429.274658 116.0
1429.344604 160.0
1429.4552 212.0
1429.598267 152.0
1429.850952 288.0
1430.102417 72.0
1430.439941 248.0
1430.546631 48.0
1430.795044 68.0
1430.885376 112.0
1431.028442 232.0
1431.096191 156.0
1431.291992 196.0
1431.585693 168.0
1431.69104 148.0
1431.776733 192.0
1432.5271 116.0
1432.659302 176.0
1432.820923 152.0
1432.888794 220.0
1432.948975 188.0
1433.250366 160.0
1433.393555 180.0
1433.55188 176.0
1433.618896 172.0
1433.7854 164.0
1433.89856 132.0
1434.004028 192.0
1434.554321 136.0
1434.803101 108.0
1434.92395 148.0
1435.05188 44.0
1435.149902 112.0
1435.286255 296.0
1435.53064 184.0
1435.692871 140.0
1435.851196 184.0
1435.939087 208.0
1436.243408 144.0
1436.552734 168.0
1436.613037 40.0
1436.696045 196.0
1436.801025 184.0
1436.929932 68.0
1437.058228 248.0
1437.364624 252.0
1437.631714 200.0
1437.835449 92.0
1438.069458 144.0
1438.658203 320.0
1439.057983 164.0
1439.120361 180.0
1439.40564 216.0
1439.537109 164.0
1439.821045 96.0
1439.896484 144.0
1439.964478 136.0
1440.017334 176.0
1440.077759 148.0
1440.134033 132.0
1440.206421 144.0
1440.39502 76.0
1440.463013 132.0
1440.579346 316.0
1440.666992 128.0
1440.719849 68.0
1440.807129 188.0
1441.2771 164.0
1441.362061 200.0
1441.823364 216.0
1442.414185 172.0
1442.539062 212.0
1442.669678 176.0
1442.720215 140.0
1442.904053 36.0
1443.161133 208.0
1443.350098 140.0
1443.625122 240.0
1443.811401 196.0
1443.959595 148.0
1444.114014 120.0
1444.189575 164.0
1444.666138 176.0
1444.908203 60.0
1445.097412 208.0
1445.187134 192.0
1445.242432 196.0
1445.341431 128.0
1445.581909 132.0
1445.770874 208.0
1445.907104 140.0
1446.005493 220.0
1446.081177 200.0
1446.194946 144.0
1446.641357 284.0
1446.842163 172.0
1446.977661 152.0
1447.072876 152.0
1447.360596 168.0
1447.45752 180.0
1447.476318 144.0
1447.50708 220.0
1447.875488 144.0
1447.943726 128.0
1448.026489 132.0
1448.125488 36.0
1448.261841 100.0
1448.539673 324.0
1448.746582 132.0
1448.853271 104.0
1448.920898 192.0
1449.042114 188.0
1449.122314 328.0
1449.299683 176.0
1449.595215 108.0
1449.716431 244.0
1449.845337 368.0
1449.928711 180.0
1450.171143 200.0
1450.220215 164.0
1450.648804 164.0
1450.929199 124.0
1450.997437 184.0
1451.103638 140.0
1451.566162 112.0
1452.134888 148.0
1452.364014 204.0
1452.848022 176.0
1453.052856 84.0
1453.136963 184.0
1453.378174 136.0
1454.001343 212.0
1454.380859 396.0
1454.464355 164.0
1454.836304 200.0
1454.9198 240.0
1455.064087 140.0
1455.269043 128.0
1455.337402 136.0
1455.596069 116.0
1455.656372 208.0
1455.792969 144.0
1455.869019 96.0
1455.952515 128.0
1456.158325 216.0
1456.210693 340.0
1456.286743 192.0
1456.408203 116.0
1456.484131 104.0
1456.62085 132.0
1456.856445 108.0
1457.053955 192.0
1457.15271 140.0
1457.435913 400.0
1457.55542 136.0
1457.67334 156.0
1457.783325 140.0
1457.942993 84.0
1458.057007 140.0
1458.171997 124.0
1458.295044 180.0
1458.497803 352.0
1458.657471 168.0
1458.866821 176.0
1458.999512 344.0
1459.06543 180.0
1459.258911 176.0
1459.444458 196.0
1459.562134 160.0
1460.094482 32.0
1460.3302 60.0
1460.416748 176.0
1460.528076 152.0
1460.893188 156.0
1461.175049 172.0
1461.235474 192.0
1461.364868 112.0
1461.456177 128.0
1461.532227 52.0
1461.638794 144.0
1461.69873 228.0
1461.748169 180.0
1462.049683 164.0
1462.140991 196.0
1462.514038 132.0
1463.069702 156.0
1463.199097 52.0
1464.05957 116.0
1464.120483 220.0
1464.355591 144.0
1464.554565 168.0
1464.623169 76.0
1464.730957 212.0
1464.849609 176.0
1465.125977 188.0
1465.18689 172.0
1465.369751 156.0
1465.475098 200.0
1465.828003 200.0
1466.146973 116.0
1466.80249 184.0
1466.901611 200.0
1467.145508 148.0
1467.252319 84.0
1467.369507 188.0
1467.674561 124.0
1467.710815 244.0
1467.80127 184.0
1467.907959 228.0
1468.062988 236.0
1468.1521 120.0
1468.213013 188.0
1468.378174 172.0
1468.450684 180.0
1468.532349 176.0
1468.613525 184.0
1468.678101 136.0
1469.189453 184.0
1469.296265 140.0
1469.495483 144.0
1469.772949 184.0
1470.082153 176.0
1470.219482 136.0
1470.477539 232.0
1470.639282 196.0
1470.807251 116.0
1470.990356 124.0
1471.09729 160.0
1471.196533 244.0
1471.355713 136.0
1471.500122 228.0
1471.608765 60.0
1471.708008 208.0
1471.929443 48.0
1472.057251 224.0
1472.181519 156.0
1472.257812 128.0
1472.372437 188.0
1472.486938 176.0
1472.555664 172.0
1472.63208 148.0
1472.754272 160.0
1472.952881 216.0
1473.132568 140.0
1473.258423 148.0
1473.457153 88.0
1473.51062 72.0
1473.587036 176.0
1473.874023 116.0
1474.182983 132.0
1474.328247 144.0
1474.419922 104.0
1474.542236 336.0
1474.687378 144.0
1474.832642 180.0
1474.924316 180.0
1475.253052 100.0
1475.367798 124.0
1475.685913 148.0
1475.860596 176.0
1476.147705 176.0
1476.35144 116.0
1476.547607 200.0
1476.665649 220.0
1476.797729 160.0
1476.889526 168.0
1477.004272 172.0
1477.080688 184.0
1477.141968 152.0
1477.379028 148.0
1477.463257 56.0
1477.562744 120.0
1477.63916 132.0
1477.754028 160.0
1477.876343 172.0
1478.083008 164.0
1478.179077 344.0
1478.503906 56.0
1478.675537 380.0
1478.903931 168.0
1479.009033 120.0
1479.575562 112.0
1479.62915 132.0
1479.78479 156.0
1479.874146 148.0
1479.965942 160.0
1480.226318 88.0
1480.341187 140.0
1480.763306 168.0
1481.075806 144.0
1481.352173 240.0
1481.436523 160.0
1482.133667 152.0
1482.401855 164.0
1482.508911 136.0
1482.651611 200.0
1482.772339 268.0
1482.892334 160.0
1483.143066 108.0
1483.244507 132.0
1483.589966 104.0
1483.71582 208.0
1483.919556 120.0
1483.996338 52.0
1484.196045 160.0
1484.264648 120.0
1484.36438 200.0
1484.44873 196.0
1484.625122 244.0
1484.685425 96.0
1484.729126 196.0
1484.826294 180.0
1484.962524 112.0
1485.069946 152.0
1485.138916 144.0
1485.200317 236.0
1485.422729 200.0
1485.514771 180.0
1485.585815 128.0
1485.739502 300.0
1485.844727 180.0
1486.021118 112.0
1486.09021 120.0
1486.174561 184.0
1486.305054 140.0
1486.38916 124.0
1486.697754 164.0
1486.834595 160.0
1487.005859 152.0
1487.11084 148.0
1487.172241 180.0
1487.241333 124.0
1487.361816 172.0
1487.525391 132.0
1487.799805 196.0
1487.866333 392.0
1488.093506 144.0
1488.500488 92.0
1488.746216 136.0
1488.945801 136.0
1489.122559 164.0
1489.306885 176.0
1489.445068 132.0
1489.591064 44.0
1489.742554 212.0
1489.921387 164.0
1490.067383 220.0
1490.121094 184.0
1490.201904 140.0
1490.297852 164.0
1490.397705 140.0
1490.459229 84.0
1491.296875 180.0
1491.419922 168.0
1491.667725 212.0
1491.873413 132.0
1492.172729 112.0
1492.250122 80.0
1492.470093 272.0
1492.673096 172.0
1493.234497 172.0
1493.326782 96.0
1493.453857 104.0
1493.55603 172.0
1493.820068 188.0
1493.907104 328.0
1494.034058 140.0
1494.119019 116.0
1494.27063 136.0
1494.372925 108.0
1494.43457 64.0
1494.781982 152.0
1494.842285 120.0
1494.950317 136.0
1495.154297 196.0
1495.4823 192.0
1495.690918 176.0
1495.87207 220.0
1495.935303 192.0
1496.14563 160.0
1496.366455 180.0
1496.465332 216.0
1496.630737 228.0
1496.742432 124.0
1496.929443 160.0
1497.036865 164.0
1497.294922 124.0
1497.382935 56.0
1497.464966 144.0
1497.737183 100.0
1497.852295 196.0
1497.952881 160.0
1498.037598 188.0
1498.147461 140.0
1498.334839 340.0
1498.401245 176.0
1498.52063 180.0
1499.131714 164.0
1499.247314 76.0
1499.61731 88.0
1499.817627 144.0
1499.926025 212.0
1500.019165 196.0
1500.095215 92.0
1500.172241 180.0
1500.394775 124.0
1500.466553 196.0
1500.807373 280.0
1500.950928 124.0
1501.027222 184.0
1501.135986 120.0
1501.475342 148.0
1501.543823 164.0
1501.884155 184.0
1501.93689 144.0
1501.962524 120.0
1501.97876 164.0
1502.185913 172.0
1502.269897 136.0
1502.385498 60.0
1502.682373 212.0
1502.809937 204.0
1502.871582 172.0
1503.022461 152.0
1503.11853 144.0
1503.296021 140.0
1503.370728 112.0
1503.40332 76.0
1503.447754 164.0
1503.666504 128.0
1503.759033 260.0
1503.851685 152.0
1503.952026 140.0
1504.006104 180.0
1504.554199 240.0
1504.669922 188.0
1504.765137 160.0
1504.891724 176.0
1505.148682 128.0
1505.272217 164.0
