>compound MLS001159932-01!
>formula C21H24N2O5
>ionization [M+H]+
>parentmass 385.175476
#inchi InChI=1S/C21H24N2O5/c1-26-17-8-14(9-18(27-2)20(17)28-3)21(25)22-10-13-7-15(12-22)16-5-4-6-19(24)23(16)11-13/h4-6,8-9,13,15H,7,10-12H2,1-3H3/t13-,15+/m1/s1
#inchikey ZAWJPZQSFHYQBJ
#Ion_Source LC-ESI
#Instrument qTof
#Compound_Source NIH Natural Product Library
#PI Dorrestein
#Data_Collector VVP/LMS
#Scan -1
#Precursor_MZ 385.176
#ExactMass 384.169
#Charge 1
#CAS_Number N/A
#Pubmed_ID N/A
#Smiles COc1cc(cc(OC)c1OC)C(=O)N2C[C@H]3C[C@@H](C2)c4cccc(=O)n4C3
#INCHI_AUX N/A
#Library_Class 1
#SpectrumID CCMSLIB00000080115
#IonMode Positive
#UpdateWorkflowName UPDATE-SINGLE-ANNOTATED-GOLD
#LibraryQualityString Gold
#TaskID b1d8e8f6646f4e71acdff9ca3d919d08
##Scan# 1573
#SpectrumFile p2-C04_GC4_01_18004.mzXML
#LibraryName NIH_Natural_Products_Library.mgf
#MQScore -1
#Organism NIH_Natural_Products_Library
#TIC_Query 0
#RT_Query -1
#MZErrorPPM -1
#SharedPeaks 0
#MassDiff 0
#LibMZ -1
#SpecMZ 385.176
#SpecCharge 0
#internalFilename spec-00000.mgf

>collision 10
95.014725 356.0
95.048759 1204.0
95.166107 44.0
95.218102 384.0
95.40313 188.0
95.457573 176.0
95.519806 120.0
95.541206 180.0
95.763107 132.0
95.784538 184.0
95.804016 112.0
95.971626 176.0
95.985275 144.0
96.024193 192.0
96.057297 1236.0
96.090599 168.0
96.121819 240.0
96.246742 268.0
96.26236 124.0
96.305328 172.0
96.37175 156.0
96.44796 124.0
96.461647 100.0
96.655266 176.0
96.84819 168.0
96.947037 32.0
97.027397 168.0
97.048965 308.0
97.061577 208.0
97.094063 208.0
97.129372 148.0
97.188225 168.0
97.201958 176.0
97.294205 112.0
97.329544 180.0
97.36293 112.0
97.518135 188.0
97.555481 148.0
97.630196 44.0
97.712814 164.0
97.732491 116.0
97.754135 92.0
97.813171 136.0
97.852547 132.0
97.899803 160.0
97.939194 164.0
97.984505 68.0
98.023911 140.0
98.189499 128.0
98.230919 120.0
98.258537 204.0
98.388794 120.0
98.414459 188.0
98.435303 216.0
98.455925 128.0
98.4823 204.0
98.50563 244.0
98.596283 168.0
98.740517 212.0
98.793922 188.0
98.825577 200.0
98.839424 140.0
98.964119 228.0
99.011642 232.0
99.045609 192.0
99.06752 192.0
99.084938 148.0
99.116638 200.0
99.271255 128.0
99.362373 136.0
99.437897 172.0
99.477592 248.0
99.525238 204.0
99.660301 180.0
99.777565 44.0
99.853127 200.0
99.990402 184.0
100.085953 208.0
100.117813 152.0
100.221397 212.0
100.249298 152.0
100.341682 140.0
100.366905 68.0
100.386841 180.0
100.441772 152.0
100.552429 156.0
100.658226 52.0
100.726135 76.0
100.775436 188.0
100.810043 208.0
100.85038 244.0
101.120026 156.0
101.178078 128.0
101.298225 192.0
101.681198 140.0
101.701263 160.0
101.805664 108.0
101.926193 116.0
102.167458 152.0
102.290207 44.0
102.574234 112.0
102.660927 176.0
102.848557 188.0
102.957581 148.0
103.076767 216.0
103.270844 208.0
103.412468 84.0
103.687912 196.0
103.768997 140.0
103.811577 184.0
103.868362 148.0
103.888649 132.0
103.939369 52.0
103.963722 60.0
104.048973 212.0
104.237862 196.0
104.256149 108.0
104.320206 132.0
104.461502 148.0
104.573418 200.0
104.604279 148.0
104.665024 76.0
104.709824 208.0
104.762787 176.0
104.797417 64.0
104.819832 248.0
104.840721 192.0
104.923782 136.0
104.984116 232.0
105.019623 116.0
105.036995 164.0
105.05838 148.0
105.101219 52.0
105.178772 44.0
105.335999 192.0
105.364601 192.0
105.464729 180.0
105.493347 200.0
105.569176 184.0
105.622169 168.0
105.777687 212.0
105.916924 120.0
105.990677 208.0
106.017319 192.0
106.042786 320.0
106.065239 168.0
106.080856 132.0
106.159126 204.0
106.232605 168.0
106.265427 148.0
106.292099 84.0
106.329041 176.0
106.347359 160.0
106.409096 140.0
106.470695 76.0
106.530258 176.0
106.56929 36.0
106.632996 140.0
106.715225 136.0
106.741951 128.0
106.840675 188.0
106.947678 272.0
106.972382 164.0
107.01371 768.0
107.032219 180.0
107.048859 1440.0
107.104904 156.0
107.227783 208.0
107.28756 168.0
107.322609 84.0
107.456673 160.0
107.526833 156.0
107.557793 196.0
107.607338 248.0
107.640373 80.0
107.890373 32.0
107.916992 140.0
107.968948 132.0
108.023926 344.0
108.058632 1104.0
108.12825 84.0
108.18206 40.0
108.393318 152.0
108.407822 164.0
108.422333 332.0
108.443054 36.0
108.482437 68.0
108.600632 168.0
108.660515 212.0
108.704361 204.0
108.733414 128.0
108.833054 100.0
108.86628 104.0
109.030663 1532.0
109.065628 3908.0
109.153046 64.0
109.196716 40.0
109.223755 168.0
109.240395 56.0
109.279922 68.0
109.317307 116.0
109.400627 120.0
109.454765 184.0
109.484985 164.0
109.558899 160.0
109.573486 212.0
109.602654 88.0
109.754814 176.0
110.032753 188.0
110.069313 508.0
110.291336 72.0
110.391693 132.0
110.46698 136.0
110.510918 92.0
110.527657 212.0
110.582779 236.0
110.632301 140.0
110.755852 232.0
110.789368 120.0
110.910988 188.0
111.022018 84.0
111.047188 168.0
111.081276 1508.0
111.124802 132.0
111.152077 172.0
111.282211 468.0
111.309509 176.0
111.431335 60.0
111.456543 156.0
111.530098 196.0
111.553223 112.0
111.620499 172.0
111.645737 216.0
111.704628 176.0
111.748802 76.0
111.768982 244.0
111.959297 68.0
112.040939 216.0
112.077263 188.0
112.378777 184.0
112.412704 200.0
112.444191 172.0
112.486404 144.0
112.551849 152.0
112.62999 216.0
112.649002 100.0
112.823044 200.0
112.847656 72.0
112.862457 176.0
112.968201 208.0
113.024178 1032.0
113.059746 920.0
113.196777 216.0
113.23278 144.0
113.25396 184.0
113.27726 208.0
113.357773 144.0
113.461632 452.0
113.599472 76.0
113.686462 192.0
113.765274 152.0
113.888153 136.0
113.930634 164.0
114.004532 252.0
114.047508 124.0
114.071274 184.0
114.126167 120.0
114.141052 148.0
114.200592 168.0
114.30484 96.0
114.341019 60.0
114.35804 168.0
114.404869 44.0
114.500687 80.0
114.58802 196.0
114.743599 160.0
114.811836 180.0
114.858757 156.0
114.935562 164.0
114.967567 108.0
115.016655 160.0
115.125542 132.0
115.159714 180.0
115.260117 48.0
115.277214 212.0
115.456779 124.0
115.514534 248.0
115.566895 244.0
115.585136 156.0
115.662178 152.0
115.681442 144.0
115.696426 184.0
116.037064 104.0
116.08651 136.0
116.146431 144.0
116.170029 76.0
116.185043 200.0
116.212936 172.0
116.257996 128.0
116.296631 160.0
116.369614 156.0
116.504913 200.0
116.655342 152.0
116.872559 132.0
117.058983 212.0
117.121407 176.0
117.152443 48.0
117.182602 196.0
117.352867 184.0
117.462852 140.0
117.583679 176.0
117.782318 204.0
117.881699 176.0
117.929245 124.0
118.062775 220.0
118.175766 164.0
118.203896 116.0
118.221207 152.0
118.27198 192.0
118.34243 96.0
118.40522 204.0
118.509201 188.0
118.656578 200.0
119.009735 176.0
119.042801 216.0
119.120987 132.0
119.151398 160.0
119.197029 60.0
119.240494 148.0
119.268745 72.0
119.366577 148.0
119.381798 116.0
119.410072 144.0
119.492729 208.0
119.603714 208.0
119.679909 160.0
119.716927 72.0
119.743057 180.0
119.843269 92.0
119.917076 124.0
119.954269 124.0
120.000977 208.0
120.187622 176.0
120.290344 196.0
120.3209 160.0
120.478142 120.0
120.502174 160.0
120.635483 148.0
120.687958 188.0
120.746994 44.0
120.948288 128.0
121.029587 1268.0
121.067345 336.0
121.099365 180.0
121.160278 332.0
121.281219 68.0
121.384262 208.0
121.441277 164.0
121.502701 140.0
121.553162 136.0
121.597054 88.0
121.621193 44.0
121.660706 188.0
121.800751 176.0
121.891319 124.0
121.966042 196.0
122.037399 5572.0
122.071754 164.0
122.192551 108.0
122.227753 148.0
122.267365 72.0
122.333389 144.0
122.351006 64.0
122.447067 204.0
122.500755 168.0
122.654999 108.0
122.738777 104.0
122.758308 200.0
122.844368 164.0
122.917442 204.0
122.963783 136.0
122.988068 100.0
123.042442 820.0
123.07637 132.0
123.164703 176.0
123.186798 156.0
123.288429 52.0
123.335182 112.0
123.498466 68.0
123.695389 92.0
123.730812 132.0
123.925072 152.0
124.009918 120.0
124.052185 8944.0
124.10524 140.0
124.129631 56.0
124.167328 152.0
124.318184 48.0
124.440269 144.0
124.537979 180.0
124.61795 228.0
124.697945 40.0
124.729065 196.0
124.804649 136.0
124.820213 176.0
124.955894 156.0
124.984818 148.0
125.028442 376.0
125.05883 460.0
125.26088 68.0
125.297485 200.0
125.337212 200.0
125.506653 228.0
125.52832 112.0
125.697853 184.0
125.715706 196.0
125.831772 176.0
125.863029 128.0
125.880898 100.0
125.936729 100.0
126.003738 152.0
126.032791 176.0
126.056641 172.0
126.157944 128.0
126.20266 108.0
126.283165 76.0
126.354744 216.0
126.392776 156.0
126.439774 172.0
126.45768 152.0
126.609917 136.0
126.646034 160.0
126.68383 96.0
126.780174 88.0
126.829483 212.0
126.886757 124.0
127.037994 200.0
127.130013 84.0
127.323074 148.0
127.363503 92.0
127.494347 168.0
127.527527 108.0
127.576981 160.0
127.662415 60.0
127.682655 176.0
127.786369 112.0
127.831131 80.0
127.889641 152.0
128.015717 148.0
128.046631 860.0
128.100784 192.0
128.306381 168.0
128.337418 208.0
128.47551 156.0
128.574799 132.0
128.832199 72.0
128.899979 120.0
128.947433 148.0
129.050873 164.0
129.182587 48.0
129.28894 64.0
129.372681 208.0
129.470047 164.0
129.494492 116.0
129.535721 72.0
129.603699 188.0
129.714737 156.0
129.821304 64.0
129.980087 172.0
130.079956 192.0
130.266159 124.0
130.54509 176.0
130.573441 196.0
130.661713 196.0
130.695831 72.0
130.821014 148.0
130.882477 244.0
130.957626 216.0
131.075027 168.0
131.14447 196.0
131.253891 176.0
131.363358 124.0
131.404434 236.0
131.59201 208.0
131.625824 152.0
131.676071 128.0
131.705765 180.0
131.806274 164.0
131.831421 200.0
131.89769 84.0
131.986847 124.0
132.00972 128.0
132.042908 304.0
132.075943 180.0
132.281982 164.0
132.467468 188.0
132.515579 204.0
132.834229 160.0
132.967316 116.0
133.026993 152.0
133.055161 328.0
133.114227 160.0
133.16835 220.0
133.360046 168.0
133.438202 60.0
133.484192 172.0
133.797104 128.0
133.886902 176.0
133.943008 168.0
134.036591 616.0
134.062836 304.0
134.090668 116.0
134.23027 156.0
134.3255 204.0
134.345581 148.0
134.477112 152.0
134.557907 232.0
134.638626 204.0
134.719559 92.0
134.754211 208.0
134.87439 136.0
134.897491 100.0
134.925232 184.0
135.042053 340.0
135.066071 160.0
135.221313 72.0
135.275497 176.0
135.323166 116.0
135.346329 32.0
135.46907 124.0
135.805176 176.0
135.844604 172.0
135.86084 68.0
135.937408 176.0
135.958298 172.0
136.004715 168.0
136.023285 252.0
136.055786 196.0
136.137054 216.0
136.264801 136.0
136.304306 160.0
136.325211 160.0
136.411209 108.0
136.436783 180.0
136.483276 168.0
136.583282 116.0
136.622833 388.0
136.920761 80.0
137.024033 3696.0
137.059494 160.0
137.109467 56.0
137.125778 128.0
137.275955 192.0
137.312302 104.0
137.384613 120.0
137.42894 140.0
137.459274 128.0
137.601639 128.0
137.706726 76.0
137.816513 96.0
137.874939 88.0
138.025345 452.0
138.066788 388.0
138.146164 184.0
138.221024 36.0
138.263153 40.0
138.32869 196.0
138.349762 144.0
138.40126 140.0
138.499481 64.0
138.565216 172.0
138.673004 116.0
138.691757 136.0
138.712845 116.0
138.820694 144.0
138.935623 224.0
139.039291 136.0
139.045853 296.0
139.076385 16076.0
139.111633 144.0
139.223572 68.0
139.254868 196.0
139.281281 64.0
139.322784 92.0
139.379364 108.0
139.419312 96.0
139.473373 48.0
139.53685 164.0
139.568069 100.0
139.673233 132.0
139.732056 172.0
139.849716 280.0
139.88266 52.0
139.920334 52.0
139.941513 180.0
139.979187 128.0
140.045532 96.0
140.08049 2292.0
140.121414 176.0
140.158203 68.0
140.240692 48.0
140.304337 44.0
140.577942 60.0
140.707764 152.0
140.726639 308.0
140.743179 184.0
140.769516 192.0
140.899048 164.0
140.925049 144.0
141.0186 812.0
141.054947 232.0
141.08812 356.0
141.111084 152.0
141.138641 140.0
141.229996 64.0
141.371948 132.0
141.426376 148.0
141.447678 156.0
141.513977 192.0
141.537643 96.0
141.582642 108.0
141.608688 256.0
141.625275 188.0
141.765045 124.0
142.028473 184.0
142.068283 160.0
142.095749 248.0
142.24176 144.0
142.422226 180.0
142.483994 100.0
142.502991 200.0
142.545761 44.0
142.614685 140.0
142.850082 100.0
142.911942 164.0
142.957153 68.0
142.978577 140.0
143.001434 192.0
143.008438 116.0
143.01796 256.0
143.071686 1000.0
143.173782 188.0
143.199982 124.0
143.331009 120.0
143.364365 252.0
143.6147 108.0
143.755295 284.0
143.803192 172.0
144.03479 160.0
144.070969 248.0
144.086029 320.0
144.209213 124.0
144.402878 148.0
144.419617 232.0
144.479416 144.0
144.613419 148.0
144.71875 112.0
144.741821 176.0
144.824112 160.0
144.855255 48.0
145.003815 132.0
145.056244 192.0
145.085648 140.0
145.22438 116.0
145.373123 68.0
145.555557 48.0
145.687668 176.0
145.774155 152.0
146.014557 116.0
146.059891 1448.0
146.105957 136.0
146.320145 144.0
146.568222 172.0
146.921799 172.0
147.05278 180.0
147.057373 168.0
147.066849 152.0
147.142258 112.0
147.282318 160.0
147.463531 168.0
147.574722 176.0
147.673874 184.0
147.949722 64.0
147.969101 180.0
148.041183 192.0
148.072479 144.0
148.115982 128.0
148.1362 156.0
148.187073 120.0
148.22583 212.0
148.405197 260.0
148.659897 144.0
148.71814 180.0
148.78125 68.0
148.880798 140.0
149.031403 160.0
149.077576 216.0
149.291504 192.0
149.369324 228.0
149.39447 192.0
149.415543 104.0
149.437439 196.0
149.534775 160.0
149.566422 124.0
149.768524 80.0
149.822113 180.0
149.851349 176.0
150.007309 104.0
150.032211 132.0
150.092636 48.0
150.109711 204.0
150.199951 220.0
150.238983 184.0
150.33902 64.0
150.438248 128.0
150.53186 228.0
150.549316 188.0
150.607574 72.0
150.893478 96.0
150.954605 136.0
150.974167 116.0
150.998627 160.0
151.039795 4868.0
151.088882 192.0
151.156662 160.0
151.20903 88.0
151.277161 144.0
151.363251 40.0
151.389404 108.0
151.490067 124.0
151.542068 156.0
151.564117 144.0
151.608215 180.0
151.63028 104.0
151.668579 128.0
151.694 152.0
151.78717 132.0
151.855835 52.0
151.905273 208.0
151.983398 168.0
152.008453 168.0
152.047546 28860.0
152.097916 132.0
152.138016 44.0
152.16748 196.0
152.258331 148.0
152.28508 72.0
152.305283 136.0
152.332809 100.0
152.354126 152.0
152.416718 160.0
152.459381 200.0
152.516312 36.0
152.636871 200.0
152.727768 128.0
152.811401 76.0
152.85965 56.0
152.902451 88.0
153.052353 2472.0
153.10733 72.0
153.143723 120.0
153.252121 60.0
153.269363 188.0
153.349274 160.0
153.380264 136.0
153.439438 176.0
153.540527 92.0
153.681137 88.0
153.709595 116.0
153.740356 208.0
153.799591 44.0
153.935379 156.0
153.96994 44.0
154.00708 112.0
154.06012 216.0
154.093445 152.0
154.146439 144.0
154.192291 168.0
154.335663 100.0
154.444473 168.0
154.533539 88.0
154.568176 44.0
154.600342 92.0
154.659744 184.0
154.696869 136.0
154.714203 64.0
154.909836 192.0
154.934616 192.0
154.961868 48.0
155.036194 216.0
155.060242 168.0
155.085373 200.0
155.365967 196.0
155.509888 168.0
156.011642 164.0
156.04248 3120.0
156.082397 164.0
156.213074 76.0
156.489319 168.0
156.946259 196.0
157.048981 200.0
157.076202 136.0
157.232147 148.0
157.691681 56.0
157.71167 136.0
157.874176 132.0
157.971725 176.0
158.016754 120.0
158.050888 232.0
158.069305 268.0
158.209671 196.0
158.262039 216.0
158.417313 140.0
158.560135 140.0
158.620285 124.0
158.637833 248.0
158.692993 212.0
158.916214 180.0
159.04921 136.0
159.068954 320.0
159.13974 164.0
159.172226 40.0
159.232498 148.0
159.260132 184.0
159.302826 92.0
159.327957 172.0
159.501343 140.0
159.730072 116.0
159.888672 116.0
159.916351 160.0
159.989487 152.0
160.077133 1820.0
160.367188 172.0
160.475586 128.0
160.795944 84.0
160.836334 188.0
160.960037 144.0
161.002975 88.0
161.041687 248.0
161.079926 180.0
161.090149 256.0
161.177261 76.0
161.245499 48.0
161.312759 184.0
161.333969 88.0
161.498764 252.0
161.591934 196.0
161.629883 108.0
161.677963 36.0
161.746292 140.0
162.02832 608.0
162.090164 208.0
162.141403 40.0
162.18956 128.0
162.328995 252.0
162.384796 236.0
162.43045 176.0
162.469849 196.0
162.708237 256.0
162.892441 180.0
162.955948 140.0
163.037033 360.0
163.088089 132.0
163.192322 160.0
163.210114 148.0
163.245712 176.0
163.370346 176.0
163.55101 84.0
163.708862 44.0
163.738739 180.0
163.902451 160.0
164.085953 136.0
164.320602 96.0
164.379288 172.0
164.718842 172.0
164.838913 192.0
165.013077 316.0
165.053223 464.0
165.191742 280.0
165.217316 188.0
165.743317 188.0
165.868149 224.0
165.913895 156.0
165.949783 204.0
165.983124 144.0
166.023346 192.0
166.030289 132.0
166.060715 236.0
166.106232 60.0
166.244965 156.0
166.29097 204.0
166.455261 96.0
166.498917 140.0
166.540009 140.0
166.575974 48.0
166.637634 144.0
166.794388 140.0
166.862625 132.0
166.901932 120.0
166.948654 104.0
167.030396 172.0
167.070847 12776.0
167.13385 156.0
167.154449 56.0
167.187897 72.0
167.288269 116.0
167.321747 48.0
167.372726 224.0
167.444733 84.0
167.486557 112.0
167.609299 216.0
167.672058 60.0
167.790634 76.0
167.886032 48.0
167.991776 200.0
168.047821 248.0
168.074936 1060.0
168.185303 164.0
168.309219 76.0
168.428024 204.0
168.448685 176.0
168.585617 68.0
168.614044 172.0
168.898453 168.0
168.955368 120.0
168.973465 152.0
169.110611 68.0
169.136505 56.0
169.159805 68.0
169.253006 60.0
169.348816 156.0
169.449173 184.0
169.633835 152.0
169.747925 236.0
169.784225 172.0
170.054855 212.0
170.118927 184.0
170.173447 176.0
170.235764 160.0
170.453964 116.0
170.477356 128.0
170.555328 64.0
170.573517 136.0
170.646317 280.0
170.786743 120.0
170.856979 64.0
170.932419 168.0
170.950638 140.0
170.984467 140.0
171.070541 392.0
171.174515 92.0
171.5914 160.0
171.771332 132.0
171.826111 52.0
172.014008 68.0
172.077042 216.0
172.212448 152.0
172.272537 180.0
172.290817 100.0
172.378586 156.0
172.447601 268.0
172.816315 156.0
172.923599 140.0
173.054489 124.0
173.080673 48.0
173.337372 264.0
173.379959 208.0
173.699173 220.0
173.809357 176.0
173.835602 112.0
173.916962 192.0
173.998337 180.0
174.048218 132.0
174.092346 684.0
174.142761 148.0
174.324036 176.0
174.360825 108.0
174.416748 72.0
174.534317 156.0
174.594803 252.0
174.728943 192.0
175.061127 332.0
175.095627 128.0
175.176483 128.0
175.213364 200.0
175.411011 112.0
175.46109 64.0
175.486862 232.0
175.619308 156.0
175.672058 156.0
175.880524 128.0
175.92012 192.0
176.230057 200.0
176.271393 152.0
176.297806 140.0
176.316315 52.0
176.334808 140.0
176.585983 172.0
176.771164 164.0
176.887619 40.0
176.952698 116.0
176.985565 128.0
177.051773 112.0
177.082504 176.0
177.382965 168.0
177.422729 80.0
177.568558 112.0
177.592438 184.0
177.778137 160.0
177.916168 168.0
177.937408 184.0
177.990509 48.0
178.046265 164.0
178.439529 212.0
178.487396 228.0
178.516647 144.0
178.764038 148.0
178.881134 88.0
179.003616 76.0
179.04184 248.0
179.14743 128.0
179.397934 112.0
179.517914 40.0
179.640594 160.0
179.795349 196.0
179.902115 264.0
179.966187 148.0
180.040451 856.0
180.559494 136.0
180.802856 160.0
181.049179 736.0
181.209869 128.0
181.732697 76.0
181.952774 224.0
181.976929 104.0
182.054443 156.0
182.181046 200.0
182.237457 176.0
182.264328 124.0
182.29657 160.0
182.339569 248.0
182.385269 200.0
182.417526 164.0
182.479355 128.0
182.527756 176.0
182.670288 232.0
183.065842 308.0
183.189819 128.0
183.243698 192.0
183.375748 52.0
184.038605 1596.0
184.098312 144.0
184.187881 128.0
184.222763 140.0
184.374313 200.0
184.601395 124.0
184.641953 52.0
184.912506 168.0
184.955811 56.0
185.041214 196.0
185.082535 1272.0
185.242828 184.0
185.297012 128.0
185.321396 228.0
185.427078 192.0
185.505676 124.0
185.771439 184.0
185.809418 204.0
185.980377 160.0
186.091858 232.0
186.167694 172.0
186.254608 120.0
186.450226 60.0
186.47197 92.0
186.607895 48.0
186.977829 176.0
187.054047 168.0
187.078537 160.0
187.184586 164.0
187.350861 148.0
187.369934 136.0
187.427155 112.0
187.541611 172.0
187.78154 132.0
188.069366 284.0
188.242737 120.0
188.335602 156.0
188.37384 92.0
188.483124 76.0
188.723648 64.0
188.868591 144.0
188.950653 60.0
189.10257 1068.0
189.230133 104.0
189.68457 228.0
189.736649 160.0
189.766815 144.0
189.849075 176.0
189.907028 152.0
189.980728 108.0
190.110733 156.0
190.150848 220.0
190.279861 172.0
190.474838 116.0
190.496811 84.0
190.609116 32.0
190.724884 164.0
190.79361 128.0
190.898087 140.0
191.019104 200.0
191.093384 124.0
191.180954 92.0
191.275009 124.0
191.374115 120.0
191.429184 124.0
191.51181 148.0
191.616486 156.0
191.762527 180.0
191.815109 156.0
191.922409 144.0
192.010666 80.0
192.071335 188.0
192.352783 116.0
192.438019 280.0
192.712646 244.0
192.808517 136.0
192.919083 176.0
193.024139 116.0
193.264786 120.0
193.286911 92.0
193.320129 152.0
193.350571 96.0
193.392746 364.0
193.430008 148.0
193.448746 196.0
193.500046 144.0
193.540573 156.0
193.594177 44.0
193.693893 148.0
193.787796 200.0
193.854584 100.0
193.904465 140.0
193.923859 120.0
193.951584 144.0
193.989532 116.0
194.024826 152.0
194.090195 144.0
194.162292 164.0
194.244598 92.0
194.285995 160.0
194.346008 188.0
194.385239 272.0
194.391205 100.0
194.403946 224.0
194.432343 164.0
194.450165 324.0
194.472946 284.0
194.47699 196.0
194.512634 104.0
194.526947 132.0
194.566299 260.0
194.611832 88.0
194.649033 160.0
194.692352 192.0
194.711792 240.0
194.740479 184.0
194.768707 160.0
194.794754 124.0
194.79924 108.0
194.820602 228.0
194.848236 164.0
194.88504 260.0
194.892807 176.0
194.947601 264.0
194.953995 256.0
194.969467 164.0
194.980164 292.0
194.991165 272.0
195.01593 188.0
195.067123 196932.0
195.149963 88.0
195.175003 180.0
195.214386 96.0
195.245789 116.0
195.294968 148.0
195.317596 396.0
195.353607 244.0
195.376862 184.0
195.413071 68.0
195.475632 104.0
195.497299 152.0
195.524536 1444.0
195.562393 160.0
195.589767 136.0
195.656891 60.0
195.675354 144.0
195.711548 92.0
195.717224 188.0
195.747574 140.0
195.77829 188.0
195.805771 144.0
195.846939 88.0
195.883606 124.0
195.905045 64.0
195.933731 40.0
195.950974 180.0
195.981537 88.0
195.992249 40.0
196.001434 100.0
196.026596 260.0
196.070145 22160.0
196.136322 360.0
196.169144 212.0
196.212982 40.0
196.230682 132.0
196.266006 68.0
196.28862 96.0
196.335785 104.0
196.385574 120.0
196.405624 76.0
196.441345 64.0
196.474518 72.0
196.495407 104.0
196.526749 68.0
196.561554 68.0
196.596512 72.0
196.621628 92.0
196.646957 52.0
196.709991 156.0
196.788559 60.0
196.81424 76.0
196.881256 124.0
196.920685 80.0
197.014252 96.0
197.022675 76.0
197.069885 3780.0
197.121506 84.0
197.155777 60.0
197.184952 136.0
197.20755 160.0
197.259842 40.0
197.291702 104.0
197.317627 308.0
197.37114 52.0
197.397766 100.0
197.45137 40.0
197.458618 128.0
197.469604 116.0
197.493423 216.0
197.524872 120.0
197.551666 160.0
197.581192 140.0
197.603226 116.0
197.641174 136.0
197.685593 132.0
197.704758 76.0
197.786774 100.0
197.829102 148.0
197.904694 28.0
198.011108 96.0
198.071106 328.0
198.114746 68.0
198.165176 72.0
198.240829 60.0
198.278198 120.0
198.316132 92.0
198.373871 72.0
198.412567 124.0
198.459457 76.0
198.498718 40.0
198.523956 72.0
198.580612 60.0
198.630539 76.0
198.6698 124.0
198.810089 48.0
198.869034 56.0
199.110489 108.0
199.177887 92.0
199.308731 92.0
199.366135 48.0
199.484177 44.0
199.540405 92.0
199.562897 36.0
199.588196 72.0
199.784943 84.0
199.934204 88.0
200.104095 56.0
201.634766 64.0
201.812866 40.0
202.245682 64.0
202.392899 68.0
202.449524 108.0
202.509003 84.0
203.047501 92.0
203.118408 140.0
204.075439 64.0
204.445221 60.0
204.522064 76.0
205.077484 72.0
205.351181 92.0
205.542328 100.0
205.605103 88.0
205.662186 84.0
206.030548 100.0
206.050537 204.0
206.207703 60.0
206.230576 108.0
206.304886 52.0
206.839813 72.0
206.86557 88.0
207.212097 52.0
207.235016 68.0
208.579834 76.0
209.049744 92.0
209.078522 136.0
209.415359 108.0
210.933075 172.0
211.410294 116.0
212.406952 84.0
212.488174 112.0
212.656479 28.0
212.766495 124.0
213.612427 40.0
215.209473 32.0
216.121399 160.0
216.6689 100.0
216.967819 216.0
217.099731 2224.0
217.222946 100.0
218.101273 228.0
218.200851 56.0
218.374344 48.0
219.623169 136.0
220.172119 68.0
220.807907 152.0
220.955429 56.0
221.588989 52.0
221.796432 48.0
222.072174 128.0
222.502441 48.0
224.079895 128.0
224.129333 148.0
224.427399 100.0
225.095779 112.0
227.103882 128.0
227.56601 88.0
228.494705 124.0
234.752563 72.0
235.112488 252.0
235.77829 52.0
236.094147 388.0
237.756653 40.0
238.429214 84.0
240.008377 124.0
240.727341 120.0
242.137527 60.0
242.221161 80.0
244.655731 68.0
249.27536 84.0
251.555603 212.0
253.976273 128.0
254.337982 148.0
259.015686 164.0
260.105896 64.0
260.925049 40.0
263.315979 132.0
267.853607 20.0
272.502289 56.0
274.585968 100.0
274.806976 156.0
275.120483 124.0
276.664337 76.0
278.179291 208.0
279.119507 100.0
280.187897 140.0
281.254974 108.0
285.625885 148.0
285.826202 92.0
286.405243 116.0
287.416595 36.0
290.379974 76.0
290.770142 68.0
290.963623 44.0
297.058594 48.0
297.333069 92.0
298.521698 124.0
302.797516 84.0
303.511383 64.0
305.765869 88.0
306.915405 100.0
311.131348 72.0
311.953369 60.0
321.4133 64.0
323.482574 196.0
323.697388 80.0
324.614716 160.0
329.314789 48.0
329.802551 84.0
331.768127 104.0
333.575897 232.0
335.199097 48.0
336.658234 184.0
342.390198 60.0
343.138214 84.0
343.532806 84.0
343.56601 128.0
343.942413 56.0
344.145447 76.0
346.723694 44.0
347.046204 108.0
349.229767 220.0
349.363678 52.0
351.67392 52.0
352.043518 96.0
354.523712 116.0
357.159302 64.0
359.012299 200.0
361.641754 92.0
362.509033 96.0
364.957306 184.0
365.950348 84.0
366.331207 84.0
367.410034 100.0
368.177246 44.0
369.140228 132.0
370.847656 124.0
371.453491 88.0
376.646118 64.0
376.966766 88.0
377.484741 88.0
378.432739 44.0
382.699738 40.0
383.334656 120.0
384.161194 112.0
384.547485 132.0
384.801208 112.0
384.92865 132.0
385.175476 3156.0
385.487549 56.0
385.55899 52.0
385.60199 40.0
385.668427 48.0
385.777893 88.0
386.047668 72.0
386.181915 1052.0
386.251038 64.0
386.305786 56.0
386.56012 56.0
386.686157 192.0
386.7323 100.0
386.798859 84.0
386.900635 76.0
387.115967 64.0
387.178986 168.0
387.636963 80.0
389.147064 64.0
390.085999 44.0
394.801514 72.0
395.026947 48.0
397.14212 60.0
398.400452 68.0
399.048248 80.0
399.664734 136.0
419.411194 104.0
420.990082 88.0
422.993439 44.0
427.191284 72.0
430.133453 124.0
438.495239 104.0
440.443726 96.0
443.238312 92.0
448.175415 100.0
455.965912 60.0
475.703247 100.0
478.050201 136.0
480.141266 68.0
484.31076 108.0
489.554565 112.0
490.017059 112.0
506.297058 72.0
515.718506 80.0
520.710876 96.0
526.426147 60.0
533.941772 112.0
536.958374 40.0
541.195801 96.0
544.678589 60.0
547.115234 60.0
553.970581 76.0
560.463379 92.0
562.949219 88.0
563.327026 104.0
572.076172 40.0
574.835693 60.0
612.195251 60.0
616.808228 80.0
622.758972 60.0
634.62085 108.0
648.879089 60.0
683.577515 44.0
687.678833 116.0
693.232788 52.0
701.431641 140.0
718.539307 64.0
728.518127 44.0
746.608887 56.0
753.585999 148.0
757.672791 180.0
765.097656 56.0
769.944275 116.0
777.93396 80.0
787.02533 44.0
787.639648 60.0
833.613403 176.0
837.548523 76.0
840.892639 44.0
846.482788 172.0
849.989685 92.0
855.802063 144.0
869.134277 220.0
875.406128 72.0
879.739624 84.0
925.787231 192.0
926.78064 144.0
937.213013 172.0
948.702759 84.0
958.659607 204.0
959.904785 172.0
963.286865 212.0
965.505737 204.0
965.647949 172.0
965.882996 144.0
966.309814 32.0
984.603333 164.0
999.069763 184.0
1005.421509 212.0
1006.75293 168.0
1008.003662 56.0
1009.615662 68.0
1014.294434 236.0
1017.091614 100.0
1018.850586 152.0
1026.341553 76.0
1035.806152 184.0
1036.786499 164.0
1040.956055 128.0
1043.326904 144.0
1047.297119 184.0
1053.864136 172.0
1060.905518 52.0
1061.093506 124.0
1064.207642 180.0
1067.859619 224.0
1068.282471 224.0
1069.629395 108.0
1073.199341 104.0
1078.696167 68.0
1080.331055 132.0
1082.098022 32.0
1083.9646 188.0
1084.442993 148.0
1084.87561 140.0
1087.020264 152.0
1091.638184 220.0
1092.578735 148.0
1097.564453 216.0
1098.349121 96.0
1098.434937 188.0
1103.751343 36.0
1104.439087 56.0
1107.662476 144.0
1110.001953 144.0
1111.102905 224.0
1111.713379 172.0
1113.95752 160.0
1115.937866 140.0
1116.689331 128.0
1122.449585 144.0
1133.733276 140.0
1134.691772 192.0
1136.133667 176.0
1136.254395 40.0
1136.301392 180.0
1137.468994 148.0
1139.893433 140.0
1142.818359 88.0
1145.430298 132.0
1151.622192 172.0
1153.534302 220.0
1155.536011 180.0
1156.544312 56.0
1158.020264 188.0
1159.700562 144.0
1161.999268 68.0
1167.807251 124.0
1168.596313 232.0
1169.494507 192.0
1171.074097 176.0
1174.025024 152.0
1174.406982 120.0
1175.02771 124.0
1175.996704 108.0
1176.604126 116.0
1178.871826 216.0
1179.609863 224.0
1180.227661 216.0
1181.770996 108.0
1182.044678 180.0
1186.81189 120.0
1196.223755 172.0
1196.7677 152.0
1197.435547 172.0
1200.081665 224.0
1202.28894 40.0
1203.994141 148.0
1206.834106 64.0
1211.24231 140.0
1213.466797 140.0
1213.619385 208.0
1215.117432 228.0
1218.692993 160.0
1226.647339 44.0
1228.62085 208.0
1230.190918 220.0
1231.126465 108.0
1232.125366 224.0
1234.963257 160.0
1240.929443 132.0
1241.74292 144.0
1241.80603 148.0
1245.12561 144.0
1247.198242 172.0
1248.899658 60.0
1249.518799 180.0
1251.25 172.0
1251.623169 56.0
1251.742798 152.0
1252.397827 176.0
1252.559814 180.0
1253.250244 160.0
1256.22522 100.0
1256.331055 216.0
1256.754395 104.0
1260.447144 184.0
1263.317505 176.0
1267.508789 136.0
1268.018921 160.0
1268.082764 92.0
1269.082275 136.0
1271.806274 156.0
1271.891479 244.0
1273.091309 116.0
1274.043091 152.0
1275.563721 160.0
1275.762817 140.0
1277.085327 200.0
1277.149414 120.0
1277.633057 164.0
1284.307495 224.0
1284.521484 108.0
1285.960205 120.0
1286.205444 224.0
1286.590942 204.0
1289.605225 132.0
1295.472534 152.0
1298.432739 160.0
1301.776855 172.0
1302.006714 140.0
1305.858765 180.0
1306.729126 216.0
1307.312012 188.0
1313.92627 144.0
1314.813843 128.0
1316.726929 96.0
1318.56189 192.0
1319.111206 152.0
1319.545044 172.0
1320.289795 140.0
1322.793091 176.0
1323.393921 136.0
1324.183228 112.0
1325.791504 184.0
1327.002075 148.0
1329.925415 128.0
1331.050659 80.0
1331.798706 168.0
1332.42334 168.0
1332.997314 180.0
1333.535156 108.0
1334.269287 164.0
1334.32019 160.0
1334.640015 156.0
1335.083618 132.0
1335.745483 164.0
1335.840088 192.0
1335.985474 116.0
1336.574829 136.0
1337.433594 44.0
1337.906738 176.0
1337.994019 136.0
1339.166382 128.0
1341.600098 112.0
1342.445801 144.0
1343.598267 72.0
1343.668213 184.0
1344.174683 184.0
1344.232056 148.0
1346.255005 160.0
1348.921753 268.0
1354.101929 208.0
1355.530518 184.0
1356.241333 176.0
1356.387939 176.0
1356.622437 144.0
1357.817627 124.0
1357.942261 112.0
1360.282837 180.0
1360.422363 132.0
1360.796753 176.0
1361.141846 100.0
1361.545776 184.0
1362.537354 180.0
1365.426025 124.0
1365.99231 124.0
1368.163208 200.0
1368.420898 88.0
1369.20874 236.0
1369.724243 160.0
1372.373169 268.0
1373.262207 136.0
1374.848267 136.0
1375.822632 184.0
1377.292114 136.0
1377.683594 168.0
1378.533203 264.0
1379.449707 168.0
1379.967163 180.0
1380.048462 148.0
1380.647461 148.0
1380.736206 224.0
1381.26123 232.0
1382.622681 156.0
1382.77063 172.0
1382.911255 228.0
1383.014893 140.0
1384.991821 144.0
1386.13269 212.0
1386.443848 184.0
1387.021973 148.0
1389.209473 264.0
1390.990356 120.0
1391.52478 136.0
1391.651001 220.0
1393.505371 188.0
1395.276611 68.0
1395.759888 184.0
1396.473755 184.0
1396.804688 180.0
1400.805664 176.0
1401.77417 172.0
1401.885986 152.0
1402.273438 140.0
1402.586548 184.0
1402.840698 172.0
1403.60791 200.0
1404.510254 160.0
1406.043091 192.0
1408.309326 236.0
1408.75 216.0
1409.556885 112.0
1410.550903 136.0
1411.200439 184.0
1411.84436 132.0
1412.001343 92.0
1412.120972 176.0
1413.751953 140.0
1417.293701 172.0
1417.593384 144.0
1417.818237 160.0
1419.130005 160.0
1419.30249 212.0
1422.618164 196.0
1424.007568 148.0
1424.780884 188.0
1425.592651 168.0
1426.126221 44.0
1427.802856 156.0
1430.052246 212.0
1431.121216 160.0
1431.219116 132.0
1431.429932 132.0
1431.482666 188.0
1432.137817 188.0
1432.190552 72.0
1432.778076 180.0
1433.833008 156.0
1434.58667 40.0
1437.133179 108.0
1440.457397 240.0
1441.303589 156.0
1441.681396 124.0
1444.130859 104.0
1444.493896 192.0
1446.695923 244.0
1447.165283 152.0
1447.680176 76.0
1448.520874 200.0
1449.088989 180.0
1449.376953 80.0
1449.619385 56.0
1450.271118 92.0
1450.710815 52.0
1452.280396 104.0
1452.788574 160.0
1453.160278 136.0
1455.224609 192.0
1455.710571 176.0
1456.0979 140.0
1457.723511 148.0
1458.232666 60.0
1458.574707 160.0
1458.635498 112.0
1459.958496 172.0
1460.133301 180.0
1461.852539 128.0
1466.040771 220.0
1466.658081 120.0
1466.810547 140.0
1467.466187 176.0
1468.350708 164.0
1468.663452 176.0
1470.525024 168.0
1470.731079 184.0
1471.262207 196.0
1471.654785 200.0
1472.074707 124.0
1473.121094 136.0
1473.35791 136.0
1474.633911 244.0
1475.375366 172.0
1475.545044 216.0
1475.612427 120.0
1476.514648 168.0
1476.835815 232.0
1477.279541 184.0
1477.363647 124.0
1478.664429 160.0
1480.157104 160.0
1481.558716 128.0
1482.043213 196.0
1483.351807 132.0
1484.37915 208.0
1484.954346 148.0
1486.427246 228.0
1487.005981 164.0
1489.021851 176.0
1492.656616 168.0
1492.802734 172.0
1493.118042 164.0
1493.925659 120.0
1494.156494 168.0
1497.173706 184.0
1497.227539 212.0
1497.327759 180.0
1497.512573 156.0
1498.406128 140.0
1499.176636 168.0
1500.432983 204.0
1500.776978 140.0
1501.288818 64.0
1503.217285 192.0
1503.595337 60.0
1504.097046 100.0
