>compound MLS001140369-01!1-[2-(8-methyl-2-oxo-4-propylchromen-7-yl)oxyacetyl]piperidine-4-carboxamide
>formula C21H26N2O5
>ionization [M+H]+
>parentmass 387.192
#inchi InChI=1S/C21H26N2O5/c1-3-4-15-11-19(25)28-20-13(2)17(6-5-16(15)20)27-12-18(24)23-9-7-14(8-10-23)21(22)26/h5-6,11,14H,3-4,7-10,12H2,1-2H3,(H2,22,26)
#inchikey GKEGBUWQIYYHQT
#Ion_Source LC-ESI
#Instrument qTof
#Compound_Source NIH Natural Product Library
#PI Dorrestein
#Data_Collector VVP/LMS
#Scan -1
#Precursor_MZ 387.192
#ExactMass 386.184
#Charge 1
#CAS_Number N/A
#Pubmed_ID N/A
#Smiles CCCc1cc(=O)oc2c(C)c(OCC(=O)N3CCC(CC3)C(=O)N)ccc12
#INCHI_AUX N/A
#Library_Class 1
#SpectrumID CCMSLIB00000079857
#IonMode Positive
#UpdateWorkflowName UPDATE-SINGLE-ANNOTATED-GOLD
#LibraryQualityString Gold
#TaskID b1d8e8f6646f4e71acdff9ca3d919d08
##Scan# 1727
#SpectrumFile p1-A12_GA12_01_17884.mzXML
#LibraryName NIH_Natural_Products_Library.mgf
#MQScore -1
#Organism NIH_Natural_Products_Library
#TIC_Query 0
#RT_Query -1
#MZErrorPPM -1
#SharedPeaks 0
#MassDiff 0
#LibMZ -1
#SpecMZ 387.192
#SpecCharge 0
#internalFilename spec-00000.mgf

>collision 10
95.261673 124.0
95.732033 88.0
95.813843 204.0
96.030212 140.0
96.08268 848.0
96.151169 224.0
96.168739 180.0
96.48909 192.0
96.63382 164.0
96.702309 84.0
96.764946 76.0
96.784523 120.0
96.868736 124.0
96.982384 204.0
97.013748 208.0
97.088768 1008.0
97.151024 212.0
97.1726 152.0
97.498558 160.0
97.88018 252.0
97.909721 132.0
97.969757 164.0
98.059204 1092.0
98.098869 200.0
98.123589 52.0
98.167877 108.0
98.673347 104.0
99.02755 160.0
99.063087 516.0
99.53125 152.0
99.834251 180.0
100.065819 388.0
100.181602 104.0
100.41082 176.0
100.490616 84.0
101.008018 216.0
101.062035 124.0
101.613007 232.0
102.290237 180.0
102.471489 144.0
103.053322 288.0
103.127312 168.0
103.65551 232.0
103.80957 128.0
104.355766 88.0
104.418808 136.0
104.834106 108.0
104.982918 44.0
105.070145 1284.0
105.139999 132.0
105.205315 36.0
105.297203 60.0
105.468826 104.0
105.57309 168.0
106.015266 68.0
106.058311 192.0
106.074707 172.0
106.111603 176.0
106.589836 116.0
106.7584 164.0
106.857132 36.0
107.052673 324.0
107.087677 188.0
107.222771 288.0
107.353531 124.0
107.388596 76.0
107.471107 216.0
108.049599 176.0
108.078568 168.0
108.546692 168.0
108.806046 88.0
109.354813 188.0
109.465149 184.0
109.70475 200.0
109.890358 120.0
109.988434 240.0
110.061073 1280.0
110.085159 164.0
110.163841 152.0
110.297577 164.0
110.314301 140.0
110.778854 200.0
110.845894 60.0
110.948593 264.0
111.040855 84.0
111.06459 532.0
111.087418 160.0
111.246483 148.0
111.750862 160.0
111.805573 120.0
111.82872 144.0
112.032974 156.0
112.076202 2700.0
112.357628 112.0
112.763046 156.0
113.075432 324.0
113.118385 220.0
113.544266 92.0
113.67791 240.0
114.085709 188.0
114.100586 200.0
114.570908 156.0
115.053444 236.0
115.41394 136.0
116.410957 204.0
116.906898 208.0
117.072502 168.0
117.229919 72.0
117.432564 96.0
117.451981 156.0
118.077347 212.0
118.16053 156.0
118.199471 160.0
118.509102 100.0
119.053551 376.0
119.087326 748.0
119.14695 44.0
119.190407 88.0
119.246902 160.0
119.433891 152.0
119.74295 64.0
119.985672 144.0
120.091667 180.0
120.851875 132.0
121.7528 76.0
122.278236 160.0
122.864357 172.0
122.994553 128.0
123.043617 284.0
123.078438 152.0
123.093895 152.0
123.266197 220.0
123.507172 168.0
123.555832 140.0
123.980965 176.0
124.076675 1772.0
124.098442 152.0
124.322479 68.0
124.38018 52.0
124.615578 156.0
124.911247 216.0
125.0839 1548.0
125.109299 192.0
125.129333 128.0
125.22731 224.0
125.251808 144.0
125.677612 80.0
125.849472 144.0
126.023689 200.0
126.090919 1088.0
126.676941 196.0
126.824829 244.0
126.898804 284.0
126.918983 216.0
126.977287 144.0
127.017662 152.0
127.087616 14408.0
127.208397 36.0
127.280235 72.0
127.417244 64.0
127.462181 60.0
127.482407 52.0
127.644249 48.0
127.889465 92.0
127.979515 108.0
128.017792 68.0
128.060028 652.0
128.091965 988.0
128.466309 80.0
128.669418 80.0
128.76651 164.0
128.899796 88.0
128.990204 164.0
129.068695 388.0
129.101486 544.0
129.128113 132.0
129.408722 56.0
129.560455 44.0
129.988968 100.0
130.078522 972.0
130.388657 208.0
130.691086 72.0
131.002991 184.0
131.049911 972.0
131.086365 232.0
131.650742 252.0
132.016373 112.0
132.054474 332.0
132.350449 152.0
132.588684 88.0
132.701004 188.0
133.063446 552.0
133.095673 372.0
133.159943 228.0
134.103241 204.0
134.319977 44.0
135.075256 148.0
135.117386 172.0
135.202576 188.0
135.413239 160.0
135.584686 112.0
135.684357 224.0
135.948776 128.0
135.976624 188.0
136.259918 140.0
136.438858 104.0
136.76918 120.0
136.88559 176.0
137.081253 168.0
137.333038 36.0
137.580383 116.0
138.061707 212.0
138.475937 104.0
138.651657 84.0
138.733688 136.0
139.519409 160.0
139.997757 192.0
140.122925 144.0
140.771225 112.0
140.922394 124.0
140.95311 120.0
141.026382 144.0
141.077057 308.0
141.102875 5732.0
141.168228 128.0
141.196609 128.0
141.258102 36.0
141.350372 116.0
141.501846 76.0
141.781357 76.0
141.958725 92.0
142.035034 144.0
142.077744 168.0
142.106766 896.0
142.129929 160.0
142.177399 32.0
142.393433 84.0
142.697586 48.0
142.749908 88.0
142.840271 156.0
142.987793 144.0
143.083694 1228.0
143.105164 340.0
143.299728 104.0
143.454636 200.0
143.662109 152.0
144.087372 200.0
144.263687 48.0
144.693253 100.0
145.064545 664.0
145.100861 1456.0
145.137741 172.0
145.168915 208.0
145.32962 148.0
145.358414 52.0
145.442413 56.0
145.537766 172.0
145.689743 76.0
146.06839 132.0
146.105484 368.0
146.965744 224.0
147.04538 152.0
147.083542 224.0
147.115829 608.0
148.077728 156.0
148.123749 152.0
149.059479 264.0
149.097168 592.0
150.995819 92.0
151.926605 228.0
151.958496 164.0
151.983032 228.0
152.044373 108.0
152.066467 144.0
152.223587 88.0
152.292343 116.0
152.65361 84.0
152.683121 88.0
152.766754 192.0
153.069473 292.0
153.569748 52.0
153.591949 204.0
153.656082 44.0
153.833771 120.0
154.048599 108.0
154.069855 200.0
154.085663 300.0
155.086609 256.0
155.113144 156.0
155.174622 48.0
155.281235 136.0
155.896912 108.0
155.931717 56.0
156.19278 148.0
156.451569 120.0
156.827698 128.0
157.069839 184.0
157.098877 380.0
157.663788 40.0
157.756256 176.0
158.072983 908.0
158.111435 124.0
158.424408 200.0
158.8004 172.0
158.973495 140.0
159.053818 88.0
159.081375 192.0
159.154236 56.0
159.304916 140.0
159.521027 168.0
159.573822 44.0
159.78508 148.0
160.004028 188.0
160.089478 348.0
160.212296 120.0
160.666824 92.0
161.057877 508.0
161.093521 504.0
161.277924 32.0
161.505478 204.0
161.92308 68.0
162.066956 992.0
162.108017 228.0
162.146027 124.0
162.782776 144.0
163.071762 500.0
163.329193 128.0
163.688034 120.0
164.246155 108.0
165.319199 128.0
166.447083 188.0
166.80162 156.0
167.501526 208.0
168.107391 164.0
168.355209 120.0
169.098526 280.0
169.345734 132.0
169.86412 188.0
170.075577 316.0
170.105225 1196.0
170.684799 132.0
170.856461 64.0
171.078278 272.0
171.11171 284.0
172.084381 304.0
172.290298 172.0
172.483673 196.0
172.813171 176.0
173.0616 372.0
173.096191 6976.0
173.184677 48.0
173.349945 68.0
173.391876 76.0
173.71701 56.0
173.911179 52.0
174.068924 172.0
174.100754 1264.0
174.759979 92.0
174.938934 40.0
175.041122 168.0
175.07843 508.0
175.110992 1984.0
175.341934 108.0
175.421005 116.0
175.457916 84.0
175.486908 40.0
175.572327 112.0
175.866776 156.0
176.083694 152.0
176.112747 232.0
176.987671 124.0
177.053864 144.0
177.096237 152.0
177.40361 68.0
177.984634 180.0
178.540009 68.0
178.806046 76.0
179.514664 156.0
180.096466 156.0
180.8237 212.0
181.265564 236.0
182.336288 88.0
183.041092 148.0
183.501846 140.0
184.044144 108.0
185.093811 1184.0
185.282852 192.0
185.770813 152.0
186.096481 204.0
186.781311 80.0
187.118118 184.0
188.084122 1180.0
188.138351 44.0
188.365005 44.0
188.569931 52.0
188.616394 92.0
188.731216 128.0
188.791382 72.0
189.053024 252.0
189.090805 336.0
189.125153 52.0
189.352402 64.0
189.566086 68.0
190.060822 364.0
190.098129 180.0
190.28746 104.0
191.056961 204.0
191.103256 304.0
192.11351 164.0
192.131363 208.0
192.5233 100.0
193.089844 100.0
193.435699 136.0
194.205994 120.0
194.461243 148.0
197.129196 192.0
197.75563 188.0
197.889999 156.0
197.999207 212.0
199.112579 112.0
200.088303 176.0
200.119263 128.0
200.161499 196.0
200.919662 136.0
201.054474 188.0
201.08783 428.0
202.066681 148.0
202.094971 260.0
202.885132 156.0
203.009888 184.0
203.070953 348.0
203.106155 5612.0
203.167694 76.0
203.197098 48.0
203.313431 52.0
203.384384 48.0
203.517029 72.0
204.060486 140.0
204.109772 1116.0
204.640884 68.0
204.909821 168.0
205.123398 204.0
205.35614 80.0
205.384659 100.0
205.715668 116.0
206.507156 60.0
207.712997 96.0
207.781845 96.0
207.819153 60.0
208.157852 148.0
208.462341 132.0
209.224533 52.0
209.333954 88.0
209.570145 60.0
209.673874 144.0
210.686661 160.0
210.955414 228.0
211.036362 132.0
213.091263 128.0
213.129028 176.0
213.355728 164.0
214.065659 212.0
214.091858 68.0
214.170502 124.0
215.071457 192.0
215.101532 356.0
215.132751 280.0
215.722839 256.0
216.069183 188.0
216.097168 136.0
216.129364 120.0
217.052902 276.0
217.088165 108.0
217.269058 132.0
218.053619 168.0
218.091736 408.0
218.273529 56.0
219.100906 620.0
219.946899 140.0
220.076797 32.0
220.10675 164.0
220.543549 148.0
220.644043 96.0
221.33934 40.0
221.958633 44.0
222.154373 128.0
222.448151 140.0
223.348495 64.0
224.030151 144.0
225.662613 216.0
225.842041 148.0
225.922791 172.0
226.131439 220.0
227.526093 116.0
228.785721 56.0
229.089874 116.0
229.115402 164.0
229.216415 108.0
229.617355 88.0
230.053452 132.0
230.338715 120.0
230.519989 116.0
230.662033 88.0
230.792023 60.0
230.931442 120.0
231.019302 160.0
231.049103 40.0
231.102066 17216.0
231.146667 328.0
231.210587 108.0
231.280746 84.0
231.366867 44.0
231.409256 64.0
231.566711 60.0
231.663651 60.0
231.71817 168.0
231.763626 188.0
231.839371 52.0
232.104752 3492.0
232.239563 92.0
232.291138 76.0
232.391251 68.0
232.649216 80.0
232.673492 40.0
232.8405 104.0
232.860596 84.0
233.105804 464.0
233.236832 80.0
233.287155 76.0
233.457413 104.0
233.49086 76.0
233.638443 116.0
233.745361 108.0
233.9077 208.0
234.116089 180.0
234.623566 68.0
234.949875 48.0
235.114639 148.0
235.483246 76.0
236.310928 96.0
236.335953 148.0
236.511368 68.0
236.808365 92.0
237.157654 76.0
238.167099 104.0
238.216248 116.0
239.591339 104.0
239.95192 116.0
240.97966 60.0
241.121796 332.0
241.341278 84.0
242.099396 184.0
243.094467 116.0
243.125504 84.0
243.147232 204.0
243.79007 40.0
243.982773 80.0
244.026306 100.0
244.082275 136.0
244.104584 112.0
244.86647 152.0
245.112381 144.0
246.123199 128.0
247.120239 88.0
248.126404 152.0
249.629562 96.0
250.082581 100.0
251.311569 76.0
252.341202 48.0
253.144882 140.0
253.984741 208.0
254.070389 116.0
256.279999 68.0
257.113342 184.0
258.09256 168.0
258.11853 88.0
258.17926 148.0
258.50238 112.0
258.579163 84.0
258.91214 208.0
259.060425 200.0
259.096497 2556.0
259.232483 80.0
259.288361 100.0
259.607544 64.0
259.796753 48.0
260.098419 484.0
260.127289 164.0
260.201141 52.0
261.094391 128.0
262.105194 156.0
263.146973 172.0
265.914673 192.0
266.596649 148.0
267.299042 176.0
267.523621 52.0
268.054504 184.0
268.129456 180.0
268.383698 112.0
269.113342 140.0
270.105621 152.0
271.129974 480.0
272.125031 876.0
273.125549 528.0
274.136475 148.0
274.192474 136.0
276.119873 144.0
277.140076 184.0
278.706177 20.0
280.210022 144.0
283.13443 128.0
283.280151 180.0
283.688965 224.0
284.819794 124.0
285.132263 160.0
285.179321 48.0
285.229736 128.0
286.114441 192.0
286.148102 152.0
286.178406 140.0
288.119415 412.0
288.178467 188.0
288.313629 184.0
288.43866 100.0
288.854584 136.0
289.135468 136.0
289.348663 108.0
289.409607 168.0
290.650146 88.0
292.47171 60.0
295.129211 124.0
296.124756 148.0
296.167847 164.0
298.14035 176.0
298.458527 132.0
298.671753 192.0
299.124908 880.0
300.12677 944.0
301.115265 180.0
301.986359 148.0
303.589844 68.0
305.427094 104.0
306.140564 176.0
306.199768 144.0
306.673584 116.0
307.486206 216.0
308.345367 152.0
310.905396 72.0
311.12381 68.0
311.151093 88.0
311.179169 116.0
312.096191 196.0
312.662537 36.0
313.123627 144.0
313.151489 132.0
313.335083 52.0
313.736847 124.0
313.768555 44.0
314.175842 3108.0
314.685852 36.0
315.028412 32.0
315.09906 100.0
315.173523 952.0
315.618622 44.0
316.175018 84.0
316.326202 44.0
317.038086 140.0
317.077087 52.0
317.718872 36.0
319.203491 108.0
320.531219 96.0
323.194916 92.0
324.156219 428.0
324.180298 192.0
325.152313 84.0
325.377594 132.0
329.454285 108.0
330.651123 52.0
330.846558 132.0
331.80661 176.0
334.607666 104.0
335.036804 120.0
337.661835 60.0
340.098267 116.0
341.178223 104.0
341.207642 164.0
341.259125 76.0
341.317932 108.0
341.781403 176.0
342.096741 244.0
342.170074 7460.0
342.268036 192.0
342.311432 76.0
342.370361 116.0
342.50296 100.0
342.731354 84.0
342.780396 152.0
343.1073 48.0
343.173981 2576.0
343.361725 76.0
343.713806 72.0
343.77121 132.0
343.929901 80.0
344.15509 144.0
344.183136 384.0
344.432068 64.0
344.650024 48.0
344.820007 132.0
345.19751 140.0
345.256256 96.0
346.199921 76.0
349.012634 108.0
351.407532 76.0
352.147705 304.0
354.690918 72.0
355.054596 104.0
358.121399 116.0
362.943451 48.0
364.670715 92.0
366.360168 112.0
369.181396 532.0
369.394958 56.0
370.16214 1472.0
371.167297 328.0
371.405945 52.0
372.192657 136.0
377.170074 128.0
382.223358 20.0
382.324524 68.0
384.339111 124.0
387.186462 948.0
387.257294 200.0
387.962219 88.0
388.168518 112.0
388.199127 216.0
389.180847 60.0
389.243683 116.0
394.035095 20.0
402.468781 40.0
462.151703 68.0
468.643616 52.0
471.755249 88.0
476.378998 56.0
522.832336 44.0
528.380798 92.0
553.697327 56.0
579.759644 96.0
627.594604 88.0
643.681458 64.0
662.433533 84.0
671.644897 40.0
689.312256 60.0
692.94873 92.0
697.677246 64.0
750.904968 132.0
775.088135 128.0
782.998596 116.0
802.206177 156.0
805.76709 144.0
812.997803 160.0
815.905945 20.0
816.992126 208.0
855.8078 208.0
856.023254 64.0
859.526489 92.0
879.350159 112.0
882.486877 128.0
907.559692 224.0
912.332642 36.0
915.635986 72.0
915.678162 60.0
935.039673 140.0
941.092773 76.0
947.255066 56.0
962.756592 40.0
1005.655762 148.0
1007.979736 172.0
1013.88385 240.0
1035.67334 156.0
1042.364624 148.0
1044.788452 112.0
1047.975342 160.0
1068.603149 152.0
1075.347656 112.0
1077.829102 188.0
1080.915405 144.0
1084.202759 112.0
1088.276245 92.0
1091.331421 164.0
1121.212402 64.0
1125.294678 156.0
1134.627563 164.0
1134.868896 164.0
1139.029663 204.0
1140.272705 96.0
1144.470337 112.0
1145.567993 192.0
1151.706299 168.0
1153.138672 204.0
1158.301147 224.0
1164.942017 148.0
1171.642822 224.0
1175.147095 208.0
1177.952881 132.0
1178.369629 260.0
1183.197998 160.0
1184.451172 164.0
1185.712769 140.0
1193.344971 68.0
1194.465942 188.0
1211.523315 160.0
1215.433594 136.0
1226.874512 200.0
1227.299805 172.0
1234.177368 124.0
1234.324219 148.0
1235.128418 272.0
1235.233398 68.0
1239.42688 172.0
1239.826294 140.0
1241.712158 252.0
1244.673584 64.0
1245.825317 132.0
1245.951782 236.0
1246.120483 176.0
1246.830078 140.0
1255.750122 144.0
1258.410522 152.0
1262.218872 152.0
1264.263184 84.0
1279.011353 152.0
1279.858521 64.0
1283.25708 136.0
1291.648071 172.0
1293.78772 160.0
1296.652832 208.0
1299.901367 128.0
1301.552368 128.0
1303.793579 184.0
1305.518921 212.0
1309.275391 64.0
1309.455444 100.0
1316.797485 176.0
1320.230225 164.0
1321.16333 92.0
1323.40686 156.0
1324.268555 164.0
1324.616211 188.0
1325.326172 168.0
1326.616211 116.0
1329.19812 164.0
1333.061279 136.0
1334.907593 132.0
1339.449097 112.0
1341.759155 136.0
1342.014282 120.0
1345.092896 184.0
1348.10144 288.0
1349.644287 144.0
1351.267944 160.0
1351.765503 180.0
1352.116699 200.0
1353.412354 156.0
1358.366577 124.0
1360.920532 72.0
1361.206787 196.0
1361.50061 148.0
1365.410278 184.0
1366.874146 80.0
1374.094849 44.0
1374.212891 48.0
1374.692505 200.0
1381.77832 72.0
1385.08728 192.0
1392.496948 44.0
1400.775391 168.0
1402.727661 112.0
1408.652466 180.0
1411.447632 180.0
1411.559814 184.0
1412.494629 216.0
1413.450073 184.0
1414.065918 204.0
1414.395264 48.0
1416.366821 216.0
1417.293457 120.0
1418.432495 140.0
1424.991455 132.0
1425.389648 204.0
1432.484253 148.0
1433.47876 116.0
1434.390747 44.0
1434.880737 192.0
1434.933472 72.0
1437.399902 152.0
1441.983765 212.0
1443.132812 124.0
1445.197632 48.0
1452.288208 44.0
1452.713013 188.0
1452.872314 124.0
1456.280518 232.0
1462.187866 76.0
1462.857666 192.0
1463.276367 152.0
1463.679932 176.0
1463.847412 208.0
1465.3479 168.0
1468.328369 220.0
1471.28125 232.0
1476.568848 160.0
1485.039429 136.0
1486.220825 120.0
1489.137939 172.0
1491.827271 184.0
1498.091187 144.0
1499.763306 188.0
1503.056274 188.0
1503.349487 172.0
