>compound MLS001076852-01!
>formula C20H21N3O3S
>ionization [M+H]+
>parentmass 384.1376389840906
#inchi InChI=1S/C20H21N3O3S/c1-26-16-7-5-14(6-8-16)19(25)21-20(27)22-10-13-9-15(12-22)17-3-2-4-18(24)23(17)11-13/h2-8,13,15H,9-12H2,1H3,(H,21,25,27)/t13-,15-/m1/s1
#inchikey WDBPBHIDKXMEII
#Ion_Source LC-ESI
#Instrument qTof
#Compound_Source NIH Natural Product Library
#PI Dorrestein
#Data_Collector VVP/LMS
#Scan -1
#Precursor_MZ 384.138
#ExactMass 383.13
#Charge 1
#CAS_Number N/A
#Pubmed_ID N/A
#Smiles COc1ccc(cc1)C(=O)NC(=S)N2C[C@H]3C[C@H](C2)c4cccc(=O)n4C3
#INCHI_AUX N/A
#Library_Class 1
#SpectrumID CCMSLIB00000079610
#IonMode Positive
#UpdateWorkflowName UPDATE-SINGLE-ANNOTATED-GOLD
#LibraryQualityString Gold
#TaskID b1d8e8f6646f4e71acdff9ca3d919d08
##Scan# 1707
#SpectrumFile p1-G08_GG8_01_17952.mzXML
#LibraryName NIH_Natural_Products_Library.mgf
#MQScore -1
#Organism NIH_Natural_Products_Library
#TIC_Query 0
#RT_Query -1
#MZErrorPPM -1
#SharedPeaks 0
#MassDiff 0
#LibMZ -1
#SpecMZ 384.138
#SpecCharge 0
#internalFilename spec-00000.mgf

>collision 10
94.96801 172.0
94.993225 72.0
95.846725 168.0
95.930534 188.0
96.027855 228.0
96.045578 72.0
96.311043 292.0
96.389191 204.0
96.61599 144.0
96.636719 168.0
96.704048 164.0
96.958656 176.0
97.125305 248.0
97.38047 160.0
97.746132 52.0
97.767776 64.0
97.793358 168.0
97.899673 168.0
98.025749 148.0
98.256439 204.0
98.635597 144.0
98.692932 136.0
98.807648 132.0
98.940247 112.0
99.187866 180.0
99.344521 204.0
99.795349 144.0
99.849037 180.0
100.010201 136.0
100.032097 152.0
100.069916 52.0
100.133644 184.0
100.19738 180.0
100.253174 188.0
100.314964 208.0
100.518394 144.0
100.575798 184.0
100.779968 72.0
100.974564 220.0
101.017883 212.0
101.642975 120.0
101.66906 156.0
101.765411 44.0
102.088928 140.0
102.296165 228.0
102.388786 96.0
102.537865 68.0
102.977699 124.0
103.018097 144.0
103.058502 212.0
103.123169 208.0
103.817589 172.0
103.967712 164.0
104.047791 208.0
104.146378 128.0
104.365852 64.0
104.717911 176.0
104.956345 200.0
105.066696 168.0
105.101166 228.0
105.376808 164.0
105.442192 184.0
105.538277 76.0
105.587349 124.0
105.798111 188.0
105.963997 160.0
106.061119 132.0
106.203842 152.0
106.345413 164.0
106.365944 176.0
106.425476 224.0
106.688454 140.0
106.855042 128.0
106.937355 148.0
107.049599 1308.0
107.075294 124.0
107.24012 116.0
107.287529 144.0
107.341141 112.0
107.53093 112.0
107.886215 188.0
108.02063 224.0
108.051903 304.0
108.107529 152.0
108.18618 188.0
108.329071 164.0
108.513512 164.0
108.714722 72.0
108.73024 192.0
108.965965 52.0
109.184227 144.0
109.254944 108.0
109.450592 196.0
110.032303 148.0
110.224457 212.0
110.680458 140.0
110.929771 156.0
111.047195 168.0
111.271729 216.0
111.439751 84.0
111.624718 172.0
111.90036 96.0
112.028824 136.0
112.46743 164.0
112.70607 148.0
112.915352 116.0
112.930153 152.0
113.021126 156.0
113.04863 36.0
113.116364 92.0
113.260345 160.0
113.368401 64.0
113.480743 216.0
113.667404 204.0
113.758667 196.0
113.794754 36.0
113.90731 180.0
113.962547 176.0
113.992294 168.0
114.092194 84.0
114.164482 40.0
114.801224 152.0
115.020981 168.0
115.311462 160.0
115.403381 180.0
115.424767 140.0
115.450424 160.0
116.047852 176.0
116.283821 164.0
116.915672 64.0
116.988853 136.0
117.06321 180.0
117.83857 84.0
118.065201 128.0
118.078186 232.0
118.611153 168.0
118.819336 220.0
118.945198 264.0
119.012497 156.0
119.066788 144.0
119.081741 152.0
119.181923 112.0
119.4515 148.0
119.669128 236.0
119.72139 88.0
119.773659 120.0
119.882599 180.0
120.074448 152.0
120.163879 48.0
120.336304 156.0
120.668396 140.0
121.062256 168.0
121.095108 136.0
121.130157 136.0
121.246277 160.0
121.610352 156.0
121.845314 200.0
122.210289 104.0
122.47226 124.0
122.650734 48.0
122.67498 160.0
122.959518 176.0
123.005875 144.0
123.040916 184.0
123.072105 80.0
123.438904 180.0
123.474289 96.0
123.593742 160.0
123.74868 208.0
123.764175 148.0
123.848335 176.0
124.021156 184.0
124.171928 220.0
124.229599 176.0
124.469299 164.0
124.693672 204.0
124.789253 64.0
125.031715 176.0
125.061424 640.0
125.310066 160.0
125.466072 192.0
125.849815 68.0
125.92128 160.0
126.067238 156.0
126.207314 180.0
126.274406 212.0
126.303482 40.0
126.509354 152.0
127.350227 256.0
127.442329 52.0
127.491768 192.0
127.716599 196.0
127.955132 100.0
128.056473 108.0
128.288559 156.0
128.324631 248.0
128.787247 164.0
129.010956 152.0
129.067474 172.0
129.692307 212.0
130.107422 72.0
130.334549 164.0
130.404999 128.0
130.712006 176.0
131.076065 228.0
131.105972 48.0
131.311157 180.0
131.402405 220.0
131.509644 92.0
131.843094 148.0
131.959671 92.0
131.989395 48.0
132.040085 296.0
132.087738 88.0
132.163239 208.0
132.435669 128.0
132.848267 204.0
133.050583 560.0
133.119095 164.0
133.371826 144.0
133.417801 180.0
133.578766 176.0
133.654694 100.0
133.684601 116.0
133.815811 44.0
133.979324 68.0
134.013885 164.0
134.05722 160.0
134.092239 204.0
134.484329 96.0
134.530487 124.0
134.599686 132.0
134.652878 220.0
134.722519 156.0
134.759125 80.0
134.775299 144.0
134.799332 192.0
134.858505 252.0
134.91629 136.0
134.955521 236.0
134.997864 228.0
135.043884 62780.0
135.138321 40.0
135.171524 180.0
135.244766 44.0
135.27092 80.0
135.300323 64.0
135.315598 60.0
135.337372 116.0
135.406845 32.0
135.4245 112.0
135.46373 156.0
135.567749 224.0
135.589859 28.0
135.631592 56.0
135.675629 72.0
135.721573 44.0
135.772552 40.0
135.805481 76.0
135.856522 84.0
135.875076 80.0
135.919159 76.0
135.970215 32.0
136.046173 5196.0
136.095566 240.0
136.124527 56.0
136.151306 76.0
136.179169 40.0
136.23259 68.0
136.267441 128.0
136.286026 56.0
136.334824 52.0
136.353806 48.0
136.483597 60.0
136.59523 100.0
136.689117 124.0
136.725525 72.0
136.772079 68.0
136.872192 120.0
136.973633 128.0
137.049286 632.0
137.093475 144.0
137.115921 128.0
137.135437 144.0
137.163406 96.0
137.211365 84.0
137.270645 96.0
137.368607 120.0
137.447937 52.0
137.480606 192.0
138.048264 228.0
138.165222 188.0
138.219025 120.0
138.317322 56.0
138.750702 132.0
138.8703 72.0
138.950058 160.0
139.076782 164.0
139.119034 120.0
139.184769 196.0
139.939529 76.0
140.764801 164.0
140.925415 224.0
141.060135 200.0
141.079041 104.0
141.862625 48.0
142.071304 132.0
142.805298 168.0
142.834976 176.0
143.069427 180.0
143.98027 192.0
144.077866 196.0
145.38797 88.0
145.517593 32.0
145.604034 76.0
145.709732 84.0
146.060577 688.0
146.09317 432.0
146.149719 120.0
146.294113 228.0
146.330231 180.0
146.665085 188.0
146.710876 124.0
147.036514 52.0
147.060471 316.0
147.096863 184.0
147.130646 212.0
147.207916 88.0
147.309357 200.0
147.705795 168.0
147.785629 136.0
147.829178 132.0
147.858215 100.0
147.955048 100.0
148.001053 184.0
148.044632 144.0
148.075256 12840.0
148.117294 268.0
148.14151 44.0
148.199661 84.0
148.26947 132.0
148.330536 80.0
148.393555 80.0
148.706482 120.0
148.738037 132.0
148.932297 28.0
149.027039 160.0
149.077271 652.0
149.29686 28.0
149.586395 84.0
149.924942 64.0
150.002945 88.0
150.06633 264.0
150.158997 128.0
150.24437 76.0
150.503067 196.0
151.019852 156.0
151.312363 80.0
151.716599 60.0
152.47261 124.0
153.048233 220.0
153.977921 228.0
154.064362 140.0
154.113785 200.0
154.603394 172.0
156.078369 136.0
156.572083 84.0
157.494904 152.0
157.514893 44.0
158.060852 540.0
158.748779 64.0
158.989609 160.0
159.069672 244.0
159.47937 36.0
160.074463 2688.0
160.103317 144.0
160.128494 212.0
160.206589 40.0
160.443466 188.0
161.038986 152.0
161.08345 836.0
161.208633 80.0
161.496475 100.0
161.529358 84.0
161.628021 80.0
162.087601 260.0
162.109924 168.0
162.230804 92.0
162.431137 40.0
162.509781 104.0
163.185699 132.0
164.847305 108.0
165.443253 40.0
165.558472 168.0
165.68399 108.0
166.774582 128.0
167.034286 176.0
167.335373 160.0
168.366806 300.0
168.922516 136.0
169.253784 156.0
170.067825 108.0
170.496353 124.0
170.790161 144.0
171.633942 200.0
172.076248 1004.0
173.081528 228.0
174.089844 2152.0
174.398483 36.0
174.424774 100.0
174.742981 260.0
174.979843 192.0
175.091797 424.0
175.190536 128.0
175.891983 60.0
175.9263 216.0
176.055679 144.0
176.094543 244.0
177.797653 192.0
178.100311 44.0
180.894836 224.0
181.435974 180.0
182.055801 228.0
182.190094 240.0
183.064255 180.0
183.589737 156.0
184.140305 164.0
185.64502 104.0
185.826752 156.0
186.774841 36.0
187.087357 304.0
187.311081 176.0
187.98996 188.0
188.050003 168.0
188.082764 144.0
188.306656 208.0
189.10498 228.0
189.578796 164.0
190.061417 68.0
190.503448 148.0
190.771988 128.0
190.947998 268.0
191.044998 244.0
191.117294 28864.0
191.222427 48.0
191.271484 40.0
191.300934 80.0
191.328461 164.0
191.357666 132.0
191.397293 52.0
191.424835 40.0
191.515717 56.0
191.548767 40.0
191.620605 136.0
191.661591 88.0
191.670654 116.0
191.740967 112.0
191.818817 192.0
191.953903 136.0
191.981491 132.0
192.044922 96.0
192.120224 3184.0
192.18837 76.0
192.238434 84.0
192.323593 72.0
192.392609 140.0
192.533417 80.0
192.765472 68.0
192.826279 40.0
192.942368 80.0
193.044678 76.0
193.12764 216.0
193.301941 96.0
193.351746 108.0
193.411285 180.0
193.468002 156.0
193.625839 132.0
193.706161 40.0
193.786499 100.0
193.815109 160.0
194.031631 232.0
194.088623 52.0
194.307724 132.0
194.421494 52.0
194.446472 68.0
194.718948 124.0
194.829666 52.0
195.396805 84.0
196.009354 64.0
196.45546 160.0
198.012375 120.0
199.083817 184.0
199.350555 56.0
200.081863 116.0
201.458084 120.0
202.187592 136.0
202.232864 52.0
204.042694 180.0
204.571838 52.0
207.076019 188.0
208.065308 164.0
209.782776 44.0
210.440552 36.0
212.597046 132.0
214.047623 72.0
214.193237 64.0
215.138062 140.0
216.04985 152.0
216.111755 124.0
217.106186 124.0
218.037872 204.0
226.347458 68.0
226.611038 172.0
228.951035 96.0
232.980011 172.0
233.072601 3956.0
233.128891 60.0
233.180557 40.0
233.201828 60.0
233.840546 164.0
233.889236 92.0
234.076096 420.0
235.071579 312.0
235.322037 76.0
235.389221 32.0
236.101242 172.0
236.214417 64.0
237.080887 156.0
238.00116 104.0
246.888824 144.0
251.065674 168.0
255.853455 108.0
261.049713 128.0
262.911713 52.0
268.289642 48.0
274.110687 108.0
278.45105 44.0
288.916351 148.0
292.248047 36.0
296.729156 84.0
303.500885 56.0
308.140472 156.0
313.220245 212.0
313.861633 216.0
324.589905 68.0
335.06842 116.0
343.917206 72.0
350.589417 72.0
354.23233 136.0
358.911407 104.0
367.112793 532.0
384.140442 244.0
384.178223 124.0
386.420715 36.0
403.459412 64.0
413.880127 40.0
439.769958 32.0
440.116455 204.0
442.035065 120.0
446.237946 56.0
446.629028 56.0
452.774323 164.0
481.100433 48.0
599.426514 20.0
681.974609 64.0
691.571777 48.0
710.431335 48.0
724.201904 96.0
738.31189 156.0
764.988525 56.0
843.217407 176.0
872.774048 164.0
879.566711 40.0
879.643494 200.0
883.058716 60.0
884.656372 200.0
911.159546 104.0
920.259949 172.0
920.392822 168.0
924.812012 172.0
926.86499 124.0
937.99292 224.0
938.059998 168.0
938.492859 140.0
954.62793 116.0
964.344055 132.0
965.283752 184.0
969.46228 84.0
969.79071 144.0
970.336243 152.0
989.863831 176.0
994.38385 188.0
995.350647 220.0
999.530701 192.0
1000.770691 196.0
1001.557861 140.0
1005.195618 168.0
1033.197144 160.0
1039.874146 100.0
1050.510376 168.0
1058.939209 152.0
1065.198486 216.0
1066.290039 32.0
1086.007812 172.0
1092.932007 72.0
1101.192139 212.0
1102.401123 228.0
1102.86377 136.0
1105.90625 144.0
1109.264526 156.0
1111.49292 160.0
1114.334839 172.0
1115.836792 164.0
1116.874268 152.0
1120.46228 100.0
1121.655151 144.0
1126.526367 168.0
1131.990723 112.0
1135.978638 132.0
1138.656738 204.0
1143.053345 212.0
1144.109985 76.0
1148.085449 136.0
1153.371948 156.0
1156.435913 176.0
1157.817139 144.0
1159.104248 200.0
1160.900635 200.0
1161.002319 196.0
1166.42041 212.0
1166.685547 84.0
1171.210693 124.0
1171.67395 192.0
1173.261841 216.0
1175.539917 164.0
1178.196045 176.0
1181.313354 176.0
1181.758057 128.0
1183.393799 96.0
1194.25708 168.0
1194.745483 144.0
1198.263428 180.0
1202.814941 248.0
1203.940308 176.0
1204.168213 188.0
1207.720825 240.0
1209.575195 112.0
1210.115234 132.0
1213.163574 232.0
1217.145996 240.0
1223.549561 164.0
1227.290894 260.0
1228.427734 180.0
1229.132446 228.0
1229.425537 140.0
1230.35376 220.0
1233.895874 88.0
1235.231567 176.0
1236.113159 148.0
1253.556274 164.0
1254.592407 172.0
1255.212769 64.0
1259.390747 172.0
1260.556396 172.0
1263.349243 168.0
1266.938477 40.0
1270.050293 92.0
1270.334106 188.0
1272.39917 196.0
1273.627319 204.0
1274.188965 132.0
1276.456299 184.0
1281.973145 224.0
1283.505737 144.0
1283.584229 220.0
1286.288208 132.0
1288.473389 164.0
1288.987793 172.0
1289.266479 160.0
1294.359863 164.0
1295.276489 200.0
1299.979736 136.0
1302.744019 172.0
1303.038574 148.0
1305.662231 184.0
1305.820557 180.0
1315.74292 168.0
1316.645508 120.0
1318.111938 136.0
1318.205933 224.0
1320.345825 136.0
1325.630493 240.0
1325.985596 48.0
1326.058105 48.0
1326.239258 224.0
1327.798096 148.0
1328.472656 144.0
1330.257812 156.0
1331.063721 180.0
1333.635498 224.0
1333.999512 160.0
1334.973145 200.0
1335.882324 224.0
1336.930054 136.0
1338.072876 84.0
1339.114136 184.0
1341.78186 212.0
1342.546875 164.0
1343.341797 184.0
1345.027466 48.0
1346.655762 116.0
1348.109497 76.0
1353.434814 200.0
1354.174438 176.0
1354.569946 188.0
1355.082764 212.0
1358.059082 148.0
1365.595337 212.0
1367.42688 184.0
1369.26001 164.0
1370.626587 20.0
1370.829224 120.0
1374.435059 200.0
1375.261597 212.0
1376.487061 168.0
1377.528442 60.0
1380.144775 152.0
1381.59436 136.0
1383.185303 172.0
1384.814331 108.0
1385.999634 128.0
1386.140381 188.0
1387.659912 172.0
1389.588257 180.0
1390.560303 168.0
1391.807495 212.0
1393.062622 124.0
1397.94751 144.0
1398.781128 192.0
1400.717163 200.0
1401.372681 116.0
1402.773804 116.0
1403.586426 216.0
1404.196899 148.0
1404.429199 132.0
1410.16333 132.0
1410.723999 204.0
1412.271851 236.0
1413.42395 200.0
1414.060059 32.0
1415.220337 108.0
1415.452515 156.0
1415.594727 72.0
1418.636719 176.0
1421.209106 172.0
1424.39978 136.0
1424.670166 156.0
1425.166138 116.0
1432.667114 164.0
1435.553833 96.0
1437.386841 220.0
1438.398193 36.0
1439.364502 252.0
1441.615601 128.0
1443.293701 156.0
1443.497925 160.0
1445.843018 172.0
1446.085205 188.0
1447.500854 212.0
1448.477905 60.0
1449.682617 160.0
1452.093384 256.0
1453.557495 120.0
1454.551758 160.0
1458.942505 160.0
1459.391113 260.0
1461.421875 72.0
1464.497437 172.0
1475.883423 84.0
1477.198975 80.0
1478.117065 188.0
1478.637451 208.0
1483.033691 140.0
1485.318604 156.0
1487.505615 108.0
1487.666748 220.0
1488.46521 160.0
1488.549683 144.0
1489.256226 160.0
1490.785156 160.0
1491.123291 188.0
1495.730469 180.0
1495.953735 164.0
1496.839111 180.0
1497.747925 136.0
1499.31189 160.0
1499.389038 176.0
1500.121216 116.0
1500.344849 52.0
