>compound 57-66-9
>formula C13H19NO4S 
>ionization [M+H]+
>parentmass 286.110779
#inchi InChI=1S/C13H19NO4S/c1-3-9-14(10-4-2)19(17,18)12-7-5-11(6-8-12)13(15)16/h5-8H,3-4,9-10H2,1-2H3,(H,15,16)
#inchikey DBABZHXKTCFAPX
#Ion_Source LC-ESI
#Instrument qTof
#Compound_Source Commercial
#PI Dorrestein
#Data_Collector Garg_Neha
#Scan -1
#Precursor_MZ 286.112
#ExactMass 285.103
#Charge 1
#CAS_Number N/A
#Pubmed_ID N/A
#Smiles N/A
#INCHI_AUX N/A
#Library_Class 1
#SpectrumID CCMSLIB00000077042
#IonMode Positive
#UpdateWorkflowName UPDATE-SINGLE-ANNOTATED-GOLD
#LibraryQualityString Gold
#TaskID 48f7f52fc6d249b5abbcc6e7b3df5969
##Scan# 1542
#SpectrumFile NCP003017_C2_D11_BA7_01_15702.mzXML
#LibraryName NIH_Clinical_Collection_2.mgf
#MQScore -1
#Organism NIHcollection2_04212014_2_mgf
#TIC_Query 0
#RT_Query -1
#MZErrorPPM -1
#SharedPeaks 0
#MassDiff 0
#LibMZ -1
#SpecMZ 286.112
#SpecCharge 0
#internalFilename spec-00000.mgf

>collision 10
50.322998 184.0
50.816963 164.0
53.662151 140.0
54.189785 148.0
61.47411 244.0
69.853294 152.0
71.24752 160.0
72.079857 180.0
75.391846 168.0
78.843605 192.0
81.441353 176.0
84.311317 152.0
84.812813 212.0
85.877411 140.0
91.001701 176.0
93.033089 148.0
96.83773 180.0
98.067688 168.0
100.112831 1576.0
100.790535 196.0
103.016663 144.0
107.012062 200.0
116.585144 216.0
118.921989 188.0
119.798294 184.0
121.02726 928.0
121.980049 160.0
122.031937 140.0
123.039673 168.0
123.390953 176.0
124.201454 284.0
126.105484 148.0
137.054611 160.0
139.038467 580.0
140.036835 160.0
144.10527 140.0
149.0345 2360.0
150.035431 280.0
151.489487 140.0
155.844055 148.0
156.764725 252.0
158.970367 212.0
159.802078 168.0
162.325455 144.0
163.143005 212.0
164.164001 156.0
169.744385 156.0
171.569611 140.0
173.116425 156.0
176.281082 144.0
182.225906 152.0
182.285278 128.0
184.011597 324.0
184.990387 5528.0
185.523895 148.0
185.555939 132.0
185.99588 432.0
186.987259 216.0
195.187134 180.0
195.517365 144.0
201.182266 156.0
201.679413 192.0
201.933884 144.0
202.016815 18040.0
202.296875 196.0
203.021393 1164.0
204.013596 716.0
204.406738 132.0
205.02388 168.0
207.047775 172.0
207.839493 188.0
209.187408 140.0
211.13501 220.0
213.04805 164.0
215.349243 168.0
219.416397 156.0
219.891312 140.0
227.046646 160.0
235.555115 196.0
235.750656 148.0
236.579544 188.0
241.08255 160.0
241.268005 216.0
242.053879 212.0
242.314056 152.0
243.598404 164.0
243.65744 140.0
243.934021 144.0
243.96344 172.0
244.006424 152.0
244.064102 30292.0
244.115738 232.0
244.378738 172.0
244.673935 132.0
245.067535 3280.0
246.061478 1232.0
246.607056 100.0
246.684036 108.0
246.823303 104.0
246.890854 132.0
247.059952 148.0
256.08371 152.0
261.596771 152.0
262.083984 152.0
273.216125 148.0
278.23291 160.0
279.579102 148.0
280.591705 148.0
285.201294 168.0
285.282104 112.0
286.110779 22928.0
287.113861 2340.0
288.107239 1096.0
288.164642 148.0
288.227722 352.0
288.692322 104.0
289.106873 392.0
289.201874 240.0
1338.2052 152.0
1451.768799 152.0
1549.566772 228.0
1734.516113 160.0
1923.913574 212.0
