>compound MLS000728645-01!
>formula C22H26N4
>ionization [M+H]+
>parentmass 347.224
#inchi InChI=1S/C22H26N4/c1-25-13-11-21(15-7-3-5-9-17(15)23-19(21)25)22-12-14-26(2)20(22)24-18-10-6-4-8-16(18)22/h3-10,19-20,23-24H,11-14H2,1-2H3/t19?,20?,21-,22-/m1/s1
#inchikey HOYXPMHLHJOGHD
#Ion_Source LC-ESI
#Instrument qTof
#Compound_Source NIH Natural Product Library
#PI Dorrestein
#Data_Collector VVP/LMS
#Scan -1
#Precursor_MZ 347.224
#ExactMass 346.216
#Charge 1
#CAS_Number N/A
#Pubmed_ID N/A
#Smiles CN1CC[C@@]2(C1Nc3ccccc32)[C@]45CCN(C)C5Nc6ccccc64
#INCHI_AUX N/A
#Library_Class 3
#SpectrumID CCMSLIB00000079683
#IonMode Positive
#UpdateWorkflowName UPDATE-SINGLE-ANNOTATED-BRONZE
#LibraryQualityString Bronze
#TaskID b1d8e8f6646f4e71acdff9ca3d919d08
##Scan# 1352
#SpectrumFile p1-G09-2_GG9_01_17969.mzXML
#LibraryName NIH_Natural_Products_Library.mgf
#MQScore -1
#Organism NIH_Natural_Products_Library
#TIC_Query 0
#RT_Query -1
#MZErrorPPM -1
#SharedPeaks 0
#MassDiff 0
#LibMZ -1
#SpecMZ 347.224
#SpecCharge 0
#internalFilename spec-00000.mgf

>collision 10
96.290146 132.0
98.327797 188.0
98.794121 120.0
99.061378 100.0
99.219917 72.0
99.642647 148.0
101.751724 196.0
103.050758 196.0
103.22464 120.0
104.047272 100.0
104.268684 224.0
106.066887 192.0
106.181709 152.0
109.176376 152.0
112.518608 272.0
112.98568 180.0
113.377403 192.0
114.620575 184.0
115.051414 56.0
117.056763 352.0
118.079109 100.0
119.071739 224.0
120.286713 144.0
128.051407 384.0
129.047867 176.0
130.064911 1712.0
130.128632 40.0
130.651352 48.0
131.062256 224.0
131.122696 44.0
132.081818 784.0
132.434174 100.0
132.539551 116.0
140.957062 252.0
141.9086 160.0
142.075485 264.0
143.072769 136.0
144.041275 152.0
144.081558 412.0
145.079315 208.0
145.720337 164.0
146.061707 232.0
146.179596 112.0
147.0858 128.0
148.275818 116.0
153.019791 152.0
153.221756 104.0
154.493179 84.0
154.616898 48.0
156.081696 188.0
157.079224 184.0
158.084564 536.0
159.084122 304.0
161.012436 72.0
165.122147 196.0
167.133377 144.0
171.090668 272.0
172.112839 188.0
172.836899 188.0
173.043671 148.0
173.106476 3488.0
173.203415 144.0
173.282013 44.0
173.363235 64.0
173.546738 68.0
173.861511 80.0
174.006149 176.0
174.111588 820.0
175.110336 168.0
177.934525 52.0
178.123062 104.0
178.388809 44.0
180.080841 204.0
190.584824 120.0
191.244843 228.0
195.841202 212.0
201.042084 168.0
205.049454 180.0
215.467255 40.0
244.925156 168.0
247.124725 236.0
251.428024 168.0
253.071808 76.0
255.013275 132.0
255.099091 196.0
255.194473 148.0
257.029144 96.0
257.115326 160.0
261.902252 252.0
264.967926 112.0
269.108276 176.0
270.111572 164.0
273.129395 352.0
285.143097 76.0
310.319427 20.0
316.173218 100.0
349.188904 192.0
351.205322 168.0
407.902618 156.0
436.77182 212.0
445.983521 108.0
586.360352 20.0
932.968201 76.0
1110.371216 92.0
1125.237061 68.0
1125.310547 80.0
1277.574341 192.0
1295.507324 148.0
1305.901367 96.0
1350.824341 148.0
1379.555908 132.0
1407.379883 180.0
1484.356201 76.0
1485.95166 60.0
