>compound MLS001077274-01!
>formula C18H18O2
>ionization [M+H]+
>parentmass 267.13795626809053
#inchi InChI=1S/C18H18O2/c1-3-17(13-5-9-15(19)10-6-13)18(4-2)14-7-11-16(20)12-8-14/h3-12,19-20H,1-2H3/b17-3+,18-4+
#inchikey NFDFQCUYFHCNBW
#Ion_Source LC-ESI
#Instrument qTof
#Compound_Source NIH Pharmacologically Active Library
#PI Dorrestein
#Data_Collector VP/LMS
#Scan -1
#Precursor_MZ 267.14
#ExactMass 266.131
#Charge 1
#CAS_Number N/A
#Pubmed_ID N/A
#Smiles C/C=C(/C(=C/C)/c1ccc(O)cc1)\c2ccc(O)cc2
#INCHI_AUX N/A
#Library_Class 1
#SpectrumID CCMSLIB00000086186
#IonMode Positive
#UpdateWorkflowName UPDATE-SINGLE-ANNOTATED-GOLD
#LibraryQualityString Gold
#TaskID d252d724072548979f1f6f1ced849daf
##Scan# 2168
#SpectrumFile p5-H04_GH4_01_18479.mzXML
#LibraryName Pharm_Active_Library.mgf
#MQScore -1
#Organism Pharm_Active_Library
#TIC_Query 0
#RT_Query -1
#MZErrorPPM -1
#SharedPeaks 0
#MassDiff 0
#LibMZ -1
#SpecMZ 267.14
#SpecCharge 0
#internalFilename spec-00000.mgf

>collision 10
44.952637 152.0
45.016712 132.0
45.364586 160.0
45.983334 188.0
47.669392 152.0
48.376949 164.0
49.350842 168.0
50.414959 60.0
51.013092 56.0
51.424751 64.0
51.550426 128.0
51.922642 208.0
52.040314 200.0
53.369629 48.0
53.542801 168.0
54.437813 144.0
55.093258 88.0
55.365417 160.0
55.513611 156.0
55.853725 120.0
55.868599 116.0
56.528088 132.0
56.57748 116.0
56.82777 96.0
56.847275 36.0
57.458172 168.0
58.158817 204.0
58.514538 188.0
59.123589 80.0
59.410122 168.0
59.812737 152.0
60.170383 168.0
60.580208 160.0
60.78952 140.0
60.871796 144.0
61.803947 164.0
62.118851 200.0
62.33709 64.0
62.370312 144.0
63.310436 64.0
63.511723 188.0
64.205177 52.0
64.415863 240.0
65.408463 144.0
65.439049 144.0
65.464813 88.0
65.684006 176.0
65.952049 140.0
65.987617 188.0
66.008636 216.0
66.031273 256.0
66.170441 168.0
66.277336 112.0
67.008499 212.0
67.122597 148.0
67.458923 52.0
68.601486 80.0
68.670746 96.0
68.718582 172.0
69.401688 180.0
70.246552 176.0
71.146889 152.0
72.650566 164.0
73.36142 80.0
73.617355 148.0
76.439407 108.0
76.617004 164.0
76.772133 184.0
77.086365 156.0
77.553642 88.0
77.969604 136.0
78.305649 160.0
78.723618 168.0
79.192284 232.0
79.312775 148.0
80.249649 228.0
80.90892 144.0
81.254814 132.0
83.031616 160.0
83.70401 128.0
84.327927 184.0
85.553261 224.0
86.516937 192.0
87.69091 192.0
87.925903 76.0
88.544739 148.0
89.624908 144.0
90.253456 160.0
90.599815 164.0
91.055054 244.0
91.072151 152.0
91.974693 116.0
92.05587 156.0
92.620995 124.0
93.031357 156.0
93.072479 352.0
95.052162 156.0
96.992729 228.0
98.182251 152.0
99.736496 184.0
100.228058 188.0
100.401489 188.0
100.443375 52.0
101.276901 208.0
102.043488 140.0
102.131973 176.0
103.055 628.0
103.631927 164.0
103.694748 68.0
104.055824 156.0
104.720787 156.0
105.032646 216.0
105.069366 428.0
105.496185 28.0
105.897247 180.0
106.426338 108.0
106.524918 140.0
107.049309 4656.0
107.088661 200.0
107.172844 60.0
107.257477 160.0
108.051552 404.0
108.365166 52.0
108.79863 60.0
108.900375 92.0
109.239189 92.0
109.889191 84.0
112.500015 132.0
112.658401 160.0
114.222855 164.0
115.05352 468.0
115.079575 92.0
115.907349 132.0
116.055641 196.0
116.282639 72.0
117.070221 356.0
117.714279 164.0
118.047066 148.0
118.094643 156.0
118.406303 160.0
119.0439 144.0
119.086189 204.0
120.370064 76.0
121.064522 3232.0
121.203476 148.0
123.309517 112.0
123.504089 204.0
123.557175 40.0
125.032784 184.0
127.054825 288.0
127.079689 200.0
127.746933 180.0
127.778427 96.0
127.953979 144.0
128.005768 124.0
128.060349 148.0
128.957809 156.0
129.03241 208.0
129.068161 832.0
130.077087 204.0
130.911179 172.0
131.050064 448.0
131.960815 204.0
132.053391 348.0
133.066132 148.0
133.724884 116.0
134.365494 132.0
135.072098 184.0
135.120987 68.0
135.21817 168.0
135.598007 32.0
135.966751 68.0
136.659241 140.0
138.035446 52.0
138.068192 108.0
138.960663 108.0
139.049835 128.0
139.409149 80.0
139.853653 48.0
140.059906 108.0
141.071381 168.0
141.129929 96.0
141.548752 112.0
142.077301 168.0
142.131882 64.0
143.049271 188.0
143.085052 444.0
144.055618 268.0
144.299362 64.0
144.833023 184.0
145.003128 104.0
145.061188 556.0
145.103256 460.0
145.168549 68.0
145.218918 76.0
145.259689 104.0
145.629349 144.0
146.071259 320.0
146.103622 192.0
146.144272 100.0
146.507339 92.0
147.04747 140.0
147.069138 168.0
147.075439 164.0
147.110229 48.0
148.133148 172.0
148.950623 44.0
150.932022 112.0
152.289703 144.0
152.933899 188.0
153.076126 240.0
154.07843 376.0
154.218964 88.0
154.849884 100.0
155.060486 668.0
155.083771 264.0
155.685669 92.0
156.083893 204.0
156.314606 52.0
157.064758 1320.0
157.653732 124.0
157.938766 152.0
158.071228 3388.0
158.118912 180.0
158.775299 108.0
158.800385 40.0
159.076004 608.0
159.895813 168.0
160.084915 196.0
160.500397 104.0
161.096024 172.0
161.57637 76.0
164.06778 152.0
165.067368 220.0
165.268173 100.0
166.07515 148.0
166.765823 208.0
167.051254 204.0
167.079483 168.0
169.058609 184.0
170.077179 128.0
170.095352 100.0
170.308273 156.0
170.937424 184.0
171.314957 164.0
172.079086 196.0
173.094864 416.0
173.481369 124.0
174.101562 152.0
174.884079 128.0
176.061066 224.0
176.673172 40.0
177.068237 428.0
178.078308 308.0
179.07547 80.0
181.065216 344.0
181.101135 108.0
182.069366 164.0
183.079056 144.0
186.40686 92.0
187.642593 48.0
189.068466 128.0
190.080765 192.0
191.083603 484.0
192.052246 152.0
192.977371 152.0
193.065781 152.0
194.072433 480.0
195.081589 348.0
195.649139 152.0
195.690903 136.0
196.094757 164.0
197.091095 324.0
197.471283 96.0
198.064667 316.0
199.943024 28.0
201.064697 120.0
201.974487 236.0
202.067841 156.0
203.083359 160.0
204.084442 156.0
204.727539 160.0
204.775955 196.0
205.061005 92.0
207.084213 252.0
207.189713 136.0
208.075912 160.0
209.092575 288.0
210.063553 324.0
210.097885 220.0
211.069138 488.0
211.091675 188.0
211.94664 208.0
213.086929 148.0
213.235123 68.0
213.412445 144.0
217.141586 152.0
218.372208 124.0
219.052155 196.0
219.086014 424.0
219.125793 36.0
220.07811 132.0
221.094788 188.0
221.904022 160.0
222.076736 132.0
222.114578 180.0
222.857758 108.0
222.984558 108.0
223.005356 68.0
223.075592 5680.0
223.115341 52.0
223.255096 76.0
223.308624 76.0
223.591263 92.0
223.811554 48.0
224.078629 588.0
224.571487 36.0
225.084503 512.0
226.092209 160.0
228.044662 128.0
229.058685 120.0
229.902908 180.0
231.072296 192.0
232.086945 112.0
232.748413 116.0
232.793961 128.0
233.103821 160.0
235.113724 176.0
235.727539 80.0
236.083603 428.0
237.091125 840.0
238.096695 1320.0
239.045532 36.0
239.103348 168.0
240.009689 104.0
240.096039 192.0
240.355164 116.0
247.10083 200.0
248.96904 176.0
250.105759 228.0
252.114761 220.0
257.696228 72.0
273.510742 76.0
301.14032 48.0
301.451263 72.0
304.822998 124.0
314.651642 40.0
328.596527 56.0
363.108917 128.0
390.476898 32.0
422.01004 160.0
453.253448 52.0
768.617432 52.0
815.166809 140.0
837.427612 220.0
848.882141 184.0
868.032532 56.0
876.285034 76.0
913.122437 84.0
983.890259 172.0
1002.90387 104.0
1023.690796 216.0
1050.366211 104.0
1050.650024 132.0
1054.640747 140.0
1067.184814 128.0
1068.114868 152.0
1083.187134 152.0
1085.310547 168.0
1096.512207 140.0
1110.515625 124.0
1110.674805 40.0
1153.079346 144.0
1186.591553 220.0
1197.421143 224.0
1224.668823 220.0
1233.663452 216.0
1234.66333 144.0
1243.911987 32.0
1245.000244 76.0
1252.462524 156.0
1266.880127 80.0
1274.64917 192.0
1275.814819 152.0
1289.650879 184.0
1295.661743 216.0
1307.430542 140.0
1323.405273 132.0
1325.397095 212.0
1334.302734 112.0
1335.568115 200.0
1339.280273 152.0
1365.990601 244.0
1366.873535 168.0
1368.662231 176.0
1370.783691 200.0
1371.616455 176.0
1395.179321 208.0
1395.268555 128.0
1407.263672 164.0
1407.569824 144.0
1409.870605 188.0
1411.39563 184.0
1415.21167 88.0
1418.552979 180.0
1428.532959 276.0
1445.327271 144.0
1446.454956 188.0
1447.976929 236.0
1448.810059 180.0
1449.491943 88.0
1450.196777 176.0
1451.781372 132.0
1452.426025 248.0
1466.53064 176.0
1475.698975 156.0
1484.665649 232.0
1497.662231 56.0
1498.617432 172.0
1500.104858 36.0
1501.646973 64.0
