>compound NCGC00160265-01!1,5-Bis-(2,4-dimethoxy-phenyl)-penta-1,4-dien-3-one
>formula C21H22O5
>ionization [M+H]+
>parentmass 355.154541
#inchi InChI=1S/C21H22O5/c1-23-18-11-7-15(20(13-18)25-3)5-9-17(22)10-6-16-8-12-19(24-2)14-21(16)26-4/h5-14H,1-4H3/b9-5+,10-6+
#inchikey KSZJPQHIPKEEMF
#Ion_Source LC-ESI
#Instrument qTOF
#Compound_Source Prestwick Phytochem Lib
#PI Dorrestein
#Data_Collector VVP/LMS
#Scan -1
#Precursor_MZ 355.155
#ExactMass 354.147
#Charge 1
#CAS_Number N/A
#Pubmed_ID N/A
#Smiles COC1=CC(OC)=C(C=C1)\C=C\C(=O)\C=C\C2=C(OC)C=C(OC)C=C2
#INCHI_AUX N/A
#Library_Class 1
#SpectrumID CCMSLIB00000078814
#IonMode Positive
#UpdateWorkflowName UPDATE-SINGLE-ANNOTATED-GOLD
#LibraryQualityString Gold
#TaskID 67c915c6594c435cadc1fe2b5358144d
##Scan# 2522
#SpectrumFile p1-G04_GG4_01_17948.mzXML
#LibraryName phytochem_lib.mgf
#MQScore -1
#Organism phytochem_lib
#TIC_Query 0
#RT_Query -1
#MZErrorPPM -1
#SharedPeaks 0
#MassDiff 0
#LibMZ -1
#SpecMZ 355.155
#SpecCharge 0
#internalFilename spec-00000.mgf

>collision 10
94.975296 156.0
95.041252 164.0
95.330582 144.0
95.488052 176.0
95.665123 204.0
96.115677 204.0
96.441475 112.0
96.775993 136.0
98.0765 224.0
98.528397 124.0
98.563957 224.0
98.763634 208.0
98.79528 56.0
99.240898 36.0
99.355927 136.0
99.510735 184.0
100.473999 160.0
100.50193 260.0
101.025375 208.0
101.079399 208.0
101.263573 132.0
101.65049 196.0
101.799042 228.0
101.853264 220.0
101.869339 128.0
102.038147 212.0
102.076347 72.0
102.193016 92.0
102.690582 188.0
103.054497 2016.0
103.276321 28.0
103.373428 160.0
103.75016 168.0
103.796791 192.0
103.815041 72.0
103.946899 192.0
104.056747 200.0
104.271828 192.0
104.312477 116.0
104.336868 180.0
104.707207 36.0
104.823326 104.0
104.996605 108.0
105.035233 648.0
105.068268 1096.0
105.093185 196.0
105.13533 168.0
105.165947 184.0
105.225143 188.0
105.621597 92.0
106.026985 136.0
106.07077 244.0
106.490662 164.0
106.585159 140.0
106.778397 120.0
107.029457 72.0
107.051208 320.0
107.08506 164.0
107.118011 128.0
107.163338 188.0
107.326164 188.0
107.429291 100.0
107.508041 188.0
107.693504 148.0
107.893944 200.0
108.053192 184.0
108.090431 124.0
108.40448 164.0
108.539925 216.0
109.027756 156.0
109.06839 176.0
109.750084 232.0
110.083954 160.0
110.102745 168.0
110.280334 128.0
110.455971 164.0
110.723885 132.0
110.80558 136.0
111.023575 68.0
111.220787 160.0
111.634674 152.0
112.093582 136.0
112.333931 160.0
112.380348 84.0
112.6717 68.0
113.007866 156.0
113.170837 56.0
113.225899 152.0
113.253426 52.0
113.501381 204.0
113.683807 152.0
113.719887 156.0
113.741112 84.0
113.794189 232.0
114.402214 124.0
114.928635 156.0
115.022537 228.0
115.051163 788.0
116.054802 304.0
116.837624 132.0
116.964592 132.0
117.034447 320.0
117.06691 328.0
117.207954 112.0
117.812057 156.0
118.035606 336.0
118.129837 168.0
118.188248 156.0
118.348419 152.0
119.048409 244.0
119.17263 136.0
119.279121 84.0
119.614105 132.0
119.910332 176.0
120.006248 192.0
120.054459 720.0
120.230927 140.0
120.73558 132.0
121.064209 1492.0
121.136124 52.0
121.230331 288.0
121.840309 128.0
122.07312 200.0
122.145874 176.0
122.409981 144.0
122.575188 48.0
122.758156 196.0
122.808876 156.0
122.877258 92.0
123.328651 156.0
123.402542 216.0
123.486938 184.0
123.546661 152.0
124.029404 204.0
124.047142 172.0
124.087044 128.0
124.624161 68.0
125.109001 188.0
125.126808 200.0
125.367371 180.0
125.445381 180.0
125.956383 160.0
125.983192 176.0
126.170914 156.0
126.340881 188.0
126.535583 180.0
126.84922 104.0
127.62825 168.0
127.812698 156.0
127.868958 172.0
128.063522 300.0
128.596939 188.0
128.646606 36.0
129.068375 376.0
129.770996 180.0
129.925217 76.0
130.0354 184.0
130.079529 292.0
130.465714 180.0
130.99823 200.0
131.043976 480.0
131.08252 172.0
131.362961 140.0
131.762466 140.0
131.851578 132.0
132.057404 316.0
132.16716 164.0
132.384613 104.0
132.423553 224.0
132.771912 116.0
132.939377 172.0
133.027725 5560.0
133.064285 684.0
133.156815 152.0
133.173553 88.0
133.211349 48.0
133.580399 56.0
133.598801 84.0
133.660919 192.0
133.688538 172.0
134.03154 716.0
134.059296 168.0
134.075424 160.0
134.130753 44.0
134.169937 168.0
134.479034 176.0
134.51828 200.0
134.894806 124.0
134.931793 156.0
134.987778 192.0
135.018112 124.0
135.045105 208.0
135.080307 2540.0
135.225571 156.0
135.306595 72.0
135.403839 116.0
135.83728 104.0
136.086594 564.0
136.183136 36.0
136.285355 128.0
136.40387 144.0
136.420151 232.0
136.450363 64.0
136.555008 212.0
136.613159 172.0
136.719894 160.0
136.922729 44.0
136.953018 264.0
137.058044 1792.0
137.120758 32.0
137.207016 108.0
137.591949 104.0
137.982117 56.0
138.065125 152.0
138.203537 284.0
138.316635 44.0
138.368134 64.0
138.39389 40.0
138.639847 196.0
138.780502 76.0
139.008026 232.0
139.075958 488.0
139.371979 128.0
139.400177 144.0
139.510651 176.0
139.73877 208.0
139.85408 132.0
140.167297 156.0
140.223129 64.0
141.172913 64.0
141.210754 180.0
141.506546 188.0
141.541794 172.0
141.982834 120.0
142.650024 144.0
142.697571 156.0
142.887848 32.0
143.05043 448.0
143.268753 192.0
143.700272 116.0
144.053864 516.0
144.115723 112.0
144.785507 188.0
144.850174 276.0
145.032288 128.0
145.0625 952.0
145.144958 176.0
145.219299 188.0
145.238495 152.0
145.413635 68.0
145.670563 120.0
146.031174 172.0
146.068634 724.0
146.1129 48.0
146.483627 196.0
146.570358 296.0
146.736664 212.0
146.968216 132.0
147.045212 392.0
147.074402 248.0
147.272385 164.0
147.376266 168.0
147.538193 92.0
148.051239 14152.0
148.087555 184.0
148.15773 96.0
148.215881 80.0
148.295456 152.0
148.339478 68.0
148.356461 180.0
148.404938 68.0
148.458282 40.0
148.584412 96.0
148.629272 204.0
148.679047 168.0
148.707825 56.0
148.742157 40.0
148.887833 64.0
148.999573 128.0
149.05603 2380.0
149.089478 204.0
149.14537 64.0
149.238007 76.0
149.327728 48.0
149.395828 76.0
149.417725 132.0
149.442062 52.0
149.549133 56.0
149.692764 128.0
149.846222 188.0
149.916885 188.0
149.955887 88.0
150.061081 300.0
150.092392 92.0
150.136292 136.0
150.17775 88.0
150.209457 140.0
150.426636 96.0
151.035385 196.0
151.072784 1528.0
151.23082 112.0
151.257751 40.0
151.576141 88.0
151.693771 92.0
151.870316 140.0
152.046967 152.0
152.07724 156.0
152.096054 168.0
153.505798 88.0
154.031479 180.0
154.738754 156.0
154.926971 52.0
154.988922 176.0
155.060776 300.0
155.753021 204.0
155.984116 108.0
156.051239 144.0
156.242737 92.0
156.541428 124.0
157.061005 200.0
157.079773 204.0
157.097229 92.0
157.639023 36.0
158.072861 828.0
158.63858 208.0
159.040955 296.0
159.076492 564.0
159.858322 60.0
159.989212 176.0
160.046387 268.0
160.088501 276.0
160.523361 32.0
160.596497 180.0
160.763 156.0
161.059402 1040.0
161.091858 216.0
161.151871 56.0
161.657578 52.0
161.811981 200.0
162.068024 176.0
162.30098 180.0
162.468384 200.0
162.508972 120.0
162.71962 224.0
162.793259 64.0
163.073608 1268.0
163.110428 148.0
163.243057 128.0
163.461823 72.0
164.042511 204.0
164.079041 316.0
164.389389 200.0
165.051041 496.0
165.087265 276.0
165.688278 108.0
166.085617 248.0
166.37558 68.0
166.881714 128.0
167.070587 368.0
168.074265 220.0
168.957886 44.0
169.032928 64.0
169.07692 204.0
169.177856 136.0
170.035828 176.0
170.693069 164.0
171.040848 196.0
171.085953 172.0
171.192703 48.0
171.447998 132.0
172.040085 116.0
172.209824 176.0
173.060516 344.0
174.068146 2140.0
174.271484 132.0
175.040359 128.0
175.073639 3216.0
175.102737 176.0
175.139618 128.0
175.168579 60.0
175.279236 80.0
175.326675 80.0
175.413651 208.0
175.519104 64.0
175.55867 100.0
175.587677 72.0
175.698456 196.0
176.046692 9844.0
176.075775 404.0
176.186859 48.0
176.231781 60.0
176.271408 104.0
176.353333 44.0
176.419418 132.0
176.517242 28.0
176.623032 156.0
176.691818 96.0
176.792358 104.0
176.961761 96.0
177.049454 680.0
177.092804 792.0
177.189545 56.0
177.287582 152.0
177.470474 100.0
177.496994 56.0
177.764908 68.0
177.985229 156.0
178.003815 68.0
178.051178 340.0
178.096832 180.0
178.327927 76.0
178.420959 68.0
178.580521 128.0
179.014313 116.0
179.062256 224.0
179.227417 104.0
179.637985 116.0
180.153198 168.0
180.375 148.0
181.080307 292.0
181.518188 52.0
181.993134 40.0
182.075165 176.0
182.304718 216.0
183.079498 88.0
183.144135 152.0
184.031357 148.0
185.021194 176.0
185.059906 340.0
185.324234 36.0
185.375717 168.0
185.573593 56.0
185.83815 176.0
186.064636 744.0
186.118958 184.0
186.95076 124.0
187.034058 152.0
187.072083 108.0
187.321045 68.0
187.376251 180.0
187.60173 180.0
187.661697 80.0
188.08728 140.0
188.352142 44.0
188.570724 132.0
188.614456 208.0
189.048004 176.0
189.091064 1668.0
189.687485 104.0
189.761505 64.0
190.065399 176.0
190.090912 576.0
190.22789 60.0
190.318481 256.0
190.505234 60.0
190.565674 128.0
190.667358 300.0
190.766296 44.0
190.837784 48.0
190.917526 88.0
190.961533 84.0
190.99025 144.0
191.06958 11780.0
191.151352 60.0
191.214523 84.0
191.267944 84.0
191.346832 108.0
191.366043 104.0
191.400757 132.0
191.495483 80.0
191.567093 128.0
191.776505 36.0
191.872986 208.0
191.922623 80.0
192.074097 1384.0
192.154297 76.0
192.267441 96.0
192.330917 96.0
192.55455 60.0
192.98288 52.0
193.074844 404.0
193.148804 104.0
193.170929 48.0
193.384003 52.0
193.408218 64.0
193.483643 52.0
193.608246 144.0
195.637955 80.0
196.086411 120.0
196.89827 184.0
197.060287 108.0
197.09021 136.0
198.103821 132.0
198.543869 140.0
199.068649 116.0
201.051559 196.0
201.07872 196.0
201.09848 148.0
202.068832 176.0
202.115829 188.0
203.070374 160.0
203.331543 128.0
203.706329 212.0
204.078629 156.0
204.872681 140.0
205.05986 304.0
205.873825 48.0
206.070786 164.0
207.07785 176.0
209.099075 132.0
211.072281 128.0
211.109879 136.0
213.874786 112.0
215.081512 196.0
216.086792 144.0
216.596176 80.0
217.083374 2524.0
217.150146 48.0
218.085251 720.0
219.095749 112.0
219.567688 52.0
220.069336 160.0
221.053635 144.0
221.098022 56.0
223.072845 352.0
223.103149 192.0
224.090393 172.0
225.083038 148.0
225.768784 100.0
226.09787 168.0
227.053558 92.0
227.094452 132.0
227.473618 128.0
229.172806 148.0
229.748657 52.0
231.229263 72.0
231.347305 100.0
233.048721 140.0
233.088226 136.0
234.107285 112.0
235.072403 160.0
236.084244 184.0
237.036804 148.0
237.082779 180.0
237.104233 128.0
238.098724 152.0
239.067841 172.0
239.104538 424.0
240.083054 136.0
240.115799 124.0
241.09581 152.0
242.076462 132.0
242.919495 168.0
245.058395 152.0
247.10968 204.0
247.184769 200.0
248.083633 328.0
248.764389 216.0
249.072128 100.0
249.095856 172.0
250.062561 144.0
250.094025 336.0
251.084412 200.0
251.097458 136.0
251.54715 84.0
252.075241 292.0
252.10936 140.0
252.700653 36.0
253.082901 192.0
254.093216 88.0
254.653381 104.0
255.104492 144.0
257.123993 148.0
257.839386 152.0
260.524506 160.0
261.045197 140.0
261.083771 260.0
261.930267 96.0
262.060028 196.0
262.0849 192.0
263.068726 160.0
263.110535 156.0
263.414093 60.0
264.08139 188.0
264.112274 120.0
265.088501 528.0
265.114258 100.0
266.090668 312.0
266.270874 48.0
266.764771 56.0
266.917572 64.0
267.101471 1576.0
267.242859 76.0
267.552032 84.0
267.99823 136.0
268.067627 336.0
268.100464 280.0
269.114197 240.0
271.394257 96.0
274.040131 72.0
275.098785 180.0
277.088318 168.0
277.126099 40.0
278.076477 124.0
278.111023 148.0
278.180725 64.0
279.081055 176.0
279.105774 168.0
280.109955 288.0
281.114441 452.0
282.126404 652.0
282.18515 68.0
283.051758 120.0
283.09256 500.0
284.099335 328.0
284.128967 324.0
284.15448 132.0
285.116699 180.0
287.124695 124.0
287.917786 108.0
288.938599 40.0
291.084106 112.0
291.109467 120.0
292.060913 148.0
293.085297 172.0
293.113403 176.0
293.268219 60.0
293.295502 176.0
294.078644 180.0
294.114136 128.0
294.766418 116.0
295.091156 140.0
295.132172 136.0
295.761658 116.0
296.081573 172.0
297.109589 312.0
297.225006 96.0
298.118927 244.0
299.115814 168.0
300.062592 64.0
300.123474 332.0
300.928589 76.0
301.146149 108.0
301.356873 112.0
304.564789 52.0
305.127747 148.0
306.095001 80.0
306.122864 196.0
306.202972 140.0
307.028931 80.0
307.100433 184.0
308.10437 112.0
309.111145 720.0
310.04599 160.0
310.080872 180.0
311.084198 180.0
311.112579 136.0
311.14389 32.0
311.811279 128.0
312.053833 84.0
312.137024 224.0
312.877075 52.0
313.102448 96.0
313.137482 904.0
314.142822 120.0
322.113739 132.0
322.140228 180.0
323.135681 244.0
324.133118 208.0
324.326569 172.0
325.107025 192.0
325.212524 76.0
326.793701 80.0
327.157196 280.0
331.190704 124.0
334.189301 68.0
334.353058 72.0
336.28833 92.0
339.111908 140.0
340.119781 268.0
344.225586 64.0
355.154541 156.0
356.156372 196.0
356.192383 104.0
358.137054 168.0
359.211334 80.0
377.650452 148.0
384.176331 68.0
392.416199 72.0
435.221802 72.0
442.648224 88.0
492.356354 112.0
508.832245 80.0
525.03186 176.0
536.084839 68.0
560.621765 104.0
581.80304 76.0
604.296509 92.0
627.93457 36.0
691.882385 100.0
797.161682 204.0
850.383362 144.0
879.497437 92.0
899.650574 56.0
903.110352 52.0
907.122192 188.0
928.964172 172.0
945.708923 176.0
949.335815 52.0
955.773438 144.0
988.844727 60.0
994.54834 160.0
995.854309 200.0
1029.580566 168.0
1052.49939 136.0
1058.623047 232.0
1060.929688 200.0
1065.745361 176.0
1088.102295 104.0
1099.575684 168.0
1113.910645 48.0
1115.219727 84.0
1121.089722 216.0
1123.937012 32.0
1130.632812 200.0
1131.335693 112.0
1134.108887 224.0
1140.169434 144.0
1140.35083 188.0
1140.606323 172.0
1142.482422 164.0
1142.926514 140.0
1143.707153 136.0
1146.010254 44.0
1153.352661 56.0
1178.463379 160.0
1186.9646 84.0
1196.191528 208.0
1196.577026 124.0
1200.332153 176.0
1201.794434 132.0
1208.067627 140.0
1211.639771 196.0
1213.330811 112.0
1228.421631 232.0
1231.925903 208.0
1232.142456 120.0
1236.309937 76.0
1239.692261 40.0
1243.47937 84.0
1244.525269 172.0
1248.558838 168.0
1254.402832 172.0
1256.546631 100.0
1257.725098 136.0
1267.080933 172.0
1267.725708 148.0
1268.278442 164.0
1275.625244 136.0
1295.241455 132.0
1297.341064 164.0
1302.328125 140.0
1306.288696 96.0
1307.094482 172.0
1307.317627 156.0
1316.667847 116.0
1317.216797 148.0
1323.197388 140.0
1326.167358 120.0
1331.049805 192.0
1338.226318 124.0
1339.213135 20.0
1344.626587 100.0
1345.867554 184.0
1346.78772 216.0
1347.196777 136.0
1351.276245 176.0
1351.612793 116.0
1352.249512 240.0
1354.878296 160.0
1355.237183 232.0
1358.646484 168.0
1361.046387 132.0
1364.065918 116.0
1367.228638 84.0
1367.493652 216.0
1369.208984 124.0
1373.653564 132.0
1376.317749 220.0
1378.260376 236.0
1378.881104 80.0
1385.392578 128.0
1390.768677 164.0
1390.97644 220.0
1397.910767 192.0
1400.590942 260.0
1402.647583 124.0
1407.145874 116.0
1407.564087 152.0
1409.057861 128.0
1412.481689 96.0
1413.406006 184.0
1413.791016 104.0
1421.352051 132.0
1422.2677 148.0
1424.144775 200.0
1426.113403 248.0
1426.302246 124.0
1428.346558 160.0
1428.444336 200.0
1430.679321 184.0
1430.935303 172.0
1433.224976 148.0
1433.420898 136.0
1434.325317 188.0
1435.516479 144.0
1442.160156 156.0
1442.220581 176.0
1444.194092 148.0
1444.368042 128.0
1447.296753 164.0
1451.942017 232.0
1453.057129 112.0
1462.167969 180.0
1463.050903 136.0
1463.736084 124.0
1468.262695 204.0
1470.3302 136.0
1473.361572 72.0
1476.88562 180.0
1479.7323 156.0
1482.022339 168.0
1486.08606 172.0
1494.861084 48.0
1500.892456 116.0
1501.370483 168.0
1504.024658 176.0
