>compound Chlorzoxazone
>formula C7H4ClNO2 
>ionization [M+H]+
>parentmass 170.000488
#inchi InChI=1S/C7H4ClNO2/c8-4-1-2-6-5(3-4)9-7(10)11-6/h1-3H,(H,9,10)
#inchikey TZFWDZFKRBELIQ
#Ion_Source LC-ESI
#Instrument qTof
#Compound_Source Commercial
#PI Dorrestein
#Data_Collector Garg_Neha
#Scan -1
#Precursor_MZ 170.0
#ExactMass 168.993
#Charge 1
#CAS_Number N/A
#Pubmed_ID N/A
#Smiles N/A
#INCHI_AUX N/A
#Library_Class 1
#SpectrumID CCMSLIB00000076996
#IonMode Positive
#UpdateWorkflowName UPDATE-SINGLE-ANNOTATED-GOLD
#LibraryQualityString Gold
#TaskID 48f7f52fc6d249b5abbcc6e7b3df5969
##Scan# 1229
#SpectrumFile NCP002928_E2_F11_BA4_01_15698.mzXML
#LibraryName NIH_Clinical_Collection_2.mgf
#MQScore -1
#Organism NIHcollection2_04212014_2_mgf
#TIC_Query 0
#RT_Query -1
#MZErrorPPM -1
#SharedPeaks 0
#MassDiff 0
#LibMZ -1
#SpecMZ 170
#SpecCharge 0
#internalFilename spec-00000.mgf

>collision 10
57.806061 168.0
57.934761 172.0
61.42627 196.0
63.988888 196.0
74.835327 144.0
79.625587 172.0
86.967964 184.0
90.932251 252.0
98.846649 248.0
99.000351 372.0
100.992935 188.0
101.590248 140.0
104.275864 204.0
110.34935 172.0
113.981171 212.0
114.009796 1704.0
114.875374 220.0
115.016212 172.0
116.009079 384.0
116.971146 168.0
118.043427 148.0
118.740761 168.0
119.962769 196.0
124.000755 236.0
125.000107 140.0
126.010178 232.0
126.993179 208.0
127.999725 172.0
128.953995 216.0
130.008636 176.0
132.004974 164.0
134.943619 156.0
135.028091 212.0
139.72261 148.0
141.180328 152.0
141.781647 188.0
142.004517 580.0
142.500641 192.0
143.00592 144.0
143.786514 212.0
144.000366 152.0
144.996674 152.0
145.325211 156.0
145.490814 208.0
147.99826 152.0
152.627136 140.0
152.981415 172.0
154.002274 192.0
154.99826 228.0
168.991531 336.0
170.000488 16396.0
171.003098 1400.0
171.531982 144.0
171.997879 4388.0
172.203369 156.0
172.329346 112.0
172.409363 104.0
173.0009 312.0
188.011948 140.0
211.038788 200.0
213.189346 152.0
1215.103149 160.0
1478.284302 276.0
1542.224121 144.0
1588.446411 148.0
1695.814941 156.0
1713.696777 184.0
1829.259399 148.0
1937.634399 164.0
1941.789429 152.0
1960.88562 168.0
1994.813354 156.0
2002.269653 212.0
