>compound MLS000860024-01!Benzamil hydrochloride
>formula C13H14ClN7O
>ionization [M+H]+
>parentmass 320.100952
#inchi InChI=1S/C13H14ClN7O/c14-9-11(16)20-10(15)8(19-9)12(22)21-13(17)18-6-7-4-2-1-3-5-7/h1-5H,6H2,(H4,15,16,20)(H3,17,18,21,22)
#inchikey KXDROGADUISDGY
#origInchi InChI=1S/C13H14ClN7O.ClH/c14-9-11(16)20-10(15)8(19-9)12(22)21-13(17)18-6-7-4-2-1-3-5-7;/h1-5H,6H2,(H4,15,16,20)(H3,17,18,21,22);1H
#Ion_Source LC-ESI
#Instrument qTof
#Compound_Source NIH Pharmacologically Active Library
#PI Dorrestein
#Data_Collector VP/LMS
#Scan -1
#Precursor_MZ 320.106
#ExactMass 319.095
#Charge 1
#CAS_Number N/A
#Pubmed_ID N/A
#Smiles NC(=NCc1ccccc1)NC(=O)c2nc(Cl)c(N)nc2N.Cl
#INCHI_AUX N/A
#Library_Class 1
#SpectrumID CCMSLIB00000084859
#IonMode Positive
#UpdateWorkflowName UPDATE-SINGLE-ANNOTATED-GOLD
#LibraryQualityString Gold
#TaskID d252d724072548979f1f6f1ced849daf
##Scan# 1497
#SpectrumFile p3-B09_GB9_01_18242.mzXML
#LibraryName Pharm_Active_Library.mgf
#MQScore -1
#Organism Pharm_Active_Library
#TIC_Query 0
#RT_Query -1
#MZErrorPPM -1
#SharedPeaks 0
#MassDiff 0
#LibMZ -1
#SpecMZ 320.106
#SpecCharge 0
#internalFilename spec-00000.mgf

>collision 10
44.970951 124.0
45.318653 192.0
45.529259 168.0
45.556122 156.0
45.638107 184.0
45.873714 164.0
46.132908 188.0
46.479633 212.0
46.49049 88.0
46.523888 232.0
46.620865 84.0
46.716042 180.0
46.957142 200.0
47.096359 168.0
47.537209 104.0
47.557796 140.0
47.577892 92.0
47.875393 92.0
47.998035 168.0
48.358612 100.0
48.412605 76.0
48.708031 128.0
48.84008 136.0
48.922184 216.0
48.97649 172.0
49.041981 108.0
49.087986 48.0
49.238708 192.0
49.710495 44.0
49.931057 156.0
50.042229 76.0
50.253647 40.0
50.351048 164.0
50.516426 52.0
51.038349 220.0
51.160709 104.0
51.209122 72.0
51.653038 208.0
52.157784 152.0
52.320339 180.0
52.448547 236.0
52.462963 124.0
52.692432 244.0
53.004967 172.0
53.103546 88.0
53.142715 92.0
53.223999 184.0
53.258854 128.0
53.348949 204.0
53.418118 92.0
53.447849 136.0
53.66925 196.0
53.727592 180.0
53.785965 128.0
53.882347 112.0
54.167618 96.0
54.408119 92.0
54.569733 188.0
54.659454 124.0
55.030899 196.0
55.078159 260.0
55.271709 196.0
55.372498 32.0
55.415455 148.0
55.504391 188.0
55.574104 176.0
55.692867 124.0
55.741894 88.0
55.853397 188.0
55.890591 204.0
55.967995 152.0
56.099102 96.0
56.426048 176.0
56.554699 192.0
56.613091 88.0
56.641548 92.0
56.711971 212.0
56.82444 32.0
57.500095 184.0
57.568031 196.0
57.601257 40.0
57.664719 192.0
57.853798 188.0
57.934063 172.0
58.156971 212.0
58.304295 100.0
58.467022 180.0
58.7062 152.0
58.826736 200.0
58.899338 192.0
59.080418 288.0
59.111019 116.0
59.259544 160.0
59.337708 220.0
59.475773 132.0
59.554081 44.0
59.629368 188.0
59.741001 192.0
59.752388 72.0
59.830875 100.0
60.065563 220.0
60.421967 140.0
60.497799 168.0
60.558189 144.0
60.595367 164.0
60.631008 96.0
60.91029 188.0
61.000416 100.0
61.103058 184.0
61.54414 188.0
61.640987 220.0
62.440506 152.0
62.498714 96.0
62.509727 176.0
62.599457 144.0
62.684521 248.0
62.719193 148.0
62.764912 68.0
62.775951 116.0
62.80434 160.0
63.237267 156.0
63.332268 172.0
63.370285 152.0
63.505032 132.0
63.91172 240.0
64.045448 44.0
64.14373 176.0
64.225563 80.0
64.580818 280.0
64.592949 200.0
64.704971 232.0
64.746605 172.0
64.796257 192.0
64.887611 132.0
64.905251 228.0
64.93251 224.0
64.982239 148.0
65.425812 116.0
65.448357 132.0
65.533722 148.0
65.607857 92.0
65.722374 216.0
65.739273 84.0
65.953308 40.0
65.977554 228.0
66.01313 196.0
66.058418 160.0
66.28022 136.0
66.668053 112.0
66.702187 236.0
66.72332 144.0
66.912041 156.0
67.287384 144.0
67.677788 108.0
67.797371 148.0
67.830147 108.0
67.861298 124.0
68.192894 68.0
68.212624 136.0
68.33596 276.0
68.873383 188.0
69.083321 204.0
69.199165 180.0
69.399643 144.0
69.683464 128.0
69.936234 88.0
69.987839 76.0
70.064453 32.0
70.182785 164.0
70.299553 156.0
70.329597 160.0
70.46653 248.0
70.516663 228.0
70.576843 104.0
70.648758 112.0
70.683113 172.0
70.707329 192.0
70.725739 148.0
71.012253 236.0
71.280853 180.0
71.555023 136.0
71.72348 148.0
71.92083 144.0
71.941086 56.0
71.974724 104.0
72.076202 80.0
72.15564 104.0
72.636589 64.0
72.858971 148.0
72.901451 180.0
72.947342 160.0
73.025558 136.0
73.129341 52.0
73.159981 172.0
73.183815 140.0
73.21106 176.0
73.384872 80.0
73.415565 28.0
73.480385 160.0
73.6101 172.0
73.645966 144.0
73.738228 68.0
73.83712 128.0
73.93148 128.0
74.049614 152.0
74.469818 228.0
74.519638 164.0
74.54612 184.0
75.05838 144.0
75.13945 128.0
75.351807 156.0
75.36467 188.0
75.580032 184.0
75.626755 236.0
75.872734 112.0
75.97332 52.0
76.009758 136.0
76.310249 196.0
76.542488 152.0
76.59391 124.0
76.918243 140.0
76.958397 184.0
77.061447 136.0
77.098137 120.0
77.152328 108.0
77.225769 172.0
77.376259 188.0
77.455063 168.0
77.696976 148.0
77.779457 144.0
77.821587 140.0
77.840904 180.0
77.90062 40.0
78.029182 156.0
78.062317 208.0
78.234741 232.0
78.488449 40.0
78.543121 192.0
78.853874 120.0
79.108582 44.0
79.372574 148.0
79.493195 116.0
79.660088 172.0
80.021103 240.0
80.14756 96.0
80.168945 176.0
80.349037 104.0
80.438263 168.0
80.500755 192.0
80.641891 92.0
80.758102 140.0
80.838615 220.0
80.883354 148.0
80.917366 140.0
81.278412 248.0
81.361984 80.0
81.455368 56.0
81.86544 160.0
82.115944 156.0
82.341545 192.0
82.384895 204.0
82.491516 152.0
82.533096 184.0
82.947685 172.0
83.22657 204.0
83.377846 188.0
83.468735 180.0
83.496017 180.0
83.690727 156.0
83.954948 128.0
83.991425 196.0
84.10273 160.0
84.159325 180.0
84.237854 180.0
84.83075 108.0
84.880249 196.0
85.001503 160.0
85.173897 184.0
85.194099 208.0
85.322746 204.0
85.383423 140.0
85.429405 188.0
85.571114 160.0
85.668724 152.0
85.685303 200.0
85.810623 180.0
85.9711 116.0
86.255531 116.0
86.386826 100.0
86.590431 216.0
86.964951 188.0
86.985367 124.0
87.132072 132.0
87.531967 192.0
87.559898 72.0
87.654907 164.0
87.80368 200.0
87.820831 164.0
87.908516 156.0
87.927177 192.0
88.013046 196.0
88.10083 264.0
88.181175 148.0
88.399986 144.0
88.461746 220.0
88.52166 108.0
88.981041 176.0
88.994179 212.0
89.213997 124.0
89.499969 148.0
89.545166 96.0
89.733604 116.0
89.912804 220.0
90.052513 168.0
90.069511 236.0
90.120522 52.0
90.296318 248.0
90.320908 148.0
90.443901 176.0
90.59539 152.0
90.635178 208.0
90.949989 176.0
90.985062 212.0
91.054581 9568.0
91.095161 308.0
91.122795 56.0
91.144539 72.0
91.221619 44.0
91.272949 160.0
91.333809 48.0
91.452385 68.0
91.506981 204.0
91.678413 60.0
91.83284 72.0
91.901512 188.0
92.025574 172.0
92.057243 692.0
92.304543 80.0
92.367661 100.0
92.555214 88.0
92.771706 76.0
93.088287 64.0
93.165108 160.0
93.336166 184.0
93.476585 168.0
93.850273 144.0
94.291283 152.0
94.356117 100.0
94.981613 200.0
95.092209 136.0
95.272797 168.0
95.426331 40.0
95.655884 156.0
95.701065 140.0
96.024147 152.0
96.434151 184.0
96.772575 156.0
96.980225 156.0
97.404053 152.0
97.435478 84.0
97.691048 148.0
97.986351 184.0
98.098679 180.0
98.297882 188.0
98.428162 180.0
98.851173 140.0
99.175972 92.0
99.324684 244.0
99.356422 156.0
99.47747 132.0
99.713837 156.0
99.769493 152.0
100.002228 176.0
100.227257 208.0
100.245193 140.0
100.362801 140.0
100.40667 124.0
100.518387 160.0
100.560295 72.0
100.628166 148.0
100.811928 48.0
100.855896 184.0
100.933868 220.0
100.990341 324.0
101.029869 156.0
101.548668 204.0
102.00647 204.0
102.986229 184.0
103.032204 116.0
103.096863 164.0
103.998596 252.0
104.014351 256.0
104.069168 168.0
104.154457 152.0
104.884941 224.0
105.019897 212.0
105.266457 164.0
105.350197 196.0
105.474846 208.0
105.513687 140.0
106.02951 192.0
106.236603 116.0
106.982574 204.0
107.036102 184.0
107.376129 88.0
107.497841 152.0
107.601044 152.0
107.72702 156.0
108.043312 800.0
108.081596 1120.0
108.111595 40.0
108.249855 172.0
108.343491 144.0
108.961723 52.0
109.050529 180.0
109.090576 188.0
109.173744 132.0
109.225739 88.0
109.25486 196.0
109.460915 200.0
109.775566 112.0
109.921585 208.0
110.266159 204.0
110.310051 60.0
110.454338 184.0
110.600807 52.0
110.789268 124.0
110.856316 100.0
111.078552 68.0
111.120514 180.0
111.313614 180.0
111.561539 184.0
111.666672 176.0
112.344925 168.0
113.018883 180.0
113.065437 132.0
113.090836 180.0
113.23481 120.0
113.351318 160.0
113.919922 104.0
113.968788 152.0
114.094185 208.0
114.313255 84.0
114.423943 196.0
114.828804 164.0
114.999489 204.0
115.174576 204.0
115.508026 164.0
115.604301 156.0
115.737015 92.0
115.796974 232.0
115.925514 120.0
115.949089 48.0
116.00161 6592.0
116.129181 208.0
116.19783 148.0
116.251472 164.0
116.435425 64.0
116.627312 176.0
116.767059 140.0
116.853104 148.0
116.985641 212.0
117.002663 360.0
117.023132 100.0
117.120041 136.0
117.275177 68.0
117.348465 100.0
117.516701 112.0
117.622444 164.0
117.639709 152.0
117.99614 1444.0
118.045898 172.0
118.063202 308.0
118.208138 100.0
118.348831 52.0
118.363991 128.0
118.695518 188.0
118.795288 148.0
118.834335 140.0
118.938499 176.0
119.000702 184.0
119.112213 148.0
119.2817 124.0
119.618866 144.0
119.98484 168.0
120.072067 176.0
120.229141 56.0
120.755661 164.0
121.254829 52.0
121.379784 160.0
121.57502 172.0
122.031906 100.0
123.03875 220.0
123.38118 104.0
123.657677 184.0
123.823723 208.0
123.916763 204.0
124.349167 80.0
124.529007 148.0
125.202881 216.0
125.37442 192.0
125.407852 224.0
125.751328 92.0
126.053154 208.0
126.075157 132.0
126.113152 128.0
126.540413 164.0
127.040176 204.0
127.27359 56.0
127.334221 148.0
127.47628 252.0
127.747795 188.0
127.871552 236.0
127.916565 144.0
127.961594 236.0
127.99762 128.0
128.310806 60.0
128.374802 136.0
128.403244 140.0
128.475433 104.0
128.77565 240.0
129.051331 180.0
129.078461 96.0
129.263962 188.0
129.363541 144.0
129.55603 132.0
129.601334 116.0
129.753189 188.0
129.812149 152.0
129.837082 156.0
129.932358 56.0
129.948242 172.0
130.018585 124.0
130.04808 160.0
130.070786 152.0
130.222916 192.0
130.318314 140.0
130.905167 124.0
131.041824 156.0
131.265198 48.0
131.381531 76.0
131.687393 168.0
131.879318 148.0
132.023346 184.0
132.247559 84.0
132.813492 188.0
133.074982 144.0
133.396744 152.0
133.559998 188.0
133.974335 144.0
134.080338 164.0
134.190979 168.0
134.689438 224.0
134.904343 40.0
135.14949 48.0
135.422653 144.0
136.143921 44.0
136.269363 188.0
136.318146 172.0
136.750717 76.0
136.811234 76.0
136.832184 204.0
137.543198 116.0
137.685608 76.0
138.150742 112.0
138.178818 116.0
138.286469 56.0
138.872208 152.0
138.905045 188.0
139.34404 128.0
139.546158 52.0
139.793137 136.0
139.860519 164.0
139.953201 248.0
140.010498 192.0
140.48819 148.0
141.111664 204.0
141.407349 52.0
141.700974 108.0
142.312897 184.0
142.543289 60.0
142.869019 216.0
143.011963 3776.0
143.095108 72.0
143.159393 88.0
143.19989 172.0
143.295166 128.0
143.397629 120.0
143.500137 72.0
143.528748 228.0
143.583588 52.0
143.61937 64.0
143.762512 84.0
144.014816 488.0
144.06575 216.0
144.096802 200.0
144.249741 96.0
144.723434 52.0
144.780899 136.0
145.009033 1284.0
145.121048 152.0
145.157135 176.0
145.217087 88.0
145.709183 76.0
145.992813 160.0
146.01445 140.0
146.074585 92.0
146.226166 60.0
146.69104 216.0
146.818817 140.0
146.939423 192.0
147.026566 176.0
147.142151 132.0
147.178375 92.0
147.407837 176.0
147.581879 116.0
148.136093 76.0
148.177277 236.0
148.315399 140.0
148.540909 252.0
148.69133 196.0
149.352188 88.0
149.388687 204.0
149.437332 148.0
149.498169 132.0
149.646652 220.0
149.692917 160.0
149.817123 236.0
149.873169 160.0
149.983871 232.0
150.002335 188.0
150.033432 444.0
150.103165 46080.0
150.180328 168.0
150.199844 68.0
150.253159 160.0
150.28299 52.0
150.348663 88.0
150.383942 88.0
150.407547 64.0
150.425964 56.0
150.443863 52.0
150.475601 72.0
150.503998 108.0
150.557114 104.0
150.582047 88.0
150.639221 64.0
150.670975 136.0
150.695404 84.0
150.730728 176.0
150.78093 32.0
150.805374 100.0
150.829819 68.0
150.860641 184.0
150.909393 72.0
151.010605 72.0
151.019531 68.0
151.059662 148.0
151.105896 2728.0
151.284805 104.0
151.34111 92.0
151.409668 36.0
151.448944 112.0
151.541946 56.0
151.630173 172.0
151.65712 52.0
151.686539 124.0
151.723312 40.0
151.838562 64.0
151.990646 76.0
152.032364 112.0
152.062958 140.0
152.10379 280.0
152.145264 112.0
152.171188 108.0
152.18573 116.0
152.22139 112.0
152.248398 88.0
152.309204 100.0
152.376129 128.0
152.403152 116.0
152.513733 60.0
152.533401 36.0
152.637665 188.0
152.791611 76.0
152.920822 180.0
154.414688 56.0
154.597748 132.0
154.642303 36.0
154.671997 32.0
154.726471 108.0
155.036087 104.0
155.279037 84.0
156.358398 88.0
156.434433 156.0
156.551453 76.0
157.031021 324.0
157.187103 80.0
157.321884 200.0
157.431732 92.0
157.526642 76.0
157.996628 124.0
158.523575 108.0
158.93866 60.0
159.008926 120.0
159.04718 132.0
160.006851 92.0
160.266266 60.0
160.41748 152.0
160.813492 132.0
160.936523 200.0
161.022369 3868.0
161.579147 76.0
161.667709 120.0
161.685425 80.0
161.968994 144.0
162.025421 212.0
162.088058 108.0
162.547028 160.0
162.899918 128.0
163.01976 1348.0
163.08287 60.0
163.298981 96.0
163.535599 160.0
164.02005 140.0
164.790237 184.0
164.877106 92.0
165.050934 88.0
165.168579 68.0
165.222305 32.0
165.240204 172.0
165.988113 200.0
166.062485 304.0
166.9048 76.0
167.07312 1360.0
167.383392 116.0
167.659027 184.0
167.705414 212.0
168.077026 360.0
168.371048 148.0
168.970978 168.0
169.193298 200.0
169.348679 216.0
169.441925 68.0
170.025345 132.0
170.217438 116.0
170.290161 224.0
170.44342 148.0
170.482407 168.0
170.894135 116.0
170.967911 156.0
171.007111 19672.0
171.071976 120.0
171.101456 108.0
171.133102 116.0
171.153137 80.0
171.217438 140.0
171.255081 84.0
171.325424 156.0
171.348862 44.0
171.393158 48.0
171.442673 36.0
171.461853 148.0
171.552139 148.0
171.630356 156.0
171.857269 96.0
171.969482 88.0
172.009842 868.0
172.178345 28.0
172.314178 52.0
172.46051 116.0
172.536316 128.0
172.609528 48.0
172.661835 160.0
172.716751 124.0
172.852798 76.0
173.003296 5024.0
173.117172 88.0
173.138947 92.0
173.174789 28.0
173.214081 52.0
173.31102 160.0
173.402573 112.0
173.565262 108.0
173.882675 32.0
174.004257 140.0
174.559265 124.0
174.62883 96.0
175.110474 48.0
175.247452 172.0
175.405563 48.0
176.06517 48.0
176.090012 148.0
176.633423 152.0
177.083389 40.0
177.101929 116.0
178.447342 248.0
180.083344 152.0
180.4496 76.0
180.74382 156.0
180.965973 172.0
181.016846 148.0
181.081116 160.0
181.584976 96.0
182.589417 112.0
183.006195 204.0
183.866409 196.0
184.236328 76.0
184.679626 52.0
184.82843 148.0
185.00705 96.0
185.887909 76.0
186.909607 80.0
187.849533 164.0
188.035065 180.0
188.819168 212.0
188.917633 164.0
189.017303 3140.0
189.473358 112.0
189.758392 208.0
190.020844 332.0
191.015228 1084.0
192.021484 392.0
193.082001 164.0
194.093948 324.0
195.042206 88.0
195.103348 352.0
196.005127 164.0
197.66095 192.0
199.059708 204.0
199.256317 156.0
200.071884 164.0
201.188248 56.0
214.238022 216.0
216.604172 72.0
218.053604 136.0
219.557999 40.0
222.846664 172.0
225.083527 164.0
225.73494 88.0
227.103577 152.0
231.03154 96.0
231.325073 148.0
235.011505 136.0
235.075577 152.0
242.738373 136.0
244.552643 72.0
244.991486 352.0
245.652573 80.0
245.999908 168.0
246.984177 412.0
247.008255 76.0
247.991592 148.0
248.74736 76.0
250.612259 188.0
251.84256 76.0
256.758789 84.0
257.451324 128.0
258.448639 188.0
260.770355 60.0
261.05191 416.0
261.854584 156.0
262.055908 264.0
263.05426 152.0
270.573425 116.0
271.058167 212.0
272.012512 144.0
273.875641 168.0
274.024292 1512.0
275.028107 444.0
275.807129 116.0
276.021667 1436.0
276.11792 64.0
276.855927 44.0
277.025208 252.0
277.107666 64.0
277.959778 104.0
278.022827 120.0
279.049225 96.0
282.952667 64.0
285.129608 72.0
289.562714 144.0
295.841553 60.0
299.12326 60.0
303.059784 144.0
303.070892 124.0
303.078217 152.0
305.067261 148.0
314.252533 72.0
320.100952 512.0
321.103058 148.0
321.209381 48.0
322.101044 204.0
322.155334 208.0
354.549347 68.0
369.709595 44.0
370.241699 48.0
378.854248 56.0
389.57843 60.0
427.515686 56.0
473.05838 88.0
506.350281 44.0
513.360901 44.0
527.225159 56.0
564.328674 56.0
622.863342 132.0
670.419434 32.0
672.730103 60.0
677.083679 124.0
685.15033 156.0
739.372864 112.0
770.122314 216.0
773.179688 144.0
777.413574 40.0
785.229919 68.0
801.092529 88.0
805.266479 296.0
815.95929 220.0
822.447571 204.0
822.624512 28.0
844.98584 220.0
853.552551 156.0
861.110901 36.0
867.529785 188.0
873.984192 188.0
875.809143 164.0
879.771729 84.0
880.161438 148.0
888.993225 128.0
890.863464 120.0
891.017944 172.0
893.877808 208.0
899.217407 184.0
899.796448 76.0
900.333801 164.0
904.435242 76.0
904.997925 168.0
908.312012 224.0
908.917908 168.0
916.819458 132.0
919.129028 176.0
923.073425 116.0
925.633057 96.0
927.802063 192.0
929.033142 128.0
930.289307 96.0
933.612854 176.0
935.608582 176.0
940.564514 128.0
946.292542 184.0
949.920532 184.0
950.202698 156.0
964.248413 168.0
965.979675 196.0
966.40033 244.0
969.322937 176.0
970.66803 168.0
972.113342 192.0
975.709595 216.0
979.337463 200.0
981.194397 168.0
982.528992 124.0
985.613281 164.0
996.050598 216.0
997.803833 128.0
998.030212 104.0
1001.850403 40.0
1005.65271 208.0
1008.735107 160.0
1013.944214 148.0
1014.622437 132.0
1016.601379 136.0
1016.804443 136.0
1020.119995 180.0
1022.454285 172.0
1023.842102 180.0
1027.283936 156.0
1027.6604 172.0
1028.994263 152.0
1032.885986 68.0
1033.135498 128.0
1044.502563 204.0
1048.022827 172.0
1050.577026 196.0
1053.010498 104.0
1053.908447 196.0
1054.690308 216.0
1060.937012 52.0
1061.189819 168.0
1068.496338 168.0
1071.999268 160.0
1073.492065 124.0
1074.496582 176.0
1075.514526 232.0
1076.304443 224.0
1081.102417 204.0
1086.094849 100.0
1087.689209 188.0
1089.133789 248.0
1094.421143 188.0
1097.240967 196.0
1097.695923 236.0
1101.028564 152.0
1103.817261 176.0
1106.331421 88.0
1107.887573 184.0
1109.345459 176.0
1109.471436 180.0
1110.074829 152.0
1121.096558 184.0
1121.143188 184.0
1121.209839 64.0
1125.539185 180.0
1126.541016 132.0
1128.612793 112.0
1132.105713 140.0
1133.358398 200.0
1133.653198 236.0
1133.706787 56.0
1134.42395 212.0
1134.799438 156.0
1138.677979 112.0
1138.872681 60.0
1139.255615 204.0
1146.953735 164.0
1148.733887 208.0
1149.718994 184.0
1149.877075 160.0
1150.893433 60.0
1151.102783 188.0
1151.980835 148.0
1152.305054 156.0
1154.015015 240.0
1159.152466 200.0
1159.382812 104.0
1160.345337 180.0
1161.239624 172.0
1161.491455 152.0
1164.600098 216.0
1171.654175 188.0
1171.810791 156.0
1172.894409 228.0
1176.77002 180.0
1177.595459 168.0
1181.395874 132.0
1182.073242 128.0
1182.271729 208.0
1182.353882 128.0
1184.120117 220.0
1184.236572 144.0
1184.442017 132.0
1185.106567 128.0
1186.888672 228.0
1187.766479 200.0
1190.772827 196.0
1190.965088 116.0
1194.057983 196.0
1195.378784 208.0
1198.539307 60.0
1203.830078 220.0
1204.368774 100.0
1204.582886 232.0
1207.976929 164.0
1210.468506 132.0
1214.959717 176.0
1215.632812 188.0
1216.715576 152.0
1217.208496 100.0
1220.425659 164.0
1221.370972 216.0
1222.025391 164.0
1225.095581 228.0
1225.931641 108.0
1227.779053 136.0
1228.071899 160.0
1229.048584 132.0
1229.523071 88.0
1230.765625 160.0
1233.224609 192.0
1233.937622 48.0
1237.246826 148.0
1237.750854 196.0
1240.132812 152.0
1241.128296 168.0
1241.387695 68.0
1241.81543 88.0
1242.474854 172.0
1243.085327 160.0
1245.514404 140.0
1247.081299 156.0
1253.013306 156.0
1253.95752 112.0
1258.592285 200.0
1259.969482 152.0
1260.640747 104.0
1261.976685 168.0
1262.280762 160.0
1263.143555 172.0
1263.829834 152.0
1265.726807 228.0
1270.071045 168.0
1272.093384 168.0
1272.682617 76.0
1273.54895 200.0
1274.330444 196.0
1276.12854 112.0
1279.038208 200.0
1281.067627 132.0
1281.865601 112.0
1282.008057 168.0
1285.345337 148.0
1285.730713 132.0
1289.265747 176.0
1292.655273 60.0
1292.784058 140.0
1294.66687 164.0
1295.311523 188.0
1295.748413 124.0
1296.636963 180.0
1299.605713 168.0
1300.911865 228.0
1301.751953 188.0
1302.477295 220.0
1307.826904 240.0
1310.044678 196.0
1315.9729 148.0
1316.630005 128.0
1322.254517 140.0
1322.891479 104.0
1325.37561 156.0
1326.955688 152.0
1327.963623 220.0
1330.009644 124.0
1330.575928 188.0
1330.706543 188.0
1331.817627 172.0
1332.071899 88.0
1332.840088 216.0
1333.197998 172.0
1335.211792 36.0
1335.480957 60.0
1335.851929 160.0
1336.339355 156.0
1337.241577 168.0
1338.08606 148.0
1341.539185 384.0
1342.63501 188.0
1343.479004 248.0
1343.799927 212.0
1343.996948 168.0
1344.726685 184.0
1345.858276 188.0
1346.354736 164.0
1348.765869 124.0
1348.992432 128.0
1349.803955 124.0
1353.601685 64.0
1353.681396 184.0
1353.938477 128.0
1354.663696 204.0
1354.780884 136.0
1355.359619 236.0
1356.173096 148.0
1357.522095 160.0
1357.690674 160.0
1358.41687 208.0
1364.085815 108.0
1367.609131 104.0
1372.161499 184.0
1373.356934 184.0
1373.887207 140.0
1374.042236 140.0
1374.130737 204.0
1375.43689 156.0
1377.711304 188.0
1380.253784 192.0
1380.556885 188.0
1381.089478 232.0
1381.651611 256.0
1382.102905 152.0
1382.731934 44.0
1383.294434 172.0
1385.738281 136.0
1387.064819 220.0
1389.786621 136.0
1391.768311 144.0
1392.332764 168.0
1393.283447 96.0
1398.488647 44.0
1398.927856 184.0
1399.918091 172.0
1401.378052 136.0
1401.959229 116.0
1403.472412 228.0
1406.053467 180.0
1408.173828 164.0
1408.353027 284.0
1408.502441 164.0
1409.555786 200.0
1410.086426 168.0
1410.228394 136.0
1412.763306 152.0
1414.461914 152.0
1414.798828 124.0
1415.599976 200.0
1416.625977 164.0
1416.678467 196.0
1416.880737 164.0
1418.169556 208.0
1421.019165 148.0
1421.889648 152.0
1424.780518 216.0
1425.94519 148.0
1427.027588 144.0
1431.263672 164.0
1434.126465 216.0
1435.053589 224.0
1435.65686 140.0
1436.954224 104.0
1437.316406 56.0
1437.678589 124.0
1438.644775 168.0
1441.333496 164.0
1441.914062 196.0
1442.217651 216.0
1442.769409 164.0
1444.289429 92.0
1444.826538 84.0
1444.909668 64.0
1445.03833 132.0
1446.120483 148.0
1446.264282 156.0
1446.650269 140.0
1447.255981 208.0
1447.483154 152.0
1449.664673 108.0
1450.46814 128.0
1451.302002 128.0
1451.446045 240.0
1453.016113 180.0
1455.368896 264.0
1456.918213 128.0
1459.56311 176.0
1460.475708 156.0
1461.221191 256.0
1462.081055 32.0
1463.405518 144.0
1464.037598 276.0
1464.822021 236.0
1465.103882 168.0
1465.957275 160.0
1466.269775 80.0
1468.305298 176.0
1470.42627 204.0
1471.891968 148.0
1473.128052 184.0
1473.259033 156.0
1473.427124 168.0
1474.191162 164.0
1474.402466 204.0
1475.253418 164.0
1476.20166 144.0
1477.731445 132.0
1478.695557 168.0
1480.318604 112.0
1481.574707 160.0
1481.651245 136.0
1481.858154 200.0
1481.919434 108.0
1482.172241 204.0
1483.751221 168.0
1483.961426 224.0
1484.027222 60.0
1484.096191 156.0
1484.165161 196.0
1486.803955 136.0
1488.846069 176.0
1498.969604 256.0
1499.362671 152.0
1499.809692 192.0
1504.337646 224.0
