>compound MLS001140567-01!1-[2-[(6-oxo-7,8,9,10-tetrahydrobenzo[c]chromen-3-yl)oxy]acetyl]piperidine-4-carboxamide
>formula C21H24N2O5
>ionization [M+H]+
>parentmass 385.175171
#inchi InChI=1S/C21H24N2O5/c22-20(25)13-7-9-23(10-8-13)19(24)12-27-14-5-6-16-15-3-1-2-4-17(15)21(26)28-18(16)11-14/h5-6,11,13H,1-4,7-10,12H2,(H2,22,25)
#inchikey YYGSCYQUDZCDBG
#Ion_Source LC-ESI
#Instrument qTof
#Compound_Source NIH Natural Product Library
#PI Dorrestein
#Data_Collector VVP/LMS
#Scan -1
#Precursor_MZ 385.176
#ExactMass 384.169
#Charge 1
#CAS_Number N/A
#Pubmed_ID N/A
#Smiles NC(=O)C1CCN(CC1)C(=O)COc2ccc3c4CCCCc4c(=O)oc3c2
#INCHI_AUX N/A
#Library_Class 1
#SpectrumID CCMSLIB00000079666
#IonMode Positive
#UpdateWorkflowName UPDATE-SINGLE-ANNOTATED-GOLD
#LibraryQualityString Gold
#TaskID b1d8e8f6646f4e71acdff9ca3d919d08
##Scan# 1796
#SpectrumFile p1-E09_GE9_01_17929.mzXML
#LibraryName NIH_Natural_Products_Library.mgf
#MQScore -1
#Organism NIH_Natural_Products_Library
#TIC_Query 0
#RT_Query -1
#MZErrorPPM -1
#SharedPeaks 0
#MassDiff 0
#LibMZ -1
#SpecMZ 385.176
#SpecCharge 0
#internalFilename spec-00000.mgf

>collision 10
95.067863 164.0
95.166855 200.0
95.795021 192.0
95.952873 180.0
96.001221 216.0
96.081444 1264.0
96.644264 124.0
96.65992 112.0
96.810654 124.0
97.086655 756.0
97.418671 180.0
97.459923 168.0
97.579819 80.0
97.648643 84.0
97.70372 216.0
97.825729 44.0
98.059189 868.0
98.154747 116.0
98.531731 204.0
98.638443 144.0
99.067726 596.0
99.303726 92.0
99.597473 128.0
100.001099 132.0
100.228119 124.0
100.473351 160.0
101.018723 152.0
101.066734 196.0
101.421196 152.0
101.989227 180.0
102.113884 204.0
102.232582 252.0
102.685135 200.0
102.784714 168.0
102.881592 56.0
103.057617 208.0
103.374756 104.0
103.972572 248.0
104.163429 92.0
104.319893 124.0
104.824638 84.0
105.218292 192.0
105.692467 164.0
106.057518 140.0
107.04895 460.0
107.092537 176.0
107.597748 140.0
107.905579 180.0
107.936592 108.0
108.076927 156.0
108.110352 52.0
108.482971 180.0
108.688492 32.0
108.937622 52.0
109.03096 200.0
109.30146 200.0
109.632553 188.0
109.686745 184.0
109.999634 100.0
110.060539 640.0
110.078972 132.0
110.195938 140.0
110.281616 48.0
110.469803 156.0
110.517921 152.0
110.723274 160.0
111.071167 140.0
111.190582 152.0
111.274544 68.0
111.29834 180.0
111.720078 188.0
111.791611 176.0
112.025322 108.0
112.07579 2416.0
112.101166 152.0
112.269814 184.0
112.409035 172.0
112.717331 120.0
112.994308 120.0
113.075066 148.0
113.280106 144.0
113.405121 140.0
113.674454 220.0
114.020599 168.0
114.060982 140.0
114.124763 132.0
114.209824 184.0
114.586609 68.0
115.054428 628.0
115.085693 144.0
115.179657 212.0
115.720695 56.0
115.737823 52.0
115.868477 196.0
116.18576 64.0
116.482002 164.0
116.666809 164.0
116.778625 136.0
117.070396 328.0
117.556343 152.0
118.038055 304.0
118.384285 176.0
118.444923 216.0
118.510605 220.0
118.691986 172.0
118.76355 212.0
119.026146 236.0
119.048698 228.0
119.086952 144.0
119.104324 152.0
119.141251 208.0
119.312935 76.0
119.358597 168.0
119.632729 128.0
119.863594 252.0
120.472305 176.0
120.878967 148.0
121.032188 168.0
121.06723 160.0
121.376198 76.0
121.641663 92.0
121.755836 164.0
121.775604 124.0
122.166862 164.0
122.191055 112.0
122.208656 192.0
122.268074 116.0
122.290085 172.0
122.854172 68.0
122.893883 124.0
123.047997 208.0
123.107994 368.0
123.18309 240.0
123.990685 244.0
124.075287 1120.0
124.199089 212.0
124.245674 140.0
124.334427 196.0
124.420998 112.0
124.476501 168.0
124.703102 104.0
125.084297 1500.0
125.201447 140.0
125.477745 132.0
125.819084 60.0
126.090401 864.0
126.518822 64.0
127.052185 120.0
127.086655 6692.0
127.136436 44.0
127.283363 128.0
127.335014 212.0
127.350731 56.0
127.447327 104.0
127.92411 104.0
127.942123 40.0
128.062302 764.0
128.091385 440.0
128.589035 132.0
128.607101 92.0
128.672562 44.0
128.823868 108.0
128.902939 68.0
129.022736 160.0
129.06694 844.0
129.103973 412.0
129.160675 168.0
129.190079 164.0
129.224014 116.0
129.3349 128.0
129.367264 176.0
129.441315 112.0
129.695038 328.0
129.776657 176.0
130.294113 60.0
130.917343 96.0
130.987946 84.0
131.048538 376.0
131.084167 328.0
131.120102 40.0
131.377747 176.0
133.033035 180.0
133.065491 172.0
133.280319 64.0
133.328568 160.0
133.344666 60.0
133.52858 164.0
134.041946 140.0
134.674057 200.0
135.043762 504.0
135.164169 104.0
135.859222 228.0
136.028625 224.0
136.304993 172.0
136.451431 188.0
136.656097 112.0
136.786423 140.0
137.173096 132.0
137.2034 44.0
137.392303 160.0
137.536972 180.0
137.733109 112.0
137.870956 220.0
138.273209 180.0
138.29895 116.0
138.474548 164.0
138.502655 180.0
140.479538 144.0
140.68956 72.0
140.760391 220.0
140.89975 136.0
141.072266 156.0
141.103699 3176.0
141.155014 84.0
141.18338 48.0
141.318222 48.0
141.441269 52.0
141.505188 40.0
141.957748 128.0
142.069229 204.0
142.085831 144.0
142.103027 344.0
142.225845 172.0
142.365921 136.0
142.418167 124.0
142.605865 52.0
143.085495 3324.0
143.188766 44.0
143.365051 168.0
143.388885 96.0
143.553375 64.0
144.0522 108.0
144.086761 500.0
144.104752 132.0
144.671555 164.0
145.063309 844.0
145.10202 552.0
145.186707 192.0
145.215485 132.0
145.323425 172.0
145.39061 128.0
145.522629 116.0
145.69075 128.0
145.767639 128.0
146.051315 192.0
146.070557 164.0
146.09462 156.0
146.894379 152.0
147.010193 160.0
147.041565 280.0
147.077133 292.0
147.186401 192.0
147.302322 232.0
148.587784 168.0
149.058823 136.0
150.115265 128.0
151.486389 168.0
151.517746 216.0
151.74617 92.0
152.063583 144.0
152.762878 56.0
153.066696 436.0
153.141953 88.0
153.531342 112.0
154.07077 168.0
155.061157 248.0
155.082794 340.0
156.054596 156.0
157.062805 196.0
157.103073 188.0
157.202881 104.0
157.724854 164.0
157.92955 128.0
158.075729 188.0
158.851654 152.0
159.012238 104.0
159.04509 468.0
159.079117 532.0
159.527161 124.0
160.056534 228.0
161.097061 324.0
161.564774 64.0
161.711533 188.0
162.104065 156.0
162.124344 164.0
163.04039 124.0
163.541504 232.0
164.527985 224.0
164.747604 156.0
165.010834 64.0
165.072205 188.0
165.476471 188.0
165.653183 192.0
166.574081 160.0
167.409958 112.0
168.405441 160.0
169.067291 332.0
169.098343 96.0
170.049515 100.0
170.1082 228.0
170.553391 100.0
170.966919 172.0
171.080154 4864.0
171.115845 188.0
171.36792 132.0
172.083099 428.0
172.147827 160.0
172.445648 100.0
172.75943 64.0
173.023743 188.0
173.059357 144.0
173.069321 268.0
173.096222 900.0
173.138962 116.0
173.96225 148.0
174.094559 252.0
174.277405 164.0
174.295792 48.0
174.571793 144.0
175.042831 164.0
175.072342 272.0
175.116562 56.0
175.168884 144.0
175.322052 52.0
176.06601 68.0
176.377762 80.0
176.991531 180.0
177.010071 84.0
177.03125 52.0
177.076279 136.0
177.930099 136.0
179.622589 192.0
181.068573 200.0
182.590271 168.0
182.765121 220.0
182.872757 160.0
183.080627 1228.0
183.681091 184.0
183.737747 48.0
184.081741 292.0
185.082443 240.0
185.092422 128.0
185.103226 152.0
185.422577 200.0
185.495514 84.0
185.782944 120.0
186.069153 164.0
186.103195 152.0
186.217255 84.0
187.0755 508.0
187.133652 184.0
188.045273 292.0
188.082336 840.0
188.240677 152.0
188.285736 20.0
188.495163 104.0
188.820023 164.0
189.088776 188.0
190.093887 72.0
190.541428 200.0
190.618362 232.0
191.264664 168.0
191.350006 60.0
192.049942 172.0
192.110626 120.0
192.336899 144.0
192.687607 180.0
195.986511 128.0
196.17601 84.0
197.723404 260.0
197.790588 68.0
198.11261 120.0
198.305954 192.0
198.387238 140.0
198.998825 148.0
199.074646 1872.0
199.324646 72.0
199.510147 56.0
199.746353 44.0
199.856247 64.0
199.954559 152.0
200.047455 176.0
200.074478 340.0
200.13472 156.0
200.388214 120.0
200.844894 48.0
200.918228 128.0
201.016983 136.0
201.05159 556.0
201.089218 7580.0
201.239975 64.0
201.432007 52.0
201.508286 132.0
201.578918 112.0
201.714584 196.0
201.92099 40.0
202.048264 148.0
202.094101 972.0
202.240692 148.0
202.37941 44.0
202.614471 148.0
202.736313 100.0
202.866699 136.0
203.068085 216.0
203.098724 364.0
203.388626 60.0
203.4823 40.0
204.462967 104.0
205.263443 196.0
206.185516 116.0
207.470688 164.0
208.044434 220.0
209.139618 124.0
209.859802 100.0
209.969391 40.0
210.431076 172.0
210.491714 124.0
210.535019 212.0
211.07251 196.0
211.118774 216.0
212.074173 172.0
212.361206 148.0
212.819717 144.0
213.083099 204.0
213.11734 224.0
213.351379 72.0
213.703293 176.0
214.090424 140.0
214.139938 136.0
215.072754 356.0
215.1138 144.0
215.499298 60.0
215.613266 88.0
216.077103 1208.0
216.476257 40.0
216.880554 60.0
216.909866 124.0
217.082825 984.0
217.373245 72.0
217.766632 80.0
218.094162 124.0
218.227997 96.0
219.122711 124.0
220.323441 140.0
222.35173 52.0
222.574371 136.0
223.067551 160.0
225.094254 124.0
225.305527 220.0
225.595413 164.0
225.942307 152.0
225.969238 116.0
226.121841 124.0
226.57399 120.0
227.008591 208.0
227.080017 2760.0
227.218552 80.0
227.605728 32.0
228.007507 112.0
228.047333 128.0
228.080612 472.0
228.209656 92.0
228.257767 156.0
228.329941 156.0
228.408142 52.0
228.672913 168.0
228.700012 112.0
228.826431 132.0
228.919785 172.0
228.946884 64.0
229.045609 256.0
229.085098 12940.0
229.181839 60.0
229.314438 44.0
229.350601 56.0
229.40184 88.0
229.538239 128.0
229.558624 68.0
229.637299 92.0
229.712433 68.0
229.821045 80.0
229.878372 68.0
229.953827 168.0
230.089355 1504.0
230.130951 124.0
230.343323 88.0
230.373535 68.0
230.406754 40.0
230.724091 60.0
230.835953 64.0
231.046661 60.0
231.079437 160.0
231.108185 148.0
231.271591 172.0
231.471405 64.0
231.780365 84.0
231.804611 100.0
231.844009 96.0
231.865219 132.0
232.079285 200.0
232.580994 48.0
232.659927 64.0
234.832535 188.0
236.185608 208.0
236.653824 76.0
237.766541 72.0
237.950714 128.0
238.949554 120.0
239.137268 156.0
239.611481 116.0
240.052246 80.0
240.129333 48.0
241.084427 456.0
241.118942 148.0
241.268738 80.0
242.100708 140.0
242.169189 200.0
242.689804 160.0
242.751816 124.0
243.09581 144.0
243.115097 152.0
243.257538 40.0
243.284286 136.0
243.397247 108.0
243.648819 100.0
244.090164 124.0
244.749832 104.0
244.927338 116.0
245.457138 60.0
247.409882 120.0
247.557037 176.0
251.789963 144.0
252.093231 60.0
252.456772 256.0
253.08963 112.0
254.087997 160.0
254.996155 160.0
255.11058 152.0
255.409485 124.0
256.096985 136.0
256.310425 108.0
256.418793 160.0
256.900269 108.0
257.031067 56.0
257.079956 2016.0
257.136383 164.0
257.270447 112.0
257.311951 36.0
257.410919 32.0
257.583374 64.0
257.739929 112.0
257.972107 128.0
258.084229 260.0
258.155457 40.0
258.427368 144.0
258.689789 40.0
258.758972 52.0
259.090088 176.0
259.920471 92.0
260.691132 88.0
262.097321 132.0
263.562225 132.0
267.128448 168.0
268.102203 200.0
269.047852 220.0
269.113892 516.0
269.792694 196.0
270.111938 2464.0
270.44693 88.0
271.11554 296.0
271.187134 116.0
271.269073 56.0
271.810242 56.0
272.085938 148.0
272.122986 240.0
272.24353 136.0
272.443878 48.0
273.917603 48.0
274.113617 284.0
275.08493 64.0
275.109741 380.0
276.104095 164.0
277.115479 208.0
277.496643 212.0
278.126923 208.0
278.482208 176.0
280.115356 176.0
280.288605 68.0
281.122223 392.0
281.763306 212.0
282.017273 156.0
283.134735 140.0
283.801544 64.0
283.952454 112.0
284.123535 76.0
284.147003 92.0
285.272034 56.0
286.107758 852.0
287.110413 124.0
287.751526 140.0
287.883209 76.0
288.78894 108.0
289.056183 224.0
293.110565 140.0
293.905029 48.0
294.109802 148.0
294.522949 168.0
296.151031 112.0
297.108917 448.0
298.02063 68.0
298.106842 1484.0
298.141968 512.0
298.264648 64.0
299.110046 300.0
299.148682 212.0
299.234741 112.0
299.386261 176.0
299.906464 52.0
300.171936 48.0
301.207306 68.0
303.973511 96.0
304.108856 76.0
305.66925 188.0
311.125153 120.0
311.367432 120.0
312.013977 172.0
312.052246 176.0
312.157867 3528.0
312.235504 80.0
312.309357 116.0
313.159729 744.0
313.509888 68.0
314.137482 152.0
314.16922 108.0
315.196655 72.0
318.971039 96.0
320.704468 92.0
322.147858 284.0
322.292511 64.0
323.003967 36.0
323.144714 116.0
325.264984 52.0
327.101776 160.0
329.135101 160.0
329.192902 152.0
333.947693 148.0
335.772369 128.0
337.291229 128.0
338.143433 100.0
338.612061 68.0
338.73291 76.0
339.524597 136.0
339.641968 112.0
339.924469 44.0
339.950134 72.0
339.97583 160.0
340.078583 192.0
340.153107 8472.0
340.276825 92.0
340.35025 48.0
340.379639 80.0
340.486115 76.0
340.772644 52.0
340.999115 208.0
341.070312 60.0
341.156158 1632.0
341.522552 52.0
341.598633 96.0
341.706482 44.0
342.153137 364.0
342.232788 84.0
342.457428 64.0
343.155426 156.0
343.301392 68.0
343.511627 116.0
344.172241 144.0
344.327332 104.0
344.523102 60.0
345.129211 36.0
346.350464 48.0
346.850677 52.0
350.150482 276.0
351.022034 108.0
351.126465 108.0
353.528595 72.0
354.839569 56.0
365.863831 120.0
367.166016 364.0
368.14624 2260.0
368.506775 68.0
369.146729 308.0
369.607941 60.0
370.146606 260.0
370.197418 52.0
370.710754 28.0
371.155396 116.0
371.393158 96.0
371.753784 140.0
373.113495 36.0
374.179169 76.0
382.124817 108.0
384.045288 124.0
384.896027 40.0
385.07959 132.0
385.175171 1464.0
385.419434 68.0
386.05661 80.0
386.172882 340.0
386.209137 168.0
386.365601 52.0
387.129791 132.0
387.163269 156.0
387.849701 36.0
388.167267 84.0
389.650909 112.0
390.303345 88.0
392.126007 176.0
394.075348 136.0
416.040283 64.0
432.341858 84.0
433.215485 96.0
445.358307 84.0
468.888153 56.0
492.0961 84.0
494.11145 96.0
495.151642 88.0
498.225555 20.0
525.716064 112.0
549.475586 76.0
556.162659 80.0
598.014954 76.0
630.879028 112.0
640.25177 96.0
653.412415 156.0
664.216858 120.0
678.148865 100.0
727.582397 212.0
753.131531 148.0
755.968933 64.0
794.086731 120.0
838.602722 128.0
842.122192 176.0
923.681824 68.0
946.216614 180.0
961.849426 244.0
977.952637 84.0
984.960999 176.0
991.988037 128.0
1006.906433 128.0
1008.587097 72.0
1019.202148 176.0
1021.459045 80.0
1024.094238 152.0
1038.365967 88.0
1070.524292 140.0
1075.009155 72.0
1078.176392 44.0
1081.197754 132.0
1097.772217 188.0
1100.068237 200.0
1111.24585 184.0
1111.484741 108.0
1140.058838 112.0
1140.374634 184.0
1146.963989 148.0
1156.102051 208.0
1158.864624 180.0
1165.215088 184.0
1166.479004 92.0
1169.444702 132.0
1173.470581 132.0
1175.851196 156.0
1179.225098 180.0
1180.22998 68.0
1193.731323 108.0
1201.342041 208.0
1209.883545 196.0
1218.316284 228.0
1219.462891 100.0
1229.714966 176.0
1243.825684 204.0
1249.348877 40.0
1251.615112 116.0
1285.027588 76.0
1286.968872 184.0
1289.033203 180.0
1289.697876 152.0
1300.463013 280.0
1302.480591 128.0
1307.542236 208.0
1326.081787 144.0
1328.075562 184.0
1330.404907 144.0
1337.455933 100.0
1338.824585 276.0
1347.329346 228.0
1348.242676 236.0
1351.811401 88.0
1372.333374 172.0
1377.463135 140.0
1384.363647 240.0
1392.075806 172.0
1392.915039 140.0
1393.182495 212.0
1395.449219 140.0
1402.580811 204.0
1406.653564 192.0
1407.049194 236.0
1408.229004 48.0
1411.689209 112.0
1413.244995 196.0
1415.310791 144.0
1426.789917 148.0
1430.227661 184.0
1439.795166 44.0
1443.067139 112.0
1444.549316 164.0
1445.820435 228.0
1448.159912 180.0
1450.417847 92.0
1463.02002 160.0
1465.152344 180.0
1481.79187 160.0
1484.137085 168.0
1484.313477 180.0
1488.126831 104.0
1496.815308 164.0
1497.084839 180.0
