>compound 8-Chloro-11-piperidin-4-ylidene-6,11-dihydro-5H-benzo[5,6]cyclohepta[1,2-b]pyridine
>formula C19H19ClN2
>ionization [M+H]+
>parentmass 311.132019
#inchi InChI=1S/C19H19ClN2/c20-16-5-6-17-15(12-16)4-3-14-2-1-9-22-19(14)18(17)13-7-10-21-11-8-13/h1-2,5-6,9,12,21H,3-4,7-8,10-11H2
#inchikey JAUOIFJMECXRGI
#Ion_Source LC-ESI
#Instrument qTof
#Compound_Source Commercial
#PI Dorrestein
#Data_Collector Garg_Neha
#Scan -1
#Precursor_MZ 311.131
#ExactMass 310.124
#Charge 1
#CAS_Number N/A
#Pubmed_ID N/A
#Smiles Clc1ccc2C(=C3CCNCC3)c4ncccc4CCc2c1
#INCHI_AUX N/A
#Library_Class 1
#SpectrumID CCMSLIB00000079237
#IonMode Positive
#UpdateWorkflowName UPDATE-SINGLE-ANNOTATED-GOLD
#LibraryQualityString Gold
#TaskID 278b19f5865741e282cec7349aa7e7a1
##Scan# 1036
#SpectrumFile NCP003672_A27B27C27D27_BE4_01_15740.mzXML
#LibraryName NIHcollectionI_05062014.mgf
#MQScore -1
#Organism NIHcollectionI_05062014
#TIC_Query 0
#RT_Query -1
#MZErrorPPM -1
#SharedPeaks 0
#MassDiff 0
#LibMZ -1
#SpecMZ 311.131
#SpecCharge 0
#internalFilename spec-00000.mgf

>collision 10
45.645596 164.0
45.975639 172.0
46.089069 168.0
47.671169 140.0
47.818169 108.0
48.008446 148.0
48.190651 180.0
48.722672 176.0
49.446373 168.0
52.007702 164.0
55.003582 188.0
55.711422 168.0
59.871635 140.0
60.261898 200.0
62.902893 204.0
63.559692 168.0
63.785213 144.0
64.194389 176.0
68.771744 148.0
68.993088 156.0
69.820496 164.0
71.416084 152.0
71.469917 168.0
71.791656 192.0
72.371254 156.0
74.041786 188.0
76.088608 184.0
77.831116 148.0
83.877319 192.0
84.657471 176.0
85.31617 216.0
87.713478 220.0
89.235474 160.0
89.713661 152.0
90.814178 216.0
93.808678 188.0
93.934021 160.0
95.789131 172.0
96.720558 148.0
96.879173 172.0
98.332275 208.0
99.244225 232.0
100.062805 152.0
100.170341 196.0
101.411194 148.0
102.301033 184.0
102.903831 204.0
104.389069 216.0
104.509079 172.0
107.321358 140.0
107.794044 148.0
108.690659 144.0
109.075005 728.0
111.570885 148.0
112.996559 156.0
113.39254 164.0
115.932922 160.0
116.477882 176.0
118.042564 144.0
119.126244 184.0
119.200111 172.0
119.456665 176.0
120.116692 144.0
121.345726 156.0
121.426857 160.0
122.039528 172.0
123.16124 160.0
126.550438 144.0
127.856873 152.0
127.971672 228.0
128.801575 148.0
130.064453 176.0
132.548676 188.0
135.021088 172.0
135.620743 212.0
135.96167 148.0
136.770493 152.0
143.063004 160.0
144.078522 204.0
144.72467 196.0
147.607315 152.0
148.430618 176.0
148.758148 176.0
149.711243 152.0
151.036499 184.0
152.112213 320.0
154.072433 184.0
155.191101 180.0
155.513596 152.0
156.97644 168.0
157.153534 144.0
157.662933 152.0
161.282166 188.0
161.636215 140.0
163.053802 176.0
164.446945 256.0
165.333771 176.0
166.015213 192.0
166.07933 156.0
167.050293 180.0
167.611542 220.0
168.078873 168.0
168.186646 168.0
171.963181 144.0
172.185089 188.0
173.755646 256.0
175.815948 176.0
177.090271 160.0
177.930862 156.0
180.091003 160.0
181.121506 204.0
182.747086 148.0
184.275818 152.0
185.634598 164.0
186.949402 152.0
188.716965 236.0
188.848236 144.0
189.078049 232.0
189.614838 148.0
190.070053 152.0
191.16922 156.0
191.331604 148.0
192.082336 360.0
192.636002 156.0
193.090683 320.0
194.086212 144.0
195.477859 212.0
200.761246 152.0
201.029236 152.0
202.448349 200.0
202.584305 196.0
203.250565 140.0
204.0504 148.0
204.099197 424.0
207.082016 156.0
207.228104 200.0
211.383087 232.0
212.893387 140.0
213.032791 188.0
214.040894 392.0
215.036087 140.0
215.07988 184.0
215.120743 236.0
215.941406 144.0
216.040283 144.0
216.081421 192.0
217.0858 536.0
218.095566 248.0
219.101959 592.0
219.27887 144.0
219.480469 160.0
220.046967 152.0
220.107315 168.0
222.581482 160.0
224.119278 236.0
226.046692 304.0
227.048782 148.0
227.081528 100.0
227.931335 184.0
228.054901 248.0
229.063431 528.0
229.167999 256.0
230.050446 256.0
230.08606 424.0
230.09491 452.0
230.924896 176.0
231.102036 1156.0
231.781616 204.0
232.074112 144.0
232.111359 812.0
233.122101 636.0
233.484619 152.0
234.122498 152.0
234.895142 188.0
237.096222 152.0
237.608292 216.0
237.905975 164.0
238.039978 260.0
238.62178 148.0
240.052917 96.0
241.041351 176.0
241.08461 292.0
241.501984 236.0
241.789719 244.0
242.070145 236.0
242.094757 108.0
242.288239 176.0
242.449371 220.0
243.067688 112.0
243.104538 3432.0
243.234863 168.0
243.671921 144.0
243.762024 152.0
243.824188 184.0
244.110764 2248.0
244.163055 148.0
244.682693 168.0
245.119583 808.0
245.742355 184.0
246.130081 1060.0
246.826187 248.0
247.135376 1344.0
247.638367 196.0
247.912415 188.0
248.134766 288.0
248.222748 192.0
248.630554 196.0
249.146896 152.0
250.280899 212.0
250.946426 136.0
252.054977 1088.0
253.065582 2180.0
253.179733 216.0
254.062637 280.0
255.061447 552.0
255.133804 156.0
255.236038 152.0
255.468201 148.0
255.894653 172.0
256.056976 324.0
256.110718 500.0
256.32785 152.0
257.003723 124.0
257.118225 888.0
257.473053 228.0
257.563141 140.0
258.127899 15428.0
258.275299 200.0
258.300873 156.0
258.356262 140.0
258.626282 168.0
258.722137 108.0
258.848145 172.0
258.961609 96.0
259.051208 208.0
259.089142 312.0
259.1362 68900.0
259.373047 124.0
259.461334 168.0
259.713959 216.0
259.777588 156.0
259.914429 112.0
260.093536 148.0
260.139374 10316.0
260.672577 164.0
260.781128 120.0
261.14212 1004.0
261.881866 124.0
262.11496 176.0
262.147186 148.0
262.4534 188.0
264.059357 340.0
264.113342 176.0
264.876404 188.0
265.063629 280.0
265.125122 840.0
265.622772 192.0
266.072601 2352.0
266.99826 212.0
267.080811 7008.0
267.240631 152.0
268.084137 2004.0
269.077911 1820.0
270.08374 1064.0
270.134399 172.0
270.211914 172.0
270.320862 168.0
270.596252 128.0
271.113373 152.0
272.107239 168.0
272.461914 172.0
273.639099 312.0
273.675537 216.0
274.123505 140.0
276.056519 108.0
277.067841 228.0
278.073059 968.0
278.584259 124.0
278.696472 180.0
279.082886 5828.0
279.362427 168.0
279.6409 348.0
280.087433 4968.0
280.937073 184.0
281.089081 2140.0
282.104065 11096.0
282.36853 188.0
282.637024 168.0
283.106171 2220.0
284.101746 3596.0
284.209106 168.0
285.105286 384.0
287.408997 160.0
289.609772 164.0
291.064636 188.0
291.917542 268.0
292.08786 2416.0
293.09613 1624.0
294.104492 17080.0
294.328796 200.0
295.10672 3080.0
295.492188 112.0
296.103088 4292.0
296.605133 168.0
296.646271 164.0
296.958313 272.0
297.103424 632.0
301.134552 348.0
302.13562 172.0
304.109772 152.0
306.611389 156.0
307.874298 160.0
308.631775 180.0
308.967316 112.0
309.114777 388.0
310.05658 100.0
310.140045 208.0
310.576202 144.0
310.697327 156.0
310.790192 252.0
310.869537 104.0
310.941071 168.0
311.029816 216.0
311.07486 312.0
311.132019 81848.0
311.238495 176.0
311.301636 148.0
311.351837 340.0
311.650024 284.0
312.004944 188.0
312.13443 11004.0
312.925385 100.0
313.057434 192.0
313.128967 19120.0
313.614349 104.0
313.699799 144.0
313.98703 120.0
314.083038 164.0
314.13147 2072.0
314.213165 144.0
314.32486 132.0
314.974243 156.0
323.621552 124.0
347.123596 176.0
417.729614 160.0
421.562134 160.0
453.153076 140.0
478.3992 152.0
629.709778 160.0
694.62616 252.0
791.491272 120.0
1827.382812 184.0
2000.277222 156.0
2002.53894 228.0
