>compound MLS001160080-01!2-[2-(4-butyl-7-methyl-2-oxochromen-5-yl)oxypropanoylamino]-3-(5-hydroxy-1H-indol-3-yl)propanoic acid
>formula C28H30N2O7
>ionization [M+H]+
>parentmass 507.213
#inchi InChI=1S/C28H30N2O7/c1-4-5-6-17-12-25(32)37-24-10-15(2)9-23(26(17)24)36-16(3)27(33)30-22(28(34)35)11-18-14-29-21-8-7-19(31)13-20(18)21/h7-10,12-14,16,22,29,31H,4-6,11H2,1-3H3,(H,30,33)(H,34,35)
#inchikey QPOOMJOQGJEDNY
#Ion_Source LC-ESI
#Instrument qTof
#Compound_Source NIH Natural Product Library
#PI Dorrestein
#Data_Collector VVP/LMS
#Scan -1
#Precursor_MZ 507.213
#ExactMass 506.205
#Charge 1
#CAS_Number N/A
#Pubmed_ID N/A
#Smiles CCCCc1cc(=O)oc2cc(C)cc(OC(C)C(=O)NC(Cc3c[nH]c4ccc(O)cc34)C(=O)O)c12
#INCHI_AUX N/A
#Library_Class 1
#SpectrumID CCMSLIB00000080555
#IonMode Positive
#UpdateWorkflowName UPDATE-SINGLE-ANNOTATED-GOLD
#LibraryQualityString Gold
#TaskID b1d8e8f6646f4e71acdff9ca3d919d08
##Scan# 2013
#SpectrumFile p2-E10_GE10_01_18034.mzXML
#LibraryName NIH_Natural_Products_Library.mgf
#MQScore -1
#Organism NIH_Natural_Products_Library
#TIC_Query 0
#RT_Query -1
#MZErrorPPM -1
#SharedPeaks 0
#MassDiff 0
#LibMZ -1
#SpecMZ 507.213
#SpecCharge 0
#internalFilename spec-00000.mgf

>collision 10
95.006149 100.0
95.145882 208.0
95.322632 184.0
95.522888 168.0
95.583199 168.0
95.659103 152.0
95.694145 240.0
95.764252 172.0
96.025421 236.0
96.052727 200.0
96.089798 120.0
96.181519 124.0
96.228371 52.0
97.120735 200.0
97.708092 152.0
97.808456 188.0
97.822235 172.0
97.88327 192.0
97.936447 244.0
98.153229 204.0
98.18084 160.0
98.240005 224.0
98.461075 144.0
98.508484 168.0
98.540092 124.0
98.674492 216.0
98.785233 44.0
99.449043 208.0
99.486755 120.0
99.727112 200.0
100.063301 40.0
100.109337 168.0
100.829285 36.0
101.004601 88.0
101.181335 136.0
101.437759 84.0
101.614243 168.0
101.758751 52.0
101.782845 200.0
101.865189 124.0
102.050652 196.0
102.221054 188.0
102.450584 156.0
102.472748 216.0
102.504982 100.0
102.771149 152.0
102.89225 120.0
102.989174 196.0
103.056541 164.0
103.100296 200.0
103.181152 164.0
103.272148 180.0
103.404739 188.0
103.591972 60.0
103.610207 176.0
103.802757 184.0
103.837234 192.0
104.05658 212.0
104.454704 32.0
104.497429 176.0
104.890472 152.0
105.069412 524.0
105.314781 160.0
105.341682 136.0
106.030983 144.0
106.221169 180.0
106.667267 184.0
107.047058 248.0
107.089081 200.0
107.11792 148.0
107.326073 184.0
107.486969 156.0
107.524757 244.0
107.540619 152.0
107.705803 180.0
107.815308 168.0
108.026207 136.0
108.051033 216.0
108.357445 168.0
108.396812 176.0
108.7556 48.0
108.944565 160.0
109.019363 136.0
109.052353 156.0
109.312576 140.0
109.474953 84.0
109.629112 172.0
109.875153 148.0
110.054649 212.0
110.34507 144.0
110.368065 100.0
110.50193 140.0
110.906097 184.0
111.409714 128.0
111.487457 212.0
111.591408 176.0
111.634613 104.0
111.872375 144.0
112.156746 176.0
112.338097 192.0
112.599831 200.0
112.768852 144.0
112.792099 164.0
113.058594 140.0
113.145378 144.0
113.168671 124.0
113.306335 84.0
113.545868 136.0
113.872711 36.0
113.998055 128.0
114.046936 160.0
114.072441 116.0
114.200027 72.0
114.302139 172.0
114.480957 156.0
114.497993 228.0
114.517159 76.0
114.559761 136.0
114.728119 120.0
114.877396 216.0
114.928596 120.0
115.052841 200.0
115.069466 60.0
115.372841 164.0
115.499008 148.0
115.586723 212.0
115.691597 140.0
116.049492 200.0
116.077263 152.0
116.197372 176.0
116.253166 176.0
116.5495 208.0
116.955154 236.0
117.058876 736.0
117.12822 180.0
117.231636 220.0
117.257492 152.0
117.324318 156.0
117.440758 124.0
117.596107 152.0
117.695412 172.0
117.760254 164.0
117.967636 192.0
118.062996 756.0
118.335419 96.0
118.527992 200.0
118.80571 172.0
118.953278 124.0
119.048813 160.0
119.079216 160.0
119.103111 116.0
119.222603 188.0
119.274765 180.0
119.311722 140.0
119.448723 140.0
119.764351 84.0
120.057716 228.0
120.078033 100.0
120.388107 88.0
120.639374 160.0
120.704964 164.0
121.063705 500.0
121.103271 144.0
121.206238 124.0
121.313843 208.0
121.653656 216.0
121.796387 140.0
122.057922 160.0
122.073311 132.0
122.167885 156.0
122.297714 200.0
122.336487 228.0
122.654549 176.0
122.980995 32.0
123.047356 132.0
123.078133 132.0
123.439941 168.0
123.458214 140.0
123.64183 64.0
123.675034 128.0
123.869888 144.0
124.054474 348.0
124.080421 80.0
124.570869 152.0
124.6353 176.0
124.664185 144.0
124.755318 96.0
124.944351 212.0
125.045441 184.0
125.062286 112.0
125.18251 152.0
125.231506 40.0
125.69075 152.0
126.039085 124.0
126.535629 180.0
126.613998 108.0
126.965858 176.0
127.051094 144.0
127.648544 156.0
127.936539 136.0
128.058441 304.0
128.466125 156.0
128.619568 112.0
128.883804 148.0
128.913177 188.0
129.072311 260.0
129.123428 144.0
129.691727 132.0
129.93663 176.0
130.038742 176.0
130.065033 408.0
130.197678 272.0
130.597687 152.0
131.011978 168.0
131.044907 808.0
131.07048 172.0
131.085052 552.0
131.383575 152.0
131.408661 208.0
131.714569 108.0
131.922516 200.0
132.043701 172.0
132.074951 396.0
132.229019 208.0
132.438065 160.0
132.476318 148.0
132.710083 208.0
132.960129 192.0
133.06369 648.0
133.097382 248.0
133.217285 44.0
133.309189 40.0
133.5345 208.0
133.971848 188.0
134.05925 2160.0
134.10318 212.0
134.352219 120.0
134.372986 84.0
134.407593 96.0
134.682327 112.0
134.987396 148.0
135.044907 296.0
135.083557 400.0
135.244202 180.0
135.304382 76.0
135.422485 216.0
135.503555 92.0
135.777084 116.0
135.868652 176.0
135.965012 60.0
136.390045 144.0
136.66214 184.0
136.818069 120.0
137.058075 476.0
137.113892 72.0
137.155838 88.0
137.172165 148.0
137.251434 120.0
137.466034 48.0
137.489365 56.0
137.629929 172.0
137.909775 160.0
138.021988 96.0
138.066422 180.0
138.567337 228.0
139.151337 68.0
139.16777 72.0
139.449677 48.0
139.607193 180.0
139.644821 204.0
139.957809 184.0
140.172165 56.0
140.207504 64.0
140.414978 160.0
141.072906 356.0
141.312622 88.0
141.881027 108.0
142.070572 360.0
142.571747 80.0
142.776199 156.0
142.878479 180.0
143.061737 160.0
143.085052 156.0
143.361847 60.0
143.67897 176.0
143.90332 148.0
144.050964 276.0
144.094818 152.0
144.168457 80.0
144.225815 168.0
144.331009 56.0
144.898254 60.0
144.946182 196.0
144.965347 140.0
145.034851 156.0
145.066971 624.0
145.100204 316.0
145.316391 100.0
145.435425 184.0
145.616974 96.0
145.649124 184.0
145.79808 192.0
145.836594 168.0
145.862976 140.0
145.896637 152.0
145.949524 164.0
146.06012 13180.0
146.100571 80.0
146.1203 36.0
146.156387 260.0
146.194885 132.0
146.247833 132.0
146.312012 164.0
146.336914 136.0
146.387466 60.0
146.418777 88.0
146.451233 84.0
146.471771 68.0
146.491043 44.0
146.563324 40.0
146.582596 72.0
146.630798 44.0
146.754135 48.0
146.780258 248.0
146.893616 152.0
146.910492 80.0
147.062469 2292.0
147.200119 60.0
147.255676 132.0
147.279831 112.0
147.388535 212.0
147.627853 140.0
147.690399 148.0
147.903671 164.0
147.923035 104.0
147.947235 120.0
148.034409 212.0
148.053268 116.0
148.075836 1080.0
148.116745 168.0
148.145813 152.0
148.17247 144.0
148.189423 108.0
148.220917 64.0
148.436661 48.0
148.587036 140.0
148.645279 128.0
148.705948 184.0
148.732651 56.0
149.026489 156.0
149.05957 304.0
149.078217 328.0
149.099396 244.0
149.211212 264.0
149.247681 172.0
149.324051 172.0
149.369278 152.0
149.542038 148.0
149.673492 112.0
149.948776 140.0
150.007278 136.0
150.103653 188.0
150.399994 184.0
150.619766 56.0
150.697937 124.0
150.869019 148.0
151.041138 2028.0
151.074478 432.0
151.164963 264.0
151.206573 120.0
151.267761 36.0
151.409775 56.0
151.564102 108.0
151.730774 52.0
152.06192 196.0
152.079163 164.0
152.189575 180.0
152.371323 172.0
152.631851 164.0
153.080414 152.0
153.254532 148.0
153.520813 172.0
153.891006 176.0
154.056427 216.0
154.209625 104.0
154.372787 188.0
154.399994 148.0
154.786041 128.0
155.075897 204.0
155.237045 220.0
155.284164 164.0
155.514908 184.0
155.790527 52.0
156.034088 164.0
156.081024 380.0
156.200699 48.0
156.459503 224.0
157.059494 160.0
157.098495 380.0
157.344559 44.0
157.411972 88.0
157.624298 128.0
157.664276 84.0
157.96431 128.0
158.060226 2308.0
158.088821 316.0
158.14447 80.0
158.164505 280.0
158.182022 56.0
158.507614 44.0
159.077484 716.0
159.116226 148.0
159.194946 184.0
159.212524 36.0
159.29541 52.0
159.431091 164.0
159.498947 124.0
159.742859 188.0
159.80072 48.0
159.936615 36.0
159.971863 164.0
160.037018 188.0
160.076859 1456.0
160.236282 104.0
160.770859 148.0
160.806183 136.0
161.061371 876.0
161.07962 424.0
161.13446 40.0
161.16983 60.0
161.301254 104.0
161.374573 132.0
161.581955 136.0
161.857849 48.0
162.014877 264.0
162.055481 3560.0
162.090256 1072.0
162.430618 156.0
162.47374 200.0
162.846893 44.0
163.058899 528.0
163.0811 196.0
163.088715 136.0
163.096619 296.0
163.322189 68.0
163.663208 88.0
163.77272 216.0
163.792709 112.0
163.833847 100.0
164.014771 144.0
164.078506 172.0
164.096359 88.0
164.114197 68.0
164.228958 44.0
164.34375 112.0
164.411591 236.0
164.665405 52.0
165.053848 172.0
165.084534 96.0
165.10498 152.0
165.445297 148.0
165.709091 168.0
165.893616 136.0
166.039764 72.0
166.057724 112.0
166.178284 64.0
166.612167 132.0
166.640442 192.0
166.997757 148.0
167.071259 324.0
167.100647 128.0
167.765106 152.0
168.076691 292.0
168.263016 48.0
168.634995 180.0
168.684097 176.0
169.060928 156.0
169.091293 388.0
169.097916 232.0
169.289536 56.0
169.896042 108.0
170.058899 784.0
170.086578 132.0
170.109955 140.0
170.171158 136.0
170.311386 96.0
170.39711 216.0
170.449081 236.0
171.065887 1372.0
171.112335 152.0
171.146179 84.0
171.198257 168.0
171.466599 176.0
171.604752 324.0
171.698624 132.0
172.0737 420.0
172.29422 188.0
172.604782 48.0
172.625702 144.0
172.918716 204.0
173.082275 1388.0
173.180542 152.0
173.277466 228.0
173.30806 148.0
173.568405 256.0
173.751999 172.0
173.87532 64.0
173.975067 140.0
174.083969 2508.0
174.187775 132.0
174.282349 124.0
174.319916 96.0
174.413376 100.0
174.563614 104.0
174.730896 60.0
174.995148 60.0
175.085114 3068.0
175.155792 68.0
175.197937 56.0
175.216385 92.0
175.25853 80.0
175.292786 60.0
175.321777 80.0
175.440384 172.0
175.62233 88.0
175.677734 76.0
175.709381 116.0
175.799103 48.0
176.085815 336.0
176.174026 32.0
176.218948 92.0
176.446243 112.0
176.591675 216.0
176.675171 92.0
176.721298 40.0
176.9198 152.0
177.054337 2208.0
177.08252 416.0
177.121048 152.0
177.195221 120.0
177.86615 104.0
178.017487 212.0
178.063446 244.0
178.097168 140.0
178.253906 160.0
178.39743 140.0
178.53038 52.0
178.610168 168.0
178.636765 152.0
178.681992 68.0
178.75383 116.0
179.070694 796.0
179.134567 60.0
179.238464 184.0
179.427704 152.0
179.654388 84.0
180.033401 144.0
180.070679 164.0
180.543839 60.0
180.653503 172.0
180.923798 124.0
181.06839 316.0
181.19696 140.0
181.418625 192.0
181.91301 196.0
182.068741 220.0
182.18692 168.0
182.275589 88.0
182.50943 148.0
182.590118 116.0
182.789185 216.0
183.065201 760.0
183.09877 180.0
183.117615 152.0
183.70253 196.0
183.875229 88.0
184.076416 3692.0
184.110092 48.0
184.145203 200.0
184.364044 48.0
184.474854 88.0
184.612747 88.0
184.921173 72.0
185.046143 120.0
185.079651 1036.0
185.127777 148.0
185.32196 76.0
185.357178 120.0
185.408676 56.0
185.685196 56.0
185.73674 96.0
185.793701 76.0
185.837112 44.0
185.986374 56.0
186.054672 4052.0
186.090607 2596.0
186.203583 48.0
186.2742 56.0
186.380157 204.0
186.401901 52.0
186.505173 92.0
186.551865 112.0
186.752594 112.0
186.839645 92.0
186.932159 28.0
186.986588 104.0
187.05603 620.0
187.084625 168.0
187.097321 320.0
187.102295 304.0
187.34874 152.0
187.455002 40.0
187.542206 92.0
187.583099 48.0
187.722137 72.0
187.973114 72.0
188.064651 320.0
188.13414 136.0
188.161194 44.0
188.178696 188.0
188.388107 36.0
189.051239 676.0
189.091385 852.0
189.125946 140.0
189.233185 108.0
189.624908 208.0
189.827774 60.0
190.060471 720.0
190.096771 176.0
190.505707 96.0
190.66507 60.0
191.073807 328.0
191.1064 176.0
191.138062 60.0
191.60614 180.0
191.829361 80.0
191.878983 160.0
192.060989 176.0
192.287231 140.0
192.381073 136.0
192.635132 196.0
192.712494 76.0
193.049728 144.0
193.497971 100.0
193.542282 120.0
194.462646 180.0
194.887527 120.0
195.079681 228.0
195.410233 188.0
195.479797 48.0
196.078552 348.0
196.753586 224.0
197.995087 256.0
198.073654 156.0
198.104324 60.0
198.505127 132.0
199.074631 156.0
199.108475 272.0
199.128143 220.0
199.892807 116.0
200.067902 748.0
200.148956 36.0
201.01152 64.0
201.056168 404.0
201.101639 1388.0
201.265564 172.0
201.313568 164.0
201.403946 124.0
201.477386 168.0
201.728897 88.0
201.907028 40.0
202.056824 172.0
202.106064 644.0
202.379608 68.0
202.407913 124.0
202.699677 160.0
202.832886 168.0
202.946289 196.0
203.014343 56.0
203.067184 1780.0
203.112656 1428.0
203.14801 152.0
203.21814 52.0
203.292343 64.0
203.394516 52.0
203.479691 76.0
203.635864 64.0
203.840408 160.0
204.064987 5804.0
204.10965 340.0
204.14743 116.0
204.295639 36.0
204.377838 44.0
204.474594 168.0
204.557129 40.0
204.634003 132.0
204.725113 128.0
204.764984 148.0
204.816254 68.0
204.95015 76.0
205.068222 1624.0
205.130096 176.0
205.235184 52.0
205.326431 152.0
205.718765 96.0
205.92865 64.0
206.074326 168.0
206.131485 40.0
206.27153 68.0
206.340134 80.0
206.397324 124.0
206.483109 116.0
206.576431 108.0
206.76062 136.0
206.783508 76.0
206.91806 72.0
207.135696 104.0
207.554123 140.0
207.585663 148.0
207.614349 44.0
208.064835 96.0
208.728546 152.0
209.799606 136.0
210.00145 164.0
210.705795 192.0
211.083572 480.0
211.200119 88.0
211.278214 48.0
211.561829 212.0
212.069443 928.0
212.444382 200.0
212.994339 176.0
213.091217 1328.0
213.127548 136.0
213.692047 124.0
213.828812 80.0
213.863739 96.0
214.083801 452.0
214.106201 160.0
214.592026 232.0
214.991653 40.0
215.0793 512.0
215.137589 96.0
215.371201 64.0
215.648773 196.0
216.055496 160.0
216.083298 316.0
216.10936 324.0
216.822388 108.0
216.84584 164.0
217.083328 780.0
217.123383 544.0
217.494049 52.0
217.822922 108.0
218.057983 176.0
218.088959 300.0
218.12558 124.0
218.157913 52.0
218.808075 44.0
219.077194 252.0
219.107803 172.0
219.202774 84.0
219.314758 44.0
219.978455 180.0
220.081787 124.0
221.088379 276.0
221.350296 164.0
221.788757 172.0
223.190018 192.0
223.255432 156.0
223.892303 72.0
224.121674 48.0
224.768723 36.0
226.056625 136.0
226.349991 100.0
226.694473 56.0
227.630402 92.0
228.096085 164.0
228.565262 176.0
228.646515 108.0
228.742828 48.0
229.093948 912.0
229.188553 120.0
229.381424 44.0
229.453781 52.0
229.505035 80.0
229.879074 120.0
230.102264 1224.0
230.141937 180.0
230.591797 40.0
230.615967 204.0
230.736893 184.0
230.803406 84.0
231.020706 160.0
231.047546 200.0
231.101105 7616.0
231.138199 812.0
231.24205 96.0
231.278381 76.0
231.381302 80.0
231.420654 36.0
231.696274 200.0
231.720505 48.0
232.0448 104.0
232.067535 128.0
232.104218 1864.0
232.207626 92.0
232.284378 56.0
232.615128 76.0
232.663712 172.0
232.718353 160.0
232.821594 96.0
232.879303 76.0
233.04335 104.0
233.116287 7240.0
233.192245 56.0
233.225677 92.0
233.345428 92.0
233.433548 108.0
233.63797 124.0
233.663589 80.0
233.686798 76.0
233.786316 132.0
233.989227 184.0
234.122543 1576.0
234.17804 112.0
234.248093 92.0
234.542511 84.0
234.622925 64.0
235.1259 304.0
235.267639 120.0
235.355164 32.0
235.416245 100.0
235.459 44.0
235.773666 92.0
235.8134 64.0
235.837845 140.0
236.094666 168.0
236.210892 52.0
236.630157 72.0
236.869019 88.0
237.016083 52.0
237.377792 100.0
238.818146 44.0
241.09964 44.0
241.124512 136.0
241.708847 68.0
242.12056 84.0
242.15773 44.0
242.749649 112.0
243.109497 208.0
243.320572 112.0
244.1129 308.0
244.866013 144.0
245.015533 48.0
245.049805 108.0
245.112442 160.0
246.07312 120.0
246.275787 108.0
246.691376 96.0
247.10817 988.0
248.110855 256.0
248.172226 52.0
249.110596 196.0
249.692093 112.0
250.160919 140.0
251.068359 220.0
251.529007 32.0
255.065933 188.0
255.12764 164.0
255.235733 84.0
256.853607 164.0
257.035461 212.0
257.108093 200.0
258.079956 136.0
258.546967 220.0
259.0849 120.0
259.132812 2912.0
259.219482 44.0
259.315613 64.0
259.546417 44.0
259.7164 72.0
259.780548 32.0
260.132782 636.0
260.653839 56.0
261.146942 240.0
261.702423 44.0
261.822266 112.0
262.611206 80.0
262.937073 76.0
263.09201 148.0
268.165283 220.0
269.121185 176.0
272.704956 128.0
273.79068 20.0
275.086456 144.0
276.881866 68.0
287.120178 528.0
288.139984 112.0
289.196716 172.0
289.542053 52.0
290.959442 80.0
303.094818 132.0
303.625183 180.0
304.144928 272.0
305.128723 148.0
305.163483 204.0
305.963684 40.0
309.139984 60.0
313.078796 52.0
313.195038 100.0
314.866821 184.0
315.531128 72.0
316.801636 68.0
318.113739 176.0
319.119141 192.0
321.074066 216.0
325.116669 140.0
328.163422 176.0
334.867462 116.0
341.102417 124.0
341.94104 80.0
344.16394 72.0
345.720154 76.0
346.345856 156.0
354.059387 104.0
358.089233 128.0
362.17218 104.0
363.160583 136.0
364.44455 100.0
367.543976 76.0
374.131897 144.0
374.152466 156.0
375.808929 44.0
384.286743 144.0
386.592133 84.0
389.159607 144.0
390.164795 188.0
391.169098 156.0
397.392975 56.0
402.164368 164.0
402.587555 36.0
405.16745 156.0
406.149597 140.0
411.146637 188.0
411.408997 96.0
411.699707 36.0
414.490906 92.0
416.328522 232.0
419.20462 172.0
420.509674 104.0
428.176453 168.0
434.915802 160.0
435.667389 76.0
442.921631 204.0
455.21167 212.0
461.107727 76.0
461.1716 292.0
461.209717 292.0
461.304352 168.0
461.586517 76.0
461.697723 64.0
462.202026 296.0
463.215546 128.0
474.74234 56.0
485.843079 64.0
489.187317 128.0
490.195892 140.0
491.209961 116.0
497.254059 96.0
505.340118 260.0
505.418091 136.0
506.313385 188.0
507.220642 136.0
508.211121 332.0
537.552307 112.0
555.300903 92.0
567.102295 52.0
571.309387 100.0
572.480286 84.0
575.202637 36.0
580.844238 40.0
593.98407 80.0
611.456848 92.0
612.362732 80.0
654.570435 48.0
676.789246 76.0
768.368408 40.0
801.911255 224.0
809.979797 128.0
852.804688 112.0
863.637878 164.0
873.803955 216.0
882.828613 120.0
882.887756 156.0
897.400269 228.0
897.453918 108.0
898.300781 104.0
919.05896 60.0
934.399902 120.0
935.726685 116.0
937.968445 112.0
938.779358 156.0
957.384521 44.0
1005.074768 168.0
1027.694946 132.0
1038.281616 92.0
1040.052368 140.0
1054.079102 140.0
1054.57666 76.0
1076.810059 76.0
1078.123169 116.0
1086.248413 208.0
1086.313965 104.0
1104.302734 124.0
1105.056885 136.0
1108.711914 64.0
1112.63208 188.0
1115.455322 152.0
1117.696533 180.0
1119.160889 64.0
1125.114624 220.0
1129.311035 76.0
1133.836914 208.0
1136.123291 160.0
1140.682983 184.0
1144.389771 200.0
1148.662354 132.0
1156.046997 56.0
1157.813843 236.0
1166.811279 56.0
1172.3927 176.0
1172.692627 40.0
1176.328125 96.0
1182.575562 116.0
1182.664429 72.0
1196.634155 140.0
1197.005981 212.0
1200.96167 116.0
1201.789551 136.0
1211.322998 64.0
1214.920776 172.0
1215.399414 208.0
1226.505737 76.0
1230.873779 172.0
1230.920898 152.0
1231.054443 172.0
1241.30603 128.0
1244.709351 104.0
1246.261597 76.0
1247.259521 168.0
1247.315796 172.0
1248.581299 236.0
1252.19165 172.0
1256.724365 264.0
1258.707764 120.0
1260.411255 204.0
1264.603638 124.0
1265.93457 52.0
1266.536621 52.0
1270.477783 180.0
1275.157104 176.0
1276.301636 68.0
1276.94873 32.0
1285.283447 180.0
1291.162598 180.0
1295.872559 56.0
1300.69165 180.0
1301.359375 148.0
1304.685669 204.0
1309.449097 156.0
1310.24939 196.0
1311.826904 168.0
1318.228638 248.0
1320.462524 184.0
1323.125366 68.0
1325.066284 212.0
1325.682129 168.0
1326.791138 236.0
1336.639771 128.0
1339.362549 144.0
1342.977783 188.0
1344.218018 200.0
1352.849609 112.0
1353.940552 180.0
1360.363525 144.0
1364.168579 136.0
1365.786377 164.0
1366.13208 112.0
1366.213013 124.0
1366.30127 60.0
1372.620605 136.0
1375.12146 116.0
1377.853638 140.0
1378.533325 156.0
1378.592407 120.0
1380.285278 112.0
1381.564697 264.0
1381.949463 164.0
1382.082642 176.0
1383.918213 108.0
1384.984619 160.0
1385.192017 140.0
1385.421631 212.0
1385.592041 80.0
1386.495972 140.0
1389.751343 164.0
1390.649292 104.0
1391.072266 120.0
1395.366211 192.0
1398.505371 164.0
1399.927368 144.0
1403.093994 204.0
1407.197266 188.0
1408.250244 164.0
1411.725342 216.0
1419.12146 84.0
1422.994629 120.0
1425.285522 132.0
1426.38269 48.0
1426.450317 172.0
1426.570679 152.0
1430.12854 60.0
1433.766235 176.0
1434.037476 168.0
1434.700806 52.0
1439.763672 136.0
1440.020508 132.0
1441.924316 116.0
1443.164062 196.0
1450.128418 196.0
1450.931885 44.0
1452.956787 248.0
1453.950806 100.0
1458.393799 212.0
1460.25647 104.0
1461.230225 132.0
1466.255737 148.0
1468.07019 88.0
1473.17627 156.0
1479.799072 184.0
1480.649048 212.0
1483.346069 148.0
1485.470093 68.0
1485.654175 156.0
1488.386475 208.0
1494.658569 200.0
1495.751465 164.0
1496.890869 204.0
1497.522339 108.0
1498.153931 76.0
1500.24231 148.0
1501.468262 176.0
1503.528076 100.0
1504.114746 144.0
