>compound MLS001074069-01!D(-)-Norgestrel
>formula C21H28O2
>ionization [M+H]+
>parentmass 313.21620658809053
#inchi InChI=1S/C21H28O2/c1-3-20-11-9-17-16-8-6-15(22)13-14(16)5-7-18(17)19(20)10-12-21(20,23)4-2/h2,13,16-19,23H,3,5-12H2,1H3/t16-,17+,18+,19-,20-,21-/m0/s1
#inchikey WWYNJERNGUHSAO
#Ion_Source LC-ESI
#Instrument qTof
#Compound_Source NIH Pharmacologically Active Library
#PI Dorrestein
#Data_Collector VP/LMS
#Scan -1
#Precursor_MZ 313.218
#ExactMass 312.209
#Charge 1
#CAS_Number N/A
#Pubmed_ID N/A
#Smiles CC[C@@]12CC[C@H]3[C@@H](CC/C/4=C/C(=O)CC[C@H]34)[C@@H]2CC[C@@]1(O)C#C
#INCHI_AUX N/A
#Library_Class 1
#SpectrumID CCMSLIB00000085097
#IonMode Positive
#UpdateWorkflowName UPDATE-SINGLE-ANNOTATED-GOLD
#LibraryQualityString Gold
#TaskID d252d724072548979f1f6f1ced849daf
##Scan# 2235
#SpectrumFile p3-E10_GE10_01_18279.mzXML
#LibraryName Pharm_Active_Library.mgf
#MQScore -1
#Organism Pharm_Active_Library
#TIC_Query 0
#RT_Query -1
#MZErrorPPM -1
#SharedPeaks 0
#MassDiff 0
#LibMZ -1
#SpecMZ 313.218
#SpecCharge 0
#internalFilename spec-00000.mgf

>collision 10
44.908623 140.0
44.94331 172.0
45.163754 192.0
45.40564 188.0
46.027962 140.0
46.113075 152.0
46.137409 108.0
46.242924 44.0
46.288956 44.0
46.40007 72.0
46.538467 148.0
46.721962 64.0
46.978092 44.0
47.083199 216.0
47.465023 200.0
47.675064 204.0
47.684685 196.0
47.805717 124.0
48.327347 188.0
48.504623 172.0
48.598934 152.0
48.921387 136.0
49.017494 64.0
49.063496 152.0
49.152763 172.0
49.580708 88.0
49.669044 152.0
49.862816 148.0
49.885307 228.0
50.264194 132.0
50.447811 336.0
50.475384 144.0
50.507206 52.0
50.596363 168.0
50.62701 112.0
50.914005 120.0
51.012051 184.0
51.053284 188.0
51.136856 184.0
51.358089 176.0
51.450848 376.0
51.829891 136.0
52.354244 120.0
52.423397 204.0
52.528656 180.0
52.587818 144.0
52.837826 104.0
52.972466 148.0
52.986954 164.0
53.037678 144.0
53.079723 168.0
53.163864 56.0
53.345428 172.0
53.423962 152.0
53.512745 156.0
53.975307 160.0
54.3195 164.0
54.338573 148.0
54.384068 136.0
54.483929 164.0
54.586819 60.0
54.868061 140.0
54.959511 172.0
55.005264 140.0
55.297943 180.0
55.563206 204.0
55.768139 148.0
55.809769 216.0
56.122467 172.0
56.392685 172.0
56.641079 148.0
56.732494 60.0
56.894527 116.0
56.905037 160.0
57.160576 160.0
57.187664 176.0
57.329243 196.0
57.397079 164.0
57.493629 140.0
57.572136 268.0
57.58271 168.0
57.637096 168.0
57.773178 100.0
57.976082 140.0
58.446854 152.0
58.554943 140.0
58.579315 136.0
58.623505 172.0
58.696678 228.0
58.774475 148.0
58.898144 152.0
59.014294 92.0
59.028057 256.0
59.728985 232.0
60.633823 60.0
60.702038 164.0
60.798222 184.0
60.848103 180.0
61.039585 132.0
61.185284 200.0
61.235115 144.0
61.941154 240.0
62.085358 132.0
62.096336 76.0
62.13242 220.0
62.217171 192.0
62.236012 72.0
62.262707 176.0
62.333405 144.0
62.385273 132.0
62.668575 200.0
62.8578 180.0
62.977791 196.0
63.101055 188.0
63.181717 204.0
63.273514 164.0
63.305183 208.0
63.56517 200.0
63.669952 160.0
63.74144 168.0
63.779587 204.0
63.987991 216.0
64.11702 84.0
64.302032 168.0
64.345139 148.0
64.413811 264.0
64.429787 148.0
64.599251 148.0
64.613647 52.0
64.855469 176.0
64.892342 212.0
65.277725 48.0
65.419319 148.0
65.457962 56.0
65.554619 100.0
65.845024 120.0
66.13121 172.0
66.564087 224.0
66.791626 156.0
67.079865 148.0
67.407928 88.0
67.474953 136.0
67.938446 168.0
67.949928 116.0
68.015572 216.0
68.227493 172.0
68.302002 108.0
68.805786 84.0
68.861931 200.0
68.972641 168.0
69.18605 228.0
69.287079 140.0
69.316902 96.0
69.486038 36.0
69.520882 236.0
69.668663 212.0
69.765053 156.0
69.814941 164.0
70.194641 168.0
70.423286 116.0
70.440552 156.0
71.004517 184.0
71.02253 56.0
71.138321 328.0
71.161827 132.0
71.254204 176.0
71.777832 240.0
72.166061 180.0
72.316628 176.0
72.411446 168.0
72.462425 212.0
72.658943 240.0
72.701363 152.0
73.279533 128.0
73.318726 128.0
73.409081 132.0
74.046562 356.0
74.374062 52.0
74.406677 164.0
74.423843 220.0
74.817581 156.0
75.269333 136.0
75.547607 92.0
75.597794 76.0
75.835068 184.0
76.218613 140.0
76.404663 184.0
76.465561 156.0
76.48819 224.0
77.044502 148.0
77.231552 204.0
77.243797 88.0
77.257797 164.0
77.313789 160.0
77.422333 212.0
77.455612 200.0
77.608086 156.0
77.639099 140.0
77.753693 192.0
77.799332 180.0
77.844986 160.0
78.311058 176.0
78.356857 224.0
78.370956 132.0
78.540199 168.0
78.73259 180.0
79.080902 252.0
79.160568 136.0
79.460136 176.0
79.548874 60.0
79.682076 156.0
79.76738 148.0
79.798981 168.0
79.881844 164.0
80.046715 228.0
80.098366 160.0
80.465752 168.0
80.644394 152.0
81.443558 236.0
81.7798 56.0
81.859016 132.0
81.913055 64.0
81.954491 144.0
82.01577 116.0
82.131172 116.0
82.277344 172.0
82.468834 124.0
82.698547 168.0
82.77459 220.0
83.20977 156.0
84.293579 32.0
84.66861 156.0
84.782204 196.0
84.857361 180.0
85.073853 152.0
85.19323 116.0
85.299812 248.0
85.37336 200.0
85.824532 180.0
85.855881 128.0
85.911217 156.0
86.267647 148.0
86.382301 148.0
86.947449 96.0
87.006851 104.0
87.062553 120.0
87.082985 52.0
87.265106 132.0
87.287422 156.0
87.402756 184.0
87.497681 144.0
87.706329 180.0
87.752937 156.0
87.788368 156.0
87.818207 164.0
87.849922 132.0
87.999756 184.0
88.161743 36.0
88.498459 168.0
88.918388 168.0
89.320488 204.0
89.371284 204.0
89.535065 200.0
89.695221 228.0
89.947998 148.0
90.100967 196.0
90.138756 128.0
90.221924 192.0
90.325935 212.0
90.517097 56.0
90.668655 92.0
90.909515 164.0
90.92849 192.0
90.981644 48.0
91.021515 160.0
91.053703 2172.0
91.114586 208.0
91.346527 240.0
91.460701 128.0
91.538757 136.0
91.569229 56.0
91.590538 152.0
91.74836 148.0
91.904755 220.0
91.981094 180.0
92.060295 100.0
92.603943 148.0
92.650436 184.0
92.786507 72.0
92.938034 176.0
92.953384 136.0
93.069221 932.0
93.101204 48.0
93.160751 148.0
93.222237 148.0
93.264519 200.0
93.811226 60.0
93.859428 252.0
94.218437 76.0
94.44268 72.0
94.767921 212.0
95.050095 148.0
95.084213 492.0
95.099548 64.0
95.146133 184.0
95.291801 176.0
95.350098 164.0
95.388977 184.0
95.478416 160.0
95.579582 184.0
95.657433 200.0
95.754791 200.0
95.805435 156.0
96.084236 184.0
96.373207 160.0
96.832932 160.0
97.06311 132.0
97.099327 192.0
97.366409 176.0
97.460709 192.0
97.726158 208.0
98.593834 180.0
98.815308 232.0
99.039009 192.0
99.312553 188.0
99.461372 132.0
100.006012 48.0
100.444389 160.0
100.518211 180.0
100.576096 140.0
100.677917 216.0
101.007713 64.0
101.045723 216.0
101.243896 200.0
101.338051 136.0
101.407982 156.0
101.544533 164.0
101.616753 208.0
101.753235 112.0
101.769295 136.0
102.02446 128.0
102.046577 356.0
102.157196 144.0
102.290009 148.0
102.584129 160.0
102.75959 172.0
102.77977 108.0
102.953377 188.0
103.05426 888.0
103.08873 64.0
103.539886 184.0
103.749397 136.0
103.927078 164.0
103.969696 156.0
104.012321 192.0
104.026527 144.0
104.06179 376.0
104.237762 160.0
104.321098 176.0
104.359726 136.0
104.396332 184.0
104.451248 124.0
104.622192 120.0
104.730118 152.0
104.771919 200.0
104.815689 180.0
104.968575 168.0
105.027718 136.0
105.068314 5176.0
105.105247 148.0
105.253052 108.0
105.401337 68.0
105.578346 204.0
105.646065 104.0
105.716263 172.0
105.732635 68.0
105.798134 120.0
106.0718 704.0
106.092705 184.0
106.433746 56.0
106.641243 100.0
106.709084 156.0
106.826309 100.0
106.865402 84.0
106.890091 48.0
106.906555 136.0
106.990952 172.0
107.048225 2360.0
107.083107 1744.0
107.143356 84.0
107.170135 88.0
107.213417 56.0
107.252579 80.0
107.316483 28.0
107.330917 176.0
107.512459 52.0
107.900803 60.0
107.921478 88.0
108.052155 344.0
108.087456 248.0
108.122139 204.0
108.343704 40.0
108.46183 240.0
108.488777 168.0
108.675438 224.0
108.914185 28.0
109.063599 7696.0
109.09919 396.0
109.394554 80.0
109.425781 64.0
109.571571 72.0
109.592407 52.0
109.619499 124.0
109.663269 96.0
109.700943 164.0
109.796707 160.0
110.013718 136.0
110.028328 164.0
110.068275 548.0
110.092926 188.0
110.103951 224.0
110.130653 52.0
110.161987 196.0
110.262291 164.0
110.279007 68.0
110.540436 172.0
110.63044 112.0
110.712097 156.0
110.915337 264.0
111.063545 124.0
111.46312 76.0
111.54509 168.0
111.675461 96.0
111.707016 172.0
111.721741 112.0
112.09864 232.0
112.360107 88.0
112.431847 152.0
112.725395 172.0
113.535187 196.0
113.688972 68.0
113.89917 48.0
114.020653 184.0
114.980827 148.0
115.052094 2736.0
115.089699 40.0
115.126007 40.0
115.504318 124.0
115.692642 184.0
116.060165 1412.0
116.217979 220.0
116.514046 124.0
117.068199 3696.0
117.112083 116.0
117.229271 152.0
117.26075 120.0
117.364227 252.0
117.420303 44.0
117.677101 144.0
117.778603 184.0
117.836929 88.0
117.960121 124.0
118.073235 772.0
118.682182 228.0
118.720108 28.0
118.86763 144.0
118.911034 136.0
118.967468 44.0
119.006554 156.0
119.084839 3808.0
119.34552 64.0
119.375961 200.0
119.391182 40.0
119.547821 208.0
119.661018 128.0
119.769905 144.0
119.822189 88.0
119.843979 144.0
119.876663 176.0
119.891914 172.0
119.957306 316.0
120.018356 136.0
120.059433 148.0
120.0896 648.0
120.457039 128.0
120.550995 196.0
120.732445 40.0
120.771812 224.0
120.881203 244.0
121.064049 1244.0
121.099335 1080.0
121.172432 144.0
121.277618 160.0
121.369698 100.0
121.846001 212.0
121.94928 44.0
122.063606 168.0
122.105591 340.0
122.285805 156.0
122.658058 92.0
123.07991 1528.0
123.118477 620.0
123.625481 128.0
123.82473 56.0
123.975388 156.0
124.120544 168.0
124.192665 100.0
124.470085 132.0
124.652245 140.0
125.092148 148.0
125.277466 96.0
125.375511 108.0
125.667633 148.0
125.774757 48.0
125.902023 132.0
125.964561 164.0
126.047234 132.0
126.567268 200.0
126.71627 184.0
127.055054 212.0
127.859268 116.0
127.956062 184.0
128.061646 3424.0
128.091187 204.0
128.246674 176.0
128.32106 168.0
128.449615 140.0
128.605316 168.0
128.75885 40.0
129.068314 3268.0
129.324097 92.0
129.615845 248.0
129.847488 112.0
129.863358 108.0
130.015381 272.0
130.075943 1432.0
130.299225 168.0
130.319672 96.0
130.428757 48.0
130.586578 168.0
130.594482 68.0
130.602875 160.0
130.626587 108.0
130.699402 160.0
130.94754 152.0
131.040283 288.0
131.084473 3832.0
131.271164 40.0
131.293121 64.0
131.32515 88.0
131.485626 56.0
131.501602 32.0
131.579208 176.0
131.704819 156.0
131.723083 136.0
131.809906 40.0
132.057617 192.0
132.088455 832.0
132.182648 64.0
132.315399 68.0
132.377228 64.0
132.445938 56.0
132.661346 96.0
133.063797 1132.0
133.099976 2940.0
133.131149 128.0
133.311737 168.0
133.425842 124.0
133.45343 108.0
133.506332 108.0
133.768631 160.0
133.791656 84.0
134.066559 160.0
134.102951 404.0
134.121078 240.0
134.374756 172.0
134.447784 216.0
134.473984 44.0
134.760193 160.0
134.956802 100.0
135.078476 2912.0
135.115891 1096.0
135.141846 224.0
135.313126 120.0
135.421967 160.0
136.022537 144.0
136.083984 492.0
136.115845 168.0
136.138626 104.0
137.09317 352.0
137.125992 144.0
137.134827 176.0
137.304611 128.0
138.089371 200.0
138.203995 104.0
138.44278 132.0
138.655975 48.0
139.040604 208.0
139.096939 60.0
139.14389 172.0
139.489243 200.0
139.618561 144.0
139.703247 216.0
139.853836 124.0
140.167084 184.0
140.497177 168.0
140.629318 152.0
140.756805 172.0
140.789871 48.0
140.93634 60.0
141.030869 132.0
141.069519 2676.0
141.302826 84.0
141.375031 272.0
141.548996 172.0
141.894943 28.0
141.928131 148.0
142.074768 1764.0
142.184341 64.0
142.923401 168.0
143.002167 124.0
143.08342 3016.0
143.16861 44.0
143.444992 80.0
143.568985 32.0
143.70256 100.0
144.055878 324.0
144.090302 684.0
144.13237 200.0
144.164352 104.0
144.481445 136.0
144.562805 184.0
144.773483 56.0
144.883667 204.0
145.061249 556.0
145.098862 3180.0
145.281631 60.0
145.336823 64.0
145.857971 176.0
146.00946 52.0
146.038315 108.0
146.069794 376.0
146.101486 200.0
146.156204 152.0
146.288574 48.0
146.43306 176.0
146.493271 136.0
146.553513 148.0
146.570374 56.0
147.07869 736.0
147.115265 1736.0
147.184448 128.0
147.267593 104.0
147.298996 52.0
147.506821 104.0
147.569672 92.0
147.683334 180.0
147.978577 224.0
148.087219 804.0
148.116867 160.0
148.16507 72.0
148.645172 188.0
148.705841 128.0
149.038544 176.0
149.094193 1736.0
149.131424 328.0
149.230423 128.0
150.091385 184.0
151.001022 200.0
151.112579 336.0
151.539581 168.0
151.971115 52.0
152.064377 156.0
152.418015 36.0
153.023102 120.0
153.068497 448.0
154.076782 1072.0
154.128143 140.0
154.179031 148.0
154.231934 72.0
154.449539 148.0
154.48912 180.0
154.699478 64.0
154.905014 152.0
155.083115 2596.0
155.26442 68.0
155.512527 184.0
155.952179 36.0
156.036697 96.0
156.061554 188.0
156.093018 692.0
156.141144 176.0
156.193375 140.0
157.007843 140.0
157.06102 276.0
157.099213 3088.0
157.133545 144.0
157.189957 56.0
157.309769 216.0
157.407135 52.0
157.4496 80.0
157.474579 52.0
157.557007 104.0
157.794434 68.0
157.921982 80.0
158.069244 148.0
158.105621 712.0
158.232285 124.0
158.693298 160.0
159.015732 128.0
159.078629 444.0
159.115738 1620.0
159.293121 56.0
160.01239 132.0
160.084244 852.0
160.124222 600.0
160.440689 132.0
160.559204 144.0
161.094986 1496.0
161.128983 184.0
161.273743 40.0
161.321762 56.0
161.44313 116.0
161.476013 128.0
162.097748 540.0
162.329498 44.0
162.481689 120.0
162.626328 84.0
162.64917 80.0
162.9944 172.0
163.109421 1332.0
163.147125 180.0
163.739975 164.0
163.798553 144.0
164.115952 328.0
164.504929 148.0
164.755203 200.0
164.831863 128.0
165.067841 600.0
165.320297 60.0
166.076462 356.0
166.122284 160.0
166.921082 76.0
167.031677 164.0
167.054825 156.0
167.086304 752.0
167.216934 84.0
167.240097 84.0
167.528503 84.0
167.672806 36.0
168.092087 516.0
168.938065 104.0
169.063705 144.0
169.099869 1716.0
169.238297 144.0
169.365189 84.0
170.106339 360.0
171.081863 584.0
171.113464 932.0
171.217102 32.0
171.245743 80.0
171.482849 68.0
171.5793 68.0
171.647095 60.0
171.751419 248.0
171.934067 144.0
172.080338 108.0
172.120422 176.0
172.163803 124.0
173.095917 944.0
173.131897 1140.0
173.204788 76.0
173.422272 124.0
173.482559 84.0
173.918015 196.0
174.09993 152.0
174.137222 556.0
174.382935 168.0
174.490707 60.0
174.543304 124.0
174.587997 140.0
174.60936 100.0
174.798462 64.0
175.107971 1120.0
175.146317 940.0
175.180237 220.0
175.246109 52.0
175.446411 92.0
175.557159 40.0
175.604172 208.0
175.644196 192.0
176.104355 192.0
176.151031 172.0
176.896759 44.0
177.125885 324.0
177.227829 44.0
178.080673 172.0
178.895752 168.0
178.94635 108.0
179.082718 740.0
180.028961 164.0
180.087585 500.0
180.715958 168.0
180.817657 68.0
181.101028 1024.0
182.10405 408.0
182.453949 104.0
182.854767 116.0
183.021667 176.0
183.070145 68.0
183.115585 1492.0
184.076035 140.0
184.114822 184.0
184.857285 132.0
184.97908 68.0
185.097397 308.0
185.130997 1704.0
185.225494 40.0
185.328445 32.0
186.009186 76.0
186.104584 144.0
186.136368 316.0
186.180237 104.0
187.109207 428.0
187.145859 1152.0
187.447968 204.0
188.117767 596.0
188.148483 204.0
188.722733 220.0
189.125916 688.0
189.379532 140.0
189.606934 32.0
189.735779 152.0
190.070404 128.0
190.490479 192.0
191.085541 372.0
191.139252 136.0
191.486221 136.0
191.797577 56.0
191.987823 48.0
192.087357 460.0
192.40448 176.0
193.099136 828.0
193.264053 144.0
193.449493 68.0
194.100006 260.0
194.104675 188.0
194.583405 140.0
195.110748 924.0
195.957367 128.0
196.071625 136.0
196.105484 256.0
196.132385 200.0
197.087418 144.0
197.1315 712.0
197.29425 64.0
197.389313 56.0
198.103653 112.0
198.14183 396.0
198.49823 152.0
198.834885 132.0
199.122055 164.0
199.147522 920.0
199.272949 92.0
199.438248 112.0
199.694626 132.0
199.804337 104.0
200.111115 232.0
200.147461 176.0
200.152481 232.0
200.162415 164.0
200.356155 104.0
200.636383 184.0
201.035706 140.0
201.124573 652.0
201.16571 324.0
201.188126 244.0
201.99353 100.0
202.072739 64.0
202.126801 364.0
202.160461 136.0
202.452057 176.0
202.741028 140.0
202.763687 188.0
203.086914 116.0
203.143311 420.0
203.180527 236.0
203.285522 40.0
204.086578 124.0
204.146225 148.0
204.194641 92.0
205.017441 236.0
205.096069 288.0
205.433731 188.0
206.10318 640.0
206.874054 44.0
207.085953 184.0
207.114502 952.0
207.492874 56.0
208.127579 188.0
209.127258 620.0
209.568054 144.0
209.663147 64.0
210.136246 132.0
210.704849 100.0
211.105148 292.0
211.146027 428.0
212.111374 192.0
212.134781 208.0
212.142029 168.0
212.528946 108.0
212.769852 152.0
213.117798 156.0
213.154739 256.0
214.13121 136.0
214.777832 96.0
215.138184 124.0
215.179428 152.0
216.140121 168.0
216.241714 116.0
217.100128 180.0
217.151276 196.0
218.163055 148.0
218.957535 96.0
219.113907 356.0
220.119873 340.0
220.941193 328.0
221.12915 656.0
221.97522 76.0
222.134796 336.0
222.292328 124.0
223.10611 204.0
223.149048 408.0
223.596985 104.0
223.745819 156.0
224.109192 144.0
224.150909 88.0
224.451981 48.0
224.553375 116.0
225.123001 292.0
225.160858 616.0
225.299637 76.0
225.837723 124.0
226.132629 64.0
226.211761 52.0
226.550171 92.0
227.13118 196.0
227.179153 1296.0
227.308746 136.0
227.407776 108.0
227.720047 144.0
227.912308 192.0
228.178207 392.0
229.14595 176.0
229.640335 44.0
230.167786 140.0
231.045471 104.0
232.123306 160.0
233.127335 308.0
233.182831 184.0
234.125992 364.0
235.077148 84.0
235.147873 456.0
236.137268 164.0
236.163025 204.0
236.819824 112.0
237.129288 116.0
237.157944 468.0
237.187531 228.0
237.328552 100.0
237.905365 76.0
238.121506 164.0
238.164124 228.0
239.14241 352.0
239.16571 332.0
240.146561 184.0
241.136673 88.0
242.118774 120.0
242.163895 152.0
243.140533 216.0
243.17308 348.0
244.669891 164.0
245.187866 2776.0
245.243088 60.0
245.90744 72.0
245.932419 120.0
246.138474 56.0
246.192245 596.0
246.344604 44.0
246.532074 124.0
246.800919 88.0
247.151245 284.0
247.63649 44.0
248.040695 40.0
248.158722 312.0
248.294678 72.0
248.460922 88.0
249.148483 136.0
249.252167 36.0
249.789795 76.0
250.162857 144.0
251.141144 144.0
251.173874 160.0
251.283096 204.0
252.146362 136.0
252.176788 196.0
252.666946 52.0
253.155594 184.0
253.182907 408.0
253.949905 56.0
255.175705 228.0
256.177948 96.0
259.024536 124.0
259.996063 164.0
260.056824 120.0
262.16687 104.0
264.162292 176.0
265.153839 128.0
265.195251 148.0
265.791992 172.0
266.161224 460.0
267.164917 116.0
267.203949 168.0
268.169342 116.0
269.66748 72.0
270.046753 76.0
271.120636 112.0
274.078217 116.0
277.192627 516.0
278.126282 188.0
278.203339 156.0
279.169556 260.0
281.178467 184.0
282.21405 164.0
283.576569 80.0
284.180206 164.0
285.180969 132.0
290.584229 88.0
292.072205 128.0
293.963135 76.0
295.204163 716.0
296.204926 256.0
303.793671 140.0
309.642761 92.0
310.224457 100.0
312.922638 76.0
313.213959 1308.0
313.895172 64.0
314.21579 252.0
315.233063 60.0
316.202087 148.0
317.477509 44.0
318.329224 48.0
335.46814 152.0
349.575745 40.0
360.485077 160.0
363.715759 100.0
367.201111 84.0
368.491394 120.0
386.937744 188.0
398.172516 156.0
398.200317 64.0
399.643402 104.0
410.5354 88.0
411.382721 100.0
431.157837 124.0
461.919739 64.0
467.420105 32.0
504.323578 64.0
507.605255 84.0
514.453308 40.0
517.043396 84.0
519.036621 32.0
521.16095 36.0
574.118713 80.0
594.867126 140.0
596.800781 128.0
626.157227 76.0
656.055359 168.0
659.88446 128.0
682.807007 72.0
700.135986 84.0
724.978882 164.0
733.239258 144.0
746.421692 184.0
749.475464 64.0
796.664429 180.0
816.209473 48.0
820.759216 168.0
829.04248 176.0
835.686401 168.0
835.916565 176.0
836.497864 152.0
847.726135 188.0
848.369507 196.0
855.486084 184.0
880.335876 152.0
881.706482 80.0
890.374207 76.0
903.93689 228.0
905.978699 44.0
919.641174 192.0
932.700684 136.0
950.178833 156.0
952.223022 44.0
955.278015 124.0
955.444092 176.0
956.03479 44.0
958.972595 188.0
962.804077 124.0
966.977356 164.0
967.732605 224.0
971.538086 260.0
980.255371 148.0
984.197754 80.0
986.77832 148.0
987.022156 64.0
990.376709 64.0
997.228516 184.0
997.404541 172.0
998.561462 128.0
1004.173401 180.0
1007.594788 240.0
1009.560669 232.0
1022.662231 160.0
1026.759033 176.0
1028.481812 32.0
1029.158447 244.0
1030.071777 200.0
1030.704346 140.0
1034.695557 168.0
1035.681763 180.0
1039.862305 200.0
1045.157715 192.0
1046.644653 200.0
1047.829834 172.0
1048.5 148.0
1049.492798 216.0
1052.906494 176.0
1054.651001 180.0
1054.87085 80.0
1060.651489 224.0
1062.973389 132.0
1064.524902 168.0
1064.687256 168.0
1071.022339 208.0
1077.761597 56.0
1079.363159 144.0
1079.72937 236.0
1083.362183 216.0
1084.535156 180.0
1087.545898 204.0
1089.194092 196.0
1090.1073 208.0
1096.517456 160.0
1097.084351 128.0
1097.235962 188.0
1102.126831 128.0
1103.680176 200.0
1105.730957 144.0
1108.678223 220.0
1112.312988 116.0
1116.891357 164.0
1117.317139 124.0
1121.79248 136.0
1124.760986 160.0
1124.921143 164.0
1125.522095 144.0
1127.492798 188.0
1130.248047 156.0
1131.841187 136.0
1135.788696 84.0
1136.31189 172.0
1138.513672 196.0
1139.474243 224.0
1142.304565 132.0
1143.859131 124.0
1146.175903 136.0
1147.038696 144.0
1147.753296 136.0
1149.736572 236.0
1154.032959 152.0
1154.540161 96.0
1156.955811 204.0
1157.890259 244.0
1158.012207 212.0
1158.919922 40.0
1160.004272 100.0
1162.649658 216.0
1165.325195 164.0
1165.386353 184.0
1167.881226 116.0
1167.935669 220.0
1177.129761 80.0
1178.263672 64.0
1181.357178 200.0
1182.085938 128.0
1182.920898 188.0
1186.421631 88.0
1186.887939 196.0
1187.944092 184.0
1188.705688 184.0
1189.405762 136.0
1191.094971 148.0
1191.864502 200.0
1192.201172 136.0
1195.72937 136.0
1196.004761 156.0
1199.249023 112.0
1200.145142 64.0
1202.463135 220.0
1204.127075 108.0
1205.273926 148.0
1205.674683 88.0
1205.847412 60.0
1205.895874 76.0
1208.157104 128.0
1211.701782 120.0
1212.138306 172.0
1215.397461 232.0
1220.210938 132.0
1221.448853 72.0
1221.727051 240.0
1223.091064 212.0
1223.453003 220.0
1225.974609 88.0
1226.43457 176.0
1229.936157 172.0
1230.369019 124.0
1232.317627 176.0
1234.617432 156.0
1236.702515 172.0
1238.69812 192.0
1240.267822 196.0
1241.221313 192.0
1243.929443 100.0
1244.673706 156.0
1246.563354 164.0
1248.278687 164.0
1248.770996 136.0
1249.418091 204.0
1251.550781 236.0
1252.163452 68.0
1252.649414 128.0
1253.001709 136.0
1254.93396 132.0
1256.188354 140.0
1257.931396 164.0
1263.620605 220.0
1264.356445 156.0
1268.826294 136.0
1268.975098 136.0
1271.188232 148.0
1272.018677 56.0
1272.664795 144.0
1272.799683 140.0
1274.902466 76.0
1275.343018 152.0
1276.238892 180.0
1277.810791 156.0
1278.878174 144.0
1285.720459 168.0
1285.920288 164.0
1291.121704 192.0
1291.2146 148.0
1294.664307 144.0
1298.154297 204.0
1303.236572 160.0
1307.680908 196.0
1309.05603 160.0
1309.264893 200.0
1311.462402 200.0
1312.543823 156.0
1313.135132 188.0
1316.686157 196.0
1317.047363 140.0
1319.258545 200.0
1320.661499 156.0
1322.151978 172.0
1322.52832 112.0
1322.832275 140.0
1328.651733 148.0
1329.972534 92.0
1332.448853 164.0
1334.978394 228.0
1335.74939 152.0
1335.851196 72.0
1337.699707 164.0
1339.614868 136.0
1339.818848 192.0
1340.890137 184.0
1341.786743 72.0
1342.195068 176.0
1342.362793 72.0
1344.485718 136.0
1344.682739 132.0
1346.851318 176.0
1348.992432 152.0
1349.986816 100.0
1350.601318 200.0
1350.915771 232.0
1356.070801 128.0
1356.210083 204.0
1361.404663 176.0
1364.542358 160.0
1368.449219 132.0
1368.567017 180.0
1376.464478 152.0
1378.473755 200.0
1379.575073 40.0
1380.780396 104.0
1383.658936 228.0
1386.140259 68.0
1387.05188 144.0
1388.453247 184.0
1389.899902 188.0
1391.651611 144.0
1392.312378 160.0
1395.002441 132.0
1397.17395 212.0
1398.119019 124.0
1400.605835 208.0
1400.777222 184.0
1401.254028 148.0
1405.810059 240.0
1406.563843 60.0
1409.932495 192.0
1410.074463 168.0
1411.375244 160.0
1412.669189 208.0
1413.803223 192.0
1414.322998 152.0
1415.940308 180.0
1416.179932 136.0
1417.078857 164.0
1417.261108 148.0
1420.160034 160.0
1422.741455 240.0
1423.612427 184.0
1424.018066 192.0
1425.468018 156.0
1426.219604 76.0
1427.670654 168.0
1428.076782 128.0
1429.634277 172.0
1430.94397 140.0
1433.203613 200.0
1434.771362 84.0
1435.691284 140.0
1437.811279 72.0
1438.679443 120.0
1440.786499 220.0
1441.005615 112.0
1441.867065 116.0
1442.880005 100.0
1444.142822 120.0
1444.331909 180.0
1444.657227 124.0
1445.701416 96.0
1447.866699 124.0
1449.124146 256.0
1449.396973 160.0
1451.542236 176.0
1452.839233 164.0
1456.657715 136.0
1459.849976 152.0
1460.283569 232.0
1461.698608 140.0
1462.733643 140.0
1465.246826 156.0
1465.658325 148.0
1467.144531 116.0
1468.814697 148.0
1469.066406 136.0
1471.256714 172.0
1472.371582 200.0
1475.129883 244.0
1475.527466 312.0
1476.980469 200.0
1479.329834 108.0
1479.980591 200.0
1481.037476 168.0
1482.692383 244.0
1482.899292 164.0
1485.391357 260.0
1485.667603 164.0
1487.847168 100.0
1489.897705 148.0
1490.036011 208.0
1490.473999 116.0
1493.341553 136.0
1493.980103 112.0
1494.241699 192.0
1494.357056 180.0
1497.436279 152.0
1499.208374 140.0
1499.401001 180.0
1499.562866 128.0
1501.444092 160.0
