>compound MLS001148140-01!3-Tropanylindole-3-carboxylate hydrochloride
>formula C17H20N2O2
>ionization [M+H]+
>parentmass 285.158997
#inchi InChI=1S/C17H20N2O2/c1-19-11-6-7-12(19)9-13(8-11)21-17(20)15-10-18-16-5-3-2-4-14(15)16/h2-5,10-13,18H,6-9H2,1H3
#inchikey ZNRGQMMCGHDTEI
#origInchi InChI=1S/C17H20N2O2.ClH/c1-19-11-6-7-12(19)9-13(8-11)21-17(20)15-10-18-16-5-3-2-4-14(15)16;/h2-5,10-13,18H,6-9H2,1H3;1H
#Ion_Source LC-ESI
#Instrument qTof
#Compound_Source NIH Pharmacologically Active Library
#PI Dorrestein
#Data_Collector VP/LMS
#Scan -1
#Precursor_MZ 285.164
#ExactMass 284.152
#Charge 1
#CAS_Number N/A
#Pubmed_ID N/A
#Smiles CN1C2CCC1CC(C2)OC(=O)c3c[nH]c4ccccc34.Cl
#INCHI_AUX N/A
#Library_Class 1
#SpectrumID CCMSLIB00000084846
#IonMode Positive
#UpdateWorkflowName UPDATE-SINGLE-ANNOTATED-GOLD
#LibraryQualityString Gold
#TaskID d252d724072548979f1f6f1ced849daf
##Scan# 1441
#SpectrumFile p3-B07_GB7_01_18240.mzXML
#LibraryName Pharm_Active_Library.mgf
#MQScore -1
#Organism Pharm_Active_Library
#TIC_Query 0
#RT_Query -1
#MZErrorPPM -1
#SharedPeaks 0
#MassDiff 0
#LibMZ -1
#SpecMZ 285.164
#SpecCharge 0
#internalFilename spec-00000.mgf

>collision 10
44.930664 180.0
44.964024 176.0
45.074867 168.0
45.129673 152.0
45.159603 188.0
45.425652 272.0
45.473957 32.0
45.631126 232.0
45.831676 196.0
46.152927 88.0
46.486156 200.0
46.657299 160.0
46.756599 208.0
46.817863 128.0
47.184921 120.0
47.22868 164.0
47.256039 48.0
47.425854 40.0
48.00742 160.0
48.175812 64.0
48.553692 76.0
48.754997 60.0
48.768894 132.0
48.816162 180.0
48.992931 40.0
49.101658 184.0
49.297108 184.0
49.487343 200.0
49.564381 176.0
49.809898 184.0
50.081375 84.0
50.250542 128.0
50.579819 204.0
50.851963 200.0
50.90023 180.0
50.957047 184.0
51.09211 72.0
51.416992 156.0
51.42841 184.0
51.695667 92.0
51.762951 168.0
51.791592 232.0
51.996624 196.0
52.114376 204.0
52.168991 164.0
52.2855 124.0
52.376205 148.0
52.6026 168.0
53.565475 128.0
53.654369 184.0
53.713058 180.0
53.865974 204.0
54.004036 212.0
54.278698 92.0
54.83292 176.0
55.067509 212.0
55.133991 104.0
55.247845 168.0
55.542637 212.0
56.112202 176.0
56.585819 184.0
56.758125 236.0
57.196304 256.0
57.409252 180.0
57.542038 248.0
57.714283 200.0
57.880726 164.0
58.1096 144.0
58.152088 148.0
58.197632 196.0
58.634216 212.0
58.739426 164.0
59.13517 228.0
59.475441 184.0
59.755127 128.0
59.836697 220.0
60.226849 204.0
60.274742 152.0
60.348934 104.0
60.630665 128.0
61.164959 164.0
61.784485 180.0
61.956696 136.0
62.108749 108.0
62.367832 244.0
62.778751 168.0
62.961815 152.0
63.333492 92.0
63.419056 176.0
63.563374 144.0
63.637974 184.0
63.822285 176.0
64.506233 64.0
64.618179 140.0
65.108681 232.0
65.567192 136.0
65.843071 164.0
65.858521 248.0
65.998207 236.0
66.20047 104.0
66.597816 152.0
67.076202 136.0
67.253998 76.0
67.355232 212.0
67.433662 140.0
67.895348 96.0
68.079155 140.0
68.143211 176.0
68.370132 128.0
68.483734 160.0
68.768257 120.0
68.925865 212.0
69.111053 148.0
69.228584 224.0
69.361984 208.0
69.425789 68.0
69.791107 196.0
69.816048 188.0
69.973999 216.0
70.521278 168.0
70.688515 148.0
70.777237 204.0
70.793983 184.0
71.042046 120.0
71.06385 160.0
71.107483 156.0
71.333961 196.0
71.830994 184.0
71.866425 92.0
71.888359 128.0
72.138329 168.0
72.404144 196.0
72.741386 148.0
72.984329 128.0
73.057465 172.0
73.091492 92.0
73.166382 196.0
73.404915 168.0
73.91909 228.0
74.35952 148.0
74.546707 208.0
74.627495 164.0
74.889069 124.0
75.446434 144.0
75.460266 196.0
75.569221 168.0
75.659218 120.0
75.673073 156.0
75.849777 136.0
75.971161 184.0
75.985039 176.0
76.313293 224.0
76.62484 140.0
76.705002 216.0
76.84626 76.0
76.907333 116.0
77.081978 244.0
77.694786 124.0
77.814125 144.0
77.910721 164.0
78.009132 76.0
78.121674 184.0
78.480957 68.0
78.696213 224.0
79.086899 120.0
79.287033 140.0
79.432426 140.0
79.482101 48.0
79.54599 96.0
79.97081 224.0
80.068733 168.0
80.159584 176.0
80.18988 88.0
80.430672 160.0
80.527084 104.0
80.596756 180.0
80.729034 84.0
80.790825 220.0
80.958099 128.0
81.926216 240.0
82.000092 192.0
82.160576 204.0
82.285103 152.0
82.416954 164.0
82.576035 200.0
82.758804 200.0
83.544655 108.0
84.526245 72.0
84.687347 176.0
84.90728 144.0
84.940292 212.0
85.083435 168.0
85.234039 52.0
85.727196 40.0
85.751152 148.0
86.120163 180.0
86.206993 164.0
86.245804 172.0
86.473305 192.0
86.497368 176.0
87.018295 168.0
87.226357 136.0
87.403038 188.0
88.50618 164.0
88.702896 172.0
88.791016 60.0
88.873558 140.0
88.94487 112.0
89.040627 128.0
89.222893 160.0
89.380882 172.0
89.394051 124.0
89.506996 64.0
89.582535 184.0
89.669006 196.0
89.912292 112.0
89.972694 92.0
89.993462 276.0
90.055779 140.0
90.242867 132.0
90.373367 92.0
90.399864 120.0
90.591049 188.0
90.731323 152.0
90.886848 176.0
90.970352 164.0
91.023514 176.0
91.054764 5424.0
91.079803 220.0
91.102295 92.0
91.194496 92.0
91.535027 64.0
92.060112 192.0
92.177864 132.0
92.20462 176.0
92.279167 40.0
92.501083 108.0
92.527885 92.0
92.577667 164.0
92.665779 160.0
93.020561 180.0
93.033997 188.0
93.069893 6264.0
93.104599 244.0
93.153061 56.0
93.33564 152.0
93.472214 32.0
93.531868 188.0
93.547272 144.0
93.616585 136.0
93.648582 156.0
93.978966 64.0
94.070862 784.0
94.320793 188.0
94.432938 112.0
94.458084 104.0
94.725212 168.0
95.084198 916.0
95.130493 36.0
95.202332 180.0
95.515244 72.0
95.622261 60.0
95.672867 204.0
95.705963 60.0
95.779968 184.0
95.892975 48.0
95.912468 60.0
96.079544 892.0
96.097733 172.0
96.61937 164.0
96.723083 144.0
96.973801 196.0
97.105156 140.0
97.454575 196.0
97.702301 164.0
98.100319 360.0
98.244057 176.0
98.342712 44.0
98.397987 92.0
99.048599 188.0
99.328087 232.0
99.68943 176.0
99.758995 136.0
100.485893 72.0
100.567711 196.0
101.017296 224.0
101.301552 144.0
102.036049 168.0
102.525169 92.0
102.632004 156.0
102.859978 220.0
103.088928 144.0
103.160957 184.0
103.794662 168.0
103.84333 140.0
104.866005 128.0
105.055641 140.0
105.249527 44.0
105.449722 160.0
105.633743 152.0
105.68898 56.0
106.098602 196.0
106.646683 192.0
106.918159 72.0
107.010788 128.0
107.072693 196.0
107.105522 244.0
107.150841 184.0
107.187927 120.0
107.784264 228.0
108.08046 560.0
108.100403 72.0
108.105995 176.0
108.228973 336.0
108.289421 104.0
108.369812 144.0
108.604065 192.0
108.772141 164.0
108.840645 216.0
109.085701 328.0
109.735329 116.0
110.060822 172.0
110.181953 200.0
110.673454 76.0
110.966782 192.0
112.59758 124.0
113.380348 48.0
113.488457 188.0
113.726051 116.0
113.893791 180.0
114.129684 168.0
114.523376 128.0
114.862282 184.0
115.097038 148.0
115.40258 144.0
116.049522 2376.0
117.053024 664.0
117.186165 188.0
117.237877 188.0
117.270203 156.0
117.565666 28.0
117.606674 100.0
117.822609 88.0
118.043076 208.0
118.068108 280.0
118.551781 124.0
119.015984 144.0
119.07679 148.0
119.141953 116.0
119.552895 156.0
119.642136 184.0
119.92749 184.0
120.16082 160.0
120.252472 128.0
120.466454 120.0
120.536369 204.0
120.630348 124.0
120.669693 168.0
120.912498 224.0
121.818047 36.0
122.042213 84.0
122.095978 212.0
122.125778 144.0
122.19397 208.0
122.248978 232.0
122.462532 156.0
122.83062 44.0
123.000526 68.0
123.095459 168.0
123.219154 72.0
123.411438 64.0
123.949295 148.0
124.020218 188.0
124.055679 128.0
124.113007 44872.0
124.166542 72.0
124.198479 60.0
124.221992 36.0
124.268585 132.0
124.288551 76.0
124.339592 68.0
124.368446 52.0
124.401741 72.0
124.423943 68.0
124.450584 76.0
124.476555 92.0
124.522408 116.0
124.550514 88.0
124.614937 76.0
124.703827 56.0
124.759392 96.0
124.961273 88.0
125.081947 92.0
125.116028 2056.0
125.142052 88.0
125.228905 88.0
125.322464 104.0
125.425835 52.0
125.496315 88.0
125.63459 40.0
125.79303 72.0
125.882164 104.0
125.928696 192.0
126.045753 232.0
126.119034 156.0
126.154907 136.0
126.188446 124.0
126.441208 76.0
126.470306 40.0
126.726524 116.0
126.978897 48.0
127.380669 52.0
127.517967 192.0
127.699844 48.0
128.630417 60.0
128.85849 152.0
129.204407 120.0
129.387711 44.0
129.802338 212.0
130.06778 192.0
130.224442 196.0
131.016037 108.0
131.419571 92.0
132.042297 312.0
132.379593 80.0
132.473495 164.0
132.847153 68.0
132.961884 192.0
133.584808 172.0
133.872238 64.0
134.561676 44.0
134.709473 40.0
134.892029 40.0
134.979874 320.0
135.070068 148.0
135.744019 112.0
135.762573 120.0
136.06189 84.0
136.157089 168.0
136.517303 212.0
137.565765 60.0
137.785278 200.0
139.056763 192.0
139.145966 208.0
139.411392 124.0
139.460739 196.0
140.112564 124.0
141.899261 128.0
141.979889 128.0
142.017822 116.0
142.081879 152.0
142.122787 3484.0
142.264603 60.0
142.361954 160.0
142.987183 92.0
143.003845 68.0
143.127075 208.0
143.22052 168.0
143.539856 212.0
143.618561 184.0
143.828537 192.0
143.959839 164.0
143.979233 164.0
144.002823 40.0
144.044678 15916.0
144.119888 312.0
144.160507 28.0
144.211777 88.0
144.24501 100.0
144.344574 56.0
144.839966 60.0
145.046005 1828.0
145.688599 88.0
145.898209 120.0
145.960724 76.0
146.01123 52.0
146.048767 236.0
146.124283 76.0
146.274704 196.0
146.417938 76.0
146.526337 44.0
148.860428 132.0
149.879623 76.0
152.215607 124.0
153.15506 88.0
153.640671 52.0
154.426178 204.0
155.608185 56.0
157.081436 156.0
162.051178 244.0
162.279785 208.0
162.360916 64.0
164.659027 40.0
168.287476 68.0
168.347443 160.0
170.076294 132.0
171.272354 64.0
171.939804 192.0
174.985718 172.0
175.075241 184.0
178.927872 80.0
182.311493 152.0
187.434082 148.0
190.034332 128.0
190.468063 84.0
190.825317 76.0
193.673203 148.0
197.844559 152.0
199.845612 180.0
200.617279 116.0
200.919022 200.0
206.970093 100.0
207.050262 124.0
209.051178 172.0
210.117264 124.0
210.914276 176.0
213.11673 228.0
213.468445 164.0
216.904755 144.0
218.040619 188.0
218.375778 120.0
226.961349 64.0
227.120911 156.0
228.228424 40.0
228.824158 112.0
232.396591 44.0
235.703278 172.0
238.1633 132.0
239.929596 80.0
240.182465 52.0
240.253403 120.0
240.944931 120.0
242.188461 116.0
242.895172 136.0
245.975708 64.0
254.793427 192.0
264.588074 80.0
268.764496 212.0
271.387665 64.0
276.69873 184.0
278.05777 116.0
282.94104 52.0
284.16095 40.0
284.35556 128.0
284.402557 128.0
284.486481 172.0
284.879364 144.0
284.953278 152.0
285.040649 196.0
285.158997 8388.0
285.34314 52.0
285.517975 128.0
285.615509 76.0
286.160919 1500.0
286.312195 60.0
286.44693 68.0
287.164398 444.0
287.279541 32.0
287.515747 124.0
287.809418 116.0
288.126892 116.0
288.272186 104.0
288.373566 92.0
288.407349 36.0
289.29361 120.0
289.351135 104.0
296.363892 108.0
302.909576 80.0
303.883728 36.0
334.479187 88.0
401.306793 36.0
403.874542 120.0
416.393341 108.0
429.771362 44.0
446.383362 80.0
485.100555 48.0
485.468842 128.0
549.488586 64.0
565.777893 100.0
667.435242 52.0
682.715759 72.0
739.422852 204.0
755.753479 144.0
776.177734 88.0
794.639832 180.0
808.014832 184.0
828.172058 180.0
831.313782 68.0
839.355469 32.0
850.393311 32.0
852.193481 144.0
863.303467 156.0
866.968079 212.0
882.301147 80.0
882.407532 56.0
887.683167 108.0
889.599548 176.0
915.007324 172.0
918.206909 196.0
924.138855 160.0
927.912048 200.0
936.358337 132.0
939.076538 44.0
942.861755 184.0
949.099487 80.0
950.013306 188.0
958.824341 168.0
966.982788 152.0
967.193237 188.0
969.918579 252.0
970.674988 144.0
971.673523 200.0
975.996338 208.0
978.67804 172.0
978.952026 132.0
979.412903 164.0
984.80188 168.0
985.745178 200.0
986.989075 172.0
987.157959 180.0
995.617859 92.0
1004.763611 160.0
1005.716431 48.0
1006.391907 48.0
1007.8573 56.0
1009.2099 144.0
1011.196228 40.0
1011.943176 164.0
1015.149292 148.0
1020.985291 176.0
1026.786987 176.0
1028.522461 148.0
1028.605469 148.0
1031.537354 120.0
1034.595215 80.0
1040.435425 192.0
1042.882812 40.0
1043.731323 156.0
1043.994995 172.0
1045.004883 128.0
1049.829346 180.0
1051.196899 192.0
1054.490479 224.0
1058.197021 184.0
1060.613403 148.0
1065.33728 168.0
1077.755005 172.0
1089.942261 192.0
1095.554321 144.0
1107.834961 88.0
1108.74939 224.0
1111.030273 140.0
1117.368164 148.0
1117.873779 184.0
1119.338257 160.0
1120.776978 168.0
1121.723389 176.0
1121.796753 232.0
1126.955566 152.0
1128.038208 80.0
1129.47583 60.0
1133.8479 160.0
1135.336182 180.0
1141.218384 200.0
1142.576904 188.0
1143.922852 140.0
1145.936401 212.0
1147.655151 144.0
1148.369873 72.0
1152.953979 148.0
1157.330566 180.0
1157.899414 160.0
1159.220459 216.0
1163.744629 152.0
1166.958374 184.0
1169.584229 236.0
1172.151733 64.0
1175.868286 280.0
1177.937134 192.0
1178.114746 204.0
1179.290039 168.0
1183.175415 148.0
1188.23999 80.0
1189.097778 108.0
1189.338013 188.0
1193.411743 188.0
1194.68396 128.0
1198.408569 48.0
1199.11145 160.0
1199.256226 48.0
1200.497192 148.0
1201.145386 228.0
1201.193726 176.0
1204.866211 140.0
1205.349854 52.0
1207.347656 72.0
1209.326294 128.0
1209.41626 144.0
1210.821777 268.0
1211.320435 208.0
1213.808472 120.0
1220.244873 124.0
1222.456787 204.0
1223.702759 188.0
1223.897705 224.0
1228.232422 148.0
1233.679077 196.0
1234.245361 172.0
1235.588257 144.0
1237.918945 180.0
1238.640381 172.0
1239.810425 196.0
1240.805786 152.0
1241.107178 220.0
1241.387695 200.0
1244.117065 104.0
1245.22644 216.0
1248.452271 236.0
1249.500244 208.0
1250.654297 224.0
1251.949707 136.0
1253.457153 108.0
1253.739136 148.0
1255.706055 108.0
1257.265137 84.0
1257.448608 144.0
1264.233154 128.0
1265.025757 132.0
1266.130371 124.0
1266.796143 120.0
1266.987427 188.0
1267.405396 184.0
1271.51123 196.0
1274.728271 216.0
1274.870361 116.0
1276.235107 192.0
1276.590698 144.0
1277.045776 172.0
1281.516357 192.0
1283.882812 140.0
1286.058838 188.0
1286.351562 136.0
1291.403198 160.0
1295.798462 228.0
1296.851807 100.0
1297.525635 216.0
1297.583008 148.0
1297.848267 236.0
1298.185303 48.0
1298.47937 204.0
1298.830811 120.0
1300.818481 164.0
1302.85791 72.0
1303.389526 116.0
1304.072266 88.0
1304.438843 196.0
1304.553833 176.0
1305.409424 228.0
1306.596191 184.0
1310.592041 156.0
1311.20459 196.0
1312.624756 152.0
1313.771484 168.0
1315.077515 148.0
1316.781372 168.0
1317.026978 184.0
1317.171387 180.0
1317.655396 200.0
1318.161255 124.0
1320.120239 144.0
1322.789917 168.0
1326.020386 144.0
1327.04248 148.0
1327.172974 192.0
1327.723999 160.0
1328.101196 144.0
1328.645264 152.0
1329.653809 156.0
1330.423218 84.0
1330.749878 48.0
1331.2146 76.0
1333.902832 176.0
1338.806641 124.0
1338.974121 136.0
1339.605469 224.0
1339.833618 152.0
1341.757568 40.0
1343.259888 196.0
1343.383911 156.0
1343.529785 220.0
1343.682983 184.0
1344.565918 176.0
1346.1427 196.0
1346.858398 200.0
1348.685059 140.0
1348.81665 140.0
1350.037598 144.0
1350.469116 184.0
1352.643921 208.0
1353.952881 212.0
1355.102905 164.0
1364.243774 188.0
1366.350464 148.0
1366.431396 128.0
1366.630005 160.0
1367.211304 228.0
1370.333374 88.0
1370.804932 208.0
1373.03125 184.0
1374.182007 112.0
1381.362793 208.0
1382.916626 96.0
1384.782349 196.0
1385.804565 64.0
1388.310059 136.0
1388.369385 188.0
1389.481934 128.0
1390.20752 180.0
1390.691528 188.0
1392.614502 108.0
1392.748169 132.0
1393.305298 236.0
1393.89978 176.0
1395.192993 196.0
1395.475464 100.0
1398.905029 208.0
1403.188721 212.0
1403.62854 160.0
1404.956177 96.0
1405.53064 152.0
1405.844116 112.0
1407.713989 172.0
1408.382446 112.0
1412.845093 128.0
1413.555908 72.0
1413.907593 160.0
1414.236938 148.0
1414.364136 160.0
1415.574707 244.0
1418.573853 176.0
1419.068604 148.0
1420.936157 168.0
1421.251221 160.0
1424.937744 140.0
1425.531372 168.0
1427.801636 116.0
1430.510254 92.0
1430.690918 116.0
1438.251709 160.0
1441.438721 188.0
1442.073486 140.0
1442.368286 116.0
1443.116699 220.0
1443.562744 112.0
1446.97522 172.0
1449.1698 184.0
1449.603516 192.0
1450.232544 164.0
1450.998169 168.0
1453.812134 40.0
1454.79895 116.0
1456.287109 196.0
1456.697388 120.0
1461.136963 96.0
1461.601074 68.0
1465.644165 176.0
1466.230957 144.0
1466.71875 168.0
1467.80896 196.0
1468.876709 140.0
1470.387451 156.0
1470.52478 60.0
1471.387329 180.0
1473.182007 156.0
1476.086304 200.0
1477.233521 140.0
1477.332886 124.0
1478.488281 180.0
1479.414429 212.0
1480.892212 164.0
1482.478149 188.0
1484.30249 36.0
1484.808594 40.0
1484.946655 136.0
1485.951538 80.0
1486.64209 156.0
1487.862549 188.0
1489.021973 216.0
1490.412476 128.0
1490.727417 196.0
1490.934937 112.0
1491.342285 108.0
1492.418579 148.0
1500.734009 120.0
