>compound Glyburide (Diabeta)
>formula C23H28ClN3O5S
>ionization [M+Na]+
>parentmass 516.13385
#inchi InChI=1S/C23H28ClN3O5S/c1-32-21-12-9-17(24)15-20(21)22(28)25-14-13-16-7-10-19(11-8-16)33(30,31)27-23(29)26-18-5-3-2-4-6-18/h7-12,15,18H,2-6,13-14H2,1H3,(H,25,28)(H2,26,27,29)
#inchikey ZNNLBTZKUZBEKO
#Ion_Source LC-ESI
#Instrument qTof
#Compound_Source Commercial
#PI Dorrestein
#Data_Collector Garg_Neha
#Scan -1
#Precursor_MZ 516.133
#ExactMass 493.144
#Charge 1
#CAS_Number 10238-21-8
#Pubmed_ID N/A
#Smiles C1CCCC(C1)NC(NS(C2=CC=C(C=C2)CCNC(C3=C(C=CC(=C3)Cl)OC)=O)(=O)=O)=O
#INCHI_AUX N/A
#Library_Class 1
#SpectrumID CCMSLIB00000078251
#IonMode Positive
#UpdateWorkflowName UPDATE-SINGLE-ANNOTATED-GOLD
#LibraryQualityString Gold
#TaskID 77f51c88eb8b467eb4a01dd2d0cb90d2
##Scan# 1869
#SpectrumFile Plate4_21_40_GH3_01_16504.mzXML
#LibraryName FDALibrary_2_04302014.mgf
#MQScore -1
#Organism FDALibrary_2_04302014
#TIC_Query 0
#RT_Query -1
#MZErrorPPM -1
#SharedPeaks 0
#MassDiff 0
#LibMZ -1
#SpecMZ 516.133
#SpecCharge 0
#internalFilename spec-00000.mgf

>collision 10
48.684662 140.0
49.549469 200.0
55.224606 180.0
59.10648 156.0
70.339516 176.0
84.30159 172.0
98.854858 160.0
105.066139 184.0
106.624382 152.0
127.954552 144.0
145.144897 156.0
146.553436 188.0
150.058182 204.0
152.621689 220.0
155.018524 164.0
161.64476 172.0
165.137726 184.0
167.535202 144.0
169.005371 156.0
169.281204 168.0
170.998627 392.0
174.021698 156.0
175.015076 128.0
176.757675 144.0
178.69194 220.0
183.321609 168.0
187.39151 204.0
191.820206 200.0
208.963287 184.0
213.280838 188.0
218.286041 148.0
219.024734 228.0
220.671432 196.0
223.846298 220.0
232.110062 168.0
234.325821 168.0
236.06871 144.0
239.435226 164.0
240.100906 164.0
241.246429 196.0
249.146622 256.0
256.695526 140.0
258.858887 156.0
259.049438 284.0
262.354584 144.0
262.415833 200.0
263.190216 204.0
264.172699 140.0
267.651886 168.0
273.268555 168.0
277.148102 172.0
277.933929 156.0
280.088226 208.0
281.04834 192.0
285.241302 260.0
286.124268 148.0
292.262299 152.0
294.259583 180.0
294.932526 148.0
295.982819 192.0
301.915436 156.0
304.069153 192.0
306.065674 144.0
307.289062 168.0
307.833588 144.0
309.154968 200.0
309.666107 216.0
316.995056 120.0
317.781036 196.0
320.91449 204.0
322.796234 152.0
323.801819 156.0
324.744415 172.0
329.998383 140.0
331.325806 160.0
335.046753 204.0
339.265228 160.0
339.839844 188.0
346.043488 196.0
348.12677 152.0
349.874298 148.0
350.544739 160.0
351.312775 140.0
352.061249 140.0
354.045044 172.0
354.996887 156.0
358.749237 196.0
362.794189 156.0
363.294769 148.0
364.513519 148.0
365.795197 172.0
367.021942 152.0
367.884186 204.0
368.976776 172.0
369.067963 208.0
369.439514 156.0
369.841309 160.0
371.057343 172.0
371.103485 160.0
371.581055 152.0
372.064636 292.0
374.830017 244.0
376.021637 180.0
376.805511 220.0
376.9021 204.0
381.222717 144.0
382.615173 172.0
384.493958 160.0
385.091278 148.0
387.027039 164.0
390.906189 192.0
391.049194 11020.0
391.290924 192.0
391.330292 208.0
391.450256 112.0
392.052948 1672.0
392.56308 148.0
393.044525 4092.0
394.052734 256.0
394.20578 192.0
395.04361 632.0
395.209412 192.0
395.251587 172.0
396.050262 308.0
396.261078 156.0
397.047882 192.0
397.619446 208.0
398.060211 132.0
398.127594 212.0
399.049469 148.0
400.123657 180.0
401.022858 164.0
402.044891 172.0
402.519928 184.0
403.089813 144.0
403.28299 144.0
405.223785 156.0
407.011322 120.0
407.225494 212.0
407.876404 144.0
408.005035 152.0
408.556 164.0
409.042328 272.0
411.007141 176.0
414.018311 508.0
415.019012 472.0
415.488495 172.0
415.533997 216.0
417.028412 5608.0
417.096558 140.0
417.316101 144.0
418.032776 1208.0
419.026367 2088.0
420.029083 360.0
421.017487 144.0
421.179382 212.0
424.687164 160.0
425.023407 408.0
425.971924 172.0
427.01535 176.0
428.01181 156.0
431.713257 196.0
433.012726 168.0
433.422852 204.0
433.998993 144.0
437.701202 180.0
439.401733 148.0
440.311707 156.0
441.410767 140.0
441.678436 216.0
445.429199 148.0
449.864136 172.0
451.802673 144.0
452.083099 188.0
452.248138 160.0
453.950317 164.0
455.984711 160.0
456.158997 144.0
457.06485 144.0
457.171234 168.0
463.838287 256.0
464.078918 196.0
464.573944 296.0
465.068909 184.0
466.78775 160.0
468.59552 144.0
469.53952 172.0
470.467224 140.0
470.631287 148.0
472.148041 160.0
474.677032 184.0
476.978027 168.0
478.30603 208.0
478.914276 140.0
481.024689 152.0
481.194946 148.0
481.269165 180.0
482.164673 172.0
483.481018 148.0
484.759735 188.0
488.909637 264.0
489.389435 152.0
489.433472 140.0
489.59201 160.0
490.512848 144.0
492.392426 220.0
492.869537 176.0
493.125824 152.0
494.572144 156.0
509.619354 108.0
511.575165 172.0
514.16687 148.0
514.392578 276.0
514.55957 200.0
514.749207 164.0
514.800476 116.0
515.130127 180.0
515.223755 144.0
515.495544 152.0
515.571411 152.0
515.612061 264.0
515.777283 292.0
515.830933 160.0
515.917847 196.0
515.982727 232.0
516.018616 148.0
516.13385 53680.0
516.29303 212.0
516.392578 124.0
516.471741 288.0
516.528198 168.0
516.566284 168.0
516.685913 100.0
516.753845 96.0
516.89447 112.0
516.963623 284.0
517.024902 100.0
517.137085 19364.0
517.285889 104.0
517.477234 132.0
517.677856 108.0
517.720215 144.0
517.899109 96.0
518.132446 20368.0
518.238525 204.0
518.315308 184.0
518.526794 204.0
518.599915 148.0
518.846436 196.0
518.918213 156.0
519.133423 6360.0
519.38623 156.0
519.433289 120.0
519.837036 96.0
519.893066 120.0
519.989441 152.0
520.130188 792.0
520.264343 124.0
522.299805 108.0
524.580811 104.0
526.851562 104.0
531.840271 156.0
532.095032 508.0
533.079407 172.0
534.100586 112.0
538.13147 192.0
548.063599 152.0
550.111938 380.0
551.117371 300.0
552.068665 148.0
552.114258 420.0
553.099792 104.0
554.097412 108.0
723.739685 152.0
778.095703 156.0
784.301636 136.0
928.147339 236.0
1044.665771 120.0
1821.270874 200.0
1903.376221 144.0
