>compound MLS001332539-01!CYCLOPENTOLATE HYDROCHLORIDE
>formula C17H25NO3
>ionization [M+H]+
>parentmass 292.1907201120905
#inchi InChI=1S/C17H25NO3/c1-18(2)12-13-21-16(19)15(14-8-4-3-5-9-14)17(20)10-6-7-11-17/h3-5,8-9,15,20H,6-7,10-13H2,1-2H3
#inchikey SKYSRIRYMSLOIN
#origInchi InChI=1S/C17H25NO3.ClH/c1-18(2)12-13-21-16(19)15(14-8-4-3-5-9-14)17(20)10-6-7-11-17;/h3-5,8-9,15,20H,6-7,10-13H2,1-2H3;1H
#Ion_Source LC-ESI
#Instrument qTof
#Compound_Source NIH Pharmacologically Active Library
#PI Dorrestein
#Data_Collector VP/LMS
#Scan -1
#Precursor_MZ 292.199
#ExactMass 291.183
#Charge 1
#CAS_Number N/A
#Pubmed_ID N/A
#Smiles CN(C)CCOC(=O)C(c1ccccc1)C2(O)CCCC2.Cl
#INCHI_AUX N/A
#Library_Class 1
#SpectrumID CCMSLIB00000085554
#IonMode Positive
#UpdateWorkflowName UPDATE-SINGLE-ANNOTATED-GOLD
#LibraryQualityString Gold
#TaskID d252d724072548979f1f6f1ced849daf
##Scan# 1453
#SpectrumFile p4-C07_GC7_01_18355.mzXML
#LibraryName Pharm_Active_Library.mgf
#MQScore -1
#Organism Pharm_Active_Library
#TIC_Query 0
#RT_Query -1
#MZErrorPPM -1
#SharedPeaks 0
#MassDiff 0
#LibMZ -1
#SpecMZ 292.199
#SpecCharge 0
#internalFilename spec-00000.mgf

>collision 10
44.91433 180.0
44.941307 180.0
44.967995 204.0
44.980007 156.0
45.069485 172.0
45.084869 188.0
45.13097 180.0
45.157715 224.0
45.236752 180.0
45.300938 160.0
45.325054 164.0
45.342213 196.0
45.36124 88.0
45.394756 92.0
45.46854 44.0
45.501175 184.0
45.527611 268.0
45.597469 176.0
45.671837 180.0
45.711777 184.0
45.771004 176.0
45.868004 192.0
45.938126 204.0
45.965107 232.0
45.988346 184.0
45.998848 220.0
46.044754 144.0
46.074471 112.0
46.165905 180.0
46.213726 224.0
46.255074 172.0
46.301716 140.0
46.343708 144.0
46.442669 176.0
46.461658 180.0
46.483368 164.0
46.494225 100.0
46.505081 216.0
46.533524 168.0
46.585197 132.0
46.685776 80.0
46.712978 124.0
46.727009 140.0
46.78038 160.0
46.790546 160.0
46.838207 156.0
46.85183 176.0
46.937695 168.0
46.963875 164.0
46.989525 160.0
47.001804 32.0
47.024681 348.0
47.0564 276.0
47.076881 144.0
47.108295 196.0
47.227219 204.0
47.327118 136.0
47.4189 140.0
47.45454 352.0
47.481964 172.0
47.492935 184.0
47.508026 148.0
47.55468 68.0
47.580761 176.0
47.601357 64.0
47.650803 116.0
47.66317 272.0
47.678284 204.0
47.741524 204.0
47.760777 148.0
47.784164 164.0
47.832329 160.0
47.921844 132.0
47.953537 236.0
47.971455 128.0
48.065239 260.0
48.07835 132.0
48.152618 216.0
48.177074 128.0
48.225437 196.0
48.315319 180.0
48.37344 136.0
48.426056 220.0
48.444061 140.0
48.629868 108.0
48.657631 188.0
48.678303 180.0
48.693668 172.0
48.822979 108.0
48.846626 264.0
48.903675 160.0
48.931515 204.0
49.008118 176.0
49.063866 144.0
49.100117 252.0
49.112671 220.0
49.134991 200.0
49.206093 180.0
49.242474 156.0
49.37944 148.0
49.422806 156.0
49.45779 136.0
49.47599 160.0
49.50119 84.0
49.539005 100.0
49.589451 352.0
49.602066 188.0
49.71571 144.0
49.863129 172.0
49.89402 164.0
49.95171 208.0
49.989697 360.0
50.000957 180.0
50.067982 92.0
50.107971 172.0
50.121101 324.0
50.16716 168.0
50.209461 112.0
50.234852 176.0
50.256012 160.0
50.270123 216.0
50.312466 184.0
50.323761 56.0
50.348263 184.0
50.425468 180.0
50.484844 100.0
50.5322 140.0
50.600872 148.0
50.654686 144.0
50.674519 244.0
50.707111 120.0
50.725536 152.0
50.739712 148.0
50.770908 140.0
50.783096 164.0
50.806366 172.0
50.820557 140.0
50.844677 152.0
50.881584 124.0
50.940083 208.0
50.995224 172.0
51.016544 136.0
51.047825 100.0
51.068787 172.0
51.159721 204.0
51.200092 208.0
51.211487 36.0
51.264198 156.0
51.282478 228.0
51.303066 164.0
51.329773 160.0
51.342606 128.0
51.368279 240.0
51.381119 168.0
51.397839 200.0
51.478176 116.0
51.553829 200.0
51.625366 148.0
51.636806 192.0
51.648247 276.0
51.748421 48.0
51.767967 172.0
51.801407 192.0
51.843506 136.0
51.906033 180.0
51.957664 196.0
51.980621 184.0
51.99612 140.0
52.02655 72.0
52.05814 116.0
52.082554 96.0
52.10841 212.0
52.219097 220.0
52.278946 140.0
52.28952 160.0
52.324142 208.0
52.334217 96.0
52.489517 236.0
52.548973 84.0
52.628353 172.0
52.715023 92.0
52.751156 132.0
52.884228 172.0
52.897255 148.0
52.992836 180.0
53.107357 152.0
53.127666 200.0
53.172646 212.0
53.301922 180.0
53.431293 156.0
53.441479 68.0
53.473492 160.0
53.49369 164.0
53.550995 224.0
53.563377 180.0
53.582703 124.0
53.68911 144.0
53.74308 60.0
53.812614 200.0
53.840881 244.0
53.893471 200.0
53.984097 208.0
53.994335 56.0
54.063217 140.0
54.087975 204.0
54.108467 184.0
54.14045 152.0
54.16851 132.0
54.181694 164.0
54.250195 156.0
54.307758 148.0
54.319492 188.0
54.409008 196.0
54.432499 140.0
54.509842 196.0
54.628979 164.0
54.661812 48.0
54.697132 228.0
54.756027 132.0
54.789906 160.0
54.803165 160.0
54.857697 176.0
54.870537 372.0
54.977219 216.0
55.033257 168.0
55.046547 200.0
55.080513 140.0
55.136658 228.0
55.186916 200.0
55.235722 176.0
55.283066 88.0
55.297863 124.0
55.334869 68.0
55.35424 148.0
55.370407 136.0
55.404476 144.0
55.444485 204.0
55.456341 208.0
55.474125 96.0
55.512676 392.0
55.68631 128.0
55.78735 168.0
55.797756 152.0
55.831955 112.0
55.900387 120.0
55.922016 160.0
55.940571 116.0
56.010559 132.0
56.119347 160.0
56.252121 216.0
56.313423 144.0
56.374592 116.0
56.386547 172.0
56.426907 52.0
56.476257 172.0
56.519638 196.0
56.531612 48.0
56.563042 196.0
56.646896 92.0
56.663376 112.0
56.712826 84.0
56.741306 140.0
56.760799 424.0
56.805794 188.0
56.928864 96.0
56.982937 192.0
57.1446 160.0
57.191963 224.0
57.222073 80.0
57.283817 124.0
57.300388 176.0
57.440586 152.0
57.458687 208.0
57.473774 140.0
57.485847 128.0
57.522068 140.0
57.561321 160.0
57.571892 192.0
57.614422 180.0
57.648651 148.0
57.686722 200.0
57.710739 244.0
57.754765 60.0
57.771152 192.0
57.791073 292.0
57.824364 116.0
57.862206 196.0
57.89249 140.0
58.08194 60.0
58.093369 224.0
58.219994 212.0
58.250427 164.0
58.324883 140.0
58.343124 236.0
58.422203 172.0
58.607033 200.0
58.658237 156.0
58.670433 128.0
58.694828 164.0
58.923771 164.0
58.994072 176.0
59.042999 228.0
59.069 44.0
59.180717 204.0
59.197559 32.0
59.208282 48.0
59.237381 148.0
59.271088 148.0
59.292542 200.0
59.376862 148.0
59.408634 168.0
59.426105 156.0
59.44836 228.0
59.461243 160.0
59.507294 144.0
59.547218 108.0
59.594837 144.0
59.70126 120.0
59.719357 176.0
59.740891 200.0
59.830147 180.0
59.850163 352.0
59.880962 128.0
59.916389 164.0
60.033531 48.0
60.053581 164.0
60.078262 124.0
60.090603 188.0
60.123562 200.0
60.156448 384.0
60.178577 424.0
60.258289 72.0
60.29443 128.0
60.311432 144.0
60.387192 176.0
60.444431 208.0
60.535759 136.0
60.603912 204.0
60.636833 180.0
60.687 132.0
60.721725 188.0
60.834995 128.0
60.861389 176.0
60.907978 112.0
60.963909 96.0
60.99033 64.0
61.016758 84.0
61.029194 176.0
61.086739 208.0
61.108517 88.0
61.147419 176.0
61.183956 220.0
61.242393 252.0
61.267315 228.0
61.31517 208.0
61.407677 176.0
61.426323 120.0
61.484852 148.0
61.499657 52.0
61.563667 88.0
61.582409 200.0
61.605839 136.0
61.641773 212.0
61.660526 188.0
61.687099 188.0
61.785587 196.0
61.830994 164.0
61.865429 168.0
61.884216 184.0
61.9617 144.0
61.987595 80.0
62.067539 92.0
62.105503 192.0
62.147533 176.0
62.193043 160.0
62.222866 180.0
62.240139 216.0
62.323387 256.0
62.4002 188.0
62.406574 164.0
62.532536 184.0
62.562443 96.0
62.630154 164.0
62.652935 176.0
62.776722 168.0
62.790916 112.0
62.808266 164.0
62.825615 176.0
62.854015 188.0
62.915569 172.0
62.950306 184.0
63.007164 108.0
63.059101 336.0
63.071346 208.0
63.097248 80.0
63.11306 136.0
63.161667 152.0
63.192142 344.0
63.206383 168.0
63.304523 176.0
63.396404 172.0
63.420174 124.0
63.523243 168.0
63.593288 248.0
63.610199 160.0
63.627209 140.0
63.656559 164.0
63.689911 180.0
63.705795 200.0
63.792706 220.0
63.881413 244.0
63.894974 132.0
63.963402 208.0
63.974545 140.0
63.985691 168.0
64.074875 140.0
64.116302 116.0
64.175285 224.0
64.218376 180.0
64.307686 140.0
64.318863 208.0
64.342804 272.0
64.374741 192.0
64.54892 116.0
64.563309 108.0
64.625694 208.0
64.638496 180.0
64.694 212.0
64.768173 148.0
64.784187 160.0
64.813721 176.0
64.840271 156.0
64.883881 172.0
64.922028 184.0
65.035942 188.0
65.088921 168.0
65.117821 180.0
65.16893 152.0
65.271202 152.0
65.341255 200.0
65.402145 220.0
65.452316 136.0
65.475227 204.0
65.532852 304.0
65.666649 224.0
65.698906 172.0
65.718269 128.0
65.768295 112.0
65.786049 120.0
65.805382 160.0
65.839333 188.0
65.870018 72.0
65.910408 156.0
65.938087 92.0
65.976669 224.0
66.044586 140.0
66.057526 124.0
66.161095 164.0
66.208054 184.0
66.238823 156.0
66.276085 72.0
66.300392 52.0
66.361992 132.0
66.378204 52.0
66.396042 164.0
66.414345 140.0
66.48365 160.0
66.49501 172.0
66.514481 164.0
66.556694 140.0
66.569687 204.0
66.605125 180.0
66.623283 180.0
66.705139 216.0
66.793968 192.0
66.806396 200.0
67.191452 196.0
67.228981 144.0
67.266518 168.0
67.325294 264.0
67.417633 168.0
67.446198 164.0
67.459274 208.0
67.501785 148.0
67.513229 244.0
67.586838 156.0
67.616295 172.0
67.766945 104.0
67.784966 144.0
67.805206 164.0
67.855286 160.0
67.873482 96.0
67.91198 144.0
67.95385 192.0
67.971901 220.0
68.028061 184.0
68.062973 108.0
68.190315 156.0
68.234695 124.0
68.246208 152.0
68.26265 192.0
68.288963 144.0
68.386032 224.0
68.423897 196.0
68.471649 176.0
68.486473 124.0
68.582031 180.0
68.63295 176.0
68.70076 356.0
68.89225 184.0
68.921989 164.0
68.937706 128.0
68.968262 124.0
68.988098 232.0
69.09063 132.0
69.166748 152.0
69.254089 176.0
69.440292 128.0
69.514793 148.0
69.554619 224.0
69.588448 244.0
69.609406 208.0
69.626015 212.0
69.669197 160.0
69.729019 100.0
69.777222 260.0
69.802444 164.0
69.950233 144.0
69.970215 176.0
70.054657 220.0
70.116791 196.0
70.128456 180.0
70.161797 164.0
70.180138 204.0
70.193474 44.0
70.240349 192.0
70.285217 152.0
70.306915 168.0
70.40374 144.0
70.445496 152.0
70.494545 100.0
70.537399 152.0
70.644424 168.0
70.805107 200.0
70.83358 80.0
70.857033 104.0
71.07164 92.0
71.125343 36.0
71.195686 196.0
71.220207 232.0
71.33503 176.0
71.36557 172.0
71.379021 304.0
71.419388 164.0
71.454712 68.0
71.555687 196.0
71.636528 140.0
71.762924 252.0
71.793274 144.0
71.962013 176.0
72.039696 144.0
72.102211 148.0
72.186531 192.0
72.215492 196.0
72.245934 100.0
72.274696 120.0
72.295006 212.0
72.327156 96.0
72.361015 248.0
72.425369 152.0
72.444 136.0
72.493134 80.0
72.540497 212.0
72.566017 160.0
72.603325 172.0
72.655907 192.0
72.672874 128.0
72.771309 124.0
72.856232 180.0
72.964996 128.0
72.978554 164.0
73.068733 156.0
73.203201 60.0
73.21682 196.0
73.344604 160.0
73.46138 160.0
73.498093 160.0
73.511871 160.0
73.530518 148.0
73.549286 188.0
73.640778 212.0
73.647934 124.0
73.652298 184.0
73.68856 180.0
73.694534 80.0
73.69883 228.0
73.711533 184.0
73.767929 148.0
73.798706 180.0
73.851715 212.0
73.956085 164.0
74.057106 108.0
74.084511 140.0
74.09993 180.0
74.129059 188.0
74.193451 196.0
74.237053 204.0
74.295372 168.0
74.314247 172.0
74.338264 172.0
74.400055 292.0
74.435951 172.0
74.487633 184.0
74.504814 168.0
74.535881 144.0
74.56839 100.0
74.609642 180.0
74.664665 176.0
74.690468 132.0
74.726593 144.0
74.769608 184.0
74.805756 172.0
74.853958 156.0
74.902184 160.0
74.931473 140.0
74.946976 124.0
74.969376 204.0
75.003845 156.0
75.026253 144.0
75.060738 136.0
75.09523 156.0
75.278328 208.0
75.298882 116.0
75.373169 108.0
75.58931 132.0
75.611809 144.0
75.629112 168.0
75.689705 128.0
75.701828 188.0
75.745125 220.0
75.888962 80.0
75.912224 136.0
75.94619 28.0
76.085014 160.0
76.146126 204.0
76.189209 44.0
76.248291 156.0
76.288551 196.0
76.314346 232.0
76.410004 72.0
76.432617 248.0
76.446541 172.0
76.470909 96.0
76.519646 172.0
76.643311 172.0
76.658989 216.0
76.678162 164.0
76.692101 260.0
76.760094 176.0
77.007904 156.0
77.028862 140.0
77.22113 56.0
77.23687 84.0
77.270111 96.0
77.394379 132.0
77.445732 220.0
77.504723 128.0
77.532761 48.0
77.580086 180.0
77.655487 176.0
77.669518 32.0
77.734428 124.0
77.845573 204.0
77.862579 128.0
77.911942 160.0
77.925819 156.0
77.971504 52.0
77.989082 228.0
78.047096 180.0
78.14357 188.0
78.163185 156.0
78.210701 116.0
78.240623 276.0
78.270554 136.0
78.302254 120.0
78.337479 68.0
78.378006 156.0
78.513741 156.0
78.56665 40.0
78.584297 216.0
78.644707 204.0
78.659309 152.0
78.704315 76.0
78.808525 172.0
78.847404 116.0
78.859772 144.0
78.884521 192.0
78.983543 48.0
78.998528 160.0
79.033928 184.0
79.050774 180.0
79.073776 196.0
79.185318 176.0
79.266808 40.0
79.323517 148.0
79.392311 120.0
79.445877 184.0
79.516853 192.0
79.554131 128.0
79.578804 200.0
79.62693 248.0
79.810776 164.0
79.884659 128.0
79.929398 160.0
79.982857 212.0
80.003883 152.0
80.019905 84.0
80.073326 140.0
80.28643 216.0
80.376381 188.0
80.487045 144.0
80.538834 124.0
80.554916 152.0
80.576347 160.0
80.610298 176.0
80.701462 84.0
80.768333 152.0
80.889305 160.0
80.917946 216.0
80.980324 168.0
81.025398 176.0
81.057655 80.0
81.122169 172.0
81.136513 220.0
81.16301 180.0
81.281792 164.0
81.321274 120.0
81.337425 216.0
81.358971 156.0
81.422768 180.0
81.534996 84.0
81.54937 164.0
81.630882 188.0
81.668037 188.0
81.700417 136.0
81.752594 144.0
81.801193 84.0
81.831795 212.0
81.844398 148.0
81.891373 188.0
82.026756 180.0
82.064217 196.0
82.095291 204.0
82.194084 60.0
82.224762 32.0
82.273491 192.0
82.296967 160.0
82.32309 160.0
82.383652 184.0
82.39991 84.0
82.473999 156.0
82.506538 192.0
82.634949 156.0
82.653038 92.0
82.6838 136.0
82.776123 60.0
82.85582 168.0
82.964554 112.0
83.091499 44.0
83.115685 184.0
83.19313 136.0
83.240334 120.0
83.265762 136.0
83.314804 160.0
83.389305 84.0
83.532944 188.0
83.547501 76.0
83.567513 164.0
83.62574 72.0
83.731339 168.0
83.842087 172.0
83.878723 184.0
83.981026 120.0
84.004745 140.0
84.048531 76.0
84.143433 136.0
84.163521 120.0
84.258492 176.0
84.273109 64.0
84.298691 72.0
84.321518 196.0
84.360832 160.0
84.384598 108.0
84.466888 160.0
84.503479 156.0
84.530647 184.0
84.574844 180.0
84.596817 236.0
84.772644 160.0
84.798889 160.0
84.877129 104.0
84.948654 148.0
84.968834 48.0
84.990845 84.0
85.035606 164.0
85.055077 140.0
85.08078 132.0
85.151695 116.0
85.183617 84.0
85.238731 128.0
85.29203 160.0
85.321442 196.0
85.33799 156.0
85.378441 140.0
85.57901 168.0
85.599266 204.0
85.685837 224.0
85.7061 156.0
85.743591 140.0
85.774292 140.0
85.825912 108.0
85.943954 140.0
85.96241 216.0
86.008545 200.0
86.023315 124.0
86.056541 276.0
86.07132 180.0
86.354057 356.0
86.381805 176.0
86.48172 160.0
86.567192 216.0
86.626152 120.0
86.64653 144.0
86.672432 200.0
86.835602 176.0
87.075012 60.0
87.240387 132.0
87.294304 72.0
87.353821 144.0
87.381721 136.0
87.435684 100.0
87.508278 204.0
87.673424 236.0
87.74926 128.0
87.762527 180.0
87.816551 188.0
87.834404 228.0
87.899704 144.0
87.914627 204.0
87.942627 228.0
87.968758 72.0
87.996758 156.0
88.041573 236.0
88.11068 204.0
88.126541 164.0
88.297607 224.0
88.445412 136.0
88.522171 88.0
88.602707 156.0
88.648643 124.0
88.679535 132.0
88.7789 152.0
88.829544 68.0
88.927109 192.0
89.004074 80.0
89.019096 212.0
89.036003 172.0
89.066055 92.0
89.087303 192.0
89.116776 28.0
89.14872 244.0
89.240074 192.0
89.260178 232.0
89.31604 132.0
89.3405 28.0
89.363075 116.0
89.500473 204.0
89.515533 148.0
89.591858 200.0
89.622902 136.0
89.68132 120.0
89.713364 72.0
89.804672 180.0
89.827232 52.0
89.851036 188.0
89.918961 112.0
89.941612 72.0
89.990692 176.0
90.022797 48.0
90.037903 204.0
90.090439 984.0
90.107941 152.0
90.145584 132.0
90.194717 208.0
90.221184 200.0
90.296822 132.0
90.415817 120.0
90.474686 176.0
90.493179 416.0
90.512062 232.0
90.550423 376.0
90.57505 192.0
90.599548 168.0
90.749397 204.0
90.796799 148.0
90.829041 224.0
90.842323 180.0
90.859245 152.0
90.872673 188.0
90.901138 156.0
90.917786 88.0
90.961868 208.0
90.980156 152.0
90.99984 176.0
91.028786 212.0
91.055008 26924.0
91.112785 36.0
91.125191 156.0
91.169525 124.0
91.203102 88.0
91.25782 168.0
91.294739 148.0
91.319084 76.0
91.349014 56.0
91.367455 48.0
91.389465 180.0
91.4104 28.0
91.452263 108.0
91.487671 160.0
91.513184 208.0
91.543648 56.0
91.633171 200.0
91.656036 192.0
91.674278 160.0
91.692093 104.0
91.758957 40.0
91.890549 32.0
91.988449 168.0
92.039429 168.0
92.057739 2512.0
92.108688 180.0
92.13961 88.0
92.193611 112.0
92.24958 132.0
92.308853 192.0
92.456154 164.0
92.471458 124.0
92.486771 68.0
92.564659 164.0
92.578667 60.0
92.595909 72.0
92.682106 80.0
92.7658 260.0
92.789436 108.0
92.831619 160.0
92.87175 160.0
92.925606 136.0
92.944794 40.0
93.063095 320.0
93.094521 116.0
93.165588 284.0
93.225151 124.0
93.240524 152.0
93.284729 188.0
93.317413 136.0
93.417419 176.0
93.473213 136.0
93.488609 212.0
93.561745 148.0
93.577148 100.0
93.719673 196.0
93.792908 124.0
93.848816 124.0
93.922096 176.0
93.968391 164.0
94.014702 144.0
94.039795 188.0
94.097702 72.0
94.132454 256.0
94.153702 140.0
94.167221 144.0
94.286469 188.0
94.315994 196.0
94.426201 204.0
94.45134 148.0
94.551949 140.0
94.753326 56.0
94.854103 136.0
94.892868 160.0
94.918839 136.0
94.935532 144.0
95.003418 192.0
95.267426 184.0
95.426788 144.0
95.469566 68.0
95.522079 168.0
95.541534 148.0
95.56488 44.0
95.601852 244.0
95.64856 236.0
95.667511 152.0
95.730331 192.0
95.825722 176.0
95.913467 64.0
95.934906 140.0
95.981697 148.0
96.022652 164.0
96.069466 140.0
96.104584 136.0
96.196304 108.0
96.288071 152.0
96.325188 232.0
96.33886 176.0
96.397476 180.0
96.434601 216.0
96.583199 152.0
96.692764 88.0
96.761101 44.0
96.797081 196.0
96.825356 188.0
96.859192 212.0
96.939514 88.0
97.065269 320.0
97.082619 148.0
97.110077 208.0
97.221901 144.0
97.252647 96.0
97.302383 148.0
97.404434 124.0
97.58136 204.0
97.683624 192.0
97.74855 192.0
97.829239 184.0
97.84893 148.0
97.868614 196.0
97.911942 192.0
97.964058 136.0
97.994667 196.0
98.091232 140.0
98.130661 172.0
98.156296 160.0
98.286484 180.0
98.308189 148.0
98.377266 164.0
98.424652 188.0
98.466827 172.0
98.594536 32.0
98.628136 104.0
98.687439 172.0
98.819954 168.0
99.015923 184.0
99.041412 184.0
99.132805 208.0
99.184334 188.0
99.233894 64.0
99.30925 116.0
99.386612 168.0
99.460045 164.0
99.608963 196.0
99.642738 52.0
99.670555 156.0
99.694397 192.0
99.736137 140.0
99.771912 236.0
99.809242 196.0
99.887253 212.0
99.923058 152.0
99.952904 204.0
100.024551 164.0
100.08181 84.0
100.112152 184.0
100.175888 164.0
100.229683 116.0
100.277504 216.0
100.335312 240.0
100.413078 40.0
100.444992 108.0
100.552734 88.0
100.600639 104.0
100.645584 164.0
100.670517 160.0
100.69249 128.0
100.78038 92.0
100.868317 152.0
101.043091 164.0
101.064301 184.0
101.09832 136.0
101.23645 224.0
101.334595 156.0
101.372665 112.0
101.420769 120.0
101.442818 124.0
101.488922 224.0
101.555099 96.0
101.583183 88.0
101.649391 184.0
101.685516 44.0
101.719635 180.0
101.783882 128.0
101.799942 96.0
101.878273 156.0
101.902382 32.0
102.077255 140.0
102.14563 200.0
102.212021 92.0
102.230133 128.0
102.25428 136.0
102.411324 124.0
102.445564 124.0
102.542282 148.0
102.616867 44.0
102.751457 180.0
102.774185 164.0
102.821159 232.0
102.844818 188.0
102.872101 132.0
102.887207 160.0
102.907402 224.0
102.95359 128.0
103.054802 868.0
103.19632 152.0
103.224625 280.0
103.256981 144.0
103.275185 168.0
103.303505 176.0
103.366226 204.0
103.447182 100.0
103.552467 176.0
103.676048 96.0
103.706451 124.0
103.773346 120.0
103.809845 196.0
103.828094 132.0
103.93737 152.0
103.964142 192.0
103.999672 212.0
104.058167 500.0
104.146736 188.0
104.286934 140.0
104.321487 92.0
104.339783 148.0
104.377922 132.0
104.386505 176.0
104.41095 84.0
104.440483 160.0
104.473602 284.0
104.526611 392.0
104.565567 180.0
104.630707 160.0
104.695862 212.0
104.811974 208.0
104.876312 168.0
104.899612 204.0
105.011757 124.0
105.034836 1016.0
105.070572 556.0
105.252876 156.0
105.289314 108.0
105.36898 140.0
105.411888 204.0
105.440498 208.0
105.475243 108.0
105.567245 92.0
105.647011 104.0
105.73909 144.0
105.812721 140.0
105.851677 144.0
105.904922 200.0
105.980721 220.0
106.0299 184.0
106.074837 208.0
106.12101 188.0
106.206223 72.0
106.292389 128.0
106.395058 176.0
106.462769 196.0
106.516167 100.0
106.592186 184.0
106.61068 148.0
106.742241 152.0
106.798187 216.0
106.836845 120.0
106.95208 184.0
106.986702 200.0
107.050003 6276.0
107.096214 64.0
107.125046 104.0
107.18277 208.0
107.255722 164.0
107.551888 180.0
107.671631 168.0
107.75013 152.0
108.029213 180.0
108.055115 448.0
108.089211 52.0
108.143692 196.0
108.174065 188.0
108.205116 228.0
108.248596 148.0
108.263542 148.0
108.323158 132.0
108.337662 164.0
108.437119 172.0
108.459915 160.0
108.524185 164.0
108.559433 72.0
108.590538 144.0
108.673515 164.0
108.692192 180.0
108.725395 160.0
108.816727 208.0
108.849945 112.0
108.893555 100.0
108.910172 100.0
109.047302 144.0
109.07016 124.0
109.140846 96.0
109.157478 204.0
109.177765 260.0
109.212563 156.0
109.272957 216.0
109.384254 128.0
109.444626 136.0
109.469612 148.0
109.492233 144.0
109.507103 224.0
109.669617 308.0
109.705048 104.0
109.730064 204.0
109.759254 148.0
109.786369 172.0
109.821823 132.0
109.899002 120.0
109.96347 148.0
110.08049 144.0
110.114014 144.0
110.143684 196.0
110.166237 220.0
110.201752 180.0
110.329239 196.0
110.356415 204.0
110.435883 48.0
110.477715 168.0
110.530022 144.0
110.592804 120.0
110.655602 160.0
110.674446 188.0
110.940521 176.0
110.963577 36.0
111.018097 156.0
111.041168 124.0
111.184784 124.0
111.214645 152.0
111.231071 212.0
111.256577 188.0
111.295082 160.0
111.320282 204.0
111.345482 164.0
111.368584 156.0
111.452614 144.0
111.492538 172.0
111.574516 164.0
111.589233 132.0
111.67334 188.0
111.730141 164.0
111.989052 132.0
112.055756 144.0
112.102814 172.0
112.254593 144.0
112.292549 140.0
112.490891 192.0
112.609131 152.0
112.62603 60.0
112.664055 168.0
112.723213 176.0
112.742233 288.0
112.768372 152.0
112.824753 184.0
113.063675 164.0
113.305061 136.0
113.377106 216.0
113.486191 156.0
113.506416 164.0
113.599731 196.0
113.67823 188.0
113.733688 216.0
113.761009 200.0
113.856552 136.0
113.879913 204.0
113.947891 148.0
114.030762 204.0
114.094536 128.0
114.117439 248.0
114.313606 160.0
114.364685 140.0
114.384949 156.0
114.420029 240.0
114.503075 188.0
114.528633 176.0
114.569107 152.0
114.586151 84.0
114.603195 148.0
114.643677 152.0
114.664986 44.0
114.69696 128.0
114.763046 164.0
114.854408 204.0
114.862732 172.0
114.893143 72.0
114.920876 152.0
114.969955 220.0
114.991119 188.0
115.012642 180.0
115.054695 21284.0
115.121521 244.0
115.170647 32.0
115.247314 72.0
115.303436 208.0
115.390747 80.0
115.419487 208.0
115.452759 140.0
115.48484 48.0
115.540459 208.0
115.57827 88.0
115.737358 160.0
115.922623 188.0
115.953239 72.0
115.982178 172.0
116.003014 56.0
116.040726 220.0
116.061211 5524.0
116.131668 184.0
116.215515 224.0
116.268974 76.0
116.341957 88.0
116.421402 228.0
116.520203 180.0
116.550285 84.0
116.653442 176.0
116.730843 164.0
116.8685 164.0
116.945976 168.0
116.984718 292.0
117.06926 1340.0
117.20224 176.0
117.266373 100.0
117.318619 32.0
117.340179 68.0
117.35743 84.0
117.374016 164.0
117.415649 144.0
117.443687 184.0
117.478203 96.0
117.5494 164.0
117.599037 120.0
117.7005 220.0
117.748009 124.0
117.776085 168.0
118.038185 328.0
118.073303 340.0
118.089485 200.0
118.124092 32.0
118.327515 192.0
118.366486 120.0
118.397125 164.0
118.476944 128.0
118.598289 184.0
118.667664 132.0
118.72187 120.0
118.810799 128.0
118.85202 120.0
118.914955 172.0
118.951851 220.0
119.050575 1368.0
119.179886 40.0
119.24942 72.0
119.373337 156.0
119.447289 148.0
119.486443 52.0
119.525604 92.0
119.606125 120.0
119.752007 132.0
119.769432 148.0
119.865288 184.0
119.998245 120.0
120.055161 200.0
120.078926 164.0
120.098717 168.0
120.255653 132.0
120.404114 132.0
120.51989 88.0
120.590057 180.0
120.651016 44.0
120.666321 156.0
120.681625 192.0
120.909119 80.0
121.057983 144.0
121.222275 188.0
121.37133 208.0
121.395454 52.0
121.50293 252.0
121.601669 60.0
121.632401 188.0
121.728996 200.0
121.776985 188.0
121.869576 116.0
121.961876 128.0
122.014633 220.0
122.054207 56.0
122.0718 188.0
122.09819 80.0
122.117981 212.0
122.139977 156.0
122.309402 132.0
122.331413 176.0
122.368843 212.0
122.523003 116.0
122.560768 228.0
122.655228 152.0
123.189224 120.0
123.255508 140.0
123.312965 100.0
123.478783 92.0
123.549561 164.0
123.593811 180.0
123.611511 116.0
123.631424 40.0
123.671265 160.0
123.746529 184.0
123.941437 192.0
123.985756 108.0
124.082077 168.0
124.103241 192.0
124.19416 144.0
124.495995 152.0
124.662605 96.0
124.742615 196.0
124.778183 92.0
124.811539 140.0
124.909393 108.0
124.947205 96.0
124.978996 152.0
125.031761 192.0
125.058197 532.0
125.109665 224.0
125.281143 256.0
125.339066 192.0
125.368034 172.0
125.40815 168.0
125.541916 120.0
125.586517 92.0
125.65567 144.0
125.700294 164.0
125.753853 156.0
125.778412 160.0
125.903435 56.0
126.048309 188.0
126.091095 156.0
126.108978 56.0
126.129097 128.0
126.241043 56.0
126.29232 88.0
126.352715 136.0
126.43998 240.0
126.57206 144.0
126.657158 116.0
126.676277 236.0
127.009064 64.0
127.029922 148.0
127.053276 1664.0
127.087585 152.0
127.134705 80.0
127.184082 188.0
127.307564 156.0
127.379433 188.0
127.3974 48.0
127.426376 344.0
127.462555 40.0
127.556953 48.0
127.646881 140.0
127.703102 136.0
127.826836 132.0
127.874092 84.0
127.896599 132.0
127.923615 132.0
127.939369 208.0
127.975388 44.0
128.032074 236.0
128.062317 17484.0
128.104187 64.0
128.137558 140.0
128.160431 52.0
128.1772 128.0
128.207397 52.0
128.24614 172.0
128.274887 140.0
128.317505 72.0
128.339355 276.0
128.423843 200.0
128.487 164.0
128.503082 152.0
128.639938 52.0
128.690964 172.0
128.721207 196.0
128.744934 176.0
128.771332 208.0
128.788376 172.0
128.807053 236.0
128.834412 328.0
128.874496 196.0
128.899704 304.0
128.93158 116.0
128.936569 152.0
128.945129 180.0
128.986404 168.0
129.024338 416.0
129.040649 268.0
129.07074 111652.0
129.126007 584.0
129.150726 184.0
129.182785 64.0
129.204422 184.0
129.25145 88.0
129.288147 284.0
129.324692 56.0
129.351334 96.0
129.392578 80.0
129.406906 104.0
129.44252 1196.0
129.501953 64.0
129.525177 232.0
129.550705 76.0
129.583084 44.0
129.624374 100.0
129.652344 52.0
129.706543 148.0
129.734146 84.0
129.772583 48.0
129.816162 80.0
129.855881 136.0
129.888153 132.0
129.923569 48.0
129.956757 212.0
129.97493 108.0
129.990753 272.0
130.017868 100.0
130.073502 15524.0
130.114197 44.0
130.132355 92.0
130.149918 60.0
130.176468 48.0
130.214554 184.0
130.248169 84.0
130.361771 44.0
130.397568 132.0
130.418594 60.0
130.443588 132.0
130.500427 116.0
130.532257 36.0
130.566376 176.0
130.616409 52.0
130.714233 96.0
130.755203 28.0
130.779938 160.0
130.81665 68.0
130.857635 40.0
130.873566 300.0
130.910004 52.0
130.946442 36.0
130.97377 116.0
130.989716 136.0
131.008316 72.0
131.04895 136.0
131.08136 1724.0
131.145874 240.0
131.169724 76.0
131.199356 168.0
131.260925 60.0
131.329758 144.0
131.410049 148.0
131.436554 164.0
131.45253 44.0
131.507309 68.0
131.573502 248.0
131.776764 68.0
131.799606 160.0
131.923813 128.0
131.947952 208.0
132.037354 88.0
132.067078 40.0
132.09111 236.0
132.135712 36.0
132.373749 144.0
132.511185 224.0
132.559296 152.0
132.751846 52.0
133.066193 232.0
133.171829 160.0
133.226959 128.0
133.341843 100.0
133.546463 176.0
133.593704 164.0
133.639206 64.0
133.861755 68.0
133.974609 148.0
134.025299 184.0
134.069077 128.0
134.105957 88.0
134.191238 172.0
134.553467 156.0
134.574112 208.0
135.044968 1836.0
135.084976 92.0
135.267792 200.0
135.698685 168.0
135.993423 132.0
136.016495 192.0
136.046997 256.0
136.083817 64.0
136.227798 156.0
136.32074 144.0
136.438416 184.0
136.616013 200.0
136.771927 44.0
137.158585 188.0
137.36145 152.0
137.557449 128.0
137.643845 84.0
137.76062 92.0
137.871353 172.0
138.069077 540.0
138.090195 176.0
138.172058 124.0
138.563782 200.0
138.907639 120.0
139.058441 184.0
139.081284 160.0
139.154053 112.0
139.245621 68.0
139.320786 76.0
139.388931 36.0
139.59343 72.0
139.722794 256.0
139.753387 64.0
139.810593 244.0
139.944031 260.0
140.111237 192.0
140.342209 148.0
140.379944 164.0
140.403519 96.0
140.422394 120.0
140.445969 136.0
140.62529 340.0
140.710266 68.0
140.738602 148.0
141.070526 2132.0
141.101059 136.0
141.286926 244.0
141.388657 84.0
141.426529 136.0
141.521225 60.0
141.72728 164.0
141.79837 104.0
141.883713 120.0
141.976181 108.0
142.015717 216.0
142.049805 196.0
142.07814 12728.0
142.119446 172.0
142.201569 72.0
142.220551 200.0
142.325012 128.0
142.398621 40.0
142.465134 44.0
142.503143 128.0
142.541153 88.0
142.564926 96.0
142.621964 48.0
142.721802 180.0
142.826447 68.0
142.884552 148.0
143.052505 176.0
143.081879 1528.0
143.221558 144.0
143.238235 48.0
143.285873 76.0
143.338654 80.0
143.462234 60.0
143.85379 140.0
143.879715 84.0
143.934631 36.0
143.975006 176.0
144.013428 180.0
144.056427 116.0
144.09346 160.0
144.302582 148.0
144.331268 100.0
144.436493 116.0
144.536972 148.0
144.599197 72.0
144.66861 48.0
144.738037 208.0
144.836227 216.0
144.874557 72.0
145.063965 564.0
145.274887 164.0
145.399658 172.0
145.555695 116.0
145.586914 124.0
145.699799 176.0
145.978607 52.0
146.012283 184.0
146.06279 216.0
146.134964 136.0
146.16864 72.0
146.443085 92.0
147.166534 188.0
147.457199 160.0
147.51825 228.0
147.659485 176.0
148.109665 108.0
148.126633 232.0
148.252609 216.0
148.293808 164.0
148.497467 148.0
149.155472 172.0
149.21138 52.0
149.250275 132.0
149.483795 148.0
149.500824 164.0
149.615219 156.0
149.666351 128.0
149.983047 128.0
150.178116 152.0
150.222015 52.0
150.29277 100.0
150.607681 76.0
150.624786 168.0
150.930267 120.0
150.964508 136.0
151.052551 212.0
151.289917 212.0
151.329086 116.0
151.493179 200.0
151.613235 164.0
151.794632 144.0
151.873108 128.0
151.897644 160.0
151.971237 276.0
152.061127 540.0
152.134705 192.0
152.205872 148.0
152.380768 160.0
152.558197 36.0
152.804123 104.0
152.875488 140.0
152.92717 56.0
153.002625 152.0
153.068985 468.0
153.098389 156.0
153.178314 256.0
153.299042 60.0
153.678772 88.0
153.745392 152.0
153.878677 88.0
154.044144 176.0
154.07872 172.0
154.202271 176.0
154.254181 160.0
154.466843 140.0
154.516312 164.0
154.644989 192.0
154.97435 80.0
155.059784 796.0
155.084488 1424.0
155.125137 156.0
155.209808 64.0
155.366058 164.0
155.383423 116.0
155.547211 144.0
155.902374 124.0
156.063034 192.0
156.086655 124.0
156.354996 192.0
156.673706 116.0
156.731003 208.0
156.764465 164.0
156.785828 188.0
156.834167 136.0
156.868927 164.0
156.885529 144.0
156.917938 308.0
156.97438 144.0
157.009811 124.0
157.019608 88.0
157.026321 164.0
157.068802 1184.0
157.102005 71408.0
157.165253 56.0
157.196274 88.0
157.215118 168.0
157.231445 76.0
157.258438 52.0
157.27916 60.0
157.297424 108.0
157.322937 224.0
157.349213 88.0
157.399124 180.0
157.434448 40.0
157.465988 172.0
157.512512 140.0
157.542709 140.0
157.571823 100.0
157.601257 72.0
157.633316 92.0
157.75676 52.0
157.789261 216.0
157.851761 44.0
157.884766 80.0
157.969315 64.0
158.016846 44.0
158.070709 404.0
158.104675 7708.0
158.232071 40.0
158.252106 96.0
158.32222 100.0
158.365799 108.0
158.374222 84.0
158.397354 108.0
158.447464 60.0
158.525833 124.0
158.577759 84.0
158.607834 80.0
158.625381 68.0
158.713135 56.0
158.765793 108.0
158.818451 136.0
158.841034 96.0
158.945236 216.0
159.022858 172.0
159.074402 120.0
159.108719 504.0
159.192398 36.0
159.21402 132.0
159.256195 60.0
159.297333 72.0
159.328033 156.0
159.345612 104.0
159.453659 116.0
159.544159 108.0
159.69754 48.0
159.954193 140.0
159.971817 160.0
160.044815 108.0
160.070633 64.0
160.194275 128.0
160.32695 52.0
160.488266 84.0
160.846512 48.0
160.93486 108.0
161.056076 160.0
161.938797 168.0
162.065002 200.0
162.217514 128.0
162.75029 120.0
162.818848 136.0
162.839157 188.0
162.945847 32.0
163.006836 220.0
163.029694 196.0
163.075348 19824.0
163.146622 32.0
163.17511 88.0
163.197464 56.0
163.324615 76.0
163.380585 116.0
163.479813 48.0
163.547592 76.0
163.594711 56.0
163.645264 60.0
163.691086 112.0
163.714005 68.0
163.787872 60.0
163.86174 52.0
164.017197 44.0
164.078781 2516.0
164.137009 68.0
164.221176 80.0
164.356369 52.0
164.703568 92.0
164.749557 116.0
164.959091 176.0
165.081818 276.0
165.222488 144.0
165.27623 68.0
165.309494 124.0
165.3965 112.0
165.465622 28.0
165.539871 104.0
166.076279 196.0
167.046432 196.0
167.084824 912.0
167.357834 68.0
167.599945 72.0
167.692719 52.0
167.857712 52.0
168.035675 140.0
168.090897 144.0
169.025269 72.0
169.075012 384.0
169.100311 56.0
169.123596 72.0
169.289291 72.0
169.976227 176.0
171.075607 160.0
171.169342 104.0
171.367294 104.0
172.217712 72.0
172.327423 88.0
172.61232 96.0
172.641098 60.0
172.758789 36.0
174.242599 96.0
174.96582 104.0
175.074493 164.0
175.111115 2600.0
175.159637 40.0
175.899017 44.0
176.075912 120.0
176.112015 192.0
176.157791 168.0
176.223846 140.0
176.625671 56.0
177.037659 72.0
179.741974 196.0
180.185196 144.0
181.620026 80.0
181.75148 116.0
182.917847 52.0
183.079239 148.0
183.939453 100.0
184.084137 120.0
184.504044 96.0
184.852951 88.0
185.012634 208.0
185.037003 200.0
185.0961 2880.0
185.153442 120.0
185.17511 56.0
185.221146 68.0
185.250946 52.0
185.315964 132.0
185.576157 64.0
185.801254 56.0
186.101486 392.0
186.254593 40.0
186.442062 112.0
186.705765 164.0
186.798233 56.0
186.94516 132.0
187.173813 104.0
187.345398 148.0
187.364471 104.0
187.737885 156.0
188.089828 148.0
189.857269 96.0
190.873306 136.0
191.828644 68.0
193.840683 136.0
194.886749 120.0
194.975677 84.0
195.097977 212.0
195.159134 184.0
195.395538 156.0
195.946777 68.0
196.507172 80.0
198.089478 164.0
199.928513 144.0
200.477646 108.0
201.090576 168.0
202.106949 124.0
202.166367 220.0
203.109818 160.0
207.134659 140.0
208.130005 280.0
208.187241 48.0
208.908661 52.0
211.109344 164.0
213.147156 216.0
214.025589 200.0
214.270248 188.0
216.381775 96.0
216.83873 112.0
216.888565 136.0
217.219894 148.0
217.804031 104.0
219.779404 200.0
221.064774 68.0
223.515823 52.0
226.306625 80.0
226.516251 124.0
226.672043 80.0
227.22374 176.0
227.523849 88.0
227.983398 60.0
228.034485 64.0
228.232895 80.0
228.554733 140.0
228.599869 76.0
228.785416 132.0
228.9039 108.0
228.994247 48.0
229.075577 104.0
229.121674 12188.0
229.173111 180.0
229.283005 52.0
229.407043 32.0
229.491455 60.0
229.624146 104.0
229.681442 112.0
229.744797 188.0
230.004303 52.0
230.037506 132.0
230.082794 44.0
230.125244 1500.0
230.218658 96.0
230.257919 76.0
230.36969 68.0
230.520752 88.0
230.578171 160.0
230.895599 76.0
231.046051 76.0
231.12677 412.0
231.161819 180.0
231.549316 72.0
231.894699 212.0
232.131165 28.0
232.70462 128.0
233.290955 96.0
233.412567 116.0
233.801941 112.0
234.091141 136.0
234.953705 120.0
236.686661 128.0
237.649094 128.0
239.314957 116.0
239.88797 100.0
240.705566 52.0
241.332794 84.0
241.357544 128.0
242.234085 88.0
252.734238 88.0
253.842865 60.0
255.354507 216.0
258.151367 64.0
259.52182 144.0
267.553802 100.0
269.693695 80.0
272.508636 44.0
272.843872 140.0
273.564301 112.0
274.018768 40.0
274.178741 2120.0
274.256042 44.0
274.42746 68.0
274.5 72.0
274.539551 112.0
275.18512 364.0
275.503357 48.0
275.688385 88.0
275.956116 80.0
275.982574 52.0
276.181 136.0
277.197357 64.0
277.303406 104.0
280.607574 52.0
281.094543 72.0
283.577698 124.0
283.713379 72.0
286.351105 44.0
289.149933 96.0
292.193665 116.0
292.237885 108.0
292.486298 72.0
292.731445 36.0
293.201538 124.0
296.478912 84.0
302.852692 92.0
304.573059 96.0
314.563385 92.0
317.383026 40.0
317.71286 84.0
323.521698 96.0
325.655212 128.0
332.152252 68.0
340.341736 128.0
343.115845 40.0
345.545959 88.0
351.580383 64.0
352.898987 136.0
353.789398 88.0
355.472229 36.0
362.005005 60.0
364.573181 52.0
370.996948 120.0
383.654083 76.0
394.464386 88.0
400.524475 108.0
400.934845 60.0
406.164429 92.0
407.931244 92.0
408.035767 100.0
414.440979 88.0
414.582794 92.0
416.014557 80.0
452.750214 64.0
475.694702 76.0
480.503448 36.0
487.390594 112.0
511.42453 40.0
522.870789 60.0
526.198303 64.0
530.957153 144.0
532.16394 156.0
532.577271 52.0
548.005371 72.0
581.536438 224.0
586.90509 208.0
588.45874 132.0
593.476074 80.0
598.378357 68.0
622.829712 196.0
624.634033 32.0
629.533264 40.0
633.8302 152.0
638.594299 120.0
640.219849 96.0
642.528381 196.0
646.211426 84.0
649.869507 96.0
663.897095 128.0
667.975159 28.0
671.802551 132.0
675.05127 68.0
692.207947 80.0
695.573792 168.0
698.200867 60.0
699.732056 144.0
701.623413 188.0
704.858765 176.0
706.984558 124.0
708.89624 36.0
709.293762 136.0
710.06781 192.0
711.473938 188.0
713.26416 124.0
714.503174 156.0
719.213867 108.0
720.025391 36.0
728.214294 204.0
728.799805 72.0
730.127563 120.0
730.181335 208.0
737.200378 96.0
744.660339 260.0
746.644043 128.0
750.635681 168.0
752.731079 60.0
753.818115 140.0
757.390625 196.0
758.585144 156.0
762.114014 120.0
762.971375 152.0
764.043762 188.0
764.093262 148.0
764.527954 108.0
770.690674 152.0
773.640625 152.0
774.426941 152.0
776.000732 44.0
776.438782 124.0
776.732727 168.0
779.419739 128.0
780.142273 56.0
781.426941 212.0
784.250244 180.0
785.666565 160.0
785.783752 136.0
786.386414 112.0
786.777161 212.0
788.793762 116.0
788.994995 156.0
790.342896 212.0
790.432434 172.0
791.389587 260.0
793.563477 132.0
795.430908 164.0
796.026672 144.0
797.195129 212.0
797.656006 176.0
799.39386 204.0
799.990417 164.0
800.91394 140.0
801.020935 132.0
803.456238 108.0
803.614197 232.0
803.664978 204.0
805.189087 132.0
805.511047 204.0
807.851318 64.0
807.907898 64.0
810.608582 212.0
810.846558 236.0
811.328369 116.0
811.50415 116.0
811.57782 220.0
812.808716 168.0
814.176758 140.0
814.551636 184.0
818.937012 192.0
819.295898 164.0
822.14679 160.0
822.89978 252.0
823.248596 164.0
827.605774 212.0
827.880615 60.0
828.14978 140.0
828.963318 188.0
830.270325 128.0
830.316223 140.0
830.987366 128.0
831.102112 48.0
832.244324 180.0
832.554382 128.0
834.818604 124.0
835.065857 100.0
835.537537 120.0
837.039795 128.0
837.333435 136.0
838.860352 112.0
839.615662 136.0
840.555969 84.0
841.53717 136.0
842.126221 88.0
842.570984 184.0
844.229858 48.0
846.035095 164.0
846.839966 104.0
847.02533 140.0
847.471375 204.0
848.039307 120.0
848.850891 168.0
848.914673 196.0
849.668701 168.0
850.417297 136.0
850.730713 184.0
850.992004 148.0
851.386841 156.0
851.473938 208.0
852.664917 64.0
852.705627 252.0
854.74469 252.0
854.973755 200.0
857.466309 196.0
860.546265 152.0
860.879089 172.0
864.485962 144.0
866.183777 196.0
867.443665 212.0
869.044678 40.0
869.238281 192.0
870.095215 180.0
871.19342 200.0
871.739807 204.0
872.133606 136.0
872.42749 56.0
873.591858 184.0
873.662476 88.0
873.885986 132.0
874.804077 200.0
875.899353 180.0
875.987732 132.0
877.05426 232.0
877.744019 204.0
878.935486 172.0
879.549255 32.0
879.708679 212.0
880.015625 172.0
882.148315 164.0
882.443909 188.0
884.467102 168.0
886.545898 76.0
887.393555 212.0
888.093262 180.0
889.048462 172.0
891.471375 56.0
892.261902 160.0
893.046814 164.0
893.207397 172.0
894.671265 52.0
896.321045 180.0
897.996216 196.0
898.658386 188.0
899.655029 156.0
900.297729 136.0
903.724976 172.0
903.898499 180.0
906.413452 96.0
907.672363 168.0
909.141846 136.0
910.030273 152.0
910.348511 184.0
911.45282 184.0
911.682129 156.0
911.736206 188.0
912.054749 164.0
913.413635 212.0
914.147644 160.0
914.502747 136.0
918.949951 248.0
919.885376 116.0
921.860352 200.0
924.726929 196.0
925.677368 176.0
927.422119 144.0
929.016907 112.0
929.247437 156.0
929.884583 200.0
931.110962 196.0
931.287109 164.0
931.366028 156.0
931.463257 220.0
931.700134 220.0
932.581238 200.0
932.806152 200.0
934.06488 180.0
934.959229 156.0
935.531372 152.0
935.99408 176.0
936.231567 116.0
936.499573 60.0
937.072205 216.0
938.839844 140.0
939.516907 184.0
939.669434 192.0
940.22467 208.0
941.971619 172.0
943.089111 184.0
943.737061 48.0
943.886047 164.0
944.006104 208.0
944.250732 136.0
945.731384 240.0
946.325134 200.0
947.084534 232.0
947.139648 152.0
947.733887 152.0
948.916748 152.0
952.052307 192.0
952.254944 80.0
953.07196 176.0
953.75415 68.0
953.993835 200.0
954.946899 184.0
955.100708 108.0
955.149902 188.0
955.340576 108.0
956.085083 196.0
956.398987 200.0
961.693481 64.0
961.736694 124.0
963.249512 144.0
964.31543 140.0
964.454407 164.0
964.633667 88.0
965.561096 240.0
967.002625 188.0
967.491638 152.0
967.553528 216.0
968.916016 180.0
968.984192 112.0
969.244385 200.0
969.671997 156.0
969.944702 72.0
969.994263 172.0
970.174072 176.0
970.502625 156.0
970.614258 184.0
971.557007 136.0
971.898193 132.0
974.015198 160.0
975.083862 240.0
975.525146 148.0
975.699219 192.0
976.159363 112.0
977.297607 44.0
978.044373 240.0
978.473938 164.0
978.604675 188.0
979.264771 200.0
979.918823 164.0
980.305115 92.0
980.535706 164.0
981.975891 84.0
983.444519 220.0
984.316101 60.0
984.690796 188.0
984.82196 180.0
984.965637 152.0
985.359192 76.0
985.515381 164.0
986.51532 224.0
986.646606 124.0
987.471985 144.0
988.278931 204.0
988.967346 172.0
989.28656 196.0
990.394897 152.0
992.187073 116.0
992.287354 180.0
995.430908 148.0
996.272522 116.0
996.800293 212.0
997.095642 116.0
997.824768 232.0
999.573303 180.0
1000.070496 160.0
1000.630737 188.0
1001.102966 176.0
1001.644653 160.0
1002.299805 152.0
1002.501465 136.0
1002.879639 208.0
1003.301941 180.0
1004.46228 164.0
1004.607361 192.0
1005.787354 204.0
1007.643921 172.0
1008.079895 64.0
1008.288452 152.0
1008.768799 136.0
1008.825684 192.0
1009.028015 120.0
1011.533142 172.0
1011.577454 132.0
1011.625732 184.0
1011.856018 132.0
1012.995911 136.0
1013.185974 184.0
1013.528076 224.0
1014.447021 224.0
1014.947876 176.0
1016.501953 176.0
1016.622498 148.0
1016.977905 216.0
1017.269897 180.0
1017.790527 164.0
1017.961975 176.0
1018.11438 124.0
1018.203247 156.0
1018.450989 136.0
1018.724121 140.0
1019.410278 148.0
1019.499268 40.0
1019.645447 88.0
1020.223816 168.0
1020.897827 220.0
1021.432068 160.0
1021.565613 148.0
1022.921021 48.0
1024.092651 144.0
1024.175415 168.0
1024.423828 128.0
1024.487549 212.0
1025.736572 96.0
1025.899414 312.0
1026.35498 116.0
1026.641846 196.0
1028.645264 284.0
1028.709106 228.0
1028.926147 32.0
1031.398315 144.0
1034.110229 124.0
1034.731201 216.0
1035.256226 180.0
1035.646851 184.0
1036.044067 144.0
1036.178589 220.0
1036.703979 184.0
1036.915527 168.0
1038.537598 148.0
1038.813354 152.0
1039.185547 104.0
1039.461426 220.0
1040.008179 204.0
1040.526855 164.0
1041.554321 236.0
1043.263672 148.0
1043.636475 224.0
1043.687988 176.0
1044.22168 44.0
1045.559814 180.0
1045.952515 208.0
1046.235718 216.0
1046.931152 160.0
1048.947754 56.0
1049.495728 148.0
1049.571411 236.0
1049.650513 116.0
1050.882446 200.0
1051.934326 112.0
1052.121582 160.0
1052.877075 172.0
1053.09021 156.0
1053.36792 140.0
1053.516479 132.0
1054.136719 180.0
1054.448608 156.0
1054.589111 148.0
1055.196777 212.0
1056.231445 160.0
1057.040161 148.0
1057.818848 208.0
1058.54834 164.0
1058.749146 148.0
1061.282837 132.0
1062.242554 80.0
1062.437256 148.0
1062.722656 204.0
1063.008179 168.0
1063.319702 220.0
1063.507935 144.0
1065.345581 216.0
1065.553467 132.0
1065.910767 144.0
1065.980347 200.0
1066.040771 184.0
1067.626953 184.0
1067.730957 152.0
1067.841553 256.0
1068.030151 172.0
1068.901855 60.0
1069.624268 204.0
1070.014893 140.0
1070.724609 172.0
1070.789795 172.0
1075.033813 112.0
1075.477539 156.0
1075.719116 212.0
1075.764771 176.0
1076.339355 176.0
1076.920532 192.0
1077.15564 180.0
1077.828613 176.0
1078.697876 212.0
1078.906982 120.0
1079.18811 148.0
1079.240479 176.0
1080.489624 236.0
1081.346802 188.0
1081.393921 164.0
1082.715088 104.0
1084.621704 28.0
1085.577637 160.0
1086.37915 220.0
1086.648071 216.0
1086.707153 196.0
1087.107422 164.0
1087.264893 192.0
1087.776855 200.0
1088.380859 148.0
1089.365967 148.0
1090.029541 176.0
1090.325195 184.0
1090.463257 164.0
1090.824829 196.0
1092.106934 192.0
1092.613525 232.0
1092.916138 208.0
1093.29126 144.0
1094.239014 152.0
1094.653809 240.0
1094.825073 188.0
1094.937012 160.0
1095.12146 56.0
1095.220215 168.0
1096.083252 60.0
1096.584106 52.0
1096.880737 176.0
1097.605957 124.0
1098.463257 180.0
1098.859131 124.0
1099.255005 316.0
1099.848999 176.0
1100.713745 144.0
1103.792969 184.0
1104.937256 148.0
1105.473267 152.0
1105.731323 192.0
1105.790894 96.0
1106.181396 148.0
1108.307251 216.0
1108.744629 124.0
1108.956665 192.0
1109.288086 200.0
1109.844971 224.0
1111.058716 200.0
1111.363892 120.0
1111.450195 164.0
1111.678711 184.0
1112.286377 176.0
1112.75769 164.0
1113.800293 216.0
1115.062744 136.0
1115.70752 268.0
1115.820435 160.0
1116.319214 180.0
1117.044067 180.0
1118.581177 204.0
1118.900757 172.0
1119.087158 148.0
1119.593262 156.0
1119.639893 204.0
1121.165405 276.0
1121.358765 36.0
1121.978638 32.0
1122.445312 128.0
1122.658691 184.0
1122.838867 132.0
1122.978882 228.0
1123.432495 204.0
1123.912842 136.0
1124.860474 148.0
1124.920532 220.0
1125.572998 184.0
1125.815186 104.0
1126.469727 144.0
1126.750366 172.0
1127.017578 140.0
1127.117798 180.0
1127.522949 200.0
1127.619019 188.0
1127.986694 144.0
1129.216919 180.0
1131.706299 92.0
1132.328979 172.0
1132.891724 120.0
1134.104492 188.0
1134.168579 212.0
1134.345825 228.0
1134.550659 192.0
1134.714478 156.0
1134.801636 152.0
1135.069946 160.0
1135.177124 168.0
1137.250244 212.0
1137.792603 148.0
1138.707764 184.0
1139.842407 192.0
1140.21875 204.0
1140.648926 180.0
1140.776611 160.0
1140.964844 208.0
1141.341431 172.0
1141.583496 156.0
1142.047485 132.0
1143.635376 176.0
1144.146973 40.0
1145.31189 148.0
1145.385986 192.0
1145.514038 164.0
1145.817139 132.0
1146.174316 256.0
1146.605591 188.0
1146.76062 128.0
1146.848145 172.0
1147.407715 160.0
1149.053223 172.0
1149.761719 116.0
1150.355713 128.0
1150.659546 144.0
1150.936279 172.0
1151.051147 52.0
1151.328003 100.0
1151.429321 180.0
1151.915649 172.0
1152.185791 168.0
1152.320923 184.0
1152.618164 108.0
1152.807373 160.0
1153.453125 216.0
1153.544067 168.0
1153.89563 84.0
1154.50415 204.0
1154.713867 156.0
1155.315918 192.0
1156.005981 188.0
1156.337646 60.0
1157.244629 172.0
1157.353027 68.0
1157.46814 124.0
1157.569702 92.0
1157.671265 220.0
1157.87439 208.0
1158.016602 132.0
1158.863403 112.0
1159.087036 172.0
1159.27002 72.0
1160.015503 220.0
1160.184937 56.0
1160.557861 192.0
1160.659546 260.0
1161.222412 188.0
1161.372314 216.0
1161.493774 184.0
1161.751465 180.0
1161.941406 148.0
1162.301025 132.0
1162.423218 132.0
1162.626831 212.0
1162.822021 200.0
1163.149414 232.0
1163.495605 248.0
1163.597412 160.0
1164.364746 124.0
1164.534546 180.0
1165.220581 140.0
1165.954468 172.0
1166.110718 196.0
1166.878906 164.0
1166.940063 256.0
1167.932983 84.0
1168.742554 128.0
1169.525146 188.0
1169.681641 152.0
1171.261353 164.0
1171.595215 212.0
1171.840454 160.0
1173.339844 156.0
1174.09668 152.0
1175.788574 168.0
1176.150269 108.0
1176.969482 256.0
1177.64563 136.0
1178.212524 168.0
1178.294556 96.0
1179.114502 168.0
1179.880127 152.0
1179.982666 104.0
1180.641724 252.0
1181.877197 156.0
1182.743286 164.0
1183.054321 184.0
1183.280273 156.0
1184.382812 172.0
1184.841797 216.0
1185.143188 144.0
1185.417236 156.0
1186.678467 120.0
1187.021362 148.0
1188.317627 148.0
1188.557861 212.0
1189.484985 152.0
1190.22583 156.0
1190.390625 208.0
1190.795776 144.0
1190.857544 204.0
1191.001831 220.0
1191.194092 104.0
1191.427734 156.0
1191.633789 148.0
1191.874268 40.0
1192.135376 160.0
1192.657715 52.0
1192.836426 164.0
1193.125122 64.0
1193.303955 164.0
1193.427612 176.0
1193.578979 32.0
1193.895264 180.0
1194.362915 124.0
1194.521118 184.0
1194.755005 168.0
1195.835327 136.0
1196.04187 228.0
1196.10498 120.0
1196.227661 152.0
1197.997437 184.0
1198.238525 168.0
1198.548584 176.0
1198.679565 136.0
1199.148193 168.0
1199.272217 144.0
1199.761597 124.0
1199.837524 188.0
1200.161499 192.0
1201.244263 176.0
1202.907349 128.0
1203.086792 100.0
1203.390503 128.0
1203.570068 144.0
1204.205322 68.0
1204.426392 188.0
1204.578369 152.0
1205.248535 108.0
1205.435059 152.0
1205.517944 128.0
1206.305908 148.0
1206.464844 140.0
1206.55481 124.0
1207.273926 92.0
1207.36377 136.0
1207.498779 196.0
1207.654297 176.0
1207.723389 220.0
1208.145386 152.0
1208.671143 136.0
1208.899536 216.0
1209.508545 216.0
1209.986206 120.0
1210.16626 216.0
1211.108032 216.0
1212.78479 140.0
1213.006592 48.0
1213.387939 196.0
1213.484985 132.0
1213.998047 216.0
1214.254639 80.0
1214.767944 172.0
1215.385376 220.0
1215.55188 180.0
1215.871094 92.0
1216.079346 156.0
1216.377808 44.0
1216.61377 88.0
1216.73877 52.0
1216.852783 160.0
1216.974854 124.0
1218.120728 116.0
1218.218018 160.0
1218.349976 104.0
1218.565308 196.0
1218.81543 144.0
1220.045654 196.0
1220.873047 60.0
1221.243652 152.0
1221.450317 124.0
1221.61731 60.0
1222.449097 160.0
1223.252563 160.0
1223.691162 160.0
1223.997559 180.0
1224.192505 108.0
1225.244263 168.0
1225.543823 128.0
1226.582153 116.0
1227.544312 164.0
1227.641968 120.0
1227.837158 52.0
1228.025513 124.0
1228.325439 136.0
1228.799805 112.0
1229.002197 188.0
1229.776733 208.0
1229.888428 156.0
1230.509766 200.0
1230.998535 224.0
1231.068359 196.0
1231.445435 156.0
1231.494385 96.0
1232.38855 164.0
1232.544556 224.0
1233.157227 128.0
1233.492676 176.0
1233.66748 36.0
1233.982056 96.0
1234.100952 168.0
1234.45752 168.0
1234.576416 140.0
1235.106201 248.0
1235.169434 112.0
1236.402222 172.0
1236.493286 36.0
1237.144775 156.0
1237.552856 204.0
1237.669312 180.0
1237.956421 120.0
1238.423584 176.0
1238.469971 192.0
1238.845947 48.0
1238.985962 180.0
1239.658691 144.0
1239.896973 136.0
1239.980957 196.0
1240.086182 220.0
1240.275391 140.0
1240.580933 236.0
1240.780151 184.0
1241.312988 92.0
1241.446167 232.0
1241.642578 192.0
1241.69873 184.0
1241.838989 76.0
1241.909058 180.0
1242.161621 60.0
1242.294922 180.0
1243.136841 216.0
1243.256104 164.0
1243.410522 152.0
1243.702148 180.0
1243.986084 352.0
1245.25 84.0
1245.425537 124.0
1246.697144 136.0
1247.013428 120.0
1247.203247 156.0
1247.400024 228.0
1247.494751 216.0
1247.913208 184.0
1249.077515 200.0
1249.143921 116.0
1249.242432 224.0
1249.298706 72.0
1249.488647 184.0
1249.833374 208.0
1250.09375 188.0
1250.41748 196.0
1250.523071 140.0
1251.149536 68.0
1251.783203 112.0
1253.008667 208.0
1253.501953 152.0
1253.854248 148.0
1254.333618 104.0
1254.502808 228.0
1255.45459 148.0
1255.786011 136.0
1256.082275 144.0
1256.703125 48.0
1257.302856 132.0
1257.444092 216.0
1257.71228 124.0
1258.700684 168.0
1259.251465 116.0
1259.336182 188.0
1259.865967 72.0
1260.311035 180.0
1260.501831 84.0
1261.328735 152.0
1261.427734 260.0
1261.533691 128.0
1261.653931 160.0
1261.950806 80.0
1262.092285 188.0
1262.445801 288.0
1263.365356 92.0
1263.775513 212.0
1264.419556 168.0
1264.532837 200.0
1264.639038 164.0
1265.09082 208.0
1265.396484 184.0
1265.552246 220.0
1265.693848 172.0
1266.302856 184.0
1266.465698 148.0
1266.557861 156.0
1267.592163 208.0
1267.981934 208.0
1268.598633 204.0
1268.761597 132.0
1269.428101 136.0
1270.236694 184.0
1270.343018 124.0
1270.555908 204.0
1270.853882 192.0
1271.06665 156.0
1271.570557 96.0
1271.755127 144.0
1271.968018 136.0
1272.713501 152.0
1273.018799 136.0
1274.169434 216.0
1274.226318 208.0
1274.354126 176.0
1274.403931 148.0
1274.517578 32.0
1275.484131 100.0
1276.081299 200.0
1276.216309 116.0
1277.069702 152.0
1277.204834 84.0
1277.475098 172.0
1279.111816 76.0
1279.182983 100.0
1279.614868 168.0
1280.91333 156.0
1281.198242 120.0
1281.288086 168.0
1281.675659 232.0
1281.974854 208.0
1282.580688 196.0
1282.808838 172.0
1283.677979 220.0
1283.970947 116.0
1284.527344 140.0
1284.64856 180.0
1284.948242 120.0
1285.340698 168.0
1285.875854 132.0
1285.932983 152.0
1285.990112 100.0
1286.132812 128.0
1286.197021 192.0
1286.368408 164.0
1286.703857 184.0
1287.089478 176.0
1287.139404 148.0
1287.775024 216.0
1287.824951 156.0
1288.139282 116.0
1288.332153 136.0
1288.453613 172.0
1290.426147 192.0
1290.604858 52.0
1290.783447 172.0
1291.326294 188.0
1291.505981 232.0
1292.307129 176.0
1292.757935 156.0
1293.108643 168.0
1293.307617 144.0
1293.366333 192.0
1294.01062 148.0
1294.082153 80.0
1294.354248 140.0
1294.483154 160.0
1295.027466 100.0
1295.38562 172.0
1295.543213 144.0
1295.686401 172.0
1296.216675 148.0
1296.410156 236.0
1296.602051 164.0
1297.452881 188.0
1297.585693 184.0
1297.800781 148.0
1298.345703 200.0
1298.847778 192.0
1299.593872 184.0
1299.988525 144.0
1300.067383 204.0
1300.519531 188.0
1300.706177 188.0
1301.101074 80.0
1301.359497 68.0
1301.431274 216.0
1301.847778 68.0
1301.962646 120.0
1302.738403 228.0
1302.802979 68.0
1303.356201 196.0
1303.959839 172.0
1304.204224 48.0
1304.297729 92.0
1304.427124 160.0
1304.534912 204.0
1304.657104 140.0
1304.743408 240.0
1304.987793 172.0
1305.433594 176.0
1305.735718 132.0
1305.865112 196.0
1305.944214 200.0
1306.519653 184.0
1306.800293 208.0
1306.9729 128.0
1307.224854 160.0
1307.509155 164.0
1308.347656 160.0
1308.398071 140.0
1308.505981 164.0
1308.995605 164.0
1309.139648 132.0
1309.204468 56.0
1310.061523 132.0
1310.37854 180.0
1310.659546 208.0
1311.156738 152.0
1311.279297 112.0
1311.387451 180.0
1312.064941 176.0
1312.335205 116.0
1312.497559 128.0
1312.554443 148.0
1312.632812 180.0
1312.858154 108.0
1313.211548 156.0
1313.3125 220.0
1314.197388 184.0
1314.661621 152.0
1315.469971 212.0
1317.600342 44.0
1317.67981 200.0
1317.824341 116.0
1318.091675 212.0
1318.171265 176.0
1318.286743 104.0
1318.564209 160.0
1319.175781 124.0
1319.508301 184.0
1320.072266 164.0
1320.961914 184.0
1321.982056 184.0
1322.959106 76.0
1323.154541 52.0
1323.234253 160.0
1323.726562 164.0
1324.051025 164.0
1324.63916 156.0
1324.805786 132.0
1325.160767 216.0
1326.059326 216.0
1326.11731 200.0
1326.426025 192.0
1326.769653 72.0
1327.095947 180.0
1327.219116 92.0
1327.284424 196.0
1327.552734 156.0
1328.350586 132.0
1328.502808 172.0
1328.60437 124.0
1329.039795 168.0
1329.373535 104.0
1329.583984 168.0
1329.700073 180.0
1330.084717 132.0
1331.457031 212.0
1332.154297 104.0
1332.98877 176.0
1333.316772 168.0
1334.215454 184.0
1334.697998 128.0
1334.967041 116.0
1335.272461 148.0
1335.585205 152.0
1335.672485 156.0
1336.545532 176.0
1336.77832 132.0
1336.960327 180.0
1337.018555 224.0
1337.127686 136.0
1337.644409 212.0
1337.804565 168.0
1338.481689 220.0
1338.583618 144.0
1339.086182 252.0
1339.749023 172.0
1340.127808 176.0
1340.233032 252.0
1340.317261 168.0
1340.433838 152.0
1340.492188 116.0
1341.454224 76.0
1341.534424 128.0
1341.636475 140.0
1341.774902 200.0
1341.971802 176.0
1342.314453 160.0
1342.401978 168.0
1342.584351 168.0
1343.021973 184.0
1343.170288 116.0
1343.262573 144.0
1343.364746 184.0
1343.671753 148.0
1343.992188 108.0
1344.291382 48.0
1344.765747 192.0
1344.955444 200.0
1346.444946 52.0
1347.299561 216.0
1347.76709 136.0
1348.410156 52.0
1348.5271 144.0
1349.031494 188.0
1349.550537 108.0
1349.813721 148.0
1349.93811 164.0
1350.025879 228.0
1350.786499 168.0
1350.962036 104.0
1351.130249 100.0
1351.371704 224.0
1351.839966 224.0
1351.957153 168.0
1352.46936 212.0
1352.564575 184.0
1352.637817 148.0
1352.879395 120.0
1353.201416 164.0
1353.289307 144.0
1353.39917 196.0
1353.509033 152.0
1353.582153 64.0
1353.699341 72.0
1353.794556 120.0
1354.160767 144.0
1354.226685 144.0
1354.893188 132.0
1355.003174 188.0
1355.398804 196.0
1357.084595 148.0
1357.641846 176.0
1358.800781 148.0
1359.762085 160.0
1359.945557 228.0
1360.026245 180.0
1360.217163 208.0
1360.562134 124.0
1360.672241 136.0
1361.435913 168.0
1362.7948 196.0
1362.941772 204.0
1364.022095 144.0
1364.073608 88.0
1364.176514 220.0
1364.682373 168.0
1364.737915 216.0
1365.066162 128.0
1365.125 164.0
1365.603027 144.0
1366.065308 228.0
1366.294434 192.0
1366.632812 96.0
1368.200439 56.0
1368.436035 128.0
1368.870483 208.0
1368.995728 172.0
1369.349121 200.0
1369.474365 196.0
1369.813232 140.0
1370.535156 68.0
1371.345825 200.0
1371.470703 144.0
1371.537476 160.0
1372.340942 212.0
1372.511108 184.0
1372.665405 132.0
1372.768677 144.0
1373.211182 144.0
1373.447754 144.0
1373.653687 236.0
1374.723511 232.0
1374.797363 196.0
1375.003906 280.0
1376.509888 56.0
1377.152466 176.0
1377.307495 208.0
1377.654663 160.0
1377.861572 164.0
1378.171875 172.0
1378.423096 152.0
1378.888672 184.0
1379.258179 196.0
1379.620483 144.0
1380.219238 144.0
1380.322876 156.0
1380.892212 224.0
1381.047607 152.0
1381.898315 156.0
1382.194336 196.0
1382.470337 220.0
1382.704834 172.0
1383.341431 140.0
1383.393188 148.0
1383.540894 180.0
1384.155762 192.0
1384.629761 168.0
1384.745117 220.0
1385.022339 156.0
1385.422241 88.0
1385.859375 144.0
1385.948364 176.0
1386.489258 148.0
1386.667114 172.0
1387.030273 68.0
1387.237915 76.0
1387.556641 56.0
1387.74939 232.0
1387.838379 96.0
1387.994141 244.0
1388.112671 92.0
1388.372314 152.0
1389.114014 164.0
1389.314209 164.0
1389.477417 140.0
1389.700073 208.0
1390.152222 208.0
1390.924561 148.0
1391.013672 116.0
1391.355103 96.0
1391.874878 224.0
1391.963867 140.0
1392.4021 160.0
1392.543213 68.0
1393.627686 224.0
1394.27417 196.0
1394.44519 32.0
1394.519531 164.0
1395.426392 144.0
1395.537964 120.0
1396.28894 168.0
1396.950928 204.0
1397.017822 164.0
1397.508911 136.0
1398.21582 236.0
1398.364624 96.0
1398.550781 68.0
1399.064331 200.0
1399.764282 124.0
1400.136597 224.0
1400.397217 344.0
1400.650513 132.0
1401.030396 160.0
1401.991577 152.0
1402.27478 168.0
1402.692139 140.0
1403.803101 228.0
1404.221802 112.0
1404.35498 244.0
1404.489136 160.0
1404.601074 104.0
1405.220215 168.0
1405.3396 132.0
1406.376953 164.0
1406.518677 160.0
1406.638184 232.0
1406.95166 192.0
1407.481812 140.0
1407.758057 136.0
1407.937256 156.0
1408.049072 132.0
1408.811157 132.0
1409.453735 152.0
1409.633057 244.0
1409.692871 152.0
1410.813965 168.0
1411.098022 136.0
1411.307373 52.0
1412.825684 188.0
1412.932617 160.0
1413.189697 116.0
1413.648682 136.0
1415.018433 208.0
1416.651001 164.0
1416.830811 244.0
1417.108032 168.0
1417.310303 176.0
1417.452637 176.0
1417.707397 196.0
1417.936646 208.0
1418.427856 212.0
1418.509399 208.0
1418.672729 184.0
1419.079224 196.0
1419.22168 160.0
1419.825073 92.0
1419.904053 180.0
1420.061523 140.0
1420.144043 164.0
1420.999146 192.0
1421.051758 184.0
1421.441895 148.0
1421.967163 132.0
1422.237427 184.0
1422.342529 192.0
1422.417969 192.0
1422.605225 164.0
1422.672729 120.0
1422.882935 204.0
1423.145752 164.0
1423.23584 152.0
1423.37854 224.0
1423.506226 212.0
1423.611328 164.0
1424.114502 152.0
1424.820557 268.0
1425.677124 180.0
1425.902588 128.0
1426.346069 152.0
1426.609131 40.0
1427.251709 144.0
1427.488892 240.0
1427.759521 164.0
1427.925049 36.0
1428.158203 124.0
1428.887817 124.0
1429.873535 160.0
1429.994019 204.0
1430.054199 140.0
1430.445557 148.0
1430.987671 176.0
1431.18335 160.0
1431.914307 180.0
1432.463745 156.0
1433.450684 164.0
1433.661621 152.0
1433.752075 168.0
1433.978149 148.0
1434.128906 140.0
1434.264648 68.0
1434.343018 188.0
1434.43042 156.0
1434.490723 316.0
1434.606934 116.0
1434.867676 176.0
1434.995117 160.0
1435.161743 176.0
1435.568848 148.0
1435.832886 180.0
1435.983643 132.0
1436.164673 76.0
1436.496582 196.0
1436.738037 140.0
1436.843628 168.0
1436.915283 224.0
1437.409424 88.0
1437.620728 196.0
1438.707642 180.0
1438.813354 176.0
1438.986938 208.0
1439.213501 188.0
1439.665527 168.0
1439.969238 164.0
1440.187622 168.0
1441.192383 140.0
1441.524902 168.0
1442.968506 156.0
1443.807861 64.0
1444.314575 184.0
1445.042847 60.0
1445.426758 224.0
1445.540161 164.0
1445.714233 156.0
1446.221313 164.0
1446.402954 236.0
1446.849609 148.0
1446.963135 220.0
1448.144531 204.0
1448.333862 156.0
1448.401978 152.0
1448.550903 172.0
1448.723633 184.0
1449.075562 184.0
1449.280762 56.0
1450.009277 152.0
1450.099243 144.0
1450.478149 184.0
1451.281738 144.0
1452.017334 36.0
1453.458618 72.0
1453.974731 180.0
1454.042969 204.0
1454.164429 148.0
1454.991821 144.0
1455.25 124.0
1455.477783 140.0
1455.637207 168.0
1455.819458 176.0
1456.191528 172.0
1456.609375 152.0
1456.996704 124.0
1457.239868 56.0
1457.359253 184.0
1457.885742 100.0
1457.938965 220.0
1458.098511 228.0
1458.822021 176.0
1459.132324 144.0
1459.345215 40.0
1459.489624 152.0
1459.710083 184.0
1460.097046 168.0
1460.143555 216.0
1460.592407 188.0
1460.729248 52.0
1461.140015 120.0
1461.330322 184.0
1461.535645 176.0
1462.867554 152.0
1463.468994 188.0
1463.59082 172.0
1463.674561 144.0
1464.116211 196.0
1464.641724 160.0
1464.740845 176.0
1465.477661 160.0
1465.761719 100.0
1466.066528 296.0
1466.500854 144.0
1466.714355 124.0
1467.286011 144.0
1467.73584 232.0
1467.9646 180.0
1468.040894 216.0
1468.210449 104.0
1468.67395 220.0
1469.032471 196.0
1469.238403 72.0
1469.401733 216.0
1469.52832 196.0
1469.810547 96.0
1471.657715 168.0
1472.551147 164.0
1472.650513 200.0
1472.780273 176.0
1472.971313 160.0
1473.02478 40.0
1473.55188 144.0
1474.067871 104.0
1474.288818 244.0
1475.080322 32.0
1475.611816 264.0
1475.714844 184.0
1476.104736 212.0
1476.594238 144.0
1476.724243 176.0
1477.894653 144.0
1478.151001 164.0
1478.269531 104.0
1478.437866 184.0
1478.529785 100.0
1479.011963 116.0
1479.279785 180.0
1480.014771 128.0
1480.849487 176.0
1480.949097 156.0
1481.094604 128.0
1481.309082 76.0
1481.883667 160.0
1482.412354 228.0
1482.511963 188.0
1482.672852 148.0
1482.756226 176.0
1482.987183 204.0
1483.094482 160.0
1483.431763 168.0
1483.600342 164.0
1484.298096 172.0
1485.02063 244.0
1485.594238 124.0
1486.307739 168.0
1486.36145 132.0
1486.91394 92.0
1487.137695 136.0
1487.428223 144.0
1487.681274 148.0
1488.625854 224.0
1489.532104 156.0
1489.831787 416.0
1489.893188 144.0
1490.477173 220.0
1490.646118 144.0
1490.792236 180.0
1490.884033 148.0
1491.1073 160.0
1491.406982 172.0
1491.491577 172.0
1491.606812 188.0
1491.676025 148.0
1491.783691 164.0
1492.221924 224.0
1492.475586 156.0
1492.883179 116.0
1493.09082 152.0
1493.329224 136.0
1493.736816 220.0
1494.536987 112.0
1494.657471 240.0
1494.821045 160.0
1494.983276 200.0
1495.545044 132.0
1495.75293 168.0
1496.168457 176.0
1497.177246 176.0
1497.446777 160.0
1497.639404 168.0
1497.94751 144.0
1498.463623 124.0
1498.588257 220.0
1498.702515 276.0
1498.856567 72.0
1498.956909 140.0
1499.488525 228.0
1499.704224 112.0
1499.796753 164.0
1499.950317 212.0
1500.089722 176.0
1500.197632 140.0
1500.475098 188.0
1501.331055 216.0
1501.490112 236.0
1502.596069 224.0
1502.834595 172.0
1503.298218 184.0
1503.437012 132.0
1503.529663 172.0
1503.884644 188.0
1503.961914 176.0
1504.309204 148.0
1504.587158 196.0
1505.050415 164.0
1505.150757 132.0
