>compound N-Ethyl-o-crotonotoluidide
>formula C13H17NO
>ionization [M+H]+
>parentmass 204.140228
#inchi InChI=1S/C13H17NO/c1-4-8-13(15)14(5-2)12-10-7-6-9-11(12)3/h4,6-10H,5H2,1-3H3/b8-4+
#inchikey DNTGGZPQPQTDQF
#Ion_Source LC-ESI
#Instrument qTof
#Compound_Source Commercial
#PI Dorrestein
#Data_Collector Garg_Neha
#Scan -1
#Precursor_MZ 204.138
#ExactMass 203.131
#Charge 1
#CAS_Number N/A
#Pubmed_ID N/A
#Smiles CCN(C(=O)/C=C/C)c1ccccc1C
#INCHI_AUX N/A
#Library_Class 1
#SpectrumID CCMSLIB00000078989
#IonMode Positive
#UpdateWorkflowName UPDATE-SINGLE-ANNOTATED-GOLD
#LibraryQualityString Gold
#TaskID 278b19f5865741e282cec7349aa7e7a1
##Scan# 1453
#SpectrumFile NCP003352_C2_D11_BC5_01_15719.mzXML
#LibraryName NIHcollectionI_05062014.mgf
#MQScore -1
#Organism NIHcollectionI_05062014
#TIC_Query 0
#RT_Query -1
#MZErrorPPM -1
#SharedPeaks 0
#MassDiff 0
#LibMZ -1
#SpecMZ 204.138
#SpecCharge 0
#internalFilename spec-00000.mgf

>collision 10
45.6661 148.0
47.536289 196.0
47.787743 168.0
48.171001 220.0
48.472614 144.0
48.515579 184.0
48.730694 148.0
49.075871 140.0
49.751518 240.0
49.83168 204.0
50.232906 180.0
50.606003 144.0
50.751942 164.0
50.915134 196.0
50.966476 140.0
51.281551 220.0
51.421974 148.0
51.703522 228.0
51.908379 176.0
53.215679 144.0
53.544319 200.0
53.615704 180.0
53.82431 160.0
54.005524 208.0
54.264576 180.0
54.524544 148.0
54.571583 168.0
54.706932 244.0
55.046043 220.0
55.372215 212.0
56.039608 168.0
56.378582 164.0
56.502689 176.0
56.616447 180.0
56.956909 156.0
57.289143 144.0
59.581215 188.0
60.023811 156.0
60.079334 184.0
60.685596 152.0
61.170303 212.0
61.19677 168.0
62.595051 140.0
62.817276 172.0
63.025673 164.0
63.367432 148.0
63.757782 152.0
63.908848 144.0
63.937492 160.0
64.042572 152.0
64.061684 204.0
66.400482 144.0
66.990509 192.0
67.093178 172.0
68.2425 216.0
69.597374 192.0
69.983124 140.0
70.416298 184.0
70.503571 232.0
70.99575 152.0
71.403854 196.0
71.713638 156.0
71.803001 140.0
71.824928 216.0
71.870476 140.0
72.402962 160.0
72.582588 208.0
73.196007 192.0
73.378319 148.0
73.455055 144.0
73.473824 160.0
73.635986 144.0
74.058441 188.0
74.219528 200.0
74.881142 188.0
75.441925 168.0
75.459213 148.0
75.583748 168.0
75.862595 144.0
76.074234 176.0
76.420074 204.0
76.785889 176.0
77.107132 144.0
77.205032 176.0
77.432541 148.0
77.560448 152.0
77.734077 180.0
77.804283 208.0
77.820084 172.0
77.937759 160.0
78.250839 160.0
79.03627 212.0
79.128304 160.0
79.852295 152.0
80.076546 152.0
80.408165 156.0
80.508141 144.0
80.98745 156.0
81.804459 224.0
82.247894 184.0
82.336365 156.0
82.795723 180.0
83.756523 156.0
83.836685 148.0
84.106613 144.0
84.243561 172.0
84.99971 204.0
85.016228 172.0
85.832985 248.0
86.233582 164.0
86.370407 212.0
86.998589 176.0
87.461449 144.0
88.375374 176.0
88.428276 132.0
88.486305 160.0
89.202942 160.0
89.313881 152.0
89.799828 188.0
90.090515 164.0
90.278152 204.0
90.347618 172.0
90.682777 172.0
91.039444 172.0
91.055389 628.0
91.7015 176.0
91.852135 168.0
92.060165 168.0
92.214912 148.0
92.863968 248.0
92.940697 164.0
93.056725 200.0
93.85627 140.0
94.046814 208.0
94.060768 148.0
94.673668 168.0
94.921707 152.0
95.104073 168.0
95.648315 172.0
96.08094 1120.0
96.194115 208.0
96.855042 152.0
97.064743 200.0
97.083466 196.0
97.516266 212.0
97.758118 136.0
98.065384 176.0
98.953491 220.0
98.987976 192.0
99.352669 144.0
99.501511 176.0
99.594841 172.0
99.926826 212.0
100.468719 200.0
101.479446 168.0
101.705383 156.0
101.755569 172.0
101.785683 192.0
102.648933 228.0
103.712341 176.0
104.05056 208.0
104.852547 176.0
104.885162 188.0
105.070374 440.0
105.685707 172.0
105.785988 196.0
106.043022 156.0
106.065666 5460.0
106.275803 156.0
106.349678 236.0
106.464645 180.0
106.700798 164.0
106.748238 160.0
106.817818 120.0
107.072784 1960.0
107.145477 164.0
108.080696 1760.0
108.401039 216.0
108.816383 136.0
108.860168 164.0
109.082481 164.0
109.875908 164.0
109.95311 172.0
110.032433 144.0
110.061264 168.0
111.217262 228.0
112.220718 164.0
112.948509 172.0
114.143311 168.0
114.579636 156.0
115.060097 168.0
115.68158 156.0
115.897888 160.0
116.049347 924.0
116.395523 180.0
117.016907 184.0
117.058548 412.0
117.105194 144.0
118.066292 364.0
118.953926 160.0
119.036377 192.0
119.073364 268.0
120.079559 172.0
120.111557 172.0
120.915604 192.0
121.089058 2064.0
121.77504 160.0
121.963997 144.0
122.09034 184.0
122.293922 188.0
122.520729 244.0
122.703651 148.0
123.220085 192.0
123.90593 160.0
124.083229 152.0
124.678101 204.0
125.553017 176.0
126.585449 160.0
126.669182 216.0
126.731041 216.0
127.246895 164.0
127.37265 152.0
128.9496 152.0
129.069809 136.0
129.189545 176.0
129.325317 152.0
129.971176 152.0
130.064346 764.0
130.552704 312.0
130.723312 196.0
130.828018 156.0
131.014755 188.0
131.165833 172.0
131.925293 152.0
131.950439 144.0
132.0401 480.0
132.078934 176.0
132.669296 200.0
133.045441 332.0
133.082062 280.0
133.104218 372.0
133.337479 192.0
133.8134 188.0
133.935455 200.0
134.060104 9692.0
134.096252 4144.0
134.128021 112.0
134.229248 108.0
135.01329 184.0
135.062439 640.0
135.097153 304.0
135.342819 344.0
135.905106 156.0
136.112335 14680.0
136.395126 144.0
136.442535 152.0
136.584625 160.0
137.00946 200.0
137.115295 1356.0
138.117462 112.0
138.349945 156.0
138.933472 224.0
142.063766 368.0
142.446182 188.0
143.072891 924.0
143.653061 176.0
143.77713 172.0
144.079056 232.0
144.276352 160.0
144.568146 148.0
145.08696 196.0
145.198212 148.0
146.060486 248.0
146.093933 220.0
146.500977 148.0
147.069275 296.0
147.098984 180.0
147.24147 168.0
147.323593 140.0
147.553177 208.0
148.108994 504.0
148.325409 164.0
148.808167 148.0
149.097229 144.0
149.386566 152.0
151.06488 148.0
152.755035 160.0
152.986359 192.0
153.306549 264.0
153.38678 148.0
154.966858 160.0
155.299225 148.0
155.967133 180.0
156.080139 316.0
157.085663 332.0
157.437088 176.0
157.53949 152.0
157.733353 148.0
157.791901 220.0
158.039505 160.0
158.095718 2920.0
158.522781 148.0
158.806061 140.0
159.004272 156.0
159.071854 168.0
159.101135 552.0
160.074112 216.0
160.536346 236.0
160.667496 176.0
160.834045 152.0
161.085953 168.0
162.060562 140.0
162.091156 6124.0
162.970322 100.0
163.096191 240.0
163.510529 192.0
165.010422 148.0
166.720108 192.0
167.113525 164.0
167.878555 152.0
168.771988 164.0
168.955612 152.0
169.074646 164.0
170.103622 304.0
171.098114 172.0
171.130508 148.0
173.240707 184.0
173.384811 172.0
173.972351 184.0
174.089828 424.0
175.099625 268.0
175.239975 152.0
176.108841 1648.0
176.141418 1216.0
177.10965 128.0
177.197739 216.0
177.279877 160.0
177.911133 156.0
178.989609 164.0
179.843674 180.0
179.985153 152.0
180.981659 128.0
182.431244 228.0
183.354477 184.0
183.467682 160.0
183.486557 236.0
183.907364 156.0
184.488129 192.0
184.912796 148.0
184.990921 148.0
186.132904 812.0
187.132523 156.0
188.106537 384.0
188.264893 172.0
188.401459 176.0
189.112473 368.0
189.150726 200.0
190.119019 152.0
190.450424 188.0
190.472397 172.0
190.53009 192.0
190.780167 152.0
191.845535 156.0
191.895157 148.0
193.422852 152.0
193.467133 180.0
193.663742 208.0
194.121017 164.0
194.193115 144.0
194.520538 152.0
194.942688 156.0
195.067764 140.0
195.373657 192.0
196.616379 156.0
197.742661 156.0
197.829437 156.0
198.386902 156.0
198.793594 188.0
199.065887 164.0
199.419861 148.0
199.796661 168.0
199.833237 188.0
199.99646 184.0
200.266754 184.0
201.296112 160.0
201.796234 140.0
202.127167 180.0
202.28566 196.0
202.77121 112.0
203.016647 184.0
203.133667 192.0
203.158463 144.0
203.236221 108.0
203.262924 220.0
203.310715 248.0
203.487671 156.0
203.513214 140.0
203.535934 184.0
203.631561 196.0
203.6651 116.0
203.694656 156.0
203.753937 132.0
203.792633 288.0
203.873123 108.0
203.921021 296.0
203.941544 152.0
204.004639 140.0
204.03595 220.0
204.070587 552.0
204.093277 428.0
204.140228 177012.0
204.236862 196.0
204.286911 120.0
204.321121 184.0
204.355881 180.0
204.398941 252.0
204.450928 116.0
204.482391 132.0
204.490692 228.0
204.558197 232.0
204.577896 208.0
204.60701 4876.0
204.634766 172.0
204.67627 228.0
204.741898 192.0
204.803589 128.0
204.830582 228.0
204.873932 100.0
205.021027 144.0
205.14183 40708.0
205.351456 148.0
205.413574 196.0
205.442184 104.0
205.47081 120.0
205.980148 136.0
206.036453 172.0
206.144012 3832.0
206.303528 240.0
206.343842 212.0
206.403595 240.0
206.450821 224.0
206.530258 136.0
206.569077 240.0
206.602417 300.0
206.637909 228.0
206.680145 292.0
206.726913 224.0
206.748444 124.0
206.782227 168.0
206.825745 96.0
206.905487 108.0
207.177124 140.0
207.421021 112.0
207.722275 108.0
207.750259 124.0
213.086624 160.0
217.856644 124.0
228.101181 164.0
250.075134 132.0
264.299286 152.0
316.098297 152.0
473.511292 140.0
589.093811 152.0
1089.889404 180.0
1165.823242 172.0
1172.335693 180.0
1177.745972 180.0
1246.132935 220.0
1265.281128 240.0
1352.701538 156.0
1400.015381 156.0
1423.128662 168.0
1426.877686 176.0
1473.427612 272.0
1515.187988 196.0
1538.394043 144.0
1585.34314 260.0
1595.517944 196.0
1603.375 152.0
1611.51416 264.0
1614.023926 212.0
1642.381226 224.0
1653.789917 180.0
1659.606445 192.0
1662.32373 192.0
1680.966553 164.0
1686.846924 140.0
1694.580566 160.0
1699.967651 148.0
1707.320068 148.0
1714.919067 164.0
1728.586914 172.0
1731.078491 144.0
1732.105469 144.0
1747.962769 160.0
1749.668945 164.0
1751.142822 204.0
1759.564941 180.0
1767.12854 160.0
1775.110962 172.0
1787.568359 148.0
1795.099243 188.0
1800.103271 156.0
1824.173462 232.0
1840.949463 172.0
1846.743896 196.0
1852.033447 180.0
1866.597168 144.0
1868.799194 156.0
1872.560913 152.0
1880.121826 168.0
1891.322876 204.0
1897.932861 176.0
1898.930176 168.0
1904.276489 176.0
1904.441528 248.0
1913.868286 220.0
1919.654175 152.0
1919.959351 188.0
1925.143066 160.0
1931.462036 148.0
1931.698242 184.0
1939.684204 144.0
1947.317749 152.0
1950.850098 176.0
1964.658325 140.0
1968.956909 168.0
1975.692261 216.0
1975.984253 200.0
1977.426636 148.0
1984.451294 208.0
2001.101196 160.0
