>compound MLS001048869-01!2-anilinonaphthalene-1,4-dione
>formula C16H11NO2
>ionization [M+H]+
>parentmass 250.087921
#inchi InChI=1S/C16H11NO2/c18-15-10-14(17-11-6-2-1-3-7-11)16(19)13-9-5-4-8-12(13)15/h1-10,17H
#inchikey OPECBHGHSFBITB
#Ion_Source LC-ESI
#Instrument qTof
#Compound_Source NIH Natural Product Library
#PI Dorrestein
#Data_Collector VVP/LMS
#Scan -1
#Precursor_MZ 250.087
#ExactMass 249.079
#Charge 1
#CAS_Number N/A
#Pubmed_ID N/A
#Smiles O=C1C=C(Nc2ccccc2)C(=O)c3ccccc13
#INCHI_AUX N/A
#Library_Class 1
#SpectrumID CCMSLIB00000080117
#IonMode Positive
#UpdateWorkflowName UPDATE-SINGLE-ANNOTATED-GOLD
#LibraryQualityString Gold
#TaskID b1d8e8f6646f4e71acdff9ca3d919d08
##Scan# 2260
#SpectrumFile p2-D04_GD4_01_18016.mzXML
#LibraryName NIH_Natural_Products_Library.mgf
#MQScore -1
#Organism NIH_Natural_Products_Library
#TIC_Query 0
#RT_Query -1
#MZErrorPPM -1
#SharedPeaks 0
#MassDiff 0
#LibMZ -1
#SpecMZ 250.087
#SpecCharge 0
#internalFilename spec-00000.mgf

>collision 10
95.013756 148.0
95.168724 128.0
95.221458 132.0
95.30304 180.0
95.460487 160.0
95.711502 216.0
95.75045 140.0
96.148163 132.0
96.161819 236.0
96.44503 100.0
96.57016 172.0
96.589722 196.0
96.759972 100.0
97.189201 108.0
97.450333 228.0
97.727562 204.0
97.74527 132.0
97.837769 308.0
97.859428 204.0
97.948044 224.0
98.093864 160.0
98.166809 168.0
98.279243 180.0
98.332527 160.0
98.354233 104.0
98.573456 168.0
98.62484 164.0
98.654488 96.0
98.913795 184.0
99.159225 172.0
99.214729 208.0
99.399178 148.0
99.450775 172.0
99.522247 180.0
99.546074 148.0
99.697044 68.0
99.71096 188.0
99.778542 124.0
99.807457 224.0
100.015259 140.0
100.090912 156.0
100.140701 220.0
100.170578 160.0
100.23632 124.0
100.254257 152.0
100.405769 120.0
100.489548 80.0
100.559387 56.0
100.603302 124.0
100.641235 168.0
100.829002 148.0
100.938957 176.0
101.040604 856.0
101.123001 168.0
101.163033 160.0
101.177048 160.0
101.29319 40.0
101.31723 132.0
101.481575 208.0
101.515663 48.0
101.58786 192.0
101.993401 176.0
102.047882 432.0
102.096016 156.0
102.172455 128.0
102.323395 156.0
102.438179 176.0
102.508698 156.0
102.722404 152.0
102.75872 168.0
102.883842 208.0
102.93779 228.0
102.974709 148.0
103.055634 1220.0
103.158455 188.0
103.217209 168.0
103.368919 144.0
103.744278 208.0
103.761856 148.0
103.855141 136.0
103.901794 220.0
103.984985 188.0
104.025467 348.0
104.050201 736.0
104.13726 220.0
104.375023 160.0
104.427902 44.0
104.816727 36.0
104.841179 144.0
104.90844 192.0
104.928833 124.0
104.959053 180.0
104.979805 156.0
105.034286 14960.0
105.079308 220.0
105.126678 76.0
105.149132 80.0
105.259361 184.0
105.30838 200.0
105.373741 132.0
105.465706 52.0
105.496361 160.0
105.580193 232.0
105.842125 168.0
105.866699 144.0
106.036613 1392.0
106.096176 204.0
106.169563 116.0
106.188446 140.0
106.447021 132.0
106.523018 152.0
106.858109 64.0
106.932182 136.0
106.967178 108.0
107.008347 188.0
107.086601 124.0
107.360703 164.0
107.420509 112.0
107.740486 232.0
107.754944 176.0
107.773544 56.0
108.064972 84.0
108.164406 168.0
108.193382 192.0
108.379784 168.0
108.493774 176.0
108.56427 180.0
108.59745 48.0
108.885941 196.0
109.002274 132.0
109.060463 76.0
109.087486 116.0
109.274651 116.0
109.368294 92.0
109.499466 100.0
109.578621 152.0
109.730759 144.0
109.860016 180.0
109.98526 144.0
110.095917 52.0
110.114716 108.0
110.31739 132.0
110.717026 136.0
111.054451 156.0
111.45121 92.0
111.505844 60.0
111.629883 64.0
111.848221 184.0
111.977119 104.0
112.059273 204.0
112.080994 220.0
112.175179 164.0
112.232101 212.0
112.299706 200.0
112.377632 136.0
112.559151 188.0
112.698563 184.0
112.806343 104.0
113.138466 204.0
113.259163 144.0
113.326958 84.0
113.409599 100.0
113.578598 176.0
113.655602 116.0
113.912483 48.0
113.940102 128.0
114.097366 28.0
114.142014 68.0
114.286652 180.0
114.808533 200.0
115.036835 168.0
115.055923 556.0
115.267494 184.0
115.316978 128.0
115.331383 192.0
115.370087 144.0
115.481277 144.0
115.637459 216.0
115.84301 164.0
115.858009 96.0
115.950142 164.0
116.050552 5312.0
116.153831 56.0
116.254669 76.0
116.372726 56.0
116.387756 116.0
116.473656 68.0
116.559593 48.0
116.581085 168.0
116.667053 184.0
116.781021 64.0
116.813286 176.0
116.91095 184.0
116.942383 68.0
116.972519 92.0
117.015572 228.0
117.03495 188.0
117.057495 1136.0
117.252518 220.0
117.53717 104.0
117.588959 240.0
117.649399 52.0
117.802727 128.0
117.858894 176.0
118.066223 704.0
118.107506 52.0
118.867935 204.0
119.048576 576.0
119.117607 32.0
119.230583 140.0
119.271881 216.0
119.448006 172.0
119.593796 120.0
119.711357 176.0
119.763626 116.0
119.994614 100.0
120.043663 292.0
120.065804 156.0
120.105827 80.0
120.441971 152.0
120.562134 240.0
121.036751 140.0
121.098137 208.0
121.183563 200.0
121.457588 108.0
121.505852 136.0
121.635048 160.0
121.872505 40.0
121.94722 108.0
122.193504 136.0
122.713272 160.0
122.854416 200.0
123.099411 200.0
123.382225 104.0
123.417595 196.0
123.435287 180.0
123.610031 160.0
124.004227 32.0
124.084023 316.0
124.210426 156.0
124.990219 172.0
125.215057 132.0
125.366547 184.0
125.542656 140.0
125.602875 168.0
125.68988 160.0
125.788078 156.0
125.870682 96.0
125.97789 240.0
126.033737 168.0
126.402679 160.0
126.751999 140.0
126.778885 120.0
126.964958 148.0
127.001114 164.0
127.05648 184.0
127.075722 84.0
127.306061 156.0
127.46106 164.0
127.917603 44.0
128.054932 492.0
128.169846 68.0
128.318604 184.0
128.336639 128.0
128.429092 120.0
128.469696 56.0
128.505798 192.0
128.684097 176.0
128.713455 148.0
128.792496 196.0
129.034485 8160.0
129.337418 140.0
129.466461 176.0
129.697556 88.0
129.770096 116.0
129.785965 84.0
129.854004 140.0
129.885757 116.0
129.965149 68.0
130.035858 864.0
130.085434 224.0
130.18306 64.0
130.287552 224.0
130.314804 112.0
130.414795 220.0
130.542114 132.0
130.62854 48.0
130.778717 140.0
130.801468 44.0
130.849274 196.0
130.887985 116.0
130.954025 164.0
131.015533 192.0
131.048859 572.0
131.44342 124.0
131.49437 64.0
131.601654 176.0
131.722687 60.0
131.782089 44.0
131.839218 64.0
131.857498 204.0
131.875778 200.0
132.026672 120.0
132.046097 164.0
132.161636 152.0
132.177643 156.0
132.468414 144.0
132.619644 180.0
132.644852 176.0
132.74115 188.0
132.892532 80.0
132.924652 44.0
133.002686 132.0
133.029358 4388.0
133.273666 212.0
133.473633 36.0
133.811996 216.0
134.030182 268.0
134.441132 224.0
134.505753 52.0
134.547302 84.0
135.020981 176.0
135.051041 164.0
135.259293 48.0
135.298645 68.0
135.358841 200.0
135.509399 68.0
135.530243 200.0
135.583542 108.0
135.887299 112.0
135.940674 152.0
136.005661 208.0
136.02887 116.0
136.19838 188.0
136.33313 56.0
136.465622 64.0
136.621445 68.0
136.730804 76.0
136.763382 192.0
136.788986 124.0
137.310898 204.0
137.488205 120.0
137.616592 200.0
137.896912 212.0
138.161133 220.0
138.210266 124.0
138.282806 52.0
138.404541 68.0
138.758331 160.0
138.814606 152.0
138.98584 144.0
139.067963 64.0
139.777695 136.0
140.059082 144.0
140.216537 180.0
140.260483 72.0
140.385437 132.0
140.418457 128.0
140.437317 152.0
140.798416 192.0
141.048157 188.0
141.07486 188.0
141.420212 128.0
141.796783 108.0
141.879745 236.0
141.896347 128.0
142.041 196.0
142.070511 164.0
142.192856 188.0
142.249817 112.0
142.855774 132.0
142.884323 156.0
143.049942 148.0
143.184235 172.0
143.305725 136.0
143.33432 108.0
143.563156 216.0
143.625168 176.0
143.687195 176.0
143.739685 148.0
143.882889 144.0
144.0457 6924.0
144.103302 176.0
144.167114 96.0
144.215881 180.0
144.26033 60.0
144.396622 36.0
144.461212 124.0
144.511444 92.0
144.542557 336.0
144.692459 120.0
144.844208 44.0
145.049469 896.0
145.278076 216.0
145.404434 140.0
145.443649 104.0
145.482056 160.0
145.621323 160.0
145.717407 68.0
145.760666 28.0
145.811127 76.0
145.859192 156.0
145.986618 128.0
146.029984 132.0
146.060028 692.0
146.272919 36.0
146.496872 128.0
146.672775 140.0
146.74028 56.0
146.848785 180.0
146.870499 188.0
146.957336 148.0
147.044861 13976.0
147.116623 44.0
147.176987 40.0
147.225281 44.0
147.302567 72.0
147.469284 44.0
147.488617 100.0
147.565979 132.0
147.61676 148.0
147.633682 184.0
147.761871 148.0
147.965164 36.0
147.984543 40.0
148.047882 1512.0
148.183136 60.0
148.277649 192.0
148.403687 212.0
148.80159 132.0
148.869583 60.0
148.907242 104.0
148.92543 76.0
148.998306 152.0
149.02504 100.0
149.051697 148.0
149.105225 156.0
149.165985 244.0
149.236481 92.0
149.302139 176.0
149.367813 124.0
149.477295 112.0
149.572205 80.0
149.650101 68.0
149.735336 124.0
150.015533 192.0
150.059418 116.0
150.152084 76.0
150.637802 148.0
150.813721 176.0
150.989761 136.0
151.024002 172.0
151.053741 828.0
151.09494 44.0
151.170792 44.0
151.29071 216.0
151.476822 156.0
151.63118 96.0
152.061172 1880.0
152.188995 172.0
152.495087 124.0
152.677017 56.0
152.728668 52.0
153.038742 168.0
153.069199 772.0
153.201294 204.0
154.031708 156.0
154.075562 380.0
154.109177 40.0
155.050873 264.0
155.079239 156.0
155.322876 168.0
156.042389 148.0
156.058624 156.0
156.107025 128.0
156.380692 108.0
156.863907 148.0
156.888824 32.0
157.0336 140.0
157.292938 84.0
157.557648 152.0
157.595123 40.0
157.662582 160.0
157.925095 176.0
158.017654 136.0
158.190063 184.0
158.38063 48.0
158.435745 228.0
158.721466 148.0
158.794189 32.0
159.045013 292.0
159.814072 64.0
159.887054 92.0
160.038086 128.0
160.106064 188.0
160.128738 180.0
160.53447 172.0
160.776657 136.0
160.829651 164.0
160.872559 168.0
161.059418 140.0
161.281769 116.0
161.492935 108.0
161.520828 140.0
161.754776 132.0
162.025742 168.0
162.055817 4512.0
162.145111 284.0
162.309601 144.0
162.598785 108.0
162.839981 228.0
163.057495 588.0
163.152527 116.0
163.534073 60.0
164.063248 280.0
164.250046 148.0
164.278107 120.0
164.301071 168.0
164.334229 80.0
164.52565 160.0
164.656815 248.0
164.834686 188.0
165.070023 2184.0
165.154251 84.0
165.448517 164.0
165.486923 84.0
165.594482 192.0
165.673874 28.0
165.717438 72.0
165.912216 76.0
166.077087 1580.0
166.394516 52.0
166.438171 148.0
166.838959 176.0
167.084122 1764.0
167.170761 136.0
167.350937 88.0
167.523483 60.0
167.660049 176.0
167.907532 140.0
167.98233 176.0
168.05304 304.0
168.087097 316.0
168.436646 212.0
168.788116 68.0
168.917435 136.0
169.018326 152.0
169.060181 304.0
170.008194 48.0
170.052307 172.0
170.678375 176.0
170.948898 80.0
171.008759 212.0
171.060822 96.0
171.302994 208.0
171.362915 184.0
171.422836 52.0
172.038712 360.0
172.404037 172.0
172.58963 176.0
173.048218 216.0
173.978195 196.0
174.053116 172.0
174.096344 136.0
175.057526 320.0
175.07988 160.0
175.235291 236.0
175.446121 220.0
175.620163 124.0
175.894577 52.0
175.994888 168.0
176.062103 2672.0
176.325089 156.0
176.531769 112.0
176.637085 100.0
176.97847 56.0
177.070282 3008.0
177.410324 132.0
177.481064 172.0
177.986038 184.0
178.036499 148.0
178.075241 1704.0
178.124146 204.0
178.161331 116.0
178.639832 124.0
178.81012 108.0
178.967178 40.0
179.083679 832.0
179.145615 176.0
179.174911 168.0
179.257507 144.0
179.553421 36.0
180.023102 148.0
180.049545 164.0
180.083145 1588.0
180.415863 44.0
180.455963 44.0
180.477356 96.0
180.557571 52.0
180.635437 180.0
181.064545 1416.0
181.299133 60.0
181.65036 216.0
181.671829 100.0
181.916031 96.0
182.06012 516.0
182.582367 176.0
183.072067 244.0
183.978088 120.0
184.053391 764.0
184.088791 196.0
184.483261 64.0
184.504883 172.0
184.626556 120.0
184.704987 60.0
184.77803 148.0
184.832138 60.0
184.926865 108.0
185.053665 172.0
185.390259 168.0
185.460434 192.0
185.723434 124.0
186.225555 112.0
187.054855 116.0
187.389832 140.0
187.474289 156.0
187.531525 132.0
188.055191 68.0
188.279068 232.0
188.467545 132.0
188.595978 196.0
188.913177 132.0
189.030823 144.0
189.071869 60.0
189.260742 140.0
189.32373 224.0
189.386719 132.0
189.449722 200.0
189.888275 176.0
190.03093 144.0
190.065475 184.0
190.126968 60.0
190.195572 144.0
190.761429 88.0
190.797165 156.0
190.959396 124.0
191.075699 504.0
191.556686 136.0
192.041809 148.0
192.081909 1020.0
192.312195 120.0
192.389481 44.0
192.684982 44.0
192.771103 164.0
193.09053 2088.0
193.462082 56.0
193.622681 40.0
193.827667 120.0
193.891403 116.0
193.96347 148.0
194.096069 2872.0
194.138138 104.0
194.385025 188.0
195.029327 48.0
195.078918 808.0
195.368561 228.0
195.571701 44.0
195.772141 92.0
195.900269 68.0
196.033997 132.0
196.075256 1144.0
196.231903 60.0
196.510803 76.0
196.778732 124.0
196.946289 88.0
197.052444 116.0
197.085098 244.0
197.133469 136.0
197.715134 40.0
197.813095 216.0
197.877487 224.0
198.241608 160.0
198.269638 220.0
198.292053 40.0
198.709869 44.0
199.074753 164.0
199.288239 140.0
199.895584 188.0
200.095428 180.0
200.35733 156.0
200.560226 152.0
200.819626 140.0
201.059433 172.0
201.324799 252.0
201.629898 200.0
202.048386 136.0
202.070297 188.0
203.014236 88.0
203.072662 3128.0
203.136795 168.0
203.289398 52.0
203.311264 180.0
203.37738 96.0
203.439835 172.0
203.755768 228.0
203.783463 184.0
203.803345 108.0
203.956818 88.0
203.98555 184.0
204.081589 12688.0
204.153259 84.0
204.205521 76.0
204.282806 56.0
204.30658 36.0
204.326492 84.0
204.357788 60.0
204.391922 180.0
204.502914 56.0
204.525681 60.0
204.630875 84.0
204.696503 56.0
204.76973 56.0
204.873077 176.0
204.992752 48.0
205.085922 3720.0
205.116898 64.0
205.226486 48.0
205.329132 64.0
205.386185 160.0
205.531677 188.0
205.603012 100.0
205.714325 68.0
205.954178 104.0
206.002747 32.0
206.092712 448.0
206.565872 192.0
206.603058 92.0
206.80336 112.0
206.984451 172.0
207.066895 2812.0
207.132645 64.0
207.161285 64.0
207.298813 48.0
207.482254 52.0
207.528122 188.0
207.608414 120.0
207.694443 88.0
207.746078 84.0
208.072525 2112.0
208.242661 56.0
208.538589 140.0
208.624817 48.0
209.085022 208.0
209.12532 148.0
209.162735 152.0
209.192551 56.0
209.620651 120.0
210.057602 108.0
210.087723 128.0
210.725739 164.0
211.071594 228.0
211.092834 164.0
211.804779 72.0
211.903275 68.0
212.410583 152.0
212.982407 144.0
214.061371 132.0
215.079208 376.0
215.680542 112.0
215.934906 52.0
216.253815 112.0
216.411896 72.0
217.170868 184.0
217.258881 52.0
217.314621 160.0
217.608109 160.0
217.945877 64.0
218.060486 196.0
219.007874 56.0
219.116867 248.0
219.284821 100.0
220.076019 5620.0
220.258499 60.0
220.320526 52.0
220.344162 48.0
220.468262 64.0
220.55397 164.0
221.041946 92.0
221.083817 1932.0
221.317215 116.0
221.607483 48.0
221.728973 152.0
221.820847 144.0
221.884827 344.0
221.936478 68.0
222.056976 336.0
222.092987 10856.0
222.179672 116.0
222.247208 120.0
222.25177 92.0
222.330994 44.0
222.364517 136.0
222.42894 92.0
222.473465 108.0
222.503143 40.0
222.559555 56.0
222.604095 48.0
222.666458 120.0
222.696167 96.0
222.767456 132.0
222.871429 48.0
223.095352 1428.0
223.186493 28.0
223.281647 96.0
223.37088 44.0
223.399216 76.0
223.430374 144.0
223.522614 92.0
223.552368 68.0
223.641647 100.0
223.722015 60.0
224.031723 60.0
224.095184 408.0
224.133026 100.0
224.422134 104.0
224.487732 52.0
224.702499 44.0
225.093491 116.0
225.248795 48.0
225.395187 124.0
225.658203 196.0
226.588974 84.0
227.068588 192.0
228.080399 176.0
228.384079 44.0
228.946884 124.0
229.127609 124.0
229.594803 168.0
229.618942 244.0
230.059814 172.0
230.690826 128.0
231.073715 144.0
231.880356 156.0
231.968262 140.0
232.015015 192.0
232.077087 7728.0
232.159271 48.0
232.186569 48.0
232.292725 140.0
232.395874 60.0
232.518356 88.0
232.577942 56.0
232.781357 148.0
232.948395 124.0
233.02739 56.0
233.083405 5048.0
233.145889 84.0
233.189697 216.0
233.352585 88.0
233.702347 56.0
234.084305 444.0
234.292984 168.0
234.573334 148.0
234.634308 64.0
234.661743 76.0
234.728821 144.0
234.896561 80.0
234.924026 132.0
235.064209 120.0
235.096191 232.0
235.168121 36.0
235.351288 152.0
235.461227 124.0
235.608109 88.0
235.644501 44.0
236.00209 96.0
236.071747 212.0
237.073441 208.0
237.48732 184.0
238.715759 116.0
238.814163 48.0
239.097214 40.0
239.226486 172.0
239.669968 76.0
239.83638 116.0
239.916534 232.0
240.558182 104.0
240.697113 124.0
241.429474 40.0
242.398376 192.0
242.925446 172.0
242.975082 168.0
243.462387 232.0
245.220154 216.0
246.071732 172.0
246.449646 108.0
247.062424 124.0
247.121872 172.0
247.206345 108.0
247.356583 116.0
247.888992 152.0
247.939133 128.0
248.071335 1996.0
248.12471 172.0
248.180511 124.0
248.218124 120.0
248.337296 64.0
248.406311 88.0
248.546432 112.0
248.716949 132.0
248.81427 100.0
248.855072 220.0
249.078873 7004.0
249.12941 148.0
249.187988 100.0
249.300537 108.0
249.304596 192.0
249.436264 84.0
249.461411 176.0
249.747543 132.0
249.860794 56.0
249.885956 92.0
249.923706 44.0
250.002151 220.0
250.013153 160.0
250.087921 21504.0
250.184937 64.0
250.247894 88.0
250.290176 84.0
250.348663 124.0
250.399582 96.0
250.433685 92.0
250.565994 36.0
250.625488 68.0
250.679001 148.0
250.729843 92.0
250.797867 48.0
250.850479 116.0
250.972565 52.0
251.044022 200.0
251.089691 1824.0
251.155472 160.0
251.209091 56.0
251.281647 72.0
251.303741 68.0
251.327988 76.0
251.376312 88.0
251.654068 144.0
251.679337 76.0
251.755112 68.0
251.783539 96.0
251.879715 64.0
251.93515 72.0
251.995178 68.0
252.040421 164.0
252.090057 836.0
252.333344 92.0
252.467911 72.0
252.578369 64.0
252.679871 68.0
252.76799 96.0
252.807114 128.0
253.00087 48.0
253.089523 108.0
253.827805 72.0
254.024429 96.0
254.072021 48.0
254.176712 84.0
257.034119 68.0
262.73877 52.0
263.058228 140.0
263.7565 96.0
264.069275 352.0
264.930573 56.0
265.063416 144.0
269.674835 52.0
277.489746 72.0
278.286011 84.0
278.339142 40.0
279.522461 80.0
302.212891 164.0
308.577728 32.0
316.412811 112.0
319.158936 60.0
327.119171 60.0
330.51886 120.0
336.841095 92.0
356.212219 112.0
357.351288 108.0
360.97226 72.0
382.579071 108.0
391.018127 56.0
424.127838 132.0
427.935944 68.0
428.60318 40.0
434.498993 84.0
472.30127 116.0
477.275421 60.0
492.416138 68.0
501.061432 124.0
527.256775 100.0
536.846802 72.0
538.212646 60.0
538.415833 52.0
612.184082 116.0
612.440186 184.0
638.57135 84.0
656.275024 120.0
661.613892 20.0
678.480591 120.0
732.028198 44.0
773.69635 156.0
778.814453 96.0
830.189453 28.0
836.935364 172.0
843.298218 40.0
850.079651 104.0
850.253784 60.0
851.850464 176.0
869.383606 176.0
896.092773 272.0
923.707947 124.0
929.76062 208.0
931.563904 196.0
932.900757 96.0
957.023743 140.0
964.339844 128.0
964.562317 160.0
976.379639 180.0
978.937256 132.0
984.455933 156.0
989.439209 260.0
1007.001648 152.0
1016.814758 184.0
1021.465576 168.0
1026.040283 172.0
1031.387085 180.0
1032.493164 192.0
1041.838257 196.0
1044.686035 88.0
1049.509766 144.0
1050.360962 168.0
1051.651489 136.0
1055.812012 212.0
1056.620605 212.0
1061.984009 76.0
1064.261719 108.0
1067.04248 64.0
1069.319092 48.0
1074.70813 192.0
1084.864624 92.0
1093.021606 56.0
1094.015381 144.0
1094.4104 44.0
1094.943726 172.0
1099.974365 192.0
1100.654419 168.0
1113.361694 168.0
1123.098389 52.0
1123.518677 188.0
1136.148926 152.0
1138.511475 100.0
1139.263794 148.0
1140.849731 172.0
1143.499756 172.0
1145.580322 60.0
1147.393066 240.0
1153.96875 220.0
1155.781372 180.0
1157.615723 196.0
1163.100464 184.0
1164.342896 200.0
1166.265503 128.0
1167.530151 192.0
1170.551514 164.0
1175.66394 212.0
1179.919189 192.0
1183.442627 96.0
1184.387695 132.0
1187.931396 144.0
1189.413574 88.0
1190.690552 128.0
1196.948242 240.0
1200.648682 160.0
1205.03186 132.0
1205.239136 40.0
1205.349609 104.0
1207.859131 176.0
1209.187622 140.0
1210.322876 176.0
1211.345825 72.0
1213.731812 164.0
1222.532471 188.0
1223.033813 84.0
1223.681152 220.0
1227.714966 196.0
1227.994507 208.0
1228.050293 228.0
1228.657104 172.0
1228.866455 208.0
1236.765137 164.0
1237.511963 172.0
1238.6604 212.0
1239.269897 160.0
1239.606201 204.0
1240.089722 144.0
1240.678467 176.0
1243.049072 168.0
1243.828125 132.0
1244.235229 56.0
1246.384399 32.0
1246.616211 224.0
1246.742798 68.0
1249.970459 156.0
1250.526367 212.0
1251.751221 132.0
1255.690552 168.0
1255.739868 216.0
1256.452271 192.0
1258.075439 144.0
1260.314209 144.0
1261.409546 100.0
1262.866089 160.0
1263.432007 144.0
1268.89917 176.0
1269.033936 36.0
1269.665039 148.0
1270.799927 184.0
1271.268188 164.0
1272.425171 152.0
1274.442139 60.0
1275.685791 188.0
1276.240356 60.0
1276.823486 160.0
1277.620117 144.0
1278.566406 64.0
1281.05127 180.0
1290.228271 120.0
1290.635864 128.0
1293.490234 128.0
1294.592773 176.0
1295.724487 200.0
1298.993408 52.0
1300.040894 108.0
1302.345337 200.0
1302.776367 212.0
1305.032959 144.0
1307.341919 132.0
1308.723877 224.0
1311.237915 256.0
1311.38916 176.0
1314.439697 204.0
1315.803711 148.0
1316.106934 176.0
1317.118042 160.0
1317.594727 136.0
1319.473755 184.0
1319.668945 68.0
1319.943726 176.0
1321.02124 136.0
1323.192261 152.0
1325.089722 140.0
1328.301147 176.0
1328.866943 224.0
1328.983032 140.0
1329.628906 188.0
1330.354736 108.0
1330.855591 96.0
1334.452026 140.0
1334.946411 176.0
1338.941528 224.0
1339.08728 136.0
1339.422241 168.0
1341.280273 60.0
1341.367798 184.0
1347.40271 136.0
1348.286743 196.0
1349.397827 60.0
1350.165527 200.0
1350.399658 116.0
1350.948242 200.0
1352.338379 172.0
1353.546265 76.0
1354.886597 136.0
1358.075195 148.0
1359.138916 176.0
1361.654175 120.0
1361.715454 120.0
1361.766846 148.0
1362.758545 132.0
1363.603638 60.0
1365.125366 96.0
1366.883423 204.0
1367.258667 96.0
1369.172729 260.0
1370.152344 188.0
1371.405029 176.0
1372.21582 156.0
1372.953247 204.0
1373.33667 220.0
1373.742432 196.0
1378.120239 156.0
1378.4823 176.0
1378.984741 224.0
1379.103027 180.0
1380.256226 136.0
1381.617065 64.0
1382.793579 220.0
1384.962891 124.0
1385.510986 172.0
1385.918457 164.0
1386.007446 64.0
1388.097656 132.0
1388.342407 164.0
1389.269531 228.0
1389.521729 72.0
1391.681396 56.0
1393.322754 204.0
1393.612549 76.0
1396.087769 168.0
1396.295898 136.0
1397.538208 120.0
1398.334351 220.0
1399.123413 128.0
1399.584961 128.0
1400.27002 200.0
1400.486084 136.0
1401.894043 176.0
1402.400879 200.0
1402.870483 224.0
1408.900024 40.0
1410.449341 248.0
1410.544067 112.0
1413.064087 180.0
1413.789917 156.0
1416.148193 96.0
1419.055542 200.0
1419.75293 36.0
1420.525391 60.0
1421.15564 192.0
1426.2771 180.0
1426.615356 224.0
1427.720581 184.0
1429.0896 168.0
1429.383057 176.0
1429.744263 64.0
1429.924805 176.0
1431.385254 172.0
1431.912354 192.0
1433.896606 172.0
1434.632446 76.0
1434.685181 172.0
1437.189087 152.0
1438.253052 156.0
1439.989624 200.0
1441.568481 148.0
1442.61145 188.0
1444.501831 136.0
1445.122192 104.0
1450.195801 176.0
1452.030518 148.0
1452.705566 144.0
1453.972534 28.0
1455.468018 136.0
1456.553955 172.0
1457.116089 224.0
1457.473999 196.0
1457.663086 180.0
1457.959473 188.0
1465.667847 216.0
1465.896362 160.0
1467.0625 84.0
1467.298828 132.0
1470.365112 172.0
1475.803833 152.0
1476.943237 148.0
1477.802612 180.0
1479.162231 196.0
1480.065552 36.0
1482.072266 192.0
1482.125854 184.0
1484.088013 148.0
1484.709106 232.0
1485.959351 172.0
1486.036133 84.0
1487.824219 188.0
1488.814697 148.0
1489.650269 212.0
1492.272461 204.0
1492.687622 168.0
1493.441284 172.0
1493.556641 196.0
1499.84729 208.0
1500.12561 176.0
1500.205078 164.0
1501.998535 92.0
1502.908813 144.0
1503.425781 80.0
1503.958252 44.0
