>compound MLS001076854-01!
>formula C21H23N3O4S
>ionization [M+H]+
>parentmass 414.149
#inchi InChI=1S/C21H23N3O4S/c1-27-16-7-14(8-17(9-16)28-2)20(26)22-21(29)23-10-13-6-15(12-23)18-4-3-5-19(25)24(18)11-13/h3-5,7-9,13,15H,6,10-12H2,1-2H3,(H,22,26,29)/t13-,15-/m1/s1
#inchikey UBZYZLLHTDJVEC
#Ion_Source LC-ESI
#Instrument qTof
#Compound_Source NIH Natural Product Library
#PI Dorrestein
#Data_Collector VVP/LMS
#Scan -1
#Precursor_MZ 414.149
#ExactMass 413.141
#Charge 1
#CAS_Number N/A
#Pubmed_ID N/A
#Smiles COc1cc(OC)cc(c1)C(=O)NC(=S)N2C[C@H]3C[C@H](C2)c4cccc(=O)n4C3
#INCHI_AUX N/A
#Library_Class 1
#SpectrumID CCMSLIB00000080050
#IonMode Positive
#UpdateWorkflowName UPDATE-SINGLE-ANNOTATED-GOLD
#LibraryQualityString Gold
#TaskID b1d8e8f6646f4e71acdff9ca3d919d08
##Scan# 1800
#SpectrumFile p2-E03_GE3_01_18027.mzXML
#LibraryName NIH_Natural_Products_Library.mgf
#MQScore -1
#Organism NIH_Natural_Products_Library
#TIC_Query 0
#RT_Query -1
#MZErrorPPM -1
#SharedPeaks 0
#MassDiff 0
#LibMZ -1
#SpecMZ 414.149
#SpecCharge 0
#internalFilename spec-00000.mgf

>collision 10
94.975586 208.0
95.00856 64.0
95.051247 172.0
95.103645 228.0
95.187126 168.0
95.229851 164.0
95.367798 176.0
95.424179 128.0
95.486404 148.0
95.540863 172.0
95.852386 128.0
95.947891 132.0
96.020042 180.0
96.043442 160.0
96.117577 88.0
96.139259 180.0
96.160515 168.0
96.226883 44.0
96.351875 148.0
96.872253 156.0
97.009422 212.0
97.127083 236.0
97.144737 136.0
97.244705 152.0
97.417603 208.0
97.688881 184.0
97.734131 176.0
97.976295 148.0
98.053146 128.0
98.086655 148.0
98.153687 172.0
98.321365 144.0
98.386497 144.0
98.479309 80.0
98.558327 164.0
98.692734 116.0
98.718445 148.0
98.748108 124.0
98.809425 132.0
98.965248 132.0
99.005386 204.0
99.039055 168.0
99.098488 60.0
99.148026 104.0
99.36615 180.0
99.628204 200.0
99.964226 152.0
100.13942 180.0
100.177261 208.0
100.577904 240.0
100.604019 180.0
100.636765 172.0
100.697868 48.0
100.761787 88.0
100.817734 104.0
100.833725 172.0
100.847717 208.0
100.865219 180.0
100.903687 240.0
100.947678 124.0
100.979675 224.0
101.0737 80.0
101.319962 212.0
101.36805 196.0
101.518402 224.0
101.59462 108.0
101.927902 128.0
102.074646 204.0
102.169174 80.0
102.289833 200.0
102.4067 184.0
102.601883 144.0
102.741318 84.0
102.867355 172.0
102.995667 216.0
103.015869 96.0
103.056625 312.0
103.142006 180.0
103.213928 120.0
103.302917 184.0
103.327194 148.0
103.450645 168.0
103.491135 252.0
103.537712 176.0
103.5924 220.0
103.661285 192.0
103.738304 168.0
103.770737 176.0
103.884308 180.0
104.049072 360.0
104.073051 52.0
104.272133 140.0
104.296524 128.0
104.310753 144.0
104.35141 128.0
104.379875 112.0
104.41851 48.0
104.487671 160.0
104.89904 160.0
104.929619 72.0
105.033623 184.0
105.069855 200.0
105.099556 152.0
105.225449 224.0
105.264244 156.0
105.362289 120.0
105.605537 160.0
105.648499 184.0
105.793098 200.0
105.900276 200.0
105.951485 80.0
106.064514 176.0
106.086739 180.0
106.131844 176.0
106.254906 104.0
106.281578 108.0
106.320564 144.0
106.36161 172.0
106.386246 140.0
106.546432 88.0
106.566978 128.0
106.682068 36.0
106.714958 356.0
106.745804 148.0
106.767273 136.0
106.788994 224.0
106.838356 52.0
106.906258 216.0
106.974182 212.0
107.012871 1268.0
107.049309 2436.0
107.087425 148.0
107.138924 156.0
107.16983 116.0
107.37748 152.0
107.470863 212.0
107.525719 252.0
107.629799 148.0
107.664902 80.0
107.70414 168.0
107.937675 64.0
108.015129 296.0
108.049812 300.0
108.094887 160.0
108.16111 64.0
108.389359 120.0
108.446953 140.0
108.574539 212.0
108.749771 172.0
108.928345 48.0
108.988586 168.0
109.034767 72.0
109.064178 1432.0
109.086273 136.0
109.296326 176.0
109.612831 120.0
109.729553 96.0
109.971535 152.0
110.062874 440.0
110.113503 132.0
110.165726 44.0
110.29319 148.0
110.356606 156.0
110.487671 176.0
110.611137 184.0
110.659286 220.0
110.730484 84.0
111.038567 76.0
111.055351 144.0
111.223206 92.0
111.349182 184.0
111.407997 36.0
111.534081 60.0
111.563507 64.0
111.626587 64.0
111.695984 88.0
111.75489 208.0
111.891693 176.0
112.021202 400.0
112.16774 232.0
112.209824 208.0
112.359566 180.0
112.510109 160.0
112.572746 136.0
112.693146 200.0
112.707939 76.0
112.758659 160.0
112.838982 104.0
112.893959 40.0
113.006065 160.0
113.117935 144.0
113.169037 92.0
113.200806 88.0
113.368156 136.0
113.522903 144.0
113.618355 136.0
113.726578 136.0
113.752045 184.0
113.785759 144.0
113.962296 200.0
114.004845 160.0
114.068558 144.0
114.128082 56.0
114.223785 88.0
114.247185 120.0
114.308891 152.0
114.442986 236.0
114.51326 188.0
114.600601 168.0
114.670921 108.0
114.747665 144.0
114.79422 144.0
114.81163 172.0
115.054558 160.0
115.095444 168.0
115.187279 172.0
115.223595 164.0
115.443756 132.0
115.47834 188.0
115.599915 136.0
115.623459 220.0
115.784019 168.0
115.871849 164.0
116.050751 224.0
116.107635 196.0
116.139809 172.0
116.199875 108.0
116.290001 172.0
116.476799 92.0
116.930473 172.0
117.056953 580.0
117.279388 196.0
117.324661 80.0
117.449791 136.0
117.464828 184.0
117.559761 140.0
117.676323 152.0
117.835518 164.0
117.972298 120.0
118.024185 172.0
118.039322 220.0
118.063324 536.0
118.350914 248.0
118.758324 192.0
118.795204 180.0
118.832085 204.0
118.931908 144.0
119.077377 188.0
119.094749 188.0
119.15992 96.0
119.249016 208.0
119.483864 112.0
119.575256 204.0
119.640556 176.0
119.688454 184.0
120.032372 168.0
120.039963 140.0
120.079582 332.0
120.196335 168.0
120.436478 152.0
120.467064 80.0
120.928436 172.0
121.024757 168.0
121.11235 124.0
121.300987 180.0
121.550819 48.0
121.588127 148.0
121.640892 192.0
121.752777 172.0
121.86261 156.0
121.884583 144.0
121.968094 192.0
122.013275 352.0
122.036346 15184.0
122.104416 148.0
122.135208 124.0
122.161606 128.0
122.191544 184.0
122.304634 44.0
122.344254 204.0
122.36187 48.0
122.381683 80.0
122.410309 48.0
122.441139 92.0
122.483643 188.0
122.560097 172.0
122.716583 140.0
122.751862 28.0
122.793762 168.0
122.943787 160.0
122.989365 172.0
123.018631 180.0
123.040749 820.0
123.151314 216.0
123.23526 168.0
123.321449 168.0
123.378922 232.0
123.436401 128.0
123.673126 100.0
123.817032 116.0
123.856163 144.0
123.974487 112.0
123.99649 100.0
124.016434 144.0
124.038605 108.0
124.078506 124.0
124.109543 236.0
124.408195 164.0
124.44458 172.0
124.533409 172.0
124.580055 160.0
124.637817 224.0
124.711159 236.0
124.926849 128.0
125.024689 156.0
125.028435 152.0
125.060471 400.0
125.09597 128.0
125.140495 84.0
125.189484 136.0
125.211754 92.0
125.369926 148.0
125.494759 124.0
125.697739 188.0
125.771385 140.0
125.958946 120.0
126.233849 48.0
126.408333 160.0
126.495621 244.0
126.54776 96.0
126.618767 116.0
126.744209 144.0
126.822647 88.0
126.984077 180.0
127.033424 216.0
127.327461 120.0
127.433037 96.0
127.491463 96.0
127.63533 120.0
127.725288 180.0
127.813026 180.0
128.055038 184.0
128.144012 120.0
128.186386 168.0
128.495728 204.0
128.565674 200.0
128.583725 152.0
128.805008 168.0
128.940567 204.0
129.015152 148.0
129.035507 152.0
129.074707 308.0
129.123688 236.0
129.225494 152.0
129.345093 244.0
129.970932 192.0
130.029938 200.0
130.065079 400.0
130.568375 184.0
130.585403 224.0
130.704865 152.0
130.773132 196.0
130.925674 68.0
131.07135 204.0
131.098816 48.0
131.135269 184.0
131.240143 196.0
131.452271 160.0
131.554977 136.0
131.644028 140.0
131.687408 132.0
131.717102 172.0
131.817627 52.0
131.835922 264.0
132.044891 1672.0
132.080185 436.0
132.14003 52.0
132.302521 76.0
132.485733 108.0
132.845642 180.0
132.873169 188.0
132.948898 188.0
133.051926 1392.0
133.084412 208.0
133.302536 136.0
133.431259 256.0
133.677368 196.0
133.845398 68.0
133.884552 144.0
133.912582 236.0
133.97438 132.0
134.05957 732.0
134.090851 324.0
134.126465 132.0
134.274033 136.0
134.336304 40.0
134.442444 212.0
134.537079 160.0
134.654846 184.0
134.796967 184.0
134.839676 152.0
134.927505 140.0
135.058182 764.0
135.094986 160.0
135.128723 148.0
135.258316 148.0
135.309235 220.0
135.786591 168.0
135.867767 184.0
135.892395 176.0
136.1138 116.0
136.13237 152.0
136.243866 48.0
136.262451 260.0
136.360046 92.0
136.518127 156.0
136.553009 128.0
136.622803 100.0
136.639084 140.0
136.676315 120.0
136.722855 120.0
136.757767 32.0
136.804321 148.0
136.846298 256.0
136.930054 124.0
136.953339 60.0
136.99295 132.0
137.059708 16520.0
137.135986 92.0
137.171661 116.0
137.358917 176.0
137.44075 252.0
137.482574 100.0
137.56427 56.0
137.606293 168.0
137.634216 184.0
137.723053 140.0
137.832855 36.0
137.860901 196.0
137.984787 48.0
138.02092 180.0
138.061722 1444.0
138.130981 68.0
138.202301 200.0
138.277176 208.0
138.316971 196.0
138.368469 52.0
138.476181 240.0
138.797241 96.0
138.861725 208.0
138.972244 184.0
139.045898 72.0
139.063843 168.0
139.114807 124.0
139.203186 68.0
139.261902 40.0
139.377014 196.0
139.433411 172.0
139.548599 168.0
139.62384 144.0
139.990967 148.0
140.06633 140.0
140.210052 68.0
140.234848 192.0
140.360931 180.0
140.405731 184.0
140.490646 132.0
140.542542 180.0
140.655823 180.0
140.684158 156.0
140.965225 160.0
141.019577 96.0
141.128311 180.0
141.218185 144.0
141.324631 112.0
141.585022 188.0
141.909653 196.0
142.062103 216.0
142.170578 48.0
142.301132 180.0
142.436493 148.0
142.517273 80.0
142.579056 128.0
142.719315 168.0
142.878662 216.0
143.075821 312.0
143.730804 128.0
143.831863 152.0
143.881989 108.0
143.948853 148.0
144.058716 52.0
144.081177 424.0
144.123215 92.0
144.242706 56.0
144.34552 176.0
144.434006 72.0
144.747528 124.0
144.793015 164.0
145.051071 660.0
145.69252 160.0
146.015839 156.0
146.060303 2028.0
146.094421 1564.0
146.243164 84.0
146.370758 56.0
146.416519 160.0
146.520096 72.0
146.652634 144.0
146.891342 60.0
147.012405 180.0
147.031281 140.0
147.063217 792.0
147.098373 196.0
147.267883 168.0
147.292038 216.0
147.35968 160.0
147.415253 68.0
147.49501 204.0
147.540939 92.0
147.557861 88.0
147.652283 172.0
147.747162 220.0
147.876251 292.0
147.913483 172.0
147.968994 224.0
147.993668 132.0
148.028168 172.0
148.047974 168.0
148.076279 21136.0
148.170181 72.0
148.200333 132.0
148.252563 52.0
148.303452 168.0
148.347092 108.0
148.397995 84.0
148.48497 152.0
148.708511 76.0
148.727921 292.0
148.788605 76.0
148.823257 104.0
149.079803 1556.0
149.17244 52.0
149.196747 60.0
149.255569 200.0
149.427795 120.0
149.632233 104.0
149.875793 348.0
150.038986 100.0
150.078629 92.0
150.200027 96.0
150.244888 52.0
150.285416 104.0
150.314697 148.0
150.343979 148.0
150.468475 104.0
150.627197 176.0
150.712708 180.0
150.847122 176.0
151.373154 60.0
151.431931 156.0
151.466217 96.0
151.730881 140.0
151.804428 160.0
151.84613 156.0
151.92952 228.0
152.017853 120.0
152.035034 96.0
152.111115 48.0
152.703278 256.0
152.747543 96.0
153.057648 36.0
153.409958 140.0
153.483932 56.0
153.740479 184.0
153.772552 28.0
153.878708 120.0
153.975006 136.0
154.068924 308.0
154.140518 172.0
154.160934 76.0
154.803467 204.0
154.953018 212.0
154.999161 308.0
155.020737 180.0
155.070679 5412.0
155.105942 156.0
155.160263 184.0
155.232162 76.0
155.336334 48.0
155.452942 76.0
155.591934 60.0
155.654007 192.0
155.693741 52.0
155.764114 168.0
155.80304 168.0
155.962067 148.0
155.996872 160.0
156.075439 1188.0
156.26297 132.0
156.292831 132.0
156.355042 60.0
156.394867 228.0
156.434692 60.0
156.676254 168.0
156.795853 168.0
156.813293 100.0
157.054398 184.0
157.084061 300.0
157.134979 36.0
157.157425 124.0
157.252258 212.0
157.302185 60.0
157.545731 228.0
157.584381 116.0
157.634354 96.0
157.769318 164.0
157.811829 76.0
157.904343 92.0
158.06105 1844.0
158.09198 112.0
158.239655 56.0
158.292236 100.0
158.615433 104.0
159.06871 1896.0
159.154816 72.0
159.184952 92.0
159.285416 264.0
159.349075 140.0
159.413544 72.0
159.526642 148.0
159.695114 120.0
159.722794 148.0
159.771698 164.0
159.795746 120.0
159.825745 164.0
159.851089 188.0
159.868713 140.0
159.973663 180.0
160.004639 188.0
160.024246 152.0
160.075989 15892.0
160.114517 144.0
160.150681 220.0
160.167892 48.0
160.226257 224.0
160.256485 96.0
160.294281 44.0
160.33461 56.0
160.354767 108.0
160.431473 92.0
160.497818 172.0
160.629608 164.0
160.73468 104.0
160.811279 68.0
160.897095 60.0
160.937729 156.0
160.957703 108.0
161.081085 4580.0
161.121872 80.0
161.154999 172.0
161.303116 172.0
161.331619 156.0
161.389206 216.0
161.432755 132.0
161.493454 124.0
161.61235 104.0
161.632599 184.0
161.779388 176.0
161.976913 80.0
162.086853 908.0
162.127762 216.0
162.159973 128.0
162.221176 132.0
162.236603 100.0
162.336807 228.0
162.412888 128.0
162.431259 132.0
162.676788 168.0
162.93074 176.0
163.073044 148.0
163.134048 72.0
164.068329 124.0
164.111664 152.0
164.175415 156.0
164.568375 88.0
164.632217 72.0
164.67308 52.0
164.69606 408.0
164.74205 84.0
164.782913 248.0
164.845871 188.0
164.91571 108.0
164.949036 160.0
165.019821 232.0
165.055099 36924.0
165.098221 160.0
165.121948 164.0
165.146973 228.0
165.178741 48.0
165.199036 120.0
165.227173 232.0
165.24675 152.0
165.286957 120.0
165.319351 96.0
165.345474 196.0
165.399231 32.0
165.463226 40.0
165.52211 40.0
165.540039 36.0
165.560532 44.0
165.703278 132.0
165.752655 52.0
165.778275 160.0
165.798782 52.0
165.832092 204.0
165.944885 208.0
166.006424 108.0
166.058334 3200.0
166.106323 84.0
166.147491 72.0
166.195755 104.0
166.234741 56.0
166.261276 116.0
166.297974 168.0
166.356598 108.0
166.388733 44.0
166.427246 112.0
166.468338 68.0
166.486313 120.0
166.517136 64.0
166.542816 168.0
166.560745 196.0
166.619873 44.0
166.799759 48.0
166.864029 140.0
166.882034 52.0
166.92778 116.0
166.997757 124.0
167.061279 620.0
167.118652 172.0
167.139236 68.0
167.160706 128.0
167.252472 168.0
167.275085 140.0
167.339737 116.0
167.356857 228.0
167.394073 144.0
167.455887 56.0
167.721268 80.0
167.77919 76.0
168.324966 32.0
168.717697 208.0
168.795258 72.0
169.051346 152.0
169.478607 188.0
169.496735 76.0
169.727432 192.0
169.932343 180.0
169.99202 44.0
170.098434 116.0
170.132172 52.0
170.249023 148.0
170.316544 124.0
170.428253 188.0
170.872849 36.0
170.930099 96.0
171.060226 152.0
171.088928 148.0
171.127914 184.0
171.367538 136.0
171.549957 168.0
171.771606 188.0
172.001236 136.0
172.074722 2436.0
172.251923 36.0
172.330292 68.0
172.393005 88.0
172.4897 156.0
172.610397 124.0
172.746841 108.0
172.787827 96.0
173.049545 84.0
173.081604 576.0
173.107742 180.0
173.280029 40.0
173.366501 96.0
173.41629 176.0
173.458221 144.0
173.476578 68.0
173.66275 116.0
173.774155 120.0
173.922501 52.0
174.032761 176.0
174.051147 132.0
174.091171 12228.0
174.17984 172.0
174.200684 64.0
174.216354 80.0
174.26886 72.0
174.275467 120.0
174.326965 140.0
174.411057 100.0
174.51622 164.0
174.587219 96.0
174.610886 36.0
174.739777 128.0
174.842407 80.0
174.881882 80.0
174.934525 44.0
174.960846 184.0
175.094055 1820.0
175.714584 184.0
175.788467 180.0
175.820129 28.0
175.949478 68.0
175.986435 120.0
176.05162 192.0
176.097046 512.0
176.216217 32.0
176.276993 88.0
176.39592 48.0
176.417068 92.0
176.581009 104.0
176.805893 124.0
177.264023 260.0
177.921814 52.0
178.086441 196.0
178.110352 136.0
178.639328 104.0
179.04657 184.0
179.753006 60.0
179.897125 60.0
179.92746 200.0
179.982559 144.0
180.025284 136.0
180.247009 180.0
180.420731 112.0
180.971863 236.0
181.030136 932.0
181.137909 152.0
181.333511 152.0
181.526535 192.0
182.068604 152.0
182.49855 184.0
182.557358 156.0
183.405777 76.0
183.481262 48.0
183.667328 172.0
183.829208 196.0
184.047852 204.0
184.350388 164.0
184.810074 112.0
184.923676 208.0
184.999512 92.0
185.07399 244.0
185.340775 68.0
185.424774 44.0
185.834244 104.0
185.926498 132.0
186.032364 176.0
186.069016 148.0
187.086136 892.0
188.084595 188.0
188.146484 144.0
188.31691 208.0
188.535477 136.0
188.666672 128.0
188.942886 260.0
189.101608 308.0
189.194672 132.0
189.325333 72.0
189.663086 132.0
189.909866 176.0
190.036057 368.0
190.069534 176.0
190.123856 72.0
190.280319 148.0
190.35994 92.0
190.387405 56.0
190.46431 208.0
190.601669 124.0
190.728088 44.0
190.75354 156.0
190.785812 180.0
190.844894 196.0
190.88559 152.0
190.924179 168.0
190.942551 248.0
190.960251 172.0
190.989044 124.0
191.030396 168.0
191.118683 48888.0
191.182404 128.0
191.214554 60.0
191.268692 80.0
191.305756 92.0
191.330536 64.0
191.357513 60.0
191.40889 104.0
191.459946 44.0
191.516602 140.0
191.610672 72.0
191.648117 128.0
191.713394 44.0
191.774017 64.0
191.798828 44.0
191.878769 52.0
191.900833 100.0
191.941376 140.0
191.960983 196.0
191.992355 164.0
192.022156 52.0
192.058411 224.0
192.121323 7528.0
192.157333 88.0
192.209061 112.0
192.261963 120.0
192.300827 68.0
192.337952 168.0
192.382339 60.0
192.531815 96.0
192.571396 124.0
192.629257 76.0
192.753723 92.0
192.8311 48.0
193.044525 40.0
193.123047 300.0
193.218231 136.0
193.256958 116.0
193.28186 28.0
193.308609 84.0
193.348282 68.0
193.369781 104.0
193.406403 96.0
193.44516 108.0
193.514374 108.0
193.542053 52.0
193.625137 128.0
193.654495 140.0
193.686066 84.0
193.791336 88.0
194.143372 112.0
194.207153 52.0
194.345871 168.0
194.520706 40.0
194.820618 108.0
194.951202 64.0
196.053223 44.0
196.122894 96.0
196.943222 112.0
197.320465 68.0
199.029587 152.0
199.084457 140.0
199.574692 44.0
200.096329 188.0
200.574097 188.0
200.60228 88.0
200.918121 72.0
201.093079 64.0
201.782333 64.0
202.040558 196.0
202.546402 120.0
203.275024 176.0
204.047501 280.0
204.127213 64.0
204.198303 40.0
204.662155 136.0
204.87291 112.0
205.053253 340.0
205.511536 172.0
205.677063 64.0
206.066956 164.0
206.331223 120.0
206.514236 272.0
206.628662 56.0
206.794632 64.0
207.06662 188.0
207.315063 200.0
207.550919 72.0
210.087631 128.0
212.007507 52.0
213.435699 40.0
213.575302 108.0
213.735306 84.0
215.049622 72.0
216.048965 236.0
216.114304 416.0
217.100479 136.0
217.311676 76.0
218.122208 136.0
218.230988 92.0
218.457443 152.0
220.93251 164.0
221.37056 92.0
224.036148 184.0
225.245911 148.0
225.951416 140.0
226.864822 68.0
227.759033 176.0
228.029449 192.0
228.375214 172.0
229.546722 92.0
230.098877 196.0
231.058716 244.0
231.456451 128.0
232.123077 208.0
232.247421 100.0
232.424118 132.0
232.835083 128.0
232.878738 40.0
232.951645 172.0
232.988007 132.0
233.074829 14536.0
233.146103 220.0
233.194733 116.0
233.221619 80.0
233.301117 72.0
233.360291 152.0
233.390732 84.0
233.428131 108.0
233.492676 60.0
233.720825 60.0
233.781693 232.0
233.958221 92.0
234.07814 2656.0
234.189651 72.0
234.277985 124.0
234.360245 64.0
234.488235 96.0
234.64064 100.0
234.771759 188.0
234.826645 72.0
234.909012 68.0
235.069199 844.0
235.183624 72.0
235.345428 108.0
235.403061 64.0
235.576477 144.0
235.699509 164.0
235.71666 112.0
235.726334 108.0
235.77002 72.0
235.794617 88.0
235.87088 112.0
236.072678 504.0
236.207245 72.0
236.479568 80.0
236.758163 116.0
236.97258 60.0
237.089035 164.0
239.042114 80.0
239.531647 176.0
242.157089 88.0
242.370834 56.0
243.313705 76.0
243.686401 104.0
244.622482 116.0
244.877808 84.0
247.313171 72.0
251.070786 168.0
255.018799 88.0
259.050262 172.0
259.539215 48.0
266.179932 44.0
282.111511 160.0
286.103607 144.0
286.834625 32.0
287.424805 92.0
290.36792 124.0
291.957306 48.0
296.477264 148.0
297.763794 96.0
320.085571 188.0
321.133301 76.0
327.200012 76.0
333.428864 36.0
333.566986 20.0
337.226532 124.0
337.409302 36.0
340.281616 20.0
345.041626 172.0
345.163635 144.0
346.221985 48.0
353.866699 112.0
354.40979 80.0
356.027405 84.0
356.157959 176.0
362.799377 128.0
364.879822 100.0
375.263153 60.0
379.357269 52.0
382.087341 124.0
388.945557 40.0
392.683411 80.0
395.730133 96.0
397.119568 456.0
404.492462 56.0
414.157532 232.0
416.155609 128.0
418.102722 88.0
422.914581 72.0
446.646362 116.0
447.067078 108.0
455.149445 68.0
458.147888 72.0
465.581818 76.0
471.358551 84.0
472.093445 136.0
479.186005 64.0
489.849091 80.0
495.898102 88.0
500.224365 160.0
501.003662 88.0
518.106873 96.0
523.657654 108.0
530.415405 48.0
539.211121 60.0
540.654053 100.0
557.522339 64.0
616.640686 124.0
628.444519 64.0
640.622131 52.0
677.400269 68.0
681.966431 148.0
694.749207 96.0
741.138855 100.0
744.643188 72.0
755.843201 20.0
772.295105 116.0
790.353088 48.0
791.338135 76.0
803.483398 120.0
823.435852 200.0
826.047974 36.0
832.019226 148.0
845.015259 104.0
857.441711 80.0
865.661194 176.0
866.106262 180.0
885.128662 128.0
903.992615 136.0
919.521484 40.0
923.115967 164.0
929.081848 96.0
929.652222 208.0
945.221497 204.0
945.729492 152.0
960.981812 180.0
962.345825 216.0
963.438965 160.0
966.635437 116.0
968.690918 44.0
970.438538 164.0
972.05127 132.0
973.957153 92.0
974.05658 132.0
986.938232 56.0
988.739807 196.0
1002.927673 240.0
1007.079346 188.0
1009.35437 160.0
1017.832458 180.0
1026.550049 172.0
1033.224609 144.0
1035.548218 168.0
1040.793823 152.0
1042.123413 160.0
1043.434448 132.0
1044.366943 208.0
1046.078491 68.0
1051.428101 168.0
1055.19397 92.0
1056.35791 144.0
1057.593872 176.0
1059.892822 216.0
1059.977051 72.0
1061.811646 188.0
1070.539307 224.0
1072.174438 152.0
1083.832153 100.0
1084.684082 188.0
1088.147827 232.0
1096.646729 236.0
1097.286133 152.0
1098.895386 148.0
1099.818726 228.0
1101.919189 168.0
1108.390015 236.0
1111.838257 164.0
1112.00415 164.0
1115.531128 200.0
1117.519653 80.0
1121.375244 212.0
1121.668457 104.0
1124.650024 104.0
1125.738159 156.0
1126.980591 132.0
1128.116699 160.0
1129.487549 176.0
1129.768433 132.0
1131.153687 172.0
1131.307617 180.0
1135.428345 152.0
1136.26001 196.0
1138.535522 148.0
1142.373291 160.0
1142.736572 52.0
1143.914307 52.0
1145.025269 152.0
1146.480469 184.0
1147.309448 40.0
1151.763062 192.0
1152.715698 152.0
1161.042114 148.0
1164.387817 56.0
1165.182617 244.0
1166.833984 172.0
1168.915283 188.0
1172.170166 132.0
1176.344116 160.0
1180.983643 136.0
1183.652588 108.0
1184.693604 180.0
1188.670166 188.0
1189.775146 156.0
1191.519531 148.0
1191.732544 172.0
1192.453979 216.0
1194.963867 96.0
1197.896606 176.0
1201.170776 112.0
1204.808716 152.0
1205.133423 208.0
1205.58252 176.0
1212.440552 120.0
1215.304321 148.0
1215.734619 316.0
1216.192627 76.0
1216.782715 132.0
1218.762085 160.0
1219.060913 60.0
1219.422241 188.0
1220.416382 120.0
1221.640381 172.0
1222.496094 156.0
1222.72583 128.0
1222.858032 232.0
1223.672485 224.0
1225.636597 172.0
1226.368286 104.0
1227.867188 128.0
1228.896118 160.0
1230.323364 152.0
1230.895874 180.0
1233.375977 236.0
1234.900146 172.0
1239.422363 156.0
1240.655884 148.0
1241.4552 188.0
1242.486206 164.0
1244.640991 164.0
1245.371338 136.0
1250.567139 88.0
1251.404785 216.0
1252.538574 164.0
1253.662964 48.0
1255.802002 180.0
1257.085938 140.0
1257.587036 92.0
1257.918823 148.0
1261.584961 196.0
1262.857788 212.0
1265.06543 192.0
1266.113281 184.0
1268.458496 192.0
1268.983032 184.0
1271.394775 140.0
1272.949341 136.0
1273.169556 136.0
1274.917114 248.0
1277.626099 164.0
1277.782593 176.0
1279.305542 128.0
1279.604492 184.0
1280.373535 216.0
1281.050171 200.0
1284.043823 160.0
1285.078125 140.0
1286.119995 356.0
1286.619629 224.0
1286.712524 180.0
1289.335815 152.0
1289.441162 148.0
1290.227417 160.0
1291.986572 164.0
1295.451416 156.0
1295.888428 168.0
1297.142456 236.0
1298.727173 116.0
1300.384521 92.0
1301.906494 188.0
1302.229614 124.0
1303.781494 136.0
1304.262939 160.0
1304.730225 128.0
1305.700928 116.0
1305.787231 204.0
1309.171387 200.0
1309.817871 48.0
1310.369873 200.0
1312.311279 48.0
1312.72229 164.0
1316.250854 52.0
1317.334106 184.0
1318.360107 168.0
1319.740723 180.0
1320.811035 152.0
1324.618408 152.0
1326.640137 204.0
1327.887329 228.0
1328.895508 132.0
1330.151001 228.0
1330.252686 160.0
1330.702759 196.0
1331.087524 132.0
1332.453003 232.0
1332.605591 96.0
1333.477539 168.0
1335.913452 104.0
1337.077637 200.0
1337.325073 164.0
1338.679077 160.0
1339.866333 156.0
1342.351685 120.0
1345.087646 144.0
1346.328735 192.0
1348.513184 224.0
1349.814453 124.0
1350.618896 188.0
1351.138306 232.0
1351.935791 112.0
1351.994385 140.0
1353.348511 144.0
1353.670654 168.0
1354.454346 248.0
1354.856201 208.0
1356.293457 200.0
1356.564697 180.0
1358.456543 160.0
1359.01416 188.0
1360.592041 176.0
1364.669556 144.0
1366.265503 144.0
1369.298096 132.0
1370.719849 160.0
1376.960693 140.0
1377.632812 164.0
1378.246094 224.0
1380.079102 172.0
1381.447266 112.0
1384.222656 136.0
1385.029907 176.0
1385.140991 116.0
1385.785522 168.0
1387.593872 104.0
1388.4021 136.0
1388.587524 152.0
1390.843018 180.0
1391.184448 140.0
1391.629883 276.0
1392.461548 140.0
1393.375244 180.0
1394.764771 180.0
1396.96582 140.0
1397.613037 132.0
1397.74707 204.0
1399.533447 176.0
1402.051147 160.0
1403.027588 200.0
1403.228882 188.0
1404.123657 176.0
1406.518677 168.0
1406.720215 136.0
1409.550659 276.0
1409.640381 164.0
1411.531494 196.0
1415.070557 96.0
1416.246216 152.0
1416.650757 144.0
1417.759644 92.0
1419.513794 128.0
1419.993774 160.0
1420.11377 60.0
1421.899292 204.0
1422.642334 48.0
1423.497314 212.0
1423.798706 92.0
1426.420776 144.0
1427.653809 116.0
1429.037842 200.0
1431.017334 120.0
1431.476562 128.0
1432.945312 156.0
1433.126099 160.0
1434.912354 192.0
1435.357178 120.0
1435.410034 212.0
1435.538208 136.0
1435.688965 192.0
1436.933594 164.0
1437.227783 156.0
1438.208862 156.0
1438.978882 204.0
1439.620605 200.0
1441.32019 208.0
1441.622437 256.0
1442.574829 208.0
1444.843506 240.0
1445.161255 88.0
1445.94812 32.0
1448.166504 228.0
1449.727051 64.0
1451.046021 160.0
1453.070923 52.0
1453.579224 168.0
1454.026978 128.0
1455.051758 204.0
1455.514893 168.0
1455.824219 228.0
1456.585693 212.0
1457.793701 112.0
1458.067261 136.0
1460.081909 160.0
1460.568604 120.0
1461.314087 196.0
1463.079712 96.0
1463.589844 264.0
1464.298096 152.0
1464.526489 64.0
1465.28064 184.0
1467.071533 176.0
1469.244995 72.0
1470.099487 104.0
1471.206177 52.0
1472.191162 48.0
1473.054199 204.0
1473.489624 156.0
1473.91748 212.0
1475.147949 108.0
1475.369629 180.0
1476.011841 184.0
1476.095947 132.0
1476.868408 136.0
1478.176514 120.0
1479.240356 124.0
1479.937012 60.0
1480.281616 148.0
1480.503662 184.0
1481.844116 216.0
1483.813721 180.0
1483.951782 140.0
1485.945801 132.0
1487.680176 232.0
1487.841431 160.0
1488.854858 168.0
1489.123657 144.0
1489.492432 184.0
1489.945557 156.0
1492.158936 100.0
1493.643066 104.0
1493.71228 68.0
1493.950806 164.0
1495.797607 96.0
1496.428833 48.0
1497.745728 164.0
1497.868896 32.0
1498.315674 164.0
1498.777954 196.0
1501.421997 176.0
1501.553101 76.0
1501.984985 204.0
1502.201904 168.0
1504.145508 136.0
