>compound Guanabenz (WY-8678) Acetate
>formula C8H8Cl2N4
>ionization [M+H]+
>parentmass 231.021484
#inchi InChI=1S/C8H8Cl2N4/c9-6-2-1-3-7(10)5(6)4-13-14-8(11)12/h1-4H,(H4,11,12,14)/b13-4+
#inchikey WDZVGELJXXEGPV
#origInchi InChI=1S/C8H8Cl2N4.C2H4O2/c9-6-2-1-3-7(10)5(6)4-13-14-8(11)12;1-2(3)4/h1-4H,(H4,11,12,14);1H3,(H,3,4)/b13-4+;
#Ion_Source LC-ESI
#Instrument qTof
#Compound_Source Commercial
#PI Dorrestein
#Data_Collector Garg_Neha
#Scan -1
#Precursor_MZ 231.02
#ExactMass 230.013
#Charge 1
#CAS_Number 23256-50-0
#Pubmed_ID N/A
#Smiles C1(=CC=C(C(=C1Cl)/C=N/NC(N)=N)Cl).CC(O)=O
#INCHI_AUX N/A
#Library_Class 1
#SpectrumID CCMSLIB00000078646
#IonMode Positive
#UpdateWorkflowName UPDATE-SINGLE-ANNOTATED-GOLD
#LibraryQualityString Gold
#TaskID 77f51c88eb8b467eb4a01dd2d0cb90d2
##Scan# 1070
#SpectrumFile Plate10_41_64_GC3_01_15747.mzXML
#LibraryName FDALibrary_2_04302014.mgf
#MQScore -1
#Organism FDALibrary_2_04302014
#TIC_Query 0
#RT_Query -1
#MZErrorPPM -1
#SharedPeaks 0
#MassDiff 0
#LibMZ -1
#SpecMZ 231.02
#SpecCharge 0
#internalFilename spec-00000.mgf

>collision 10
45.666237 184.0
46.190941 188.0
46.238297 212.0
47.023869 140.0
47.073017 148.0
47.379398 148.0
47.940006 140.0
48.075153 184.0
48.50391 148.0
48.841331 212.0
49.528088 144.0
50.161827 176.0
50.215405 180.0
50.346519 160.0
50.527588 156.0
50.601185 144.0
50.828884 136.0
51.139198 176.0
51.864799 188.0
51.952461 152.0
52.183495 140.0
52.233829 148.0
52.278664 148.0
52.475773 168.0
52.581078 180.0
52.901962 168.0
52.935265 212.0
52.974369 212.0
53.615143 144.0
53.699703 160.0
53.759518 212.0
54.148399 164.0
55.67783 140.0
55.826443 160.0
56.027382 192.0
56.753757 188.0
57.454632 248.0
57.496883 200.0
59.113876 184.0
59.134281 168.0
59.953899 220.0
60.338245 144.0
60.542496 148.0
61.423763 156.0
62.05714 196.0
62.176357 140.0
62.32711 140.0
62.435509 180.0
62.871971 208.0
63.474686 164.0
63.709587 168.0
64.180435 148.0
64.61673 228.0
65.049431 196.0
65.232559 152.0
65.296875 208.0
65.769615 144.0
66.419426 232.0
66.581734 160.0
66.841835 148.0
66.869499 212.0
67.019318 140.0
67.084511 144.0
67.535194 196.0
68.151596 160.0
68.177887 156.0
68.666847 152.0
69.275131 144.0
69.678261 164.0
69.94101 140.0
70.462975 204.0
70.655235 140.0
70.914787 200.0
71.124451 164.0
71.415131 140.0
71.989838 168.0
72.908028 192.0
73.20063 164.0
73.553543 140.0
73.74485 140.0
74.454147 232.0
75.013344 180.0
75.054718 188.0
75.607506 152.0
75.80146 144.0
75.921074 204.0
76.447449 144.0
76.874397 164.0
76.897087 188.0
77.381302 156.0
77.58979 140.0
78.016685 172.0
78.255661 192.0
78.370148 144.0
78.643494 144.0
78.917305 168.0
79.764725 196.0
80.26857 152.0
80.397011 140.0
80.718559 176.0
81.778824 160.0
82.494934 140.0
82.79348 152.0
83.223244 232.0
83.621361 160.0
83.874535 168.0
83.900055 152.0
84.144524 168.0
84.744423 156.0
86.419945 176.0
86.621735 164.0
86.962914 172.0
87.130035 168.0
87.170914 192.0
87.288025 156.0
87.399628 188.0
88.248299 184.0
88.323105 148.0
88.409164 148.0
89.215706 168.0
89.390625 184.0
89.443321 180.0
89.623436 256.0
89.891815 124.0
89.990028 160.0
91.084641 148.0
92.147659 200.0
92.201164 220.0
92.262329 208.0
92.394287 172.0
92.551231 144.0
92.806068 188.0
92.92498 204.0
92.953766 160.0
94.212967 164.0
94.375313 148.0
95.106209 212.0
95.533157 168.0
96.012314 144.0
96.051315 192.0
96.768532 152.0
97.058517 224.0
97.207161 164.0
97.814896 148.0
97.944855 164.0
97.994995 204.0
98.228706 216.0
98.532722 160.0
98.698746 144.0
99.001106 176.0
99.447586 204.0
99.805176 176.0
99.849602 208.0
99.936447 148.0
100.017586 1912.0
100.257042 216.0
100.711929 180.0
100.91777 148.0
101.019836 432.0
101.051773 160.0
101.223907 168.0
101.243675 124.0
101.322052 144.0
101.855667 148.0
102.324226 180.0
102.848358 184.0
104.01326 152.0
104.300682 148.0
104.506081 156.0
104.930901 172.0
105.021126 368.0
106.031494 268.0
107.223511 216.0
107.592735 180.0
107.838547 148.0
108.415573 188.0
108.444984 172.0
108.712517 156.0
108.945068 220.0
108.95961 224.0
108.983513 1092.0
109.165382 204.0
109.209053 172.0
109.648361 152.0
109.783875 156.0
109.984161 144.0
110.188812 160.0
110.362289 188.0
110.818573 180.0
110.858383 156.0
110.97979 248.0
111.710823 172.0
111.74659 208.0
111.995201 1368.0
112.602425 192.0
112.977943 680.0
113.243271 144.0
113.395821 140.0
113.605743 184.0
113.741547 156.0
113.826469 236.0
113.987724 252.0
114.109062 180.0
114.796822 160.0
114.835213 140.0
114.971062 272.0
114.997368 220.0
115.027245 188.0
115.119057 220.0
115.219444 180.0
115.26004 188.0
115.747742 204.0
115.95768 164.0
116.279388 180.0
117.048004 192.0
117.21917 164.0
117.606361 180.0
117.652695 200.0
117.691559 148.0
118.05201 168.0
118.307739 172.0
118.571999 172.0
118.617516 172.0
119.040588 172.0
119.357841 200.0
119.562325 152.0
119.926041 148.0
120.36454 176.0
120.617973 200.0
120.63327 176.0
120.937317 176.0
120.960449 604.0
121.478546 148.0
121.671669 188.0
122.040779 144.0
122.300362 208.0
122.448898 104.0
122.703491 248.0
122.955795 540.0
122.9991 152.0
123.047661 216.0
123.976677 168.0
123.993805 424.0
125.013763 192.0
125.088837 180.0
125.14286 160.0
125.283173 144.0
125.312134 148.0
125.634422 200.0
126.010468 240.0
126.170074 184.0
126.807106 168.0
126.95507 148.0
126.988708 160.0
127.015442 144.0
127.1884 188.0
127.228813 152.0
128.003891 148.0
128.227539 156.0
128.554535 148.0
128.729568 144.0
128.780304 152.0
129.019821 156.0
129.164551 156.0
129.23468 172.0
129.685333 148.0
131.568832 188.0
132.197388 196.0
132.536285 144.0
132.937576 144.0
133.169449 188.0
133.426819 188.0
133.619995 156.0
133.69133 140.0
133.721252 172.0
134.018311 144.0
134.960678 188.0
135.053314 144.0
135.353394 140.0
135.529434 168.0
135.57547 152.0
135.733093 120.0
135.770508 176.0
135.993561 4440.0
136.216141 144.0
136.556976 152.0
136.77655 140.0
136.975082 136.0
137.000565 340.0
137.739578 160.0
137.992661 992.0
138.134613 208.0
138.773956 208.0
139.002518 196.0
139.031998 200.0
139.078934 140.0
139.316101 168.0
139.988037 524.0
140.335159 180.0
140.755157 204.0
140.963028 180.0
141.42894 208.0
141.857681 172.0
141.890869 188.0
141.981445 160.0
142.341675 148.0
142.503189 148.0
143.047791 204.0
143.090652 204.0
143.836807 228.0
144.734528 144.0
144.95993 1768.0
145.004028 148.0
145.049316 176.0
145.582214 176.0
145.968033 1416.0
146.252975 188.0
146.440781 140.0
146.611847 156.0
146.640762 176.0
146.958435 736.0
147.115952 156.0
147.756378 216.0
147.879776 172.0
147.963943 1068.0
148.953934 272.0
148.992798 160.0
149.029236 196.0
149.282043 144.0
150.002716 236.0
150.261215 144.0
150.95282 156.0
151.003342 232.0
151.468857 156.0
151.497208 216.0
151.718811 224.0
151.99437 148.0
152.012863 396.0
152.885529 224.0
152.949524 180.0
153.021408 3200.0
153.420013 164.0
153.701187 152.0
153.814713 164.0
154.005356 1252.0
154.237701 112.0
154.335983 148.0
154.558609 160.0
154.998581 140.0
155.018539 456.0
155.281967 188.0
156.003357 416.0
156.385117 200.0
156.48967 152.0
156.579315 204.0
157.010468 156.0
157.529633 140.0
157.677048 196.0
158.375092 156.0
158.502869 160.0
158.710907 160.0
158.746017 220.0
158.851349 188.0
158.975403 1160.0
159.665146 144.0
159.833694 140.0
159.971863 572.0
160.844299 288.0
160.972321 404.0
161.079132 336.0
161.498734 192.0
161.594864 160.0
161.82518 156.0
161.966202 296.0
162.240234 276.0
162.293915 168.0
162.970566 264.0
162.997025 172.0
163.97168 156.0
164.001297 7564.0
164.056992 128.0
164.96701 360.0
165.005692 944.0
165.998566 1728.0
166.417206 204.0
166.534653 196.0
166.591843 212.0
166.882263 148.0
167.976776 176.0
168.405258 160.0
169.380386 252.0
169.88588 196.0
170.350555 160.0
170.979782 192.0
171.07869 164.0
171.518921 184.0
171.593475 196.0
171.683167 168.0
171.849365 148.0
171.868607 188.0
171.934265 352.0
171.971985 65768.0
172.038803 120.0
172.06308 124.0
172.621613 100.0
172.888824 220.0
172.913666 212.0
172.975784 7208.0
173.108246 124.0
173.34671 116.0
173.417862 104.0
173.603287 108.0
173.881149 108.0
173.96875 28548.0
174.013397 272.0
174.063721 144.0
174.14476 216.0
174.301926 116.0
174.389359 172.0
174.972015 2604.0
175.08963 132.0
175.978546 124.0
176.287811 156.0
176.665909 216.0
176.929764 164.0
176.988007 176.0
177.943298 156.0
177.980469 168.0
178.017838 272.0
178.364136 164.0
178.905701 156.0
179.022827 264.0
179.902725 144.0
180.014862 144.0
180.062927 164.0
181.021545 168.0
181.221222 140.0
182.463867 180.0
183.123138 140.0
184.977112 140.0
185.977478 192.0
186.304199 140.0
186.98317 752.0
187.321594 148.0
187.989578 176.0
188.194305 148.0
188.740768 180.0
188.997345 5232.0
189.507172 228.0
189.890945 228.0
189.980515 1332.0
190.996155 2648.0
191.100311 120.0
191.182175 176.0
191.977402 912.0
196.34903 176.0
196.49408 152.0
196.801102 156.0
196.926758 140.0
196.968658 148.0
197.449402 176.0
197.631226 208.0
198.045547 140.0
198.659424 244.0
199.434433 160.0
200.303894 192.0
201.596085 180.0
201.890091 180.0
202.677032 176.0
202.815903 140.0
203.261154 188.0
203.610321 204.0
204.289642 148.0
204.554291 140.0
204.688095 204.0
205.243744 148.0
205.369217 140.0
205.671677 144.0
206.626129 140.0
206.946686 216.0
207.53978 168.0
208.426712 168.0
210.004303 152.0
210.044693 144.0
211.515472 140.0
211.78476 184.0
212.306442 164.0
213.621124 164.0
213.73288 176.0
213.907364 168.0
213.936478 212.0
213.993927 45776.0
214.087204 172.0
214.180466 152.0
214.222733 172.0
214.750671 144.0
214.996658 3956.0
215.351517 128.0
215.637024 208.0
215.753952 232.0
215.990845 23884.0
216.290741 192.0
216.396515 96.0
216.553467 156.0
216.586578 120.0
216.615982 112.0
216.636322 156.0
216.818024 144.0
216.992645 2172.0
217.385391 180.0
217.902161 200.0
217.92955 176.0
217.991745 124.0
219.067169 148.0
219.937042 172.0
220.526337 148.0
220.841187 176.0
225.527161 148.0
226.622437 156.0
227.528198 168.0
228.038849 164.0
229.064896 212.0
229.135391 100.0
229.429535 152.0
229.593964 184.0
229.750092 148.0
230.11171 200.0
230.189865 280.0
230.6362 132.0
230.723755 180.0
230.801147 188.0
230.843872 140.0
230.875778 440.0
230.906158 348.0
230.935104 328.0
230.974335 120.0
231.021484 190144.0
231.094788 124.0
231.123123 300.0
231.341583 208.0
231.380951 116.0
231.389404 160.0
231.439468 144.0
231.480667 244.0
231.518539 1380.0
231.657822 124.0
231.709854 128.0
231.741562 96.0
231.823517 104.0
232.022583 13164.0
232.076523 168.0
232.113571 148.0
232.180679 116.0
232.276367 136.0
232.337692 180.0
232.379822 172.0
232.428543 184.0
232.592392 188.0
232.694016 128.0
232.755295 168.0
232.826157 156.0
232.867889 176.0
232.957642 204.0
233.017975 105656.0
233.124191 164.0
233.194626 120.0
233.226868 236.0
233.291046 140.0
233.311234 180.0
233.343094 244.0
233.405884 232.0
233.478928 196.0
233.513428 292.0
233.582428 128.0
233.617142 244.0
233.652924 152.0
233.693695 160.0
233.711136 112.0
233.756332 268.0
233.822037 212.0
234.020432 3448.0
234.473785 96.0
235.016129 292.0
235.457962 184.0
235.491043 108.0
235.547302 120.0
235.60788 140.0
235.769119 184.0
235.802628 128.0
235.846756 132.0
235.874237 208.0
236.703461 144.0
240.561111 96.0
242.516129 116.0
267.337738 168.0
289.782104 140.0
321.426636 140.0
335.11087 176.0
336.015076 148.0
409.996338 152.0
587.573242 176.0
628.488159 160.0
900.557495 148.0
1217.40271 192.0
1254.197266 220.0
1283.904785 172.0
1339.791138 144.0
1391.933105 144.0
1394.845459 200.0
1394.979248 160.0
1461.154785 168.0
1470.092529 148.0
1479.639282 144.0
1503.830566 168.0
1510.30542 172.0
1552.950439 152.0
1557.369385 176.0
1559.962402 196.0
1613.723022 204.0
1630.645264 140.0
1645.927246 156.0
1653.930786 180.0
1670.679565 184.0
1679.428223 156.0
1686.629883 152.0
1702.984375 144.0
1714.832275 180.0
1763.328125 164.0
1777.086548 208.0
1800.133179 192.0
1808.587524 160.0
1812.567993 164.0
1820.907104 168.0
1854.180542 152.0
1865.029175 168.0
1875.013062 268.0
1885.853271 144.0
1887.210571 224.0
1888.61145 180.0
1896.031372 208.0
1901.252197 200.0
1911.550049 184.0
1930.829468 172.0
1936.457031 180.0
1942.469971 144.0
1943.856201 180.0
1944.166992 168.0
1945.119995 196.0
1952.597168 192.0
1953.239258 144.0
1960.555786 152.0
1974.999878 212.0
1975.397949 160.0
1981.196289 148.0
1989.84314 156.0
1994.018921 128.0
1997.583618 188.0
