>compound NCGC00160208-01!6-Demethoxy-isomaculosidine
>formula C13H11NO3
>ionization [M+H]+
>parentmass 230.079758
#inchi InChI=1S/C13H11NO3/c1-14-11-8(4-3-5-10(11)16-2)12(15)9-6-7-17-13(9)14/h3-7H,1-2H3
#inchikey VNBUMBNLPGLBML
#Ion_Source LC-ESI
#Instrument qTOF
#Compound_Source Prestwick Phytochem Lib
#PI Dorrestein
#Data_Collector VVP/LMS
#Scan -1
#Precursor_MZ 230.082
#ExactMass 229.074
#Charge 1
#CAS_Number N/A
#Pubmed_ID N/A
#Smiles COC1=CC=CC2=C1N(C)C3=C(C=CO3)C2=O
#INCHI_AUX N/A
#Library_Class 1
#SpectrumID CCMSLIB00000078732
#IonMode Positive
#UpdateWorkflowName UPDATE-SINGLE-ANNOTATED-GOLD
#LibraryQualityString Gold
#TaskID 67c915c6594c435cadc1fe2b5358144d
##Scan# 1775
#SpectrumFile p1-H02_GH2_01_17958.mzXML
#LibraryName phytochem_lib.mgf
#MQScore -1
#Organism phytochem_lib
#TIC_Query 0
#RT_Query -1
#MZErrorPPM -1
#SharedPeaks 0
#MassDiff 0
#LibMZ -1
#SpecMZ 230.082
#SpecCharge 0
#internalFilename spec-00000.mgf

>collision 10
94.986755 144.0
95.017365 220.0
95.131599 144.0
95.155167 168.0
95.289177 172.0
95.465393 164.0
95.473114 108.0
95.478065 148.0
95.541916 152.0
95.64505 176.0
95.699562 124.0
95.816422 160.0
95.890465 88.0
95.9431 48.0
95.962593 192.0
96.044502 140.0
96.190849 184.0
96.229439 160.0
96.245514 104.0
96.300194 184.0
96.385948 196.0
96.405693 116.0
96.438919 148.0
96.466286 168.0
96.481926 152.0
96.507339 44.0
96.630562 184.0
96.738197 176.0
96.81456 168.0
96.849808 116.0
96.887032 160.0
96.977173 180.0
97.028137 108.0
97.161499 92.0
97.218399 124.0
97.238022 124.0
97.270561 160.0
97.288223 224.0
97.4226 136.0
97.483513 224.0
97.501198 136.0
97.538544 160.0
97.625053 252.0
97.642746 140.0
97.684052 164.0
97.711594 164.0
97.850258 212.0
97.900558 164.0
97.926163 156.0
98.08773 184.0
98.135048 148.0
98.156738 56.0
98.219849 116.0
98.243523 116.0
98.281006 156.0
98.359947 140.0
98.37574 172.0
98.417198 92.0
98.433968 204.0
98.512001 244.0
98.55349 164.0
98.598938 148.0
98.61673 208.0
98.659576 124.0
98.824371 220.0
98.852074 216.0
99.004501 96.0
99.07122 164.0
99.097603 312.0
99.153084 144.0
99.237755 196.0
99.271004 192.0
99.309715 152.0
99.333519 128.0
99.387138 200.0
99.420822 156.0
99.440666 164.0
99.488304 108.0
99.631294 136.0
99.694878 116.0
99.767326 160.0
99.889725 152.0
100.015869 264.0
100.038971 132.0
100.062859 120.0
100.134544 152.0
100.16243 156.0
100.18634 172.0
100.210243 84.0
100.240135 152.0
100.381668 84.0
100.5672 160.0
100.653046 216.0
100.702972 128.0
100.796867 36.0
100.905342 208.0
100.944794 172.0
100.97242 152.0
101.008797 156.0
101.033516 156.0
101.074814 120.0
101.166878 64.0
101.232956 152.0
101.315079 112.0
101.339119 156.0
101.838631 168.0
101.945488 212.0
102.003395 56.0
102.0457 1020.0
102.087166 168.0
102.115997 104.0
102.156219 104.0
102.220604 172.0
102.260857 168.0
102.280983 136.0
102.603302 128.0
102.657631 148.0
102.741837 236.0
102.780792 216.0
102.849403 160.0
102.960449 184.0
103.002869 108.0
103.023071 248.0
103.052635 1952.0
103.107933 132.0
103.138252 68.0
103.187973 188.0
103.33239 144.0
103.421425 72.0
103.4356 72.0
103.45179 52.0
103.499252 156.0
103.538857 164.0
103.579369 176.0
103.707024 64.0
103.782478 200.0
103.931625 328.0
103.962563 108.0
103.994049 164.0
104.049797 1404.0
104.104668 52.0
104.147316 104.0
104.194038 184.0
104.235466 88.0
104.485054 200.0
104.54377 164.0
104.613525 164.0
104.680168 192.0
104.733116 100.0
104.798309 200.0
104.822762 188.0
104.871674 164.0
104.906326 188.0
104.926712 192.0
105.033272 288.0
105.051155 348.0
105.126602 136.0
105.190651 136.0
105.224579 60.0
105.267456 180.0
105.281754 56.0
105.316475 40.0
105.346291 208.0
105.502426 172.0
105.637398 192.0
105.674225 76.0
105.706963 48.0
105.805206 136.0
105.821587 204.0
105.875526 152.0
105.969055 172.0
106.030586 444.0
106.057175 144.0
106.083817 164.0
106.161736 132.0
106.180191 140.0
106.196594 144.0
106.319695 136.0
106.334061 92.0
106.463402 228.0
106.477776 172.0
106.596931 60.0
106.695587 192.0
106.773727 148.0
106.812805 164.0
106.849838 124.0
106.900421 220.0
107.050034 856.0
107.103043 52.0
107.154541 176.0
107.375107 116.0
107.426674 44.0
107.459679 60.0
107.480316 48.0
107.500946 204.0
107.527779 56.0
107.579376 112.0
107.655777 144.0
107.692947 140.0
107.879272 220.0
107.940948 76.0
108.019539 148.0
108.053841 536.0
108.079536 76.0
108.112648 84.0
108.286552 284.0
108.385986 164.0
108.423294 272.0
108.483398 176.0
108.597443 184.0
108.665901 112.0
108.726082 68.0
108.829872 220.0
108.861015 132.0
108.912941 176.0
108.927483 148.0
108.952408 144.0
109.016876 316.0
109.043839 128.0
109.097885 144.0
109.116592 140.0
109.206009 100.0
109.245537 192.0
109.260094 152.0
109.280899 140.0
109.297668 136.0
109.368301 168.0
109.536964 116.0
109.574318 168.0
109.616142 132.0
109.639061 52.0
109.731049 184.0
109.768311 160.0
109.801674 172.0
109.893463 232.0
109.926849 220.0
109.960236 96.0
110.039558 136.0
110.097778 164.0
110.123093 152.0
110.198296 156.0
110.319511 128.0
110.441269 192.0
110.530754 172.0
110.674454 312.0
110.712875 176.0
110.834373 76.0
110.907722 180.0
110.94545 240.0
110.960129 164.0
110.989479 136.0
111.006256 116.0
111.069176 176.0
111.090149 144.0
111.274834 36.0
111.453362 124.0
111.491982 128.0
111.516045 160.0
111.566856 72.0
111.604706 140.0
111.775085 232.0
111.802437 108.0
111.819275 128.0
111.888741 68.0
111.947693 216.0
112.038269 152.0
112.084618 168.0
112.272232 140.0
112.409355 140.0
112.460007 112.0
112.559227 88.0
112.633148 156.0
112.677513 192.0
112.993263 160.0
113.037544 216.0
113.094101 152.0
113.144905 128.0
113.238075 196.0
113.28891 104.0
113.436234 108.0
113.511459 176.0
113.545387 192.0
113.674797 64.0
113.746956 100.0
113.829758 160.0
113.853302 140.0
113.889221 148.0
114.003906 196.0
114.022522 168.0
114.047188 496.0
114.086845 128.0
114.114487 208.0
114.150635 152.0
114.190857 140.0
114.448532 136.0
114.555023 136.0
114.57206 204.0
114.665817 104.0
114.691399 148.0
114.851318 172.0
114.890602 196.0
114.957993 44.0
114.990005 168.0
115.053635 1848.0
115.13311 128.0
115.152267 56.0
115.184303 124.0
115.31678 180.0
115.383049 100.0
115.401695 176.0
115.494995 172.0
115.612747 300.0
115.6483 136.0
115.85601 144.0
115.948151 240.0
115.978157 144.0
116.050583 1292.0
116.147552 168.0
116.166855 196.0
116.241951 48.0
116.270592 196.0
116.297745 168.0
116.321358 112.0
116.357857 52.0
116.377174 144.0
116.452339 216.0
116.469521 76.0
116.524223 152.0
116.555458 56.0
116.76828 120.0
116.796242 216.0
116.824211 116.0
116.873688 208.0
116.912422 188.0
116.964081 88.0
117.002831 228.0
117.026512 160.0
117.05809 840.0
117.080345 204.0
117.101883 36.0
117.202293 164.0
117.272095 72.0
117.356171 160.0
117.537354 192.0
117.58699 188.0
117.625839 168.0
117.692764 84.0
117.774315 180.0
117.837479 188.0
117.8526 240.0
117.904465 136.0
117.930397 156.0
118.04113 1080.0
118.063629 524.0
118.101212 164.0
118.119675 164.0
118.205055 168.0
118.233192 76.0
118.266945 148.0
118.298126 160.0
118.314301 148.0
118.347916 128.0
118.443207 100.0
118.4692 56.0
118.601387 124.0
118.633904 100.0
118.657745 124.0
118.675095 124.0
118.900444 208.0
118.939766 100.0
119.037781 624.0
119.206902 164.0
119.313774 164.0
119.382988 180.0
119.407471 200.0
119.427963 212.0
119.487389 132.0
119.502625 412.0
119.543114 184.0
119.628845 168.0
119.704445 172.0
119.72683 196.0
119.783463 184.0
119.805244 212.0
119.872787 128.0
119.898941 92.0
119.919563 172.0
119.955605 124.0
120.003159 148.0
120.043243 1800.0
120.071167 112.0
120.088615 168.0
120.158424 152.0
120.431496 172.0
120.64325 184.0
120.660744 328.0
120.735085 124.0
120.91259 148.0
120.93856 124.0
120.999855 176.0
121.027557 252.0
121.046738 244.0
121.063354 164.0
121.078682 160.0
121.107155 200.0
121.201355 172.0
121.289017 140.0
121.365753 56.0
121.396454 180.0
121.49221 188.0
121.543419 144.0
121.57634 40.0
121.949699 168.0
122.019135 184.0
122.081665 164.0
122.127792 136.0
122.147591 140.0
122.433723 148.0
122.510811 176.0
122.5681 184.0
122.600403 220.0
122.632004 112.0
122.70916 184.0
122.766495 164.0
122.807022 148.0
122.843689 184.0
122.951805 132.0
122.998154 40.0
123.04451 108.0
123.128426 140.0
123.320641 144.0
123.364845 160.0
123.39138 188.0
123.41349 144.0
123.508583 184.0
123.583801 148.0
123.625839 164.0
123.756439 136.0
123.785225 120.0
124.036491 292.0
124.053314 176.0
124.113281 180.0
124.190796 84.0
124.206322 252.0
124.292847 44.0
124.471626 228.0
124.539268 72.0
124.565926 124.0
124.599251 100.0
124.681465 232.0
124.701469 108.0
124.798187 188.0
124.82151 120.0
124.85675 128.0
125.017685 152.0
125.059555 144.0
125.175323 224.0
125.21096 216.0
125.260612 328.0
125.320107 208.0
125.36245 116.0
125.404793 208.0
125.421776 208.0
125.496193 184.0
125.527405 128.0
125.585396 136.0
125.625542 136.0
125.732643 184.0
125.82193 140.0
125.862122 160.0
125.922417 40.0
125.96006 192.0
126.007301 136.0
126.036346 208.0
126.284492 108.0
126.357941 120.0
126.414253 224.0
126.725494 144.0
126.773895 200.0
126.83979 152.0
126.886871 208.0
127.081993 216.0
127.104431 132.0
127.133606 172.0
127.173416 124.0
127.209915 52.0
127.239105 60.0
127.349136 192.0
127.378929 152.0
127.430008 220.0
127.501915 132.0
127.553604 184.0
127.605316 84.0
127.668274 152.0
127.713257 80.0
127.812241 176.0
127.862564 192.0
128.01033 116.0
128.049164 5452.0
128.089157 268.0
128.129242 212.0
128.204071 172.0
128.22435 116.0
128.323532 84.0
128.452072 156.0
128.532516 412.0
128.582947 92.0
128.607773 144.0
128.656723 220.0
128.885544 192.0
128.984756 160.0
129.009857 196.0
129.032471 108.0
129.05513 1372.0
129.098038 44.0
129.133331 152.0
129.195297 64.0
129.25412 144.0
129.410309 160.0
129.432938 164.0
129.579559 208.0
129.600555 116.0
129.620956 212.0
129.713882 148.0
129.806839 144.0
129.906631 104.0
129.923141 484.0
129.995117 340.0
130.016647 204.0
130.021439 120.0
130.038345 376.0
130.064484 14380.0
130.117691 232.0
130.134628 56.0
130.151749 76.0
130.199432 64.0
130.226685 128.0
130.265305 48.0
130.28801 272.0
130.347092 92.0
130.374359 188.0
130.424362 168.0
130.452805 140.0
130.478912 164.0
130.503922 36.0
130.5625 100.0
130.590347 152.0
130.62674 128.0
130.654785 184.0
130.720016 52.0
130.739777 144.0
130.756424 92.0
130.865692 52.0
130.916565 152.0
130.97728 84.0
131.004959 80.0
131.048935 8452.0
131.071243 5968.0
131.120834 32.0
131.143616 68.0
131.159576 128.0
131.186935 68.0
131.234146 124.0
131.284195 128.0
131.378494 32.0
131.400742 208.0
131.481964 136.0
131.503998 56.0
131.5392 76.0
131.638687 44.0
131.730042 48.0
131.915146 228.0
131.94133 176.0
131.956299 216.0
131.982025 80.0
132.004318 140.0
132.05574 1764.0
132.128937 124.0
132.198761 48.0
132.244537 216.0
132.280884 132.0
132.299469 200.0
132.333817 140.0
132.409378 68.0
132.455566 192.0
132.487579 168.0
132.54454 36.0
132.569748 72.0
132.623947 160.0
132.659134 144.0
132.715042 144.0
132.755432 80.0
132.79213 108.0
132.810471 152.0
132.849472 208.0
132.90683 144.0
132.922882 108.0
132.950424 84.0
132.998627 160.0
133.052231 1408.0
133.111115 176.0
133.161636 52.0
133.32016 176.0
133.407501 140.0
133.52478 188.0
133.582275 160.0
133.614487 68.0
133.642929 100.0
133.678909 228.0
133.731628 180.0
133.856155 176.0
133.886093 176.0
134.031219 352.0
134.057755 372.0
134.185654 152.0
134.211014 148.0
134.453232 176.0
134.679489 68.0
134.725693 200.0
134.781143 92.0
134.862915 168.0
134.885147 168.0
134.94281 132.0
134.961441 216.0
135.043732 1868.0
135.111771 184.0
135.13028 140.0
135.229782 80.0
135.259872 168.0
135.278397 172.0
135.308487 144.0
135.368698 140.0
135.421967 56.0
135.479965 192.0
135.55397 204.0
135.76033 180.0
135.839188 164.0
135.920395 52.0
135.950562 172.0
136.049072 136.0
136.068939 156.0
136.161819 104.0
136.393036 164.0
136.515564 188.0
136.545303 112.0
136.892059 152.0
137.045792 176.0
137.183289 108.0
137.236923 124.0
137.304535 148.0
137.320862 180.0
137.374512 156.0
137.512192 132.0
137.547195 188.0
137.627869 180.0
137.799408 64.0
137.871857 96.0
137.918594 240.0
137.984055 92.0
138.000412 104.0
138.061218 128.0
138.187531 124.0
138.234329 212.0
138.262405 124.0
138.365402 196.0
138.402863 136.0
138.519958 188.0
138.608994 284.0
138.695709 160.0
138.951385 132.0
139.040482 148.0
139.136719 116.0
139.232986 156.0
139.265869 52.0
139.284668 84.0
139.315201 180.0
139.547867 200.0
139.745438 196.0
139.797821 76.0
139.827057 292.0
139.896057 80.0
139.919601 172.0
139.950211 156.0
140.048935 3308.0
140.083282 152.0
140.140991 52.0
140.313049 172.0
140.336624 56.0
140.381424 60.0
140.414444 168.0
140.604233 152.0
140.681076 136.0
140.770798 48.0
140.834564 228.0
140.87944 176.0
140.921967 108.0
140.992859 176.0
141.03067 184.0
141.056992 1852.0
141.205643 72.0
141.234024 172.0
141.283691 184.0
141.364944 344.0
141.385437 192.0
141.510895 120.0
141.631683 160.0
141.709854 104.0
141.852051 204.0
141.930283 148.0
142.01091 140.0
142.039444 2320.0
142.063766 1552.0
142.101059 200.0
142.117676 180.0
142.200729 192.0
142.245819 120.0
142.326538 136.0
142.347916 104.0
142.402542 100.0
142.419159 152.0
142.547455 180.0
142.604492 76.0
142.880325 88.0
143.014252 232.0
143.046524 652.0
143.070435 300.0
143.13739 168.0
143.16835 120.0
143.206451 116.0
143.22551 96.0
143.25885 148.0
143.358932 100.0
143.389908 132.0
143.530563 124.0
143.653839 248.0
143.709457 140.0
143.952927 48.0
144.045181 2840.0
144.080643 400.0
144.189438 68.0
144.220505 156.0
144.26503 68.0
144.39743 196.0
144.493118 148.0
144.603195 88.0
144.677399 160.0
144.744431 52.0
144.854599 156.0
145.051651 512.0
145.077469 204.0
145.156586 36.0
145.210892 192.0
145.267365 148.0
145.343689 44.0
145.396484 60.0
145.456482 256.0
145.492493 156.0
145.518158 180.0
145.621017 84.0
145.739883 208.0
145.77832 76.0
145.963425 188.0
145.985291 164.0
146.022736 2028.0
146.057175 364.0
146.095703 168.0
146.153442 228.0
146.259338 60.0
146.290634 92.0
146.338776 136.0
146.456787 192.0
146.521133 208.0
146.786957 168.0
146.873779 136.0
146.943741 160.0
146.972687 88.0
146.999237 192.0
147.035858 256.0
147.054321 188.0
147.066162 164.0
147.103012 140.0
147.127151 44.0
147.168198 132.0
147.235809 48.0
147.270767 236.0
147.310684 116.0
147.337265 84.0
147.395248 164.0
147.4496 244.0
147.632156 140.0
147.772446 196.0
147.809113 132.0
147.912811 176.0
147.946701 88.0
148.041229 424.0
148.071732 808.0
148.297943 116.0
148.407028 48.0
148.453094 172.0
148.482193 172.0
148.627747 164.0
148.658859 176.0
148.872925 144.0
148.899643 164.0
149.001663 200.0
149.042664 192.0
149.069702 188.0
149.0867 196.0
149.736282 104.0
149.842468 148.0
150.13353 40.0
150.221329 64.0
150.253036 196.0
150.372604 160.0
150.406784 108.0
150.499557 232.0
150.516647 188.0
150.567932 120.0
150.680298 112.0
150.714493 204.0
150.790634 152.0
150.846466 152.0
150.912476 132.0
150.968719 128.0
151.022522 100.0
151.077209 180.0
151.092514 164.0
151.152191 148.0
151.201126 88.0
151.274567 160.0
151.338211 156.0
151.362701 84.0
151.379837 124.0
151.453323 184.0
151.602509 148.0
151.649338 104.0
151.6763 208.0
151.70816 76.0
151.87001 136.0
151.997528 204.0
152.034302 284.0
152.042267 152.0
152.119781 172.0
152.238144 128.0
152.488739 96.0
152.665741 160.0
152.692795 136.0
152.926529 168.0
153.021423 176.0
153.14566 108.0
153.194931 164.0
153.268845 172.0
153.397003 76.0
153.544937 200.0
153.572067 160.0
153.712692 332.0
153.750916 220.0
153.769455 168.0
153.821289 176.0
153.841034 132.0
153.9077 124.0
153.999069 180.0
154.059387 168.0
154.20166 44.0
154.263458 232.0
154.307968 128.0
154.401932 128.0
154.515717 236.0
154.607269 176.0
154.659241 48.0
154.696426 164.0
154.852371 176.0
154.978699 188.0
155.050568 176.0
155.184525 252.0
155.256332 148.0
155.358032 260.0
155.50444 144.0
155.529251 116.0
155.588837 48.0
155.638901 240.0
155.685669 140.0
155.776016 256.0
155.894348 36.0
155.978851 120.0
155.998734 392.0
156.043915 2084.0
156.076096 156.0
156.118088 148.0
156.187714 72.0
156.272308 136.0
156.376816 176.0
156.496307 232.0
156.52121 212.0
156.673141 236.0
156.740417 216.0
156.762833 40.0
156.850067 76.0
156.884964 204.0
156.917374 124.0
157.0504 532.0
157.085587 160.0
157.274109 176.0
157.316544 212.0
157.356491 52.0
157.441391 136.0
157.483841 192.0
157.568787 216.0
157.593765 104.0
157.788712 116.0
157.838715 140.0
157.965668 180.0
157.974289 120.0
157.983063 140.0
157.992035 148.0
158.059494 18788.0
158.102814 56.0
158.138184 108.0
158.191498 72.0
158.22905 28.0
158.254074 144.0
158.27977 124.0
158.351746 112.0
158.385666 176.0
158.46698 184.0
158.496109 184.0
158.609818 48.0
158.631546 168.0
158.657455 152.0
158.692551 56.0
158.727646 128.0
158.845535 144.0
158.875626 108.0
158.979172 172.0
159.011124 56.0
159.043472 7160.0
159.066391 10876.0
159.119858 180.0
159.145187 168.0
159.164261 148.0
159.188477 156.0
159.221832 52.0
159.262207 40.0
159.294861 204.0
159.319977 76.0
159.399078 116.0
159.430542 52.0
159.49707 144.0
159.526047 52.0
159.636688 180.0
159.713394 80.0
159.771103 216.0
159.8255 64.0
159.915939 160.0
160.010452 196.0
160.048157 1940.0
160.11232 128.0
160.152618 136.0
160.210556 44.0
160.273544 72.0
160.324982 268.0
160.421036 84.0
160.545776 52.0
160.661804 72.0
160.714798 196.0
160.853592 88.0
161.04187 288.0
161.082626 92.0
161.118759 68.0
161.142609 164.0
161.161041 128.0
161.229935 156.0
161.308289 100.0
161.357819 204.0
161.417007 216.0
161.434708 88.0
161.525757 84.0
161.739304 132.0
161.761093 164.0
161.862549 164.0
161.918076 152.0
161.938339 84.0
162.021927 108.0
162.052917 504.0
162.103012 80.0
162.209457 152.0
162.277908 204.0
162.498566 92.0
162.523941 68.0
162.620377 116.0
162.650833 204.0
162.688904 48.0
162.899689 132.0
162.940338 148.0
163.040619 188.0
163.061066 280.0
163.329269 216.0
163.50737 180.0
163.530289 156.0
163.550644 180.0
163.624466 60.0
163.670303 124.0
163.700851 160.0
163.823105 136.0
163.9021 176.0
163.968353 48.0
164.032562 168.0
164.141708 64.0
164.201294 152.0
164.343216 52.0
164.384033 184.0
164.426437 156.0
164.481018 172.0
164.675079 124.0
164.692947 116.0
164.869247 72.0
165.039185 720.0
165.133896 140.0
165.176178 164.0
165.263046 144.0
165.29631 92.0
165.329575 164.0
165.3526 156.0
165.475479 168.0
165.503632 172.0
165.731598 200.0
165.752106 200.0
165.885376 168.0
165.949463 188.0
165.97908 108.0
166.138855 204.0
166.462662 64.0
166.588501 124.0
166.799683 204.0
166.822357 112.0
166.953491 100.0
166.971497 120.0
167.025497 100.0
167.049011 144.0
167.185028 184.0
167.357834 176.0
167.384689 172.0
167.455353 80.0
167.563538 124.0
167.666611 152.0
167.772293 232.0
167.836746 140.0
167.96312 68.0
168.04393 1504.0
168.174698 108.0
168.218582 128.0
168.244507 152.0
168.280533 160.0
168.414825 176.0
168.618942 140.0
168.71199 200.0
168.740433 76.0
168.802048 140.0
168.809082 116.0
168.938004 208.0
168.957672 176.0
169.029907 240.0
169.050018 1128.0
169.229431 176.0
169.42627 264.0
169.444397 52.0
169.540176 204.0
169.589523 188.0
169.612839 88.0
169.747665 188.0
169.856583 148.0
169.970749 172.0
170.036667 3124.0
170.058929 8336.0
170.10051 52.0
170.12027 208.0
170.155029 156.0
170.180161 224.0
170.274475 128.0
170.295258 64.0
170.318893 232.0
170.365387 36.0
170.447861 140.0
170.492706 64.0
170.526489 112.0
170.605957 164.0
170.640869 60.0
170.66687 124.0
170.776093 88.0
170.796906 128.0
170.843719 84.0
170.864532 188.0
170.895752 124.0
170.942596 52.0
170.983429 156.0
171.041016 1200.0
171.06218 720.0
171.116989 144.0
171.135223 156.0
171.161255 180.0
171.261261 180.0
171.304504 108.0
171.372238 216.0
171.575531 180.0
171.598984 108.0
171.72937 132.0
171.796051 192.0
171.848648 188.0
171.912003 392.0
171.946548 100.0
171.986298 388.0
172.038956 31280.0
172.117966 60.0
172.148285 176.0
172.168213 84.0
172.204407 152.0
172.22406 148.0
172.270096 80.0
172.298447 84.0
172.335526 144.0
172.367264 84.0
172.397736 128.0
172.439545 64.0
172.470917 108.0
172.510117 32.0
172.535187 68.0
172.648697 148.0
172.693161 84.0
172.715591 76.0
172.803024 36.0
172.839661 44.0
172.95816 72.0
172.991455 44.0
173.042023 3468.0
173.080475 116.0
173.138092 212.0
173.240234 148.0
173.394836 40.0
173.476089 180.0
173.512787 44.0
173.595047 108.0
173.625549 180.0
173.701599 144.0
173.780304 100.0
173.93515 140.0
174.025742 404.0
174.047379 364.0
174.089645 180.0
174.139954 84.0
174.225372 184.0
174.294952 148.0
174.321228 124.0
174.40303 96.0
174.428986 204.0
174.581482 192.0
174.607773 80.0
174.876144 196.0
174.931412 184.0
175.040634 148.0
175.046967 112.0
175.055679 140.0
175.152603 120.0
175.360764 236.0
175.410843 92.0
175.472443 132.0
175.658722 120.0
175.690369 136.0
176.031433 200.0
176.086319 148.0
176.174957 180.0
176.210464 148.0
176.295029 48.0
176.313522 200.0
176.339951 40.0
176.411316 52.0
176.454666 172.0
176.546173 176.0
176.583191 120.0
176.70195 184.0
176.805435 68.0
176.847778 152.0
177.154938 80.0
177.189377 148.0
177.210236 156.0
177.231766 72.0
177.316574 168.0
177.430557 244.0
177.632095 144.0
177.958466 180.0
178.045135 156.0
178.085999 172.0
178.180099 124.0
178.221481 144.0
178.282593 188.0
178.367645 176.0
178.387802 100.0
178.623535 208.0
178.694748 132.0
178.755951 252.0
178.798523 100.0
178.934006 152.0
179.112701 160.0
179.29213 240.0
179.421829 188.0
179.677856 72.0
179.840637 120.0
179.875336 48.0
180.016846 168.0
180.05423 168.0
180.101044 136.0
180.150391 168.0
180.447037 172.0
180.931274 104.0
180.976791 212.0
181.174988 68.0
181.244644 148.0
181.338013 152.0
181.403931 260.0
181.432266 208.0
181.552917 132.0
181.604706 220.0
181.660202 96.0
181.779907 176.0
182.027908 156.0
182.159515 148.0
182.21376 164.0
182.285782 168.0
182.347595 184.0
182.86937 128.0
182.99649 200.0
183.068604 104.0
183.103607 160.0
183.127853 168.0
183.149399 128.0
183.285599 172.0
183.354172 144.0
183.532074 220.0
183.590378 188.0
183.699295 132.0
183.799118 208.0
183.831497 176.0
183.998856 128.0
184.038971 852.0
184.076569 220.0
184.201385 160.0
184.220291 140.0
184.247314 80.0
184.28476 144.0
184.341888 168.0
184.388901 272.0
184.723099 164.0
184.760971 160.0
184.869202 176.0
184.95311 144.0
185.046906 5496.0
185.083755 120.0
185.134506 108.0
185.207626 32.0
185.283478 156.0
185.305161 148.0
185.364761 204.0
185.418961 112.0
185.484024 200.0
185.522614 204.0
185.550217 220.0
185.588074 316.0
185.616867 96.0
185.648239 100.0
185.681946 124.0
185.757889 44.0
185.786957 152.0
185.866425 168.0
185.889648 300.0
185.930649 96.0
185.939682 64.0
185.968384 188.0
185.998764 204.0
186.054764 56744.0
186.104675 144.0
186.133514 212.0
186.150116 172.0
186.202118 188.0
186.264145 76.0
186.292831 200.0
186.327835 68.0
186.345657 64.0
186.35582 96.0
186.39212 100.0
186.435257 76.0
186.500504 112.0
186.545395 60.0
186.568863 84.0
186.5979 116.0
186.629684 40.0
186.656525 124.0
186.666306 60.0
186.67746 140.0
186.705597 144.0
186.740112 164.0
186.765656 164.0
186.80983 232.0
186.844543 100.0
186.890793 44.0
186.93161 212.0
186.961548 100.0
186.987076 180.0
187.062103 46724.0
187.114655 316.0
187.169174 184.0
187.225616 52.0
187.254761 80.0
187.273315 208.0
187.308212 76.0
187.340805 56.0
187.362503 104.0
187.387573 84.0
187.409927 176.0
187.436584 220.0
187.47583 76.0
187.510086 120.0
187.540848 148.0
187.562958 148.0
187.629288 56.0
187.65155 168.0
187.713425 40.0
187.746826 84.0
187.782593 96.0
187.814331 116.0
187.857971 180.0
187.889069 80.0
187.934372 68.0
187.956192 396.0
187.978027 156.0
188.002579 68.0
188.032471 432.0
188.06456 5104.0
188.128143 168.0
188.171814 60.0
188.193665 88.0
188.2155 136.0
188.257416 128.0
188.327377 160.0
188.362991 116.0
188.39827 140.0
188.42308 44.0
188.454849 128.0
188.465469 140.0
188.485077 172.0
188.532562 128.0
188.559525 56.0
188.592773 84.0
188.61438 132.0
188.718262 64.0
188.759277 108.0
188.841324 132.0
188.871414 128.0
188.956207 108.0
189.013672 72.0
189.037643 168.0
189.067139 648.0
189.101242 116.0
189.155991 136.0
189.186096 140.0
189.224426 64.0
189.249069 60.0
189.302353 112.0
189.330597 88.0
189.355865 80.0
189.41452 108.0
189.463181 136.0
189.490585 112.0
189.532333 116.0
189.565262 288.0
189.602448 124.0
189.638077 152.0
189.673706 264.0
189.825409 120.0
189.874771 108.0
189.914993 92.0
189.934204 188.0
190.00827 44.0
190.047989 960.0
190.11528 120.0
190.134491 120.0
190.172913 40.0
190.221466 192.0
190.290955 44.0
190.318405 68.0
190.400787 176.0
190.494186 56.0
190.513412 164.0
190.569183 80.0
190.79097 64.0
190.950455 176.0
191.060822 260.0
191.663773 140.0
191.823303 44.0
191.853622 48.0
191.997009 56.0
192.049408 152.0
192.239777 128.0
192.388824 176.0
192.836975 176.0
193.087906 92.0
193.195786 252.0
193.22345 112.0
193.411621 172.0
193.519592 144.0
193.588821 160.0
193.613739 148.0
193.713455 148.0
193.904633 172.0
194.021057 44.0
194.15416 68.0
194.256775 180.0
194.40918 164.0
194.453781 204.0
194.542603 112.0
194.742538 216.0
194.867538 88.0
194.917557 136.0
194.94812 152.0
195.262268 160.0
195.295654 108.0
195.418045 140.0
195.573898 124.0
195.846756 48.0
196.044601 592.0
196.150482 116.0
196.359604 148.0
196.390289 44.0
196.487915 108.0
196.554886 104.0
196.775391 108.0
196.814468 112.0
196.973663 52.0
197.046387 480.0
197.102173 220.0
197.18602 176.0
197.244705 204.0
197.289444 200.0
197.373322 96.0
197.507553 104.0
197.700607 92.0
197.7202 172.0
197.767776 28.0
197.809769 224.0
197.888565 108.0
197.938553 196.0
197.969345 168.0
198.053284 4908.0
198.15239 184.0
198.204651 224.0
198.493378 48.0
198.813171 64.0
198.931061 200.0
199.058502 1124.0
199.175354 48.0
199.203445 148.0
199.24559 92.0
199.304596 140.0
199.357986 68.0
199.38327 108.0
199.476028 148.0
199.521011 92.0
199.68129 48.0
199.731918 184.0
199.937302 32.0
199.976715 36.0
199.999222 60.0
200.033951 8108.0
200.128723 60.0
200.342773 52.0
200.388824 112.0
200.410385 96.0
200.461655 208.0
200.520294 68.0
200.583664 140.0
200.97995 120.0
201.035034 1720.0
201.081543 316.0
201.185974 164.0
201.208572 128.0
201.341278 84.0
201.406097 76.0
201.533371 84.0
201.572037 164.0
201.970612 120.0
202.022476 152.0
202.045914 540.0
202.085388 532.0
202.121506 116.0
202.183762 100.0
202.5112 104.0
202.580154 60.0
202.619827 104.0
202.642487 152.0
202.716156 92.0
202.812515 48.0
203.028 132.0
203.053513 84.0
203.076202 188.0
203.10173 248.0
203.32872 80.0
203.59758 172.0
203.660904 100.0
203.905258 176.0
203.953568 56.0
204.052322 168.0
204.060867 124.0
204.09288 72.0
204.419998 156.0
204.502533 88.0
204.616394 60.0
204.867004 144.0
204.909744 88.0
205.040817 196.0
205.268875 156.0
205.29454 116.0
205.320221 128.0
205.622635 148.0
205.7939 116.0
205.862442 60.0
205.950974 56.0
206.002396 80.0
206.222412 160.0
206.422531 76.0
206.465424 172.0
207.289886 156.0
207.338608 196.0
207.456131 72.0
207.547684 180.0
207.599487 220.0
207.662582 148.0
207.820358 112.0
207.986816 64.0
208.070068 196.0
208.227997 168.0
208.282562 200.0
208.429092 108.0
208.949509 132.0
209.39856 100.0
209.582932 116.0
209.72702 100.0
209.845215 56.0
209.91153 196.0
209.96344 168.0
210.332748 60.0
210.376053 108.0
210.572403 184.0
211.060791 176.0
211.15332 160.0
211.208282 172.0
211.263245 144.0
211.352631 156.0
211.381866 232.0
211.454224 92.0
211.645279 60.0
211.711746 180.0
211.784286 248.0
211.885681 132.0
211.98999 220.0
212.033813 7420.0
212.076935 136.0
212.221878 216.0
212.276978 108.0
212.334976 112.0
212.35527 76.0
212.494522 80.0
212.532242 156.0
212.564148 148.0
212.598907 180.0
212.639603 80.0
212.700851 180.0
212.810883 148.0
212.834106 132.0
212.915421 72.0
213.035492 1200.0
213.077454 56.0
213.093216 152.0
213.159439 108.0
213.244461 188.0
213.265976 200.0
213.296036 32.0
213.354172 76.0
213.389069 68.0
213.462234 72.0
213.566452 112.0
213.662445 184.0
213.708038 244.0
213.750565 168.0
213.807938 56.0
213.857422 188.0
213.877792 228.0
213.903992 56.0
213.978119 308.0
214.049515 37716.0
214.144119 128.0
214.170013 96.0
214.217209 156.0
214.249649 124.0
214.287064 104.0
214.32164 88.0
214.387482 104.0
214.407578 68.0
214.435303 232.0
214.469086 88.0
214.501144 160.0
214.535461 140.0
214.558609 56.0
214.592438 204.0
214.652481 132.0
214.70816 28.0
214.741043 56.0
214.784851 68.0
214.797348 76.0
214.821274 216.0
214.850464 112.0
214.855957 212.0
214.888489 228.0
214.912354 104.0
214.938309 372.0
214.987457 228.0
215.057358 102116.0
215.143585 92.0
215.168747 88.0
215.201553 288.0
215.252411 120.0
215.275894 148.0
215.323959 44.0
215.351974 216.0
215.384766 88.0
215.420563 112.0
215.468628 40.0
215.502029 100.0
215.536407 184.0
215.562851 88.0
215.630005 80.0
215.679306 84.0
215.734146 72.0
215.757828 60.0
215.817978 76.0
215.892731 104.0
215.917252 44.0
215.949417 64.0
215.974869 120.0
216.011734 132.0
216.06015 9092.0
216.130249 112.0
216.148499 148.0
216.177933 36.0
216.234283 44.0
216.258591 104.0
216.283585 180.0
216.333542 160.0
216.356155 60.0
216.406509 152.0
216.470154 132.0
216.529785 68.0
216.575775 52.0
216.608002 68.0
216.631439 72.0
216.672455 56.0
216.72644 64.0
216.756363 132.0
216.777725 152.0
216.797424 80.0
216.812012 188.0
216.874649 76.0
216.902008 132.0
216.934952 112.0
216.983109 96.0
217.03212 420.0
217.061691 1448.0
217.115067 132.0
217.252319 116.0
217.317978 144.0
217.340942 76.0
217.367355 84.0
217.399628 72.0
217.463318 132.0
217.499756 152.0
217.543442 40.0
217.599228 120.0
217.631531 80.0
217.654541 100.0
217.663589 100.0
217.675186 92.0
217.68251 88.0
217.737244 136.0
217.792099 124.0
217.804031 140.0
217.833054 84.0
217.889984 40.0
217.945816 68.0
217.966385 80.0
218.059708 140.0
218.101562 76.0
218.157425 120.0
218.422073 72.0
218.542694 108.0
218.621017 104.0
218.657455 60.0
219.22879 76.0
219.25531 92.0
219.411545 76.0
219.47345 80.0
219.591415 68.0
219.818573 104.0
220.376648 56.0
220.491898 84.0
220.769791 72.0
221.574905 64.0
222.473495 96.0
222.94577 80.0
222.98143 56.0
223.445312 72.0
223.542648 124.0
223.632782 44.0
223.826294 84.0
224.100327 80.0
224.449066 52.0
224.657837 104.0
225.039856 44.0
225.147354 56.0
225.239944 156.0
225.413223 44.0
225.565643 76.0
225.631424 76.0
225.843735 40.0
225.930481 68.0
226.361481 52.0
226.723969 40.0
226.804886 80.0
227.146729 64.0
227.191727 76.0
227.215714 76.0
227.293732 68.0
227.756073 132.0
227.891251 88.0
228.035492 284.0
228.667099 44.0
228.974197 136.0
229.020432 184.0
229.09166 280.0
229.133835 164.0
229.163971 156.0
229.215195 164.0
229.432205 112.0
229.463196 100.0
229.803162 84.0
229.86113 228.0
229.917831 176.0
230.039474 736.0
230.079758 18216.0
230.175873 92.0
230.320465 192.0
230.363998 52.0
230.400955 48.0
230.428146 80.0
230.591324 32.0
230.633636 116.0
230.815033 84.0
230.896683 108.0
230.97229 88.0
231.041962 132.0
231.083801 2704.0
231.511032 48.0
231.630264 76.0
232.089294 248.0
232.195953 40.0
232.226273 64.0
232.365814 92.0
232.672852 108.0
232.719696 148.0
232.86972 128.0
232.915283 80.0
232.971313 108.0
233.143158 60.0
233.310333 168.0
233.793961 72.0
234.857269 68.0
237.564423 68.0
240.055756 28.0
240.685257 44.0
246.19104 92.0
247.739304 40.0
248.087143 40.0
249.760864 100.0
251.642242 48.0
254.107773 48.0
254.387054 52.0
255.162201 92.0
255.677521 68.0
256.687347 104.0
260.216644 124.0
260.875244 112.0
261.299744 76.0
263.805573 56.0
274.799011 120.0
274.891388 72.0
276.173248 48.0
276.391602 36.0
276.841797 88.0
280.319916 92.0
284.705627 72.0
284.860138 64.0
290.002563 116.0
296.329834 68.0
297.290955 96.0
301.333466 72.0
301.803528 100.0
303.132721 60.0
303.774139 92.0
303.826172 112.0
303.968445 84.0
304.534332 64.0
308.803955 88.0
311.056976 76.0
318.934143 80.0
319.666809 76.0
320.272034 60.0
320.728119 40.0
322.798828 32.0
324.345459 56.0
325.899414 140.0
326.017975 108.0
327.457062 56.0
328.513184 84.0
329.64328 72.0
329.675812 56.0
329.798676 100.0
329.849304 88.0
332.1922 64.0
332.580444 80.0
334.422363 80.0
335.804138 56.0
344.860992 112.0
345.587006 44.0
350.566498 68.0
350.69693 80.0
351.136902 84.0
351.162994 68.0
351.905609 84.0
352.140869 68.0
365.676849 56.0
366.533691 44.0
366.644226 112.0
366.808105 144.0
366.979645 92.0
370.315765 116.0
371.365967 60.0
373.274658 72.0
375.512146 104.0
375.774475 132.0
376.666229 80.0
384.704651 64.0
389.442719 76.0
392.279785 32.0
395.249786 60.0
396.588379 112.0
397.028442 88.0
399.399567 76.0
411.781006 48.0
413.685516 84.0
416.58905 64.0
420.000244 84.0
420.563324 72.0
428.589111 120.0
429.368225 68.0
443.018799 60.0
444.57019 124.0
445.220886 40.0
447.466309 140.0
447.5 120.0
453.7742 100.0
459.554352 76.0
461.912567 80.0
462.978302 68.0
463.818085 80.0
465.912201 104.0
469.208832 100.0
470.943573 72.0
475.645935 80.0
475.776154 68.0
491.131866 168.0
493.410492 108.0
493.980957 52.0
495.122925 76.0
501.177673 36.0
506.753845 112.0
507.986725 32.0
508.202057 92.0
514.42627 84.0
519.50824 40.0
533.528564 88.0
547.94989 80.0
551.197327 120.0
554.004578 100.0
561.265991 152.0
561.83197 68.0
563.767883 32.0
563.938049 68.0
564.098755 48.0
570.517456 76.0
571.254578 44.0
571.487671 88.0
575.653748 20.0
576.207825 104.0
586.800293 116.0
593.909058 52.0
603.082458 132.0
607.312866 88.0
612.139038 72.0
612.247375 160.0
628.147949 56.0
628.65686 72.0
636.014038 124.0
638.269714 84.0
647.459167 132.0
647.859314 36.0
657.362244 52.0
682.011963 100.0
684.983154 72.0
703.109314 60.0
722.02832 96.0
735.649353 176.0
751.5896 84.0
785.080933 72.0
786.849731 52.0
795.268982 68.0
802.988403 180.0
803.157593 192.0
828.471375 76.0
830.01886 20.0
831.292358 164.0
831.682617 36.0
849.727966 52.0
853.671936 168.0
876.113159 92.0
878.412231 172.0
879.427124 36.0
881.606445 192.0
886.032349 108.0
886.862 172.0
900.773926 56.0
914.932617 64.0
917.155457 128.0
925.322815 120.0
942.554321 152.0
950.011597 124.0
950.287659 88.0
950.539246 164.0
952.503845 172.0
954.009399 204.0
957.091797 140.0
960.617065 204.0
974.360535 100.0
979.99115 200.0
981.599304 132.0
982.616028 72.0
984.338684 132.0
987.438416 112.0
987.644775 84.0
988.589539 140.0
988.758484 200.0
989.691223 216.0
993.006287 108.0
999.37616 44.0
999.539734 64.0
1000.307556 172.0
1000.811218 200.0
1006.972351 176.0
1010.657837 160.0
1012.689941 60.0
1027.494995 164.0
1030.220947 176.0
1031.435059 112.0
1036.362915 208.0
1037.119141 156.0
1038.177002 160.0
1039.453491 124.0
1043.217285 180.0
1044.927856 88.0
1046.536987 68.0
1046.794556 120.0
1049.391235 104.0
1052.52063 192.0
1056.391968 72.0
1058.58606 132.0
1062.94873 236.0
1068.094238 176.0
1072.619751 160.0
1073.232544 192.0
1076.005493 80.0
1077.298584 188.0
1077.775513 248.0
1078.847412 80.0
1082.661987 228.0
1085.952026 184.0
1088.833374 148.0
1089.358765 132.0
1092.816895 144.0
1093.232178 168.0
1095.279053 104.0
1096.965942 196.0
1098.027466 112.0
1099.907959 160.0
1103.25708 144.0
1104.063843 96.0
1104.976685 68.0
1107.286865 208.0
1114.823242 188.0
1117.216919 108.0
1119.799683 160.0
1121.611938 228.0
1122.245239 104.0
1122.612061 116.0
1126.015625 208.0
1128.581665 172.0
1129.076538 196.0
1131.960815 120.0
1147.212524 228.0
1148.433105 168.0
1150.113159 92.0
1150.693726 212.0
1151.031372 40.0
1151.41626 56.0
1151.760742 96.0
1157.021851 224.0
1162.11853 184.0
1164.317871 92.0
1166.566895 208.0
1168.511963 80.0
1169.430542 56.0
1173.333862 140.0
1175.182129 188.0
1178.28186 132.0
1178.643921 140.0
1180.511108 144.0
1182.815796 48.0
1184.208374 112.0
1184.370117 136.0
1184.644165 240.0
1187.67395 216.0
1193.387573 168.0
1193.587036 136.0
1193.999634 164.0
1199.369995 252.0
1200.149048 84.0
1201.300781 164.0
1202.563477 52.0
1204.648804 136.0
1204.890625 84.0
1205.090942 140.0
1205.623047 148.0
1209.011719 112.0
1210.243896 92.0
1211.393555 156.0
1212.543701 76.0
1215.838013 140.0
1216.546021 64.0
1218.108521 68.0
1219.095093 152.0
1221.834595 168.0
1225.479248 200.0
1226.068237 144.0
1227.253296 208.0
1230.029907 204.0
1232.047974 148.0
1235.858398 232.0
1237.993408 136.0
1238.644775 156.0
1244.950073 212.0
1245.799927 124.0
1248.070068 240.0
1250.039673 188.0
1250.491699 156.0
1250.687134 68.0
1250.94751 168.0
1251.046143 164.0
1252.96167 228.0
1253.433716 124.0
1255.181885 124.0
1255.583862 176.0
1257.989868 152.0
1260.151001 180.0
1260.670044 224.0
1264.506958 144.0
1265.483887 76.0
1265.547607 172.0
1265.717529 40.0
1265.866211 164.0
1265.915771 128.0
1266.638184 104.0
1267.509644 88.0
1268.572754 188.0
1270.047607 140.0
1270.969971 140.0
1272.417847 208.0
1276.389648 104.0
1276.958496 284.0
1277.364014 152.0
1277.413818 160.0
1278.409912 172.0
1279.029053 208.0
1279.763062 184.0
1280.481567 176.0
1281.115479 164.0
1282.865356 156.0
1284.430298 164.0
1287.177979 208.0
1287.542114 56.0
1289.070923 176.0
1289.934082 156.0
1292.510498 152.0
1294.006348 148.0
1295.524658 152.0
1296.499146 156.0
1298.348755 100.0
1298.41333 204.0
1299.302734 44.0
1299.819336 140.0
1302.640869 156.0
1304.32959 148.0
1305.465576 236.0
1305.825195 184.0
1305.88269 168.0
1306.515625 132.0
1309.963989 156.0
1310.374634 112.0
1310.432251 160.0
1311.124023 124.0
1312.847046 164.0
1314.094849 68.0
1314.181519 120.0
1314.744263 144.0
1316.361328 108.0
1316.563599 120.0
1317.71936 144.0
1317.784302 56.0
1319.555054 124.0
1319.800903 92.0
1321.732178 96.0
1322.658569 144.0
1325.526489 116.0
1325.968628 144.0
1327.469238 196.0
1327.570801 148.0
1327.657837 160.0
1328.252563 52.0
1329.036011 160.0
1330.378784 116.0
1331.88916 152.0
1332.012573 92.0
1332.412231 152.0
1332.484863 236.0
1333.029907 172.0
1333.785645 76.0
1334.054565 64.0
1334.294067 204.0
1334.570801 112.0
1337.378906 216.0
1338.143188 172.0
1338.834961 212.0
1340.022339 148.0
1340.255493 68.0
1342.894409 164.0
1344.149292 164.0
1344.740356 208.0
1345.032349 192.0
1346.616821 200.0
1346.792114 168.0
1347.047729 180.0
1347.624878 180.0
1347.939087 152.0
1348.216797 180.0
1350.037109 224.0
1353.359253 212.0
1353.886475 148.0
1354.003052 152.0
1354.296631 96.0
1355.512695 80.0
1355.945068 240.0
1356.20166 48.0
1357.829346 228.0
1358.027344 144.0
1358.335449 120.0
1358.848877 208.0
1359.230469 116.0
1359.56897 224.0
1360.771851 148.0
1361.866089 104.0
1362.630005 208.0
1365.570435 112.0
1367.16687 132.0
1368.359375 120.0
1369.103027 124.0
1369.434448 88.0
1369.670166 184.0
1370.826904 156.0
1371.025879 216.0
1371.549194 148.0
1371.726074 96.0
1372.301147 276.0
1372.95459 172.0
1373.842529 128.0
1375.532349 156.0
1375.975342 188.0
1376.691528 224.0
1377.090332 156.0
1377.592651 188.0
1377.814331 204.0
1382.065552 136.0
1382.531738 72.0
1382.820435 180.0
1383.419922 164.0
1384.049316 88.0
1384.138184 140.0
1384.226929 160.0
1384.471313 172.0
1385.54541 116.0
1385.671387 176.0
1385.723145 88.0
1386.26416 220.0
1386.575317 144.0
1386.797729 200.0
1387.605713 172.0
1388.836792 72.0
1388.970215 116.0
1389.118652 136.0
1391.968628 188.0
1392.213623 144.0
1392.951538 236.0
1393.335327 124.0
1395.141235 176.0
1395.862427 168.0
1397.342529 180.0
1399.63501 100.0
1400.930908 396.0
1402.376587 140.0
1405.725098 40.0
1406.202759 144.0
1406.672974 208.0
1407.083618 136.0
1407.329956 100.0
1407.441895 228.0
1408.173828 156.0
1408.494995 164.0
1409.727783 116.0
1410.093872 144.0
1410.505005 156.0
1411.319946 160.0
1411.394653 164.0
1412.037842 184.0
1415.134155 272.0
1416.57373 192.0
1416.978271 140.0
1417.030762 36.0
1417.442871 84.0
1417.615234 120.0
1418.544556 248.0
1419.399292 156.0
1419.714233 176.0
1420.374268 160.0
1421.12439 64.0
1422.76062 144.0
1423.203491 156.0
1423.278687 132.0
1424.247437 188.0
1424.953613 168.0
1425.933716 312.0
1426.268677 108.0
1426.967773 208.0
1427.501709 132.0
1427.644531 124.0
1428.644897 176.0
1430.292847 180.0
1430.383179 168.0
1430.571411 188.0
1430.684326 220.0
1431.776123 180.0
1432.032227 136.0
1432.122559 132.0
1433.320435 172.0
1433.471191 216.0
1433.591675 192.0
1433.825317 116.0
1433.88562 76.0
1435.853394 260.0
1436.072144 132.0
1436.577515 108.0
1437.226318 132.0
1438.018677 144.0
1438.139526 128.0
1438.31311 156.0
1438.894409 160.0
1439.35498 156.0
1439.830688 116.0
1440.170532 148.0
1441.915894 164.0
1442.029175 220.0
1443.479858 156.0
1444.297485 200.0
1444.547119 64.0
1444.872437 172.0
1446.93103 136.0
1447.112671 124.0
1447.271729 132.0
1447.869995 144.0
1448.028931 176.0
1448.112305 196.0
1448.395142 152.0
1449.044067 164.0
1450.218628 108.0
1450.749268 208.0
1456.653076 176.0
1457.412842 160.0
1457.70166 72.0
1457.876343 152.0
1458.560425 124.0
1459.700806 180.0
1459.913696 172.0
1460.0354 216.0
1460.309204 184.0
1460.87207 152.0
1461.024292 164.0
1462.097168 168.0
1462.827881 120.0
1462.911621 152.0
1463.244385 172.0
1464.503052 184.0
1465.219116 104.0
1465.417114 180.0
1466.27063 60.0
1466.933716 164.0
1468.146118 208.0
1470.289795 52.0
1470.419556 132.0
1471.434814 220.0
1472.511475 164.0
1473.053833 148.0
1473.321167 180.0
1473.557983 64.0
1473.871216 188.0
1474.177246 212.0
1474.650757 160.0
1475.139893 108.0
1476.340332 180.0
1479.645874 188.0
1480.38855 156.0
1480.488159 116.0
1482.073853 176.0
1482.196411 188.0
1483.077759 152.0
1483.706299 184.0
1483.921021 168.0
1483.974731 152.0
1484.189331 252.0
1484.526733 136.0
1485.424072 172.0
1485.97644 80.0
1486.413818 84.0
1486.95874 76.0
1487.265747 108.0
1489.024536 160.0
1489.7229 80.0
1489.891968 172.0
1491.252075 168.0
1491.820923 140.0
1492.289795 196.0
1492.528198 144.0
1494.043335 140.0
1494.120239 72.0
1494.289551 156.0
1494.689697 92.0
1495.359131 152.0
1495.643921 88.0
1495.76709 188.0
1496.16748 76.0
1496.44458 196.0
1497.615112 72.0
1497.746094 228.0
1498.200562 196.0
1498.647339 188.0
1499.017212 196.0
1500.003784 140.0
1500.851807 112.0
1501.325684 160.0
1501.50647 172.0
1501.75415 144.0
1501.916138 100.0
1502.263184 108.0
1503.3125 160.0
1503.48999 132.0
1503.682983 168.0
1503.783325 188.0
1503.891357 124.0
